timestamps,TP9,AF7,AF8,TP10,Right AUX
1678025767.566,19.531,-29.297,-39.062,21.973,-105.469
1678025767.570,1.953,-25.879,-9.277,18.555,17.090
1678025767.574,-30.762,-33.203,-5.859,-7.324,-36.133
1678025767.578,-32.227,-45.410,-18.555,-13.184,-101.562
1678025767.582,-15.137,-24.902,-15.625,-0.488,-107.422
1678025767.586,11.719,-13.184,-5.371,23.438,67.383
1678025767.590,7.324,-12.207,-16.602,23.926,175.293
1678025767.593,-15.625,-7.812,-22.949,-14.648,-67.871
1678025767.597,-39.551,-17.090,-20.508,-31.738,-205.078
1678025767.601,-35.156,-34.180,-25.391,-19.531,-118.652
1678025767.605,1.953,-25.391,-22.461,15.137,314.453
1678025767.609,9.766,-15.625,-23.926,19.043,372.559
1678025767.613,-17.578,-33.203,-37.598,-41.992,-55.664
1678025767.617,-43.457,-23.438,-39.551,-85.938,-230.957
1678025767.621,-34.180,-17.090,-20.996,-58.105,-188.965
1678025767.625,-18.555,-33.203,-31.250,-28.809,-102.051
1678025767.629,-13.184,-26.367,-36.133,-21.484,-18.066
1678025767.633,-22.949,-20.996,-30.762,-39.551,64.453
1678025767.637,-41.016,-25.879,-28.809,-53.711,7.324
1678025767.640,-28.320,-27.832,-8.789,-41.504,-40.039
1678025767.644,-8.789,-30.762,-7.324,-17.578,-45.410
1678025767.648,-6.348,-36.621,-18.066,4.395,66.406
1678025767.652,-14.648,-28.809,-15.137,-5.859,40.039
1678025767.656,-30.762,-23.926,-19.531,-34.180,-249.023
1678025767.671,-17.578,-20.996,-22.949,-35.156,-295.898
1678025767.675,3.906,-8.789,-17.090,2.441,75.684
1678025767.679,-11.719,-18.066,-19.531,20.020,185.059
1678025767.683,-24.902,-31.738,-33.691,-3.418,-112.305
1678025767.687,-16.113,-22.949,-38.574,-21.973,-211.426
1678025767.691,-21.484,-1.953,-24.414,-21.484,34.668
1678025767.695,-8.301,-4.395,-12.695,3.906,60.547
1678025767.698,11.230,-15.137,-7.324,21.973,-39.551
1678025767.702,-24.902,-20.020,-20.020,-8.789,122.559
1678025767.706,-57.129,-19.043,-34.668,-18.555,287.109
1678025767.710,-50.293,-13.672,-22.949,-17.578,36.621
1678025767.714,-31.250,-27.832,-6.836,-4.883,-226.562
1678025767.716,-18.555,-21.973,-7.812,18.555,-69.824
1678025767.720,-24.902,-0.488,-15.625,5.859,-52.734
1678025767.724,-39.551,-7.324,-15.137,-9.277,-225.098
1678025767.728,-47.363,-23.926,-21.484,-5.371,-305.176
1678025767.732,-31.738,-31.250,-20.996,30.762,-213.867
1678025767.736,-10.254,-30.762,-14.648,62.500,-58.594
1678025767.740,-9.766,-19.531,-25.879,46.387,59.570
1678025767.743,-33.691,-14.160,-21.973,10.742,-63.965
1678025767.747,-49.805,-17.090,-8.301,2.441,0.488
1678025767.751,-28.320,-7.812,-5.371,28.320,163.086
1678025767.755,-8.789,-15.137,-7.324,48.828,50.781
1678025767.759,-5.371,-20.020,-13.184,56.152,-37.598
1678025767.761,-36.621,-15.625,-16.602,38.574,-101.562
1678025767.765,-35.156,-22.949,-14.648,36.133,-184.570
1678025767.769,-2.930,-19.043,-20.020,55.176,-236.328
1678025767.773,-2.930,-14.160,-21.973,57.129,-29.785
1678025767.777,-13.672,-20.020,-18.066,52.734,105.957
1678025767.781,-36.621,-22.461,-18.066,15.137,-19.531
1678025767.785,-40.527,-26.855,-18.555,1.953,-85.938
1678025767.788,-30.273,-24.414,-15.625,31.250,-50.293
1678025767.792,-19.531,-25.391,-15.625,46.875,341.797
1678025767.796,-0.488,-20.996,-17.090,62.988,275.879
1678025767.800,-26.855,-15.137,-22.461,42.480,-167.969
1678025767.804,-58.105,-10.254,-18.066,19.043,-277.344
1678025767.807,-46.387,-5.371,-12.695,34.180,-193.848
1678025767.811,-19.531,-14.648,-24.414,50.781,-100.586
1678025767.815,-2.930,-14.648,-20.996,56.152,-92.285
1678025767.819,-19.531,-20.996,-13.672,45.898,26.855
1678025767.823,-38.086,-22.949,-16.602,34.668,-86.914
1678025767.827,-32.227,-6.348,-20.508,31.250,-150.879
1678025767.831,-14.160,-11.230,-22.949,32.715,-57.129
1678025767.834,-9.766,-21.484,-27.832,45.410,209.473
1678025767.838,-24.902,-23.926,-32.715,32.715,244.629
1678025767.842,-44.922,-22.461,-25.391,2.441,-178.223
1678025767.846,-53.711,-21.973,-18.066,7.324,-198.730
1678025767.850,-39.062,-31.250,-11.719,30.762,-83.984
1678025767.853,-11.719,-27.832,-15.137,50.293,-47.363
1678025767.857,-17.090,-10.742,-23.438,47.363,-81.055
1678025767.861,-35.645,-21.973,-17.578,37.598,-119.629
1678025767.865,-34.180,-40.039,-24.902,21.973,-109.863
1678025767.869,-34.668,-39.062,-41.504,0.977,-105.957
1678025767.873,-22.949,-32.227,-36.133,19.531,-6.836
1678025767.877,-24.902,-30.273,-37.598,11.719,-12.695
1678025767.880,-55.664,-45.410,-45.898,-12.695,207.520
1678025767.884,-52.246,-40.039,-43.945,3.418,183.105
1678025767.888,-31.250,-12.695,-43.457,24.414,-98.633
1678025767.892,-41.016,-20.020,-36.133,20.508,-18.555
1678025767.896,-57.617,-33.691,-21.973,9.277,7.324
1678025767.897,-72.266,-26.855,-20.020,-8.301,-152.344
1678025767.901,-72.266,-23.926,-30.762,-18.555,-224.609
1678025767.905,-62.012,-29.297,-31.738,-2.441,-112.793
1678025767.909,-58.105,-42.969,-30.273,4.395,-36.621
1678025767.913,-55.176,-45.898,-33.691,-4.883,-21.484
1678025767.917,-64.941,-37.109,-37.109,-24.902,-102.051
1678025767.921,-64.941,-34.180,-45.410,-39.062,52.246
1678025767.924,-47.363,-37.109,-38.574,-12.695,299.805
1678025767.928,-43.945,-36.621,-26.855,9.277,-0.488
1678025767.932,-59.570,-39.551,-29.297,0.000,-85.449
1678025767.936,-71.289,-28.809,-34.180,-17.090,-68.848
1678025767.940,-72.754,-23.926,-33.203,-30.762,-274.414
1678025767.941,-51.270,-25.879,-39.551,-26.367,-291.504
1678025767.945,-17.090,-26.367,-45.898,5.859,-112.793
1678025767.949,-15.137,-43.945,-33.203,32.227,-25.879
1678025767.953,-41.016,-33.691,-23.926,8.789,-129.395
1678025767.957,-65.918,-14.648,-32.227,-15.625,-260.254
1678025767.961,-61.035,-20.996,-20.996,-2.930,-115.723
1678025767.965,-47.852,-22.949,-18.555,8.789,209.961
1678025767.968,-46.387,-21.484,-35.156,-0.977,142.578
1678025767.972,-61.035,-28.320,-38.086,-26.855,-26.367
1678025767.976,-79.590,-38.574,-35.156,-37.109,-13.184
1678025767.980,-58.105,-40.527,-31.738,-16.113,88.867
1678025767.984,-30.762,-36.133,-30.273,10.254,30.762
1678025768.001,-32.715,-38.086,-33.203,9.277,-30.273
1678025768.005,-51.270,-28.320,-32.715,-9.766,-37.109
1678025768.009,-59.082,-20.020,-23.438,-20.020,-145.508
1678025768.013,-44.922,-29.785,-22.949,-16.602,-185.059
1678025768.017,-22.949,-31.250,-37.598,1.953,-116.699
1678025768.021,-31.250,-33.203,-50.293,4.883,88.379
1678025768.025,-58.594,-31.250,-46.875,-9.277,68.848
1678025768.028,-63.477,-31.738,-42.480,-24.902,-180.664
1678025768.032,-53.711,-27.832,-41.992,-21.973,-285.156
1678025768.036,-29.785,-19.043,-29.297,7.324,83.008
1678025768.040,-8.789,-17.578,-22.461,15.625,317.871
1678025768.044,-26.855,-20.996,-25.879,-14.160,-26.855
1678025768.046,-62.988,-30.762,-36.133,-43.945,-204.102
1678025768.050,-62.500,-23.926,-42.480,-33.691,-169.434
1678025768.054,-39.062,-21.484,-37.109,-5.859,-99.121
1678025768.058,-16.113,-27.832,-31.250,14.160,-3.418
1678025768.062,-23.926,-29.785,-31.738,-0.488,35.156
1678025768.066,-50.293,-34.180,-32.227,-38.086,-41.992
1678025768.070,-45.898,-40.527,-37.598,-40.039,-86.914
1678025768.073,-31.250,-37.598,-41.016,-22.461,-39.551
1678025768.077,-14.160,-37.598,-38.574,-6.348,82.520
1678025768.081,-12.207,-31.738,-38.574,2.441,319.824
1678025768.085,-41.016,-18.555,-33.203,-17.578,151.367
1678025768.089,-52.246,-26.855,-30.273,-36.621,-218.262
1678025768.091,-33.691,-33.691,-33.203,-20.020,-85.938
1678025768.095,-17.090,-25.391,-43.945,-2.441,51.270
1678025768.099,-28.320,-25.391,-39.062,-9.766,-34.180
1678025768.103,-55.664,-28.809,-23.438,-29.785,-196.289
1678025768.107,-56.641,-32.715,-24.902,-39.062,-281.250
1678025768.111,-38.574,-33.203,-33.691,-19.531,-147.461
1678025768.115,-18.555,-30.273,-34.180,2.930,42.969
1678025768.118,-8.789,-24.902,-27.344,3.906,-11.230
1678025768.122,-26.855,-24.902,-26.367,-20.996,53.711
1678025768.126,-29.297,-34.668,-31.738,-25.879,37.598
1678025768.130,-14.160,-38.574,-31.738,-9.766,-245.605
1678025768.134,-6.836,-29.297,-31.250,7.324,-149.414
1678025768.138,-6.348,-28.320,-32.227,7.324,22.949
1678025768.142,-18.066,-27.344,-32.715,-12.695,-112.793
1678025768.146,-33.203,-23.438,-35.645,-21.973,-208.984
1678025768.150,-26.855,-24.902,-35.645,-15.137,-129.883
1678025768.154,-11.230,-22.949,-26.855,1.465,1.953
1678025768.158,-2.441,-31.250,-24.414,18.555,91.797
1678025768.162,-21.484,-35.156,-37.598,-1.953,-40.039
1678025768.165,-45.898,-33.691,-47.363,-28.809,-124.512
1678025768.169,-21.973,-40.527,-41.992,-11.719,163.574
1678025768.173,4.395,-26.855,-41.016,8.301,186.035
1678025768.177,6.836,-19.531,-35.645,20.996,-40.527
1678025768.181,-13.672,-42.969,-24.902,7.324,-85.938
1678025768.182,-36.133,-43.945,-33.203,-21.973,-193.848
1678025768.186,-23.438,-21.484,-41.504,-25.391,-250.488
1678025768.190,-14.160,-13.672,-32.715,-9.277,-115.723
1678025768.194,-10.742,-21.484,-20.508,16.113,7.324
1678025768.198,-25.879,-23.926,-21.973,-3.906,-1.465
1678025768.202,-52.246,-32.227,-13.672,-30.273,-38.086
1678025768.206,-49.805,-44.922,-13.672,-19.043,-123.047
1678025768.209,-28.320,-39.062,-27.344,-9.277,13.184
1678025768.213,-15.137,-33.691,-34.668,-2.930,273.438
1678025768.217,-28.320,-34.180,-41.016,-24.414,3.906
1678025768.221,-42.969,-39.062,-37.109,-45.410,-223.633
1678025768.225,-41.016,-42.969,-34.180,-33.691,-218.262
1678025768.227,-9.277,-26.367,-26.367,-8.301,-157.715
1678025768.231,7.324,-21.484,-20.508,10.254,-64.453
1678025768.235,-11.719,-32.715,-31.250,-13.184,3.418
1678025768.239,-39.551,-38.086,-41.016,-39.062,-48.828
1678025768.243,-45.410,-41.016,-31.738,-32.227,-149.902
1678025768.247,-31.738,-31.738,-23.926,-28.809,-83.984
1678025768.251,-6.836,-25.391,-24.902,-6.836,111.328
1678025768.254,0.000,-24.414,-24.414,10.254,518.555
1678025768.258,-30.762,-20.996,-26.367,-16.602,331.543
1678025768.262,-42.480,-20.508,-30.762,-34.668,-243.164
1678025768.266,-31.250,-29.297,-32.227,-21.973,-153.320
1678025768.270,-13.184,-30.762,-28.320,-0.977,55.664
1678025768.272,5.859,-20.020,-25.879,1.953,-53.711
1678025768.276,-8.301,-15.625,-23.926,-24.902,-158.691
1678025768.280,-34.180,-15.625,-20.996,-39.062,-180.664
1678025768.284,-24.902,-23.926,-23.438,-13.672,-92.773
1678025768.288,-10.742,-33.203,-27.832,-4.395,1.953
1678025768.292,-17.090,-30.273,-28.809,-8.301,83.984
1678025768.296,-32.715,-27.832,-27.832,-24.902,166.016
1678025768.299,-45.410,-30.273,-30.273,-46.387,-29.297
1678025768.303,-48.828,-34.668,-32.227,-39.062,-187.988
1678025768.307,-26.367,-31.250,-27.344,-16.602,-72.266
1678025768.311,-14.160,-24.414,-25.391,-1.953,181.641
1678025768.315,-33.691,-28.320,-26.367,-26.855,242.676
1678025768.317,-41.992,-24.414,-32.715,-45.410,-141.113
1678025768.321,-36.621,-18.066,-34.668,-34.668,-215.820
1678025768.325,-20.020,-21.973,-37.109,-13.672,-67.383
1678025768.329,-8.301,-29.785,-34.180,14.648,-35.645
1678025768.333,-32.227,-38.086,-29.297,-20.020,-135.742
1678025768.337,-39.062,-25.879,-34.180,-52.246,-128.906
1678025768.341,-29.297,-19.043,-36.133,-28.809,84.473
1678025768.344,-30.273,-24.902,-33.203,-17.578,74.707
1678025768.348,-25.391,-22.461,-31.738,-18.066,-49.316
1678025768.352,-41.992,-30.273,-34.180,-27.832,14.648
1678025768.356,-56.641,-35.645,-29.785,-47.852,18.555
1678025768.360,-49.316,-26.367,-25.879,-46.875,-90.820
1678025768.363,-43.945,-20.996,-33.691,-25.879,-63.965
1678025768.367,-30.273,-13.672,-39.551,-9.766,96.191
1678025768.371,-31.738,-16.113,-36.621,-18.555,303.223
1678025768.375,-54.688,-26.367,-36.133,-42.480,12.695
1678025768.379,-65.430,-33.691,-36.133,-57.129,-232.910
1678025768.383,-45.410,-32.227,-30.273,-38.574,-25.879
1678025768.387,-17.090,-25.879,-20.996,-17.578,92.773
1678025768.390,-28.320,-26.367,-25.879,-30.762,-41.016
1678025768.394,-55.176,-31.250,-33.691,-49.805,-213.867
1678025768.398,-50.293,-27.832,-31.250,-48.828,-104.980
1678025768.402,-29.297,-21.973,-35.156,-35.156,-3.906
1678025768.406,-14.160,-34.180,-36.133,-22.949,-103.027
1678025768.421,-26.367,-43.945,-34.668,-31.250,-61.523
1678025768.425,-56.641,-38.574,-34.668,-59.082,-119.141
1678025768.429,-61.035,-38.574,-39.062,-64.453,-156.738
1678025768.433,-39.062,-35.156,-39.551,-28.809,-178.223
1678025768.437,-16.602,-29.297,-31.250,-4.883,-36.133
1678025768.441,-16.602,-30.762,-27.344,-7.812,299.805
1678025768.445,-34.668,-34.668,-27.832,-25.879,159.180
1678025768.448,-44.922,-27.832,-23.926,-36.133,-160.156
1678025768.452,-31.250,-25.391,-19.043,-21.973,-145.508
1678025768.456,-23.926,-33.691,-20.508,-15.137,67.383
1678025768.460,-27.344,-30.762,-22.949,-8.301,36.133
1678025768.464,-45.898,-35.156,-27.832,-24.902,-178.711
1678025768.466,-55.664,-38.574,-23.926,-27.344,-145.020
1678025768.470,-36.133,-30.273,-15.625,-17.578,98.633
1678025768.474,-23.438,-24.414,-15.137,-21.484,-2.930
1678025768.478,-25.879,-26.855,-15.137,-12.695,-142.578
1678025768.482,-48.828,-30.762,-16.113,-33.203,-68.848
1678025768.486,-59.570,-28.809,-19.043,-49.805,-16.602
1678025768.490,-40.039,-27.344,-19.531,-35.156,-97.656
1678025768.493,-10.254,-19.531,-26.367,-8.789,-120.117
1678025768.497,-12.207,-14.160,-36.133,-3.906,192.871
1678025768.501,-43.457,-22.949,-34.180,-23.926,251.465
1678025768.505,-62.012,-28.320,-30.273,-42.969,-142.090
1678025768.509,-60.547,-36.133,-31.738,-48.340,-226.562
1678025768.511,-37.598,-41.016,-30.762,-27.344,-167.969
1678025768.515,-17.090,-32.715,-32.715,-3.418,-89.355
1678025768.519,-41.504,-30.273,-28.320,-25.391,-191.406
1678025768.523,-63.477,-40.039,-23.926,-51.270,-300.781
1678025768.527,-49.805,-40.039,-23.438,-39.062,-198.730
1678025768.531,-26.367,-19.531,-16.113,-15.137,-83.496
1678025768.535,-17.578,-19.531,-20.996,-4.883,-47.363
1678025768.538,-41.992,-34.668,-33.203,-31.250,-24.414
1678025768.542,-59.570,-36.133,-27.344,-47.852,140.137
1678025768.546,-53.223,-24.414,-20.996,-41.992,166.992
1678025768.550,-39.062,-13.184,-24.414,-38.086,-82.031
1678025768.554,-32.227,-21.484,-28.320,-26.367,-62.988
1678025768.556,-42.480,-33.203,-32.715,-37.109,-14.648
1678025768.560,-46.387,-28.809,-31.738,-62.988,-209.961
1678025768.564,-40.527,-20.020,-24.902,-59.082,-300.781
1678025768.568,-29.297,-29.785,-26.855,-37.109,-158.691
1678025768.572,-25.879,-33.691,-31.738,-22.461,23.926
1678025768.576,-52.246,-35.645,-33.203,-30.273,21.484
1678025768.580,-73.730,-41.016,-38.574,-59.082,-99.121
1678025768.583,-58.105,-32.227,-27.832,-55.664,48.828
1678025768.587,-26.855,-23.926,-12.207,-25.391,132.324
1678025768.591,-17.578,-17.578,-17.578,-19.531,-19.531
1678025768.595,-22.949,-21.484,-25.879,-25.879,-73.730
1678025768.599,-59.082,-35.645,-35.156,-52.734,2.930
1678025768.601,-76.660,-42.480,-39.062,-79.102,-46.875
1678025768.605,-57.617,-44.922,-41.504,-70.312,-224.121
1678025768.609,-37.598,-37.109,-40.039,-35.156,-57.129
1678025768.613,-38.086,-31.250,-38.086,-31.738,62.500
1678025768.617,-52.734,-26.855,-45.410,-49.316,-111.328
1678025768.621,-57.129,-26.367,-51.758,-56.152,-249.512
1678025768.625,-60.059,-37.109,-34.180,-48.828,-59.082
1678025768.628,-42.969,-45.410,-19.531,-20.020,208.008
1678025768.632,-35.156,-41.504,-27.344,-12.695,119.629
1678025768.636,-65.430,-34.668,-30.762,-43.457,-162.598
1678025768.640,-72.754,-30.273,-29.785,-53.711,-189.453
1678025768.644,-49.316,-26.855,-28.320,-25.879,220.215
1678025768.647,-39.062,-29.785,-31.738,-10.742,204.102
1678025768.651,-31.738,-39.062,-41.504,-9.277,-23.926
1678025768.655,-46.387,-37.109,-37.598,-40.039,-45.898
1678025768.659,-61.035,-29.297,-29.297,-65.918,-180.664
1678025768.663,-39.062,-24.902,-23.926,-47.852,-178.223
1678025768.667,-18.066,-22.949,-28.320,-24.414,-57.617
1678025768.671,-22.949,-33.203,-34.668,-14.648,302.734
1678025768.674,-54.199,-34.180,-36.133,-28.809,285.156
1678025768.678,-67.871,-27.832,-38.086,-48.828,-164.062
1678025768.682,-51.270,-34.180,-26.855,-40.039,-217.773
1678025768.686,-32.227,-42.480,-20.508,-23.926,-119.629
1678025768.690,-27.832,-32.715,-21.973,-27.832,-47.363
1678025768.694,-44.922,-26.855,-24.902,-41.016,-50.781
1678025768.698,-57.617,-29.297,-31.738,-55.176,-143.066
1678025768.702,-49.316,-34.668,-38.574,-61.523,-153.809
1678025768.706,-29.297,-39.062,-35.645,-35.645,-125.488
1678025768.710,-22.949,-23.926,-20.996,-17.578,-96.191
1678025768.714,-37.598,-23.438,-23.926,-25.879,84.961
1678025768.718,-53.223,-31.250,-30.762,-44.434,211.426
1678025768.721,-45.410,-30.273,-27.832,-46.875,-0.977
1678025768.725,-24.414,-28.809,-26.855,-18.066,-83.984
1678025768.729,-20.508,-30.762,-22.461,-1.465,100.098
1678025768.733,-38.574,-39.062,-26.367,-7.324,249.512
1678025768.737,-54.688,-26.855,-21.484,-31.738,-18.555
1678025768.737,-41.992,-13.672,-28.809,-45.898,-244.629
1678025768.741,-24.902,-25.391,-41.016,-37.109,-150.391
1678025768.745,-23.438,-23.438,-35.645,-24.414,-61.523
1678025768.749,-33.691,-18.555,-31.738,-14.648,-16.113
1678025768.753,-58.594,-31.738,-24.414,-30.273,-90.820
1678025768.757,-70.312,-26.367,-22.949,-52.734,32.715
1678025768.761,-55.664,-13.184,-29.297,-31.738,187.988
1678025768.764,-30.762,-14.160,-32.227,-9.277,-31.738
1678025768.768,-25.391,-18.066,-28.320,-14.648,-60.059
1678025768.772,-46.875,-19.531,-25.879,-33.203,-53.711
1678025768.776,-54.199,-15.137,-25.391,-32.715,-178.711
1678025768.780,-38.574,-20.996,-26.367,-20.996,-167.969
1678025768.797,-22.949,-27.832,-28.320,-13.184,-60.547
1678025768.801,-27.344,-22.949,-33.691,-16.113,-19.043
1678025768.805,-49.805,-20.508,-33.203,-39.062,-110.352
1678025768.809,-56.641,-16.113,-34.180,-50.781,-247.559
1678025768.813,-41.504,-21.973,-34.668,-46.387,-163.574
1678025768.817,-20.020,-22.461,-28.320,-30.762,112.305
1678025768.821,-20.508,-13.672,-30.273,-21.973,121.582
1678025768.824,-41.504,-26.367,-31.738,-51.270,-39.062
1678025768.828,-50.293,-31.250,-27.344,-64.941,-41.992
1678025768.832,-53.223,-17.578,-36.621,-41.016,280.762
1678025768.836,-41.504,-17.090,-37.109,-23.438,297.363
1678025768.840,-34.668,-22.461,-39.551,-14.648,-47.363
1678025768.842,-52.734,-21.484,-46.875,-27.344,-92.773
1678025768.846,-44.434,-15.625,-21.973,-42.969,-149.414
1678025768.850,-35.645,-17.578,-16.113,-41.504,-252.930
1678025768.854,-39.062,-30.273,-36.133,-38.574,-127.930
1678025768.858,-34.180,-29.785,-43.457,-42.480,69.824
1678025768.862,-53.223,-17.578,-49.805,-62.012,62.988
1678025768.866,-67.871,-16.113,-45.410,-67.383,-61.035
1678025768.869,-57.617,-26.367,-35.156,-49.805,-175.293
1678025768.873,-35.156,-27.344,-34.668,-26.367,91.309
1678025768.877,-22.949,-20.508,-30.762,-11.719,381.836
1678025768.881,-37.109,-18.066,-27.344,-33.691,14.648
1678025768.885,-54.199,-22.949,-30.273,-47.852,-250.488
1678025768.887,-51.758,-28.320,-33.203,-35.645,-208.496
1678025768.891,-26.367,-25.879,-31.250,-29.785,-141.113
1678025768.895,-15.625,-16.602,-26.367,-12.207,-48.828
1678025768.899,-37.598,-10.742,-27.344,-21.484,-0.977
1678025768.903,-63.477,-9.277,-31.738,-54.199,-83.984
1678025768.907,-70.312,-14.648,-27.832,-57.129,-147.461
1678025768.911,-45.898,-22.949,-28.809,-41.016,-23.438
1678025768.914,-24.902,-20.020,-23.438,-14.160,122.070
1678025768.918,-41.992,-22.949,-23.438,-19.043,357.422
1678025768.922,-61.035,-35.156,-36.133,-39.551,148.926
1678025768.926,-58.105,-28.320,-25.879,-48.340,-267.090
1678025768.930,-41.504,-12.207,-19.043,-28.320,-53.711
1678025768.933,-25.879,-12.695,-29.297,4.395,104.004
1678025768.937,-38.086,-16.113,-26.367,-14.648,-62.988
1678025768.941,-66.406,-14.648,-28.320,-53.223,-202.148
1678025768.945,-62.988,-18.555,-26.367,-42.969,-236.328
1678025768.949,-45.898,-22.461,-26.367,-20.996,-208.496
1678025768.953,-27.832,-23.926,-31.738,-9.277,-40.527
1678025768.957,-29.785,-29.297,-30.273,-10.742,52.246
1678025768.960,-58.105,-25.391,-27.344,-28.809,96.680
1678025768.964,-67.383,-17.090,-23.438,-32.227,59.082
1678025768.968,-45.898,-18.555,-23.926,-28.320,-192.871
1678025768.972,-23.438,-15.625,-31.250,-16.602,-138.184
1678025768.976,-26.855,-16.602,-31.250,-10.254,-6.348
1678025768.978,-56.152,-20.996,-27.344,-35.645,-101.074
1678025768.982,-63.965,-20.996,-30.762,-58.105,-170.898
1678025768.986,-48.828,-23.926,-33.203,-34.668,-161.621
1678025768.990,-39.062,-25.879,-33.203,-0.977,-6.348
1678025768.994,-31.250,-20.020,-32.715,-15.137,89.844
1678025768.998,-57.129,-22.949,-29.297,-50.781,-27.344
1678025769.002,-68.848,-25.879,-31.738,-61.523,-109.375
1678025769.005,-50.781,-24.902,-29.785,-31.738,184.570
1678025769.009,-31.250,-28.320,-26.367,-20.996,229.492
1678025769.013,-27.344,-21.973,-28.320,-45.898,-8.789
1678025769.017,-52.734,-23.438,-28.809,-61.035,-27.344
1678025769.021,-77.148,-29.785,-35.156,-74.707,-136.230
1678025769.021,-68.359,-30.273,-36.133,-80.078,-222.168
1678025769.025,-41.992,-27.832,-29.785,-55.664,-202.637
1678025769.029,-44.434,-27.344,-28.809,-34.668,-70.801
1678025769.033,-65.430,-29.297,-31.250,-60.059,15.137
1678025769.037,-87.402,-28.809,-34.180,-90.820,-143.555
1678025769.041,-88.379,-26.367,-35.645,-75.195,-194.824
1678025769.045,-65.918,-28.320,-31.250,-40.039,181.152
1678025769.048,-65.918,-29.297,-26.367,-33.691,409.668
1678025769.052,-95.703,-24.414,-32.715,-76.172,80.078
1678025769.056,-119.141,-21.973,-30.273,-107.910,-148.438
1678025769.060,-121.582,-16.602,-21.973,-112.305,-181.152
1678025769.064,-114.746,-12.695,-24.414,-106.934,-111.328
1678025769.067,-115.723,-12.207,-21.973,-98.633,-91.797
1678025769.071,-130.371,-9.277,-23.926,-120.605,-106.445
1678025769.075,-161.133,-10.742,-33.203,-154.785,-167.480
1678025769.079,-172.852,-14.160,-33.203,-168.945,-253.418
1678025769.083,-172.852,-5.859,-29.297,-171.875,-163.086
1678025769.087,-182.617,-3.906,-29.785,-162.109,108.887
1678025769.091,-184.082,-11.719,-27.832,-148.926,246.582
1678025769.094,-192.383,-6.348,-22.949,-174.316,-47.363
1678025769.098,-214.355,0.977,-19.531,-213.379,-207.031
1678025769.102,-208.984,2.930,-19.043,-198.242,-46.875
1678025769.106,-200.684,0.000,-15.625,-186.523,157.715
1678025769.110,-217.773,-2.930,-12.207,-207.520,60.547
1678025769.127,-239.746,1.465,-11.719,-232.910,-175.293
1678025769.131,-263.672,3.418,-9.766,-242.188,-76.172
1678025769.135,-244.141,0.488,-13.184,-225.098,89.844
1678025769.139,-226.562,0.488,-4.883,-216.797,-44.922
1678025769.143,-258.789,-4.883,-4.883,-236.816,-67.871
1678025769.147,-287.598,-13.184,-10.254,-261.719,1.465
1678025769.151,-291.016,-12.207,-2.441,-270.508,-138.184
1678025769.154,-266.113,-11.230,0.000,-253.418,-188.965
1678025769.158,-236.328,-7.812,-2.930,-229.004,-79.590
1678025769.162,-252.441,-5.371,2.930,-249.023,176.270
1678025769.166,-287.109,-11.719,8.301,-278.809,184.570
1678025769.170,-287.598,-15.137,2.441,-281.250,-205.078
1678025769.171,-266.602,-12.695,2.930,-264.160,-267.090
1678025769.175,-247.070,-2.441,1.953,-238.770,-134.277
1678025769.179,-260.254,-5.371,-3.906,-239.258,-74.707
1678025769.183,-287.598,-19.043,4.395,-263.184,-185.059
1678025769.187,-289.062,-22.949,14.160,-272.461,-224.609
1678025769.191,-262.207,-18.066,7.812,-257.812,-91.309
1678025769.195,-241.699,-16.602,3.418,-240.723,79.102
1678025769.198,-250.000,-16.113,5.371,-238.770,135.254
1678025769.202,-268.555,-15.625,7.812,-245.605,82.031
1678025769.206,-268.066,-20.508,6.836,-244.629,185.547
1678025769.210,-254.395,-18.555,6.348,-239.258,158.691
1678025769.214,-238.281,-20.020,6.836,-229.980,-101.074
1678025769.216,-224.121,-17.578,8.301,-209.473,117.188
1678025769.220,-245.117,-18.555,8.789,-226.074,162.109
1678025769.224,-248.535,-24.414,13.184,-238.281,-176.270
1678025769.228,-229.004,-19.043,9.766,-224.609,-188.965
1678025769.232,-224.121,-20.508,1.465,-215.820,-68.848
1678025769.236,-223.145,-25.391,8.301,-205.078,33.691
1678025769.240,-228.516,-24.414,6.836,-203.613,88.379
1678025769.243,-231.445,-22.461,-0.488,-217.285,-82.031
1678025769.247,-231.445,-15.625,8.301,-228.027,-25.879
1678025769.251,-211.914,-17.090,9.277,-208.496,143.555
1678025769.255,-187.988,-24.902,4.395,-177.734,-40.527
1678025769.259,-192.383,-26.367,6.836,-169.922,-74.707
1678025769.261,-202.637,-24.902,3.906,-188.965,-96.191
1678025769.265,-206.055,-26.855,-2.441,-212.402,-148.438
1678025769.269,-186.523,-22.949,2.930,-198.730,-146.484
1678025769.273,-175.781,-17.578,6.348,-175.293,-31.250
1678025769.277,-176.270,-19.043,2.930,-156.250,87.402
1678025769.281,-185.547,-20.508,-1.953,-158.203,-92.773
1678025769.285,-187.988,-21.484,0.488,-166.016,-209.473
1678025769.288,-171.387,-23.438,-1.465,-155.273,-58.105
1678025769.292,-164.062,-20.020,-8.789,-134.277,363.281
1678025769.296,-167.480,-21.484,-3.418,-130.371,345.703
1678025769.300,-172.363,-28.320,1.953,-139.648,-189.941
1678025769.304,-166.504,-30.762,-4.395,-148.438,-254.395
1678025769.308,-145.508,-28.809,-11.719,-143.555,-129.395
1678025769.312,-137.695,-25.391,-12.695,-128.906,-77.637
1678025769.316,-142.578,-24.414,-15.625,-126.465,12.695
1678025769.320,-147.461,-22.461,-12.695,-131.348,85.449
1678025769.324,-163.086,-29.297,-10.742,-154.785,-50.293
1678025769.328,-159.668,-35.645,-8.789,-149.902,-136.230
1678025769.332,-124.512,-35.156,-8.789,-98.145,33.691
1678025769.335,-117.676,-38.086,-19.043,-79.102,273.926
1678025769.339,-145.020,-32.227,-21.484,-119.629,244.629
1678025769.343,-155.762,-25.391,-17.090,-140.625,-130.371
1678025769.347,-151.367,-37.598,-16.602,-129.883,-205.566
1678025769.351,-121.094,-46.387,-18.555,-92.285,-109.863
1678025769.351,-94.238,-38.086,-20.996,-74.219,-71.289
1678025769.355,-123.535,-33.691,-20.508,-109.863,-160.156
1678025769.359,-152.344,-38.086,-15.137,-120.117,-237.793
1678025769.363,-150.391,-46.387,-10.742,-104.980,-179.688
1678025769.367,-122.559,-48.828,-18.555,-85.938,-131.836
1678025769.371,-103.027,-46.875,-28.809,-75.195,-20.996
1678025769.375,-116.699,-47.852,-24.414,-83.496,1.465
1678025769.378,-124.512,-49.805,-12.695,-78.125,305.664
1678025769.382,-117.188,-51.270,-15.137,-73.242,314.453
1678025769.386,-88.379,-48.828,-20.996,-62.988,-127.930
1678025769.390,-75.684,-50.293,-17.090,-45.898,22.949
1678025769.394,-94.727,-55.664,-19.531,-56.152,130.859
1678025769.396,-100.586,-64.941,-23.926,-60.059,-181.152
1678025769.400,-91.309,-65.430,-17.090,-46.875,-340.332
1678025769.404,-76.660,-53.711,-13.184,-50.781,-170.898
1678025769.408,-56.641,-54.199,-20.996,-40.527,0.977
1678025769.412,-53.223,-59.570,-20.996,-37.109,-62.500
1678025769.416,-64.941,-63.965,-25.879,-40.039,-193.848
1678025769.420,-63.477,-62.988,-29.297,-23.438,-22.949
1678025769.423,-53.711,-61.035,-24.902,-17.090,259.277
1678025769.427,-40.527,-60.547,-33.203,-13.184,43.945
1678025769.431,-56.152,-60.547,-33.203,-17.090,-131.348
1678025769.435,-70.312,-64.941,-28.809,-35.156,-124.512
1678025769.439,-56.152,-65.430,-34.180,-36.621,-216.309
1678025769.441,-35.156,-67.871,-35.156,-12.207,-234.375
1678025769.445,-25.391,-71.777,-27.344,9.277,-51.270
1678025769.449,-23.926,-67.383,-19.531,10.254,-15.625
1678025769.453,-31.250,-68.848,-21.973,-10.254,-142.578
1678025769.457,-26.855,-67.871,-24.414,-16.602,-231.934
1678025769.461,1.953,-63.477,-22.949,10.254,-78.125
1678025769.465,12.207,-57.617,-22.461,36.133,228.516
1678025769.468,4.883,-62.012,-34.668,38.086,169.922
1678025769.472,-6.836,-68.359,-40.527,13.672,-131.836
1678025769.476,-5.371,-64.941,-27.832,8.789,-130.371
1678025769.480,24.414,-63.965,-31.250,51.758,171.875
1678025769.484,47.363,-64.453,-38.574,68.359,97.168
1678025769.486,43.457,-62.500,-38.574,57.129,-49.316
1678025769.490,37.598,-60.547,-45.410,43.945,-69.336
1678025769.494,27.832,-63.965,-52.734,26.855,-150.391
1678025769.498,30.273,-58.105,-57.129,24.414,-188.965
1678025769.502,54.199,-49.805,-60.547,55.176,-122.070
1678025769.506,58.105,-51.758,-56.641,70.312,155.762
1678025769.510,38.086,-54.199,-52.734,46.875,165.039
1678025769.513,33.203,-51.270,-61.035,35.645,-164.551
1678025769.517,54.688,-49.805,-60.059,59.570,-237.793
1678025769.521,87.402,-43.945,-59.570,88.379,31.738
1678025769.525,96.680,-39.551,-63.965,87.402,145.996
1678025769.529,67.871,-36.133,-67.871,58.105,-72.754
1678025769.546,58.594,-28.809,-71.289,47.363,-204.102
1678025769.550,69.336,-22.949,-72.754,49.805,-115.234
1678025769.554,83.984,-21.484,-77.637,63.477,6.348
1678025769.558,99.609,-21.973,-83.496,71.777,-74.219
1678025769.562,77.637,-20.020,-86.914,49.316,-81.055
1678025769.566,54.688,-24.414,-87.402,32.227,38.086
1678025769.570,80.078,-20.996,-89.355,51.758,-16.113
1678025769.573,94.238,-13.672,-89.355,77.148,17.578
1678025769.577,88.867,-16.113,-83.984,80.078,145.020
1678025769.581,77.148,-10.254,-86.426,57.129,354.492
1678025769.585,54.688,-10.254,-83.496,29.297,147.461
1678025769.589,55.176,-14.160,-81.055,25.879,-227.539
1678025769.593,75.195,-11.230,-90.820,42.480,-38.574
1678025769.597,96.191,-8.301,-92.285,64.453,62.500
1678025769.601,86.914,-5.371,-95.215,44.434,27.344
1678025769.605,71.289,-9.766,-95.703,12.695,-69.824
1678025769.609,91.309,-3.418,-97.168,34.180,-125.977
1678025769.613,96.680,-1.465,-102.539,61.035,13.672
1678025769.617,88.867,-10.742,-103.027,69.824,69.824
1678025769.620,90.332,-10.742,-100.098,74.219,-51.270
1678025769.624,82.520,-8.789,-88.867,63.477,-11.230
1678025769.628,69.336,-14.160,-85.449,48.340,74.707
1678025769.632,65.918,-20.996,-91.797,57.129,-104.492
1678025769.636,93.262,-18.066,-88.379,93.750,-38.086
1678025769.636,86.914,-6.836,-82.031,88.867,9.277
1678025769.640,44.922,-1.465,-85.449,30.762,-162.598
1678025769.644,51.758,-3.906,-85.938,26.367,-237.793
1678025769.648,65.430,-6.348,-88.379,43.457,-147.949
1678025769.652,76.660,-5.371,-90.820,47.852,-9.766
1678025769.656,67.383,-1.953,-91.309,50.781,45.410
1678025769.660,43.945,-3.418,-89.355,45.898,-33.691
1678025769.663,44.434,-10.254,-82.520,42.969,-107.910
1678025769.667,62.988,-7.324,-82.520,40.527,151.855
1678025769.671,84.961,4.883,-82.520,63.965,364.258
1678025769.675,77.148,-4.883,-80.566,60.059,78.613
1678025769.679,54.688,-12.207,-77.637,32.715,-125.977
1678025769.682,49.316,-3.418,-69.336,15.137,-228.516
1678025769.686,56.641,-3.906,-67.383,22.949,-275.391
1678025769.690,73.730,-1.465,-71.777,51.270,-123.047
1678025769.694,76.172,6.348,-73.242,63.965,17.578
1678025769.698,45.898,1.953,-68.848,47.852,-64.941
1678025769.702,29.297,0.488,-61.523,19.531,-119.629
1678025769.706,43.945,1.953,-58.105,18.555,-69.824
1678025769.709,62.988,-1.953,-55.176,46.875,127.930
1678025769.713,72.266,-1.953,-54.688,57.129,133.789
1678025769.717,45.410,-1.465,-57.129,31.250,-125.000
1678025769.721,18.066,-6.348,-53.223,15.625,-312.012
1678025769.725,31.738,-9.277,-49.316,28.809,-100.098
1678025769.726,47.852,-13.184,-57.617,45.410,157.227
1678025769.730,52.246,-12.207,-60.059,47.852,-82.520
1678025769.734,35.645,-7.324,-57.617,22.949,-229.492
1678025769.738,20.996,-7.324,-52.246,5.371,-264.160
1678025769.742,31.250,-6.836,-41.992,17.090,-284.180
1678025769.746,36.621,-9.277,-41.016,23.926,-103.516
1678025769.750,43.457,-8.301,-41.504,33.691,94.238
1678025769.753,33.203,-12.207,-40.039,31.250,365.723
1678025769.757,11.230,-17.090,-41.016,0.488,240.234
1678025769.761,10.742,-17.090,-42.969,-3.418,-218.262
1678025769.765,24.902,-11.719,-44.434,17.090,-89.844
1678025769.769,36.133,-5.859,-52.246,36.621,144.043
1678025769.771,24.902,-9.277,-58.594,24.414,-31.738
1678025769.775,22.461,-8.301,-60.059,4.883,-307.129
1678025769.779,22.461,-12.207,-50.293,-3.418,-249.023
1678025769.783,3.906,-14.160,-31.250,-12.207,-93.750
1678025769.787,0.977,-13.672,-30.762,7.324,-36.621
1678025769.791,9.766,-22.461,-34.180,28.320,29.785
1678025769.795,-10.254,-29.297,-28.320,-1.465,133.789
1678025769.798,-25.391,-33.691,-35.156,-23.438,79.102
1678025769.802,-3.418,-34.180,-36.621,-8.789,-177.246
1678025769.806,14.160,-27.344,-37.109,10.742,-100.586
1678025769.810,11.230,-16.113,-35.645,20.996,-36.133
1678025769.814,-5.859,-15.625,-29.785,-1.953,-137.207
1678025769.818,-8.789,-20.020,-31.250,-14.648,-240.723
1678025769.822,5.859,-20.508,-30.762,-4.395,-232.422
1678025769.826,20.508,-21.484,-33.203,24.902,3.418
1678025769.830,23.438,-22.461,-32.227,41.504,47.363
1678025769.834,-5.859,-22.461,-28.809,17.090,-157.715
1678025769.838,-15.625,-20.508,-33.203,3.418,-166.504
1678025769.842,3.418,-18.066,-39.551,17.578,95.703
1678025769.845,20.020,-16.602,-39.062,38.574,150.391
1678025769.849,9.766,-16.602,-36.621,28.809,-13.672
1678025769.853,-12.695,-17.090,-39.551,-2.441,-67.383
1678025769.857,-20.996,-22.461,-51.758,-8.301,-29.785
1678025769.861,-9.277,-17.090,-41.504,-0.977,-175.293
1678025769.863,21.973,-5.859,-24.902,12.207,-186.523
1678025769.867,25.391,-6.836,-25.879,28.809,-19.531
1678025769.871,-4.883,-14.648,-28.320,-5.371,-23.438
1678025769.875,-18.555,-20.996,-41.504,-31.738,-103.027
1678025769.879,-14.160,-14.160,-43.945,-15.137,-179.199
1678025769.883,1.953,-5.371,-38.086,3.418,129.883
1678025769.887,9.277,-9.277,-41.016,13.184,486.816
1678025769.890,-7.812,-10.742,-39.062,0.488,85.449
1678025769.894,-20.996,-10.742,-38.574,-18.066,-210.449
1678025769.898,-13.672,-13.672,-38.574,-3.418,-54.199
1678025769.902,8.301,-12.695,-38.574,16.602,5.859
1678025769.906,2.930,-17.090,-41.504,17.090,-16.113
1678025769.921,-22.949,-16.602,-39.062,1.953,-44.434
1678025769.925,-27.344,-9.277,-33.691,-18.066,-138.184
1678025769.929,-7.324,-7.812,-37.109,-10.742,-185.547
1678025769.933,4.395,-8.789,-43.457,-5.371,-158.691
1678025769.937,12.695,-5.371,-36.133,18.066,28.320
1678025769.941,3.418,-4.883,-28.320,14.160,254.883
1678025769.945,-22.461,-10.254,-32.227,-15.137,59.570
1678025769.948,-27.344,-17.578,-35.645,-14.160,-111.816
1678025769.952,-11.719,-6.348,-32.715,1.953,-13.672
1678025769.956,1.465,-6.836,-36.621,25.879,328.613
1678025769.960,-15.137,-20.508,-44.434,9.277,193.359
1678025769.964,-33.691,-12.695,-40.527,-19.043,-245.117
1678025769.967,-29.785,-6.348,-36.621,-22.461,-196.289
1678025769.971,-21.484,-11.719,-41.016,-28.809,-148.438
1678025769.975,-12.695,-13.184,-48.828,-18.555,-128.418
1678025769.979,-14.160,-3.906,-50.781,-5.371,-78.125
1678025769.983,-41.992,-4.395,-37.109,-16.113,-114.258
1678025769.987,-47.852,-12.695,-33.691,-34.668,-60.547
1678025769.991,-27.832,-12.695,-35.645,-25.879,-100.586
1678025769.994,-11.230,-9.766,-35.645,-2.441,-47.363
1678025769.998,-16.113,-14.160,-36.621,-2.441,224.609
1678025770.002,-36.133,-13.672,-39.062,-23.438,189.453
1678025770.006,-29.785,-13.184,-39.062,-33.203,-156.250
1678025770.010,-21.484,-12.695,-41.016,-30.273,-203.125
1678025770.011,-14.648,-9.766,-42.480,-14.648,-25.391
1678025770.015,-8.789,-11.719,-31.738,6.836,-80.566
1678025770.019,-38.574,-14.648,-28.320,-27.344,-177.734
1678025770.023,-58.594,-13.184,-29.297,-52.246,-181.152
1678025770.027,-40.527,-9.277,-27.832,-29.785,-180.664
1678025770.031,-12.207,-12.695,-31.250,-8.789,-80.078
1678025770.035,-11.719,-17.578,-31.250,-2.930,-29.297
1678025770.038,-39.551,-16.113,-32.715,-21.973,-16.602
1678025770.042,-42.969,-15.137,-27.832,-26.855,214.355
1678025770.046,-34.180,-12.207,-29.785,-19.043,234.375
1678025770.050,-24.902,-15.137,-36.621,-11.230,-50.293
1678025770.054,-19.043,-18.555,-38.574,-6.836,-68.359
1678025770.056,-38.086,-18.066,-33.203,-30.762,-118.652
1678025770.060,-55.664,-14.160,-23.438,-43.457,-291.504
1678025770.064,-48.340,-19.531,-25.391,-32.227,-290.039
1678025770.068,-20.996,-24.414,-29.297,2.441,-129.395
1678025770.072,-9.277,-20.508,-32.715,16.113,-45.410
1678025770.076,-32.227,-16.602,-31.250,-21.484,-5.859
1678025770.080,-57.617,-14.648,-28.809,-59.570,-105.469
1678025770.083,-52.734,-14.160,-33.691,-41.504,2.441
1678025770.087,-27.344,-13.184,-34.668,0.488,179.688
1678025770.091,-7.324,-15.625,-31.250,8.301,-7.324
1678025770.095,-18.555,-16.602,-32.227,-3.906,-52.734
1678025770.099,-47.363,-17.578,-34.668,-29.297,-76.660
1678025770.102,-43.457,-19.531,-36.621,-39.551,-134.277
1678025770.106,-19.531,-20.996,-37.109,-15.137,-109.375
1678025770.110,-16.602,-21.484,-33.203,1.953,-49.805
1678025770.114,-38.086,-16.113,-38.574,-8.789,18.066
1678025770.118,-61.523,-12.695,-37.598,-37.598,-85.938
1678025770.122,-52.734,-10.254,-26.855,-35.645,-149.902
1678025770.126,-24.414,-10.742,-29.297,-10.742,-17.090
1678025770.129,-7.324,-16.113,-29.785,18.555,342.285
1678025770.133,-20.996,-19.531,-33.691,14.648,313.965
1678025770.137,-49.316,-22.949,-31.738,-30.273,-166.016
1678025770.141,-57.617,-18.555,-30.762,-37.598,-145.020
1678025770.145,-42.480,-16.602,-36.621,-24.414,5.371
1678025770.148,-26.367,-18.066,-30.762,-7.812,-53.711
1678025770.152,-34.668,-14.648,-35.156,-6.836,-52.246
1678025770.156,-57.617,-19.043,-34.668,-32.227,-5.859
1678025770.160,-63.965,-18.555,-30.762,-37.109,-49.805
1678025770.164,-43.457,-18.555,-37.109,-28.809,-136.719
1678025770.168,-34.180,-26.855,-40.527,-17.090,-31.250
1678025770.172,-45.898,-28.320,-40.527,-6.348,349.609
1678025770.175,-56.641,-20.508,-32.715,-16.602,258.301
1678025770.179,-55.176,-17.090,-23.926,-32.227,-163.086
1678025770.183,-36.621,-15.625,-30.273,-20.508,-217.773
1678025770.187,-20.508,-25.879,-37.109,0.000,-16.602
1678025770.191,-18.555,-30.762,-32.227,1.465,66.895
1678025770.191,-40.527,-14.160,-35.156,-25.391,-74.707
1678025770.195,-56.641,-13.184,-42.969,-43.945,-106.934
1678025770.199,-36.133,-21.484,-43.457,-26.855,-115.234
1678025770.203,-20.508,-13.672,-32.715,-8.301,64.941
1678025770.207,-33.691,-3.906,-26.367,-9.277,126.465
1678025770.211,-59.082,-6.348,-27.832,-36.133,39.062
1678025770.215,-73.242,-15.625,-23.926,-56.641,170.410
1678025770.218,-63.965,-20.020,-24.414,-46.387,79.590
1678025770.222,-34.668,-17.578,-38.086,-26.367,-88.867
1678025770.226,-21.973,-17.090,-47.363,-7.812,4.395
1678025770.230,-48.340,-17.578,-37.109,-13.184,232.422
1678025770.234,-66.406,-18.555,-28.320,-47.363,-9.277
1678025770.251,-62.500,-22.461,-28.809,-44.922,-311.523
1678025770.255,-39.551,-14.160,-25.391,-9.277,-79.590
1678025770.259,-25.879,-14.648,-28.320,0.977,16.113
1678025770.263,-44.434,-18.066,-25.391,-19.043,-97.656
1678025770.267,-62.500,-15.625,-17.578,-30.762,-147.949
1678025770.271,-59.082,-28.809,-27.832,-24.902,-24.902
1678025770.275,-50.293,-26.855,-35.156,-1.465,51.758
1678025770.278,-43.945,-4.883,-25.391,10.254,62.500
1678025770.282,-61.035,-6.836,-24.902,-13.184,-48.340
1678025770.286,-84.961,-23.926,-26.367,-41.504,-26.367
1678025770.290,-83.008,-22.461,-28.320,-47.363,65.918
1678025770.294,-58.105,-14.648,-34.180,-28.809,-137.207
1678025770.297,-23.926,-18.555,-15.625,12.695,-55.176
1678025770.301,-37.109,-13.672,-10.254,0.000,60.547
1678025770.305,-75.195,-10.254,-29.297,-49.316,-73.242
1678025770.309,-72.266,-16.113,-32.715,-55.176,-185.547
1678025770.313,-37.598,-1.465,-16.113,-20.508,-151.367
1678025770.317,-17.578,4.883,-4.395,10.254,88.379
1678025770.321,-48.340,-15.625,-19.043,-19.531,146.973
1678025770.324,-84.473,-25.879,-30.762,-62.500,-29.297
1678025770.328,-66.895,-20.508,-28.320,-69.824,-83.496
1678025770.332,-38.574,-13.184,-30.273,-41.992,191.406
1678025770.336,-29.785,-11.230,-25.391,-14.160,359.863
1678025770.340,-28.809,-11.230,-16.113,-26.855,81.543
1678025770.341,-48.828,-15.625,-13.672,-49.316,-134.277
1678025770.345,-49.805,-14.648,-13.184,-51.758,-234.863
1678025770.349,-42.969,-16.113,-19.531,-42.480,-203.613
1678025770.353,-21.484,-12.695,-28.809,-20.508,-58.594
1678025770.357,-12.695,-4.883,-25.391,-13.184,9.277
1678025770.361,-41.504,-11.719,-21.973,-45.410,-49.316
1678025770.365,-47.363,-17.578,-27.344,-52.246,-104.004
1678025770.368,-40.039,-21.484,-29.785,-41.992,-156.738
1678025770.372,-30.273,-27.344,-30.762,-16.113,29.297
1678025770.376,-20.508,-24.414,-27.344,-12.695,222.656
1678025770.380,-28.809,-14.160,-11.230,-43.457,-60.547
1678025770.384,-46.875,-13.184,-13.184,-50.781,-248.047
1678025770.386,-43.945,-15.625,-20.996,-29.297,-204.590
1678025770.390,-31.738,-22.461,-20.508,-12.207,-106.445
1678025770.394,-33.203,-15.137,-22.461,-15.137,-32.227
1678025770.398,-50.293,-12.207,-19.043,-39.551,-100.098
1678025770.402,-51.758,-23.926,-25.391,-57.129,-165.527
1678025770.406,-37.109,-25.391,-31.250,-39.062,-120.605
1678025770.410,-23.926,-24.902,-24.414,-7.324,-33.691
1678025770.413,-22.461,-20.996,-18.066,-0.977,93.262
1678025770.417,-44.434,-9.766,-16.602,-24.902,244.141
1678025770.421,-61.523,-12.207,-24.902,-47.363,-6.836
1678025770.425,-53.711,-21.484,-31.250,-53.223,-221.191
1678025770.429,-25.391,-20.996,-26.367,-27.344,41.016
1678025770.434,-15.137,-13.672,-22.949,-8.301,308.594
1678025770.438,-41.016,-20.508,-36.133,-28.320,100.098
1678025770.442,-56.641,-26.855,-41.016,-50.781,-273.438
1678025770.446,-41.992,-16.602,-38.086,-41.016,-184.570
1678025770.450,-19.531,-9.277,-32.715,-12.695,-54.199
1678025770.454,-19.043,-12.695,-17.090,-11.230,-71.289
1678025770.458,-41.504,-16.602,-15.625,-43.945,-16.113
1678025770.461,-62.988,-26.367,-21.484,-66.406,81.543
1678025770.465,-70.801,-26.367,-25.879,-61.035,103.027
1678025770.469,-60.547,-17.090,-32.227,-40.039,-85.449
1678025770.473,-37.109,-15.137,-36.621,-20.020,-35.645
1678025770.477,-44.922,-15.137,-34.180,-27.344,18.555
1678025770.476,-75.195,-14.160,-21.973,-44.922,-161.133
1678025770.480,-75.684,-19.043,-21.973,-40.039,-324.707
1678025770.484,-51.270,-24.414,-28.320,-25.391,-183.594
1678025770.488,-34.180,-16.602,-23.438,-11.230,95.703
1678025770.492,-40.039,-12.207,-22.949,-13.184,31.250
1678025770.496,-59.082,-18.555,-28.809,-42.480,-152.832
1678025770.500,-59.082,-16.113,-32.715,-46.875,-125.977
1678025770.503,-50.293,-14.648,-35.645,-20.996,284.180
1678025770.507,-31.250,-18.555,-34.180,1.953,443.848
1678025770.511,-30.273,-18.555,-28.809,-6.348,54.199
1678025770.515,-44.434,-17.090,-29.297,-47.852,-124.023
1678025770.519,-45.898,-13.184,-37.109,-69.824,-221.680
1678025770.521,-35.156,-15.625,-39.551,-46.387,-265.137
1678025770.525,-13.184,-20.020,-36.133,-10.254,-126.953
1678025770.529,-12.695,-17.090,-33.203,-2.930,-23.438
1678025770.533,-56.641,-19.531,-22.949,-42.480,-125.977
1678025770.537,-68.848,-22.461,-18.066,-54.688,-267.578
1678025770.541,-45.898,-17.578,-21.973,-39.062,-204.102
1678025770.545,-28.809,-7.324,-22.949,-22.949,170.410
1678025770.548,-33.691,-11.719,-24.902,-11.719,401.367
1678025770.552,-66.895,-20.020,-29.785,-49.316,-11.230
1678025770.556,-85.449,-20.020,-42.480,-66.406,-269.531
1678025770.560,-74.707,-24.902,-43.457,-41.504,-139.160
1678025770.564,-51.758,-26.367,-36.621,-18.555,-21.973
1678025770.566,-39.551,-25.879,-36.133,-17.578,-24.902
1678025770.570,-46.387,-24.414,-40.527,-35.156,-77.148
1678025770.574,-61.523,-16.602,-35.156,-50.293,-163.574
1678025770.578,-55.176,-16.113,-30.762,-43.945,-128.906
1678025770.582,-39.062,-14.648,-35.645,-24.414,-59.082
1678025770.586,-32.715,-13.672,-34.180,-18.066,82.031
1678025770.590,-36.133,-11.719,-20.508,-22.461,261.230
1678025770.593,-41.504,-16.602,-11.230,-25.391,72.754
1678025770.597,-40.527,-16.602,-20.996,-39.062,-136.719
1678025770.601,-35.156,-7.324,-29.785,-31.250,-19.531
1678025770.605,-22.949,-10.254,-31.738,-3.906,347.656
1678025770.609,-27.832,-10.742,-25.391,-16.113,176.270
1678025770.611,-51.270,-17.090,-25.391,-54.199,-194.336
1678025770.615,-42.969,-20.996,-30.273,-47.852,-150.879
1678025770.619,-12.695,-9.766,-24.414,-16.602,-91.309
1678025770.623,-2.930,-5.371,-16.602,4.395,-26.855
1678025770.627,-16.113,-14.648,-17.090,-9.766,-0.977
1678025770.631,-41.504,-17.578,-22.949,-36.133,-2.930
1678025770.635,-48.828,-23.926,-25.391,-30.762,22.461
1678025770.638,-30.273,-24.414,-20.996,-11.719,-45.898
1678025770.642,-21.484,-15.137,-25.879,-13.672,-139.648
1678025770.646,-31.738,-19.531,-31.250,-26.367,58.105
1678025770.650,-40.039,-27.344,-23.438,-48.828,130.859
1678025770.654,-39.062,-25.879,-27.344,-55.664,-201.660
1678025770.671,-39.062,-19.043,-33.691,-42.480,-247.070
1678025770.675,-24.902,-17.090,-35.156,-26.855,11.230
1678025770.679,-24.902,-15.625,-31.250,-22.949,35.645
1678025770.683,-41.992,-12.695,-26.855,-42.480,-183.594
1678025770.687,-46.875,-16.113,-30.273,-43.945,-218.750
1678025770.691,-29.297,-19.043,-31.738,-27.344,-91.309
1678025770.695,-3.906,-17.090,-30.762,-7.812,28.809
1678025770.698,-10.742,-21.484,-28.809,-7.324,66.406
1678025770.702,-37.598,-27.832,-19.043,-25.879,-70.801
1678025770.706,-43.945,-24.902,-13.184,-29.785,102.051
1678025770.710,-36.133,-18.555,-21.973,-17.578,30.273
1678025770.714,-20.996,-17.578,-22.461,-0.488,-213.379
1678025770.716,-14.648,-23.926,-19.531,3.418,15.625
1678025770.720,-37.109,-26.367,-24.902,-17.090,-19.043
1678025770.724,-44.922,-21.484,-33.691,-41.504,-201.660
1678025770.728,-34.668,-14.648,-38.574,-42.480,-187.988
1678025770.732,-20.996,-15.137,-29.297,-8.301,-13.672
1678025770.736,-27.344,-27.832,-35.156,-5.859,90.332
1678025770.740,-52.734,-27.832,-40.039,-46.875,-31.738
1678025770.743,-63.477,-13.184,-32.227,-71.777,-198.730
1678025770.747,-62.012,-18.555,-37.109,-51.270,-69.824
1678025770.751,-41.016,-23.926,-38.574,-24.414,188.477
1678025770.755,-27.832,-20.996,-32.227,-30.273,10.742
1678025770.759,-51.270,-19.531,-35.645,-44.434,-102.051
1678025770.762,-71.777,-20.996,-34.668,-55.664,-113.281
1678025770.766,-54.688,-21.973,-32.227,-40.039,-173.828
1678025770.770,-23.926,-20.020,-34.668,-24.902,-36.621
1678025770.774,-21.973,-22.949,-32.715,-19.531,139.160
1678025770.778,-51.270,-22.949,-30.273,-25.879,107.422
1678025770.782,-67.871,-14.160,-22.949,-39.062,24.902
1678025770.786,-55.664,-14.160,-17.090,-39.551,-69.336
1678025770.789,-35.645,-28.320,-30.273,-26.855,-51.270
1678025770.793,-24.414,-24.902,-27.344,4.395,347.656
1678025770.797,-42.969,-15.625,-20.020,-14.160,281.250
1678025770.801,-56.152,-21.484,-22.949,-47.363,-212.891
1678025770.805,-46.387,-27.344,-25.879,-36.133,-215.332
1678025770.808,-32.227,-23.926,-27.832,-31.738,-104.492
1678025770.812,-15.137,-18.555,-18.066,-13.184,-75.195
1678025770.816,-22.949,-18.066,-20.020,-17.578,-49.805
1678025770.820,-53.711,-22.461,-26.855,-47.363,-94.238
1678025770.824,-59.570,-25.879,-27.344,-42.969,-254.395
1678025770.828,-32.227,-23.438,-27.344,-25.879,-189.941
1678025770.832,-18.066,-24.902,-30.273,-14.648,-12.695
1678025770.835,-31.738,-29.297,-32.227,-20.020,201.660
1678025770.839,-53.223,-28.809,-29.785,-44.434,232.910
1678025770.843,-67.871,-33.691,-34.668,-55.664,-142.090
1678025770.847,-56.641,-39.551,-37.109,-43.457,-184.570
1678025770.851,-37.598,-33.691,-33.691,-20.508,-24.902
1678025770.853,-38.574,-28.809,-29.297,-21.484,-70.312
1678025770.857,-54.688,-24.902,-31.738,-44.434,-168.945
1678025770.861,-54.199,-20.508,-33.691,-57.129,-188.477
1678025770.865,-32.227,-23.438,-24.414,-43.945,-107.422
1678025770.869,-13.672,-28.809,-22.461,-20.508,-6.836
1678025770.873,-15.625,-21.484,-32.227,-14.648,35.645
1678025770.877,-41.016,-17.578,-38.086,-45.898,54.688
1678025770.880,-54.688,-24.414,-33.691,-62.012,312.988
1678025770.884,-41.992,-31.250,-34.668,-37.109,326.660
1678025770.888,-23.438,-25.391,-33.203,-13.184,2.441
1678025770.892,-13.672,-20.508,-31.250,-3.418,56.641
1678025770.896,-34.180,-24.414,-29.297,-33.691,37.598
1678025770.896,-52.246,-24.902,-24.902,-55.664,-250.488
1678025770.900,-42.480,-23.926,-29.297,-44.922,-215.332
1678025770.904,-33.691,-26.855,-31.250,-24.902,-47.363
1678025770.908,-23.438,-16.602,-24.414,-12.207,-15.137
1678025770.912,-29.785,-24.902,-23.438,-26.367,-103.027
1678025770.916,-47.363,-38.574,-28.809,-41.992,-185.059
1678025770.920,-41.992,-26.855,-38.086,-45.410,41.504
1678025770.923,-26.855,-25.391,-50.781,-30.273,256.836
1678025770.927,-19.043,-30.273,-54.199,-23.438,21.484
1678025770.931,-28.809,-31.250,-49.805,-46.387,-104.492
1678025770.935,-44.922,-22.461,-45.898,-60.059,-86.426
1678025770.939,-41.992,-25.391,-41.992,-41.016,-173.828
1678025770.941,-17.578,-25.879,-45.410,-13.672,-236.816
1678025770.945,-7.812,-15.137,-43.945,-0.488,-132.812
1678025770.949,-32.715,-23.438,-35.645,-19.043,-91.309
1678025770.953,-55.176,-33.203,-35.645,-40.039,-216.797
1678025770.957,-42.969,-29.785,-40.039,-42.480,-300.781
1678025770.961,-21.484,-26.367,-37.109,-27.344,-129.883
1678025770.965,-13.672,-28.320,-30.273,0.000,182.617
1678025770.968,-31.250,-30.762,-32.715,-13.184,147.949
1678025770.972,-55.664,-32.715,-33.691,-46.387,-121.582
1678025770.976,-55.664,-35.645,-37.598,-38.574,-216.309
1678025770.980,-44.434,-31.738,-36.621,-20.996,48.828
1678025770.984,-24.414,-27.344,-35.645,-13.184,53.711
1678025770.988,-27.344,-26.367,-37.598,-16.602,-61.523
1678025770.992,-57.129,-24.902,-29.297,-41.016,-32.715
1678025770.996,-55.176,-22.461,-25.879,-46.387,-95.703
1678025771.000,-19.531,-18.066,-25.879,-14.160,-213.379
1678025771.004,-8.301,-20.020,-16.602,-1.953,-161.621
1678025771.008,-37.598,-21.973,-23.438,-41.992,89.844
1678025771.012,-74.707,-20.996,-28.320,-85.449,87.891
1678025771.015,-98.145,-20.996,-20.508,-106.445,-183.105
1678025771.019,-101.074,-18.555,-24.414,-105.469,-275.391
1678025771.023,-84.961,-21.973,-26.855,-91.309,12.695
1678025771.027,-101.562,-18.555,-19.531,-106.445,121.582
1678025771.031,-149.414,-14.648,-12.207,-149.414,-177.734
1678025771.048,-170.410,-18.555,-10.254,-162.598,-242.188
1678025771.052,-165.527,-8.789,-11.230,-146.973,-156.738
1678025771.056,-169.434,4.395,-2.930,-148.438,16.602
1678025771.060,-197.754,0.488,5.371,-184.082,34.180
1678025771.064,-235.840,-7.812,8.301,-211.426,-44.922
1678025771.068,-250.488,-10.742,16.602,-215.820,90.332
1678025771.072,-236.816,-4.883,14.648,-210.938,25.879
1678025771.075,-215.332,-1.953,12.695,-197.754,-29.297
1678025771.079,-223.633,-2.441,21.973,-207.520,95.703
1678025771.083,-258.789,-5.859,32.715,-225.586,288.086
1678025771.087,-267.578,-6.836,25.879,-236.328,62.500
1678025771.091,-235.840,-3.418,18.066,-233.398,-223.633
1678025771.091,-220.703,1.465,35.645,-216.309,-41.992
1678025771.095,-235.840,4.883,42.969,-226.562,65.918
1678025771.099,-236.328,-2.441,36.621,-239.746,-39.062
1678025771.103,-220.215,-3.906,35.156,-225.098,-197.754
1678025771.107,-217.285,0.488,36.621,-223.145,-113.770
1678025771.111,-202.637,-8.789,37.109,-202.637,32.715
1678025771.115,-179.688,-13.184,31.738,-177.246,133.301
1678025771.118,-205.078,-7.324,25.879,-203.613,42.480
1678025771.122,-226.562,-10.742,24.902,-216.309,0.488
1678025771.126,-203.613,-19.531,19.043,-190.430,128.906
1678025771.130,-165.527,-20.996,15.625,-153.809,-59.082
1678025771.134,-154.297,-14.648,14.160,-143.555,-35.156
1678025771.137,-183.105,-11.230,15.625,-188.965,-16.602
1678025771.141,-199.707,-17.578,17.090,-196.289,-168.945
1678025771.145,-181.641,-20.996,13.672,-168.457,-261.719
1678025771.149,-160.156,-17.578,8.301,-155.273,-126.465
1678025771.153,-145.508,-19.043,5.371,-131.348,54.688
1678025771.157,-151.367,-26.367,0.977,-135.742,8.301
1678025771.161,-167.480,-30.273,-1.465,-151.855,-118.164
1678025771.164,-154.785,-28.809,0.977,-155.273,-115.234
1678025771.168,-127.930,-26.367,0.488,-135.254,306.641
1678025771.172,-116.211,-38.574,3.906,-106.934,431.152
1678025771.176,-123.047,-42.969,-10.742,-122.559,-4.883
1678025771.180,-128.906,-35.645,-17.578,-126.465,-159.180
1678025771.181,-127.930,-38.086,-11.719,-127.441,-184.570
1678025771.185,-116.211,-38.574,-18.555,-121.094,-241.211
1678025771.189,-95.703,-41.016,-21.973,-85.938,-131.348
1678025771.193,-100.586,-49.805,-17.578,-83.984,-6.836
1678025771.197,-106.934,-53.711,-17.090,-107.910,-62.988
1678025771.201,-83.984,-51.758,-22.461,-97.168,-168.457
1678025771.205,-65.430,-47.363,-20.996,-73.730,-167.480
1678025771.208,-56.641,-53.223,-25.391,-57.617,106.934
1678025771.212,-65.430,-58.105,-31.738,-49.805,227.539
1678025771.216,-78.125,-54.199,-28.320,-62.500,-85.938
1678025771.220,-73.242,-50.293,-22.461,-82.031,-226.074
1678025771.224,-63.965,-47.363,-28.809,-74.219,-154.785
1678025771.226,-53.223,-47.852,-30.273,-51.758,-40.527
1678025771.230,-42.969,-52.734,-33.203,-44.434,-36.133
1678025771.234,-44.434,-57.129,-30.762,-30.762,-106.934
1678025771.238,-53.711,-55.176,-29.785,-54.199,-126.953
1678025771.242,-56.152,-53.711,-38.574,-73.242,-180.176
1678025771.246,-39.551,-54.199,-43.457,-44.922,-83.008
1678025771.250,-29.297,-58.594,-41.992,-28.809,107.422
1678025771.253,-55.664,-59.082,-35.156,-39.551,350.098
1678025771.257,-74.219,-60.547,-36.133,-52.246,149.414
1678025771.261,-54.688,-63.965,-37.598,-40.527,-271.484
1678025771.265,-34.180,-66.406,-36.133,-15.137,-153.320
1678025771.269,-26.367,-67.383,-39.062,-4.883,-19.531
1678025771.271,-36.621,-63.477,-37.109,-22.461,-96.680
1678025771.275,-48.340,-62.500,-35.645,-45.898,-220.703
1678025771.279,-29.785,-68.848,-40.527,-29.297,-45.898
1678025771.283,-11.230,-72.754,-41.504,7.812,131.348
1678025771.287,-10.742,-70.312,-41.992,12.207,29.297
1678025771.291,-26.367,-72.754,-42.969,0.977,-68.359
1678025771.295,-35.156,-73.730,-43.945,-8.301,-3.418
1678025771.298,-24.414,-72.266,-37.598,3.418,63.477
1678025771.302,-10.742,-76.172,-38.574,20.996,-126.953
1678025771.306,20.996,-78.613,-43.457,47.363,-55.176
1678025771.310,17.090,-72.754,-42.480,30.273,-31.250
1678025771.314,-1.465,-68.359,-44.922,9.766,-176.270
1678025771.318,5.371,-74.707,-45.410,27.832,-218.750
1678025771.322,28.809,-76.660,-46.875,45.898,-136.719
1678025771.326,63.477,-76.172,-51.758,72.754,164.551
1678025771.330,61.523,-77.148,-62.012,72.266,54.199
1678025771.334,50.781,-83.496,-63.965,75.684,-257.812
1678025771.338,45.410,-86.914,-58.105,80.078,-159.180
1678025771.342,62.500,-89.355,-56.641,99.121,148.926
1678025771.345,104.492,-88.867,-61.523,127.441,157.227
1678025771.349,118.164,-80.566,-72.266,124.512,0.000
1678025771.353,100.098,-81.543,-79.102,96.680,-32.227
1678025771.357,99.121,-79.590,-86.914,89.355,25.391
1678025771.361,132.324,-76.660,-88.867,119.629,-100.586
1678025771.361,149.902,-77.148,-86.914,139.648,-83.008
1678025771.365,142.090,-80.078,-96.680,134.277,83.984
1678025771.369,136.719,-82.520,-101.562,128.906,-43.457
1678025771.373,135.742,-77.148,-101.074,127.441,-196.289
1678025771.377,156.250,-80.566,-107.910,145.996,-151.367
1678025771.381,182.129,-82.520,-115.234,183.594,222.168
1678025771.385,185.059,-76.172,-117.676,190.918,391.602
1678025771.388,167.969,-68.359,-121.582,158.203,-31.250
1678025771.392,161.621,-65.430,-123.535,140.137,-278.320
1678025771.396,169.434,-67.871,-129.883,155.762,-167.969
1678025771.400,190.918,-66.895,-132.812,183.594,-39.062
1678025771.404,202.148,-66.406,-133.789,185.547,-54.199
1678025771.421,184.570,-64.453,-135.742,154.297,-165.527
1678025771.425,185.547,-63.965,-129.395,142.090,-225.586
1678025771.429,187.012,-62.500,-133.301,146.973,-219.238
1678025771.433,189.941,-55.176,-142.578,157.227,-146.973
1678025771.437,188.965,-58.105,-138.184,162.109,-9.766
1678025771.441,165.039,-61.523,-127.930,144.531,-0.488
1678025771.445,158.691,-62.012,-124.023,133.789,-103.027
1678025771.448,178.711,-70.801,-125.977,150.391,-83.984
1678025771.452,192.871,-74.219,-125.977,172.363,30.273
1678025771.456,192.383,-67.871,-116.699,181.641,339.844
1678025771.460,174.805,-59.570,-112.305,172.363,296.875
1678025771.464,144.043,-60.547,-115.723,132.324,-209.961
1678025771.466,143.555,-66.895,-116.699,113.281,-223.145
1678025771.470,159.668,-66.406,-115.723,138.184,-19.531
1678025771.474,164.551,-62.500,-110.840,141.602,-7.324
1678025771.478,147.949,-62.988,-109.375,118.164,-52.734
1678025771.482,140.137,-69.824,-105.469,104.004,-148.926
1678025771.486,142.090,-74.219,-102.051,109.375,-49.805
1678025771.490,145.020,-57.617,-103.516,131.836,28.320
1678025771.493,160.156,-44.434,-100.586,153.320,-37.598
1678025771.497,147.461,-53.711,-98.145,146.973,110.352
1678025771.501,115.234,-62.500,-95.703,107.910,221.680
1678025771.505,123.047,-59.570,-83.008,109.375,-75.684
1678025771.509,142.578,-54.199,-72.754,138.672,-205.078
1678025771.511,143.066,-58.105,-80.078,143.555,-6.348
1678025771.515,132.812,-58.594,-86.914,132.812,7.812
1678025771.519,112.793,-56.641,-83.496,100.586,-198.730
1678025771.523,107.422,-57.129,-79.590,78.125,-217.773
1678025771.527,126.465,-58.594,-82.520,93.262,-90.820
1678025771.531,137.695,-59.570,-82.520,119.629,6.836
1678025771.535,125.488,-51.758,-72.266,124.023,45.898
1678025771.538,96.191,-50.781,-65.918,89.355,-98.145
1678025771.542,82.520,-51.270,-66.895,85.449,57.129
1678025771.546,96.191,-48.340,-67.871,103.027,160.156
1678025771.550,112.305,-42.969,-76.172,107.910,-30.273
1678025771.554,114.746,-39.551,-75.684,107.422,112.305
1678025771.557,88.379,-44.434,-65.430,79.590,30.273
1678025771.561,67.383,-41.504,-60.059,58.105,-272.949
1678025771.565,71.777,-38.574,-61.035,66.895,-252.930
1678025771.569,88.867,-43.945,-59.570,91.309,-56.641
1678025771.573,83.496,-51.270,-56.152,83.984,25.879
1678025771.577,64.453,-48.340,-53.223,44.922,-1.465
1678025771.581,70.801,-43.457,-52.734,44.434,-56.152
1678025771.584,74.219,-44.922,-52.246,70.801,73.242
1678025771.588,80.566,-39.062,-56.641,82.520,203.125
1678025771.592,91.309,-30.762,-56.152,80.078,-3.906
1678025771.596,69.336,-34.180,-52.734,63.477,-117.188
1678025771.600,51.270,-31.738,-44.434,51.270,-158.691
1678025771.603,57.617,-32.715,-40.039,59.570,-176.758
1678025771.607,64.453,-48.340,-52.734,80.078,-134.766
1678025771.611,74.219,-44.434,-56.641,81.055,-19.043
1678025771.615,59.570,-39.551,-52.734,43.945,22.461
1678025771.619,34.180,-41.504,-55.176,13.184,-144.043
1678025771.623,41.992,-31.250,-51.758,21.973,-169.434
1678025771.627,68.359,-28.320,-46.387,50.781,41.504
1678025771.630,73.242,-33.203,-43.457,65.430,463.867
1678025771.634,41.016,-33.203,-41.504,44.922,368.652
1678025771.638,25.879,-33.203,-38.574,35.645,-199.219
1678025771.642,46.875,-34.180,-37.598,65.430,-235.840
1678025771.646,65.918,-21.484,-42.480,71.289,-124.023
1678025771.661,61.035,-11.719,-56.152,42.480,-93.262
1678025771.665,35.156,-15.625,-54.688,25.391,-103.027
1678025771.669,12.207,-16.113,-47.363,16.113,-177.734
1678025771.673,21.484,-21.484,-49.316,28.320,-193.848
1678025771.677,40.527,-25.391,-52.246,54.199,-80.078
1678025771.681,38.574,-21.484,-50.781,56.152,58.105
1678025771.685,19.531,-20.020,-53.223,45.410,227.051
1678025771.688,0.488,-25.391,-57.617,20.996,253.418
1678025771.692,3.418,-32.227,-54.199,3.906,-96.191
1678025771.696,31.738,-34.180,-53.711,40.527,-248.047
1678025771.700,50.293,-30.273,-54.688,64.453,-70.312
1678025771.704,48.340,-20.020,-50.781,45.898,-40.527
1678025771.691,22.949,-15.625,-45.410,17.578,-246.094
1678025771.695,22.461,-23.438,-43.945,13.672,-287.598
1678025771.699,42.480,-30.762,-51.758,33.691,-115.723
1678025771.703,48.340,-26.855,-52.246,48.828,-36.621
1678025771.707,34.668,-26.367,-41.992,34.180,-59.570
1678025771.711,12.207,-31.738,-37.598,0.488,-16.602
1678025771.715,9.766,-27.832,-37.598,3.418,-3.418
1678025771.718,23.438,-23.926,-35.645,20.020,-83.984
1678025771.722,31.738,-21.973,-39.062,19.043,10.742
1678025771.726,23.926,-20.996,-39.551,19.531,104.492
1678025771.730,6.836,-22.949,-37.598,15.625,245.605
1678025771.734,2.441,-26.367,-41.016,5.371,222.656
1678025771.737,19.043,-28.320,-38.574,8.789,-77.148
1678025771.741,41.992,-25.391,-39.062,26.855,-70.312
1678025771.745,43.457,-23.926,-38.574,40.039,57.129
1678025771.749,16.602,-26.367,-36.621,14.160,-112.793
1678025771.753,6.836,-26.855,-39.551,-3.418,-288.086
1678025771.757,27.832,-23.438,-37.598,8.789,-80.566
1678025771.761,45.898,-23.926,-38.086,21.484,89.355
1678025771.764,45.410,-20.508,-45.898,33.691,23.438
1678025771.768,11.230,-20.508,-46.387,19.531,-95.703
1678025771.772,-6.836,-29.297,-50.781,1.953,28.320
1678025771.776,4.883,-29.785,-54.199,-4.395,60.059
1678025771.780,27.832,-19.043,-41.016,13.184,-97.656
1678025771.797,37.598,-18.066,-41.504,26.367,-21.484
1678025771.801,6.836,-27.832,-47.363,4.883,133.301
1678025771.805,-19.043,-20.996,-43.945,-18.555,44.922
1678025771.809,-10.742,-18.066,-45.410,-17.090,-209.961
1678025771.813,18.555,-27.344,-39.551,9.277,-129.395
1678025771.817,27.832,-32.715,-42.969,20.020,102.539
1678025771.821,2.930,-28.320,-42.969,2.930,73.730
1678025771.824,-15.137,-21.484,-29.297,-13.672,-146.973
1678025771.828,-20.996,-27.344,-36.621,-14.160,-179.688
1678025771.832,1.953,-34.180,-41.016,12.207,200.195
1678025771.836,14.160,-38.086,-33.203,15.625,306.641
1678025771.840,-7.324,-34.668,-34.180,-12.695,-16.113
1678025771.842,-23.438,-31.738,-34.180,-25.391,-65.430
1678025771.846,-18.066,-34.180,-31.738,-20.508,-103.516
1678025771.850,1.953,-28.809,-35.645,-8.789,-167.969
1678025771.854,4.395,-26.367,-35.645,13.672,-70.312
1678025771.858,-13.672,-25.391,-39.062,-1.953,5.371
1678025771.862,-35.645,-28.809,-44.434,-28.320,-62.500
1678025771.866,-30.273,-35.156,-35.156,-24.414,-135.742
1678025771.869,-11.230,-35.645,-35.156,-15.137,-204.102
1678025771.873,6.836,-32.227,-36.621,9.766,60.547
1678025771.877,4.395,-29.297,-33.691,13.184,257.812
1678025771.881,-18.066,-32.715,-37.598,-23.438,-158.691
1678025771.885,-25.391,-31.738,-40.527,-41.504,-270.996
1678025771.902,-18.555,-26.855,-42.480,-20.020,-125.977
1678025771.906,6.348,-30.273,-41.992,3.906,-11.719
1678025771.910,8.789,-31.250,-45.410,-3.418,-53.223
1678025771.914,-20.508,-22.949,-46.875,-29.785,-240.723
1678025771.918,-19.043,-20.020,-37.598,-39.062,-157.227
1678025771.922,13.672,-21.973,-35.645,-13.672,-85.449
1678025771.926,10.254,-26.855,-45.410,-5.859,-11.719
1678025771.929,-26.367,-34.180,-42.969,-29.785,136.719
1678025771.933,-39.551,-38.574,-38.086,-41.504,283.203
1678025771.937,-43.945,-39.551,-44.922,-38.086,122.559
1678025771.941,-34.668,-44.922,-42.969,-31.250,-177.734
1678025771.945,-11.719,-38.574,-36.621,-1.465,-44.922
1678025771.931,-6.836,-26.367,-37.109,4.395,62.500
1678025771.935,-41.992,-26.855,-35.645,-23.926,-97.168
1678025771.939,-61.035,-23.926,-31.738,-24.414,-241.211
1678025771.943,-46.875,-23.438,-35.645,-6.348,-84.473
1678025771.947,-32.227,-36.621,-39.062,10.254,59.570
1678025771.951,-32.715,-41.504,-39.551,6.836,27.344
1678025771.955,-47.363,-29.785,-34.180,-20.020,-19.531
1678025771.958,-51.758,-32.715,-21.973,-33.691,-130.859
1678025771.962,-47.363,-38.574,-27.832,-24.414,-165.039
1678025771.966,-26.855,-35.156,-39.551,-2.930,-78.125
1678025771.970,-3.906,-20.508,-25.391,16.113,-39.062
1678025771.974,-14.160,-9.766,-14.648,4.395,111.328
1678025771.977,-45.898,-17.090,-26.367,-38.574,88.867
1678025771.981,-51.270,-24.902,-34.668,-57.617,-205.566
1678025771.985,-23.926,-31.250,-36.133,-25.879,-91.309
1678025771.989,-18.555,-29.785,-31.250,1.953,23.438
1678025771.993,-39.551,-28.320,-30.762,-15.625,-43.457
1678025771.997,-45.898,-30.273,-26.855,-49.316,-83.496
1678025772.001,-35.156,-31.250,-23.926,-46.387,-87.891
1678025772.004,-15.625,-26.855,-26.855,-7.812,232.910
1678025772.008,-9.277,-31.738,-36.621,7.324,340.332
1678025772.012,-28.320,-44.922,-34.668,-8.789,-60.547
1678025772.016,-36.621,-39.062,-16.113,-19.531,-130.371
1678025772.020,-33.203,-32.715,-16.113,-23.926,-42.969
1678025772.022,-25.879,-40.039,-22.949,-12.695,-125.000
1678025772.026,-11.719,-42.480,-37.598,-7.324,-77.148
1678025772.030,-19.043,-31.250,-41.016,-17.578,-16.113
1678025772.034,-43.945,-24.902,-35.645,-36.133,-149.414
1678025772.038,-40.039,-27.344,-37.598,-39.551,-203.613
1678025772.042,-17.090,-24.414,-26.367,-25.879,-81.055
1678025772.046,-6.348,-25.391,-20.996,-13.184,192.383
1678025772.049,-16.113,-33.691,-26.855,-18.555,312.012
1678025772.053,-41.504,-37.598,-32.715,-45.898,4.395
1678025772.057,-52.246,-34.180,-32.227,-54.199,-179.688
1678025772.061,-29.785,-25.879,-36.621,-42.480,-79.590
1678025772.065,-9.766,-33.691,-45.410,-22.949,53.711
1678025772.067,-28.320,-47.852,-47.852,-27.832,-13.672
1678025772.071,-49.805,-46.875,-42.480,-53.223,-143.066
1678025772.075,-53.223,-40.527,-34.180,-61.035,-216.309
1678025772.079,-36.133,-26.855,-30.273,-34.180,-146.484
1678025772.083,-16.113,-21.973,-30.273,-5.859,-54.199
1678025772.087,-17.578,-27.344,-30.273,-16.113,99.121
1678025772.091,-34.180,-32.227,-35.645,-43.457,198.730
1678025772.094,-49.316,-32.715,-37.598,-55.176,3.906
1678025772.098,-39.062,-31.250,-35.156,-52.734,-134.766
1678025772.102,-12.695,-30.762,-30.273,-21.484,-62.500
1678025772.106,-10.742,-26.855,-21.973,-6.348,229.004
1678025772.110,-28.320,-25.879,-24.902,-39.062,72.266
1678025772.127,-38.574,-36.621,-29.785,-60.547,-268.066
1678025772.131,-22.461,-34.668,-34.180,-40.039,-209.473
1678025772.135,4.395,-12.695,-31.250,-12.207,-126.465
1678025772.139,-4.395,-24.902,-28.809,-8.301,-73.730
1678025772.143,-25.879,-34.668,-23.438,-25.879,-144.043
1678025772.147,-19.531,-19.043,-15.625,-34.180,-96.680
1678025772.151,-10.254,-21.484,-27.344,-36.133,-23.438
1678025772.154,-9.277,-21.484,-36.621,-31.738,-98.145
1678025772.158,-6.348,-20.508,-33.691,-16.602,-54.199
1678025772.162,-19.043,-28.809,-33.691,-29.785,88.379
1678025772.166,-42.969,-33.203,-32.715,-46.387,-2.441
1678025772.170,-30.273,-34.668,-33.691,-34.180,-248.047
1678025772.172,-10.742,-35.645,-33.691,-7.812,-114.258
1678025772.176,-9.766,-30.273,-30.273,3.906,125.000
1678025772.180,-21.973,-24.414,-36.621,-19.531,40.527
1678025772.184,-37.109,-26.367,-26.367,-43.945,-192.383
1678025772.188,-34.668,-31.250,-17.578,-37.598,-242.676
1678025772.192,-25.879,-28.320,-25.391,-22.461,-48.340
1678025772.196,-20.020,-21.484,-29.297,-14.648,66.895
1678025772.199,-32.715,-28.320,-34.180,-31.738,-27.344
1678025772.203,-52.246,-38.086,-33.691,-48.340,-161.621
1678025772.207,-48.340,-30.273,-36.133,-46.387,107.910
1678025772.211,-26.367,-25.879,-35.156,-43.457,178.711
1678025772.215,-7.812,-22.461,-29.785,-21.484,-61.523
1678025772.217,-20.508,-29.297,-37.109,-27.344,-42.969
1678025772.221,-31.738,-29.785,-28.320,-47.363,-129.883
1678025772.225,-22.949,-22.949,-17.578,-50.293,-236.328
1678025772.229,-15.625,-28.320,-33.203,-54.688,-163.574
1678025772.233,-11.230,-27.344,-34.180,-40.039,77.148
1678025772.237,-17.090,-27.832,-27.344,-31.250,223.633
1678025772.241,-46.875,-35.645,-28.320,-45.410,37.109
1678025772.244,-61.523,-31.738,-34.668,-67.383,-160.156
1678025772.248,-42.969,-31.738,-42.480,-61.523,12.207
1678025772.252,-27.832,-33.691,-46.387,-28.320,258.301
1678025772.256,-34.668,-25.879,-43.457,-36.133,51.270
1678025772.260,-56.641,-29.297,-35.645,-64.941,-80.078
1678025772.262,-59.570,-35.156,-29.785,-72.266,-69.336
1678025772.266,-46.875,-23.926,-30.762,-58.105,-78.125
1678025772.270,-23.438,-17.090,-34.668,-31.738,-15.625
1678025772.274,-28.809,-32.715,-42.969,-36.621,29.785
1678025772.278,-57.617,-40.039,-47.363,-61.035,-31.738
1678025772.282,-56.641,-32.715,-33.203,-71.777,-103.027
1678025772.286,-34.668,-32.715,-20.020,-62.988,-128.418
1678025772.289,-18.555,-37.598,-23.926,-34.668,58.105
1678025772.293,-25.879,-29.297,-29.785,-22.461,374.512
1678025772.297,-49.805,-19.043,-28.320,-51.270,56.641
1678025772.301,-58.105,-18.555,-25.391,-62.012,-279.785
1678025772.305,-40.039,-20.508,-25.391,-46.387,-155.273
1678025772.306,-15.137,-25.879,-22.949,-12.207,243.164
1678025772.310,-18.066,-31.250,-27.832,8.789,241.211
1678025772.314,-42.969,-31.738,-28.809,-38.574,-72.754
1678025772.318,-51.270,-25.879,-30.273,-74.219,-119.141
1678025772.322,-34.668,-23.926,-37.109,-56.152,-156.250
1678025772.326,-23.438,-23.438,-35.645,-35.156,-87.402
1678025772.330,-23.926,-25.391,-31.250,-35.156,-20.508
1678025772.333,-39.551,-31.738,-29.785,-44.922,218.750
1678025772.337,-58.105,-29.297,-28.809,-60.059,315.918
1678025772.341,-55.176,-27.832,-31.738,-69.824,-56.641
1678025772.345,-38.086,-24.414,-30.762,-37.598,-178.223
1678025772.349,-32.715,-22.949,-35.156,-20.508,-59.082
1678025772.366,-44.434,-29.297,-41.016,-43.457,-14.160
1678025772.370,-57.129,-25.391,-37.109,-60.059,-206.055
1678025772.374,-51.758,-18.555,-35.156,-61.035,-245.117
1678025772.378,-31.738,-18.555,-38.574,-45.410,-100.098
1678025772.382,-14.160,-20.996,-37.598,-29.297,-35.156
1678025772.386,-27.832,-22.461,-36.133,-49.805,-92.773
1678025772.390,-62.012,-31.738,-36.133,-71.777,-98.145
1678025772.393,-69.336,-34.180,-38.086,-61.035,229.492
1678025772.397,-48.340,-20.996,-37.109,-49.805,261.719
1678025772.401,-26.855,-15.137,-35.156,-41.992,-42.969
1678025772.405,-31.250,-23.438,-33.203,-36.621,6.348
1678025772.409,-53.711,-25.391,-24.414,-51.758,56.641
1678025772.397,-57.129,-25.391,-22.949,-70.801,-161.621
1678025772.401,-34.180,-26.855,-33.203,-58.594,-202.148
1678025772.405,-20.020,-22.461,-34.180,-40.039,-44.922
1678025772.409,-26.855,-19.531,-29.297,-38.574,-2.441
1678025772.413,-40.039,-14.160,-29.297,-49.316,-167.969
1678025772.417,-50.293,-16.602,-31.250,-69.336,-250.977
1678025772.421,-38.574,-22.461,-30.762,-59.082,-34.180
1678025772.424,-23.926,-20.996,-32.715,-35.156,51.758
1678025772.428,-40.039,-26.855,-33.691,-36.621,-21.973
1678025772.432,-61.035,-28.320,-34.180,-63.965,-156.738
1678025772.436,-67.383,-19.531,-32.227,-74.707,-20.996
1678025772.440,-66.406,-18.066,-32.227,-59.570,88.867
1678025772.458,-49.805,-19.531,-33.203,-45.410,-63.965
1678025772.462,-46.387,-16.602,-29.785,-25.391,-10.254
1678025772.466,-77.148,-12.207,-21.973,-44.922,3.418
1678025772.470,-85.938,-13.184,-17.090,-82.031,-153.809
1678025772.474,-68.848,-10.254,-21.484,-79.102,-264.160
1678025772.478,-63.477,-8.789,-21.484,-62.988,-99.121
1678025772.482,-54.199,-9.277,-17.578,-41.992,195.801
1678025772.485,-67.871,-11.719,-6.348,-54.199,143.066
1678025772.489,-109.863,-8.789,-2.441,-103.516,-198.730
1678025772.493,-120.605,-0.488,-5.371,-118.164,-297.852
1678025772.497,-111.328,-0.977,1.953,-101.074,-15.625
1678025772.501,-113.281,-1.465,4.883,-98.633,8.301
1678025772.502,-145.508,1.465,15.137,-130.371,-131.348
1678025772.506,-177.734,5.371,31.250,-160.156,-165.039
1678025772.510,-183.594,13.672,32.227,-173.828,-159.180
1678025772.514,-190.918,11.719,27.344,-193.359,-92.285
1678025772.518,-191.895,9.766,27.344,-191.895,-46.875
1678025772.522,-221.191,14.648,32.715,-211.426,35.156
1678025772.526,-264.648,13.672,34.180,-246.094,43.945
1678025772.529,-260.254,18.066,34.180,-240.234,-105.469
1678025772.533,-237.305,26.367,39.062,-222.656,-186.035
1678025772.537,-254.883,25.391,43.457,-228.516,104.980
1678025772.541,-279.785,21.484,39.551,-246.094,328.613
1678025772.545,-291.504,17.578,43.457,-260.254,-89.844
1678025772.547,-300.781,17.578,53.223,-270.996,-305.664
1678025772.551,-281.250,15.625,50.781,-259.766,-133.789
1678025772.555,-239.746,15.625,49.805,-225.098,-19.043
1678025772.559,-251.465,24.902,49.805,-238.770,-96.191
1678025772.563,-283.203,18.066,51.270,-275.879,-166.992
1678025772.567,-274.902,9.277,49.805,-267.578,-128.906
1678025772.571,-249.023,15.137,42.480,-242.188,-40.527
1678025772.574,-216.797,17.578,42.969,-210.449,29.785
1678025772.578,-229.980,21.973,46.875,-216.309,15.137
1678025772.582,-266.113,21.484,44.434,-254.883,181.641
1678025772.586,-260.254,17.090,44.434,-247.070,148.438
1678025772.590,-228.027,15.625,44.922,-216.797,-125.000
1678025772.592,-196.289,12.207,41.016,-191.895,-59.082
1678025772.596,-207.031,8.301,42.969,-201.172,-3.418
1678025772.600,-224.121,7.324,36.621,-214.355,-125.488
1678025772.604,-228.516,4.883,25.391,-205.566,-186.035
1678025772.608,-232.910,9.277,24.902,-197.266,-100.098
1678025772.612,-229.492,13.672,22.461,-185.547,34.668
1678025772.616,-243.652,5.371,17.578,-173.340,41.992
1678025772.619,-262.207,0.977,20.996,-185.547,-92.773
1678025772.623,-258.789,-1.465,20.996,-192.871,43.457
1678025772.627,-231.934,-9.277,15.625,-161.621,219.238
1678025772.631,-207.031,-9.766,14.648,-156.250,21.973
1678025772.635,-209.473,-5.371,19.043,-164.551,-36.133
1678025772.637,-227.051,-5.859,22.461,-171.387,-58.105
1678025772.641,-221.680,-6.836,20.508,-176.758,-222.656
1678025772.645,-203.125,-7.324,17.578,-156.250,-258.301
1678025772.649,-184.082,0.977,15.625,-131.836,-145.020
1678025772.653,-180.664,0.977,14.648,-131.348,2.930
1678025772.657,-203.125,-8.301,15.137,-150.391,64.941
1678025772.661,-210.449,-5.371,18.555,-166.504,-56.152
1678025772.664,-204.590,-6.836,14.160,-157.715,-42.480
1678025772.668,-192.871,-9.766,11.719,-116.211,310.059
1678025772.672,-183.594,-11.230,12.207,-102.051,428.223
1678025772.676,-190.430,-13.184,17.578,-136.719,19.531
1678025772.680,-196.289,-9.277,23.438,-153.320,-166.504
1678025772.681,-184.570,-7.812,17.578,-139.160,-40.527
1678025772.685,-161.133,-12.207,18.066,-123.535,-128.906
1678025772.689,-150.391,-13.672,18.066,-114.258,-129.395
1678025772.693,-165.039,-18.555,8.301,-130.371,-86.426
1678025772.697,-181.152,-19.043,6.836,-144.531,-199.707
1678025772.701,-180.176,-17.578,6.348,-131.836,-231.934
1678025772.705,-167.969,-21.484,7.324,-103.516,-95.703
1678025772.708,-155.762,-25.879,17.578,-79.102,145.020
1678025772.712,-169.922,-24.414,8.789,-100.586,191.895
1678025772.716,-180.664,-23.438,-5.371,-126.953,-160.156
1678025772.720,-164.551,-22.461,-1.953,-121.582,-315.918
1678025772.724,-143.066,-18.066,-2.930,-95.215,-129.395
1678025772.727,-140.625,-19.043,-1.465,-78.613,26.855
1678025772.731,-147.949,-23.926,0.000,-84.473,-75.195
1678025772.735,-156.250,-25.391,-3.418,-95.703,-157.227
1678025772.739,-147.949,-26.855,-9.766,-84.473,-84.473
1678025772.743,-129.883,-32.715,-7.324,-84.961,-39.551
1678025772.747,-124.023,-30.273,-2.930,-84.473,40.527
1678025772.751,-128.418,-29.297,-8.789,-79.102,89.844
1678025772.754,-139.648,-37.598,-16.602,-85.449,220.703
1678025772.758,-135.254,-41.016,-12.695,-80.078,147.949
1678025772.762,-124.512,-40.527,-15.137,-70.801,-176.758
1678025772.766,-118.164,-38.574,-22.949,-57.129,-87.402
1678025772.770,-110.352,-39.062,-28.320,-54.688,54.199
1678025772.773,-107.910,-43.457,-24.414,-67.871,-75.684
1678025772.777,-112.793,-44.922,-15.625,-81.543,-264.160
1678025772.781,-96.680,-47.852,-24.414,-65.918,-60.059
1678025772.785,-60.547,-48.340,-21.484,-29.297,68.848
1678025772.789,-42.969,-40.527,-17.578,-18.066,-24.902
1678025772.793,-62.500,-41.504,-24.902,-53.223,-96.680
1678025772.797,-71.289,-50.293,-25.391,-57.129,69.336
1678025772.800,-41.504,-43.457,-21.484,-17.578,195.312
1678025772.804,-11.230,-33.691,-25.879,-4.395,-53.711
1678025772.808,-11.719,-41.016,-35.156,-0.977,-54.688
1678025772.812,-35.645,-50.781,-32.715,-13.184,-133.789
1678025772.816,-47.363,-54.688,-33.691,-27.832,-228.027
1678025772.817,-38.574,-49.805,-31.738,-21.484,-225.586
1678025772.821,-17.090,-33.691,-36.133,-0.488,-87.891
1678025772.825,1.953,-24.902,-42.480,24.902,82.520
1678025772.829,-11.230,-30.762,-43.945,5.859,-68.359
1678025772.833,-26.367,-34.180,-57.129,-33.691,-157.227
1678025772.837,-2.441,-31.738,-67.871,-13.184,-61.035
1678025772.841,33.691,-29.785,-62.988,37.598,308.105
1678025772.844,43.457,-28.320,-68.848,48.340,423.340
1678025772.848,25.391,-33.691,-76.660,15.625,-72.266
1678025772.852,18.555,-36.133,-76.660,1.953,-217.285
1678025772.856,41.016,-29.785,-81.055,32.227,-50.781
1678025772.860,65.430,-27.832,-80.078,55.176,-83.984
1678025772.877,75.684,-30.273,-80.566,70.801,-90.332
1678025772.881,78.125,-22.461,-85.938,66.406,-57.129
1678025772.885,61.035,-20.508,-92.773,41.992,-115.234
1678025772.889,68.848,-26.367,-94.238,52.246,-261.719
1678025772.893,95.703,-22.461,-95.215,77.637,-224.121
1678025772.897,104.004,-15.625,-96.191,92.285,133.301
1678025772.901,97.168,-17.090,-96.191,90.820,132.324
1678025772.904,82.031,-16.602,-98.633,73.730,-95.703
1678025772.908,74.707,-15.625,-104.980,53.711,-233.398
1678025772.912,89.355,-15.137,-105.469,65.430,-34.668
1678025772.916,114.746,-22.461,-103.516,98.633,224.609
1678025772.920,112.793,-24.414,-110.840,103.027,-21.484
1678025772.922,85.938,-17.090,-109.863,81.055,-145.020
1678025772.926,76.660,-18.555,-102.051,64.941,-148.438
1678025772.930,89.844,-27.344,-96.680,75.684,-80.078
1678025772.934,104.492,-38.574,-93.262,97.656,-27.832
1678025772.938,101.074,-27.832,-88.379,88.867,13.672
1678025772.942,75.684,-11.719,-82.520,69.336,85.449
1678025772.946,65.918,-14.160,-80.566,77.148,-18.555
1678025772.949,68.359,-20.996,-83.984,78.613,-62.500
1678025772.953,84.961,-14.648,-83.008,89.844,87.891
1678025772.957,92.285,-13.672,-79.102,95.703,393.555
1678025772.961,60.547,-20.508,-81.055,56.152,315.430
1678025772.965,50.781,-15.625,-77.148,44.922,-142.578
1678025772.967,65.430,-15.137,-71.777,60.547,-128.906
1678025772.971,82.031,-19.043,-75.195,75.195,5.371
1678025772.975,84.473,-23.438,-72.754,83.008,-43.945
1678025772.979,53.711,-27.344,-75.684,51.758,-97.656
1678025772.983,42.969,-14.160,-76.172,47.852,-152.344
1678025772.987,62.012,-3.906,-62.500,63.965,-138.184
1678025772.991,74.707,-12.695,-55.664,65.918,-34.180
1678025772.994,77.637,-11.719,-59.082,70.312,-45.898
1678025772.998,66.406,-6.836,-63.965,58.105,57.617
1678025773.002,41.016,-12.695,-61.035,43.945,83.008
1678025773.006,40.039,-10.742,-55.664,38.086,-252.930
1678025773.010,66.895,-4.395,-53.223,48.340,-191.406
1678025773.012,71.777,-7.324,-57.129,66.895,163.086
1678025773.016,46.875,-10.742,-59.082,48.340,108.398
1678025773.020,30.273,-0.977,-56.641,21.484,-184.570
1678025773.024,36.621,-5.859,-53.223,27.832,-183.105
1678025773.028,54.199,-9.277,-50.293,45.410,-104.004
1678025773.032,58.105,-4.395,-54.688,57.617,100.586
1678025773.036,34.668,-7.324,-55.176,39.062,117.188
1678025773.039,12.207,-5.371,-45.410,19.531,-81.543
1678025773.043,12.695,-4.395,-38.574,31.250,39.551
1678025773.047,30.273,-6.836,-41.504,31.738,39.551
1678025773.051,43.457,-11.230,-41.992,35.645,-180.664
1678025773.055,34.668,-10.254,-40.039,41.504,-71.777
1678025773.058,13.672,-7.812,-41.504,14.160,58.594
1678025773.062,15.137,-2.930,-43.457,0.000,-143.555
1678025773.066,32.227,-0.488,-47.852,20.996,-167.969
1678025773.070,39.551,-2.930,-49.316,35.645,72.266
1678025773.074,21.484,-2.441,-37.109,27.344,108.398
1678025773.078,-0.488,-7.324,-24.902,12.695,-47.363
1678025773.082,1.953,-18.066,-22.949,0.977,-62.500
1678025773.085,17.578,-24.414,-35.645,10.254,179.688
1678025773.089,29.297,-13.672,-36.621,43.457,273.926
1678025773.093,21.973,-4.883,-32.227,29.785,-30.273
1678025773.097,-1.953,-7.324,-35.645,1.953,-182.617
1678025773.101,-4.395,-10.742,-35.645,-0.488,-169.922
1678025773.102,6.348,-17.090,-44.434,17.578,-148.926
1678025773.106,13.672,-14.160,-40.527,33.203,-67.383
1678025773.110,9.277,-15.625,-33.691,17.578,-61.523
1678025773.114,-28.809,-23.926,-37.598,-12.207,-111.328
1678025773.118,-40.039,-20.020,-39.062,-28.809,-134.766
1678025773.122,-8.301,-15.625,-37.598,-17.578,-44.922
1678025773.126,9.766,-12.695,-34.668,0.488,80.078
1678025773.129,0.000,-17.578,-34.180,3.418,345.703
1678025773.133,-21.973,-20.020,-38.574,-14.648,344.238
1678025773.137,-39.062,-17.090,-39.551,-32.227,-162.598
1678025773.141,-28.809,-19.043,-33.691,-20.020,-209.473
1678025773.145,-13.184,-12.695,-35.645,0.000,-18.066
1678025773.146,-9.277,-11.719,-38.086,6.348,-16.113
1678025773.150,-35.645,-23.438,-38.574,-25.391,-97.656
1678025773.154,-42.969,-26.855,-41.016,-47.852,-168.457
1678025773.158,-22.949,-19.043,-40.039,-31.738,-121.582
1678025773.162,-30.273,-10.742,-37.598,-26.367,-88.379
1678025773.166,-37.598,-17.578,-40.527,-33.203,-11.230
1678025773.170,-46.387,-21.973,-47.852,-37.598,187.988
1678025773.173,-59.082,-19.043,-52.246,-40.527,187.012
1678025773.177,-49.316,-23.438,-52.246,-32.715,-121.582
1678025773.181,-35.156,-23.926,-49.805,-8.301,-111.816
1678025773.185,-20.020,-22.461,-49.805,0.977,9.766
1678025773.189,-26.367,-23.438,-45.898,-10.254,-98.145
1678025773.192,-46.875,-23.926,-41.016,-26.855,-261.719
1678025773.196,-44.434,-21.484,-41.016,-36.621,-211.914
1678025773.200,-20.020,-15.137,-38.574,-18.066,-74.219
1678025773.204,-9.766,-18.066,-35.645,2.441,-33.691
1678025773.208,-33.691,-22.461,-36.133,-18.066,-62.988
1678025773.212,-48.340,-18.066,-38.086,-37.109,-72.754
1678025773.216,-38.086,-13.672,-41.016,-27.344,101.074
1678025773.219,-17.090,-13.184,-37.598,-16.113,107.422
1678025773.223,-11.719,-20.508,-30.762,-4.395,78.125
1678025773.227,-31.250,-24.902,-38.574,-14.648,160.156
1678025773.231,-53.223,-22.461,-41.992,-33.691,177.734
1678025773.235,-58.105,-23.926,-30.762,-43.945,-31.250
1678025773.251,-43.457,-22.949,-27.832,-41.992,-181.641
1678025773.255,-28.809,-19.531,-33.691,-22.461,37.109
1678025773.259,-40.527,-21.973,-45.410,-23.438,40.527
1678025773.263,-59.082,-29.297,-50.293,-43.457,-114.746
1678025773.267,-52.246,-24.414,-47.363,-38.574,-199.707
1678025773.271,-32.715,-7.324,-39.062,-12.695,1.953
1678025773.275,-24.902,-8.789,-33.203,-19.531,157.715
1678025773.278,-35.156,-13.184,-27.832,-38.086,18.066
1678025773.282,-51.758,-13.184,-26.855,-51.758,-121.582
1678025773.286,-59.082,-16.113,-31.250,-45.898,-54.199
1678025773.290,-58.105,-15.137,-34.668,-19.531,51.270
1678025773.294,-41.992,-16.602,-30.273,-12.207,12.695
1678025773.297,-37.109,-20.996,-34.180,-18.066,-88.379
1678025773.301,-64.453,-12.695,-29.785,-44.434,-148.926
1678025773.305,-70.801,-9.277,-24.414,-52.734,-153.809
1678025773.309,-57.129,-10.254,-34.180,-46.875,-196.289
1678025773.313,-42.480,-1.465,-35.156,-35.645,-60.059
1678025773.317,-34.668,0.977,-31.738,-25.879,71.777
1678025773.321,-62.012,-11.719,-30.273,-46.875,-84.961
1678025773.324,-78.125,-9.766,-27.832,-59.082,-136.230
1678025773.328,-62.012,-4.395,-34.180,-45.410,-98.633
1678025773.332,-37.109,-5.371,-33.203,-13.672,200.684
1678025773.336,-34.180,-12.207,-27.344,-17.578,262.207
1678025773.340,-67.871,-21.484,-32.715,-60.547,-146.484
1678025773.341,-85.449,-19.531,-34.180,-76.660,-251.953
1678025773.345,-67.383,-16.113,-26.367,-58.105,-137.207
1678025773.349,-41.504,-17.578,-25.391,-20.508,-137.695
1678025773.353,-33.203,-21.484,-30.273,-15.137,-136.230
1678025773.357,-48.828,-20.020,-29.785,-39.551,-45.410
1678025773.361,-74.219,-17.578,-25.391,-51.758,-7.324
1678025773.365,-69.824,-13.184,-28.320,-48.340,-100.098
1678025773.368,-40.039,-10.254,-30.273,-30.273,-123.535
1678025773.372,-31.250,-14.648,-29.297,-17.090,119.629
1678025773.376,-50.293,-19.043,-30.762,-32.715,212.891
1678025773.380,-68.359,-21.973,-28.320,-62.012,-99.609
1678025773.384,-59.570,-20.996,-27.344,-60.547,-155.273
1678025773.387,-41.992,-13.672,-27.344,-32.715,-40.527
1678025773.391,-31.738,-4.883,-22.461,-11.230,-2.441
1678025773.395,-44.434,-6.348,-19.531,-30.273,-85.449
1678025773.399,-61.523,-15.625,-28.809,-51.758,-139.648
1678025773.403,-54.688,-22.461,-30.762,-30.273,-78.125
1678025773.407,-35.645,-15.625,-20.508,-26.855,-58.594
1678025773.411,-27.832,-13.672,-17.578,-29.785,-7.324
1678025773.414,-38.086,-14.648,-23.926,-31.250,-17.090
1678025773.418,-57.129,-15.137,-20.996,-44.922,203.613
1678025773.422,-64.941,-21.484,-25.391,-49.805,161.133
1678025773.426,-48.340,-17.578,-31.738,-36.621,-177.734
1678025773.430,-24.902,-16.113,-24.414,-15.137,-44.922
1678025773.432,-36.621,-13.672,-26.367,-28.320,12.207
1678025773.436,-66.406,-13.672,-24.414,-63.477,-155.762
1678025773.440,-61.523,-12.695,-18.066,-65.430,-172.852
1678025773.444,-47.852,-13.184,-25.391,-36.133,-118.164
1678025773.448,-40.527,-20.508,-25.879,-21.973,-48.340
1678025773.452,-44.922,-16.113,-21.973,-24.902,37.598
1678025773.456,-63.965,-13.672,-15.625,-38.086,-17.578
1678025773.459,-69.336,-27.832,-12.695,-46.387,53.223
1678025773.463,-51.758,-30.273,-20.996,-36.621,273.438
1678025773.467,-30.273,-15.137,-20.996,-15.137,99.609
1678025773.471,-37.109,-8.301,-18.066,-14.648,-87.402
1678025773.475,-62.500,-7.812,-15.625,-46.875,-140.137
1678025773.477,-69.824,-17.578,-21.484,-56.641,-184.082
1678025773.481,-61.035,-14.160,-31.250,-56.152,-191.895
1678025773.485,-46.387,0.488,-24.902,-39.551,-134.766
1678025773.489,-37.598,-1.465,-20.020,-20.508,35.156
1678025773.493,-53.711,-8.789,-22.461,-57.129,-27.832
1678025773.497,-73.242,-16.602,-24.902,-77.148,-146.973
1678025773.501,-60.059,-15.625,-30.273,-53.711,-33.691
1678025773.504,-33.203,-10.254,-24.902,-15.137,311.035
1678025773.508,-36.621,-17.090,-20.996,-18.066,371.094
1678025773.512,-66.895,-15.625,-20.508,-61.035,-69.824
1678025773.516,-73.242,-16.113,-12.695,-59.570,-196.777
1678025773.520,-54.688,-17.578,-16.113,-36.621,-14.648
1678025773.522,-32.227,-6.836,-23.438,-23.926,-51.758
1678025773.526,-23.438,-10.742,-24.902,-19.531,-44.434
1678025773.530,-47.363,-12.695,-21.484,-32.715,-35.156
1678025773.534,-70.801,0.977,-19.043,-66.895,-173.340
1678025773.538,-65.918,0.977,-21.973,-71.777,-242.676
1678025773.542,-55.176,-14.160,-20.996,-46.875,-97.168
1678025773.546,-50.293,-19.043,-20.996,-23.926,181.641
1678025773.549,-52.246,-19.043,-24.902,-36.133,214.844
1678025773.553,-62.500,-16.113,-21.484,-58.594,-145.996
1678025773.557,-61.523,-13.184,-26.855,-48.340,-259.766
1678025773.561,-46.875,-14.160,-27.832,-34.180,-155.762
1678025773.565,-38.086,-14.648,-19.531,-29.785,-78.125
1678025773.567,-52.246,-14.648,-15.137,-40.527,-88.379
1678025773.571,-78.125,-7.812,-18.066,-68.848,-188.477
1678025773.575,-75.684,-10.254,-17.090,-66.895,-143.066
1678025773.579,-47.363,-13.672,-14.160,-40.527,-76.172
1678025773.583,-32.227,-14.160,-19.043,-24.902,-85.938
1678025773.587,-46.387,-21.973,-19.043,-37.598,-14.648
1678025773.591,-57.129,-20.020,-19.531,-44.434,117.676
1678025773.594,-59.570,-11.230,-20.020,-39.062,48.340
1678025773.598,-50.293,-8.301,-19.043,-45.410,-134.766
1678025773.602,-30.762,-12.207,-20.508,-19.043,-14.648
1678025773.606,-43.945,-18.066,-21.484,-19.531,112.305
1678025773.610,-68.359,-11.230,-14.648,-55.664,-102.539
1678025773.613,-70.801,-9.766,-11.230,-59.570,-218.262
1678025773.617,-56.152,-17.090,-16.113,-41.992,-18.066
1678025773.621,-40.039,-10.254,-21.484,-22.949,86.914
1678025773.625,-39.551,-4.395,-22.949,-26.855,-6.348
1678025773.629,-62.988,-5.371,-20.508,-51.758,-143.555
1678025773.633,-74.219,-9.277,-24.902,-53.711,-209.961
1678025773.637,-53.711,-13.672,-23.926,-44.434,-79.590
1678025773.640,-25.391,-10.254,-23.926,-27.832,-40.039
1678025773.644,-13.184,-8.789,-27.344,-14.160,-106.934
1678025773.648,-25.879,-6.836,-18.066,-25.879,49.805
1678025773.652,-33.691,-1.465,-13.184,-43.457,80.566
1678025773.656,-20.020,-1.953,-15.625,-48.828,-122.070
1678025773.672,2.930,-2.930,-21.484,-35.156,-39.062
1678025773.676,15.625,2.441,-20.508,-18.066,58.594
1678025773.680,-9.277,-5.371,-10.742,-42.480,-30.762
1678025773.684,-18.066,-8.301,-11.719,-57.129,-144.043
1678025773.688,-0.977,-2.930,-22.949,-44.922,-126.953
1678025773.692,7.812,-6.348,-24.414,-37.109,113.281
1678025773.696,20.020,-7.324,-18.555,-31.250,187.500
1678025773.699,-2.930,-12.207,-9.766,-47.363,16.602
1678025773.703,-40.039,-10.254,-10.742,-66.406,-51.758
1678025773.707,-29.785,0.488,-22.461,-46.387,179.688
1678025773.711,1.953,2.441,-18.555,-23.438,166.016
1678025773.715,-0.488,-1.465,-13.672,-24.902,-68.359
1678025773.717,-36.133,-6.348,-24.414,-48.340,-52.246
1678025773.721,-55.176,-5.371,-26.367,-75.195,-152.832
1678025773.725,-40.527,0.000,-11.230,-68.359,-233.887
1678025773.729,-18.066,-1.465,-11.719,-38.086,-124.512
1678025773.733,-2.930,-2.441,-18.066,-17.578,62.012
1678025773.737,-21.973,-1.465,-17.578,-35.156,65.430
1678025773.741,-38.086,0.000,-16.113,-51.270,-54.199
1678025773.744,-26.367,-3.418,-20.020,-44.922,-108.887
1678025773.748,-12.207,-2.441,-20.020,-30.762,119.141
1678025773.752,-10.742,-4.395,-21.484,-7.812,385.742
1678025773.756,-26.367,-13.184,-24.414,-20.508,37.598
1678025773.760,-51.270,-15.137,-18.555,-54.199,-233.398
1678025773.762,-54.199,-9.277,-22.949,-52.734,-185.059
1678025773.766,-33.203,-6.348,-29.297,-37.109,-145.020
1678025773.770,-22.461,-4.883,-26.367,-24.902,-72.754
1678025773.774,-39.551,-5.371,-19.043,-32.227,-61.035
1678025773.778,-62.500,-10.742,-8.301,-41.504,-120.605
1678025773.782,-63.965,-11.719,-4.395,-48.828,-44.922
1678025773.786,-56.152,-8.789,-13.184,-47.363,-96.191
1678025773.789,-42.969,-11.719,-14.648,-28.320,-46.875
1678025773.793,-47.852,-16.113,-13.184,-20.508,392.578
1678025773.797,-72.266,-9.277,-17.578,-36.621,384.277
1678025773.801,-71.289,-10.254,-21.484,-53.223,-120.117
1678025773.805,-58.105,-19.043,-18.066,-51.270,-229.004
1678025773.807,-46.387,-21.484,-21.484,-32.715,-21.973
1678025773.811,-52.734,-17.090,-23.926,-37.109,-40.039
1678025773.815,-69.336,-15.625,-15.625,-61.035,-218.750
1678025773.819,-80.566,-27.344,-13.184,-70.801,-250.488
1678025773.823,-70.801,-24.414,-19.531,-68.359,-177.246
1678025773.827,-41.016,-20.996,-21.484,-38.574,-30.762
1678025773.831,-34.668,-24.902,-17.090,-29.297,151.367
1678025773.834,-60.547,-26.367,-22.461,-46.387,161.621
1678025773.838,-75.684,-27.832,-26.367,-57.129,-28.320
1678025773.842,-65.430,-27.344,-24.414,-50.781,-206.055
1678025773.846,-42.969,-29.297,-17.578,-23.926,-73.730
1678025773.850,-42.480,-22.949,-17.578,-30.273,190.430
1678025773.852,-74.707,-19.043,-30.762,-53.711,199.707
1678025773.856,-85.938,-22.949,-29.297,-66.406,-209.961
1678025773.860,-66.406,-27.344,-24.414,-56.152,-343.750
1678025773.864,-34.668,-19.531,-27.344,-29.297,-138.184
1678025773.868,-33.691,-21.973,-28.320,-36.621,-80.078
1678025773.872,-61.035,-33.691,-22.949,-60.059,-161.133
1678025773.876,-61.523,-21.973,-19.531,-58.594,-139.160
1678025773.879,-50.293,-23.438,-20.996,-41.016,189.941
1678025773.883,-50.781,-29.785,-24.902,-41.992,327.637
1678025773.887,-51.270,-13.672,-30.273,-44.434,-51.758
1678025773.891,-72.754,-10.742,-36.621,-50.293,-100.098
1678025773.895,-88.379,-18.555,-35.156,-66.406,-125.488
1678025773.927,-75.684,-25.391,-26.855,-62.988,-181.641
1678025773.931,-52.246,-35.156,-24.902,-45.410,-84.961
1678025773.935,-46.387,-30.762,-29.297,-32.715,38.574
1678025773.939,-68.359,-28.320,-25.391,-40.527,54.199
1678025773.943,-70.312,-24.902,-13.672,-53.223,-173.828
1678025773.947,-60.547,-19.043,-14.648,-48.828,-220.215
1678025773.951,-56.641,-32.227,-22.461,-37.598,134.277
1678025773.954,-49.805,-28.320,-22.949,-20.508,277.832
1678025773.958,-51.270,-24.414,-22.461,-23.926,-37.109
1678025773.962,-72.754,-28.809,-17.090,-49.316,-251.953
1678025773.966,-77.637,-25.391,-20.996,-50.781,-99.121
1678025773.970,-60.059,-20.508,-27.344,-36.133,41.992
1678025773.957,-49.805,-22.949,-32.227,-30.273,-14.160
1678025773.961,-56.152,-33.203,-28.809,-32.227,-34.180
1678025773.965,-62.012,-26.855,-17.578,-43.457,-132.812
1678025773.969,-56.152,-12.695,-18.555,-50.293,-144.043
1678025773.973,-50.781,-17.578,-33.691,-40.527,-167.480
1678025773.977,-50.293,-28.809,-42.480,-30.762,-20.020
1678025773.981,-47.852,-21.484,-31.738,-36.621,124.023
1678025773.984,-62.500,-17.578,-32.227,-54.199,-41.992
1678025773.988,-67.871,-21.484,-36.621,-64.941,-257.324
1678025773.992,-48.340,-20.996,-33.203,-51.270,-172.363
1678025773.996,-28.320,-21.973,-32.715,-26.367,92.773
1678025774.000,-34.668,-26.855,-24.902,-25.879,70.801
1678025773.987,-71.289,-21.484,-23.438,-43.945,-143.555
1678025773.991,-85.938,-28.809,-28.320,-58.105,-125.488
1678025773.995,-65.430,-36.621,-29.785,-51.758,125.000
1678025773.999,-37.109,-19.531,-32.715,-27.344,53.223
1678025774.003,-27.344,-12.207,-35.645,-24.902,-89.844
1678025774.007,-52.246,-15.625,-25.879,-39.551,104.004
1678025774.011,-62.500,-19.531,-26.367,-48.340,331.543
1678025774.014,-54.199,-26.855,-42.969,-50.781,85.938
1678025774.018,-42.969,-18.555,-44.434,-42.480,-135.254
1678025774.022,-31.250,-2.930,-29.297,-28.809,87.402
1678025774.026,-56.152,-5.371,-19.531,-40.527,175.293
1678025774.030,-81.543,-17.090,-21.484,-63.477,-194.824
1678025774.046,-67.383,-19.043,-25.391,-53.711,-256.836
1678025774.050,-36.621,-21.973,-30.762,-33.691,-120.117
1678025774.054,-32.227,-19.043,-36.133,-31.250,-27.344
1678025774.058,-58.105,-12.207,-30.273,-63.965,-128.418
1678025774.062,-71.289,-16.113,-27.344,-80.078,-187.500
1678025774.066,-54.199,-18.066,-22.461,-55.176,-43.945
1678025774.070,-29.297,-12.695,-16.602,-35.645,41.016
1678025774.073,-27.344,-7.324,-20.996,-22.461,68.359
1678025774.077,-48.340,-2.930,-26.367,-38.086,54.199
1678025774.081,-64.941,-15.137,-32.227,-55.176,195.801
1678025774.085,-58.594,-21.484,-28.809,-46.875,197.266
1678025774.089,-38.086,-17.090,-26.367,-40.039,-104.980
1678025774.092,-31.250,-19.531,-26.855,-33.203,-103.516
1678025774.096,-43.457,-15.625,-28.809,-46.387,-56.641
1678025774.100,-51.758,-7.812,-27.832,-56.152,-213.867
1678025774.104,-55.176,-9.277,-21.973,-55.176,-233.887
1678025774.108,-37.109,-14.648,-27.832,-43.945,-110.840
1678025774.112,-22.949,-8.789,-20.020,-18.066,-41.992
1678025774.116,-40.527,-6.348,-12.695,-25.879,-8.301
1678025774.119,-56.641,-9.766,-27.832,-56.152,-168.457
1678025774.123,-60.059,-14.648,-29.785,-58.594,-130.859
1678025774.127,-45.410,-18.555,-28.809,-36.133,50.293
1678025774.131,-30.762,-18.555,-31.250,-22.461,-58.105
1678025774.135,-41.992,-12.695,-30.762,-25.391,-107.910
1678025774.137,-62.500,-11.230,-26.367,-36.621,-138.184
1678025774.141,-64.453,-9.766,-23.438,-43.457,-211.426
1678025774.145,-42.969,-14.648,-24.902,-31.738,-224.609
1678025774.149,-16.602,-17.090,-25.879,-11.719,-61.523
1678025774.153,-26.367,-10.742,-32.715,-23.438,-22.461
1678025774.157,-66.895,-17.090,-34.180,-58.594,-119.141
1678025774.161,-76.660,-17.578,-24.902,-58.105,-132.324
1678025774.164,-61.523,-18.066,-27.832,-47.363,-69.336
1678025774.168,-54.199,-20.508,-31.738,-31.250,254.883
1678025774.172,-55.176,-20.996,-24.902,-29.785,397.461
1678025774.176,-79.102,-23.926,-25.879,-64.941,-38.086
1678025774.180,-88.379,-19.531,-28.809,-67.871,-167.969
1678025774.182,-64.453,-13.672,-21.973,-36.621,-69.336
1678025774.186,-40.039,-8.789,-19.531,-13.672,-97.168
1678025774.190,-41.504,-7.324,-20.020,-15.625,-130.859
1678025774.194,-65.430,-8.789,-16.602,-34.180,-125.977
1678025774.198,-81.543,-14.648,-21.973,-54.199,-157.715
1678025774.202,-75.684,-26.367,-30.762,-52.246,-120.117
1678025774.206,-50.293,-32.227,-23.926,-31.738,12.695
1678025774.209,-38.086,-24.414,-23.926,-13.672,169.434
1678025774.213,-56.641,-20.020,-30.762,-19.043,199.707
1678025774.217,-65.918,-17.578,-25.391,-44.434,-123.535
1678025774.221,-46.875,-13.672,-29.297,-45.410,-205.078
1678025774.225,-26.855,-19.531,-31.738,-24.414,-63.477
1678025774.242,-25.391,-22.461,-31.250,-15.625,-7.812
1678025774.246,-51.758,-23.926,-34.180,-43.945,-82.031
1678025774.250,-68.848,-22.949,-35.156,-54.688,-196.777
1678025774.254,-57.617,-21.973,-39.551,-41.992,-139.160
1678025774.258,-36.133,-22.949,-40.527,-31.738,-42.480
1678025774.262,-25.879,-20.996,-37.598,-27.344,18.555
1678025774.266,-44.434,-26.855,-33.203,-48.828,17.090
1678025774.269,-62.012,-29.785,-32.715,-59.082,142.090
1678025774.273,-66.406,-23.438,-31.250,-49.805,132.812
1678025774.277,-54.688,-22.949,-30.273,-36.133,-148.926
1678025774.281,-39.551,-21.484,-31.250,-17.090,-64.941
1678025774.285,-49.805,-18.555,-33.203,-31.250,-47.363
1678025774.272,-75.684,-20.020,-30.273,-66.895,-173.828
1678025774.276,-83.496,-21.484,-25.391,-63.965,-189.941
1678025774.280,-61.523,-20.020,-26.855,-37.598,-112.793
1678025774.284,-35.645,-16.602,-26.367,-24.414,30.762
1678025774.288,-45.898,-12.695,-22.461,-37.109,43.945
1678025774.292,-70.312,-12.207,-23.438,-63.477,-61.523
1678025774.296,-73.242,-13.184,-26.855,-68.848,25.391
1678025774.299,-56.641,-15.625,-22.949,-56.641,145.508
1678025774.303,-41.504,-13.184,-17.578,-51.758,34.668
1678025774.307,-56.641,-9.277,-14.648,-44.922,-6.348
1678025774.311,-85.449,-11.719,-12.695,-69.336,87.891
1678025774.315,-82.520,-12.695,-11.719,-86.426,109.375
1678025774.332,-58.594,-19.531,-9.766,-68.848,-120.605
1678025774.336,-51.758,-20.508,-18.555,-58.105,-62.012
1678025774.340,-68.848,-11.719,-24.414,-66.895,49.805
1678025774.344,-94.727,-6.348,-8.789,-104.980,-68.848
1678025774.348,-114.746,-6.348,-4.883,-144.043,-242.188
1678025774.352,-113.770,-9.766,-10.254,-134.766,-78.125
1678025774.356,-97.656,-5.859,-8.789,-98.145,328.125
1678025774.359,-114.746,-0.977,-2.930,-107.422,306.152
1678025774.363,-155.762,1.465,2.930,-153.809,-33.203
1678025774.367,-172.363,3.906,10.742,-179.688,-122.070
1678025774.371,-163.086,4.883,11.230,-162.109,100.586
1678025774.375,-154.785,5.371,9.277,-147.949,97.656
1678025774.362,-169.434,4.395,12.695,-158.203,-83.984
1678025774.366,-193.359,7.324,22.949,-175.781,-101.562
1678025774.370,-219.238,12.695,30.273,-192.871,-187.988
1678025774.374,-211.426,15.137,26.367,-192.383,-243.652
1678025774.378,-188.477,19.043,21.973,-191.406,-186.035
1678025774.382,-193.848,25.879,20.020,-203.613,122.559
1678025774.386,-229.492,23.438,22.949,-234.375,192.871
1678025774.389,-249.023,17.578,28.809,-251.465,-123.047
1678025774.393,-232.422,10.742,35.156,-228.027,-272.949
1678025774.397,-210.449,5.371,37.109,-194.824,0.000
1678025774.401,-193.359,10.254,36.133,-177.246,359.375
1678025774.405,-193.848,8.301,30.762,-197.754,21.973
1678025774.422,-208.008,9.766,30.762,-222.168,-224.609
1678025774.426,-215.332,8.789,31.738,-231.934,-193.848
1678025774.430,-199.219,-0.488,23.926,-217.285,-194.336
1678025774.434,-175.293,1.465,26.367,-190.918,-68.359
1678025774.438,-188.965,-0.488,34.668,-194.336,-25.879
1678025774.442,-200.195,-3.906,38.574,-204.590,4.395
1678025774.446,-194.336,3.418,28.320,-200.684,-6.836
1678025774.449,-189.453,6.348,29.297,-201.172,31.738
1678025774.453,-175.781,-0.488,22.949,-187.012,136.230
1678025774.457,-183.594,-3.906,15.625,-170.410,101.562
1678025774.461,-215.820,0.488,31.250,-209.473,-158.691
1678025774.465,-226.562,-6.836,34.180,-232.910,-228.027
1678025774.466,-210.449,-21.973,29.785,-208.496,-39.551
1678025774.470,-183.105,-16.602,24.414,-169.922,262.695
1678025774.474,-177.734,-11.230,24.902,-167.969,192.871
1678025774.478,-215.820,-12.695,26.367,-215.332,-137.695
1678025774.482,-219.727,-7.324,25.391,-219.727,-111.816
1678025774.486,-190.918,-6.348,20.996,-187.988,-65.430
1678025774.490,-173.340,-9.277,21.484,-178.223,2.930
1678025774.493,-162.598,-11.230,30.273,-172.852,-77.148
1678025774.497,-183.594,-12.695,22.949,-184.570,-72.754
1678025774.501,-197.266,-11.719,11.719,-197.754,46.387
1678025774.505,-184.570,-9.277,11.719,-184.082,-171.387
1678025774.509,-167.969,-11.719,13.672,-163.086,-81.055
1678025774.513,-166.016,-16.113,9.766,-163.086,-33.691
1678025774.517,-192.383,-19.043,7.812,-175.781,-194.336
1678025774.521,-201.172,-23.926,4.395,-183.594,-271.973
1678025774.525,-181.641,-19.043,4.883,-176.758,-227.051
1678025774.529,-162.598,-11.719,10.254,-165.527,-8.301
1678025774.533,-162.598,-14.648,9.766,-158.203,93.750
1678025774.537,-180.176,-18.066,9.277,-166.016,-29.297
1678025774.540,-184.570,-17.090,13.184,-174.805,-135.742
1678025774.544,-170.898,-22.461,15.137,-158.203,156.250
1678025774.548,-146.484,-31.250,15.625,-127.441,250.977
1678025774.552,-139.648,-27.344,9.277,-118.164,-52.734
1678025774.556,-165.527,-30.762,-0.977,-148.438,-101.562
1678025774.557,-183.105,-35.156,-0.488,-161.133,-168.457
1678025774.561,-170.410,-25.879,6.836,-148.438,-279.297
1678025774.565,-153.320,-26.367,2.930,-134.766,-204.590
1678025774.569,-156.250,-33.691,2.441,-125.000,-27.344
1678025774.573,-181.641,-36.133,4.883,-144.531,-39.062
1678025774.577,-200.195,-34.180,2.441,-155.273,-101.074
1678025774.581,-182.129,-36.621,1.953,-142.578,-48.828
1678025774.584,-154.297,-43.945,2.441,-131.836,175.781
1678025774.588,-153.809,-47.363,-3.906,-122.070,238.281
1678025774.592,-167.969,-47.852,-4.883,-129.395,-13.672
1678025774.596,-178.711,-50.781,3.418,-140.625,-175.781
1678025774.600,-169.922,-47.852,9.766,-130.859,-8.789
1678025774.602,-145.996,-47.852,8.789,-114.746,129.883
1678025774.606,-134.277,-51.758,0.977,-101.562,-67.871
1678025774.610,-147.949,-50.293,-4.883,-116.211,-60.547
1678025774.614,-157.715,-54.199,-3.418,-130.371,-74.219
1678025774.618,-145.996,-56.152,-0.977,-111.816,-188.477
1678025774.622,-138.672,-51.270,-5.371,-96.680,-148.438
1678025774.626,-124.512,-54.688,-8.301,-88.379,-6.836
1678025774.629,-113.770,-52.734,-4.395,-80.566,315.918
1678025774.633,-134.277,-54.688,-5.371,-92.773,366.211
1678025774.637,-142.578,-56.152,-15.137,-100.098,-106.445
1678025774.641,-125.977,-49.316,-18.066,-97.656,-181.152
1678025774.645,-113.281,-44.922,-15.137,-82.031,157.715
1678025774.647,-109.863,-44.434,-12.207,-69.336,56.641
1678025774.651,-121.582,-48.828,-12.207,-97.656,-248.047
1678025774.655,-120.117,-45.410,-12.695,-107.422,-200.195
1678025774.659,-109.375,-46.387,-9.277,-94.238,-109.863
1678025774.663,-91.309,-54.688,-13.672,-74.219,-69.336
1678025774.667,-85.938,-49.316,-16.113,-61.035,-20.508
1678025774.671,-95.703,-40.039,-9.277,-79.590,114.746
1678025774.674,-95.703,-39.062,-11.719,-69.824,174.805
1678025774.678,-92.285,-36.621,-16.113,-62.012,-46.875
1678025774.682,-81.543,-32.715,-15.137,-64.453,-47.363
1678025774.686,-84.473,-42.480,-20.996,-52.246,86.426
1678025774.690,-102.539,-48.828,-19.531,-70.801,8.301
1678025774.691,-103.516,-43.945,-15.625,-92.285,-190.918
1678025774.695,-85.449,-43.457,-22.461,-80.566,-202.637
1678025774.699,-71.777,-39.062,-27.832,-61.035,-18.555
1678025774.703,-62.500,-30.762,-24.902,-47.852,29.297
1678025774.707,-76.172,-39.062,-27.344,-60.547,-130.859
1678025774.711,-94.727,-44.922,-24.902,-72.266,-136.719
1678025774.715,-76.172,-40.527,-23.926,-38.574,121.582
1678025774.718,-42.480,-48.828,-29.785,-12.695,151.367
1678025774.722,-32.715,-48.828,-23.438,-21.973,-37.109
1678025774.726,-58.105,-41.016,-21.484,-47.852,-48.340
1678025774.730,-70.801,-39.062,-31.738,-56.641,-24.902
1678025774.734,-68.359,-36.133,-35.645,-47.852,-92.773
1678025774.738,-49.316,-37.598,-29.785,-30.762,-179.688
1678025774.742,-33.691,-42.969,-25.879,-8.789,-32.227
1678025774.746,-40.527,-45.898,-27.344,-3.906,0.977
1678025774.750,-46.387,-50.293,-25.879,-10.254,-243.164
1678025774.754,-50.293,-41.016,-33.691,-25.391,-298.828
1678025774.758,-24.902,-37.109,-32.715,-4.395,62.500
1678025774.762,9.277,-47.363,-25.879,36.621,229.492
1678025774.765,1.465,-42.969,-28.320,23.926,-37.109
1678025774.769,-23.926,-40.039,-34.180,-6.348,-244.629
1678025774.773,-12.207,-38.086,-45.410,3.906,-118.652
1678025774.777,22.949,-33.691,-54.199,41.992,58.105
1678025774.781,37.598,-28.320,-70.801,47.852,-50.293
1678025774.797,12.695,-25.391,-80.078,26.855,-118.164
1678025774.801,9.277,-36.133,-75.684,28.809,-149.414
1678025774.805,29.785,-44.922,-83.984,35.645,-184.570
1678025774.809,43.457,-41.504,-90.820,47.363,-183.594
1678025774.813,72.266,-37.109,-88.379,77.148,-56.641
1678025774.817,69.336,-30.762,-93.262,76.660,205.078
1678025774.821,50.293,-17.090,-96.680,47.363,109.863
1678025774.824,45.410,-8.789,-96.191,22.461,-181.152
1678025774.828,60.547,-15.625,-97.168,34.668,-151.855
1678025774.832,93.750,-15.625,-105.469,75.195,194.336
1678025774.836,85.449,-10.742,-106.934,76.172,182.617
1678025774.840,65.430,-20.020,-100.098,49.805,-188.477
1678025774.842,70.801,-18.066,-110.352,45.898,-222.656
1678025774.846,86.426,-6.348,-118.652,52.246,-169.434
1678025774.850,104.004,-7.812,-116.699,75.684,-82.031
1678025774.854,106.445,-7.812,-113.770,85.938,-38.574
1678025774.858,93.750,-6.348,-113.770,62.500,-40.039
1678025774.862,100.586,-9.766,-121.094,57.617,-62.988
1678025774.866,128.418,-7.324,-125.000,81.543,-79.590
1678025774.869,151.367,5.859,-123.535,101.562,-91.309
1678025774.873,138.184,4.883,-127.441,94.238,131.348
1678025774.877,116.211,-2.441,-129.395,83.984,229.004
1678025774.881,111.816,-5.859,-126.465,67.871,-97.656
1678025774.885,133.301,-5.371,-125.488,74.219,-180.176
1678025774.887,169.434,-1.953,-124.512,114.258,-29.785
1678025774.891,170.410,-4.395,-131.836,123.535,52.246
1678025774.895,136.719,-11.230,-137.207,84.473,-112.305
1678025774.899,140.625,-11.230,-140.625,70.801,-188.477
1678025774.903,161.133,-5.859,-141.602,94.238,-40.527
1678025774.907,156.250,-11.230,-134.277,106.934,116.211
1678025774.911,155.762,-11.719,-127.930,112.793,143.555
1678025774.914,143.555,-12.695,-121.094,104.004,79.590
1678025774.918,122.070,-20.508,-124.023,87.402,202.637
1678025774.922,134.277,-18.066,-128.418,91.309,313.965
1678025774.926,150.879,-10.254,-119.629,100.098,71.289
1678025774.930,143.066,-6.348,-104.004,108.887,-2.441
1678025774.932,122.559,-14.160,-96.680,98.633,-17.090
1678025774.936,108.887,-20.996,-98.145,74.707,-149.414
1678025774.940,111.816,-15.137,-106.934,73.730,-200.684
1678025774.944,123.535,-13.672,-115.234,92.285,-132.324
1678025774.948,132.812,-17.578,-116.211,102.051,33.203
1678025774.952,116.699,-16.113,-112.793,87.891,48.340
1678025774.956,92.285,-20.020,-104.492,64.941,-62.012
1678025774.959,99.609,-27.344,-100.586,74.707,17.090
1678025774.963,108.398,-22.461,-97.168,101.562,249.512
1678025774.967,107.910,-17.090,-87.402,111.328,89.844
1678025774.971,93.262,-13.672,-79.590,90.820,-107.422
1678025774.975,70.312,-11.230,-80.566,66.406,-97.168
1678025774.976,80.078,-14.160,-81.055,69.824,-133.301
1678025774.980,92.773,-14.648,-77.148,73.730,-208.496
1678025774.984,92.285,-4.883,-73.242,76.660,-141.113
1678025774.988,76.660,1.465,-69.824,69.824,-29.297
1678025774.992,55.176,-5.859,-71.777,50.781,-115.723
1678025774.996,57.129,-11.230,-78.613,41.016,-155.762
1678025775.000,65.918,-9.766,-72.754,50.293,-15.625
1678025775.003,77.637,-13.672,-65.430,80.078,383.789
1678025775.007,67.383,-16.602,-68.359,76.172,530.273
1678025775.011,39.551,-9.277,-68.359,38.574,19.531
1678025775.015,38.086,-5.859,-64.941,29.297,-165.527
1678025775.019,55.176,-4.395,-68.848,40.527,-50.293
1678025775.037,72.266,-3.906,-70.312,53.711,-53.711
1678025775.041,63.965,-7.812,-60.059,58.105,-53.223
1678025775.045,34.180,-13.672,-56.152,32.227,-83.496
1678025775.049,29.785,-16.602,-59.082,20.508,-116.211
1678025775.053,42.969,-17.090,-50.293,30.273,-135.742
1678025775.057,53.223,-12.695,-45.410,38.574,-67.383
1678025775.061,47.363,-7.324,-50.293,43.457,152.832
1678025775.064,27.344,-10.254,-51.270,22.949,138.672
1678025775.068,15.137,-18.555,-50.781,9.277,-210.449
1678025775.072,22.949,-14.648,-44.922,21.973,-273.438
1678025775.076,39.551,-7.812,-48.340,40.527,-127.930
1678025775.080,31.738,-14.648,-54.199,36.133,-60.547
1678025775.069,9.766,-20.020,-47.852,7.812,-157.715
1678025775.073,-4.883,-22.461,-46.875,-3.906,-165.039
1678025775.077,0.000,-21.484,-50.293,-1.953,-35.645
1678025775.081,19.531,-18.555,-43.457,6.348,-42.480
1678025775.085,20.996,-23.926,-45.410,15.137,-66.895
1678025775.089,-7.324,-31.738,-51.270,12.695,-23.926
1678025775.093,-33.691,-26.367,-47.363,-1.465,-70.312
1678025775.096,-21.484,-21.484,-46.387,-16.602,-137.207
1678025775.100,5.371,-19.043,-48.828,-6.348,-97.656
1678025775.104,12.695,-16.113,-42.480,9.766,-84.473
1678025775.108,-4.883,-15.137,-37.109,0.000,168.457
1678025775.112,-22.461,-14.160,-44.434,-13.672,106.445
1678025775.111,-15.625,-19.531,-37.598,-12.695,-280.273
1678025775.115,2.441,-19.043,-32.715,0.488,-143.555
1678025775.119,6.348,-18.066,-44.434,1.465,17.090
1678025775.123,-10.742,-20.508,-36.621,-0.977,-33.203
1678025775.127,-35.156,-17.578,-29.297,-25.391,-200.195
1678025775.131,-33.691,-12.695,-31.738,-28.320,-62.012
1678025775.135,-7.812,-14.160,-23.926,13.184,218.750
1678025775.138,3.418,-16.113,-20.020,15.625,46.387
1678025775.142,-18.066,-16.602,-26.855,-11.719,-153.320
1678025775.146,-31.250,-19.043,-34.180,-17.578,-36.133
1678025775.150,-16.602,-20.020,-33.203,-11.719,-28.809
1678025775.154,-34.180,-20.508,-28.320,-23.438,-227.051
1678025775.187,-33.691,-28.809,-27.832,-15.625,-90.820
1678025775.191,-13.672,-28.320,-23.438,-5.371,-62.500
1678025775.195,-43.945,-27.344,-25.391,-38.086,-184.082
1678025775.199,-51.758,-30.762,-32.715,-46.387,-207.520
1678025775.203,-27.344,-31.250,-32.227,-25.879,-133.789
1678025775.207,-13.184,-26.855,-37.598,-12.207,-28.320
1678025775.211,-22.461,-31.250,-42.969,-11.719,46.875
1678025775.214,-43.945,-28.809,-33.691,-26.367,-75.684
1678025775.218,-53.223,-24.902,-30.273,-36.133,-104.004
1678025775.222,-42.480,-28.809,-34.668,-24.414,44.922
1678025775.226,-21.484,-20.020,-40.039,-11.230,-19.043
1678025775.230,-23.926,-23.438,-35.645,-14.160,-93.262
1678025775.217,-38.574,-29.297,-33.691,-12.695,-89.844
1678025775.221,-37.598,-26.367,-40.527,-6.836,214.844
1678025775.225,-26.367,-29.785,-34.668,-14.648,164.062
1678025775.229,-16.113,-37.598,-39.551,-11.230,-68.359
1678025775.233,-21.973,-35.156,-45.898,0.977,101.074
1678025775.237,-46.387,-25.391,-36.133,-34.668,63.477
1678025775.241,-51.758,-24.902,-35.645,-59.082,-93.262
1678025775.244,-29.785,-23.926,-37.109,-34.668,-165.039
1678025775.248,-11.719,-26.367,-31.250,-7.812,-40.527
1678025775.252,-11.719,-29.297,-26.367,-1.465,82.031
1678025775.256,-36.621,-18.066,-23.438,-20.020,-108.398
1678025775.260,-51.758,-13.672,-24.414,-35.645,-231.934
1678025775.262,-36.133,-24.902,-28.320,-27.344,-0.488
1678025775.266,-7.324,-15.137,-27.832,0.488,261.719
1678025775.270,-10.254,-6.836,-30.273,-3.906,75.195
1678025775.274,-32.715,-10.254,-34.668,-30.273,-102.051
1678025775.278,-49.805,-17.090,-32.715,-44.434,-132.324
1678025775.282,-42.969,-24.414,-31.250,-41.992,-103.516
1678025775.286,-15.625,-18.066,-25.391,-21.973,-64.941
1678025775.289,-20.020,-22.949,-26.367,-13.184,-6.836
1678025775.293,-40.527,-27.344,-26.855,-19.531,242.188
1678025775.297,-54.688,-25.879,-23.926,-32.715,213.379
1678025775.301,-43.457,-24.414,-23.438,-38.086,-72.266
1678025775.305,-18.066,-20.996,-17.090,-18.066,-24.414
1678025775.306,-9.766,-19.531,-18.555,-7.812,49.316
1678025775.310,-22.461,-13.184,-22.949,-24.902,-104.980
1678025775.314,-40.527,-15.137,-26.367,-37.109,-244.629
1678025775.318,-35.645,-28.320,-29.785,-36.133,-211.914
1678025775.322,-17.578,-22.461,-26.367,-24.902,-87.891
1678025775.326,-3.906,-8.301,-20.020,-11.719,91.309
1678025775.330,-25.879,-10.742,-24.902,-23.926,40.527
1678025775.333,-57.617,-17.090,-38.574,-44.434,-40.527
1678025775.337,-52.734,-26.367,-41.992,-36.621,50.293
1678025775.341,-27.832,-35.645,-33.691,-18.555,-73.730
1678025775.345,-8.789,-19.043,-22.949,-1.465,-101.074
1678025775.349,-20.996,-6.836,-19.531,-11.230,8.301
1678025775.352,-42.969,-16.113,-22.949,-38.574,-39.062
1678025775.356,-50.293,-25.391,-34.180,-49.316,-172.852
1678025775.360,-35.645,-23.926,-35.156,-33.691,-147.461
1678025775.364,-16.602,-27.344,-26.855,-26.855,58.594
1678025775.368,-27.832,-24.414,-19.043,-38.086,87.891
1678025775.372,-51.270,-12.695,-17.578,-38.086,-34.180
1678025775.376,-55.176,-14.160,-20.508,-48.340,-91.797
1678025775.379,-42.969,-19.043,-23.926,-45.410,246.582
1678025775.383,-20.020,-19.043,-28.320,-16.602,387.695
1678025775.387,-19.043,-19.043,-26.367,-19.043,-40.527
1678025775.391,-44.434,-18.066,-23.438,-36.133,-156.250
1678025775.395,-52.734,-13.184,-24.414,-40.527,-195.801
1678025775.397,-41.992,-18.066,-25.391,-32.227,-257.812
1678025775.401,-22.949,-29.297,-29.297,-20.020,-110.840
1678025775.405,-17.090,-27.832,-33.691,-16.602,91.797
1678025775.409,-45.410,-20.020,-24.902,-43.457,13.184
1678025775.413,-60.547,-23.438,-22.461,-56.641,-178.711
1678025775.417,-45.410,-20.996,-28.809,-40.527,-155.762
1678025775.421,-24.902,-20.508,-22.949,-14.160,178.223
1678025775.424,-24.414,-30.762,-22.949,-6.348,422.363
1678025775.428,-51.758,-30.273,-30.273,-35.645,82.520
1678025775.432,-59.082,-28.320,-23.438,-44.434,-175.781
1678025775.436,-38.086,-26.367,-20.996,-24.902,-181.152
1678025775.440,-16.113,-23.926,-23.926,-14.648,-100.098
1678025775.441,-9.277,-15.137,-26.367,-9.766,-79.102
1678025775.445,-27.344,-9.277,-28.809,-29.785,-112.305
1678025775.449,-45.410,-12.695,-25.391,-52.246,-106.445
1678025775.453,-48.340,-18.555,-19.043,-42.969,-179.199
1678025775.457,-29.297,-16.602,-16.602,-20.020,-141.602
1678025775.461,-6.836,-6.836,-20.508,-9.766,35.645
1678025775.465,-23.926,-7.812,-17.090,-27.832,269.531
1678025775.468,-45.410,-14.648,-14.160,-44.922,99.121
1678025775.472,-41.016,-21.484,-13.672,-47.852,-209.961
1678025775.476,-20.996,-26.367,-21.973,-29.785,-172.852
1678025775.480,0.488,-19.531,-20.996,5.371,213.379
1678025775.484,-29.785,-10.254,-9.277,-10.742,164.062
1678025775.486,-54.199,-15.137,-8.301,-39.551,-250.977
1678025775.490,-41.504,-18.066,-12.695,-35.156,-252.441
1678025775.494,-20.508,-14.160,-14.648,-21.973,-166.504
1678025775.498,-5.371,-11.230,-20.508,-10.742,-118.164
1678025775.502,-30.273,-19.043,-33.203,-33.203,-145.020
1678025775.506,-52.734,-24.902,-29.297,-46.875,-69.824
1678025775.510,-50.293,-35.156,-23.438,-42.480,-87.402
1678025775.513,-34.180,-39.062,-20.508,-37.598,-193.848
1678025775.517,-15.137,-17.090,-15.625,-2.441,-91.309
1678025775.521,-26.367,-7.324,-19.531,-7.324,81.543
1678025775.525,-56.641,-13.672,-23.926,-45.410,139.160
1678025775.529,-63.965,-10.742,-28.809,-55.664,-110.840
1678025775.547,-40.527,-8.301,-25.879,-44.434,-133.789
1678025775.551,-20.508,-11.719,-15.137,-14.160,-45.898
1678025775.555,-22.461,-15.137,-16.113,-3.418,-56.152
1678025775.559,-38.086,-16.602,-15.137,-22.949,-163.086
1678025775.563,-45.898,-21.973,-16.113,-22.949,-153.320
1678025775.567,-41.016,-16.113,-20.996,-25.391,47.363
1678025775.571,-25.391,-11.230,-20.996,-23.438,96.680
1678025775.574,-20.508,-17.578,-22.461,-12.695,121.094
1678025775.578,-41.504,-16.602,-20.508,-39.062,-5.859
1678025775.582,-53.711,-21.484,-27.344,-45.898,86.914
1678025775.586,-37.598,-24.414,-30.273,-26.367,156.250
1678025775.590,-18.066,-17.578,-16.602,-15.625,-84.961
1678025775.592,-21.973,-18.555,-15.625,-15.137,28.320
1678025775.596,-42.969,-29.297,-23.438,-23.926,55.176
1678025775.600,-56.641,-26.367,-16.602,-34.668,-146.973
1678025775.604,-46.875,-22.461,-17.090,-42.480,-233.887
1678025775.608,-15.625,-26.367,-16.602,-25.391,-145.020
1678025775.612,-2.930,-20.996,-15.137,-13.184,29.297
1678025775.616,-26.367,-13.672,-13.672,-35.156,-57.129
1678025775.619,-39.062,-11.719,-15.625,-42.480,-312.500
1678025775.623,-24.414,-8.789,-23.438,-26.367,-160.156
1678025775.627,-0.977,-11.230,-22.949,-3.906,142.578
1678025775.631,-2.441,-15.625,-25.391,-7.812,-1.465
1678025775.635,-42.969,-18.555,-26.367,-39.062,-117.188
1678025775.636,-63.477,-20.020,-20.508,-52.246,-118.164
1678025775.640,-46.875,-24.414,-18.555,-39.062,-205.078
1678025775.644,-24.902,-23.438,-23.438,-16.602,-174.805
1678025775.648,-6.348,-21.484,-22.949,-0.488,-41.992
1678025775.652,-17.090,-24.414,-15.625,-18.555,-1.953
1678025775.656,-38.086,-26.367,-16.602,-42.969,-29.785
1678025775.660,-31.738,-19.531,-15.137,-27.832,-111.816
1678025775.663,-24.414,-13.672,-16.113,-19.531,-91.309
1678025775.667,-23.438,-18.555,-30.762,-6.348,322.266
1678025775.671,-34.180,-21.973,-37.598,-15.137,325.195
1678025775.675,-52.246,-26.367,-26.855,-45.898,-158.203
1678025775.679,-52.734,-31.738,-20.508,-44.922,-215.332
1678025775.683,-36.133,-28.320,-21.973,-29.785,-69.336
1678025775.687,-12.207,-17.090,-24.414,-10.254,-11.230
1678025775.691,-19.043,-19.531,-23.926,-17.578,1.953
1678025775.695,-38.086,-23.926,-21.484,-37.598,23.438
1678025775.699,-36.133,-24.902,-22.461,-38.086,-46.875
1678025775.703,-19.531,-33.203,-17.578,-31.738,-133.301
1678025775.707,-13.672,-26.367,-19.531,-18.555,-14.648
1678025775.710,-32.227,-19.043,-28.320,-2.930,209.961
1678025775.714,-40.527,-19.043,-20.996,-40.039,146.484
1678025775.718,-34.668,-20.508,-16.113,-64.453,-210.938
1678025775.722,-24.902,-19.531,-20.020,-33.203,-209.473
1678025775.726,-17.090,-19.531,-19.043,-9.766,-42.969
1678025775.727,-15.625,-15.137,-13.184,-6.836,6.348
1678025775.731,-27.832,-14.648,-18.555,-32.227,-124.023
1678025775.735,-44.434,-21.484,-22.949,-47.852,-264.648
1678025775.739,-26.367,-25.879,-16.113,-30.273,-169.434
1678025775.743,-0.977,-16.602,-12.207,-0.488,-14.160
1678025775.747,-6.348,-23.438,-14.648,0.977,66.895
1678025775.751,-26.855,-34.180,-17.578,-25.391,31.738
1678025775.754,-43.457,-22.949,-17.090,-38.086,146.484
1678025775.758,-29.785,-16.602,-22.461,-19.043,307.129
1678025775.762,-0.488,-6.348,-25.391,-9.277,107.422
1678025775.766,7.812,3.418,-24.414,-14.160,3.906
1678025775.770,-24.902,-7.324,-33.691,-40.039,-57.617
1678025775.772,-61.035,-26.367,-34.180,-68.848,-271.484
1678025775.776,-43.457,-34.180,-30.273,-49.316,-250.000
1678025775.780,-7.324,-24.902,-32.715,-16.113,-44.922
1678025775.784,0.000,-14.160,-23.926,-11.230,55.176
1678025775.788,-28.320,-16.602,-20.508,-32.715,-71.777
1678025775.792,-38.574,-20.996,-31.250,-43.945,-154.297
1678025775.796,-26.367,-26.855,-35.645,-46.875,105.957
1678025775.799,-8.789,-22.461,-32.227,-25.391,320.312
1678025775.803,5.859,-10.254,-30.273,-8.301,57.129
1678025775.807,-13.184,-22.949,-21.484,-36.133,-118.164
1678025775.811,-33.691,-24.902,-13.672,-53.223,-81.543
1678025775.815,-26.367,-10.254,-16.113,-31.738,-163.086
1678025775.816,-16.602,-16.113,-22.461,-15.625,-196.289
1678025775.820,-9.766,-23.926,-26.367,-16.602,-50.293
1678025775.824,-25.391,-18.066,-28.809,-29.785,6.348
1678025775.828,-51.758,-18.066,-35.645,-57.617,-116.211
1678025775.832,-42.969,-20.996,-30.762,-55.176,-230.957
1678025775.836,-24.902,-24.414,-29.785,-38.574,-88.379
1678025775.840,-17.090,-23.926,-36.133,-24.414,216.797
1678025775.843,-32.227,-26.367,-37.109,-36.621,207.031
1678025775.847,-47.852,-23.438,-41.992,-55.664,-74.219
1678025775.851,-45.898,-8.301,-32.715,-44.922,-142.090
1678025775.855,-35.645,-9.766,-23.438,-31.250,-43.457
1678025775.859,-19.043,-15.625,-27.344,-23.438,-53.223
1678025775.861,-27.832,-20.020,-34.180,-29.297,-108.398
1678025775.865,-61.523,-20.508,-34.180,-47.363,-140.625
1678025775.869,-62.500,-12.695,-31.738,-48.828,97.656
1678025775.873,-33.691,-15.625,-27.344,-35.645,42.969
1678025775.877,-14.160,-24.414,-23.438,-20.020,-138.672
1678025775.881,-23.926,-19.531,-23.926,-15.625,122.070
1678025775.885,-61.523,-16.602,-24.902,-41.504,182.129
1678025775.888,-66.406,-21.484,-29.785,-62.012,-143.555
1678025775.892,-45.410,-24.902,-39.062,-52.246,-212.402
1678025775.896,-25.879,-22.461,-38.574,-25.879,11.230
1678025775.900,-23.926,-26.367,-25.879,-20.996,37.109
1678025775.904,-43.457,-27.832,-17.090,-36.133,-150.879
1678025775.922,-53.223,-25.391,-18.066,-54.688,-199.219
1678025775.926,-50.781,-29.297,-25.391,-49.805,-117.676
1678025775.930,-33.691,-29.785,-26.367,-30.273,-20.996
1678025775.934,-25.879,-25.391,-22.949,-34.668,-70.801
1678025775.938,-46.387,-23.926,-20.996,-42.480,-177.734
1678025775.942,-62.500,-27.344,-22.461,-45.410,-87.891
1678025775.946,-48.828,-27.832,-23.926,-43.945,-12.207
1678025775.949,-28.320,-33.691,-29.297,-43.457,30.273
1678025775.953,-30.762,-28.809,-31.250,-40.527,70.801
1678025775.957,-53.223,-34.180,-25.879,-43.945,258.301
1678025775.961,-67.871,-31.250,-25.391,-54.199,128.418
1678025775.965,-55.664,-13.672,-26.367,-51.758,-266.113
1678025775.967,-34.668,-17.090,-23.438,-30.762,-131.348
1678025775.971,-24.902,-24.902,-25.391,-19.531,-45.410
1678025775.975,-39.551,-24.902,-25.391,-45.410,-166.992
1678025775.979,-58.594,-22.461,-24.902,-61.035,-289.551
1678025775.983,-53.223,-27.344,-29.785,-48.340,-129.395
1678025775.987,-29.297,-23.926,-35.156,-39.062,75.195
1678025775.991,-16.602,-20.020,-29.297,-24.902,54.199
1678025775.994,-30.762,-29.297,-31.738,-43.457,-62.012
1678025775.998,-50.781,-31.738,-35.156,-66.895,-93.750
1678025776.002,-45.410,-25.391,-30.762,-47.363,25.391
1678025776.006,-26.367,-28.320,-32.715,-32.715,-89.355
1678025776.010,-19.043,-34.668,-35.645,-31.738,-74.707
1678025776.012,-37.109,-29.297,-38.574,-43.945,-59.570
1678025776.016,-66.895,-24.414,-32.715,-63.965,-183.105
1678025776.020,-55.176,-23.926,-34.668,-63.477,-260.254
1678025776.024,-26.855,-22.949,-38.574,-42.969,-158.203
1678025776.028,-23.438,-20.996,-30.762,-31.738,37.598
1678025776.032,-37.109,-20.508,-31.250,-33.203,114.746
1678025776.036,-50.781,-27.344,-34.668,-53.711,8.789
1678025776.039,-50.781,-30.273,-22.461,-65.918,-138.672
1678025776.043,-33.691,-26.367,-17.578,-38.086,106.934
1678025776.047,-14.648,-25.391,-26.855,-15.625,337.402
1678025776.051,-27.832,-29.297,-29.785,-38.086,-13.184
1678025776.055,-44.434,-29.297,-24.414,-49.316,-195.312
1678025776.057,-37.109,-25.391,-23.926,-48.828,-147.461
1678025776.061,-20.508,-21.484,-20.508,-39.062,-120.117
1678025776.065,-2.930,-13.184,-16.602,-6.836,-46.387
1678025776.069,-9.277,-20.508,-28.809,-10.742,-7.324
1678025776.073,-47.363,-30.762,-28.320,-40.039,-91.797
1678025776.077,-48.828,-36.133,-16.113,-39.551,-94.727
1678025776.081,-35.156,-28.320,-26.367,-22.949,-81.543
1678025776.084,-31.250,-17.578,-36.621,-18.066,104.492
1678025776.088,-31.738,-24.414,-35.156,-25.391,394.043
1678025776.092,-55.176,-29.785,-41.016,-51.758,62.988
1678025776.096,-59.570,-30.762,-40.527,-52.734,-232.422
1678025776.100,-43.945,-30.273,-31.738,-35.156,-149.902
1678025776.102,-27.344,-32.227,-30.273,-30.273,-84.473
1678025776.106,-22.949,-26.367,-30.762,-28.809,-71.777
1678025776.110,-44.434,-25.391,-26.367,-36.621,-133.301
1678025776.114,-66.895,-34.668,-21.973,-42.480,-220.215
1678025776.118,-53.711,-35.645,-28.809,-42.969,-199.707
1678025776.122,-28.320,-26.855,-30.273,-12.695,-49.805
1678025776.126,-31.738,-21.973,-24.902,-3.418,55.176
1678025776.129,-54.688,-21.484,-23.438,-32.715,281.250
1678025776.133,-59.570,-29.297,-28.809,-48.828,258.789
1678025776.137,-52.734,-22.949,-31.250,-49.316,-156.738
1678025776.141,-38.574,-23.438,-26.855,-34.180,-149.414
1678025776.145,-26.367,-28.320,-26.855,-18.066,63.965
1678025776.162,-45.410,-22.949,-24.902,-38.574,-88.379
1678025776.166,-62.988,-23.926,-20.996,-62.012,-235.840
