timestamps,TP9,AF7,AF8,TP10,Right AUX
1678025799.112,-43.457,-39.551,-44.434,-36.133,-72.754
1678025799.116,-58.594,-36.133,-48.828,-58.105,-192.383
1678025799.120,-61.035,-36.621,-56.641,-53.223,-101.562
1678025799.124,-54.199,-43.945,-54.688,-59.570,-65.430
1678025799.128,-33.203,-45.410,-47.852,-40.039,-54.688
1678025799.132,-43.945,-41.016,-53.223,-36.621,14.648
1678025799.136,-53.223,-38.574,-54.199,-67.871,239.258
1678025799.139,-61.035,-43.457,-52.246,-63.965,198.242
1678025799.143,-43.945,-41.504,-48.828,-28.809,-137.695
1678025799.147,-33.203,-35.156,-41.992,-9.277,-80.078
1678025799.151,-47.852,-31.738,-46.875,-22.949,-63.477
1678025799.155,-43.945,-27.832,-58.105,-54.688,-216.309
1678025799.158,-45.898,-36.133,-57.617,-63.477,-294.434
1678025799.162,-39.551,-37.109,-50.293,-52.246,-121.582
1678025799.166,-13.184,-29.785,-46.875,-28.320,87.402
1678025799.170,-20.508,-29.297,-47.363,-29.785,33.203
1678025799.174,-43.945,-31.738,-44.434,-59.082,-143.555
1678025799.178,-38.574,-32.227,-47.852,-51.758,-117.676
1678025799.182,-30.273,-34.180,-48.340,-29.785,138.672
1678025799.185,-18.066,-32.715,-46.387,-22.461,82.520
1678025799.189,-15.625,-28.320,-49.805,-29.297,-111.816
1678025799.193,-47.363,-31.738,-42.969,-47.363,-18.555
1678025799.197,-61.523,-31.250,-44.434,-61.523,34.668
1678025799.201,-27.344,-31.738,-51.758,-69.824,-186.035
1678025799.217,-6.348,-25.879,-48.828,-64.941,-200.195
1678025799.221,-24.902,-24.414,-47.852,-46.387,-113.770
1678025799.225,-61.523,-34.180,-51.270,-59.082,-161.621
1678025799.229,-68.848,-34.668,-48.340,-71.777,-272.461
1678025799.233,-44.922,-31.250,-46.875,-54.199,-237.793
1678025799.237,-27.832,-41.992,-47.363,-35.156,91.309
1678025799.241,-16.113,-42.480,-48.828,-30.273,234.375
1678025799.244,-28.809,-34.180,-49.805,-48.340,-22.461
1678025799.248,-48.828,-35.156,-52.734,-64.941,-166.992
1678025799.252,-49.805,-32.227,-46.387,-56.152,-77.148
1678025799.256,-34.180,-31.250,-38.574,-56.152,-62.012
1678025799.260,-22.949,-35.156,-35.645,-54.199,-83.984
1678025799.262,-42.969,-33.203,-41.016,-49.316,-58.594
1678025799.266,-72.266,-31.738,-42.969,-41.504,-136.230
1678025799.270,-74.707,-27.832,-40.039,-46.387,-162.109
1678025799.274,-32.227,-29.785,-38.086,-59.082,-106.934
1678025799.278,-7.324,-32.227,-38.086,-35.156,34.668
1678025799.282,-43.457,-34.668,-38.086,-37.109,178.223
1678025799.286,-58.105,-31.250,-32.227,-43.945,-12.695
1678025799.289,-43.945,-25.391,-39.062,-34.180,-147.949
1678025799.293,-16.602,-28.809,-40.527,-35.645,89.844
1678025799.297,13.184,-21.973,-33.691,-23.926,479.980
1678025799.301,9.766,-13.184,-33.203,-22.461,336.914
1678025799.305,-8.789,-19.043,-34.668,-48.340,-194.336
1678025799.307,-16.602,-18.066,-30.762,-53.711,-268.555
1678025799.311,-1.465,-11.719,-28.320,-41.992,-205.078
1678025799.315,24.414,-8.301,-24.902,-3.418,-149.902
1678025799.319,23.438,-7.324,-21.484,-9.277,-93.262
1678025799.323,-3.418,-8.789,-28.809,-36.621,-94.238
1678025799.327,-16.602,-12.695,-27.832,-34.180,-61.523
1678025799.331,0.000,-19.043,-34.180,-30.762,-67.871
1678025799.334,12.207,-16.602,-39.062,-15.137,-107.910
1678025799.338,-19.531,-19.043,-40.527,-16.602,161.621
1678025799.342,-47.852,-26.367,-31.738,-49.805,127.930
1678025799.346,-50.781,-21.484,-31.250,-58.594,-232.422
1678025799.350,-39.551,-20.020,-45.898,-40.039,-161.133
1678025799.352,-8.789,-17.090,-41.016,-22.461,230.957
1678025799.356,-34.668,-13.184,-33.691,-22.949,224.121
1678025799.360,-66.895,-13.672,-24.902,-51.270,-137.695
1678025799.364,-66.895,-17.578,-18.555,-57.129,-138.184
1678025799.368,-43.945,-17.578,-25.879,-46.875,-98.145
1678025799.372,-15.137,-11.230,-36.621,-28.809,-52.734
1678025799.376,-24.902,-9.277,-40.039,-31.738,51.270
1678025799.379,-47.363,-18.555,-39.551,-53.711,107.910
1678025799.383,-73.242,-28.320,-38.086,-41.992,318.359
1678025799.387,-86.426,-23.926,-30.273,-44.922,87.891
1678025799.391,-51.270,-12.695,-37.598,-48.828,-136.719
1678025799.395,-18.555,-14.648,-41.504,-23.926,82.520
1678025799.397,-47.363,-18.066,-41.504,-28.320,-1.465
1678025799.401,-58.594,-14.160,-39.551,-45.410,-211.914
1678025799.405,-28.809,-20.020,-34.668,-35.156,-204.102
1678025799.409,-2.441,-22.949,-34.668,-27.344,-74.707
1678025799.413,-4.883,-22.949,-30.273,-32.227,50.781
1678025799.417,-45.898,-27.832,-39.062,-47.363,26.855
1678025799.421,-70.801,-33.203,-51.270,-62.500,-108.887
1678025799.424,-54.688,-37.109,-42.480,-50.781,1.953
1678025799.428,-29.297,-30.273,-36.621,-39.062,38.574
1678025799.432,-30.762,-24.414,-34.180,-33.691,-109.375
1678025799.436,-57.129,-21.484,-30.762,-46.875,-91.797
1678025799.440,-77.637,-18.066,-30.273,-69.336,-179.688
1678025799.443,-64.453,-17.578,-32.227,-65.918,-192.383
1678025799.447,-26.855,-17.090,-31.250,-43.945,-135.254
1678025799.451,-14.160,-20.020,-30.273,-31.250,56.641
1678025799.455,-32.715,-20.996,-28.809,-41.504,162.598
1678025799.459,-56.152,-19.531,-26.367,-68.359,-140.137
1678025799.463,-44.922,-21.973,-30.273,-63.965,-245.117
1678025799.467,-18.066,-15.625,-35.156,-41.504,60.059
1678025799.470,-18.555,-14.160,-30.762,-32.715,231.445
1678025799.474,-28.320,-32.227,-33.203,-43.457,62.012
1678025799.478,-50.293,-30.762,-35.645,-54.688,-162.109
1678025799.482,-58.105,-20.996,-37.598,-59.570,-127.930
1678025799.486,-42.969,-21.973,-39.062,-51.270,147.949
1678025799.487,-29.297,-20.996,-45.410,-31.250,81.055
1678025799.491,-39.062,-34.180,-46.875,-46.875,-40.039
1678025799.495,-54.199,-43.457,-36.621,-62.988,-144.043
1678025799.499,-60.059,-26.855,-42.480,-77.637,-177.246
1678025799.503,-63.965,-16.602,-43.457,-72.754,-161.133
1678025799.507,-43.945,-22.461,-36.133,-45.898,-78.613
1678025799.511,-35.156,-21.973,-26.367,-42.480,300.293
1678025799.514,-60.547,-21.484,-31.250,-64.941,279.297
1678025799.518,-69.824,-22.461,-42.480,-84.473,-177.734
1678025799.522,-61.035,-23.926,-44.434,-74.707,-212.402
1678025799.526,-46.875,-27.832,-43.945,-65.430,-81.543
1678025799.530,-43.457,-27.832,-45.410,-67.383,-90.820
1678025799.532,-52.246,-27.344,-41.016,-78.613,-166.016
1678025799.536,-51.270,-33.203,-36.621,-69.824,-214.355
1678025799.540,-39.551,-36.133,-44.922,-69.824,-194.824
1678025799.544,-20.020,-26.367,-42.480,-52.246,-93.262
1678025799.548,-20.020,-23.926,-31.738,-34.180,-56.152
1678025799.552,-46.875,-26.855,-35.645,-48.828,79.590
1678025799.556,-61.035,-25.879,-39.062,-65.430,139.160
1678025799.559,-47.852,-18.555,-36.133,-76.660,-104.004
1678025799.563,-27.344,-14.648,-32.715,-59.570,-84.473
1678025799.567,-17.090,-24.414,-33.203,-39.062,104.004
1678025799.571,-46.387,-17.578,-37.109,-50.781,196.777
1678025799.575,-71.289,-16.113,-33.203,-75.195,-97.656
1678025799.592,-61.035,-25.391,-32.715,-60.059,-297.852
1678025799.596,-39.062,-21.484,-40.039,-51.270,-193.848
1678025799.600,-22.461,-26.855,-36.133,-42.480,-98.633
1678025799.604,-38.086,-27.344,-33.691,-44.922,-136.230
1678025799.608,-42.969,-15.625,-32.227,-61.523,-192.871
1678025799.612,-36.621,-14.160,-30.273,-55.664,-113.281
1678025799.616,-11.230,-13.184,-40.527,-43.457,-13.672
1678025799.619,11.230,-16.602,-43.945,-38.086,-73.730
1678025799.623,-13.184,-27.344,-27.832,-51.270,2.930
1678025799.627,-39.062,-22.461,-20.996,-77.148,124.512
1678025799.631,-32.227,-21.973,-27.832,-84.961,-56.641
1678025799.635,-3.906,-30.762,-29.297,-56.152,-104.004
1678025799.637,18.555,-20.020,-37.109,-41.016,45.898
1678025799.641,-8.789,-13.672,-41.016,-54.199,183.105
1678025799.645,-39.062,-21.973,-36.621,-57.617,8.301
1678025799.649,-32.227,-19.531,-34.668,-65.430,-234.863
1678025799.653,-6.836,-7.812,-36.133,-54.688,-93.262
1678025799.657,9.766,-7.324,-35.156,-35.156,112.305
1678025799.661,-2.930,-14.160,-27.344,-30.762,69.336
1678025799.664,-31.738,-16.113,-26.367,-52.734,-73.242
1678025799.668,-40.039,-18.555,-35.645,-65.918,-104.004
1678025799.672,-34.668,-21.484,-36.133,-33.691,215.820
1678025799.676,-20.996,-18.555,-32.227,-13.184,145.996
1678025799.680,-20.508,-20.508,-26.855,-34.180,-106.445
1678025799.682,-46.387,-16.113,-32.227,-53.223,-60.547
1678025799.686,-56.152,-19.531,-45.410,-48.828,-101.562
1678025799.690,-35.645,-29.297,-43.457,-40.039,-218.750
1678025799.694,-31.250,-22.949,-37.598,-22.461,-111.328
1678025799.698,-45.898,-14.648,-41.504,-14.648,13.184
1678025799.702,-64.453,-22.461,-40.527,-29.785,-19.531
1678025799.706,-67.383,-32.227,-36.133,-41.504,-120.117
1678025799.709,-44.434,-22.949,-33.691,-29.297,-185.059
1678025799.713,-35.156,-17.090,-25.391,-2.441,127.930
1678025799.717,-44.434,-16.602,-34.668,-10.254,173.340
1678025799.721,-58.105,-20.996,-34.668,-35.645,-163.574
1678025799.725,-66.406,-21.484,-32.715,-47.852,-168.945
1678025799.727,-63.965,-19.043,-40.527,-41.992,-163.574
1678025799.731,-53.711,-20.020,-36.133,-32.715,-72.754
1678025799.735,-51.270,-19.043,-27.832,-38.574,-45.410
1678025799.739,-67.383,-17.090,-27.832,-35.156,-52.246
1678025799.743,-81.055,-23.438,-44.434,-55.664,-46.387
1678025799.747,-91.309,-36.133,-41.504,-66.895,-98.145
1678025799.751,-67.383,-36.133,-35.645,-48.340,-84.961
1678025799.754,-33.203,-30.762,-47.852,-27.832,170.410
1678025799.758,-38.574,-17.578,-50.781,-29.785,347.168
1678025799.762,-53.711,-12.207,-36.133,-55.664,-53.711
1678025799.766,-53.223,-15.625,-21.973,-54.199,-260.742
1678025799.770,-41.016,-14.648,-21.484,-33.203,3.418
1678025799.772,-25.391,-14.648,-23.438,-22.461,185.059
1678025799.776,-51.270,-13.672,-33.691,-30.762,-70.312
1678025799.780,-88.379,-16.113,-40.039,-55.664,-249.023
1678025799.784,-84.473,-16.602,-25.391,-58.105,-134.277
1678025799.788,-59.082,-19.043,-27.344,-39.062,-75.195
1678025799.792,-50.293,-21.484,-33.691,-34.180,-104.004
1678025799.796,-75.195,-23.438,-26.367,-35.645,0.000
1678025799.799,-79.590,-25.391,-23.926,-49.805,99.121
1678025799.803,-48.340,-25.391,-31.738,-57.129,-36.621
1678025799.807,-20.508,-24.902,-40.039,-42.480,-198.730
1678025799.811,-7.324,-25.391,-31.738,-33.203,-119.629
1678025799.815,-24.414,-25.391,-25.879,-35.156,139.648
1678025799.832,-61.523,-27.344,-32.715,-52.246,34.668
1678025799.836,-57.129,-21.973,-32.227,-51.270,-254.883
1678025799.840,-31.738,-16.602,-32.715,-31.738,-199.219
1678025799.844,-19.043,-18.555,-39.062,-38.086,-69.824
1678025799.848,-19.531,-16.602,-28.809,-33.691,-58.105
1678025799.852,-42.969,-15.625,-24.902,-30.273,-117.188
1678025799.856,-73.730,-20.508,-34.668,-40.039,-66.895
1678025799.859,-59.082,-17.090,-39.551,-31.738,168.945
1678025799.863,-30.762,-12.207,-35.645,-24.414,171.387
1678025799.867,-32.715,-19.531,-36.133,-24.902,21.973
1678025799.871,-60.059,-26.367,-31.250,-25.391,-18.066
1678025799.875,-61.523,-21.973,-36.621,-39.062,108.398
1678025799.877,-37.598,-14.648,-48.340,-51.758,-82.520
1678025799.881,-29.297,-24.902,-43.457,-41.504,-159.180
1678025799.885,-35.645,-20.020,-30.762,-34.180,-35.156
1678025799.889,-56.152,-17.090,-19.043,-49.316,-99.121
1678025799.893,-70.801,-27.832,-23.926,-51.270,-220.703
1678025799.897,-61.523,-27.344,-30.273,-31.738,-176.758
1678025799.901,-48.340,-20.020,-33.203,-11.230,26.367
1678025799.904,-41.504,-20.508,-40.039,-20.508,26.367
1678025799.908,-52.734,-34.180,-35.156,-41.016,-89.355
1678025799.912,-55.176,-32.715,-37.598,-44.434,-211.426
1678025799.916,-41.016,-14.160,-48.828,-33.691,47.363
1678025799.920,-24.414,-9.766,-42.969,-24.414,248.535
1678025799.907,-14.160,-23.438,-28.809,-25.879,0.488
1678025799.911,-26.367,-26.855,-24.414,-34.180,-36.133
1678025799.915,-30.273,-21.484,-27.832,-43.457,-95.215
1678025799.919,-21.484,-37.598,-38.086,-35.645,-154.297
1678025799.923,-18.066,-33.203,-41.016,-22.461,-104.980
1678025799.927,-29.297,-10.742,-28.809,-25.391,-36.621
1678025799.931,-46.387,-15.137,-22.461,-41.016,35.645
1678025799.934,-51.758,-20.996,-28.320,-61.035,13.672
1678025799.938,-45.898,-26.367,-40.527,-68.848,-122.559
1678025799.942,-30.762,-29.785,-49.316,-42.480,-34.668
1678025799.946,-24.414,-32.715,-44.922,-9.766,395.996
1678025799.950,-23.438,-28.320,-29.297,-22.949,296.875
1678025799.967,-48.828,-32.227,-26.367,-52.246,-115.234
1678025799.971,-64.941,-31.738,-31.250,-54.199,-172.852
1678025799.975,-36.621,-18.066,-33.691,-20.508,-122.070
1678025799.979,-20.020,-23.438,-40.527,0.977,-52.246
1678025799.983,-42.480,-20.508,-36.621,-15.137,-17.090
1678025799.987,-66.895,-20.020,-28.809,-37.598,-7.324
1678025799.991,-65.430,-23.926,-23.926,-31.738,-91.309
1678025799.994,-33.203,-19.531,-14.160,-9.766,-164.062
1678025799.998,-21.973,-22.949,-11.230,0.000,-108.887
1678025800.002,-38.086,-21.973,-34.668,-18.066,147.461
1678025800.006,-58.594,-15.625,-47.852,-47.363,86.914
1678025800.010,-83.496,-8.301,-42.969,-42.480,-246.582
1678025800.028,-52.734,-4.883,-26.855,-12.695,-113.281
1678025800.032,-18.555,-9.766,-7.812,-8.301,142.578
1678025800.036,-30.762,0.977,-14.648,-10.254,17.578
1678025800.040,-52.246,-1.953,-24.414,-19.531,-177.246
1678025800.044,-66.406,-17.090,-13.672,-34.668,-108.887
1678025800.048,-59.570,-12.207,-8.789,-31.738,-20.020
1678025800.052,-39.551,-14.648,-16.602,-20.508,22.461
1678025800.055,-54.199,-16.602,-22.461,-20.996,73.730
1678025800.059,-96.191,-16.602,-23.926,-29.297,87.891
1678025800.063,-100.586,-24.414,-30.273,-23.438,258.301
1678025800.067,-71.777,-21.484,-28.809,-26.855,79.590
1678025800.071,-45.898,-8.301,-19.043,-19.043,-150.879
1678025800.057,-46.387,-6.836,-15.137,-3.418,0.977
1678025800.061,-74.707,-12.207,-13.672,-14.648,10.742
1678025800.065,-87.402,-27.344,-16.602,-34.180,-156.738
1678025800.069,-79.102,-33.203,-23.438,-31.738,-142.090
1678025800.073,-46.875,-13.672,-25.391,-15.137,-39.551
1678025800.077,-31.738,-4.883,-16.113,-11.719,10.742
1678025800.081,-63.477,-13.672,-14.160,-31.250,-11.719
1678025800.084,-70.801,-16.602,-17.578,-39.551,-145.508
1678025800.088,-62.012,-12.695,-18.555,-32.715,-205.566
1678025800.092,-58.105,-16.602,-25.391,-21.973,-115.723
1678025800.096,-49.805,-23.926,-27.832,-18.555,-60.547
1678025800.100,-74.707,-20.020,-23.926,-39.551,-111.816
1678025800.102,-96.680,-7.812,-20.996,-38.086,114.746
1678025800.106,-91.797,-4.883,-27.344,-40.527,129.883
1678025800.110,-71.289,-15.625,-27.832,-40.039,-144.043
1678025800.114,-42.969,-15.625,-22.949,-15.625,-5.371
1678025800.118,-61.035,-14.160,-22.949,-30.762,-0.977
1678025800.122,-96.680,-26.855,-25.391,-49.316,-153.320
1678025800.126,-93.262,-31.738,-28.320,-42.969,-92.773
1678025800.129,-77.148,-22.461,-28.809,-27.832,31.250
1678025800.133,-68.359,-12.695,-21.973,-26.367,458.008
1678025800.137,-73.730,-8.301,-16.113,-41.992,375.000
1678025800.141,-89.355,-14.648,-11.719,-46.387,-177.246
1678025800.145,-88.867,-23.926,-12.207,-50.781,-245.117
1678025800.147,-73.242,-20.996,-13.672,-42.969,-213.379
1678025800.151,-62.988,-13.184,-18.555,-21.484,-178.223
1678025800.155,-68.848,-9.766,-27.832,-27.832,-147.949
1678025800.159,-85.938,-12.695,-25.391,-53.223,-177.246
1678025800.163,-91.797,-20.508,-22.949,-58.105,-243.164
1678025800.167,-83.496,-14.160,-25.391,-48.828,-129.883
1678025800.171,-72.754,-5.371,-22.461,-30.273,-23.438
1678025800.174,-66.895,-12.695,-24.414,-25.879,191.895
1678025800.178,-83.496,-21.484,-32.715,-38.574,221.680
1678025800.182,-98.145,-24.902,-34.180,-52.734,-178.711
1678025800.186,-67.871,-23.438,-26.855,-39.551,-227.539
1678025800.190,-44.922,-19.043,-25.391,-10.742,-90.332
1678025800.192,-61.523,-21.484,-28.809,-23.438,-15.625
1678025800.196,-62.500,-24.414,-27.344,-42.969,-138.672
1678025800.200,-60.059,-18.066,-29.785,-39.062,-188.965
1678025800.204,-55.176,-15.625,-31.250,-31.250,-113.281
1678025800.208,-41.992,-9.766,-35.156,-12.207,-128.906
1678025800.212,-33.203,-14.160,-35.645,-7.324,-116.699
1678025800.216,-49.316,-25.879,-37.598,-24.902,37.109
1678025800.219,-67.871,-23.438,-33.203,-33.203,204.590
1678025800.223,-64.453,-15.625,-28.320,-37.109,-3.906
1678025800.227,-31.738,-12.695,-40.039,-24.902,-104.004
1678025800.231,-22.949,-18.555,-39.551,-10.742,125.488
1678025800.235,-52.734,-19.531,-35.156,-26.855,68.848
1678025800.237,-55.664,-14.160,-29.297,-40.527,-196.289
1678025800.241,-35.645,-9.766,-24.414,-28.809,-163.574
1678025800.245,-20.996,-7.812,-27.344,-18.066,-107.910
1678025800.249,-5.859,-5.371,-28.320,-5.859,-83.008
1678025800.253,-18.555,-8.301,-25.879,-14.160,-107.910
1678025800.257,-41.504,-14.160,-26.855,-31.738,-166.504
1678025800.261,-37.598,-15.625,-29.297,-32.715,59.082
1678025800.264,-42.969,-17.578,-33.203,-25.391,117.188
1678025800.268,-41.992,-13.184,-31.250,-4.395,-120.605
1678025800.272,-45.898,-11.719,-26.367,-9.766,-119.141
1678025800.276,-62.500,-14.160,-27.344,-41.016,-164.551
1678025800.280,-56.152,-12.207,-28.320,-34.668,-186.523
1678025800.313,-35.645,-10.742,-28.809,-12.695,-110.840
1678025800.317,-32.715,-15.137,-27.832,-3.418,20.508
1678025800.321,-51.270,-32.715,-29.297,-9.766,81.543
1678025800.325,-80.566,-22.461,-29.785,-36.133,-60.547
1678025800.329,-90.332,5.859,-26.367,-43.945,-199.219
1678025800.333,-68.848,-0.488,-24.902,-24.902,25.879
1678025800.337,-46.875,-6.348,-25.391,-9.766,280.762
1678025800.340,-48.828,-4.395,-22.949,-6.836,130.859
1678025800.344,-68.848,-6.348,-15.625,-32.715,-108.887
1678025800.348,-67.383,-14.160,-25.879,-45.410,-55.176
1678025800.352,-48.828,-10.254,-41.504,-19.531,144.043
1678025800.356,-32.715,-1.465,-25.391,-6.348,5.859
1678025800.342,-49.805,-5.371,-9.766,-8.789,-52.734
1678025800.346,-78.125,-9.277,-12.695,-29.785,-71.777
1678025800.350,-76.660,-6.348,-23.438,-44.434,-117.676
1678025800.354,-72.266,-6.836,-27.832,-21.484,-125.000
1678025800.358,-62.012,-14.648,-26.367,-6.348,-128.906
1678025800.362,-48.828,-11.230,-19.043,-6.348,144.531
1678025800.366,-63.965,-3.906,-14.160,-15.137,98.633
1678025800.369,-83.984,-9.766,-20.508,-30.762,-208.984
1678025800.373,-68.359,-19.531,-28.320,-26.855,-180.664
1678025800.377,-43.945,-14.160,-29.785,-23.926,-32.715
1678025800.381,-37.598,-4.395,-20.996,-32.227,32.715
1678025800.385,-62.012,-3.906,-25.391,-36.133,-76.172
1678025800.387,-71.289,-5.859,-23.926,-37.109,-159.180
1678025800.391,-53.711,-15.137,-16.602,-34.180,178.223
1678025800.395,-37.598,-18.555,-18.066,-16.113,226.562
1678025800.399,-26.855,-0.977,-10.742,-5.371,-111.328
1678025800.403,-43.457,2.930,-10.742,-24.414,16.602
1678025800.407,-64.453,-17.578,-31.738,-40.527,118.652
1678025800.411,-65.918,-28.809,-41.992,-40.527,-60.059
1678025800.414,-65.918,-19.531,-27.344,-24.414,-76.660
1678025800.418,-68.359,-13.672,-18.555,-19.043,94.727
1678025800.422,-73.242,-12.695,-19.043,-40.039,328.613
1678025800.426,-62.500,-9.766,-22.461,-54.688,62.012
1678025800.430,-41.992,-17.578,-26.855,-44.922,-286.133
1678025800.432,-25.391,-24.902,-27.344,-27.832,-71.777
1678025800.436,-20.020,-24.902,-32.715,-16.113,29.785
1678025800.440,-39.062,-28.320,-32.227,-26.855,-152.832
1678025800.444,-61.523,-18.066,-26.367,-40.527,-248.047
1678025800.448,-64.941,-3.906,-22.949,-44.434,-230.469
1678025800.452,-42.480,-2.930,-19.043,-40.527,-124.512
1678025800.456,-28.320,-5.859,-37.598,-35.645,-39.551
1678025800.459,-45.898,-12.207,-42.480,-43.457,-50.293
1678025800.463,-68.848,-13.184,-20.996,-50.781,89.355
1678025800.467,-66.406,-11.719,-18.066,-40.039,87.402
1678025800.471,-38.086,-12.207,-26.367,-26.367,-166.016
1678025800.475,-11.719,-7.812,-21.973,-20.996,-129.395
1678025800.492,-32.227,-9.766,-20.996,-30.762,-115.723
1678025800.496,-73.242,-18.555,-28.320,-53.223,-243.652
1678025800.500,-77.148,-13.184,-27.344,-61.035,-235.352
1678025800.504,-57.617,-8.301,-26.855,-48.828,-92.285
1678025800.508,-38.086,-5.859,-30.762,-39.551,28.809
1678025800.512,-29.785,-10.254,-32.715,-38.574,66.895
1678025800.516,-38.574,-16.113,-23.438,-34.180,-22.461
1678025800.519,-60.547,-14.648,-15.137,-46.387,-23.926
1678025800.523,-71.289,-10.254,-28.320,-51.270,251.465
1678025800.527,-64.941,-6.348,-32.715,-31.250,254.395
1678025800.531,-93.750,-9.766,-32.227,-54.688,-10.742
1678025800.535,-139.160,-15.137,-32.715,-99.121,5.371
1678025800.522,-132.324,-12.207,-37.598,-112.305,-54.688
1678025800.526,-98.145,-10.742,-40.527,-109.863,-214.355
1678025800.530,-88.379,-8.789,-36.621,-96.191,-129.395
1678025800.534,-106.934,-7.812,-32.227,-104.004,-37.109
1678025800.538,-131.836,-5.371,-33.203,-131.836,-106.934
1678025800.542,-145.508,6.348,-33.203,-144.531,-161.621
1678025800.546,-144.531,12.695,-24.902,-149.902,-60.059
1678025800.549,-136.230,15.137,-23.438,-139.648,49.316
1678025800.553,-161.621,15.137,-28.809,-132.812,2.930
1678025800.557,-207.520,13.184,-22.949,-179.199,-108.887
1678025800.561,-217.773,14.160,-13.672,-204.590,-205.566
1678025800.565,-229.004,15.137,-11.719,-205.078,45.410
1678025800.582,-234.863,27.344,-2.930,-212.402,169.922
1678025800.586,-261.230,37.598,20.508,-241.211,-57.617
1678025800.590,-326.660,31.250,32.227,-291.504,-73.730
1678025800.594,-341.797,32.715,34.180,-297.852,6.836
1678025800.598,-331.543,43.457,44.434,-300.781,-152.344
1678025800.602,-327.148,44.434,45.410,-310.547,-171.387
1678025800.606,-325.684,43.945,54.199,-308.594,111.816
1678025800.609,-354.004,46.875,79.102,-330.078,394.043
1678025800.613,-380.371,43.945,79.102,-354.004,88.867
1678025800.617,-369.629,52.246,79.102,-347.656,-299.805
1678025800.621,-352.051,57.129,79.590,-339.355,-162.598
1678025800.625,-340.332,58.105,76.172,-339.355,-60.059
1678025800.613,-362.793,58.105,79.102,-344.727,-92.773
1678025800.617,-394.043,45.410,83.496,-358.398,-166.504
1678025800.621,-381.348,39.062,85.938,-345.703,-103.516
1678025800.625,-344.238,36.621,73.242,-312.988,-31.738
1678025800.629,-318.359,37.109,63.965,-293.945,-12.207
1678025800.633,-325.195,37.109,68.359,-303.711,-11.230
1678025800.637,-321.289,38.086,60.059,-305.664,26.855
1678025800.640,-303.711,36.621,58.594,-285.156,-54.688
1678025800.644,-296.387,35.645,62.012,-278.809,-144.043
1678025800.648,-278.809,35.645,52.734,-253.418,-121.582
1678025800.652,-253.906,25.879,38.574,-229.980,133.789
1678025800.656,-257.812,20.508,28.809,-244.141,75.684
1678025800.657,-251.953,20.508,31.738,-246.582,-228.027
1678025800.661,-228.027,10.742,33.203,-226.562,-173.828
1678025800.665,-216.309,4.883,31.250,-203.125,-51.758
1678025800.669,-211.426,9.277,28.320,-192.383,-8.789
1678025800.673,-237.305,7.324,26.855,-220.703,-154.297
1678025800.677,-259.766,6.836,24.414,-226.074,-128.906
1678025800.681,-233.887,-4.395,24.902,-186.523,157.227
1678025800.684,-198.242,-20.020,25.879,-155.273,176.758
1678025800.688,-198.730,-17.090,15.625,-153.320,-49.316
1678025800.692,-230.957,-9.766,8.789,-175.293,-17.578
1678025800.696,-243.652,-13.184,7.812,-182.129,54.199
1678025800.700,-203.613,-20.508,9.766,-156.250,-156.738
1678025800.717,-164.062,-27.832,6.836,-125.488,-134.766
1678025800.721,-159.180,-29.785,0.488,-118.164,-69.336
1678025800.725,-164.551,-27.344,-4.395,-123.535,-162.598
1678025800.729,-183.594,-31.738,-5.371,-138.184,-202.637
1678025800.733,-175.293,-41.992,0.977,-140.137,-160.645
1678025800.737,-152.344,-49.805,-9.766,-128.906,23.926
1678025800.741,-147.461,-44.922,-13.184,-110.352,108.887
1678025800.744,-153.809,-43.945,-3.906,-114.746,-10.254
1678025800.748,-172.363,-47.363,1.953,-133.301,-136.230
1678025800.752,-157.715,-48.828,-1.465,-108.887,100.586
1678025800.756,-120.605,-50.293,-10.254,-81.543,238.770
1678025800.760,-104.980,-50.781,-7.812,-68.848,-16.113
1678025800.762,-118.652,-49.805,-0.977,-68.848,2.441
1678025800.766,-137.695,-57.129,-6.836,-87.402,-26.367
1678025800.770,-122.559,-62.500,-9.277,-75.195,-143.555
1678025800.774,-92.773,-61.035,-11.230,-42.480,-134.766
1678025800.778,-74.707,-62.988,-15.137,-17.090,2.441
1678025800.782,-80.566,-69.336,-21.973,-23.438,68.359
1678025800.786,-86.426,-76.172,-22.461,-42.969,-36.133
1678025800.789,-59.082,-81.055,-16.113,-31.738,-106.445
1678025800.793,-14.160,-81.055,-17.090,15.625,91.797
1678025800.797,21.484,-87.891,-18.066,65.430,538.574
1678025800.801,28.809,-90.332,-22.461,80.566,348.145
1678025800.805,10.742,-91.309,-20.996,60.059,-166.504
1678025800.807,27.832,-101.074,-32.715,67.383,-163.086
1678025800.811,69.824,-97.656,-45.410,102.051,-55.176
1678025800.815,86.426,-87.402,-53.711,120.117,-8.789
1678025800.819,71.777,-78.125,-62.988,121.582,-5.859
1678025800.823,57.129,-80.566,-64.941,113.281,-146.484
1678025800.827,84.961,-83.496,-63.477,123.535,-134.766
1678025800.831,114.258,-86.914,-79.102,136.230,-86.426
1678025800.834,127.930,-95.215,-94.238,139.648,-79.102
1678025800.838,135.254,-92.773,-74.219,154.297,128.418
1678025800.842,116.211,-85.449,-67.871,153.320,109.863
1678025800.846,122.559,-78.125,-77.637,135.742,-230.469
1678025800.850,149.414,-83.496,-91.309,153.320,-213.379
1678025800.852,166.016,-82.520,-102.539,193.848,9.277
1678025800.856,171.875,-70.312,-104.492,191.406,-41.992
1678025800.860,145.020,-68.848,-108.398,152.832,-187.500
1678025800.864,129.883,-68.359,-105.957,148.438,-143.066
1678025800.868,151.855,-63.965,-105.469,171.387,-108.887
1678025800.872,179.199,-57.129,-112.305,188.965,-32.227
1678025800.876,187.988,-46.387,-121.094,195.312,99.121
1678025800.879,161.133,-46.387,-118.652,173.828,85.938
1678025800.883,145.508,-47.363,-121.094,169.922,200.684
1678025800.887,162.109,-42.480,-129.883,177.734,118.652
1678025800.891,190.430,-38.086,-128.906,183.594,-125.000
1678025800.895,209.961,-28.809,-125.977,193.848,-79.102
1678025800.898,180.176,-35.156,-133.301,184.082,-78.613
1678025800.902,157.227,-45.898,-141.602,171.875,-182.617
1678025800.906,171.387,-45.898,-128.906,173.340,-213.867
1678025800.910,177.734,-46.875,-113.770,177.734,-34.180
1678025800.914,187.012,-37.598,-115.723,187.012,56.152
1678025800.918,179.199,-29.785,-121.094,176.270,-26.367
1678025800.922,161.621,-28.809,-109.375,156.738,-162.109
1678025800.925,168.945,-25.391,-91.309,164.551,49.805
1678025800.929,193.848,-19.043,-89.355,178.711,212.402
1678025800.933,198.242,-20.508,-89.844,170.410,-2.930
1678025800.937,163.574,-27.832,-91.797,157.715,-75.195
1678025800.941,132.812,-27.344,-99.121,139.160,-151.855
1678025800.942,125.977,-21.484,-88.867,135.742,-170.410
1678025800.946,140.625,-21.973,-84.961,144.043,-164.062
1678025800.950,142.090,-28.320,-91.797,135.742,-63.965
1678025800.954,104.980,-27.832,-86.426,118.652,21.973
1678025800.958,73.730,-23.438,-82.031,95.215,-23.926
1678025800.962,73.730,-24.902,-83.496,94.727,-56.641
1678025800.966,91.309,-25.391,-84.961,107.422,24.902
1678025800.969,105.469,-26.367,-80.566,118.652,420.898
1678025800.973,89.844,-35.156,-73.730,99.609,384.766
1678025800.977,63.965,-35.156,-72.266,70.801,-145.508
1678025800.981,60.059,-28.320,-73.242,66.895,-199.707
1678025800.985,76.172,-27.344,-75.684,67.871,-154.785
1678025800.987,88.867,-23.926,-71.289,72.754,-138.672
1678025800.991,83.496,-14.160,-66.895,77.148,-103.516
1678025800.995,65.918,-18.555,-65.918,74.219,-186.035
1678025800.999,44.434,-25.879,-63.965,65.430,-193.359
1678025801.003,44.922,-21.484,-65.918,70.312,-125.488
1678025801.007,58.105,-24.414,-63.965,75.195,-11.719
1678025801.011,52.246,-26.855,-60.059,66.895,237.793
1678025801.014,27.344,-23.438,-58.105,45.898,230.957
1678025801.018,8.789,-24.414,-57.129,25.879,-183.105
1678025801.022,18.066,-28.809,-59.570,33.203,-223.633
1678025801.026,39.062,-16.113,-61.523,42.969,-34.668
1678025801.030,41.016,-10.254,-57.617,37.109,-35.645
1678025801.032,8.301,-20.996,-50.293,15.137,-211.426
1678025801.036,-14.160,-24.902,-46.875,7.324,-198.730
1678025801.040,-2.441,-21.973,-48.340,5.371,-142.578
1678025801.044,17.090,-20.996,-52.246,19.531,-111.328
1678025801.048,31.738,-22.949,-52.246,40.527,-88.867
1678025801.052,20.996,-19.043,-45.410,16.602,-22.949
1678025801.056,10.742,-18.555,-40.527,-7.812,102.051
1678025801.059,33.691,-20.996,-37.598,5.859,-24.902
1678025801.063,54.688,-22.461,-39.062,20.508,-37.109
1678025801.067,44.922,-19.531,-40.527,23.438,106.934
1678025801.071,17.090,-20.996,-41.504,10.742,0.488
1678025801.075,-4.883,-24.902,-41.992,-4.883,-174.316
1678025801.092,-3.906,-20.996,-37.598,-14.648,-211.914
1678025801.096,16.113,-19.043,-34.668,-2.930,15.137
1678025801.100,12.207,-22.949,-38.086,13.672,312.988
1678025801.104,-21.484,-27.344,-42.480,-3.418,30.762
1678025801.108,-38.574,-29.297,-49.805,-24.902,-221.680
1678025801.112,-36.621,-24.902,-54.199,-14.648,-161.621
1678025801.116,-22.461,-16.602,-40.527,11.719,-63.477
1678025801.119,-15.137,-18.555,-30.762,22.461,-31.738
1678025801.123,-25.391,-18.066,-30.762,-3.906,-77.637
1678025801.127,-27.344,-14.648,-30.762,-23.926,-15.137
1678025801.131,-22.949,-9.766,-40.039,-33.691,10.742
1678025801.135,1.953,1.465,-39.062,-28.809,-75.195
1678025801.137,29.785,0.000,-29.297,-10.742,-59.082
1678025801.141,20.508,-10.254,-28.320,-12.695,8.301
1678025801.145,-7.324,-8.789,-21.973,-22.461,-104.492
1678025801.149,-9.766,-6.836,-18.066,-26.367,-268.555
1678025801.153,13.672,-10.254,-20.020,-10.254,-172.852
1678025801.157,34.668,-15.625,-22.461,4.883,74.707
1678025801.161,29.785,-20.508,-25.391,8.789,91.309
1678025801.164,2.930,-14.648,-16.602,-2.930,-47.363
1678025801.168,-9.277,-7.324,-20.020,-19.043,-65.918
1678025801.172,4.883,-5.859,-29.785,-4.883,234.863
1678025801.176,20.996,-9.766,-29.297,-4.395,211.426
1678025801.180,25.391,-15.625,-30.273,-3.418,-103.516
1678025801.182,6.348,-9.766,-33.203,-7.324,-127.441
1678025801.186,-17.578,-9.766,-36.621,-20.508,-129.883
1678025801.190,-9.766,-16.113,-37.109,-18.066,-125.977
1678025801.194,12.207,-16.113,-39.062,-5.371,-31.738
1678025801.198,4.395,-11.719,-41.016,-5.859,24.414
1678025801.202,-25.391,-20.508,-34.668,-30.273,-29.785
1678025801.206,-36.621,-25.879,-39.062,-45.898,-123.535
1678025801.209,-24.902,-9.277,-38.086,-44.434,-216.797
1678025801.213,6.836,0.977,-21.484,-12.207,55.664
1678025801.217,11.719,-7.324,-25.879,-3.906,200.195
1678025801.221,-25.879,-13.672,-38.574,-27.832,-121.582
1678025801.225,-44.434,-17.578,-45.898,-43.457,-198.730
1678025801.227,-28.809,-15.625,-39.551,-40.039,-108.887
1678025801.231,-25.391,-14.160,-27.344,-17.090,-19.043
1678025801.235,-21.973,-15.625,-26.855,-9.766,-60.547
1678025801.239,-31.738,-15.137,-25.391,-24.414,8.789
1678025801.243,-51.758,-10.254,-27.344,-34.180,19.043
1678025801.247,-47.852,-13.184,-30.762,-33.203,-60.059
1678025801.251,-30.762,-21.973,-26.367,-16.602,-6.836
1678025801.254,-14.648,-16.113,-25.391,-4.883,197.754
1678025801.258,-30.762,-10.742,-35.156,-29.785,287.598
1678025801.262,-51.758,-10.254,-35.156,-49.316,-109.863
1678025801.266,-45.898,-20.020,-25.391,-45.410,-271.973
1678025801.270,-22.949,-20.508,-20.508,-26.367,-11.230
1678025801.272,-15.137,-20.996,-22.949,-16.602,180.664
1678025801.276,-24.902,-28.809,-24.414,-33.691,-22.949
1678025801.280,-52.734,-16.602,-19.043,-45.898,-229.492
1678025801.284,-59.082,-0.977,-24.902,-39.551,-204.102
1678025801.288,-33.203,-6.836,-34.668,-24.414,-135.742
1678025801.292,-18.555,-15.625,-28.320,-10.742,-63.477
1678025801.296,-23.926,-9.766,-10.742,-13.184,-9.277
1678025801.299,-49.805,-16.602,-12.207,-29.297,50.293
1678025801.303,-50.293,-21.973,-24.902,-28.809,-68.848
1678025801.307,-21.484,-15.137,-26.855,-27.832,-165.039
1678025801.311,-8.301,-13.672,-31.250,-35.645,-43.945
1678025801.315,-21.484,-14.648,-37.598,-28.809,249.512
1678025801.317,-44.434,-18.555,-34.180,-41.016,157.227
1678025801.321,-56.641,-16.602,-32.715,-54.688,-211.914
1678025801.325,-42.969,-17.578,-34.668,-39.551,-160.645
1678025801.329,-8.301,-14.160,-34.180,-13.184,-83.008
1678025801.333,0.000,-17.090,-37.598,-19.043,-82.520
1678025801.337,-24.902,-27.832,-32.227,-44.434,-86.426
1678025801.341,-40.039,-24.902,-28.320,-40.527,-39.062
1678025801.344,-29.297,-19.043,-29.785,-18.555,227.539
1678025801.348,-6.348,-12.207,-40.527,6.348,240.234
1678025801.352,-9.766,-2.441,-46.875,2.930,-117.188
1678025801.356,-57.129,-6.836,-37.598,-46.387,-145.508
1678025801.360,-76.172,-9.766,-36.133,-68.848,-65.918
1678025801.362,-44.922,-7.324,-41.504,-56.152,-223.145
1678025801.366,-9.277,-10.742,-40.527,-36.621,-201.660
1678025801.370,-10.742,-7.812,-35.156,-28.320,-32.715
1678025801.374,-41.992,-11.719,-40.527,-44.922,-69.336
1678025801.378,-44.922,-19.043,-40.039,-64.453,-245.605
1678025801.382,-21.484,-16.602,-42.480,-56.641,-188.965
1678025801.386,-1.953,-20.508,-48.340,-31.250,39.062
1678025801.389,2.441,-16.602,-39.062,-21.484,27.832
1678025801.393,-13.672,-16.113,-34.180,-36.621,-180.664
1678025801.397,-23.926,-26.855,-30.762,-46.875,-325.684
1678025801.401,-23.926,-27.832,-35.156,-34.180,-50.293
1678025801.405,-6.348,-18.066,-43.457,-18.066,137.207
1678025801.407,12.207,-10.742,-38.574,-20.996,-96.680
1678025801.411,-14.648,-18.555,-29.785,-35.645,-119.141
1678025801.415,-42.480,-25.391,-29.297,-44.922,-148.438
1678025801.419,-48.828,-22.949,-36.621,-42.480,-212.402
1678025801.423,-28.809,-19.531,-38.086,-28.809,-179.199
1678025801.427,-14.648,-12.695,-33.691,-15.625,203.613
1678025801.431,-41.504,-12.695,-33.691,-22.949,399.902
1678025801.434,-69.824,-18.555,-37.109,-50.293,59.082
1678025801.438,-70.801,-21.484,-36.133,-45.898,-198.730
1678025801.442,-52.246,-23.438,-29.785,-24.414,-35.156
1678025801.446,-48.340,-24.902,-31.250,-24.414,227.051
1678025801.450,-61.035,-24.902,-36.621,-39.062,-21.973
1678025801.467,-83.008,-28.320,-38.086,-53.711,-168.945
1678025801.471,-83.496,-21.973,-38.086,-47.852,-3.906
1678025801.475,-58.594,-14.648,-40.527,-35.156,-24.902
1678025801.479,-33.203,-19.043,-41.016,-26.855,-61.523
1678025801.483,-35.645,-16.602,-33.691,-37.109,-15.137
1678025801.487,-59.570,-14.648,-20.020,-49.805,-5.859
1678025801.491,-63.477,-17.090,-14.648,-45.898,21.484
1678025801.494,-51.758,-16.113,-22.949,-39.062,-101.074
1678025801.498,-33.203,-15.625,-26.855,-29.785,-112.793
1678025801.502,-38.086,-22.949,-23.438,-23.926,150.391
1678025801.506,-71.777,-31.738,-31.250,-39.062,75.195
1678025801.510,-73.242,-25.879,-37.598,-41.016,-224.609
1678025801.512,-54.199,-20.996,-30.273,-21.484,-184.570
1678025801.516,-43.945,-20.020,-31.738,-13.184,-66.895
1678025801.520,-31.738,-22.461,-31.250,-10.742,-74.707
1678025801.524,-54.688,-26.855,-30.273,-32.227,-114.258
1678025801.528,-77.637,-23.926,-28.809,-39.551,-56.152
1678025801.532,-52.734,-32.227,-22.949,-30.762,43.457
1678025801.536,-25.391,-39.551,-24.414,-30.762,20.508
1678025801.539,-27.832,-23.926,-28.320,-24.414,-15.625
1678025801.543,-51.270,-15.137,-24.902,-28.320,24.414
1678025801.547,-62.500,-20.020,-20.508,-35.156,174.805
1678025801.551,-55.176,-31.250,-20.996,-25.879,102.051
1678025801.555,-39.062,-31.250,-30.762,-14.160,-141.602
1678025801.557,-35.156,-20.996,-35.645,-18.066,-114.258
1678025801.561,-55.176,-17.090,-22.949,-37.598,-117.676
1678025801.565,-61.523,-17.578,-15.625,-46.387,-189.453
1678025801.569,-53.223,-17.090,-19.043,-42.480,-219.238
1678025801.573,-36.621,-21.484,-17.578,-26.367,-79.102
1678025801.577,-27.344,-31.250,-21.973,-23.926,101.562
1678025801.581,-41.992,-27.832,-25.879,-43.457,-8.301
1678025801.584,-58.594,-26.855,-26.367,-49.805,-135.254
1678025801.588,-53.711,-32.227,-29.297,-29.297,57.617
1678025801.592,-30.762,-28.809,-31.250,0.000,209.473
1678025801.596,-19.043,-21.973,-27.832,-2.930,28.320
1678025801.600,-34.180,-26.855,-28.809,-21.973,-94.238
1678025801.602,-62.012,-38.086,-29.297,-32.227,-125.000
1678025801.606,-66.406,-29.785,-29.785,-34.668,-214.355
1678025801.610,-49.805,-16.113,-38.574,-28.809,-199.707
1678025801.614,-34.668,-21.484,-43.945,-12.207,-6.348
1678025801.618,-48.828,-22.461,-41.016,-11.719,51.758
1678025801.622,-70.801,-18.555,-35.156,-28.809,6.348
1678025801.626,-69.336,-18.066,-46.387,-31.738,-30.273
1678025801.629,-44.922,-19.043,-46.875,-21.973,19.043
1678025801.633,-31.250,-28.809,-35.156,-14.160,354.492
1678025801.637,-49.316,-33.691,-33.691,-24.902,296.875
1678025801.641,-73.730,-27.344,-25.879,-45.410,-179.688
1678025801.645,-72.266,-23.926,-28.809,-40.039,-101.562
1678025801.647,-48.828,-19.531,-36.133,-27.832,39.062
1678025801.651,-41.504,-22.949,-31.250,-11.719,-56.152
1678025801.655,-54.688,-30.273,-36.133,-16.113,-101.074
1678025801.659,-71.289,-24.902,-45.410,-48.828,-72.266
1678025801.663,-62.012,-21.973,-36.621,-52.246,-131.836
1678025801.667,-42.969,-26.855,-20.020,-33.691,-190.918
1678025801.671,-24.902,-20.996,-10.742,-20.508,-57.617
1678025801.674,-20.508,-15.625,-9.766,-15.137,211.426
1678025801.678,-44.434,-18.066,-16.602,-34.180,129.883
1678025801.682,-61.523,-18.066,-20.996,-54.688,-235.840
1678025801.686,-44.922,-21.484,-20.508,-38.086,-153.320
1678025801.690,-22.949,-21.484,-20.996,-14.648,62.988
1678025801.692,-30.273,-17.578,-27.832,-23.926,19.043
1678025801.696,-59.082,-18.555,-34.668,-56.641,-194.336
1678025801.700,-72.754,-19.043,-32.227,-66.895,-238.281
1678025801.704,-48.340,-16.113,-29.297,-49.316,-179.688
1678025801.708,-20.996,-12.695,-22.949,-18.066,-142.578
1678025801.712,-13.672,-8.789,-20.996,-10.254,-9.766
1678025801.716,-41.016,-14.648,-20.020,-33.203,103.516
1678025801.719,-60.547,-13.672,-20.020,-42.480,262.695
1678025801.723,-34.180,-7.812,-11.230,-29.297,74.219
1678025801.727,-17.090,-8.301,-1.465,-17.578,-145.508
1678025801.731,-29.297,-5.859,-11.230,-32.715,-3.906
1678025801.735,-56.152,-4.395,-18.066,-64.453,-73.242
1678025801.738,-92.773,-1.953,0.488,-90.820,-189.941
1678025801.742,-107.910,18.066,19.043,-104.004,-177.734
1678025801.746,-118.652,20.020,22.461,-120.117,-52.734
1678025801.750,-149.902,10.742,30.762,-147.949,44.434
1678025801.754,-209.473,21.484,44.922,-202.148,-88.867
1678025801.758,-255.371,23.926,54.199,-249.023,-145.996
1678025801.762,-252.930,19.043,66.895,-239.258,164.551
1678025801.765,-277.344,38.574,80.566,-251.465,167.969
1678025801.769,-320.801,56.152,94.727,-303.711,-84.961
1678025801.773,-322.266,40.527,94.727,-319.336,-104.492
1678025801.777,-327.148,37.598,75.684,-322.754,-172.363
1678025801.781,-344.727,56.152,97.168,-333.496,-210.938
1678025801.797,-340.332,60.547,105.957,-322.266,-158.691
1678025801.801,-314.941,56.641,91.309,-291.016,-33.203
1678025801.805,-333.008,58.105,88.379,-307.129,26.855
1678025801.809,-358.887,56.641,87.891,-331.055,-49.805
1678025801.813,-333.984,55.664,96.680,-302.734,-175.293
1678025801.817,-323.730,55.176,100.098,-293.945,43.457
1678025801.821,-321.289,57.129,96.680,-285.156,456.055
1678025801.824,-321.289,53.711,94.238,-275.879,320.312
1678025801.828,-331.543,45.898,96.191,-282.227,-124.512
1678025801.832,-330.566,39.062,90.332,-271.484,-131.348
1678025801.836,-296.387,39.551,77.637,-260.742,-15.625
1678025801.840,-266.602,44.922,77.148,-245.605,-75.684
1678025801.842,-278.809,40.527,76.660,-242.188,-60.059
1678025801.846,-279.785,31.250,75.195,-241.211,-97.168
1678025801.850,-274.414,20.508,68.848,-227.539,-185.547
1678025801.854,-263.672,19.043,57.129,-218.750,-184.570
1678025801.858,-223.633,21.973,51.758,-197.754,-83.496
1678025801.862,-216.309,16.113,50.781,-184.082,76.172
1678025801.866,-239.258,9.766,54.688,-198.242,63.965
1678025801.869,-224.609,9.766,49.316,-188.965,-103.027
1678025801.873,-186.523,8.301,38.574,-167.969,-196.777
1678025801.877,-137.695,-2.930,29.785,-126.465,98.633
1678025801.881,-116.211,-1.953,19.043,-110.840,263.184
1678025801.885,-162.109,0.488,10.254,-145.996,-118.652
1678025801.887,-159.180,-8.301,13.184,-135.742,-171.387
1678025801.891,-109.863,-20.996,20.996,-92.773,-117.676
1678025801.895,-78.125,-18.066,14.648,-65.918,-123.047
1678025801.899,-59.082,-3.418,0.000,-63.477,-85.938
1678025801.903,-72.754,-12.695,0.977,-69.824,-36.621
1678025801.907,-72.754,-27.832,-0.977,-68.359,14.160
1678025801.911,-30.762,-35.645,-8.789,-36.133,-30.273
1678025801.914,-5.859,-35.645,-14.160,-9.766,-27.344
1678025801.918,-1.465,-37.598,-16.113,-10.254,163.574
1678025801.922,-4.395,-50.781,-13.184,1.465,150.879
1678025801.926,-1.465,-51.758,-17.090,13.672,-151.367
1678025801.930,16.113,-40.527,-15.137,20.020,-300.781
1678025801.932,31.738,-33.691,-21.973,30.273,-81.543
1678025801.936,37.109,-36.133,-38.086,46.875,342.285
1678025801.940,27.832,-41.504,-42.480,48.340,178.711
1678025801.944,44.922,-45.898,-47.852,43.457,-254.395
1678025801.948,55.664,-41.992,-60.059,41.016,-288.574
1678025801.952,68.848,-28.320,-57.129,66.895,-69.824
1678025801.956,98.633,-16.602,-49.316,101.074,86.914
1678025801.959,89.844,-5.371,-48.828,81.055,-98.145
1678025801.963,71.777,0.977,-52.734,64.941,-16.602
1678025801.967,80.566,6.836,-63.477,78.613,67.871
1678025801.971,105.957,10.254,-66.895,91.309,-128.906
1678025801.975,130.371,6.836,-69.336,116.211,-87.402
1678025801.977,142.090,0.488,-73.730,129.883,9.766
1678025801.981,121.094,2.441,-74.707,109.863,-121.582
1678025801.985,114.258,7.812,-78.613,105.469,-273.438
1678025801.989,125.488,6.836,-72.754,118.652,-165.039
1678025801.993,143.066,8.301,-67.383,128.418,-48.340
1678025801.997,141.113,11.230,-69.824,122.559,-28.320
1678025802.001,105.469,17.578,-72.754,102.051,-67.871
1678025802.004,93.262,11.230,-76.172,95.703,25.879
1678025802.008,108.398,0.488,-81.543,100.098,329.590
1678025802.012,115.723,-4.883,-88.379,107.422,206.055
1678025802.016,115.234,-8.789,-93.750,107.910,-98.145
1678025802.020,101.562,-10.254,-90.332,92.773,-34.668
1678025802.022,108.398,-5.859,-86.426,87.402,-21.973
1678025802.026,127.441,-0.977,-83.496,99.609,-189.453
1678025802.030,146.973,-11.230,-77.148,118.164,-158.691
1678025802.034,158.203,-16.602,-83.496,128.418,48.340
1678025802.038,142.578,-9.277,-92.285,103.027,3.906
1678025802.042,122.559,-14.160,-89.355,90.332,-140.625
1678025802.046,116.211,-12.695,-88.379,101.562,-131.348
1678025802.049,135.254,-11.230,-81.543,112.793,146.973
1678025802.053,148.438,-14.160,-70.801,113.281,285.156
1678025802.057,129.395,-18.555,-65.430,83.496,-85.449
1678025802.061,117.676,-22.461,-65.918,66.406,-229.492
1678025802.065,131.836,-16.113,-69.336,83.496,-179.688
1678025802.068,138.672,-8.301,-73.730,97.168,-124.512
1678025802.072,133.301,-11.230,-70.801,95.215,-87.891
1678025802.076,107.910,-17.578,-71.777,86.914,-18.066
1678025802.080,94.238,-19.531,-77.148,79.102,-77.148
1678025802.084,98.633,-21.973,-76.660,78.613,-196.289
1678025802.088,99.609,-23.438,-73.730,98.145,-104.004
1678025802.092,94.238,-13.672,-66.895,107.910,75.195
1678025802.095,67.383,-16.602,-67.871,101.074,279.297
1678025802.099,50.293,-20.508,-68.359,65.430,19.531
1678025802.103,51.758,-14.160,-69.824,45.410,-262.207
1678025802.107,62.988,-17.578,-63.965,69.824,-74.219
1678025802.111,74.707,-22.949,-58.105,77.148,4.395
1678025802.112,51.270,-28.809,-58.594,58.594,-140.625
1678025802.116,22.461,-29.297,-52.734,44.922,-233.887
1678025802.120,22.461,-20.996,-55.176,45.410,-226.074
1678025802.124,35.645,-19.531,-52.734,54.688,-153.809
1678025802.128,41.992,-21.484,-50.781,69.336,-77.148
1678025802.132,24.414,-24.414,-56.152,53.711,-75.195
1678025802.136,-1.465,-27.832,-55.176,27.832,117.676
1678025802.139,-6.836,-31.250,-49.316,24.902,211.914
1678025802.143,12.695,-28.809,-47.363,40.039,-94.727
1678025802.147,28.320,-30.762,-48.340,50.781,-64.453
1678025802.151,5.859,-29.297,-54.199,35.645,27.832
1678025802.155,-20.996,-23.438,-50.781,8.301,-101.074
1678025802.172,-20.996,-20.508,-44.434,6.348,-201.172
1678025802.176,-2.930,-23.438,-46.875,21.973,-132.812
1678025802.180,16.113,-21.484,-47.852,34.180,37.109
1678025802.184,9.766,-14.160,-46.875,39.551,25.879
1678025802.188,-18.066,-18.066,-63.965,24.902,-144.043
1678025802.192,-23.926,-23.926,-58.594,22.461,-1.953
1678025802.196,-8.301,-33.691,-30.273,34.180,189.941
1678025802.199,7.324,-23.926,-25.879,27.832,79.102
1678025802.203,5.371,-18.066,-32.227,14.160,80.566
1678025802.207,-15.137,-25.391,-33.691,8.301,109.375
1678025802.211,-36.621,-25.879,-36.621,-4.395,-63.477
1678025802.215,-27.832,-24.414,-38.574,-6.836,-219.727
1678025802.217,-1.465,-22.949,-35.645,12.207,-152.344
1678025802.221,0.488,-24.902,-38.086,15.625,93.750
1678025802.225,-27.832,-20.020,-44.434,-6.348,128.906
1678025802.229,-38.086,-20.020,-48.828,-21.484,-189.941
1678025802.233,-19.043,-26.855,-47.852,-21.484,-278.809
1678025802.237,-5.859,-26.367,-46.387,-17.090,126.465
1678025802.241,3.418,-19.043,-48.828,-7.812,348.633
1678025802.244,-9.766,-19.043,-46.387,-26.855,-63.477
1678025802.248,-10.742,-19.531,-45.410,-23.926,-217.773
1678025802.252,-6.348,-14.648,-39.062,-2.441,96.191
1678025802.256,-32.227,-11.230,-33.691,-26.367,253.906
1678025802.260,-37.598,-21.484,-32.715,-24.414,-13.672
1678025802.262,-37.598,-29.297,-35.156,-15.137,-77.148
1678025802.266,-41.504,-30.273,-29.785,-31.738,-153.809
1678025802.270,-41.992,-34.180,-20.020,-29.297,-207.520
1678025802.274,-46.387,-32.227,-26.367,-19.531,-148.438
1678025802.278,-39.551,-32.715,-26.855,-21.484,-20.996
1678025802.282,-40.527,-34.180,-22.461,-27.344,85.449
1678025802.286,-60.059,-33.691,-30.273,-44.922,-49.805
1678025802.289,-53.711,-36.621,-36.621,-45.898,-138.184
1678025802.293,-27.344,-33.203,-38.086,-22.949,41.504
1678025802.297,-18.066,-25.879,-40.527,-7.812,258.301
1678025802.301,-27.832,-23.926,-41.016,-23.926,46.875
1678025802.305,-55.176,-21.484,-35.156,-45.410,-155.273
1678025802.307,-64.453,-19.531,-28.809,-43.945,26.367
1678025802.311,-50.293,-29.297,-38.574,-25.391,174.316
1678025802.315,-39.062,-38.086,-44.434,-21.484,24.414
1678025802.319,-40.039,-27.832,-39.062,-24.414,-116.211
1678025802.323,-54.688,-18.555,-29.297,-29.785,-192.871
1678025802.327,-64.941,-29.297,-30.762,-51.758,-117.188
1678025802.331,-50.781,-37.109,-37.109,-50.293,-100.586
1678025802.334,-28.809,-23.926,-36.133,-27.344,-219.727
1678025802.338,-30.273,-16.602,-34.668,-20.020,34.668
1678025802.342,-56.641,-24.902,-38.086,-37.109,44.922
1678025802.346,-74.219,-27.344,-37.598,-55.664,-265.137
1678025802.350,-54.199,-22.949,-37.598,-45.410,-217.773
1678025802.353,-30.762,-25.879,-39.551,-23.926,-126.953
1678025802.357,-33.691,-31.250,-42.480,-26.855,-68.848
1678025802.361,-61.523,-35.645,-40.039,-45.410,-154.297
1678025802.365,-74.707,-36.133,-42.480,-49.316,-212.402
1678025802.369,-59.570,-25.391,-52.734,-29.785,-94.727
1678025802.373,-40.527,-27.832,-45.410,-20.996,16.602
1678025802.377,-38.086,-31.738,-44.434,-25.391,69.824
1678025802.380,-60.059,-31.738,-44.434,-42.969,33.203
1678025802.384,-69.336,-37.598,-38.574,-42.969,230.957
1678025802.388,-55.664,-30.762,-46.387,-34.668,115.234
1678025802.392,-34.180,-27.832,-52.734,-38.086,-171.387
1678025802.396,-34.668,-31.250,-53.711,-31.738,-65.918
1678025802.397,-58.594,-34.668,-50.781,-44.434,-125.488
1678025802.401,-64.941,-32.715,-49.316,-50.781,-264.160
1678025802.405,-53.223,-22.461,-51.758,-35.156,-209.961
1678025802.409,-29.297,-18.555,-51.270,-17.090,-93.750
1678025802.413,-18.066,-27.832,-45.898,-11.719,-20.508
1678025802.417,-43.945,-35.156,-45.898,-31.738,12.695
1678025802.421,-60.547,-28.320,-45.410,-52.246,-54.688
1678025802.424,-56.641,-28.320,-49.316,-51.270,54.199
1678025802.428,-44.922,-33.691,-54.688,-28.320,265.137
1678025802.432,-32.715,-31.250,-54.688,-26.855,32.715
1678025802.436,-45.410,-29.297,-55.664,-42.480,-157.227
1678025802.440,-68.848,-30.273,-56.152,-56.641,-145.996
1678025802.442,-63.477,-33.691,-51.758,-54.688,-201.660
1678025802.446,-41.016,-32.227,-45.410,-34.180,-189.941
1678025802.450,-31.250,-31.738,-45.410,-30.273,-31.738
1678025802.454,-39.062,-30.762,-48.340,-39.551,0.488
1678025802.458,-52.734,-27.344,-48.828,-38.086,-162.598
1678025802.462,-55.664,-28.320,-51.270,-38.574,-142.090
1678025802.466,-30.762,-33.203,-48.340,-43.945,41.504
1678025802.469,-14.160,-28.320,-45.410,-19.531,425.293
1678025802.473,-36.621,-29.297,-37.598,-18.066,344.727
1678025802.477,-69.824,-37.598,-33.691,-50.293,-152.832
1678025802.481,-72.266,-20.996,-32.227,-54.199,-94.238
1678025802.485,-46.875,-10.742,-38.086,-38.574,60.059
1678025802.487,-23.438,-23.926,-46.387,-25.391,-99.609
1678025802.491,-37.109,-29.785,-49.316,-28.809,-128.906
1678025802.495,-64.453,-29.297,-48.828,-54.199,-147.461
1678025802.499,-68.359,-32.227,-49.316,-49.316,-220.703
1678025802.503,-49.805,-27.344,-53.711,-23.438,-176.758
1678025802.507,-21.973,-20.508,-46.387,-26.855,-23.926
1678025802.511,-23.926,-21.973,-31.738,-34.180,274.414
1678025802.514,-52.734,-23.438,-28.809,-35.156,216.797
1678025802.518,-62.012,-29.297,-33.203,-47.363,-134.766
1678025802.522,-49.316,-32.227,-36.133,-45.898,-117.676
1678025802.526,-31.738,-29.297,-41.504,-29.297,14.648
1678025802.530,-33.203,-27.832,-47.852,-26.367,-42.480
1678025802.533,-54.688,-27.832,-44.434,-43.945,-179.688
1678025802.537,-57.129,-27.832,-39.062,-49.316,-206.055
1678025802.541,-45.410,-25.391,-41.016,-49.316,-202.148
1678025802.545,-27.344,-21.484,-32.715,-33.691,-85.449
1678025802.549,-22.949,-20.508,-18.066,-17.578,-66.895
1678025802.553,-53.223,-26.367,-18.555,-30.273,-27.832
1678025802.557,-62.012,-31.738,-26.367,-52.246,125.977
1678025802.560,-41.504,-31.738,-30.273,-46.387,-23.926
1678025802.564,-26.855,-21.973,-22.949,-24.414,-130.859
1678025802.568,-26.367,-9.766,-21.973,-25.391,86.914
1678025802.572,-49.805,-13.184,-29.785,-37.598,172.852
1678025802.576,-70.312,-20.508,-28.809,-51.758,-92.285
1678025802.578,-63.477,-16.113,-19.531,-46.387,-223.145
1678025802.582,-46.387,-12.695,-22.949,-27.344,-79.102
1678025802.586,-36.133,-13.184,-21.484,-18.066,23.438
1678025802.590,-51.758,-6.348,-18.555,-21.484,-55.664
1678025802.594,-63.965,-12.695,-16.602,-33.203,-187.988
1678025802.598,-44.922,-19.043,-14.648,-26.367,30.762
1678025802.602,-23.438,-12.207,-20.508,-18.066,294.434
1678025802.605,-20.996,-7.812,-20.508,-14.160,71.289
1678025802.609,-42.969,-16.602,-16.602,-18.555,-98.145
1678025802.613,-71.777,-31.250,-19.531,-42.480,-66.406
1678025802.617,-72.266,-19.531,-25.879,-51.270,-117.676
1678025802.621,-53.223,-4.395,-34.180,-41.504,-218.262
1678025802.639,-49.316,-9.277,-31.250,-26.855,-107.422
1678025802.643,-62.988,-14.160,-31.250,-22.461,83.496
1678025802.647,-76.172,-18.555,-33.691,-26.855,-24.414
1678025802.651,-69.336,-19.043,-25.879,-31.250,-278.809
1678025802.655,-49.316,-23.438,-26.855,-27.832,-135.254
1678025802.659,-27.832,-27.344,-30.273,-16.113,214.844
1678025802.663,-28.809,-21.484,-22.461,-19.043,154.785
1678025802.666,-55.664,-20.508,-27.344,-32.227,-55.176
1678025802.670,-62.500,-17.578,-33.691,-46.387,-62.988
1678025802.674,-35.645,-19.043,-28.809,-30.762,192.383
1678025802.678,-21.973,-20.020,-24.902,-9.766,132.324
1678025802.682,-32.715,-14.160,-36.621,-21.484,-81.055
1678025802.682,-57.129,-19.043,-41.504,-39.062,-135.742
1678025802.686,-67.383,-27.344,-32.227,-35.156,-180.664
1678025802.690,-48.340,-30.273,-41.504,-25.879,-246.582
1678025802.694,-27.832,-26.367,-55.176,-9.766,-74.707
1678025802.698,-24.902,-20.508,-45.410,-3.418,101.074
1678025802.702,-47.363,-16.602,-26.855,-30.273,21.973
1678025802.706,-58.105,-27.832,-18.066,-48.828,-48.340
1678025802.709,-45.410,-29.785,-26.367,-43.457,-128.418
1678025802.713,-27.344,-13.672,-29.297,-21.484,114.258
1678025802.717,-29.297,-8.789,-28.320,-9.277,352.539
1678025802.721,-53.711,-9.766,-28.809,-25.391,-19.043
1678025802.725,-57.617,-12.207,-21.973,-46.387,-214.355
1678025802.727,-39.062,-15.137,-17.090,-35.645,-152.344
1678025802.731,-29.297,-13.184,-26.367,-23.438,-146.484
1678025802.735,-28.809,-12.207,-24.902,-16.113,-50.293
1678025802.739,-42.480,-13.184,-16.602,-18.066,-0.488
1678025802.743,-60.547,-16.602,-23.926,-32.715,-69.824
1678025802.747,-58.105,-23.926,-32.227,-35.156,-107.910
1678025802.751,-37.109,-20.508,-29.785,-31.250,-41.504
1678025802.754,-25.391,-20.020,-24.414,-26.855,104.980
1678025802.758,-50.293,-21.973,-25.879,-26.855,411.621
1678025802.762,-71.777,-17.578,-29.297,-46.875,316.406
1678025802.766,-61.035,-18.066,-24.902,-53.711,-151.367
1678025802.770,-43.457,-22.949,-19.043,-38.086,-134.766
1678025802.772,-19.531,-20.996,-22.949,-22.461,-63.477
1678025802.776,-14.648,-4.883,-25.879,-19.043,-126.465
1678025802.780,-48.828,-8.301,-18.066,-41.504,-171.875
1678025802.784,-57.129,-22.949,-21.973,-45.898,-118.652
1678025802.788,-32.715,-27.832,-29.785,-39.062,-111.816
1678025802.792,-25.391,-19.531,-23.438,-29.785,-9.277
1678025802.796,-34.180,-17.090,-21.973,-25.391,52.734
1678025802.799,-48.828,-28.809,-26.367,-34.668,44.434
1678025802.803,-50.293,-26.855,-31.250,-35.156,132.324
1678025802.807,-30.762,-12.695,-32.715,-28.320,-114.746
1678025802.811,-20.996,-13.184,-31.250,-18.066,-143.066
1678025802.815,-32.227,-19.043,-32.715,-20.020,7.324
1678025802.817,-61.523,-11.230,-29.785,-34.668,-138.184
1678025802.821,-63.965,-2.441,-36.133,-33.691,-295.898
1678025802.825,-36.133,-5.859,-39.551,-22.949,-213.379
1678025802.829,-24.902,-16.602,-32.715,-16.113,-46.875
1678025802.833,-38.086,-18.555,-36.621,-25.879,-11.230
1678025802.837,-65.430,-16.602,-43.945,-53.711,-83.496
1678025802.841,-69.824,-15.137,-40.527,-59.570,-53.711
1678025802.844,-43.945,-17.578,-30.273,-27.344,336.914
1678025802.848,-23.438,-23.438,-32.227,-10.742,265.625
1678025802.852,-43.457,-22.461,-39.062,-23.438,-96.680
1678025802.856,-73.730,-23.926,-35.645,-44.434,9.277
1678025802.860,-80.078,-25.391,-31.738,-54.199,-4.395
1678025802.863,-66.406,-18.555,-28.809,-43.945,-193.848
1678025802.867,-38.086,-12.207,-23.438,-21.484,-156.250
1678025802.871,-34.668,-16.113,-24.414,-24.902,3.906
1678025802.875,-67.871,-24.414,-23.438,-50.781,-42.480
1678025802.879,-87.402,-22.461,-16.602,-59.570,-197.754
1678025802.883,-79.590,-20.996,-17.090,-55.176,-90.332
1678025802.887,-69.336,-24.902,-20.996,-47.363,310.547
1678025802.890,-52.734,-24.414,-18.066,-33.203,274.414
1678025802.894,-70.312,-18.066,-5.859,-51.758,-121.582
1678025802.898,-98.633,-17.090,-8.789,-83.008,-183.594
1678025802.902,-89.355,-4.883,-14.648,-78.613,-156.738
1678025802.906,-99.609,4.883,-0.488,-95.215,-31.250
1678025802.922,-127.441,-3.418,4.395,-123.535,10.254
1678025802.926,-165.039,-0.488,6.836,-154.297,-6.836
1678025802.930,-200.684,-0.488,23.438,-194.824,-106.934
1678025802.934,-195.312,6.836,46.875,-197.266,-247.070
1678025802.938,-198.242,13.672,50.293,-190.430,-160.645
1678025802.942,-227.539,16.602,56.152,-226.562,135.254
1678025802.946,-292.969,28.809,79.102,-287.598,351.074
1678025802.949,-350.098,25.879,93.262,-332.520,59.570
1678025802.953,-359.375,17.578,90.332,-343.750,-200.684
1678025802.957,-337.891,16.113,102.539,-306.152,-19.531
1678025802.961,-323.242,21.973,102.539,-287.109,116.211
1678025802.965,-331.055,32.715,81.055,-310.547,-84.473
1678025802.982,-350.098,35.645,82.520,-327.148,-238.770
1678025802.986,-362.793,25.391,87.402,-333.984,-222.168
1678025802.990,-336.426,20.020,86.914,-309.082,-121.094
1678025802.994,-305.176,29.785,76.172,-281.738,-24.414
1678025802.998,-310.547,38.574,65.918,-280.762,-29.785
1678025803.002,-334.473,35.156,62.988,-297.852,107.910
1678025803.006,-331.543,26.855,59.570,-309.570,159.668
1678025803.009,-294.922,22.461,59.570,-287.598,-96.680
1678025803.013,-270.020,20.020,58.594,-270.020,-161.133
1678025803.017,-265.137,15.137,52.246,-260.742,103.027
1678025803.021,-280.762,10.254,43.457,-258.301,151.855
1678025803.025,-270.996,12.207,43.945,-255.371,-175.781
1678025803.012,-232.910,6.836,42.480,-228.516,-161.133
1678025803.016,-216.309,3.418,34.180,-214.844,-43.457
1678025803.020,-214.355,8.789,23.438,-221.680,-83.496
1678025803.024,-218.262,1.465,20.996,-221.680,-215.820
1678025803.028,-226.074,-14.648,31.250,-204.590,-189.941
1678025803.032,-203.613,-14.160,20.020,-187.012,-40.039
1678025803.036,-151.855,-8.789,8.789,-161.133,17.578
1678025803.039,-142.090,-6.836,13.672,-153.809,-21.973
1678025803.043,-174.805,-9.277,12.207,-173.828,47.363
1678025803.047,-183.105,-19.531,7.812,-164.062,-23.926
1678025803.051,-146.973,-24.414,2.441,-133.301,-215.820
1678025803.055,-111.816,-18.555,0.488,-102.051,-136.230
1678025803.057,-115.234,-16.113,2.441,-94.727,61.523
1678025803.061,-123.535,-32.715,8.789,-83.008,359.863
1678025803.065,-106.934,-40.039,2.441,-75.195,159.668
1678025803.069,-103.516,-34.668,-14.648,-92.773,-188.477
1678025803.073,-99.609,-36.133,-13.184,-85.938,-116.699
1678025803.077,-73.730,-35.156,-20.508,-71.777,48.828
1678025803.081,-77.148,-31.738,-21.973,-69.336,50.781
1678025803.084,-95.703,-29.785,-18.555,-92.773,-179.199
1678025803.088,-82.031,-25.879,-28.320,-92.285,-74.707
1678025803.092,-54.199,-22.461,-26.367,-60.059,257.324
1678025803.096,-51.270,-19.043,-23.438,-60.547,116.211
1678025803.100,-77.637,-17.578,-23.926,-92.773,-113.281
1678025803.102,-79.590,-27.344,-27.344,-87.891,-185.547
1678025803.106,-41.992,-37.109,-35.645,-48.340,-227.539
1678025803.110,-15.137,-27.344,-42.969,-37.598,-218.750
1678025803.114,7.812,-19.531,-46.387,-19.043,-83.984
1678025803.118,16.113,-34.180,-46.875,-2.441,-23.926
1678025803.122,4.883,-45.410,-48.340,-11.719,-106.934
1678025803.126,19.043,-42.969,-55.176,-2.441,-117.676
1678025803.129,53.223,-35.156,-70.801,16.113,8.789
1678025803.133,53.711,-41.504,-68.848,22.461,364.258
1678025803.137,45.898,-49.805,-66.895,33.691,200.195
1678025803.141,37.598,-40.527,-83.008,26.855,-243.652
1678025803.145,47.852,-48.340,-89.355,19.531,-158.203
1678025803.148,89.844,-50.781,-93.750,35.156,66.406
1678025803.152,107.422,-40.527,-99.121,48.828,-41.992
1678025803.156,92.285,-45.898,-96.680,46.387,-144.043
1678025803.160,68.848,-45.898,-97.656,38.574,-201.172
1678025803.164,54.199,-47.852,-104.492,41.992,-248.535
1678025803.168,57.617,-44.434,-105.957,51.758,-131.348
1678025803.172,77.637,-36.621,-106.934,71.289,4.395
1678025803.175,75.684,-41.016,-104.980,73.730,185.059
1678025803.179,54.688,-43.945,-107.422,62.012,148.438
1678025803.183,60.059,-42.480,-113.281,68.848,-190.918
1678025803.187,83.984,-39.062,-105.957,78.613,-165.527
1678025803.191,89.844,-47.363,-102.051,85.938,-15.625
1678025803.193,77.637,-61.523,-101.562,95.215,26.367
1678025803.197,68.848,-51.270,-96.680,84.473,-72.266
1678025803.201,69.336,-39.062,-96.191,68.359,-133.789
1678025803.205,79.102,-44.434,-95.215,69.336,-25.391
1678025803.209,98.633,-47.363,-96.191,77.148,-55.664
1678025803.213,105.469,-48.828,-99.609,90.820,-51.270
1678025803.217,68.848,-48.340,-94.727,74.707,-32.227
1678025803.220,51.270,-41.992,-85.449,62.988,229.980
1678025803.224,83.008,-47.363,-84.473,83.496,299.316
1678025803.228,116.699,-49.805,-78.613,98.633,-14.648
1678025803.232,118.164,-37.109,-71.289,89.844,-41.992
1678025803.236,92.285,-36.133,-70.801,65.430,-83.984
1678025803.237,78.125,-45.898,-69.824,50.293,-188.965
1678025803.241,91.309,-39.062,-64.453,58.594,-186.523
1678025803.245,98.633,-29.785,-62.988,80.078,-58.105
1678025803.249,102.539,-34.180,-70.312,79.102,31.250
1678025803.253,84.473,-37.598,-65.430,64.453,-89.355
1678025803.257,59.082,-36.133,-56.152,61.523,-92.285
1678025803.261,69.824,-34.180,-58.594,69.824,81.543
1678025803.264,89.355,-36.621,-66.406,78.613,235.840
1678025803.268,102.051,-36.621,-70.312,84.473,46.875
1678025803.272,80.566,-34.180,-67.383,67.383,-128.906
1678025803.276,61.523,-38.086,-63.477,38.086,-48.340
1678025803.280,65.918,-44.434,-74.219,45.410,-91.309
1678025803.282,83.984,-43.457,-85.938,57.129,-153.320
1678025803.286,104.492,-35.156,-70.312,57.617,-7.812
1678025803.290,89.355,-32.227,-54.688,50.781,16.113
1678025803.294,53.711,-33.203,-51.758,36.621,-107.910
1678025803.298,45.898,-31.738,-52.734,34.668,-185.547
1678025803.302,73.242,-27.832,-53.711,54.199,-33.691
1678025803.306,98.633,-22.949,-57.617,72.266,223.145
1678025803.309,90.332,-22.949,-56.152,63.477,33.203
1678025803.313,62.988,-23.926,-52.734,43.457,-147.949
1678025803.317,62.500,-20.508,-54.199,35.645,-78.125
1678025803.321,87.891,-19.043,-52.246,56.641,202.148
1678025803.325,103.516,-17.578,-51.758,79.590,93.750
1678025803.342,91.797,-22.949,-59.570,55.176,-184.082
1678025803.346,78.613,-29.297,-67.383,32.715,-143.555
1678025803.350,77.637,-23.926,-58.105,37.598,-225.586
1678025803.354,79.102,-22.461,-52.734,44.922,-256.836
1678025803.358,79.102,-21.973,-57.129,49.805,-152.344
1678025803.362,71.777,-20.996,-57.617,46.387,-68.848
1678025803.366,41.992,-27.344,-58.105,34.180,-99.609
1678025803.369,25.879,-27.344,-63.477,25.391,-158.691
1678025803.373,41.992,-29.297,-57.617,30.762,-163.574
1678025803.377,51.758,-31.250,-54.199,42.969,118.164
1678025803.381,47.363,-26.367,-56.152,40.039,252.441
1678025803.385,32.227,-28.320,-49.316,27.344,-136.719
1678025803.387,24.902,-29.785,-50.781,20.508,-187.500
1678025803.391,38.574,-21.484,-58.594,27.344,-107.910
1678025803.395,53.223,-19.531,-58.105,35.156,-86.914
1678025803.399,50.781,-26.855,-57.129,35.645,-48.340
1678025803.403,27.344,-24.414,-56.152,37.109,-35.156
1678025803.407,8.301,-19.043,-55.664,32.227,-41.016
1678025803.411,-2.441,-16.113,-60.547,26.367,-141.602
1678025803.414,-4.883,-19.043,-57.129,28.809,-102.051
1678025803.418,1.465,-26.855,-50.293,33.691,88.379
1678025803.422,-13.672,-28.320,-50.781,27.344,332.520
1678025803.426,-23.438,-20.508,-56.152,1.465,168.457
1678025803.430,-3.418,-17.578,-52.246,-0.977,-207.031
1678025803.432,22.949,-16.113,-44.922,27.344,-27.344
1678025803.436,39.062,-14.648,-42.969,32.227,94.727
1678025803.440,18.555,-25.391,-42.969,12.207,-77.148
1678025803.444,-10.742,-26.855,-41.992,0.488,-142.090
1678025803.448,-5.371,-20.020,-45.898,4.395,-133.301
1678025803.452,11.230,-21.973,-57.617,15.625,39.062
1678025803.456,19.043,-24.414,-58.594,24.902,141.113
1678025803.459,-0.977,-34.668,-55.176,5.371,-44.434
1678025803.463,-19.531,-40.527,-57.617,-7.812,65.918
1678025803.467,-11.230,-29.297,-61.035,-4.395,85.938
1678025803.471,14.160,-23.926,-62.500,-3.906,-161.621
1678025803.475,17.578,-24.414,-62.012,7.812,-33.203
1678025803.478,-1.953,-23.926,-58.594,2.441,104.980
1678025803.482,-14.648,-19.043,-52.734,-12.695,-104.980
1678025803.486,-12.207,-18.555,-54.688,-8.789,-299.316
1678025803.490,-3.906,-19.531,-55.176,-0.977,-180.176
1678025803.494,0.000,-16.113,-52.734,-0.488,-26.367
1678025803.498,-9.766,-26.855,-54.688,-11.719,9.766
1678025803.502,-32.227,-30.273,-50.293,-23.926,-88.379
1678025803.505,-35.156,-22.461,-47.363,-21.973,-92.285
1678025803.509,-10.254,-19.531,-49.316,-5.859,251.953
1678025803.513,12.695,-6.836,-44.434,9.766,258.789
1678025803.517,8.789,-7.812,-39.062,-5.859,-87.891
1678025803.521,-14.648,-17.090,-39.551,-21.484,-186.035
1678025803.524,-28.809,-16.602,-33.691,-25.391,-216.309
1678025803.528,-24.902,-17.578,-29.785,-20.508,-233.887
1678025803.532,-3.906,-16.113,-34.180,-3.906,-93.750
1678025803.536,-10.742,-14.648,-33.203,0.977,101.074
1678025803.540,-36.621,-21.973,-35.156,-13.672,-29.297
1678025803.544,-24.414,-20.508,-38.086,-22.949,-176.758
1678025803.548,-4.883,-10.742,-36.621,-20.508,-125.977
1678025803.551,10.742,-11.719,-38.086,0.977,147.461
1678025803.555,14.160,-21.484,-39.062,10.254,288.574
1678025803.559,-11.719,-19.043,-33.203,-16.602,-130.371
1678025803.563,-34.668,-17.090,-33.691,-28.320,-250.488
1678025803.567,-45.410,-21.484,-37.598,-25.879,-110.352
1678025803.567,-29.297,-16.602,-38.574,-20.020,-82.520
1678025803.571,-7.324,-14.648,-42.480,-25.391,-86.914
1678025803.575,-11.719,-18.555,-41.016,-37.598,-11.230
1678025803.579,-15.137,-16.113,-38.086,-36.621,-86.426
1678025803.583,-0.977,-11.230,-37.109,-26.367,-208.984
1678025803.587,18.555,-11.230,-31.250,-14.648,-38.574
1678025803.591,8.789,-11.719,-34.180,-12.207,185.059
1678025803.594,-35.645,-13.184,-37.109,-22.461,270.996
1678025803.598,-76.660,-13.672,-30.762,-42.480,6.836
1678025803.602,-85.449,-23.438,-34.668,-48.828,-234.375
1678025803.606,-66.895,-29.297,-37.109,-33.203,-38.086
1678025803.610,-54.688,-24.902,-28.320,-14.160,300.781
1678025803.612,-67.871,-27.344,-23.438,-25.879,145.996
1678025803.616,-88.867,-23.438,-22.461,-41.016,-178.223
1678025803.620,-76.660,-20.020,-31.738,-30.762,-216.797
1678025803.624,-62.012,-27.832,-37.109,-18.066,-160.645
1678025803.628,-56.152,-34.180,-39.062,-14.160,-81.055
1678025803.632,-51.270,-34.180,-36.133,-20.996,-60.059
1678025803.636,-55.664,-23.438,-29.297,-32.715,139.648
1678025803.639,-45.898,-20.020,-31.738,-34.180,138.672
1678025803.643,-20.996,-18.066,-31.738,-21.973,-148.438
1678025803.647,-0.488,-22.949,-35.156,-23.438,-61.035
1678025803.651,-4.883,-26.855,-37.598,-35.156,10.254
1678025803.655,-29.297,-24.902,-30.762,-45.410,-137.695
1678025803.657,-41.992,-34.180,-29.785,-49.316,-270.020
1678025803.661,-22.949,-28.809,-39.062,-31.250,-141.113
1678025803.665,4.395,-13.672,-35.156,-14.648,-7.324
1678025803.669,-8.301,-14.160,-32.715,-20.996,-49.805
1678025803.673,-34.668,-24.902,-38.574,-38.574,-224.609
1678025803.677,-39.062,-30.762,-40.039,-41.992,-116.211
1678025803.681,-21.484,-36.133,-36.621,-26.855,174.316
1678025803.684,7.324,-25.879,-26.855,-6.836,153.320
1678025803.688,5.859,-10.742,-39.551,-20.020,15.625
1678025803.692,-17.090,-16.113,-46.875,-44.434,-19.043
1678025803.696,-25.879,-24.414,-35.156,-38.086,59.082
1678025803.700,-20.020,-37.109,-34.668,-28.809,-70.312
1678025803.717,-4.395,-39.551,-28.809,-25.879,-94.727
1678025803.721,-3.418,-25.879,-33.203,-25.879,2.930
1678025803.725,-29.785,-22.949,-37.598,-44.922,-67.871
1678025803.729,-41.992,-22.949,-33.203,-52.734,-217.773
1678025803.733,-31.738,-24.902,-39.062,-38.086,-225.586
1678025803.737,-8.301,-25.879,-39.062,-21.973,72.754
1678025803.741,4.395,-20.508,-42.480,-31.738,176.270
1678025803.744,-21.484,-24.414,-44.922,-54.199,-54.688
1678025803.748,-23.926,-26.367,-37.109,-55.176,-206.543
1678025803.752,-5.859,-27.344,-39.062,-44.922,-40.527
1678025803.756,-0.488,-41.992,-43.945,-43.945,46.387
1678025803.760,-0.977,-41.016,-47.852,-48.340,-96.191
1678025803.762,-20.020,-30.762,-50.781,-59.570,-152.344
1678025803.766,-33.691,-26.367,-42.969,-60.547,-194.336
1678025803.770,-22.949,-27.832,-41.016,-51.270,-200.195
1678025803.774,-2.441,-44.922,-46.387,-39.062,-146.484
1678025803.778,2.930,-41.992,-50.781,-38.086,-5.859
1678025803.782,-21.484,-23.926,-48.828,-49.316,-13.184
1678025803.786,-45.410,-32.227,-46.387,-57.129,-63.477
1678025803.789,-44.434,-29.785,-38.086,-51.270,-49.805
1678025803.793,-27.344,-22.949,-41.504,-35.156,-46.875
1678025803.797,-15.625,-28.320,-50.293,-30.273,328.613
1678025803.801,-28.809,-34.668,-48.340,-37.109,247.559
1678025803.805,-45.898,-40.527,-37.109,-53.223,-234.863
1678025803.823,-34.668,-44.434,-30.762,-54.199,-233.398
1678025803.827,-2.441,-38.574,-27.344,-31.250,-80.078
1678025803.831,6.348,-23.438,-28.320,-10.742,31.250
1678025803.835,-8.301,-17.578,-39.062,-30.762,-32.227
1678025803.839,-27.832,-14.160,-41.992,-51.758,-26.855
1678025803.843,-31.738,-16.602,-41.504,-50.781,-43.945
1678025803.847,-14.648,-26.855,-39.062,-41.016,-77.637
1678025803.850,-4.883,-32.227,-37.598,-27.832,-15.625
1678025803.854,-24.414,-25.879,-42.969,-37.109,184.082
1678025803.858,-39.062,-22.461,-41.504,-45.410,220.215
1678025803.862,-33.691,-22.461,-37.109,-49.805,-119.141
1678025803.866,-28.809,-26.367,-32.715,-35.645,-146.973
1678025803.852,-15.137,-30.273,-37.598,-28.320,-56.641
1678025803.856,-22.949,-24.414,-41.992,-28.320,-46.387
1678025803.860,-52.246,-30.273,-35.645,-42.969,-141.602
1678025803.864,-49.316,-41.016,-36.621,-44.922,-191.406
1678025803.868,-31.738,-22.461,-39.551,-26.855,-50.781
1678025803.872,-18.555,-10.254,-35.645,-21.484,112.305
1678025803.876,-20.508,-14.160,-39.062,-30.762,131.348
1678025803.879,-51.270,-20.020,-38.574,-41.016,50.293
1678025803.883,-51.758,-24.902,-36.621,-38.086,-87.402
1678025803.887,-27.832,-27.832,-46.387,-31.250,-195.801
1678025803.891,-10.254,-26.855,-42.480,-20.020,-206.543
1678025803.895,-20.996,-24.414,-29.785,-13.672,-46.875
1678025803.897,-44.434,-26.367,-24.902,-26.855,257.812
1678025803.901,-48.340,-23.926,-28.320,-42.480,129.395
1678025803.905,-34.180,-21.484,-28.320,-40.039,-169.434
1678025803.909,-3.906,-24.902,-34.668,-24.902,-86.914
1678025803.913,13.184,-33.203,-34.668,-8.301,-25.879
1678025803.917,-6.348,-12.695,-17.090,-10.742,-123.535
1678025803.921,-39.551,-0.488,-18.555,-35.645,-154.297
1678025803.924,-38.086,-17.090,-28.809,-40.527,30.762
1678025803.928,-15.137,-22.461,-29.785,-29.297,-1.465
1678025803.932,-3.906,-19.043,-25.879,-22.461,-119.141
1678025803.936,-24.414,-19.043,-26.855,-28.809,-82.031
1678025803.940,-41.016,-20.996,-26.367,-45.410,43.457
1678025803.942,-36.621,-20.996,-23.926,-58.594,88.867
1678025803.946,-13.184,-20.996,-23.438,-44.922,-102.051
1678025803.950,7.812,-23.438,-30.273,-25.879,-60.059
1678025803.954,-20.996,-25.879,-42.480,-36.621,-70.801
1678025803.958,-33.691,-24.902,-36.133,-52.734,-162.109
1678025803.962,-24.902,-27.832,-32.715,-46.387,-152.832
1678025803.966,-17.578,-32.227,-38.574,-23.926,-8.301
1678025803.969,-3.418,-29.297,-41.992,-4.883,417.480
1678025803.973,-5.859,-31.250,-41.504,-21.484,330.078
1678025803.977,-26.855,-24.902,-41.504,-34.668,-154.785
1678025803.981,-23.926,-20.020,-42.969,-34.180,-61.035
1678025803.985,-8.789,-24.902,-44.922,-25.391,26.367
1678025803.987,0.977,-21.484,-39.551,-15.137,-79.590
1678025803.991,-10.742,-15.625,-32.227,-16.602,-116.699
1678025803.995,-35.156,-21.484,-35.645,-29.785,-136.230
1678025803.999,-32.227,-26.855,-37.598,-39.551,-181.641
1678025804.003,-23.438,-21.973,-34.668,-32.227,-208.984
1678025804.007,-14.648,-19.531,-30.273,-22.461,-116.699
1678025804.011,-11.719,-17.090,-32.227,-22.461,211.914
1678025804.014,-33.203,-32.227,-36.133,-40.527,229.492
1678025804.018,-46.387,-37.598,-32.227,-50.293,-159.180
1678025804.022,-35.156,-25.879,-35.645,-35.156,-162.109
1678025804.026,-26.367,-21.484,-42.969,-27.832,-28.320
1678025804.030,-31.738,-28.320,-43.945,-27.344,28.809
1678025804.032,-43.945,-33.691,-41.992,-37.598,-90.332
1678025804.036,-43.945,-23.438,-34.668,-43.945,-168.457
1678025804.040,-32.715,-23.926,-29.785,-34.180,-28.809
1678025804.044,-17.090,-18.555,-28.320,-26.855,33.203
1678025804.048,-14.160,-16.602,-27.344,-25.879,-35.645
1678025804.052,-35.156,-27.832,-20.020,-30.762,-0.977
1678025804.056,-44.434,-29.297,-18.066,-45.898,123.047
1678025804.059,-34.180,-23.438,-26.367,-41.016,3.418
1678025804.063,-17.578,-22.461,-25.391,-20.996,-108.398
1678025804.067,-14.160,-22.461,-20.020,-12.695,63.477
1678025804.071,-45.410,-23.926,-25.391,-37.598,199.707
1678025804.075,-64.941,-28.809,-31.250,-64.941,-86.426
1678025804.078,-54.199,-32.715,-31.738,-55.176,-185.059
1678025804.082,-34.668,-30.273,-28.320,-35.156,43.457
1678025804.086,-38.086,-27.832,-27.832,-27.344,104.980
1678025804.090,-68.359,-21.973,-28.320,-45.410,-56.641
1678025804.094,-76.172,-19.531,-24.902,-63.965,-193.359
1678025804.098,-60.059,-18.555,-22.949,-50.293,-1.465
1678025804.102,-33.691,-12.695,-24.902,-37.598,200.195
1678025804.105,-31.250,-13.184,-26.367,-39.551,41.504
1678025804.109,-68.848,-20.020,-23.438,-50.781,-162.598
1678025804.113,-89.844,-23.926,-20.508,-71.777,-98.145
1678025804.117,-83.008,-13.184,-11.719,-83.008,-106.934
1678025804.121,-64.453,-7.324,-4.883,-70.312,-216.309
1678025804.137,-51.270,-12.207,-18.555,-60.059,-88.867
1678025804.141,-74.219,-14.648,-14.160,-63.965,-53.223
1678025804.145,-125.977,-15.625,6.348,-100.098,-138.184
1678025804.149,-129.395,-1.953,9.277,-122.559,-201.660
1678025804.153,-118.652,4.395,-0.488,-126.465,-61.035
1678025804.157,-148.438,4.395,18.555,-150.391,148.926
1678025804.161,-191.406,15.137,43.457,-197.754,83.984
1678025804.164,-232.910,28.809,44.922,-233.887,-111.328
1678025804.168,-259.277,28.809,60.059,-245.605,-142.578
1678025804.172,-290.527,21.973,73.730,-271.484,176.758
1678025804.176,-301.758,33.203,78.613,-285.645,142.090
1678025804.180,-311.035,44.434,83.008,-302.246,-103.027
1678025804.182,-352.051,44.434,84.961,-341.797,-157.227
1678025804.186,-347.168,41.504,92.285,-334.961,-225.586
1678025804.190,-315.430,39.062,88.379,-302.734,-220.703
1678025804.194,-300.293,36.621,74.219,-298.340,-100.586
1678025804.198,-302.734,32.227,64.453,-308.594,-1.465
1678025804.202,-327.637,29.297,70.312,-310.059,-42.480
1678025804.206,-327.148,32.715,72.266,-308.594,-92.773
1678025804.209,-283.691,41.016,58.105,-291.992,-147.461
1678025804.213,-244.629,48.340,56.641,-252.441,79.102
1678025804.217,-255.371,46.387,56.641,-254.883,316.895
1678025804.221,-287.598,33.203,54.688,-279.297,-33.203
1678025804.225,-269.531,21.973,57.617,-252.930,-230.957
1678025804.227,-218.262,20.020,49.316,-208.496,-157.227
1678025804.231,-196.289,14.648,39.551,-191.406,-94.238
1678025804.235,-198.242,13.672,34.668,-191.406,-104.492
1678025804.239,-203.613,11.230,33.203,-192.871,-94.238
1678025804.243,-191.895,5.859,26.855,-180.664,-145.508
1678025804.247,-170.410,0.488,19.043,-157.715,-243.164
1678025804.251,-132.324,-0.488,10.742,-137.695,-56.641
1678025804.254,-105.957,-6.836,-0.977,-127.441,130.859
1678025804.258,-148.438,-9.766,0.000,-144.531,323.242
1678025804.262,-168.945,-8.301,0.977,-148.926,206.543
1678025804.266,-138.672,-10.254,-3.418,-126.465,-198.242
1678025804.270,-122.559,-4.395,-11.719,-123.047,-147.949
1678025804.272,-115.723,7.812,-17.090,-118.652,-81.055
1678025804.276,-125.488,11.230,-26.367,-120.605,-155.762
1678025804.280,-145.996,1.953,-25.391,-136.719,-186.035
1678025804.284,-130.371,-4.395,-24.902,-121.582,-200.195
1678025804.288,-101.562,-7.812,-25.879,-102.051,-95.703
1678025804.292,-92.285,-9.766,-22.461,-85.938,-34.668
1678025804.296,-90.820,-4.395,-28.320,-83.008,-14.160
1678025804.299,-101.562,-6.348,-30.273,-88.379,125.000
1678025804.303,-107.422,-14.648,-22.949,-92.285,55.664
1678025804.307,-78.125,-14.160,-17.578,-82.031,-118.164
1678025804.311,-41.992,-10.254,-20.996,-44.922,-42.969
1678025804.315,-62.500,-9.277,-29.297,-58.594,-3.906
1678025804.317,-84.961,-17.090,-41.504,-85.938,-137.207
1678025804.321,-62.988,-23.926,-45.898,-75.195,-260.254
1678025804.325,-43.457,-22.949,-42.969,-59.570,-158.691
1678025804.329,-30.273,-15.137,-53.223,-34.180,2.441
1678025804.333,-20.996,-23.438,-62.500,-7.324,-20.508
1678025804.337,-23.926,-39.551,-65.430,-12.695,-111.816
1678025804.341,3.906,-38.086,-68.359,3.418,-72.266
1678025804.344,48.340,-39.062,-63.965,53.711,291.016
1678025804.348,69.824,-39.551,-81.055,57.617,196.777
1678025804.352,75.195,-43.457,-93.750,61.035,-79.590
1678025804.356,53.223,-47.852,-87.402,70.801,-28.320
1678025804.360,57.617,-44.434,-84.961,68.848,-134.766
1678025804.363,89.355,-46.387,-90.820,76.660,-139.160
1678025804.367,105.469,-50.781,-93.262,82.031,17.578
1678025804.371,103.516,-46.387,-91.309,92.285,127.930
1678025804.375,101.562,-46.875,-96.191,88.867,-27.344
1678025804.379,116.699,-51.758,-93.262,84.961,-173.340
1678025804.383,125.977,-52.246,-91.309,86.914,-140.137
1678025804.387,154.297,-54.199,-88.379,113.770,195.801
1678025804.390,166.504,-58.105,-88.867,130.371,264.648
1678025804.394,131.836,-61.523,-93.750,101.562,-196.777
1678025804.398,118.652,-59.082,-90.820,80.566,-291.504
1678025804.402,130.371,-56.152,-88.379,91.309,-197.754
1678025804.406,156.738,-59.570,-86.426,119.629,-135.742
1678025804.407,168.945,-64.941,-85.938,125.000,-125.977
1678025804.411,142.578,-62.012,-86.426,99.609,-120.605
1678025804.415,126.953,-49.805,-83.008,92.285,-121.094
1678025804.419,137.207,-49.316,-76.172,110.840,-129.395
1678025804.423,145.020,-50.781,-72.266,119.629,-72.266
1678025804.427,143.066,-50.293,-77.148,124.512,108.398
1678025804.431,116.211,-49.805,-79.102,113.281,370.605
1678025804.434,102.051,-47.852,-76.172,91.309,297.852
1678025804.438,116.699,-51.270,-76.660,93.262,-117.188
1678025804.442,123.535,-55.664,-77.148,109.375,-69.824
1678025804.446,122.559,-54.199,-81.055,112.305,100.098
1678025804.450,102.539,-46.387,-77.637,92.285,-119.629
1678025804.453,83.496,-53.223,-63.477,82.520,-187.988
1678025804.457,84.961,-59.570,-52.734,79.590,-141.113
1678025804.461,96.191,-58.594,-62.012,91.797,-99.609
1678025804.465,99.121,-59.082,-70.312,107.422,-15.625
1678025804.469,72.266,-56.641,-64.453,83.496,-100.098
1678025804.473,46.387,-49.316,-60.547,58.594,-60.059
1678025804.477,47.852,-37.598,-62.012,62.012,3.906
1678025804.480,66.406,-37.598,-70.312,79.590,29.785
1678025804.484,72.266,-40.527,-71.777,92.285,41.992
1678025804.488,55.664,-41.016,-68.848,81.543,132.812
1678025804.492,37.109,-42.969,-70.312,68.359,169.434
1678025804.496,33.691,-37.109,-63.477,62.988,-173.828
1678025804.512,51.270,-39.551,-52.246,62.012,-187.012
1678025804.516,62.988,-42.480,-49.805,77.148,12.207
1678025804.520,50.293,-38.086,-53.223,74.707,2.441
1678025804.524,21.973,-35.156,-50.781,53.223,-165.039
1678025804.528,7.812,-37.598,-49.805,45.410,-87.891
1678025804.532,22.461,-44.434,-51.758,49.316,140.137
1678025804.536,31.250,-53.223,-57.617,58.105,52.246
1678025804.539,20.996,-41.016,-66.895,51.758,-24.902
1678025804.543,1.953,-30.273,-68.848,49.316,91.309
1678025804.547,-12.695,-35.645,-62.012,38.574,8.789
1678025804.551,0.977,-37.598,-63.477,18.555,-160.156
1678025804.555,21.973,-45.898,-62.012,34.668,-75.195
1678025804.557,15.137,-45.410,-53.223,40.527,35.645
1678025804.561,-12.695,-38.086,-52.246,28.320,268.555
1678025804.565,-29.297,-35.156,-54.688,12.207,131.348
1678025804.569,-4.883,-27.344,-65.430,20.508,-152.832
1678025804.573,27.344,-28.809,-67.871,49.316,-38.086
1678025804.577,20.996,-42.969,-66.406,47.363,73.242
1678025804.581,-6.836,-38.574,-66.406,20.996,-47.852
1678025804.584,-21.484,-36.621,-58.594,5.371,-250.000
1678025804.588,-2.441,-41.504,-57.129,20.020,4.395
1678025804.592,15.625,-40.527,-62.012,35.156,149.902
1678025804.596,10.254,-36.621,-61.523,31.250,-16.113
1678025804.600,-12.207,-38.574,-65.918,19.043,-76.172
1678025804.602,-20.996,-39.062,-71.777,-0.977,-78.613
1678025804.606,3.906,-27.832,-64.453,-5.371,-108.398
1678025804.610,25.879,-20.996,-48.828,6.348,-122.070
1678025804.614,27.832,-22.461,-42.480,18.066,-19.043
1678025804.618,-7.324,-39.062,-55.176,3.906,-52.734
1678025804.622,-36.621,-38.574,-66.406,-18.066,-67.871
1678025804.626,-23.438,-35.156,-72.754,-9.766,-92.285
1678025804.629,-12.695,-44.922,-64.453,3.418,-45.898
1678025804.633,-1.953,-29.297,-58.594,17.578,372.070
1678025804.637,-11.719,-27.832,-60.059,-0.977,246.582
1678025804.641,-30.762,-45.898,-48.828,-24.414,-215.332
1678025804.645,-29.297,-34.668,-39.551,-14.648,-244.629
1678025804.647,-28.320,-18.066,-48.828,-7.812,-134.277
1678025804.651,-20.508,-17.090,-50.293,6.836,-53.223
1678025804.655,-24.902,-19.531,-41.992,4.395,-115.234
1678025804.659,-48.340,-21.484,-46.875,-14.160,-70.312
1678025804.663,-37.109,-22.949,-45.898,-7.324,-147.461
1678025804.667,-19.043,-32.715,-41.504,7.324,-164.551
1678025804.671,-15.625,-35.645,-46.387,12.695,50.293
1678025804.674,-27.344,-32.227,-50.781,6.836,235.352
1678025804.678,-43.945,-39.062,-44.434,-15.625,84.473
1678025804.682,-43.457,-42.969,-38.086,-31.738,-218.262
1678025804.686,-37.109,-33.691,-37.598,-20.508,-119.141
1678025804.690,-17.090,-42.480,-35.156,4.395,-66.406
1678025804.692,-24.414,-46.875,-33.691,6.836,-122.559
1678025804.696,-48.828,-24.414,-33.691,-10.254,-166.016
1678025804.700,-47.852,-19.531,-30.762,-7.324,-119.141
1678025804.704,-29.297,-32.227,-26.855,4.883,-26.855
1678025804.708,-6.836,-24.902,-19.531,19.531,-32.715
1678025804.712,-17.578,-21.973,-22.461,-2.441,45.410
1678025804.716,-41.016,-24.902,-29.297,-29.785,27.832
1678025804.719,-39.551,-24.902,-38.574,-17.090,203.125
1678025804.723,-24.414,-31.250,-41.016,-6.348,203.613
1678025804.727,-4.883,-31.250,-37.109,-4.883,-89.355
1678025804.731,5.859,-30.273,-32.227,0.488,-20.508
1678025804.735,-10.254,-33.203,-31.250,-14.648,-38.086
1678025804.737,-39.062,-35.645,-30.273,-32.227,-232.910
1678025804.741,-36.621,-32.227,-28.809,-20.020,-235.352
1678025804.745,-10.742,-25.879,-34.668,-2.930,-88.867
1678025804.749,-9.766,-36.133,-32.227,-14.160,-5.371
1678025804.753,-35.156,-46.875,-29.785,-28.809,-108.887
1678025804.757,-48.340,-33.203,-27.832,-22.461,-178.223
1678025804.761,-50.293,-27.344,-27.832,-10.254,97.656
1678025804.764,-49.805,-37.598,-37.109,-2.930,273.926
1678025804.768,-51.758,-42.969,-44.922,-8.789,-24.902
1678025804.772,-65.430,-36.133,-37.598,-27.832,-170.410
1678025804.776,-81.055,-29.785,-29.785,-43.945,-123.535
1678025804.780,-63.477,-29.785,-36.621,-34.668,-171.387
1678025804.782,-7.812,-22.461,-36.621,-7.324,-183.105
1678025804.786,19.531,-23.438,-31.738,1.465,-59.570
1678025804.790,0.977,-39.551,-32.227,-21.973,-21.973
1678025804.794,-1.953,-44.922,-32.715,-32.227,-181.641
1678025804.798,13.672,-35.156,-36.133,-23.926,-252.441
1678025804.802,30.273,-30.762,-34.668,-12.207,-89.355
1678025804.806,35.156,-42.969,-42.969,0.977,149.902
1678025804.809,46.387,-51.758,-40.527,14.160,61.035
1678025804.813,43.457,-28.320,-24.414,-3.906,-137.207
1678025804.817,18.066,-9.766,-27.832,-40.527,-109.375
1678025804.821,27.832,-20.508,-31.738,-29.785,132.324
1678025804.825,41.016,-26.367,-41.992,-24.414,94.238
1678025804.842,29.785,-12.695,-50.781,-35.156,-144.531
1678025804.846,-9.277,-9.766,-56.641,-56.152,-72.266
1678025804.850,-3.418,-12.695,-61.035,-67.383,-63.477
1678025804.854,26.367,-6.836,-61.035,-49.316,-177.246
1678025804.858,27.832,-12.695,-56.152,-31.250,-84.961
1678025804.862,22.461,-19.043,-54.688,-32.227,-45.898
1678025804.866,0.000,-9.277,-58.105,-62.012,-27.832
1678025804.869,-1.465,-4.395,-55.176,-70.801,-90.332
1678025804.873,19.531,-21.484,-48.340,-49.805,-197.266
1678025804.877,27.832,-27.832,-53.223,-23.926,82.031
1678025804.881,20.020,-12.695,-55.664,-20.996,162.109
1678025804.885,-1.953,-8.301,-49.805,-50.781,-168.945
1678025804.887,0.488,-7.812,-42.480,-48.828,-212.402
1678025804.891,21.484,-11.719,-26.855,-29.297,-40.039
1678025804.895,40.527,-17.578,-19.043,-16.602,10.254
1678025804.899,36.621,-16.113,-29.297,-21.484,11.719
1678025804.903,5.371,-31.250,-37.598,-45.898,-17.578
1678025804.907,2.441,-37.109,-35.645,-58.594,-78.125
1678025804.911,12.207,-19.531,-35.156,-60.547,-9.766
1678025804.914,17.578,-15.137,-38.086,-41.504,96.191
1678025804.918,20.996,-18.066,-35.156,-30.762,151.855
1678025804.922,0.977,-24.414,-34.668,-28.320,261.719
1678025804.926,-16.113,-27.344,-36.621,-31.738,106.934
1678025804.930,5.371,-17.578,-38.086,-38.086,-178.711
1678025804.932,27.832,-16.602,-41.504,-26.367,32.715
1678025804.936,18.066,-27.832,-40.039,-28.320,96.191
1678025804.940,-0.977,-33.203,-34.668,-41.016,-173.340
1678025804.944,-13.672,-28.320,-35.156,-45.410,-283.691
1678025804.948,-1.953,-33.691,-38.086,-34.180,-269.043
1678025804.952,24.902,-35.645,-42.969,-17.090,-112.305
1678025804.956,24.414,-14.648,-38.574,-18.555,-49.805
1678025804.959,-11.230,-12.207,-29.785,-30.273,-175.781
1678025804.963,-31.250,-24.414,-34.668,-37.109,-24.414
1678025804.967,-12.207,-27.344,-38.086,-30.273,71.289
1678025804.971,1.465,-33.203,-39.551,-25.391,-83.008
1678025804.975,0.488,-34.180,-41.504,-20.508,-59.570
1678025804.978,-2.441,-31.250,-39.062,-19.043,-42.480
1678025804.982,-17.578,-24.414,-41.504,-29.297,-205.566
1678025804.986,-13.184,-18.066,-41.992,-36.621,-208.984
1678025804.990,11.719,-17.090,-39.062,-24.414,-33.691
1678025804.994,19.531,-17.090,-40.039,-12.695,63.965
1678025804.998,13.184,-21.973,-41.016,-26.367,46.875
1678025805.002,-2.930,-31.738,-41.504,-37.598,-111.328
1678025805.005,-18.555,-36.621,-36.621,-38.574,-106.934
1678025805.009,-10.254,-24.414,-30.273,-16.602,340.820
1678025805.013,6.836,-6.836,-25.879,3.906,307.129
1678025805.017,-4.883,-11.719,-25.879,-18.555,-85.938
1678025805.021,-31.250,-17.578,-31.738,-39.551,-123.535
1678025805.022,-32.715,-16.113,-34.668,-40.039,-168.945
1678025805.026,-17.578,-27.344,-30.273,-34.180,-164.551
1678025805.030,-1.465,-37.109,-26.855,-12.695,-39.062
1678025805.034,-4.395,-30.762,-32.715,-17.578,-27.832
1678025805.038,-27.344,-26.855,-33.203,-39.062,-198.242
1678025805.042,-33.203,-28.809,-26.855,-37.598,-187.500
1678025805.046,-22.461,-33.691,-27.344,-35.156,-67.871
1678025805.049,-3.906,-28.320,-33.691,-23.438,194.336
1678025805.053,-2.930,-23.438,-41.016,-15.137,344.727
1678025805.057,-34.668,-24.414,-45.410,-37.109,-80.566
1678025805.061,-39.062,-21.484,-39.551,-48.340,-222.656
1678025805.065,-19.531,-21.973,-36.133,-42.969,-116.699
1678025805.067,-3.906,-26.367,-35.645,-26.855,-5.371
1678025805.071,-0.488,-23.438,-34.668,-22.461,37.598
1678025805.075,-30.762,-27.344,-34.668,-44.922,-84.473
1678025805.079,-34.180,-42.969,-32.715,-56.641,-128.906
1678025805.083,-6.836,-46.875,-40.039,-31.738,-143.555
1678025805.087,4.395,-26.855,-44.922,-17.578,-35.156
1678025805.091,3.906,-11.230,-34.180,-27.832,148.926
1678025805.094,-17.578,-17.090,-28.320,-35.645,466.797
1678025805.098,-39.551,-32.715,-32.715,-51.758,360.840
1678025805.102,-33.691,-35.156,-42.969,-44.434,-83.984
1678025805.106,-9.277,-33.691,-46.387,-20.508,18.066
1678025805.110,-2.441,-36.133,-36.133,-16.113,100.098
1678025805.112,-26.367,-31.250,-40.527,-34.180,-123.047
1678025805.116,-41.016,-24.902,-45.410,-53.711,-189.453
1678025805.120,-29.297,-28.320,-38.574,-33.691,-29.785
1678025805.124,-10.254,-34.668,-35.645,-11.230,72.754
1678025805.128,-9.766,-30.273,-37.598,-12.695,-41.504
1678025805.132,-28.809,-20.996,-32.227,-36.133,-45.898
1678025805.136,-41.016,-10.254,-31.250,-43.945,142.578
1678025805.139,-34.668,-14.648,-36.133,-19.043,175.781
1678025805.143,-18.066,-24.902,-35.645,-21.973,-119.141
1678025805.147,-7.324,-27.832,-38.086,-18.066,-123.535
1678025805.151,-20.996,-25.879,-37.598,-19.531,-83.008
1678025805.155,-40.039,-23.438,-34.180,-38.574,-245.117
1678025805.157,-34.668,-30.273,-37.598,-38.086,-287.598
1678025805.161,-21.484,-38.086,-34.668,-26.855,-167.480
1678025805.165,-13.184,-27.832,-33.203,-13.184,-38.086
1678025805.169,0.977,-11.230,-23.438,-7.324,-17.090
1678025805.173,-1.465,1.465,-11.230,-15.625,-184.082
1678025805.177,-6.348,2.930,-11.230,-3.418,-128.906
1678025805.181,10.742,-0.488,-2.930,20.508,24.902
1678025805.184,27.832,3.418,5.859,25.879,38.086
1678025805.188,24.902,12.207,7.812,20.020,26.855
1678025805.192,1.953,14.648,0.488,-8.301,18.555
1678025805.196,-6.348,4.883,-5.859,-14.648,74.707
1678025805.200,3.418,-2.930,-11.719,0.000,-93.750
1678025805.203,8.301,7.324,-17.090,-1.953,-71.289
1678025805.207,7.812,8.301,-14.160,-2.930,59.570
1678025805.211,-12.695,-11.230,-14.160,-17.578,-39.062
1678025805.215,-25.391,-15.137,-20.020,-37.598,-186.035
1678025805.219,-9.277,-2.930,-20.996,-29.785,-222.656
1678025805.223,12.207,0.488,-19.531,-6.348,-45.898
1678025805.227,0.977,-4.395,-20.996,-10.254,103.027
1678025805.230,-36.621,-14.648,-24.414,-34.180,-125.977
1678025805.234,-36.133,-18.555,-27.344,-36.621,-263.672
1678025805.238,-14.160,-21.484,-25.879,-24.902,-20.020
1678025805.242,5.371,-19.531,-28.809,-12.207,151.855
1678025805.246,3.906,-16.113,-26.855,-12.695,11.230
1678025805.262,-24.902,-21.973,-28.320,-25.879,-98.145
1678025805.266,-33.691,-24.902,-38.086,-41.016,-166.016
1678025805.270,-14.160,-20.508,-41.992,-29.785,-118.164
1678025805.274,2.441,-14.648,-41.992,-17.090,-71.777
1678025805.278,-1.465,-17.578,-41.016,-20.020,18.555
1678025805.282,-30.762,-20.508,-41.016,-30.273,244.141
1678025805.286,-51.270,-15.137,-41.016,-46.875,97.168
1678025805.289,-46.875,-20.508,-37.109,-45.898,-176.758
1678025805.293,-18.066,-28.809,-44.434,-33.203,-42.969
1678025805.297,-14.648,-27.344,-46.387,-30.762,262.207
1678025805.301,-47.852,-29.785,-43.457,-44.922,36.621
1678025805.305,-61.035,-33.691,-50.293,-65.918,-210.938
1678025805.307,-54.199,-33.203,-47.363,-67.383,-164.551
1678025805.311,-35.156,-32.227,-45.898,-38.574,-102.051
1678025805.315,-35.645,-32.227,-49.805,-33.203,-59.082
1678025805.319,-55.176,-32.227,-43.457,-48.828,-153.809
1678025805.323,-72.266,-21.484,-31.738,-57.129,-139.648
1678025805.327,-71.289,-10.254,-30.273,-72.754,-12.207
1678025805.331,-62.500,-20.508,-42.969,-70.312,-14.160
1678025805.334,-65.918,-35.156,-28.320,-63.477,-90.332
1678025805.338,-96.680,-8.789,-20.020,-80.566,81.055
1678025805.342,-123.047,13.672,-17.090,-103.027,90.332
1678025805.346,-127.930,-7.324,-2.930,-132.324,-234.863
1678025805.350,-134.766,-14.160,-5.859,-144.531,-175.293
1678025805.352,-132.812,1.465,20.508,-138.672,10.742
1678025805.356,-196.289,19.531,32.227,-197.754,-33.203
1678025805.360,-290.527,24.414,19.531,-281.738,-172.363
1678025805.364,-315.918,23.926,50.293,-310.547,-189.941
1678025805.368,-318.359,39.551,90.820,-325.684,-111.816
1678025805.372,-338.379,54.199,105.957,-348.633,38.086
1678025805.376,-354.004,45.410,134.766,-355.957,65.918
1678025805.379,-372.070,44.922,172.363,-354.492,-4.883
1678025805.383,-368.652,53.711,238.770,-344.238,276.855
1678025805.387,-344.727,63.477,324.219,-342.773,255.859
1678025805.391,-330.566,68.359,411.133,-336.426,-84.473
1678025805.395,-335.938,68.359,486.816,-327.148,-65.918
1678025805.397,-352.051,63.477,530.762,-338.379,-115.234
1678025805.401,-345.703,55.176,545.898,-324.219,-229.492
1678025805.405,-318.359,54.688,525.879,-301.758,-178.711
1678025805.409,-282.227,56.641,494.629,-291.504,-60.059
1678025805.413,-279.297,63.477,464.844,-280.762,-85.449
1678025805.417,-303.711,64.453,427.734,-288.574,-116.211
1678025805.421,-310.059,50.293,391.113,-301.758,-167.480
1678025805.424,-291.504,44.922,343.750,-270.996,15.137
1678025805.428,-250.977,41.504,282.227,-229.492,174.805
1678025805.432,-228.516,42.969,228.027,-230.469,-18.066
1678025805.436,-241.211,45.410,178.711,-250.000,-104.004
1678025805.440,-247.070,36.621,135.254,-247.559,-73.242
1678025805.442,-235.352,25.879,96.191,-225.586,-48.340
1678025805.446,-203.125,14.160,68.359,-203.125,-71.289
1678025805.450,-189.453,9.277,38.574,-184.570,18.066
1678025805.454,-214.844,6.836,1.953,-197.754,-11.719
1678025805.458,-222.168,0.000,-19.531,-211.426,-179.688
1678025805.462,-206.055,-6.836,-27.344,-204.102,-124.023
1678025805.466,-172.852,-11.230,-35.156,-172.363,-11.230
1678025805.469,-151.855,-7.324,-44.434,-131.836,350.586
1678025805.473,-178.711,1.953,-55.664,-159.668,255.371
1678025805.477,-190.918,0.977,-72.266,-178.223,-252.930
1678025805.481,-172.852,-8.301,-77.148,-150.391,-200.684
1678025805.485,-161.621,-12.207,-74.219,-145.996,-49.316
1678025805.487,-136.230,-15.137,-81.055,-133.789,-46.387
1678025805.491,-143.066,-16.602,-89.844,-139.648,-109.863
1678025805.495,-167.969,-16.602,-101.074,-150.879,-84.961
1678025805.499,-148.926,-20.020,-102.539,-136.719,-37.109
1678025805.503,-125.977,-17.090,-92.773,-129.395,-110.840
1678025805.507,-137.695,-19.043,-91.797,-129.883,-64.453
1678025805.511,-150.879,-27.832,-98.633,-133.301,237.305
1678025805.514,-150.391,-29.297,-97.168,-128.906,210.449
1678025805.518,-139.160,-28.809,-88.867,-126.953,-181.641
1678025805.522,-115.234,-24.414,-84.473,-121.582,-157.227
1678025805.526,-112.793,-22.949,-86.914,-109.375,6.836
1678025805.530,-121.094,-27.344,-85.938,-103.027,-30.762
1678025805.533,-131.348,-34.180,-83.008,-102.539,-172.363
1678025805.537,-137.695,-36.621,-85.449,-114.746,-159.668
1678025805.541,-133.301,-28.809,-86.914,-114.746,-71.289
1678025805.545,-123.535,-29.297,-82.520,-86.914,-36.133
1678025805.549,-120.117,-36.621,-74.707,-68.359,-29.785
1678025805.553,-131.348,-33.691,-78.125,-90.820,-14.648
1678025805.557,-134.277,-30.273,-83.984,-108.887,187.500
1678025805.560,-135.254,-24.902,-81.055,-103.027,142.578
1678025805.564,-117.188,-27.344,-70.801,-72.266,-93.262
1678025805.568,-101.562,-28.809,-66.895,-60.059,-12.695
1678025805.572,-133.301,-24.902,-74.219,-96.191,61.035
1678025805.576,-155.273,-27.832,-68.848,-120.117,-217.773
1678025805.592,-139.160,-28.809,-64.941,-108.887,-277.832
1678025805.596,-95.215,-35.645,-71.777,-76.660,-83.496
1678025805.600,-80.566,-42.969,-72.754,-79.590,-65.918
1678025805.604,-120.117,-39.551,-69.824,-107.910,-136.719
1678025805.608,-141.602,-41.504,-60.547,-114.258,-197.266
1678025805.612,-129.883,-46.387,-56.641,-90.820,32.715
1678025805.616,-96.191,-48.340,-61.523,-64.941,248.047
1678025805.619,-84.961,-43.457,-58.105,-71.289,-47.852
1678025805.623,-100.586,-40.039,-60.059,-87.891,-169.922
1678025805.627,-97.168,-44.434,-59.570,-76.660,-146.973
1678025805.631,-77.637,-43.945,-51.758,-49.316,-181.641
1678025805.635,-53.711,-39.551,-54.688,-37.598,-128.906
1678025805.637,-44.434,-45.410,-57.129,-32.715,26.855
1678025805.641,-74.707,-55.664,-57.617,-49.805,-21.973
1678025805.645,-85.938,-60.059,-60.059,-52.734,-174.316
1678025805.649,-63.965,-58.105,-65.918,-28.809,-197.266
1678025805.653,-24.902,-56.152,-67.871,-0.977,-36.133
1678025805.657,-6.836,-52.734,-69.336,5.859,144.043
1678025805.661,-54.688,-54.688,-69.824,-24.902,-10.742
1678025805.664,-77.637,-63.965,-76.660,-31.738,-173.828
1678025805.668,-39.062,-58.594,-83.984,-2.930,15.137
1678025805.672,-8.301,-49.805,-80.078,22.461,414.062
1678025805.676,9.277,-56.641,-85.938,38.574,465.820
1678025805.680,-4.395,-62.500,-85.449,30.273,60.547
1678025805.682,-30.762,-54.199,-85.449,-6.348,-116.699
1678025805.686,-5.371,-54.199,-93.750,24.414,-106.934
1678025805.690,32.715,-58.105,-97.656,73.730,-138.672
1678025805.694,43.945,-55.176,-95.215,67.383,-102.051
1678025805.698,25.391,-59.082,-102.051,36.621,-47.852
1678025805.702,17.090,-61.035,-110.352,31.250,-70.801
1678025805.706,41.016,-60.059,-105.957,63.965,-99.121
1678025805.709,52.734,-60.059,-103.027,80.566,-140.137
1678025805.713,77.148,-59.082,-109.863,103.027,146.484
1678025805.717,104.492,-62.988,-110.352,119.141,351.074
1678025805.721,86.426,-60.547,-111.328,85.938,-89.355
1678025805.725,84.473,-54.688,-119.629,77.637,-232.910
1678025805.727,113.770,-52.246,-119.629,104.492,-84.961
1678025805.731,144.043,-48.340,-122.559,122.559,-36.133
1678025805.735,146.973,-39.062,-129.395,131.836,-29.785
1678025805.739,113.281,-40.039,-127.930,108.398,-66.895
1678025805.743,106.445,-42.969,-132.324,102.539,-84.961
1678025805.747,147.461,-35.645,-139.160,130.859,-48.340
1678025805.751,180.664,-31.250,-138.672,139.160,46.387
1678025805.754,167.969,-40.039,-145.508,137.207,131.836
1678025805.758,147.461,-50.781,-150.879,131.348,301.270
1678025805.762,151.367,-52.246,-160.156,127.930,121.094
1678025805.766,171.387,-56.152,-166.504,136.230,-196.777
1678025805.770,189.941,-49.805,-162.598,154.785,-15.137
1678025805.772,196.777,-45.898,-160.156,172.852,71.777
1678025805.776,177.734,-46.387,-160.156,164.062,-138.672
1678025805.780,163.086,-50.781,-161.133,154.297,-255.371
1678025805.784,158.691,-56.152,-160.645,158.203,-184.082
1678025805.788,166.504,-51.270,-154.297,162.598,-93.750
1678025805.792,167.480,-44.922,-146.973,163.574,6.348
1678025805.796,142.578,-41.504,-144.531,141.113,-50.781
1678025805.799,136.719,-43.945,-136.719,134.766,4.395
1678025805.803,143.066,-47.363,-132.812,145.020,89.355
1678025805.807,148.926,-44.922,-139.160,135.742,-136.719
1678025805.811,144.043,-41.504,-136.230,132.812,-124.512
1678025805.815,120.605,-40.039,-126.953,112.305,-80.078
1678025805.818,101.074,-43.945,-121.094,90.332,-152.344
1678025805.822,105.957,-54.199,-119.629,95.703,-153.320
1678025805.826,125.000,-46.875,-120.117,112.793,-15.625
1678025805.830,130.859,-34.668,-117.676,122.559,117.676
1678025805.834,115.723,-29.785,-113.770,102.539,1.953
1678025805.838,96.191,-29.297,-107.422,78.613,-96.680
1678025805.842,90.332,-31.738,-100.586,73.730,-48.340
1678025805.845,98.633,-29.785,-94.238,93.262,295.898
1678025805.849,106.445,-28.320,-92.773,99.609,287.598
1678025805.853,79.102,-32.715,-90.332,76.172,-134.766
1678025805.857,44.434,-34.180,-87.402,59.570,-157.715
1678025805.861,48.828,-32.227,-82.031,57.129,-128.418
1678025805.862,62.988,-31.738,-84.961,73.242,-220.703
1678025805.866,75.684,-28.320,-85.938,91.309,-120.605
1678025805.870,76.660,-37.109,-77.148,88.379,-16.602
1678025805.874,48.340,-42.969,-79.102,51.758,-101.562
1678025805.878,42.480,-31.250,-82.031,30.273,-169.434
1678025805.882,62.988,-24.414,-82.520,45.898,-144.043
1678025805.886,85.449,-22.461,-75.195,64.941,199.219
1678025805.889,82.031,-25.879,-66.895,64.453,272.461
1678025805.893,55.176,-26.855,-65.918,43.457,-133.789
1678025805.897,48.828,-22.461,-69.824,36.133,-224.609
1678025805.901,60.059,-31.738,-65.430,40.039,-13.184
1678025805.905,69.824,-43.457,-56.152,49.805,21.973
1678025805.907,62.500,-36.133,-59.082,45.898,-123.047
1678025805.911,28.320,-29.297,-64.941,17.090,-194.336
1678025805.915,8.301,-33.203,-66.406,7.812,-195.801
1678025805.919,22.461,-26.855,-64.941,16.113,-139.648
1678025805.923,44.434,-27.344,-57.129,28.809,-90.332
1678025805.927,45.410,-30.762,-50.781,30.762,132.812
1678025805.931,25.879,-21.973,-48.828,17.090,312.500
1678025805.934,16.113,-20.996,-48.340,6.836,49.805
1678025805.938,31.738,-30.762,-51.270,1.953,-112.305
1678025805.942,49.316,-25.391,-49.805,19.043,40.039
1678025805.946,43.457,-15.625,-47.852,27.832,297.363
1678025805.950,18.555,-17.578,-46.875,1.465,98.633
1678025805.967,11.230,-17.578,-45.898,-9.277,-239.258
1678025805.971,27.832,-19.531,-40.527,7.812,-154.297
1678025805.975,43.457,-14.160,-31.738,25.391,-62.988
1678025805.979,43.945,-10.254,-36.133,24.414,-89.355
1678025805.983,22.949,-15.137,-37.109,5.859,-170.898
1678025805.987,0.977,-16.113,-25.391,-4.883,-145.996
1678025805.991,4.883,-18.066,-23.438,-8.789,-67.383
1678025805.994,16.602,-22.461,-27.344,-1.953,-61.523
1678025805.998,25.391,-15.137,-21.484,4.883,16.113
1678025806.002,11.230,-15.625,-15.625,-4.883,224.121
1678025806.006,-15.137,-25.879,-22.461,-19.043,139.160
1678025806.010,-9.766,-23.438,-30.762,-21.973,-190.918
1678025806.012,13.672,-16.602,-33.691,-7.324,-138.672
1678025806.016,18.555,-14.648,-32.715,10.742,-41.504
1678025806.020,-2.930,-17.578,-27.344,6.836,-75.684
1678025806.024,-20.508,-16.602,-24.902,-12.207,-193.848
1678025806.028,-9.277,-21.973,-29.785,-11.719,-131.348
1678025806.032,5.859,-25.879,-37.109,-2.441,27.344
1678025806.036,9.277,-19.043,-39.062,0.000,-3.906
1678025806.039,-3.906,-17.578,-31.250,-13.184,-69.336
1678025806.043,-20.996,-20.508,-25.391,-24.414,-71.289
1678025806.047,-11.230,-18.555,-27.344,-0.488,243.164
1678025806.051,7.812,-20.508,-33.691,10.742,243.164
1678025806.055,16.113,-29.785,-30.762,4.883,-73.730
1678025806.057,-3.906,-27.344,-23.926,-0.977,37.598
1678025806.061,-32.715,-20.508,-24.902,-22.461,74.219
1678025806.065,-24.902,-14.648,-22.949,-29.785,-214.844
1678025806.069,2.441,-1.953,-22.461,-10.254,-217.773
1678025806.073,12.207,-1.465,-20.996,4.395,-73.730
1678025806.077,3.418,-4.883,-20.508,-3.906,19.043
1678025806.081,-22.461,-9.766,-24.902,-27.832,0.488
1678025806.084,-27.344,-11.230,-19.531,-28.809,-180.176
1678025806.088,0.000,-6.836,-15.137,-7.812,37.109
1678025806.092,11.230,-9.766,-25.879,7.812,108.887
1678025806.096,1.465,-14.160,-26.855,1.465,-165.039
1678025806.100,-14.648,-19.043,-26.367,-13.184,-166.504
1678025806.102,-26.855,-23.438,-26.855,-19.043,-163.574
1678025806.106,-13.184,-25.879,-26.855,-19.531,-115.234
1678025806.110,3.418,-25.391,-31.738,-8.789,-89.355
1678025806.114,3.418,-23.438,-26.367,-6.836,-5.371
1678025806.118,-20.020,-26.367,-32.715,-28.809,60.059
1678025806.122,-33.691,-15.625,-36.621,-36.133,-88.867
1678025806.126,-11.230,-1.953,-24.414,-20.508,-67.383
1678025806.129,11.719,-6.836,-23.438,0.977,124.023
1678025806.133,11.230,-17.578,-27.344,7.812,355.957
1678025806.137,-15.625,-21.484,-30.273,-16.113,231.934
1678025806.141,-33.691,-27.344,-33.203,-28.320,-155.762
1678025806.145,-20.508,-33.203,-30.762,-25.391,-156.250
1678025806.147,-4.395,-25.391,-29.785,-18.066,-55.176
1678025806.151,-10.742,-17.578,-28.809,-12.207,-14.160
1678025806.155,-29.297,-19.043,-28.809,-29.785,-83.496
1678025806.159,-34.180,-29.297,-29.785,-40.527,-98.145
1678025806.163,-21.484,-26.855,-27.344,-40.527,-148.926
1678025806.167,-5.859,-13.184,-22.949,-30.273,-105.957
1678025806.171,6.836,-0.977,-22.949,-14.160,6.836
1678025806.174,-14.160,-6.348,-28.320,-24.902,111.816
1678025806.178,-42.969,-18.066,-34.668,-41.504,118.652
1678025806.182,-33.203,-20.020,-42.480,-41.992,-146.484
1678025806.186,-18.066,-21.484,-41.992,-18.066,-163.574
1678025806.190,-5.859,-20.508,-38.574,1.465,-74.219
1678025806.192,-18.555,-22.461,-41.504,-14.648,-56.152
1678025806.196,-46.387,-23.926,-32.715,-45.898,-212.402
1678025806.200,-39.551,-18.555,-26.367,-46.875,-306.641
1678025806.204,-18.066,-24.414,-29.297,-30.273,-172.852
1678025806.208,-13.184,-31.250,-36.621,-21.484,-114.258
1678025806.212,-27.344,-25.879,-41.504,-22.461,-38.574
1678025806.216,-43.945,-22.461,-33.203,-36.133,2.930
1678025806.219,-44.922,-15.625,-26.855,-36.133,125.000
1678025806.223,-34.668,-15.137,-33.691,-35.156,39.551
1678025806.227,-23.438,-21.484,-38.574,-28.320,-74.219
1678025806.231,-24.414,-19.531,-29.297,-23.438,50.781
1678025806.235,-51.758,-20.996,-31.250,-42.480,-55.664
1678025806.237,-58.594,-24.414,-37.109,-47.363,-216.309
1678025806.241,-37.109,-29.785,-31.250,-40.039,-199.219
1678025806.245,-14.160,-30.762,-31.250,-24.902,43.457
1678025806.249,-20.020,-24.902,-36.133,-16.113,255.859
1678025806.253,-55.664,-28.320,-32.227,-35.645,-27.344
1678025806.257,-62.988,-27.832,-32.227,-51.270,-168.945
1678025806.261,-41.992,-20.996,-37.109,-36.133,4.395
1678025806.264,-17.090,-20.020,-37.598,-10.254,76.660
1678025806.268,-30.762,-23.438,-41.504,-19.043,-20.020
1678025806.272,-65.918,-29.297,-37.109,-46.875,-184.082
1678025806.276,-59.570,-29.785,-24.414,-41.016,1.465
1678025806.280,-44.434,-21.973,-26.855,-28.809,189.941
1678025806.282,-29.297,-24.902,-26.367,-22.949,-54.688
1678025806.286,-23.438,-36.133,-28.809,-8.301,-70.801
1678025806.290,-48.340,-32.227,-33.691,-30.273,-86.426
1678025806.294,-56.641,-26.855,-31.738,-41.992,-174.805
1678025806.298,-36.621,-33.203,-37.109,-32.227,-147.461
1678025806.302,-20.020,-23.438,-43.457,-23.438,86.914
1678025806.306,-19.531,-16.113,-35.156,-22.949,349.609
1678025806.309,-40.039,-23.926,-33.203,-42.480,128.906
1678025806.313,-54.199,-23.438,-29.785,-49.316,-179.199
1678025806.317,-48.828,-20.508,-22.461,-33.691,-137.695
1678025806.321,-25.879,-23.926,-30.762,-8.301,290.039
1678025806.325,-13.672,-25.391,-37.598,-15.625,219.727
1678025806.358,-39.062,-23.926,-31.738,-36.133,-131.836
1678025806.362,-46.875,-22.461,-31.738,-45.410,-164.551
1678025806.366,-31.738,-14.648,-28.809,-45.898,-132.324
1678025806.370,-14.648,-13.672,-13.672,-20.020,-107.910
1678025806.374,-14.648,-31.250,-20.996,-10.254,-59.570
1678025806.378,-46.387,-24.902,-37.109,-35.645,15.625
1678025806.382,-64.941,-16.602,-39.062,-52.246,-72.754
1678025806.385,-52.246,-15.625,-33.691,-53.223,-221.191
1678025806.389,-30.273,-11.230,-36.621,-38.574,-222.168
1678025806.393,-16.113,-20.020,-50.781,-13.672,139.160
1678025806.397,-28.320,-29.297,-63.477,-13.184,176.270
1678025806.401,-41.504,-23.926,-58.594,-27.344,-165.527
1678025806.387,-44.434,-17.578,-50.293,-42.969,-164.062
1678025806.391,-26.855,-19.043,-46.875,-37.598,-73.730
1678025806.395,-12.695,-26.367,-45.410,-16.602,-58.105
1678025806.399,-26.855,-22.949,-44.922,-21.484,-124.023
1678025806.403,-41.992,-10.742,-37.109,-39.551,-154.785
1678025806.407,-43.945,-15.625,-38.574,-47.852,-188.477
1678025806.411,-24.414,-22.949,-41.504,-41.016,-60.547
1678025806.414,-15.625,-26.367,-38.574,-27.344,10.254
1678025806.418,-26.367,-32.227,-37.109,-29.297,98.633
1678025806.422,-45.410,-31.250,-41.016,-46.875,24.902
1678025806.426,-45.410,-20.508,-39.551,-47.363,-265.137
1678025806.430,-33.691,-15.625,-40.039,-33.691,-250.977
1678025806.433,-18.555,-23.438,-42.480,-20.996,-37.109
1678025806.437,-13.672,-25.879,-36.621,-17.090,365.234
1678025806.441,-40.527,-20.020,-38.086,-39.551,208.008
1678025806.445,-54.199,-23.438,-39.062,-42.480,-202.148
1678025806.449,-35.645,-31.738,-31.250,-18.555,-99.609
1678025806.453,-22.461,-25.391,-25.879,-14.648,111.816
1678025806.457,-29.785,-24.414,-25.879,-25.391,5.371
1678025806.460,-62.012,-29.297,-25.391,-44.922,-164.062
1678025806.464,-84.961,-22.461,-26.367,-56.641,-81.543
1678025806.468,-76.172,-24.902,-28.809,-49.805,-92.773
1678025806.472,-56.641,-31.738,-25.391,-29.785,-145.996
1678025806.476,-48.828,-29.297,-19.043,-21.973,-63.477
1678025806.496,-60.547,-26.367,-24.414,-44.434,114.746
1678025806.500,-68.359,-22.949,-23.926,-51.270,10.742
1678025806.504,-53.223,-23.438,-20.020,-40.039,-225.586
1678025806.508,-28.320,-35.156,-20.996,-30.273,-89.355
1678025806.512,-19.531,-38.574,-22.949,-32.715,19.531
1678025806.516,-34.668,-24.414,-22.949,-43.457,14.648
1678025806.520,-48.340,-15.625,-20.996,-56.152,-24.902
1678025806.523,-44.434,-16.113,-16.113,-62.988,-23.438
1678025806.527,-28.809,-15.625,-18.066,-47.852,189.941
1678025806.531,-20.020,-14.160,-23.438,-46.875,89.355
1678025806.535,-30.273,-13.672,-24.414,-52.734,-123.047
1678025806.539,-36.621,-20.020,-31.250,-53.711,-21.484
1678025806.537,-34.668,-27.832,-28.320,-64.941,-0.488
1678025806.541,-24.902,-28.320,-24.902,-56.641,-116.699
1678025806.545,-14.160,-29.297,-29.785,-34.668,-66.406
1678025806.549,-29.785,-23.926,-30.273,-45.898,35.645
1678025806.553,-46.387,-20.996,-30.762,-61.523,-35.156
1678025806.557,-42.969,-20.996,-25.879,-63.477,-106.934
1678025806.561,-20.996,-16.602,-20.508,-51.758,-31.250
1678025806.564,7.324,-7.324,-21.973,-26.855,63.477
1678025806.568,-13.184,-22.461,-29.785,-39.062,9.277
1678025806.572,-58.105,-33.691,-34.180,-76.660,-183.105
1678025806.576,-57.129,-17.578,-30.762,-70.801,-258.301
1678025806.580,-28.809,-19.531,-33.691,-41.504,7.812
1678025806.567,-14.648,-20.508,-34.180,-25.391,437.012
1678025806.571,-26.855,-19.043,-36.133,-29.297,321.777
1678025806.575,-47.363,-17.090,-35.156,-48.828,-86.914
1678025806.579,-54.199,-22.949,-34.668,-54.199,-150.879
1678025806.583,-51.758,-29.785,-35.156,-54.688,-91.309
1678025806.587,-34.668,-22.949,-27.344,-46.875,29.297
1678025806.591,-44.434,-20.996,-31.250,-50.293,190.918
1678025806.594,-73.730,-25.391,-27.832,-69.336,105.469
1678025806.598,-83.984,-21.484,-21.973,-69.336,-115.234
1678025806.602,-75.684,-15.137,-27.832,-75.195,-152.832
1678025806.606,-48.828,-11.719,-25.391,-66.895,76.660
1678025806.610,-55.664,-10.742,-29.785,-62.500,209.473
1678025806.612,-81.543,-9.766,-31.738,-80.078,-107.910
1678025806.616,-86.914,-9.277,-25.879,-84.473,-333.008
1678025806.620,-90.820,-10.742,-22.949,-93.750,-145.508
1678025806.624,-95.703,-6.836,-20.508,-90.332,249.512
1678025806.628,-118.164,-0.488,-12.695,-105.469,148.438
1678025806.632,-151.367,11.719,0.977,-138.672,-189.941
1678025806.636,-185.547,14.648,18.555,-167.480,-31.738
1678025806.639,-211.426,18.066,20.020,-198.730,71.289
1678025806.643,-216.309,29.297,15.625,-228.027,-138.672
1678025806.647,-241.699,32.227,36.133,-253.418,-114.746
1678025806.651,-299.316,32.715,52.246,-302.734,-93.262
1678025806.655,-347.168,17.090,70.801,-354.980,-210.938
1678025806.658,-354.004,39.551,83.496,-357.422,-269.043
1678025806.662,-350.098,76.660,74.219,-363.281,-158.203
1678025806.666,-351.074,86.914,82.031,-372.559,25.879
1678025806.670,-354.492,78.125,87.891,-375.488,-71.289
1678025806.674,-356.445,60.547,79.102,-377.930,-240.234
1678025806.678,-355.957,64.941,85.938,-371.094,-85.449
1678025806.682,-347.656,61.035,89.844,-355.957,145.020
1678025806.685,-318.359,48.828,77.637,-326.172,95.703
1678025806.689,-314.941,53.223,78.613,-325.684,-72.266
1678025806.693,-342.773,55.664,81.543,-344.727,-144.043
1678025806.697,-333.496,46.387,78.613,-331.055,-54.199
1678025806.701,-298.828,42.969,75.684,-304.688,-108.398
1678025806.717,-283.691,39.551,65.430,-298.828,-121.094
1678025806.721,-281.738,34.668,65.918,-291.992,-0.488
1678025806.725,-295.898,25.391,62.012,-300.293,26.367
1678025806.729,-288.086,21.973,58.594,-298.828,-174.805
1678025806.733,-247.559,25.391,48.828,-265.625,-261.230
1678025806.737,-236.328,22.949,41.016,-250.488,71.777
1678025806.741,-233.398,23.438,47.363,-231.445,197.266
1678025806.744,-243.164,10.742,44.922,-230.957,-207.031
1678025806.748,-258.301,1.953,39.062,-250.000,-265.137
1678025806.752,-223.145,9.766,35.645,-213.867,-21.484
1678025806.756,-188.965,4.883,36.621,-182.617,62.012
1678025806.760,-209.473,9.766,35.156,-212.402,-90.332
1678025806.762,-238.281,5.371,29.785,-227.051,-251.953
1678025806.766,-224.609,-4.395,25.391,-206.543,-212.402
1678025806.770,-196.777,-4.883,30.273,-176.758,-145.020
1678025806.774,-172.852,-5.371,25.391,-148.438,-186.035
1678025806.778,-171.387,-4.883,10.742,-148.926,-9.277
1678025806.782,-196.289,-8.789,16.113,-182.617,82.520
1678025806.786,-198.242,-6.836,20.020,-179.199,-60.547
1678025806.789,-174.316,-12.695,17.578,-153.320,-58.105
1678025806.793,-148.926,-16.113,12.207,-133.789,40.527
1678025806.797,-152.832,-20.508,7.812,-118.652,333.496
1678025806.801,-168.457,-21.484,3.906,-128.906,244.141
1678025806.805,-179.688,-13.672,3.418,-145.020,-210.938
1678025806.807,-190.430,-10.742,7.324,-145.020,-170.898
1678025806.811,-167.969,-19.043,1.953,-117.188,-68.359
1678025806.815,-127.930,-30.762,1.953,-85.938,-83.984
1678025806.819,-136.719,-20.996,-2.930,-99.121,-149.414
1678025806.823,-176.758,-12.695,-6.836,-129.883,-195.312
1678025806.827,-169.434,-25.879,-4.883,-118.164,-94.238
1678025806.831,-123.535,-31.738,-5.859,-78.613,-64.941
1678025806.834,-109.863,-31.250,-4.883,-58.105,-29.297
1678025806.838,-131.836,-25.391,-5.371,-65.430,134.277
1678025806.842,-145.020,-15.137,-9.277,-79.102,175.293
1678025806.846,-113.770,-20.996,-15.137,-67.383,-139.160
1678025806.850,-60.547,-29.297,-20.508,-28.320,-212.891
1678025806.852,-51.270,-30.273,-21.484,-14.648,-60.059
1678025806.856,-81.543,-36.133,-20.020,-34.668,-89.355
1678025806.860,-77.637,-44.434,-27.344,-28.320,-265.625
1678025806.864,-42.480,-51.270,-36.133,9.277,-192.383
1678025806.868,-17.090,-50.781,-33.691,31.250,-28.320
1678025806.872,5.371,-42.969,-44.922,37.109,12.695
1678025806.876,10.742,-45.410,-53.223,35.645,-16.602
1678025806.879,11.719,-56.641,-56.641,32.715,-77.148
1678025806.883,39.551,-66.406,-67.383,59.570,192.383
1678025806.887,69.336,-64.453,-77.148,83.496,280.273
1678025806.891,85.938,-58.105,-81.543,83.496,12.695
1678025806.895,96.191,-57.617,-79.102,92.773,16.113
1678025806.897,85.449,-51.758,-83.008,81.543,-5.371
1678025806.901,64.941,-46.875,-86.426,71.289,-220.703
1678025806.905,94.727,-44.922,-87.891,108.398,-222.168
1678025806.909,128.418,-51.270,-89.355,124.512,-49.316
1678025806.913,118.652,-66.406,-90.820,104.492,44.434
1678025806.917,96.680,-67.871,-97.168,83.984,-75.684
1678025806.921,90.332,-62.500,-99.609,75.684,-158.691
1678025806.924,111.328,-57.129,-104.980,106.934,83.496
1678025806.928,124.512,-54.688,-108.887,130.859,196.289
1678025806.932,126.465,-52.246,-109.375,124.023,-54.199
1678025806.936,117.676,-44.434,-111.328,120.117,-167.480
1678025806.940,96.680,-37.109,-116.699,101.562,-99.609
1678025806.942,117.188,-36.621,-122.559,105.469,-43.945
1678025806.946,159.668,-37.109,-116.699,139.160,-62.500
1678025806.950,149.414,-35.156,-113.770,138.184,-11.230
1678025806.954,117.188,-34.668,-109.375,115.723,20.996
1678025806.958,119.629,-44.434,-103.027,113.770,-93.750
1678025806.962,137.207,-52.246,-106.445,129.395,-109.375
1678025806.966,146.973,-48.828,-106.445,134.277,13.184
1678025806.969,138.184,-52.246,-99.609,129.395,396.484
1678025806.973,112.793,-45.898,-98.145,108.398,294.922
1678025806.977,109.375,-36.133,-95.215,89.844,-220.215
1678025806.981,130.859,-33.691,-88.867,104.004,-146.973
1678025806.985,142.578,-33.691,-86.426,112.793,-32.227
1678025806.988,143.555,-44.922,-85.938,101.562,-69.336
1678025806.992,136.719,-51.270,-85.449,108.398,-173.828
1678025806.996,118.652,-36.621,-79.590,105.469,-81.055
1678025807.000,94.238,-27.344,-76.172,83.984,-90.332
1678025807.004,113.770,-33.203,-77.148,96.680,-211.426
1678025807.008,135.254,-39.062,-86.426,98.633,-37.598
1678025807.012,113.281,-34.180,-91.309,77.148,199.707
1678025807.015,83.984,-29.785,-89.355,59.082,82.520
1678025807.019,84.961,-32.227,-92.285,57.617,-213.867
1678025807.023,115.234,-30.762,-91.797,69.824,-164.062
1678025807.027,121.094,-30.273,-96.191,75.684,-44.922
1678025807.031,97.656,-29.785,-99.121,67.871,-74.707
1678025807.032,76.660,-32.715,-93.750,55.664,-177.246
1678025807.036,79.590,-29.785,-83.496,63.477,-115.723
1678025807.040,101.074,-36.133,-80.078,75.195,-27.832
1678025807.044,108.887,-44.434,-84.961,71.289,11.719
1678025807.048,83.984,-38.574,-88.867,60.547,3.418
1678025807.052,59.570,-25.879,-90.820,42.480,-19.043
1678025807.056,60.059,-18.066,-90.820,45.898,281.250
1678025807.059,80.566,-24.414,-83.496,69.824,331.055
1678025807.063,86.426,-25.879,-83.008,67.871,-9.766
1678025807.067,72.266,-28.320,-81.055,54.688,-32.715
1678025807.071,50.781,-29.297,-76.172,46.875,-20.996
1678025807.075,47.852,-20.508,-76.172,43.457,-222.656
1678025807.092,64.941,-20.996,-69.336,59.570,-215.332
1678025807.096,64.941,-25.391,-74.707,64.941,-62.012
1678025807.100,50.293,-26.367,-83.496,53.711,-38.574
1678025807.104,32.715,-22.949,-79.102,36.133,-147.461
1678025807.108,29.785,-22.949,-76.660,29.785,-200.195
1678025807.112,47.852,-25.391,-76.660,46.387,-63.477
1678025807.116,65.918,-24.902,-74.707,51.270,30.273
1678025807.119,53.223,-29.297,-71.777,45.410,21.973
1678025807.123,23.926,-29.297,-71.289,30.273,-178.711
1678025807.127,13.672,-31.250,-72.754,28.320,-96.191
1678025807.131,34.668,-37.598,-72.754,30.273,112.793
1678025807.135,55.176,-30.762,-67.871,32.227,-76.172
1678025807.137,45.410,-18.555,-64.941,26.367,-49.316
1678025807.141,22.461,-18.555,-65.430,11.230,-86.914
1678025807.145,15.625,-20.996,-60.547,12.695,-182.617
1678025807.149,15.625,-20.020,-56.152,16.113,-137.695
1678025807.153,27.832,-20.996,-53.711,28.809,-83.496
1678025807.157,30.762,-23.438,-58.594,19.043,56.152
1678025807.161,-0.977,-22.949,-65.430,10.742,20.996
1678025807.164,-7.812,-24.414,-57.617,3.906,-127.930
1678025807.168,12.695,-30.762,-48.340,3.418,-56.152
1678025807.172,16.602,-30.273,-55.664,25.391,335.938
1678025807.176,1.953,-21.973,-56.152,28.320,445.312
1678025807.180,-34.180,-22.461,-49.805,0.000,-1.953
1678025807.182,-59.082,-30.273,-48.340,-14.648,-132.324
1678025807.186,-54.199,-27.832,-50.781,-6.348,-69.336
1678025807.190,-41.016,-27.832,-47.852,5.371,-96.680
1678025807.194,-28.809,-26.367,-40.039,21.484,-67.383
1678025807.198,-43.457,-17.578,-41.992,6.836,-54.688
1678025807.202,-73.730,-23.438,-52.734,-25.391,-83.496
1678025807.206,-64.453,-27.344,-58.105,-25.879,-125.000
1678025807.209,-30.273,-22.949,-52.246,-7.324,-149.414
1678025807.213,-23.438,-27.832,-46.875,7.324,130.859
1678025807.217,-48.340,-31.738,-49.805,-1.465,247.070
1678025807.221,-59.082,-35.156,-52.246,-15.137,-155.273
1678025807.225,-42.480,-31.738,-43.945,-5.859,-180.664
1678025807.227,-9.766,-17.090,-29.297,7.324,-35.645
1678025807.231,-2.930,-21.973,-23.926,17.578,-3.418
1678025807.235,-26.367,-38.574,-25.879,9.766,-100.586
1678025807.239,-58.594,-30.762,-29.297,-14.648,-149.902
1678025807.243,-65.430,-26.367,-30.273,-15.625,-123.047
1678025807.247,-40.039,-40.527,-25.879,6.836,-93.750
1678025807.251,-20.020,-32.227,-14.648,28.320,60.547
1678025807.254,-28.320,-26.367,-18.555,16.113,145.020
1678025807.258,-54.688,-36.621,-38.574,-2.441,215.332
1678025807.262,-54.199,-30.762,-39.062,-10.742,114.258
1678025807.266,-24.902,-19.531,-29.785,-19.531,-132.324
1678025807.270,-3.906,-15.625,-22.949,-8.789,-84.473
1678025807.273,-19.043,-18.066,-20.020,-14.160,-67.871
1678025807.277,-36.133,-20.996,-23.926,-31.250,-108.398
1678025807.281,-40.039,-37.598,-27.832,-32.715,-160.156
1678025807.285,-22.461,-43.457,-27.832,-20.508,-79.102
1678025807.289,-5.371,-25.879,-23.438,-12.695,46.875
1678025807.293,-14.648,-23.438,-28.809,-21.484,-44.922
1678025807.297,-40.527,-32.227,-39.062,-39.062,-95.703
1678025807.300,-41.992,-33.203,-41.504,-52.246,33.203
1678025807.304,-18.555,-25.879,-37.598,-41.504,141.113
1678025807.308,-4.395,-26.855,-32.227,-22.461,-33.203
1678025807.312,-5.371,-30.762,-26.855,-7.812,-56.152
1678025807.316,-26.367,-27.344,-27.832,-27.344,-13.672
1678025807.317,-48.340,-34.668,-26.855,-54.688,-108.887
1678025807.321,-41.016,-33.203,-31.250,-42.480,-202.637
1678025807.325,-19.043,-29.297,-33.203,-16.113,-194.336
1678025807.329,-25.879,-32.715,-28.320,-7.812,-68.359
1678025807.333,-58.105,-26.367,-28.320,-31.738,-98.633
1678025807.337,-64.941,-24.414,-28.809,-48.828,-178.223
1678025807.341,-41.504,-23.438,-28.809,-40.527,-77.637
1678025807.344,-23.926,-22.949,-33.203,-24.414,279.785
1678025807.348,-26.367,-25.879,-33.203,-15.625,409.180
1678025807.352,-39.551,-21.973,-28.809,-30.762,5.859
1678025807.356,-47.852,-11.230,-21.484,-41.992,-170.898
1678025807.360,-34.180,-14.160,-30.762,-35.156,-153.320
1678025807.362,-8.301,-20.020,-38.086,-19.531,-160.645
1678025807.366,-14.648,-18.066,-25.391,-12.695,-153.320
1678025807.370,-53.223,-22.461,-20.996,-36.133,-118.652
1678025807.374,-71.289,-31.738,-30.273,-59.570,-138.184
1678025807.378,-50.781,-39.062,-31.250,-32.715,-183.105
1678025807.382,-30.762,-31.250,-30.762,-13.672,-188.965
1678025807.386,-23.438,-21.973,-29.785,-12.207,126.953
1678025807.389,-37.598,-16.113,-30.762,-21.484,322.754
1678025807.393,-61.523,-14.648,-25.879,-48.340,-89.355
1678025807.397,-44.922,-16.113,-21.973,-47.363,-275.879
1678025807.401,-27.344,-18.555,-27.832,-31.738,-38.574
1678025807.405,-27.832,-22.949,-34.180,-24.414,52.734
1678025807.407,-38.574,-23.926,-31.738,-28.809,-145.996
1678025807.411,-62.988,-18.555,-24.414,-46.387,-205.566
1678025807.415,-58.594,-21.484,-20.508,-48.340,-149.414
1678025807.419,-27.344,-23.926,-21.484,-30.762,-107.910
1678025807.423,-13.184,-22.461,-24.902,-22.949,-62.988
1678025807.427,-27.832,-31.738,-21.484,-25.391,73.242
1678025807.431,-42.969,-29.785,-21.973,-32.715,193.848
1678025807.434,-53.711,-30.762,-28.320,-45.898,-2.930
1678025807.438,-49.316,-28.809,-28.320,-42.480,-32.715
1678025807.442,-39.062,-13.184,-22.949,-21.973,161.133
1678025807.446,-37.109,-7.324,-20.996,-9.766,266.602
1678025807.450,-54.688,-20.996,-27.344,-26.367,18.066
1678025807.452,-57.129,-20.508,-36.133,-38.574,-236.328
1678025807.456,-37.598,-20.508,-31.738,-35.645,-177.734
1678025807.460,-29.785,-30.273,-27.344,-23.926,-55.176
1678025807.464,-31.738,-24.414,-27.344,-18.555,-26.855
1678025807.468,-42.480,-21.973,-26.855,-37.598,-143.555
1678025807.472,-53.223,-24.414,-28.320,-47.363,-74.707
1678025807.476,-52.246,-23.438,-32.715,-34.180,63.477
1678025807.479,-48.828,-24.902,-42.480,-19.043,46.875
1678025807.483,-48.340,-32.715,-36.621,-23.438,-38.086
1678025807.487,-63.965,-25.391,-23.926,-38.574,63.965
1678025807.491,-68.848,-18.555,-29.297,-47.363,74.219
1678025807.495,-48.828,-21.484,-37.598,-48.828,-164.551
1678025807.512,-24.414,-27.344,-36.621,-36.621,-115.234
1678025807.516,-20.508,-27.344,-40.527,-20.020,12.695
1678025807.520,-51.270,-23.926,-39.551,-36.133,-64.941
1678025807.524,-64.453,-25.879,-24.902,-49.316,-212.402
1678025807.528,-38.574,-18.066,-22.949,-27.832,-191.406
1678025807.532,-23.926,-23.926,-38.574,-28.320,-9.766
1678025807.536,-21.973,-31.250,-45.410,-36.133,28.809
1678025807.539,-41.504,-28.320,-41.504,-42.480,-32.715
1678025807.543,-61.523,-26.855,-41.504,-51.270,-46.387
1678025807.547,-46.875,-23.926,-37.598,-38.574,172.363
1678025807.551,-21.484,-35.645,-35.645,-20.020,208.496
1678025807.555,-7.812,-53.223,-32.227,-16.602,-11.719
1678025807.557,-24.902,-42.969,-27.344,-30.273,-82.031
1678025807.561,-42.480,-16.602,-27.344,-49.805,-191.895
1678025807.565,-39.062,-19.043,-33.203,-46.387,-264.160
1678025807.569,-25.391,-30.762,-38.574,-26.367,-229.980
1678025807.573,-9.277,-29.297,-35.645,-7.324,-11.230
1678025807.577,-20.020,-36.621,-33.203,-18.555,42.480
1678025807.581,-45.410,-42.480,-34.180,-39.062,-115.723
1678025807.584,-43.457,-27.832,-33.691,-35.645,-193.359
1678025807.588,-23.438,-18.066,-34.180,-11.230,13.672
1678025807.592,-0.977,-20.996,-35.645,-3.418,213.867
1678025807.596,-9.766,-23.438,-29.297,-20.508,-2.441
1678025807.600,-31.738,-24.414,-25.879,-31.738,-102.051
1678025807.602,-28.320,-28.809,-28.809,-39.551,-146.484
1678025807.606,-14.160,-12.207,-24.414,-17.578,-110.352
1678025807.610,5.371,-11.719,-22.949,-2.930,-17.090
1678025807.614,-15.625,-28.320,-31.738,-30.762,32.715
1678025807.618,-45.898,-26.855,-31.250,-56.152,0.977
1678025807.622,-36.621,-22.461,-22.461,-55.176,-112.793
1678025807.626,-25.391,-18.555,-24.414,-34.180,-180.664
1678025807.629,-11.230,-21.973,-28.809,-20.508,-52.246
1678025807.633,-23.438,-21.484,-30.273,-25.391,313.965
1678025807.637,-52.246,-27.832,-24.902,-32.227,142.090
1678025807.641,-46.875,-35.156,-20.508,-40.527,-243.164
1678025807.645,-36.621,-25.879,-29.785,-41.016,-178.223
1678025807.647,-27.832,-17.090,-30.273,-25.879,-94.727
1678025807.651,-26.367,-19.531,-22.461,-26.855,-52.734
1678025807.655,-40.039,-19.531,-20.508,-41.992,-190.918
1678025807.659,-45.410,-25.391,-27.344,-41.992,-228.516
1678025807.663,-31.250,-21.484,-28.320,-36.133,-214.355
1678025807.667,-11.719,-13.672,-35.645,-29.297,-52.246
1678025807.671,-15.137,-17.578,-46.875,-31.250,103.027
1678025807.674,-45.898,-22.949,-44.922,-36.621,222.168
1678025807.678,-56.641,-21.973,-46.875,-32.715,288.574
1678025807.682,-48.828,-18.066,-43.457,-51.758,13.672
1678025807.686,-33.691,-25.391,-35.645,-46.387,-76.172
1678025807.690,-21.484,-34.180,-36.621,-24.414,-18.066
