timestamps,TP9,AF7,AF8,TP10,Right AUX
1678025462.374,-57.617,112.305,40.039,-81.055,10.742
1678025462.378,-230.957,113.770,30.273,-152.832,-110.352
1678025462.382,-203.613,100.586,16.602,-152.344,-239.746
1678025462.386,-93.262,102.051,24.414,-85.938,-39.062
1678025462.390,-5.859,91.309,39.062,-52.734,87.402
1678025462.394,-1.465,77.637,44.434,-32.715,57.617
1678025462.398,-133.301,68.848,32.227,-57.617,9.766
1678025462.401,-143.066,56.641,17.090,-66.406,103.516
1678025462.405,-24.902,52.734,14.648,-7.324,101.562
1678025462.409,96.680,22.949,9.277,61.523,-137.207
1678025462.413,77.637,21.973,2.441,60.547,-26.367
1678025462.417,-59.570,36.621,13.672,12.695,-20.996
1678025462.419,-95.703,31.250,33.691,17.578,-215.820
1678025462.423,51.758,34.668,38.574,101.562,-229.004
1678025462.427,233.887,50.293,34.180,176.270,-78.125
1678025462.431,235.352,57.617,15.137,166.992,48.828
1678025462.435,85.938,60.059,-9.277,84.961,-62.500
1678025462.439,-8.789,48.828,-1.465,41.016,-220.703
1678025462.443,79.102,42.480,10.254,62.988,-10.742
1678025462.446,223.633,56.641,5.859,123.535,365.234
1678025462.450,252.930,59.082,-3.418,167.480,135.742
1678025462.454,143.066,63.477,-5.371,123.535,-160.156
1678025462.458,35.156,65.918,-26.855,60.059,-131.348
1678025462.462,88.867,71.777,-21.973,64.941,-164.551
1678025462.464,226.074,84.961,1.953,111.816,-165.039
1678025462.468,293.945,90.332,11.719,160.156,-13.672
1678025462.472,197.754,104.004,22.461,136.230,138.184
1678025462.476,65.430,116.211,10.254,67.383,-22.461
1678025462.480,80.566,126.953,-17.578,35.645,-296.387
1678025462.484,194.824,124.512,-8.789,78.613,-62.012
1678025462.488,242.188,113.281,-4.883,103.516,221.680
1678025462.491,110.840,110.352,-7.812,43.457,11.719
1678025462.495,-17.090,108.398,-10.254,-21.973,-282.715
1678025462.499,10.742,102.539,-31.250,-31.250,-249.512
1678025462.503,113.770,126.465,-30.273,28.320,115.234
1678025462.507,185.059,148.926,-26.367,74.707,213.867
1678025462.524,128.906,152.344,-57.129,25.879,-4.395
1678025462.528,-25.879,170.410,-46.875,-42.969,-192.383
1678025462.532,-51.758,188.477,-1.953,-61.523,-289.551
1678025462.536,69.824,187.988,16.113,-44.922,-235.352
1678025462.540,155.273,189.941,19.043,-12.207,-120.117
1678025462.544,93.750,194.824,8.301,-28.320,67.871
1678025462.548,-61.523,196.777,-11.230,-92.285,125.977
1678025462.551,-69.824,202.148,-25.879,-108.887,-146.484
1678025462.555,49.805,201.172,-23.438,-62.988,-247.070
1678025462.559,149.414,198.242,-10.254,-9.766,30.273
1678025462.563,99.121,197.754,-14.160,-21.973,104.004
1678025462.567,-41.504,207.520,-7.324,-98.633,-192.383
1678025462.569,-65.918,207.031,4.883,-113.770,-236.816
1678025462.573,17.090,207.520,5.371,-55.176,83.008
1678025462.577,115.234,232.910,17.578,-3.418,165.527
1678025462.581,107.422,241.699,22.949,-26.367,-41.016
1678025462.585,-8.301,235.840,25.879,-86.426,-145.020
1678025462.589,-83.008,227.539,28.320,-110.352,-116.211
1678025462.593,-7.324,236.328,18.555,-75.195,-137.207
1678025462.596,95.703,247.559,14.160,-17.090,-94.238
1678025462.600,92.285,245.605,32.227,-13.672,-25.391
1678025462.604,-21.973,251.953,59.082,-69.336,76.660
1678025462.608,-102.539,251.953,28.809,-133.789,-124.023
1678025462.612,-46.387,239.746,2.441,-125.977,-304.199
1678025462.614,42.969,233.398,25.879,-73.242,-125.488
1678025462.618,62.988,231.445,38.574,-54.199,61.035
1678025462.622,-44.434,222.168,25.391,-120.117,68.359
1678025462.626,-123.535,216.309,12.695,-192.871,-158.203
1678025462.630,-95.215,212.891,21.484,-193.848,-199.707
1678025462.634,-5.371,225.098,33.203,-114.746,59.570
1678025462.638,48.828,228.516,35.156,-60.547,209.473
1678025462.641,-69.824,215.332,16.602,-164.551,10.742
1678025462.645,-152.832,204.102,8.301,-216.797,-78.613
1678025462.649,-95.703,202.637,16.602,-145.508,52.734
1678025462.653,-19.531,219.727,18.555,-117.188,-101.074
1678025462.657,26.855,210.449,37.109,-83.496,-33.203
1678025462.659,-60.547,202.148,52.246,-110.840,60.059
1678025462.663,-172.363,201.660,49.805,-202.637,-78.613
1678025462.667,-139.648,187.012,49.805,-175.293,-224.609
1678025462.671,-43.457,182.617,44.434,-100.098,-155.762
1678025462.675,12.695,185.547,30.273,-95.215,217.285
1678025462.679,-52.246,182.129,25.879,-125.977,269.531
1678025462.683,-162.598,183.594,40.039,-171.875,-37.598
1678025462.686,-168.945,181.152,40.527,-201.660,-236.328
1678025462.690,-62.988,177.246,38.086,-132.812,88.379
1678025462.694,31.738,182.617,52.734,-44.922,212.891
1678025462.698,-36.621,183.105,68.848,-113.770,-41.504
1678025462.702,-166.504,171.387,76.660,-208.008,-148.438
1678025462.704,-169.922,171.875,80.566,-192.383,-225.586
1678025462.708,-73.730,185.547,88.867,-136.719,-201.660
1678025462.712,26.367,188.965,69.336,-84.473,-114.258
1678025462.716,-18.066,192.871,31.250,-113.281,-37.109
1678025462.720,-195.801,176.758,33.691,-209.961,-177.734
1678025462.724,-223.633,170.898,62.012,-216.797,-135.742
1678025462.728,-122.559,182.617,71.777,-172.852,-7.324
1678025462.731,-19.043,188.477,55.664,-122.070,137.695
1678025462.735,-33.691,183.594,48.828,-136.230,426.758
1678025462.739,-160.156,184.570,47.852,-192.871,50.293
1678025462.743,-192.383,207.520,72.266,-198.242,-214.355
1678025462.747,-159.180,196.289,69.824,-192.871,-113.770
1678025462.749,-83.008,183.105,39.551,-150.391,-27.832
1678025462.753,-75.684,182.129,31.738,-132.324,91.309
1678025462.757,-194.824,174.805,47.363,-190.918,-39.062
1678025462.761,-251.953,186.035,30.762,-246.582,-61.035
1678025462.765,-189.453,169.434,1.953,-228.027,-29.785
1678025462.769,-94.238,156.250,36.621,-169.922,5.371
1678025462.773,-92.285,180.176,56.641,-162.598,101.074
1678025462.776,-211.426,192.871,39.062,-218.262,195.801
1678025462.780,-282.227,199.707,41.992,-277.832,3.906
1678025462.784,-229.492,201.172,39.062,-265.137,-152.344
1678025462.788,-102.539,201.172,28.320,-185.059,17.090
1678025462.792,-59.570,207.031,28.809,-156.738,222.168
1678025462.794,-189.941,197.266,28.320,-208.496,19.531
1678025462.798,-293.457,179.199,38.086,-247.559,-234.375
1678025462.802,-270.508,171.387,40.039,-257.812,-261.719
1678025462.806,-174.805,182.129,22.461,-250.977,-116.699
1678025462.810,-112.305,186.035,16.602,-207.520,25.879
1678025462.814,-224.609,174.805,23.438,-235.352,34.180
1678025462.818,-333.008,173.340,27.344,-292.480,5.371
1678025462.821,-292.480,167.480,25.879,-267.090,104.980
1678025462.825,-202.637,162.109,14.160,-230.469,-16.602
1678025462.829,-126.953,170.410,12.207,-180.664,3.418
1678025462.833,-193.848,172.852,17.090,-211.426,79.590
1678025462.837,-332.031,162.109,7.324,-304.688,-129.883
1678025462.839,-347.656,158.691,-1.465,-311.523,-283.203
1678025462.843,-248.535,153.809,-11.230,-248.535,-117.676
1678025462.847,-154.297,148.926,-9.277,-200.195,218.262
1678025462.851,-218.262,153.809,-7.812,-226.074,218.262
1678025462.855,-353.516,155.273,11.719,-300.781,-121.582
1678025462.859,-349.609,157.227,22.461,-299.316,-194.824
1678025462.863,-232.910,167.969,4.883,-222.656,76.660
1678025462.866,-145.508,177.246,-10.254,-196.777,174.805
1678025462.870,-203.125,177.734,0.977,-257.812,-48.340
1678025462.874,-331.055,172.363,3.418,-331.543,-149.902
1678025462.878,-357.910,170.410,-7.324,-323.730,-207.520
1678025462.882,-279.297,175.293,2.930,-270.508,-216.309
1678025462.886,-191.406,168.945,7.324,-228.516,-120.605
1678025462.890,-206.055,171.387,3.418,-237.793,27.344
1678025462.894,-328.125,174.316,-7.324,-301.758,5.859
1678025462.898,-376.465,163.574,-11.719,-338.379,-189.453
1678025462.902,-302.246,154.785,-12.207,-298.340,-263.672
1678025462.906,-192.383,162.598,-16.113,-229.492,-29.297
1678025462.910,-192.871,166.992,-13.672,-208.984,225.586
1678025462.913,-318.359,161.133,-12.695,-275.391,-27.344
1678025462.917,-394.043,166.992,-13.184,-325.195,-306.641
1678025462.921,-338.867,171.875,-14.160,-295.898,-202.637
1678025462.925,-224.121,179.688,-7.812,-222.168,-53.711
1678025462.929,-203.125,179.199,9.277,-212.402,-100.586
1678025462.944,-312.012,176.758,34.668,-267.090,-136.719
1678025462.948,-402.344,164.062,27.832,-328.125,-13.672
1678025462.952,-364.258,156.250,-1.465,-314.453,-200.195
1678025462.956,-266.602,155.273,-21.973,-259.766,-196.777
1678025462.960,-240.234,147.949,-18.066,-244.141,57.617
1678025462.964,-302.734,160.156,0.977,-277.832,277.832
1678025462.968,-386.719,156.250,-3.418,-344.727,146.484
1678025462.971,-378.906,149.414,1.953,-319.336,-250.488
1678025462.975,-268.555,155.762,0.000,-266.113,-177.734
1678025462.979,-209.961,156.250,-6.836,-245.605,89.844
1678025462.983,-322.754,158.203,-7.812,-301.270,-46.875
1678025462.987,-429.199,157.715,0.488,-353.027,-287.598
1678025462.989,-374.023,174.316,-0.488,-315.918,-275.391
1678025462.993,-274.902,175.781,-15.137,-271.484,-167.969
1678025462.997,-216.309,158.691,-10.742,-248.047,-36.621
1678025463.001,-312.988,151.367,-0.977,-281.250,-48.828
1678025463.005,-436.523,152.344,-12.695,-357.910,-180.664
1678025463.009,-405.273,160.645,-17.578,-332.031,-86.914
1678025463.013,-322.266,147.461,-12.207,-266.113,27.832
1678025463.016,-238.281,140.625,6.348,-240.234,101.562
1678025463.020,-279.297,146.973,14.648,-250.488,131.348
1678025463.024,-418.945,125.488,11.230,-290.527,198.730
1678025463.028,-425.781,133.301,4.883,-324.707,-46.875
1678025463.032,-310.547,160.645,10.254,-288.574,-211.914
1678025463.034,-227.051,163.086,33.691,-228.516,21.484
1678025463.038,-283.691,156.250,41.016,-262.695,155.762
1678025463.042,-409.180,145.508,23.926,-343.262,-59.570
1678025463.046,-415.039,166.992,12.695,-346.680,-254.395
1678025463.050,-305.176,201.660,23.438,-295.410,-20.996
1678025463.054,-207.520,200.195,41.504,-226.562,156.250
1678025463.058,-254.395,174.316,16.602,-257.812,131.836
1678025463.061,-395.996,166.504,-8.789,-337.891,-66.406
1678025463.065,-447.754,142.090,2.930,-351.074,-10.742
1678025463.069,-349.121,138.184,24.414,-300.781,30.273
1678025463.073,-206.543,144.531,31.738,-212.402,-123.535
1678025463.077,-215.332,145.020,22.949,-229.004,-16.602
1678025463.079,-380.859,146.484,10.742,-348.145,-75.195
1678025463.083,-448.242,142.578,8.301,-401.367,-242.188
1678025463.087,-338.867,151.855,13.672,-342.773,-228.516
1678025463.091,-223.633,138.672,23.926,-270.996,-78.125
1678025463.095,-239.258,124.512,26.855,-246.582,8.789
1678025463.099,-355.957,123.535,-0.488,-308.594,10.254
1678025463.103,-436.035,115.723,-4.395,-364.258,-91.309
1678025463.106,-400.879,125.000,23.926,-343.750,-33.203
1678025463.110,-249.023,136.719,30.273,-262.695,234.863
1678025463.114,-158.691,158.203,12.207,-229.980,90.820
1678025463.118,-323.730,167.480,2.930,-327.637,-122.070
1678025463.122,-459.473,158.203,5.859,-410.156,-154.297
1678025463.139,-387.207,173.828,-1.953,-370.117,-193.359
1678025463.143,-267.090,166.504,1.465,-291.992,-78.613
1678025463.147,-212.402,144.043,8.301,-270.508,-46.875
1678025463.151,-314.453,155.762,6.348,-331.055,41.016
1678025463.155,-404.297,174.805,-4.883,-394.043,-19.043
1678025463.159,-376.953,146.973,11.230,-368.164,-175.781
1678025463.163,-264.648,113.281,26.855,-287.109,-62.012
1678025463.166,-172.852,156.738,36.621,-216.797,269.043
1678025463.170,-270.996,175.781,42.480,-290.527,235.840
1678025463.174,-424.805,159.668,24.902,-417.969,-154.785
1678025463.178,-422.852,149.902,20.020,-388.672,-216.797
1678025463.182,-316.406,154.297,20.508,-294.922,-75.684
1678025463.170,-214.355,162.598,28.320,-233.398,55.176
1678025463.174,-235.352,166.016,28.320,-254.395,113.281
1678025463.178,-362.793,174.805,32.715,-329.102,-62.988
1678025463.182,-379.883,162.109,38.574,-357.422,-111.328
1678025463.186,-258.789,173.340,55.664,-305.176,-82.031
1678025463.190,-186.523,178.223,70.801,-222.168,24.902
1678025463.194,-227.539,165.527,51.758,-252.930,172.852
1678025463.197,-361.328,160.156,35.156,-340.332,20.508
1678025463.201,-394.531,154.297,47.363,-315.918,-201.660
1678025463.205,-284.668,152.832,34.668,-276.367,-190.430
1678025463.209,-159.668,167.480,32.227,-237.793,140.137
1678025463.213,-176.758,170.898,45.898,-233.398,354.492
1678025463.214,-330.078,142.578,16.602,-305.176,-25.879
1678025463.218,-378.906,138.184,20.508,-334.473,-162.598
1678025463.222,-286.133,161.133,73.242,-294.922,37.109
1678025463.226,-184.082,162.109,100.586,-214.355,74.219
1678025463.230,-201.660,166.504,85.449,-229.980,-23.438
1678025463.234,-324.707,200.684,84.961,-309.570,-124.512
1678025463.238,-372.070,179.199,87.891,-314.453,54.688
1678025463.241,-282.227,166.016,51.758,-271.484,140.625
1678025463.245,-180.176,183.105,26.367,-239.746,-72.266
1678025463.249,-176.758,153.320,29.785,-244.141,-50.781
1678025463.253,-288.574,163.574,48.340,-296.387,-46.875
1678025463.257,-387.207,172.852,69.824,-356.934,-229.980
1678025463.259,-341.797,144.043,78.613,-325.684,-270.996
1678025463.263,-208.008,140.137,75.684,-232.910,-102.539
1678025463.267,-159.180,154.297,72.754,-192.871,10.742
1678025463.271,-268.555,156.250,67.383,-250.000,-56.641
1678025463.275,-347.656,152.344,46.875,-318.848,-160.156
1678025463.279,-290.039,140.137,38.086,-313.477,-68.848
1678025463.283,-198.242,149.414,74.219,-261.719,62.012
1678025463.286,-173.340,167.969,93.750,-225.586,93.262
1678025463.290,-248.047,154.785,54.199,-277.832,0.488
1678025463.294,-349.121,134.766,42.969,-321.777,-123.047
1678025463.298,-310.059,137.207,57.617,-299.805,-182.617
1678025463.302,-163.086,135.742,24.414,-252.930,-166.992
1678025463.319,-90.820,120.117,12.695,-190.430,-18.555
1678025463.323,-206.543,107.910,37.109,-225.586,219.727
1678025463.327,-326.172,105.469,22.949,-291.016,190.918
1678025463.331,-313.477,110.352,-1.465,-275.879,-252.441
1678025463.335,-180.664,113.770,35.156,-200.195,-280.762
1678025463.339,-83.984,118.164,54.199,-131.348,46.387
1678025463.343,-202.637,125.977,31.738,-203.125,-34.180
1678025463.346,-328.613,149.902,24.414,-297.852,-224.121
1678025463.350,-324.707,143.066,50.293,-309.570,-204.102
1678025463.354,-236.328,117.676,42.480,-251.465,99.121
1678025463.358,-107.910,128.418,23.926,-189.453,167.480
1678025463.362,-137.207,128.418,31.250,-213.867,-61.523
1678025463.364,-305.176,102.051,11.230,-306.641,-188.477
1678025463.368,-351.074,106.934,30.273,-317.383,-188.477
1678025463.372,-261.230,104.004,36.133,-261.719,-144.043
1678025463.376,-142.578,114.746,15.137,-218.750,-27.344
1678025463.380,-163.574,120.117,31.738,-222.168,70.801
1678025463.384,-317.383,98.633,24.902,-283.691,11.230
1678025463.388,-333.984,88.379,19.531,-295.898,-58.105
1678025463.391,-219.238,98.145,27.344,-238.770,-131.836
1678025463.395,-73.242,126.465,26.367,-167.480,122.559
1678025463.399,-76.172,131.348,28.320,-171.387,482.910
1678025463.403,-234.863,110.352,19.531,-255.371,152.344
1678025463.407,-295.410,80.566,34.668,-278.320,-164.062
1678025463.410,-234.375,62.012,37.109,-250.488,10.742
1678025463.414,-114.258,60.547,26.367,-177.246,136.230
1678025463.418,-95.703,55.176,41.992,-127.930,43.945
1678025463.422,-227.051,52.734,36.133,-197.754,-27.344
1678025463.426,-322.266,38.086,19.043,-239.258,7.324
1678025463.430,-271.973,27.344,12.695,-207.520,56.152
1678025463.434,-140.137,36.621,10.254,-150.879,111.328
1678025463.437,-109.375,31.738,16.602,-103.027,149.902
1678025463.441,-221.191,30.273,17.578,-156.738,273.926
1678025463.445,-311.523,37.598,1.465,-243.164,19.531
1678025463.449,-282.715,36.621,1.953,-218.262,-227.051
1678025463.453,-185.547,45.410,5.859,-145.996,-66.406
1678025463.454,-118.164,49.316,-1.953,-114.258,38.574
1678025463.458,-208.008,43.945,1.953,-144.043,21.484
1678025463.462,-312.988,48.828,6.348,-201.660,-140.137
1678025463.466,-276.367,54.688,10.742,-207.520,-200.684
1678025463.470,-170.898,55.176,7.324,-151.855,-73.730
1678025463.474,-104.980,38.574,-2.930,-110.840,20.508
1678025463.478,-201.172,16.602,-12.207,-155.762,-5.371
1678025463.481,-312.500,25.391,-17.090,-215.332,-41.504
1678025463.485,-263.184,41.992,-13.672,-185.547,103.516
1678025463.489,-183.105,31.250,-19.531,-134.277,-29.785
1678025463.493,-114.258,20.508,-22.461,-100.586,-142.578
1678025463.497,-169.922,17.578,0.977,-112.793,-29.297
1678025463.499,-285.645,5.859,17.090,-158.203,-108.887
1678025463.503,-289.062,17.578,1.953,-170.410,-212.402
1678025463.507,-199.707,25.391,-13.184,-152.832,-242.188
1678025463.511,-103.516,20.996,-1.465,-105.957,153.809
1678025463.515,-161.133,19.043,-1.465,-128.418,210.938
1678025463.519,-274.414,28.320,4.883,-189.941,-121.094
1678025463.523,-268.066,36.621,16.113,-185.059,-232.422
1678025463.526,-177.734,43.457,15.137,-118.164,11.719
1678025463.530,-93.750,39.551,14.648,-68.848,130.371
1678025463.534,-128.906,27.832,14.160,-97.656,-80.078
1678025463.538,-268.555,16.113,8.789,-159.180,-200.684
1678025463.542,-294.434,8.301,-10.742,-187.012,-225.098
1678025463.544,-194.824,6.348,-10.742,-150.879,-223.633
1678025463.548,-100.586,8.789,3.906,-102.051,-119.629
1678025463.552,-124.512,19.531,1.953,-119.141,22.949
1678025463.556,-250.000,24.902,-1.953,-187.500,-69.824
1678025463.560,-290.039,15.625,3.418,-203.125,-220.215
1678025463.564,-220.703,-1.465,-0.488,-179.688,-177.246
1678025463.568,-114.258,-4.883,-0.977,-139.648,119.629
1678025463.571,-104.980,16.113,-9.766,-130.859,508.301
1678025463.575,-227.539,38.086,-17.090,-186.523,91.309
1678025463.579,-279.785,40.527,8.789,-227.051,-321.289
1678025463.583,-243.164,22.949,6.836,-209.961,-125.000
1678025463.587,-158.691,11.719,-20.996,-141.602,-51.758
1678025463.589,-120.605,7.812,-26.855,-124.023,-46.387
1678025463.593,-226.074,-3.418,-10.254,-198.730,-65.918
1678025463.597,-301.270,-9.277,-13.184,-239.746,-26.855
1678025463.601,-236.328,1.953,-17.090,-209.961,-70.312
1678025463.605,-138.184,1.953,-19.043,-161.621,-157.227
1678025463.609,-111.328,-22.461,-28.320,-135.742,35.645
1678025463.613,-205.566,-32.227,-30.762,-190.918,236.328
1678025463.616,-305.664,-15.625,-31.738,-266.113,13.184
1678025463.620,-264.160,-23.926,-25.391,-258.301,-312.988
1678025463.624,-147.461,-29.297,-16.113,-204.102,-252.441
1678025463.628,-93.750,-20.508,-18.555,-166.504,46.387
1678025463.632,-193.359,-32.715,-30.273,-184.570,-81.543
1678025463.634,-297.852,-43.457,-30.762,-237.305,-309.570
1678025463.638,-263.672,-26.367,-12.695,-223.145,-266.113
1678025463.642,-170.410,-16.113,-20.996,-162.109,-143.066
1678025463.646,-111.816,-21.484,-24.902,-142.090,0.977
1678025463.650,-184.570,-23.926,-24.414,-189.453,-52.734
1678025463.654,-290.527,-19.043,-23.926,-251.953,-100.586
1678025463.658,-264.648,-14.160,-13.672,-246.094,0.488
1678025463.661,-165.039,-20.996,-20.020,-184.082,-70.801
1678025463.665,-92.773,-35.156,-43.457,-145.996,-62.012
1678025463.669,-139.160,-48.828,-38.574,-168.945,21.973
1678025463.673,-242.188,-44.434,-5.859,-232.422,-6.836
1678025463.677,-273.438,-41.504,-6.348,-253.418,-162.109
1678025463.694,-184.570,-31.250,-30.762,-208.984,-217.773
1678025463.698,-86.914,-16.113,-32.227,-151.367,134.277
1678025463.702,-135.254,-30.273,-25.879,-166.992,263.184
1678025463.706,-248.535,-43.945,-34.180,-229.980,-173.828
1678025463.710,-272.461,-57.617,-31.738,-235.840,-289.551
1678025463.714,-197.266,-67.383,-30.762,-189.453,-7.324
1678025463.718,-89.844,-42.969,-43.457,-149.414,24.902
1678025463.721,-114.258,-23.926,-52.246,-162.109,-117.676
1678025463.725,-244.629,-35.156,-47.852,-232.910,-127.930
1678025463.729,-290.527,-51.758,-44.434,-266.602,35.645
1678025463.733,-208.984,-60.547,-59.082,-240.234,-93.750
1678025463.737,-113.281,-74.219,-72.754,-192.871,-170.898
1678025463.739,-128.418,-83.496,-79.102,-186.035,42.480
1678025463.743,-251.465,-78.613,-96.680,-242.676,30.762
1678025463.747,-297.852,-88.379,-102.539,-282.715,-233.887
1678025463.751,-235.352,-104.980,-86.914,-246.582,-296.387
1678025463.755,-152.344,-100.098,-67.871,-188.477,-139.648
1678025463.759,-137.695,-95.703,-70.312,-172.363,61.523
1678025463.763,-235.352,-104.004,-77.148,-234.863,-41.504
1678025463.766,-294.922,-114.258,-80.566,-281.738,-285.156
1678025463.770,-236.328,-98.145,-83.496,-244.629,-154.297
1678025463.774,-119.629,-88.867,-82.031,-175.781,175.293
1678025463.778,-61.035,-98.633,-75.684,-143.066,45.410
1678025463.782,-154.297,-101.562,-64.453,-188.477,-123.047
1678025463.785,-284.668,-83.008,-65.430,-265.137,-116.211
1678025463.789,-266.113,-83.496,-73.730,-247.559,-75.195
1678025463.793,-154.297,-95.703,-87.891,-182.617,-48.828
1678025463.797,-83.496,-78.125,-78.613,-145.508,9.766
1678025463.801,-178.711,-62.988,-78.125,-197.266,153.320
1678025463.805,-308.105,-62.500,-99.121,-282.227,79.590
1678025463.809,-290.039,-60.059,-98.633,-293.457,-158.691
1678025463.812,-184.082,-69.336,-84.961,-229.980,-104.980
1678025463.816,-105.957,-75.684,-99.121,-174.805,259.766
1678025463.820,-154.297,-75.684,-134.277,-207.520,178.223
1678025463.824,-265.625,-97.656,-133.301,-267.090,-159.180
1678025463.828,-266.113,-115.723,-91.797,-267.578,-205.566
1678025463.829,-182.617,-103.516,-80.566,-213.379,-104.004
1678025463.833,-117.676,-100.586,-88.379,-173.828,24.902
1678025463.837,-182.129,-108.398,-93.750,-216.309,-6.348
1678025463.841,-300.293,-92.773,-89.355,-276.367,-170.898
1678025463.845,-289.551,-74.219,-86.914,-263.184,-172.363
1678025463.849,-183.105,-75.195,-92.773,-204.590,-60.547
1678025463.853,-87.891,-78.125,-110.352,-161.621,29.785
1678025463.856,-130.859,-72.266,-134.277,-167.969,218.262
1678025463.860,-235.840,-75.195,-109.863,-226.074,311.035
1678025463.864,-250.977,-74.219,-99.121,-247.070,-65.918
1678025463.868,-196.289,-78.613,-109.375,-214.844,-231.934
1678025463.872,-107.422,-88.867,-91.309,-177.246,10.742
1678025463.874,-114.746,-86.426,-84.473,-173.340,63.477
1678025463.878,-224.121,-81.543,-95.215,-230.469,-91.309
1678025463.882,-256.836,-94.238,-130.859,-250.977,-202.148
1678025463.886,-175.293,-104.492,-139.648,-168.457,-28.320
1678025463.890,-83.984,-104.004,-129.883,-101.074,86.426
1678025463.894,-86.426,-114.258,-144.531,-138.672,44.434
1678025463.898,-194.824,-102.539,-131.836,-205.566,-48.828
1678025463.901,-262.207,-91.309,-82.520,-249.512,132.812
1678025463.905,-208.008,-89.355,-80.078,-224.121,212.402
1678025463.909,-101.074,-80.078,-85.938,-176.758,-47.852
1678025463.913,-80.566,-93.262,-87.891,-157.227,8.301
1678025463.917,-192.871,-106.445,-116.211,-208.984,21.973
1678025463.919,-256.348,-99.121,-120.605,-259.766,-219.238
1678025463.923,-189.941,-95.215,-121.094,-240.723,-294.434
1678025463.927,-93.750,-109.375,-136.230,-183.594,-132.324
1678025463.931,-57.129,-117.188,-128.418,-145.508,-15.625
1678025463.935,-154.297,-121.094,-107.910,-189.453,-68.848
1678025463.939,-212.891,-123.535,-127.441,-214.355,-207.031
1678025463.943,-166.016,-103.516,-122.070,-191.895,-90.332
1678025463.946,-74.707,-94.238,-105.469,-138.184,181.152
1678025463.950,-31.250,-103.516,-116.211,-99.121,84.961
1678025463.954,-123.535,-90.820,-125.977,-168.945,-43.457
1678025463.958,-201.660,-83.496,-116.211,-227.539,-64.453
1678025463.962,-146.484,-96.680,-95.703,-192.871,-204.590
1678025463.964,-50.781,-106.445,-106.934,-147.461,-198.242
1678025463.968,-8.789,-107.422,-109.375,-122.559,58.105
1678025463.972,-84.961,-108.398,-104.004,-165.039,163.574
1678025463.976,-200.684,-104.980,-106.445,-220.215,-77.148
1678025463.980,-185.547,-84.961,-109.375,-215.332,-247.559
1678025463.984,-78.613,-101.562,-103.516,-164.062,-92.773
1678025463.988,-4.395,-141.113,-101.562,-100.586,248.535
1678025463.991,-79.102,-132.812,-124.023,-133.789,146.484
1678025463.995,-223.145,-125.000,-127.930,-227.051,-201.660
1678025463.999,-237.793,-120.605,-115.723,-224.609,-173.340
1678025464.003,-129.395,-119.629,-119.141,-166.992,-113.770
1678025464.007,-44.922,-127.930,-118.164,-119.629,4.883
1678025464.011,-79.102,-127.930,-137.207,-128.906,77.637
1678025464.015,-191.895,-129.883,-143.066,-187.012,-56.641
1678025464.019,-212.402,-114.258,-102.051,-191.406,-118.164
1678025464.023,-119.629,-105.957,-77.637,-143.066,-151.855
1678025464.027,-34.180,-114.746,-86.914,-99.609,-72.266
1678025464.031,-77.148,-122.070,-103.516,-88.379,67.871
1678025464.035,-196.777,-112.305,-123.535,-142.578,-12.207
1678025464.038,-223.145,-106.445,-119.141,-149.414,-186.523
1678025464.042,-155.762,-117.676,-92.773,-91.309,-220.215
1678025464.046,-53.711,-107.910,-89.355,-40.527,-20.508
1678025464.050,-51.758,-104.980,-92.773,-49.805,156.738
1678025464.054,-164.551,-88.867,-113.770,-95.215,-54.688
1678025464.070,-212.891,-79.590,-108.398,-83.008,-163.086
1678025464.074,-134.277,-82.520,-82.031,-47.852,70.801
1678025464.078,-10.742,-70.801,-93.262,5.859,100.586
1678025464.082,-14.648,-65.430,-125.488,5.371,-17.090
1678025464.086,-138.672,-87.402,-125.977,-73.242,-130.371
1678025464.090,-186.523,-96.191,-114.746,-91.309,16.602
1678025464.094,-134.277,-105.469,-112.305,-69.336,102.051
1678025464.097,-44.434,-115.234,-108.887,-33.203,-83.984
1678025464.101,-17.090,-106.934,-111.328,-14.648,-56.152
1678025464.105,-120.117,-97.656,-100.098,-69.336,13.184
1678025464.109,-193.848,-95.215,-100.098,-135.742,-182.129
1678025464.113,-138.672,-102.051,-102.539,-110.352,-284.180
1678025464.114,-49.316,-104.492,-111.328,-49.316,-162.598
1678025464.118,-21.973,-118.652,-137.695,-36.621,-11.230
1678025464.122,-104.980,-127.930,-164.062,-81.055,-104.004
1678025464.126,-199.707,-122.559,-153.320,-135.742,-224.609
1678025464.130,-176.758,-134.766,-124.023,-138.672,-109.375
1678025464.134,-69.824,-147.461,-117.188,-86.914,-10.742
1678025464.138,-36.133,-156.738,-125.488,-55.664,22.461
1678025464.141,-126.953,-180.176,-144.043,-86.426,-18.066
1678025464.145,-211.914,-181.641,-141.602,-125.488,-61.523
1678025464.149,-193.359,-162.598,-140.625,-133.789,142.578
1678025464.153,-98.145,-168.457,-141.113,-96.680,-18.066
1678025464.157,-10.742,-161.133,-129.883,-47.852,-51.758
1678025464.159,-71.777,-147.949,-143.555,-55.664,93.750
1678025464.163,-195.801,-159.668,-149.414,-117.676,17.090
1678025464.167,-165.527,-149.414,-135.742,-119.141,-161.621
1678025464.171,-59.082,-135.254,-148.926,-63.965,-130.371
1678025464.175,21.484,-135.742,-147.461,-36.133,188.477
1678025464.179,-54.199,-147.949,-134.277,-62.988,151.367
1678025464.183,-181.641,-145.508,-126.953,-137.207,-115.234
1678025464.186,-181.641,-136.230,-115.234,-158.203,-187.012
1678025464.190,-89.844,-145.020,-111.328,-84.961,97.168
1678025464.194,18.066,-147.949,-121.582,-22.461,233.887
1678025464.198,-21.973,-134.766,-141.113,-38.086,-66.406
1678025464.202,-150.391,-135.254,-144.043,-95.215,-208.496
1678025464.204,-156.250,-144.531,-128.906,-106.934,-202.148
1678025464.208,-52.246,-125.977,-134.766,-50.293,-135.254
1678025464.212,48.340,-119.629,-146.973,29.297,-52.734
1678025464.216,19.531,-128.906,-123.047,6.348,19.531
1678025464.220,-98.633,-133.789,-110.840,-86.914,-58.594
1678025464.224,-132.812,-146.484,-149.902,-115.234,-110.840
1678025464.228,-60.547,-139.648,-163.574,-69.336,-74.219
1678025464.231,42.480,-142.578,-161.621,-11.230,40.039
1678025464.235,41.504,-154.785,-159.668,4.395,266.602
1678025464.239,-78.125,-136.230,-133.301,-48.340,68.359
1678025464.243,-129.883,-116.211,-116.699,-106.934,-187.500
1678025464.247,-63.477,-110.840,-118.652,-76.660,-138.184
1678025464.249,31.250,-118.652,-122.559,-7.324,36.621
1678025464.253,58.105,-117.676,-119.629,10.742,22.461
1678025464.257,-30.762,-114.258,-114.746,-44.434,-153.809
1678025464.261,-118.164,-119.141,-120.605,-90.820,-144.043
1678025464.265,-80.078,-132.324,-155.273,-67.383,-145.020
1678025464.269,45.898,-136.230,-146.973,13.184,-58.105
1678025464.273,120.117,-115.234,-127.441,46.875,96.191
1678025464.276,5.371,-90.332,-122.559,-23.926,220.215
1678025464.280,-99.609,-88.379,-123.047,-87.891,-14.648
1678025464.284,-52.734,-74.707,-138.672,-77.148,-280.273
1678025464.288,38.574,-53.711,-135.254,-39.062,-139.648
1678025464.292,87.402,-43.457,-137.695,-5.371,115.723
1678025464.294,-8.789,-42.969,-155.762,-45.410,50.781
1678025464.298,-121.582,-49.316,-160.645,-103.027,-159.180
1678025464.302,-87.891,-44.434,-158.203,-105.957,-156.738
1678025464.306,20.508,-28.809,-168.945,-70.312,-36.133
1678025464.310,73.242,-28.320,-184.082,-21.484,-4.395
1678025464.314,6.348,-39.551,-165.039,-50.781,-18.555
1678025464.318,-108.398,-28.320,-135.254,-110.840,40.527
1678025464.321,-116.211,-24.414,-137.207,-114.258,29.785
1678025464.325,-4.883,-32.715,-131.836,-73.730,-78.613
1678025464.329,83.984,-34.668,-138.184,-20.020,-41.992
1678025464.333,26.855,-47.852,-148.438,-18.555,39.062
1678025464.337,-108.398,-44.434,-121.582,-65.918,-54.688
1678025464.340,-117.676,-23.926,-123.047,-91.797,-228.516
1678025464.344,-20.020,-25.391,-130.371,-50.781,-85.938
1678025464.348,54.688,-40.527,-127.441,-0.488,293.457
1678025464.352,20.996,-34.668,-130.371,-17.090,295.410
1678025464.356,-94.238,-29.297,-123.047,-77.637,-125.977
1678025464.360,-119.141,-41.504,-100.098,-81.543,-133.789
1678025464.364,-26.367,-41.016,-109.375,-25.391,198.730
1678025464.367,53.711,-36.133,-143.066,28.320,185.547
1678025464.371,34.668,-37.598,-116.211,26.855,-13.184
1678025464.375,-84.961,-41.016,-76.172,-15.625,-95.703
1678025464.379,-133.789,-43.945,-89.844,-34.668,-194.336
1678025464.383,-41.992,-45.410,-106.445,-12.695,-210.449
1678025464.386,58.594,-37.109,-102.539,25.879,-110.840
1678025464.390,36.133,-39.551,-106.445,36.621,17.090
1678025464.394,-89.355,-48.340,-104.004,-11.230,10.254
1678025464.398,-156.250,-53.223,-102.539,-30.762,-140.137
1678025464.402,-80.078,-65.430,-96.680,0.488,-181.641
1678025464.406,43.945,-65.918,-90.332,41.992,-22.949
1678025464.410,48.828,-61.523,-93.262,64.941,432.129
1678025464.413,-72.754,-56.641,-89.844,-5.859,154.297
1678025464.417,-127.930,-53.711,-104.980,-49.805,-297.363
1678025464.421,-61.523,-64.941,-116.211,-16.602,-194.824
1678025464.425,36.133,-64.453,-86.914,40.527,-26.367
1678025464.429,78.613,-47.363,-66.406,66.406,13.672
1678025464.444,-19.043,-43.457,-74.219,21.973,-115.234
1678025464.448,-109.375,-31.250,-65.430,-14.160,-54.199
1678025464.452,-75.195,-27.832,-58.594,-26.855,-109.863
1678025464.456,18.555,-41.504,-53.711,23.926,-184.082
1678025464.460,64.453,-33.691,-50.781,72.266,-120.605
1678025464.464,-7.324,-21.484,-57.129,41.992,166.504
1678025464.468,-98.145,-44.434,-64.453,-20.508,236.816
1678025464.471,-83.984,-60.547,-71.777,-23.926,-98.145
1678025464.475,4.395,-21.973,-37.598,12.695,-141.602
1678025464.479,80.566,11.230,-7.812,45.898,171.387
1678025464.483,21.484,-0.488,-20.020,-2.441,92.773
1678025464.487,-87.402,-10.254,-37.598,-40.527,-203.125
1678025464.490,-51.758,-18.555,-40.039,12.695,-228.516
1678025464.494,25.879,-17.578,-32.715,67.871,-146.973
1678025464.498,86.914,-12.207,-37.598,105.957,-30.273
1678025464.502,54.688,-10.254,-37.109,80.566,-56.152
1678025464.506,-64.941,-1.953,-35.645,12.695,-146.973
1678025464.510,-85.938,-12.695,-46.387,-8.301,-76.660
1678025464.514,12.695,-12.207,-53.711,19.043,-29.785
1678025464.517,89.844,-4.395,-41.504,57.617,-69.824
1678025464.521,50.781,-9.277,-39.551,52.246,134.766
1678025464.525,-74.707,-17.578,-48.340,2.441,223.145
1678025464.529,-107.910,-22.461,-38.086,-23.438,-143.555
1678025464.533,-1.953,-21.484,-33.691,0.977,-243.164
1678025464.534,104.492,-22.949,-49.316,62.012,133.301
1678025464.538,51.270,-20.020,-39.062,65.430,464.844
1678025464.542,-85.938,-17.578,-29.297,-33.691,24.414
1678025464.546,-109.375,-21.973,-39.062,-77.148,-306.152
1678025464.550,-46.875,-21.973,-39.551,-5.859,-214.355
1678025464.554,51.758,-8.789,-45.410,63.477,22.949
1678025464.558,56.641,-9.277,-65.430,16.113,67.383
1678025464.561,-72.754,-12.695,-69.824,-23.926,-149.414
1678025464.565,-109.863,-6.836,-44.922,-21.973,-25.879
1678025464.569,-32.715,-2.930,-41.016,3.906,19.043
1678025464.573,73.242,2.930,-61.035,63.965,-111.816
1678025464.577,89.355,3.418,-59.570,54.199,26.367
1678025464.579,-36.621,2.930,-48.828,-25.879,-115.723
1678025464.583,-134.766,-4.395,-51.270,-44.922,-292.969
1678025464.587,-57.129,-4.883,-53.711,10.742,-250.000
1678025464.591,55.176,20.508,-36.621,60.547,-52.734
1678025464.595,66.895,15.625,-29.297,60.547,191.406
1678025464.599,-52.734,-4.883,-39.551,-17.090,76.660
1678025464.603,-145.508,14.160,-36.133,-62.988,-112.793
1678025464.606,-90.332,36.621,-29.785,-43.457,-86.914
1678025464.610,21.484,34.668,-33.691,4.395,183.594
1678025464.614,86.914,42.480,-37.598,43.457,113.770
1678025464.618,0.000,51.270,-34.668,0.000,-72.266
1678025464.622,-135.742,28.809,-33.203,-72.754,-117.676
1678025464.625,-97.168,20.996,-48.828,-60.547,-212.402
1678025464.629,20.508,18.066,-42.969,-15.625,-83.008
1678025464.633,55.176,40.039,-19.043,10.742,125.977
1678025464.637,-38.574,61.035,-15.625,13.184,235.840
1678025464.641,-146.484,40.527,-9.766,-45.410,141.602
1678025464.645,-126.953,37.109,-26.855,-77.148,-119.141
1678025464.649,-16.113,43.945,-33.691,-44.434,-102.051
1678025464.652,41.992,48.340,-15.625,-9.766,203.125
1678025464.656,-47.852,58.594,-25.879,-63.965,182.129
1678025464.660,-151.367,53.223,-37.598,-132.812,-173.828
1678025464.664,-139.648,46.387,-39.551,-124.023,-269.043
1678025464.668,-46.387,60.547,-31.250,-85.449,-145.996
1678025464.669,43.945,60.059,-32.715,-32.227,-53.711
1678025464.673,1.953,41.504,-33.691,-51.758,-75.195
1678025464.677,-123.535,44.922,-20.508,-99.121,-147.949
1678025464.681,-130.371,57.129,-23.926,-98.633,-117.188
1678025464.685,-38.574,56.152,-32.715,-67.383,-72.266
1678025464.689,45.410,54.688,-41.016,-27.832,-41.992
1678025464.693,20.508,62.988,-25.879,-31.738,87.891
1678025464.696,-106.445,62.988,-11.719,-73.730,269.043
1678025464.700,-136.719,53.223,-18.066,-101.074,-24.414
1678025464.704,-45.410,54.688,-28.320,-72.266,-266.602
1678025464.708,39.551,56.641,-33.203,-11.719,-87.402
1678025464.712,10.254,55.176,-26.855,-19.043,-3.418
1678025464.714,-116.699,55.176,-13.184,-90.332,-145.020
1678025464.718,-170.410,50.781,0.488,-111.816,-231.934
1678025464.722,-113.770,46.875,-0.977,-69.824,-34.180
1678025464.726,9.277,56.152,-1.465,-13.672,48.340
1678025464.730,19.043,52.734,-1.953,-4.883,-29.785
1678025464.734,-101.562,49.316,-18.066,-46.875,-22.461
1678025464.738,-125.488,57.129,-20.996,-49.316,123.047
1678025464.741,-73.242,60.547,-18.066,-38.086,67.383
1678025464.745,9.766,65.918,-28.809,-32.715,-157.227
1678025464.749,48.828,65.430,-28.809,5.371,-30.762
1678025464.753,-92.285,69.824,-20.508,-43.457,121.582
1678025464.757,-169.434,73.730,-21.484,-118.652,-154.297
1678025464.759,-104.004,74.707,-26.367,-86.426,-297.363
1678025464.763,-14.160,80.078,-23.438,-31.250,-108.398
1678025464.767,40.039,78.613,-14.648,8.789,41.992
1678025464.771,-48.340,83.496,-17.090,-41.504,-52.246
1678025464.775,-142.090,75.195,-14.648,-78.125,-234.863
1678025464.779,-87.891,70.801,-18.066,-46.875,-63.965
1678025464.783,15.137,82.031,-35.156,-9.277,185.547
1678025464.786,59.082,80.078,-47.363,14.648,-5.371
1678025464.790,-16.113,77.637,-29.785,-22.461,-110.352
1678025464.794,-132.324,78.125,0.977,-77.637,-73.242
1678025464.798,-143.555,82.031,8.301,-80.078,-131.348
1678025464.802,-47.363,82.520,2.930,-30.273,-201.660
1678025464.820,46.387,82.520,-12.695,12.207,-44.922
1678025464.824,-17.578,89.355,-12.207,-8.301,218.262
1678025464.828,-150.391,85.938,-3.418,-64.453,63.965
1678025464.832,-142.090,85.938,-12.207,-80.078,-226.562
1678025464.836,-23.926,101.074,-40.039,-25.879,-173.828
1678025464.840,65.430,109.375,-36.133,26.855,79.590
1678025464.844,-5.371,91.797,-14.648,-14.160,111.328
1678025464.847,-143.555,94.238,2.930,-90.332,-124.512
1678025464.851,-148.438,110.352,-21.973,-88.379,-181.641
1678025464.855,-63.965,100.098,-38.574,-39.062,79.590
1678025464.859,35.156,99.121,-0.977,0.977,162.109
1678025464.863,17.090,104.492,1.465,-15.137,40.039
1678025464.853,-128.418,91.309,-14.160,-87.402,-86.914
1678025464.857,-184.570,75.684,-25.391,-101.562,-148.926
1678025464.861,-101.074,72.754,-31.738,-53.711,-177.246
1678025464.865,12.207,87.891,-43.945,1.953,-81.055
1678025464.869,8.301,97.656,-44.922,-18.555,61.523
1678025464.873,-125.488,89.355,-20.020,-91.797,73.242
1678025464.877,-178.223,85.449,-9.277,-134.277,-104.004
1678025464.880,-96.680,87.891,-16.113,-104.492,-297.363
1678025464.884,14.160,92.285,-9.766,-27.344,-78.613
1678025464.888,27.344,104.492,-4.395,-12.207,326.660
1678025464.892,-89.844,109.375,-2.930,-80.566,-3.418
1678025464.896,-168.457,97.656,0.977,-110.840,-304.688
1678025464.909,-102.051,101.074,-10.742,-75.195,-138.184
1678025464.913,9.277,106.934,-16.602,-26.367,48.340
1678025464.917,27.344,96.191,-10.254,-23.438,104.004
1678025464.921,-78.125,74.707,-9.766,-74.219,-75.684
1678025464.925,-154.297,78.613,-8.789,-99.609,36.621
1678025464.929,-93.750,93.750,-12.207,-74.219,252.441
1678025464.933,4.883,97.656,0.977,-41.016,26.855
1678025464.936,47.852,105.469,3.906,-10.254,23.926
1678025464.940,-47.852,104.492,-16.602,-56.152,174.316
1678025464.944,-162.598,92.285,-16.602,-117.676,-34.180
1678025464.948,-129.395,88.867,-6.348,-90.820,-205.078
1678025464.952,-18.555,98.633,-5.859,-37.598,-141.113
1678025464.954,45.898,103.027,2.441,-8.789,-47.852
1678025464.958,-37.109,110.840,9.277,-40.039,-21.484
1678025464.962,-126.465,126.465,-0.488,-96.680,-126.953
1678025464.966,-86.426,134.766,-9.277,-91.797,-111.328
1678025464.970,-12.207,118.652,-8.301,-48.828,58.594
1678025464.974,45.410,101.562,-7.812,-14.160,81.543
1678025464.978,-10.742,114.258,-0.488,-31.738,-40.527
1678025464.981,-119.141,127.441,21.484,-85.449,-74.707
1678025464.985,-117.188,118.652,27.344,-95.215,65.430
1678025464.989,-14.160,125.977,2.930,-62.500,-110.840
1678025464.993,60.059,128.418,9.766,-26.367,-126.953
1678025464.997,-23.438,105.957,32.227,-29.785,42.480
1678025464.999,-148.926,82.520,11.719,-106.934,-122.070
1678025465.003,-137.207,85.449,22.461,-131.348,-238.281
1678025465.007,-52.734,121.582,32.227,-86.426,-198.730
1678025465.011,24.902,130.371,15.625,-47.363,51.758
1678025465.015,11.719,127.930,16.602,-56.641,89.355
1678025465.019,-144.043,122.070,2.441,-131.348,-136.719
1678025465.023,-172.852,128.418,0.488,-154.785,-262.695
1678025465.026,-45.410,139.648,8.301,-79.590,126.953
1678025465.030,36.621,136.230,18.555,-27.344,315.918
1678025465.034,6.348,130.859,28.320,-48.340,-19.043
1678025465.038,-114.746,124.023,15.137,-108.887,-158.203
1678025465.042,-157.715,114.258,11.719,-145.996,-174.316
1678025465.044,-94.727,99.609,17.090,-125.977,-196.289
1678025465.048,11.230,88.867,20.508,-75.684,-143.555
1678025465.052,-8.301,90.332,23.926,-69.336,-38.086
1678025465.056,-138.672,104.492,15.137,-150.391,-104.980
1678025465.060,-203.125,106.934,18.066,-181.152,-234.375
1678025465.064,-143.555,104.980,16.113,-134.277,-199.219
1678025465.068,-29.785,108.887,18.555,-62.988,3.418
1678025465.071,-7.812,110.352,19.043,-65.918,333.008
1678025465.075,-120.117,97.168,21.973,-137.695,95.703
1678025465.079,-181.641,96.680,21.973,-162.598,-284.668
1678025465.083,-144.043,119.141,-0.977,-146.484,-129.395
1678025465.087,-46.387,122.559,8.789,-102.051,5.859
1678025465.090,-4.395,99.121,8.301,-68.848,-54.688
1678025465.094,-112.305,88.867,6.836,-140.137,-14.160
1678025465.098,-201.660,105.469,38.086,-186.523,-71.777
1678025465.102,-164.062,106.445,38.574,-146.484,-157.715
1678025465.106,-45.898,99.121,15.625,-91.797,-121.582
1678025465.110,11.230,109.375,21.973,-54.688,60.059
1678025465.114,-76.172,117.188,32.715,-94.727,329.102
1678025465.117,-163.574,122.559,16.602,-142.578,131.348
1678025465.121,-142.090,120.605,8.789,-144.043,-271.484
1678025465.125,-40.039,117.676,5.371,-85.449,-172.363
1678025465.129,36.133,137.207,19.531,-24.902,51.758
1678025465.133,-38.086,131.348,35.156,-70.801,-41.992
1678025465.134,-163.086,115.723,19.531,-155.762,-222.168
1678025465.138,-154.297,116.211,-1.465,-140.137,-236.816
1678025465.142,-65.430,100.586,-29.785,-84.961,-120.117
1678025465.146,20.020,115.234,-18.555,-30.762,-41.992
1678025465.150,-15.625,134.277,33.691,-52.246,25.879
1678025465.154,-151.367,135.742,46.387,-123.047,19.043
1678025465.158,-161.621,127.441,20.996,-109.863,23.926
1678025465.161,-64.453,117.676,25.391,-69.824,-33.203
1678025465.165,25.391,113.281,27.344,-35.156,-5.859
1678025465.169,-33.691,115.234,20.020,-35.156,88.379
1678025465.173,-155.762,110.352,17.090,-94.238,-54.688
1678025465.177,-157.227,101.562,8.789,-101.562,-237.305
1678025465.194,-93.750,108.887,-4.883,-67.871,-129.395
1678025465.198,-0.488,107.422,-6.348,-31.250,127.930
1678025465.202,-19.531,93.750,-0.488,-41.992,166.504
1678025465.206,-142.090,105.957,2.441,-87.402,-127.930
1678025465.210,-152.344,123.047,16.602,-83.496,-205.078
1678025465.214,-81.055,124.023,14.160,-53.711,19.531
1678025465.218,1.465,116.211,2.441,-22.461,86.426
1678025465.221,-6.348,110.840,-4.883,-25.391,1.953
1678025465.225,-138.184,106.934,-14.648,-80.566,-142.578
1678025465.229,-182.617,104.980,-5.859,-99.121,-17.578
1678025465.233,-107.910,99.609,4.883,-89.844,-10.254
1678025465.237,8.789,101.562,8.301,-42.480,-132.324
1678025465.239,27.832,106.445,-1.465,-7.812,-27.344
1678025465.243,-122.559,99.609,-3.418,-78.613,-59.570
1678025465.247,-207.520,108.398,11.230,-131.836,-186.523
1678025465.251,-132.324,106.934,17.090,-83.008,-189.941
1678025465.255,-20.996,99.609,21.973,-22.949,-32.227
1678025465.259,-5.859,91.797,22.949,-28.809,249.512
1678025465.263,-104.004,73.730,20.020,-55.176,125.977
1678025465.266,-196.289,73.730,17.090,-97.656,-157.715
1678025465.270,-161.621,67.383,16.602,-107.910,-146.484
1678025465.274,-62.988,49.805,22.949,-49.316,125.977
1678025465.278,-8.301,44.434,22.461,-20.996,64.941
1678025465.282,-97.656,45.410,28.320,-61.035,-73.730
1678025465.284,-232.422,37.598,27.344,-124.512,-117.676
1678025465.288,-201.660,26.367,23.926,-111.328,-163.574
1678025465.292,-61.523,23.926,34.668,-33.203,-149.414
1678025465.296,30.273,25.391,44.922,23.926,7.324
1678025465.300,-51.758,33.203,51.270,-9.277,176.270
1678025465.304,-190.918,44.434,45.410,-94.727,-48.340
1678025465.308,-192.383,31.738,41.016,-96.680,-187.500
1678025465.311,-73.242,17.578,39.062,-26.855,-17.578
1678025465.315,4.883,17.090,35.645,32.715,297.852
1678025465.319,-47.852,6.836,32.227,-10.254,312.988
1678025465.323,-167.480,6.836,25.879,-92.285,-132.812
1678025465.327,-178.711,31.738,18.555,-87.891,-271.973
1678025465.329,-82.520,44.922,22.461,-38.574,-86.426
1678025465.333,0.977,35.156,30.762,1.953,-7.812
1678025465.337,-27.832,18.555,21.973,-3.418,-77.148
1678025465.341,-163.574,20.020,6.348,-69.336,-116.699
1678025465.345,-173.340,36.133,-1.953,-93.750,-195.312
1678025465.349,-75.195,41.016,3.418,-46.875,-110.840
1678025465.353,2.930,41.992,12.207,-5.859,58.594
1678025465.356,-20.996,47.363,10.254,-18.066,134.277
1678025465.360,-143.066,51.758,3.906,-81.055,219.727
1678025465.364,-177.734,52.734,0.488,-114.258,-49.805
1678025465.368,-87.402,61.523,9.766,-64.941,-188.965
1678025465.372,25.391,72.754,15.625,12.207,0.977
1678025465.374,14.160,74.219,12.207,12.207,63.477
1678025465.378,-121.094,67.383,4.395,-68.359,-35.156
1678025465.382,-159.180,66.406,-5.371,-124.023,-163.574
1678025465.386,-85.938,67.383,-6.348,-72.754,-44.434
1678025465.390,0.000,58.105,-11.230,-11.719,63.965
1678025465.394,17.090,52.246,-10.254,-15.137,75.195
1678025465.398,-89.844,68.359,-3.418,-58.594,-2.930
1678025465.401,-171.387,80.566,-5.371,-94.238,76.172
1678025465.405,-101.074,74.707,-9.766,-91.797,47.852
1678025465.409,0.000,69.336,-20.020,-34.668,-100.586
1678025465.413,13.184,71.777,-24.902,-4.883,41.504
1678025465.417,-78.125,82.031,-27.832,-60.547,67.383
1678025465.434,-168.457,86.426,-20.020,-101.562,-220.215
1678025465.438,-134.766,80.078,-19.043,-99.121,-271.973
1678025465.442,-20.508,84.961,-36.621,-37.109,-100.098
1678025465.446,39.062,102.051,-30.273,7.812,41.992
1678025465.450,-41.504,96.191,-7.812,-50.781,33.203
1678025465.454,-145.996,88.379,2.441,-122.070,-149.902
1678025465.458,-113.770,97.168,9.766,-94.727,-138.184
1678025465.461,-11.719,96.680,3.906,-23.926,68.359
1678025465.465,12.695,81.543,-11.230,-14.160,30.273
1678025465.469,-60.547,76.172,-28.809,-53.711,-96.191
1678025465.473,-152.832,76.660,-18.066,-104.492,-159.180
1678025465.477,-130.859,74.707,-2.441,-90.332,-106.445
1678025465.465,-17.090,78.125,-19.043,-34.668,-67.383
1678025465.469,43.457,84.473,-43.457,-10.742,7.324
1678025465.473,-37.598,78.125,-41.992,-39.551,209.473
1678025465.477,-155.762,67.383,-32.715,-86.426,123.047
1678025465.481,-153.809,65.430,-47.852,-109.863,-224.609
1678025465.485,-59.570,66.406,-61.523,-80.078,-97.656
1678025465.489,25.879,69.336,-56.641,-23.926,186.035
1678025465.492,-20.020,70.312,-39.551,-41.016,21.484
1678025465.496,-134.277,74.219,-21.484,-114.746,-288.086
1678025465.500,-160.156,89.355,-16.602,-138.184,-287.598
1678025465.504,-71.289,95.703,-19.043,-99.121,59.082
1678025465.508,29.297,83.008,-35.156,-55.176,129.883
1678025465.524,-18.066,72.266,-42.480,-49.805,-38.086
1678025465.528,-145.996,60.547,-39.551,-104.004,-171.875
1678025465.532,-159.180,44.922,-41.504,-130.859,-166.016
1678025465.536,-70.801,56.152,-37.109,-83.008,-105.957
1678025465.540,41.016,82.520,-57.129,-38.086,-99.121
1678025465.544,29.297,85.449,-28.809,-45.410,107.422
1678025465.548,-124.512,80.566,-0.977,-110.352,303.223
1678025465.551,-168.457,81.055,-18.555,-139.160,0.000
1678025465.555,-87.891,70.312,-20.508,-98.145,-285.156
1678025465.559,11.719,62.500,-28.809,-41.992,-69.336
1678025465.563,11.719,62.012,-47.363,-22.949,67.871
1678025465.567,-120.605,60.059,-58.594,-107.910,-115.723
1678025465.569,-170.898,62.988,-45.898,-163.574,-283.691
1678025465.573,-108.887,59.570,-34.180,-122.070,-116.211
1678025465.577,-16.602,47.852,-39.551,-66.406,38.086
1678025465.581,17.578,43.457,-27.832,-44.922,-75.195
1678025465.585,-109.863,37.598,-20.996,-88.379,-148.438
1678025465.589,-191.895,42.969,-27.344,-140.625,-42.969
1678025465.593,-125.000,51.270,-54.199,-123.535,-58.594
1678025465.596,0.000,33.691,-63.965,-39.062,-55.176
1678025465.600,31.738,33.203,-42.480,-32.227,45.410
1678025465.604,-107.422,49.805,-25.879,-98.145,205.566
1678025465.608,-205.078,47.852,-21.973,-144.043,8.789
1678025465.612,-164.551,24.414,-47.363,-145.508,-252.930
1678025465.614,-73.730,-0.488,-62.988,-107.422,-106.445
1678025465.618,-23.438,-3.906,-65.430,-56.641,31.738
1678025465.622,-109.863,17.578,-72.266,-85.449,-44.922
1678025465.626,-209.961,30.762,-47.852,-158.691,-175.293
1678025465.630,-165.039,35.156,-32.715,-138.184,-160.645
1678025465.634,-68.359,18.066,-37.109,-84.473,3.418
1678025465.638,-10.254,-3.418,-42.969,-64.453,122.559
1678025465.641,-74.219,5.859,-61.035,-96.191,5.859
1678025465.645,-202.637,-7.324,-72.266,-153.809,-106.445
1678025465.649,-189.941,-12.695,-47.852,-144.531,145.508
1678025465.653,-80.566,-3.906,-42.480,-108.398,22.461
1678025465.657,-8.789,-7.324,-59.570,-81.055,-57.129
1678025465.659,-66.895,0.977,-66.406,-80.078,111.328
1678025465.663,-187.500,10.742,-63.965,-146.973,-91.309
1678025465.667,-167.969,13.184,-59.570,-167.480,-265.137
1678025465.671,-64.941,17.578,-62.988,-102.051,-160.645
1678025465.675,7.324,21.973,-60.547,-61.035,153.320
1678025465.679,-31.738,15.625,-55.176,-71.289,188.477
1678025465.683,-160.645,5.859,-71.289,-127.441,-61.035
1678025465.686,-210.449,-15.137,-64.453,-162.598,-227.539
1678025465.690,-119.141,-18.066,-53.223,-113.770,-30.273
1678025465.694,-8.301,-5.371,-82.520,-42.480,191.406
1678025465.698,-29.297,10.254,-92.285,-41.504,8.789
1678025465.702,-159.180,20.996,-62.012,-111.816,-117.188
1678025465.704,-200.684,4.883,-42.480,-136.230,-84.473
1678025465.708,-117.676,-3.418,-45.410,-97.168,-214.355
1678025465.712,-4.395,7.324,-55.664,-54.199,-170.410
1678025465.716,-16.113,-1.465,-52.734,-49.805,-14.160
1678025465.720,-136.719,-16.113,-48.340,-113.770,-136.719
1678025465.724,-184.082,-15.625,-50.293,-135.742,-205.566
1678025465.728,-89.355,-12.207,-60.547,-97.656,-164.551
1678025465.731,14.648,-16.113,-88.379,-59.082,-13.672
1678025465.735,15.625,-42.480,-83.984,-21.484,270.508
1678025465.739,-100.098,-29.785,-50.781,-62.988,1.465
1678025465.743,-180.176,-22.461,-47.363,-123.047,-284.180
1678025465.747,-130.859,-40.527,-57.129,-111.328,-185.547
1678025465.749,-16.602,-13.184,-69.824,-47.363,-38.086
1678025465.753,39.551,8.789,-62.500,-1.465,108.398
1678025465.757,-40.527,12.207,-48.828,-24.902,-10.742
1678025465.761,-135.254,13.672,-72.266,-61.523,-11.719
1678025465.765,-132.324,-1.465,-100.586,-69.824,17.578
1678025465.769,-33.691,-20.996,-79.590,-36.133,-58.105
1678025465.773,28.809,-13.184,-44.434,11.230,93.750
1678025465.776,-70.801,-4.883,-39.551,-41.992,192.383
1678025465.780,-168.457,-20.996,-39.551,-138.672,-3.906
1678025465.784,-122.070,-19.531,-37.109,-104.004,-299.805
1678025465.788,-12.695,-6.836,-80.078,-30.762,-198.730
1678025465.792,74.219,-2.441,-73.242,25.879,26.855
1678025465.795,-14.648,15.137,-46.875,-17.090,-27.832
1678025465.799,-164.551,6.348,-62.012,-120.605,-191.895
1678025465.803,-173.828,-27.832,-33.691,-143.066,-59.082
1678025465.807,-82.031,-34.668,-28.320,-91.797,113.770
1678025465.811,25.391,-16.602,-61.523,-1.465,104.980
1678025465.815,2.930,-5.859,-54.199,-10.742,71.289
1678025465.819,-130.371,-0.977,-14.160,-105.469,40.039
1678025465.822,-155.273,-4.395,-4.395,-106.934,143.066
1678025465.826,-35.645,9.766,-7.812,-51.758,-41.992
1678025465.830,66.895,33.691,-14.648,3.906,-82.031
1678025465.834,20.020,20.996,-19.043,-1.953,37.109
1678025465.838,-115.723,19.531,-23.438,-81.055,-92.285
1678025465.839,-149.902,38.086,-42.480,-101.074,-260.254
1678025465.843,-46.387,22.949,-35.645,-44.434,-214.844
1678025465.847,59.570,5.371,-1.953,8.789,123.535
1678025465.851,42.480,-1.465,-3.418,27.832,144.531
1678025465.855,-83.984,17.090,-41.016,-20.996,-95.215
1678025465.859,-131.348,22.949,-16.602,-77.637,-188.477
1678025465.863,-29.297,6.836,52.734,-29.785,88.867
1678025465.866,68.359,0.977,50.293,21.484,375.488
1678025465.870,45.410,10.254,9.277,-0.488,104.980
1678025465.874,-62.012,29.297,-15.625,-46.875,-94.727
1678025465.878,-129.883,3.906,-16.113,-95.215,-177.734
1678025465.882,-74.707,-11.719,-18.066,-69.824,-244.141
1678025465.884,57.617,3.906,-18.555,16.602,-98.633
1678025465.888,90.332,19.531,20.996,38.086,33.203
1678025465.892,-35.645,16.602,24.902,-38.574,-83.496
1678025465.896,-95.215,7.812,24.902,-65.918,-234.375
1678025465.900,-14.160,24.414,57.129,-14.648,-242.676
1678025465.904,64.453,16.602,60.059,28.809,43.457
1678025465.908,97.168,-5.859,40.039,43.945,263.672
1678025465.911,-7.812,-15.137,30.762,-14.160,20.508
1678025465.915,-123.047,-18.555,28.809,-79.590,-268.066
1678025465.919,-66.895,-16.113,31.250,-55.664,-190.918
1678025465.923,66.895,2.930,38.574,13.672,97.656
1678025465.927,126.953,-4.883,34.668,54.688,29.297
1678025465.944,22.949,-20.996,-0.977,16.113,-120.117
1678025465.948,-58.594,40.527,20.508,-15.137,-60.059
1678025465.952,-30.273,43.945,51.270,3.418,-38.574
1678025465.956,12.695,-11.719,13.672,-2.930,-86.914
1678025465.960,48.340,-30.273,-11.230,5.371,30.762
1678025465.964,-24.414,-29.785,-2.441,-19.531,107.910
1678025465.968,-90.820,-12.207,38.086,-40.039,-81.055
1678025465.971,-28.809,17.090,60.547,-14.160,-205.078
1678025465.975,43.945,11.719,32.715,-0.977,-153.320
1678025465.979,109.863,8.789,31.738,38.086,258.301
1678025465.983,39.062,-4.395,25.391,11.230,259.766
1678025465.987,-88.379,-33.203,17.578,-53.223,-221.191
1678025465.989,-57.617,-19.531,33.203,-28.320,-321.777
1678025465.993,29.785,-9.766,40.527,4.395,-170.410
1678025465.997,94.727,-12.695,33.691,21.973,-68.848
1678025466.001,44.434,-8.789,29.785,11.230,-61.035
1678025466.005,-78.613,-27.832,29.297,-37.109,-151.367
1678025466.009,-68.848,-34.180,3.906,-37.598,-209.473
1678025466.013,38.574,-34.180,-21.484,7.812,-125.977
1678025466.016,118.164,-22.949,17.090,71.289,22.949
1678025466.020,83.008,-7.324,4.883,69.336,115.723
1678025466.024,-51.270,-24.414,2.441,5.371,205.566
1678025466.028,-75.195,-25.391,40.039,-14.648,-93.262
1678025466.032,17.578,-30.273,44.922,17.090,-225.586
1678025466.034,104.980,-41.016,35.645,66.895,124.023
1678025466.038,99.121,-33.691,11.230,61.523,261.719
1678025466.042,-44.922,-53.223,2.930,-17.090,-62.500
1678025466.046,-114.258,-70.801,16.113,-41.016,-215.332
1678025466.050,-23.438,-51.270,0.977,9.766,-113.770
1678025466.054,69.336,-50.293,-12.207,36.133,-31.250
1678025466.058,63.965,-49.805,-11.719,2.930,-4.883
1678025466.061,-23.926,-40.527,-11.230,-37.109,-91.797
1678025466.065,-69.824,-49.316,-16.113,-50.293,-60.059
1678025466.069,-16.602,-64.453,-18.066,-24.902,-79.102
1678025466.073,66.406,-44.434,-20.020,52.246,-136.230
1678025466.077,76.172,-18.555,-24.414,51.758,-6.348
1678025466.080,-20.508,-30.762,-15.137,-42.480,-54.199
1678025466.084,-98.633,-46.875,1.953,-104.492,-207.031
1678025466.088,-55.664,-60.547,-8.789,-66.895,-226.074
1678025466.092,55.176,-67.383,-37.109,-11.230,-63.477
1678025466.096,86.426,-54.688,-30.762,-21.973,136.230
1678025466.100,-40.527,-51.270,-26.855,-67.383,59.570
1678025466.104,-115.723,-57.617,-29.297,-120.605,-172.363
1678025466.107,-86.914,-73.242,-18.066,-142.578,-103.027
1678025466.111,4.883,-78.125,-27.832,-7.324,179.199
1678025466.115,99.609,-64.941,-38.574,78.613,42.480
1678025466.119,6.348,-65.918,-17.090,-19.043,-53.711
1678025466.123,-117.676,-53.711,-33.203,-124.023,-83.008
1678025466.124,-80.566,-43.945,-68.848,-122.559,-189.941
1678025466.128,13.184,-55.664,-58.105,-39.551,-136.719
1678025466.132,87.891,-73.730,-60.547,16.113,20.020
1678025466.136,31.250,-91.797,-57.129,-12.695,132.812
1678025466.140,-68.359,-86.426,-26.367,-53.711,-27.832
1678025466.144,-39.551,-62.012,-34.668,-41.016,-127.930
1678025466.148,25.391,-86.914,-62.012,-4.883,-19.531
1678025466.151,88.867,-122.559,-55.176,38.086,265.137
1678025466.155,60.059,-63.965,-56.641,28.320,328.613
1678025466.159,-77.637,-36.133,-27.832,-53.223,-111.816
1678025466.163,-111.328,-60.547,2.441,-84.473,-226.562
1678025466.167,-9.277,-70.312,-27.344,-23.438,-24.902
1678025466.169,80.566,-79.102,-31.250,20.020,28.320
1678025466.173,24.902,-78.125,1.465,-21.484,-82.031
1678025466.177,-99.121,-83.496,2.930,-89.355,-132.324
1678025466.181,-122.070,-83.984,4.883,-75.195,-211.914
1678025466.185,-35.645,-84.473,1.465,-22.949,-197.266
1678025466.189,58.105,-82.520,-16.113,4.395,-48.828
1678025466.193,35.156,-74.219,-17.090,-0.977,125.000
1678025466.196,-75.195,-84.961,-1.953,-38.086,334.961
1678025466.200,-131.348,-96.191,-3.418,-70.801,10.742
1678025466.204,-57.129,-87.891,-14.648,-47.852,-234.863
1678025466.208,72.266,-72.754,-13.184,2.930,-48.828
1678025466.212,67.383,-75.195,2.441,10.742,0.000
1678025466.214,-51.758,-92.773,-0.488,-41.016,-101.074
1678025466.218,-91.797,-100.098,-38.086,-52.734,-138.184
1678025466.222,-35.645,-104.492,-16.113,-23.438,17.578
1678025466.226,48.828,-105.469,25.391,-13.184,89.844
1678025466.230,67.383,-92.773,19.531,-2.441,-2.930
1678025466.234,-39.062,-92.773,0.000,-41.504,9.277
1678025466.238,-126.465,-106.445,-6.836,-70.312,44.434
1678025466.241,-56.641,-106.445,-0.977,-12.207,-82.031
1678025466.245,97.168,-101.562,-0.977,49.805,-105.957
1678025466.249,109.375,-89.355,-30.762,35.645,64.941
1678025466.253,-65.430,-72.266,-42.969,-58.594,65.430
1678025466.257,-177.246,-82.031,-26.367,-126.953,-183.105
1678025466.259,-134.277,-79.590,-27.832,-102.539,-273.926
1678025466.263,-28.320,-84.961,-61.035,-44.434,-77.637
1678025466.267,32.227,-106.445,-40.527,-23.438,66.895
1678025466.271,-52.734,-113.281,8.789,-54.688,-2.930
1678025466.275,-163.574,-114.746,-7.812,-99.609,-137.207
1678025466.279,-129.883,-108.398,-26.367,-97.168,-45.410
1678025466.283,-23.926,-91.797,-12.207,-40.527,207.520
1678025466.286,30.762,-96.680,-3.418,9.277,105.469
1678025466.290,-34.180,-100.098,-12.695,-22.461,-96.680
1678025466.294,-147.949,-100.098,-19.043,-78.125,-154.785
1678025466.298,-157.227,-114.746,-16.113,-79.590,-155.273
1678025466.302,-60.547,-130.371,-13.672,-57.617,-108.887
1678025466.319,39.062,-120.605,-13.184,-3.418,51.270
1678025466.323,-10.254,-106.934,-30.273,-16.602,225.098
1678025466.327,-142.578,-84.473,-28.809,-60.547,81.055
1678025466.331,-155.762,-87.402,-12.207,-74.219,-238.281
1678025466.335,-51.758,-116.699,-25.391,-57.617,-217.285
1678025466.339,13.184,-121.094,-32.227,-25.879,82.520
1678025466.343,-50.781,-124.023,-29.297,-18.555,186.523
1678025466.346,-158.691,-119.629,-32.227,-65.918,-140.137
1678025466.350,-157.715,-112.305,-26.855,-92.285,-267.090
1678025466.354,-58.105,-114.258,-13.184,-27.344,125.977
1678025466.358,21.973,-117.676,-27.344,23.438,145.020
1678025466.362,-19.043,-106.445,-42.480,-7.812,-62.500
1678025466.364,-161.621,-105.957,-51.758,-59.570,-119.141
1678025466.368,-178.223,-116.699,-77.637,-79.102,-164.551
1678025466.372,-80.078,-145.508,-64.453,-50.781,-181.152
1678025466.376,22.949,-151.367,-40.039,14.160,-83.008
1678025466.380,31.250,-118.652,-41.992,40.527,82.031
1678025466.384,-124.512,-123.047,-46.875,-50.293,114.746
1678025466.388,-182.617,-128.418,-47.363,-103.516,-72.266
1678025466.391,-88.867,-117.676,-47.852,-55.664,-214.844
1678025466.395,30.762,-130.371,-30.273,5.371,12.207
1678025466.399,50.781,-112.793,2.930,37.109,306.152
1678025466.403,-73.730,-93.262,0.488,-26.855,0.488
1678025466.407,-146.484,-98.633,-31.250,-82.520,-267.578
1678025466.409,-86.914,-96.680,-47.852,-59.570,-161.621
1678025466.413,22.949,-103.516,-43.945,-21.484,-28.320
1678025466.417,58.105,-116.699,-40.527,-7.324,-15.625
1678025466.421,-59.082,-129.395,-28.320,-52.246,-134.766
1678025466.425,-131.836,-135.254,-25.391,-82.031,-25.879
1678025466.429,-75.684,-101.562,-48.340,-74.707,86.914
1678025466.433,-7.812,-101.074,-50.781,-31.738,-28.809
1678025466.436,32.227,-115.234,-23.438,1.953,14.160
1678025466.440,-36.133,-110.352,-25.879,-45.898,155.762
1678025466.444,-142.090,-129.883,-34.668,-85.449,-73.242
1678025466.448,-114.258,-131.348,-40.527,-70.312,-371.094
1678025466.452,6.836,-117.676,-60.059,-39.062,-195.801
1678025466.454,77.637,-120.117,-57.617,7.812,47.852
1678025466.458,-6.836,-128.418,-45.898,-9.766,-38.086
1678025466.462,-135.742,-117.676,-43.457,-74.219,-231.445
1678025466.466,-134.766,-106.934,-40.527,-74.219,-283.203
1678025466.470,-20.020,-116.211,-31.738,-14.160,-83.984
1678025466.474,67.383,-119.141,-22.949,20.020,51.758
1678025466.478,-14.648,-114.258,-38.574,-20.020,29.297
1678025466.481,-137.695,-130.859,-79.590,-78.613,-15.625
1678025466.485,-141.602,-124.512,-76.172,-99.121,88.867
1678025466.489,-57.129,-126.465,-45.410,-70.801,-19.531
1678025466.493,34.668,-137.695,-39.551,-21.973,-97.656
1678025466.497,5.371,-119.629,-38.574,-36.133,-32.715
1678025466.499,-120.605,-123.047,-35.645,-97.656,-204.102
1678025466.503,-180.664,-129.883,-63.965,-102.539,-323.242
1678025466.507,-67.871,-121.094,-71.777,-55.664,-257.812
1678025466.511,61.523,-140.625,-49.805,15.137,92.285
1678025466.515,19.531,-138.672,-73.242,-12.207,122.070
1678025466.519,-120.605,-126.465,-55.176,-105.469,-102.051
1678025466.523,-147.461,-131.348,-34.668,-118.164,-78.613
1678025466.526,-41.504,-123.535,-69.824,-60.059,114.258
1678025466.530,36.621,-122.070,-63.477,-34.668,204.102
1678025466.534,-17.578,-136.719,-48.828,-59.570,4.395
1678025466.538,-128.418,-133.301,-75.684,-107.910,-114.258
1678025466.542,-162.109,-116.211,-61.523,-114.258,-39.551
1678025466.560,-62.988,-99.121,-5.371,-77.637,-117.188
1678025466.564,56.152,-103.516,10.742,-27.344,-104.492
1678025466.568,20.996,-125.488,-27.344,-30.762,12.207
1678025466.572,-95.703,-121.094,-43.457,-73.242,-3.906
1678025466.576,-122.070,-120.117,-38.574,-100.098,-175.293
1678025466.580,-48.340,-117.188,-39.062,-77.148,-262.207
1678025466.584,5.371,-119.629,-34.180,-30.273,24.414
1678025466.587,14.648,-118.652,-37.109,-5.859,387.207
1678025466.591,-88.379,-121.094,-43.945,-63.965,17.090
1678025466.595,-154.297,-128.418,-42.969,-97.656,-278.320
1678025466.599,-80.078,-120.117,-45.410,-64.453,-89.844
1678025466.603,27.832,-113.770,-23.438,-19.531,-21.973
1678025466.589,49.316,-127.930,-34.180,11.719,16.602
1678025466.593,-56.152,-142.578,-55.176,-44.922,11.230
1678025466.597,-154.785,-134.766,2.441,-87.402,-38.086
1678025466.601,-101.562,-138.672,-18.066,-68.359,-89.844
1678025466.605,9.277,-122.070,-83.496,-37.109,-198.730
1678025466.609,42.480,-90.820,-36.133,-1.465,-21.973
1678025466.613,-48.828,-89.355,6.348,-28.809,159.180
1678025466.616,-144.531,-101.074,10.742,-79.590,-134.766
1678025466.620,-111.328,-108.398,6.348,-74.707,-350.586
1678025466.624,-8.301,-112.793,-22.461,-28.320,-205.566
1678025466.628,60.059,-117.188,-32.715,11.230,225.586
1678025466.632,-1.953,-119.141,-18.555,-13.184,216.309
1678025466.635,-117.188,-110.840,-14.160,-69.336,-199.707
1678025466.639,-104.004,-104.004,-11.719,-80.566,-183.594
1678025466.643,3.906,-107.422,-26.855,-40.039,-55.176
1678025466.647,94.238,-101.562,-21.973,13.184,-85.938
1678025466.651,31.250,-102.051,-14.648,3.418,-108.398
1678025466.655,-98.145,-110.840,-27.832,-61.035,-62.012
1678025466.659,-96.191,-101.562,-23.438,-65.430,-54.688
1678025466.662,3.418,-110.352,-16.602,3.418,-105.957
1678025466.666,91.309,-126.465,-30.273,44.434,-70.801
1678025466.670,54.199,-111.328,-40.527,20.508,43.945
1678025466.674,-73.242,-112.305,-41.992,-32.715,74.219
1678025466.678,-109.375,-119.141,-8.789,-43.457,-205.078
1678025466.694,-29.297,-114.258,2.930,-11.230,-215.820
1678025466.698,65.430,-130.371,-39.551,35.645,213.867
1678025466.702,47.852,-118.164,-48.828,35.645,249.023
1678025466.706,-59.570,-83.008,-30.273,-45.410,-20.020
1678025466.710,-129.883,-80.078,-41.016,-80.078,-231.934
1678025466.714,-64.453,-94.238,-44.434,-36.621,-12.695
1678025466.718,63.477,-87.891,-24.414,23.926,278.809
1678025466.721,71.777,-91.309,-35.645,36.133,96.191
1678025466.725,-54.688,-132.324,-66.406,-33.203,-79.590
1678025466.729,-140.625,-128.418,-53.223,-77.637,-35.645
1678025466.733,-86.914,-105.469,-60.547,-56.152,-112.793
1678025466.737,44.922,-105.957,-100.586,-0.977,-141.113
1678025466.739,75.195,-103.516,-77.637,14.160,-21.484
1678025466.743,-40.527,-101.074,-46.387,-34.180,-24.414
1678025466.747,-129.395,-104.004,-40.527,-83.496,-229.980
1678025466.751,-77.637,-111.816,-35.156,-49.316,-254.883
1678025466.755,43.945,-105.957,-36.133,0.977,-65.918
1678025466.759,60.059,-88.867,-27.832,-6.836,76.660
1678025466.763,-31.250,-68.848,-6.836,-28.320,89.355
1678025466.766,-121.094,-79.102,-11.719,-79.102,-63.477
1678025466.770,-96.191,-103.516,-28.320,-75.684,-83.984
1678025466.774,8.301,-100.586,-34.180,0.488,286.133
1678025466.778,54.688,-96.191,-22.949,15.625,182.617
1678025466.782,-30.762,-105.469,-14.160,-38.086,-145.020
1678025466.784,-127.441,-109.375,-17.578,-80.566,-121.094
1678025466.788,-96.191,-111.328,-26.855,-54.199,-126.465
1678025466.792,2.441,-117.676,-35.645,-20.508,-168.945
1678025466.796,66.895,-116.699,-35.645,-8.301,-62.988
1678025466.800,-4.395,-122.559,-34.180,-30.762,103.516
1678025466.804,-101.074,-118.164,-34.180,-60.059,75.684
1678025466.808,-89.844,-110.840,-26.367,-50.781,-110.352
1678025466.811,-8.301,-112.793,-35.156,-24.414,-154.297
1678025466.815,85.449,-102.051,-34.668,26.367,217.285
1678025466.819,38.574,-97.168,-10.254,10.742,334.473
1678025466.823,-78.613,-96.680,-11.719,-51.270,-100.098
1678025466.827,-72.754,-109.375,-31.250,-61.035,-202.148
1678025466.829,29.785,-112.305,-36.621,-34.180,-86.426
1678025466.833,96.680,-87.402,-36.621,8.789,-46.387
1678025466.837,36.621,-76.172,-39.062,2.930,-99.609
1678025466.841,-81.055,-91.309,-36.133,-44.434,-213.867
1678025466.845,-94.727,-89.844,-49.805,-55.176,-248.047
1678025466.849,-18.066,-87.891,-58.594,-29.785,-119.629
1678025466.853,83.008,-105.469,-37.109,23.926,22.949
1678025466.856,70.312,-110.840,-42.480,17.090,93.750
1678025466.860,-58.105,-102.051,-52.246,-29.785,215.332
1678025466.864,-98.145,-111.328,-31.738,-52.734,-68.359
1678025466.868,-34.180,-119.629,-34.668,-36.621,-237.305
1678025466.872,68.359,-115.234,-34.668,7.324,-0.977
1678025466.874,90.820,-111.816,-33.691,17.578,126.465
1678025466.878,-42.969,-118.652,-46.387,-29.297,-35.645
1678025466.882,-105.957,-127.930,-53.711,-64.453,-226.562
1678025466.886,-20.996,-104.004,-35.645,-18.066,-69.824
1678025466.890,75.684,-91.309,-26.855,29.785,107.422
1678025466.894,83.984,-83.984,-20.508,22.949,129.883
1678025466.898,-29.785,-74.219,-3.906,-25.391,7.812
1678025466.901,-101.074,-84.473,-10.254,-40.527,28.320
1678025466.905,-36.133,-102.051,-18.066,-5.371,-5.371
1678025466.909,96.191,-107.910,-9.766,51.270,-109.375
1678025466.913,140.137,-112.305,-13.672,89.355,51.758
1678025466.917,34.180,-101.562,-25.391,46.387,96.191
1678025466.922,-67.383,-84.473,-19.043,-17.090,-37.109
1678025466.926,-4.395,-94.727,-30.762,3.418,-189.941
1678025466.930,111.328,-98.633,-26.367,67.871,-58.105
1678025466.934,141.602,-92.773,-17.578,85.938,196.289
1678025466.938,22.949,-96.680,-28.809,38.574,52.246
1678025466.942,-106.445,-109.375,-21.484,-20.996,-101.562
1678025466.946,-57.129,-99.121,-18.555,1.953,-28.320
1678025466.949,85.449,-75.195,-11.230,79.102,266.602
1678025466.953,133.789,-98.145,-20.508,88.379,162.109
1678025466.957,35.645,-91.797,-19.531,36.621,-46.387
1678025466.961,-75.195,-58.105,-10.254,-4.395,-111.816
1678025466.965,-45.898,-52.246,-21.973,-5.859,-208.008
1678025466.965,70.801,-62.012,-28.320,55.176,-130.371
1678025466.969,156.738,-86.914,-26.855,129.395,75.195
1678025466.973,86.426,-78.613,-22.949,121.094,208.008
1678025466.977,-66.406,-61.523,-20.020,44.434,27.832
1678025466.981,-97.656,-76.660,-11.230,3.906,-270.508
1678025466.985,23.438,-87.402,-10.254,46.387,-205.566
1678025466.989,172.852,-79.102,-13.672,119.629,245.117
1678025466.992,131.348,-60.547,-7.812,126.465,459.473
1678025466.996,-37.109,-47.363,-7.324,31.738,39.062
1678025467.000,-66.406,-50.781,-25.879,-7.324,-259.766
1678025467.004,43.457,-60.059,-35.156,53.223,-189.941
1678025467.008,174.805,-62.012,-22.461,127.441,-117.188
1678025467.039,153.320,-55.664,-23.438,112.793,-73.242
1678025467.043,-10.254,-48.828,-27.344,34.668,-169.434
1678025467.047,-49.316,-45.410,-10.742,29.297,-237.793
1678025467.051,55.664,-38.574,-26.367,75.195,-188.477
1678025467.055,174.805,-44.922,-41.992,120.117,-100.586
1678025467.059,150.391,-52.734,-5.859,118.652,127.930
1678025467.063,-0.977,-45.898,-15.625,52.734,220.703
1678025467.066,-60.059,-43.945,-25.879,10.742,-147.949
1678025467.070,6.348,-44.922,-5.859,39.551,-278.809
1678025467.074,139.648,-44.434,-1.465,79.590,7.812
1678025467.078,158.691,-39.551,-7.324,89.844,162.598
1678025467.082,11.230,-28.809,-19.043,46.875,-98.145
1678025467.069,-85.938,-44.922,-15.625,-13.672,-202.637
1678025467.073,-6.836,-52.734,-21.484,16.113,3.418
1678025467.077,130.371,-42.969,-37.598,83.008,97.656
1678025467.081,160.645,-48.340,-31.738,73.730,0.488
1678025467.085,45.898,-43.945,-23.926,39.551,-85.449
1678025467.089,-68.848,-29.297,-16.113,18.555,43.457
1678025467.093,-28.809,-23.438,-12.207,34.668,38.086
1678025467.096,101.562,-29.785,-18.066,74.707,2.441
1678025467.100,173.828,-33.691,-17.090,90.820,91.797
1678025467.104,64.453,-32.227,-19.043,72.754,23.926
1678025467.108,-60.547,-42.480,-19.043,31.250,-202.637
1678025467.112,-21.484,-41.504,-20.020,10.742,-282.715
1678025467.114,113.281,-33.203,-9.277,88.379,-144.043
1678025467.118,182.129,-29.297,-11.230,146.973,325.684
1678025467.122,70.801,-18.555,-36.133,93.750,302.734
1678025467.126,-37.109,-9.277,-39.062,33.691,-210.449
1678025467.130,-18.555,-7.812,-34.668,17.090,-267.090
1678025467.134,94.727,-3.418,-18.555,84.473,-8.301
1678025467.138,180.664,-4.395,-9.766,109.375,170.410
1678025467.141,60.059,-15.137,-29.297,44.434,22.949
1678025467.145,-78.613,-11.719,-28.320,-16.602,-177.246
1678025467.149,-48.828,-8.789,-20.020,-0.488,66.895
1678025467.153,79.590,-15.137,-29.297,69.336,-22.461
1678025467.157,179.688,-12.207,-27.344,126.465,-114.258
1678025467.159,79.102,-11.230,-35.156,52.246,70.312
1678025467.163,-79.590,-12.207,-49.316,-26.367,16.113
1678025467.167,-97.656,-8.789,-54.688,-20.996,-203.613
1678025467.171,12.695,-9.277,-55.664,4.395,-225.098
1678025467.175,163.086,3.418,-59.570,80.078,96.680
1678025467.179,116.211,7.812,-61.523,84.473,236.328
1678025467.183,-68.848,1.953,-58.105,-20.020,-62.500
1678025467.186,-110.352,8.789,-39.551,-59.570,-293.457
1678025467.190,0.977,3.418,-30.273,-5.371,-13.672
1678025467.194,106.445,-1.465,-32.715,48.340,133.789
1678025467.198,80.078,8.789,-28.809,43.457,-86.426
1678025467.202,-77.148,7.324,-29.297,-32.227,-182.617
1678025467.204,-127.930,6.836,-34.180,-80.078,-169.922
1678025467.208,-24.414,23.438,-39.551,-32.227,-202.637
1678025467.212,83.496,27.344,-51.270,23.438,-104.492
1678025467.216,71.777,24.902,-49.316,36.621,19.043
1678025467.220,-61.035,32.227,-44.922,-36.133,-60.547
1678025467.224,-128.418,30.762,-38.574,-57.129,-201.172
1678025467.228,-55.664,31.738,-42.480,-13.672,-184.570
1678025467.231,71.777,23.438,-48.828,5.371,7.324
1678025467.235,113.281,8.789,-54.688,49.316,339.844
1678025467.239,0.000,26.367,-33.203,31.738,100.098
1678025467.243,-80.078,40.527,-16.602,-30.762,-268.555
1678025467.247,-59.570,23.926,-46.875,-52.246,-208.496
1678025467.250,43.945,29.297,-59.082,0.977,-102.051
1678025467.254,104.492,50.293,-44.922,57.129,29.297
1678025467.258,-16.113,44.434,-34.668,3.418,34.180
1678025467.262,-130.371,31.250,-24.414,-60.547,-58.594
1678025467.266,-73.730,28.809,-28.320,-42.480,-64.941
1678025467.270,56.152,30.273,-39.551,16.602,-74.707
1678025467.274,110.352,33.691,-24.902,49.316,44.922
1678025467.277,-7.812,38.086,-18.066,20.508,208.984
1678025467.281,-153.320,31.738,-30.273,-32.227,27.344
1678025467.285,-107.422,30.762,-31.738,-36.133,-257.324
1678025467.289,42.480,53.711,-36.621,3.418,-168.945
1678025467.293,130.859,67.871,-21.484,42.480,55.664
1678025467.294,17.090,82.031,-3.906,11.230,23.438
1678025467.298,-145.996,85.449,-8.789,-55.664,-143.555
1678025467.302,-138.184,76.172,-1.953,-72.754,-227.051
1678025467.306,-4.395,76.660,6.836,-29.785,-191.895
1678025467.310,101.074,83.984,-2.441,17.578,-39.062
1678025467.314,27.832,80.566,-7.812,0.977,24.902
1678025467.318,-124.512,87.891,-17.090,-63.965,-58.594
1678025467.321,-127.441,97.168,-25.879,-66.895,131.348
1678025467.325,-30.762,88.379,-8.301,-41.016,24.414
1678025467.329,75.684,79.590,1.953,-7.324,-50.293
1678025467.333,18.555,88.379,0.977,-17.578,78.613
1678025467.337,-143.555,106.934,-2.930,-80.078,-110.352
1678025467.339,-157.715,111.816,3.906,-95.703,-173.828
1678025467.343,-60.547,108.887,10.742,-70.312,-30.273
1678025467.347,55.176,116.211,-0.488,-20.996,122.070
1678025467.351,24.414,125.000,6.348,-27.832,156.738
1678025467.355,-145.996,123.535,4.883,-95.703,-82.520
1678025467.359,-193.359,125.977,10.742,-116.211,-229.492
1678025467.363,-86.914,135.742,35.156,-75.684,44.434
1678025467.366,57.129,157.715,31.250,-19.043,258.301
1678025467.370,63.965,170.898,26.855,-20.508,47.363
1678025467.374,-97.656,182.129,47.852,-76.660,-81.055
1678025467.378,-159.668,184.570,64.941,-82.031,-50.293
1678025467.382,-82.031,171.387,52.246,-63.965,-187.988
1678025467.384,51.270,183.594,50.293,-17.578,-158.203
1678025467.388,81.543,176.758,75.684,0.488,-13.672
1678025467.392,-56.152,176.758,73.730,-46.875,-47.852
1678025467.396,-125.000,214.844,63.477,-85.938,-190.918
1678025467.400,-64.453,241.699,72.266,-84.961,-229.004
1678025467.404,17.090,241.699,80.078,-59.570,10.742
1678025467.408,36.621,231.934,70.312,-33.691,255.371
1678025467.411,-81.055,234.863,64.453,-65.430,-21.484
1678025467.415,-179.199,236.328,56.641,-107.422,-291.016
1678025467.419,-147.461,241.699,51.758,-106.445,-83.008
1678025467.423,-31.250,237.305,47.363,-44.434,140.625
1678025467.427,31.738,232.422,45.410,-4.395,13.184
1678025467.444,-77.637,235.352,49.805,-72.754,-73.242
1678025467.448,-187.500,225.098,54.688,-116.211,-119.141
1678025467.452,-173.828,229.980,42.969,-98.633,-194.336
1678025467.456,-51.758,250.488,22.461,-67.871,-208.984
1678025467.460,22.949,238.281,29.785,-46.387,-74.219
1678025467.464,-65.430,230.957,54.199,-73.242,111.328
1678025467.468,-207.031,245.117,63.477,-142.090,-43.945
1678025467.471,-209.473,250.488,63.965,-163.574,-272.461
1678025467.475,-98.633,256.348,78.613,-120.605,-177.734
1678025467.479,-12.207,261.719,83.984,-68.848,195.312
1678025467.483,-94.238,248.535,54.688,-101.562,136.719
1678025467.487,-238.281,232.422,45.410,-171.875,-174.805
1678025467.477,-227.051,231.934,47.363,-176.758,-154.297
1678025467.481,-125.000,246.094,54.199,-123.047,3.906
1678025467.485,-37.598,246.582,69.824,-100.098,19.531
1678025467.489,-105.469,237.793,58.594,-130.371,-67.383
1678025467.493,-253.906,235.352,55.664,-196.289,-144.531
1678025467.497,-273.926,249.512,64.453,-226.562,-109.375
1678025467.501,-176.270,259.766,33.691,-190.430,-58.594
1678025467.504,-64.941,259.277,16.602,-149.902,-73.242
1678025467.508,-112.305,238.281,40.039,-158.691,21.973
1678025467.512,-265.137,241.699,56.152,-210.449,130.859
1678025467.516,-305.664,287.598,64.453,-239.258,-169.434
1678025467.520,-227.539,295.410,67.871,-216.797,-247.559
1678025467.535,-123.535,280.273,61.523,-179.199,23.926
1678025467.539,-135.742,281.738,45.410,-184.082,145.508
1678025467.543,-291.016,264.648,49.805,-259.766,-17.578
1678025467.547,-367.188,246.094,41.504,-301.270,-223.633
1678025467.551,-255.371,248.535,21.973,-241.211,-12.695
1678025467.555,-115.723,248.535,38.574,-163.574,314.453
1678025467.559,-125.977,252.441,49.316,-193.848,153.320
1678025467.562,-293.945,269.531,35.156,-279.785,-61.035
1678025467.566,-375.000,268.066,35.156,-299.316,-49.316
1678025467.570,-300.293,258.301,27.344,-281.738,-90.332
1678025467.574,-186.523,255.371,30.762,-246.094,-70.801
1678025467.578,-159.668,263.184,50.781,-233.887,74.707
1678025467.581,-299.805,280.762,54.688,-285.645,-51.270
1678025467.585,-392.578,295.410,58.105,-318.848,-255.859
1678025467.589,-315.430,293.457,51.270,-285.645,-285.645
1678025467.593,-186.035,288.574,54.688,-225.586,-170.410
1678025467.597,-143.555,281.250,55.664,-224.121,70.312
1678025467.601,-278.320,259.277,28.809,-296.387,81.055
1678025467.605,-423.340,249.512,15.625,-384.277,-73.730
1678025467.608,-380.371,245.117,-0.977,-411.621,-96.191
1678025467.612,-264.648,234.863,-11.230,-341.797,186.035
1678025467.616,-215.332,241.211,-22.949,-292.969,163.574
1678025467.620,-299.316,249.512,-29.785,-342.773,-51.270
1678025467.624,-443.359,248.047,7.324,-408.691,-191.895
1678025467.624,-428.223,253.906,0.488,-430.176,-252.441
1678025467.628,-301.270,267.090,-20.508,-401.367,-159.180
1678025467.632,-228.516,267.578,-4.883,-342.773,-2.441
1678025467.636,-321.289,248.047,-6.348,-359.863,103.516
1678025467.640,-461.426,237.793,-27.344,-440.430,-44.434
1678025467.644,-461.914,245.117,-40.039,-450.195,-158.691
1678025467.648,-363.770,236.816,-44.922,-408.691,-91.309
1678025467.651,-276.855,239.258,-51.270,-367.676,307.129
1678025467.655,-354.980,247.070,-55.664,-410.156,436.035
1678025467.659,-513.184,233.398,-60.059,-488.770,-119.141
1678025467.663,-527.832,229.492,-68.359,-491.211,-328.613
1678025467.667,-409.668,253.418,-50.293,-444.824,37.109
1678025467.671,-304.688,261.719,-38.574,-402.832,85.938
1678025467.675,-374.023,257.324,-32.227,-433.594,-66.406
1678025467.679,-525.391,263.184,-39.062,-509.277,-106.445
1678025467.683,-542.480,259.766,-52.246,-520.996,-199.219
1678025467.687,-442.871,271.484,-35.645,-457.520,-197.266
1678025467.691,-328.613,280.762,-29.297,-412.109,-42.969
1678025467.695,-346.680,278.320,-34.668,-436.035,144.043
1678025467.698,-514.160,279.785,-32.715,-513.184,215.332
1678025467.702,-579.590,271.973,-25.879,-544.434,-132.812
1678025467.706,-479.004,270.508,-18.555,-502.441,-308.594
1678025467.710,-365.234,271.484,-11.719,-435.547,-82.031
1678025467.714,-380.859,281.738,-10.254,-453.613,28.320
1678025467.714,-520.020,299.316,-15.625,-538.086,-88.379
1678025467.718,-588.867,302.734,-14.160,-555.664,-125.977
1678025467.722,-536.621,294.922,-32.227,-553.711,-109.375
1678025467.726,-420.410,302.246,-32.227,-500.000,-128.418
1678025467.730,-374.512,327.637,-16.602,-468.262,-67.871
1678025467.734,-523.438,313.965,-25.391,-549.805,-22.461
1678025467.738,-656.738,286.133,-40.527,-595.215,73.242
1678025467.741,-604.492,293.457,-45.410,-576.172,172.852
1678025467.745,-465.820,307.129,-47.852,-530.762,-17.090
1678025467.749,-426.270,311.035,-44.922,-514.160,-24.902
1678025467.753,-534.668,326.172,-26.367,-566.406,-15.137
1678025467.757,-632.812,336.426,-31.250,-612.793,-139.648
1678025467.761,-601.562,331.055,-34.668,-600.098,-294.922
1678025467.765,-472.656,340.820,-33.203,-535.645,-191.895
1678025467.769,-406.738,349.121,-35.156,-509.766,155.273
1678025467.773,-529.297,341.309,-22.461,-574.219,32.715
1678025467.777,-648.438,342.285,-33.203,-629.395,-194.824
1678025467.781,-609.863,354.980,-41.504,-604.004,-76.660
1678025467.785,-504.395,359.375,-14.648,-554.688,72.754
1678025467.788,-415.527,378.906,17.090,-520.996,77.148
1678025467.792,-470.215,409.180,20.020,-528.320,-25.879
1678025467.796,-613.770,395.996,13.184,-603.516,-88.867
1678025467.800,-625.488,380.371,4.883,-631.348,-96.191
1678025467.804,-510.742,386.230,-5.371,-574.219,-217.773
1678025467.805,-415.039,387.695,-8.789,-521.973,-100.098
1678025467.809,-498.047,385.254,-0.977,-543.945,111.328
1678025467.813,-642.090,393.066,17.090,-599.121,-21.973
1678025467.817,-645.508,389.160,16.113,-608.398,-273.926
1678025467.821,-540.527,393.555,-5.371,-576.172,-232.910
1678025467.825,-423.340,401.855,0.488,-527.832,187.500
1678025467.829,-492.188,392.090,10.742,-531.250,415.039
1678025467.832,-664.062,387.695,-17.090,-612.793,-51.758
1678025467.836,-689.941,389.160,-31.250,-654.785,-252.930
1678025467.840,-574.219,399.414,-17.578,-596.191,-67.383
1678025467.844,-454.102,416.992,-18.555,-542.969,-45.898
1678025467.848,-498.047,412.598,-23.926,-555.664,-113.770
1678025467.864,-645.508,402.832,-15.625,-612.793,-124.023
1678025467.868,-672.363,418.945,-11.230,-641.113,-217.773
1678025467.872,-576.172,428.223,-16.602,-593.750,-228.516
1678025467.876,-478.027,420.898,-19.043,-544.434,-125.000
1678025467.880,-497.559,419.434,-14.160,-544.922,31.250
1678025467.884,-624.023,434.082,-17.578,-595.703,167.480
1678025467.888,-675.781,446.289,-20.996,-636.230,-52.734
1678025467.891,-606.934,425.293,-14.160,-591.309,-239.258
1678025467.895,-488.770,407.715,-20.508,-540.039,-55.664
1678025467.899,-491.211,424.805,-28.320,-550.781,276.855
1678025467.903,-640.625,421.387,-8.789,-622.070,95.703
1678025467.907,-709.473,399.902,-16.602,-673.340,-167.969
1678025467.909,-634.766,404.297,-29.297,-645.508,-77.148
1678025467.913,-518.555,414.062,-18.555,-563.477,90.820
1678025467.917,-463.867,432.129,-18.066,-531.250,68.359
1678025467.921,-567.383,438.477,-6.348,-583.008,-59.570
1678025467.925,-668.457,414.551,4.883,-613.281,8.789
1678025467.929,-590.332,427.246,-14.648,-572.266,12.207
1678025467.933,-471.191,444.824,-38.086,-520.020,10.742
1678025467.936,-443.848,425.781,-24.414,-527.344,135.742
1678025467.940,-561.035,414.062,1.465,-576.172,280.762
1678025467.944,-683.594,413.574,6.836,-609.863,217.773
1678025467.948,-631.836,406.738,-7.812,-607.422,-194.824
1678025467.952,-498.047,419.922,-17.090,-542.969,-150.879
1678025467.954,-427.734,430.664,-7.324,-490.723,115.723
1678025467.958,-525.879,418.945,0.977,-544.434,-34.180
1678025467.962,-655.762,420.898,7.324,-594.238,-216.797
1678025467.966,-621.094,432.129,18.555,-585.938,-224.609
1678025467.970,-507.324,429.688,7.324,-544.922,-163.086
1678025467.974,-437.500,423.340,-7.324,-511.719,-6.348
1678025467.978,-509.277,428.711,0.488,-529.297,31.250
1678025467.981,-629.395,430.176,2.441,-604.492,-92.773
1678025467.985,-615.723,437.500,-10.254,-590.332,152.832
1678025467.989,-516.602,444.336,-15.625,-540.039,101.562
1678025467.993,-437.012,439.453,-15.625,-528.320,-84.473
1678025467.997,-488.281,445.801,2.441,-519.531,15.137
1678025467.999,-619.629,442.871,16.602,-581.055,-110.840
1678025468.003,-641.113,440.430,9.277,-603.027,-266.113
1678025468.007,-552.246,438.477,12.207,-552.246,-243.652
1678025468.011,-443.848,424.805,4.883,-509.766,14.160
1678025468.015,-485.840,441.895,-7.812,-535.156,60.059
1678025468.019,-606.934,470.703,-2.441,-599.121,-107.422
1678025468.023,-624.023,463.379,3.418,-586.426,-131.836
1678025468.026,-554.688,457.520,-0.488,-529.785,96.680
1678025468.030,-445.312,460.938,5.859,-509.766,172.852
1678025468.034,-459.473,446.289,14.160,-523.926,-32.227
1678025468.038,-573.242,443.848,25.879,-540.039,-61.035
1678025468.042,-602.051,457.031,41.504,-554.199,-74.707
1678025468.060,-529.785,453.125,43.945,-533.203,-208.496
1678025468.064,-420.410,444.824,42.969,-483.398,-185.547
1678025468.068,-397.949,448.242,38.086,-478.027,-88.379
1678025468.072,-505.859,465.820,31.250,-528.809,-136.719
1678025468.076,-595.215,476.074,37.109,-570.801,-246.094
1678025468.080,-554.688,471.680,43.945,-544.922,-178.711
1678025468.084,-448.730,459.473,40.039,-482.910,42.480
1678025468.087,-417.480,455.566,49.316,-469.238,313.965
1678025468.091,-500.000,460.449,56.641,-515.137,36.133
1678025468.095,-566.406,458.496,53.711,-553.711,-277.832
1678025468.099,-536.133,486.328,53.711,-539.062,-211.914
1678025468.103,-430.176,509.766,65.918,-489.258,-135.254
1678025468.090,-384.277,513.672,71.777,-455.078,-84.961
1678025468.094,-468.262,517.090,65.918,-463.867,-7.812
1678025468.098,-532.227,516.113,62.012,-482.422,116.211
1678025468.102,-490.723,515.625,74.219,-487.305,93.750
1678025468.106,-412.109,508.789,99.121,-455.078,-94.727
1678025468.110,-342.773,516.113,111.816,-412.598,33.203
1678025468.114,-421.387,536.133,101.074,-426.758,191.895
1678025468.117,-526.855,541.992,104.492,-458.984,-100.098
1678025468.121,-498.047,536.133,125.000,-463.379,-291.992
1678025468.125,-390.625,528.809,143.555,-438.477,-176.270
1678025468.129,-327.148,520.996,130.859,-440.430,234.863
1678025468.133,-417.480,508.789,95.215,-469.238,306.152
1678025468.150,-525.391,496.094,91.309,-511.719,-141.602
1678025468.154,-491.699,501.465,105.957,-513.184,-282.715
1678025468.158,-383.301,518.555,120.117,-461.914,-134.277
1678025468.162,-305.664,510.254,114.258,-422.852,83.008
1678025468.166,-362.793,486.328,102.539,-460.449,46.387
1678025468.170,-485.352,464.355,114.258,-528.809,-20.996
1678025468.174,-514.648,454.102,103.516,-524.902,193.848
1678025468.177,-428.223,449.219,77.148,-479.492,36.621
1678025468.181,-303.223,453.125,77.637,-446.289,-123.047
1678025468.185,-322.266,454.590,96.680,-449.219,-35.645
1678025468.189,-455.566,451.172,108.398,-484.375,-159.180
1678025468.193,-479.004,454.590,118.164,-481.445,-279.785
1678025468.194,-387.695,457.520,94.238,-446.777,-205.566
1678025468.198,-275.391,461.914,109.863,-410.156,120.117
1678025468.202,-323.242,456.055,133.301,-416.504,166.504
1678025468.206,-456.055,453.125,132.324,-476.074,-152.832
1678025468.210,-500.000,447.266,129.883,-493.164,-268.555
1678025468.214,-405.762,442.871,125.000,-425.293,-84.961
1678025468.218,-284.180,437.012,88.379,-356.934,139.160
1678025468.221,-310.059,408.691,52.246,-382.324,188.965
1678025468.225,-457.520,386.230,72.266,-458.496,28.809
1678025468.229,-529.297,395.508,99.609,-471.191,39.062
1678025468.233,-468.262,395.996,79.590,-473.633,220.703
1678025468.237,-339.844,375.000,59.570,-434.082,35.156
1678025468.241,-303.711,369.141,59.570,-379.395,-31.250
1678025468.245,-422.363,379.395,50.293,-397.949,-41.016
1678025468.249,-494.141,378.906,74.219,-433.105,-291.992
1678025468.253,-431.641,384.766,95.703,-411.621,-309.082
1678025468.257,-317.871,396.484,89.844,-381.348,-109.375
1678025468.261,-298.340,405.762,69.824,-359.863,85.449
1678025468.265,-420.410,420.898,59.082,-392.578,-6.348
1678025468.268,-501.465,429.688,69.336,-425.781,-192.383
1678025468.272,-434.570,421.875,48.340,-400.391,-130.371
1678025468.276,-305.664,413.086,54.199,-342.285,178.711
1678025468.280,-259.766,405.762,88.867,-334.961,102.539
1678025468.284,-366.211,397.949,80.566,-377.930,-120.117
1678025468.284,-495.605,402.344,70.801,-426.270,-138.184
1678025468.288,-465.820,428.711,55.176,-427.246,-185.059
1678025468.292,-326.172,446.289,63.477,-361.328,-238.770
1678025468.296,-238.770,454.102,68.848,-312.500,-123.047
1678025468.300,-326.172,442.383,63.477,-346.191,120.605
1678025468.304,-442.383,443.359,63.965,-394.043,144.043
1678025468.308,-440.918,450.684,56.641,-400.391,-142.090
1678025468.311,-351.562,435.547,65.430,-368.652,-195.312
1678025468.315,-270.508,416.504,75.684,-315.430,146.973
1678025468.319,-335.938,404.785,71.289,-315.918,363.770
1678025468.323,-476.562,402.344,47.852,-389.648,-70.312
1678025468.327,-471.191,396.973,39.062,-407.715,-274.902
1678025468.347,-352.539,379.395,48.340,-357.910,-49.805
1678025468.351,-227.051,370.605,44.434,-294.922,-36.621
1678025468.355,-277.344,396.484,31.738,-301.270,-91.309
1678025468.359,-451.172,399.902,56.152,-371.094,-158.203
1678025468.363,-477.539,383.789,90.820,-383.301,-218.750
1678025468.367,-353.516,382.812,84.473,-321.777,-75.684
1678025468.371,-234.863,376.465,68.359,-294.434,120.605
1678025468.374,-262.695,360.840,65.430,-312.012,226.562
1678025468.378,-411.133,363.770,66.406,-342.285,265.137
1678025468.382,-444.824,360.840,43.457,-367.188,-87.891
1678025468.386,-328.125,354.492,57.129,-330.078,-238.770
1678025468.390,-208.984,352.539,77.637,-260.742,-40.039
1678025468.375,-244.629,344.238,57.617,-270.996,124.512
1678025468.379,-411.133,324.219,65.430,-364.746,16.602
1678025468.383,-452.148,310.547,64.453,-385.742,-181.641
1678025468.387,-366.699,307.617,50.781,-335.938,-92.773
1678025468.391,-250.000,310.547,38.086,-290.527,-18.555
1678025468.395,-219.727,314.941,41.504,-285.156,5.371
1678025468.399,-330.078,321.777,77.148,-320.312,-17.578
1678025468.402,-402.344,310.059,79.590,-354.004,-80.566
1678025468.406,-358.887,288.086,39.062,-351.074,-204.590
1678025468.410,-245.117,272.461,11.230,-280.762,-171.387
1678025468.414,-207.520,264.160,20.020,-253.418,-13.672
1678025468.418,-333.008,258.301,33.203,-329.102,183.105
1678025468.422,-442.383,268.555,33.203,-360.352,225.098
1678025468.426,-385.742,282.715,40.039,-334.961,-87.891
1678025468.430,-269.043,261.230,37.598,-295.410,-95.215
1678025468.434,-223.145,241.211,38.086,-266.113,110.840
1678025468.438,-311.523,229.980,28.809,-299.316,-78.613
1678025468.442,-433.105,232.910,33.203,-354.004,-232.422
1678025468.446,-401.367,250.977,51.270,-337.402,-131.348
1678025468.449,-276.367,259.766,69.824,-262.695,234.375
1678025468.453,-186.523,258.301,68.848,-234.375,233.398
1678025468.457,-264.648,251.953,55.176,-280.273,-32.227
1678025468.461,-382.324,250.977,54.199,-323.730,-76.172
1678025468.465,-365.234,242.676,50.293,-305.176,-165.039
1678025468.464,-255.859,234.375,44.922,-270.020,-189.453
1678025468.468,-166.504,230.957,38.574,-230.957,-9.766
1678025468.472,-253.418,220.215,50.781,-243.164,95.703
1678025468.476,-395.508,215.332,61.523,-302.734,-96.191
1678025468.480,-366.699,217.773,59.082,-307.129,-230.957
1678025468.484,-256.836,217.773,47.852,-267.090,-187.988
1678025468.488,-156.738,211.914,45.898,-232.422,214.355
1678025468.491,-223.633,209.961,56.641,-252.930,514.648
1678025468.495,-395.508,200.195,53.711,-336.914,36.621
1678025468.499,-408.203,189.941,43.457,-337.891,-304.199
1678025468.503,-308.594,160.156,-5.371,-270.996,-207.031
1678025468.507,-227.539,118.652,-25.879,-290.527,-125.977
1678025468.509,-298.340,104.980,-20.996,-333.984,-131.836
1678025468.513,-473.145,102.051,-35.645,-397.949,-220.703
1678025468.517,-491.211,101.074,-32.227,-412.109,-284.180
1678025468.521,-366.211,109.863,-18.555,-371.582,-172.363
1678025468.525,-255.371,118.164,-25.391,-317.383,-18.066
1678025468.529,-288.574,108.887,-45.898,-307.617,152.344
1678025468.533,-412.598,112.305,-16.113,-372.070,200.195
1678025468.536,-446.289,133.301,7.812,-391.113,-46.387
1678025468.540,-385.254,131.836,-4.395,-357.422,-182.617
1678025468.544,-269.531,119.629,-9.766,-305.176,-13.184
1678025468.548,-253.418,102.539,2.441,-281.738,212.402
1678025468.552,-364.258,98.145,11.719,-338.379,-25.879
1678025468.569,-395.508,119.141,7.812,-367.676,-265.137
1678025468.573,-357.422,137.207,-3.906,-330.078,-40.039
1678025468.577,-260.254,147.949,-0.488,-284.668,101.562
1678025468.581,-218.262,158.203,4.883,-280.273,-11.719
1678025468.585,-346.680,156.250,0.000,-316.406,-98.145
1678025468.589,-406.250,157.227,3.418,-327.637,-95.215
1678025468.593,-312.012,173.828,8.301,-300.293,-55.176
1678025468.596,-185.547,174.316,0.488,-254.883,-112.305
1678025468.600,-171.875,166.992,5.859,-222.656,-62.012
1678025468.604,-307.129,152.832,14.648,-257.812,192.383
1678025468.608,-402.832,147.949,-11.230,-317.383,44.922
1678025468.612,-337.891,157.227,-3.418,-317.383,-259.766
1678025468.614,-203.125,162.109,25.879,-261.719,-146.484
1678025468.618,-145.020,157.715,21.973,-219.238,48.828
1678025468.622,-224.609,164.551,31.250,-242.188,-44.434
1678025468.626,-317.383,194.824,44.434,-274.414,-209.473
1678025468.630,-296.875,209.473,51.758,-244.141,-167.969
1678025468.634,-183.105,195.801,42.480,-220.703,-10.254
1678025468.638,-108.887,178.711,4.883,-198.242,139.160
1678025468.641,-220.703,162.109,0.488,-226.562,-1.953
1678025468.645,-342.285,155.762,20.508,-287.598,-94.727
1678025468.649,-300.781,184.570,4.883,-253.418,116.699
1678025468.653,-181.641,202.637,16.113,-206.055,-4.883
1678025468.657,-95.703,210.449,49.805,-171.875,-114.746
1678025468.659,-169.922,216.797,41.504,-199.219,123.535
1678025468.663,-301.270,210.449,26.855,-262.207,56.641
1678025468.667,-288.086,187.500,23.926,-279.297,-238.281
1678025468.671,-212.402,167.969,19.043,-248.535,-214.844
1678025468.675,-146.973,175.293,27.832,-195.312,59.570
1678025468.679,-188.477,195.312,29.297,-216.797,138.672
1678025468.683,-312.988,204.590,40.527,-281.738,-20.020
1678025468.686,-328.125,198.730,45.410,-289.062,-148.438
1678025468.690,-231.934,182.617,16.113,-250.488,63.477
1678025468.694,-115.723,165.527,4.883,-200.684,124.512
1678025468.698,-147.949,167.969,-5.859,-221.191,-63.477
1678025468.702,-314.453,195.312,-16.113,-287.109,-169.922
1678025468.705,-355.469,204.590,9.766,-290.527,-264.648
1678025468.709,-255.371,197.266,18.555,-253.906,-213.867
1678025468.713,-143.066,195.312,19.043,-196.289,-74.707
1678025468.717,-137.207,205.078,8.789,-183.594,23.926
1678025468.721,-278.809,208.008,-19.043,-255.859,17.090
1678025468.725,-355.469,208.008,-16.113,-288.574,-125.488
1678025468.729,-278.320,202.148,17.578,-255.859,-193.359
1678025468.732,-147.461,187.500,27.832,-214.355,-11.230
1678025468.736,-146.484,188.477,26.855,-208.496,272.461
1678025468.740,-286.621,189.941,25.391,-256.836,-22.461
1678025468.744,-368.652,191.895,12.207,-303.223,-322.754
1678025468.748,-296.875,194.336,3.418,-277.344,-223.633
1678025468.749,-164.062,193.359,8.789,-219.727,-81.543
1678025468.753,-137.207,195.801,5.859,-195.801,-11.230
1678025468.757,-279.785,191.895,-4.883,-244.141,-83.008
1678025468.761,-378.906,180.176,2.930,-289.062,-102.051
1678025468.765,-314.941,185.059,5.371,-275.879,-112.793
1678025468.769,-189.941,197.754,8.789,-220.703,-87.891
1678025468.773,-126.953,192.383,6.348,-183.594,15.625
1678025468.776,-247.070,183.105,-11.719,-232.910,220.703
1678025468.780,-388.184,179.688,-25.879,-294.434,225.586
1678025468.784,-340.332,176.758,-34.180,-301.270,-151.855
1678025468.788,-208.496,169.434,-25.391,-238.281,-107.910
1678025468.792,-144.531,173.828,-10.254,-197.266,107.422
1678025468.809,-226.562,177.246,-13.672,-238.281,-5.859
1678025468.813,-335.449,167.969,-11.230,-275.391,-236.328
1678025468.817,-327.637,173.340,-0.488,-266.113,-271.973
1678025468.821,-220.703,190.918,3.906,-223.145,-136.230
1678025468.825,-121.094,200.684,6.836,-173.340,-26.855
1678025468.829,-178.711,203.613,10.254,-189.941,13.184
1678025468.833,-316.406,189.453,14.648,-254.395,-75.195
1678025468.836,-324.219,175.781,13.184,-274.414,101.074
1678025468.840,-226.074,173.340,8.301,-233.398,88.867
1678025468.844,-125.977,174.316,6.348,-187.500,-37.109
1678025468.848,-171.875,185.059,11.719,-199.707,20.020
1678025468.852,-319.824,185.059,19.043,-263.672,-137.695
1678025468.839,-303.711,176.270,18.066,-262.695,-276.855
1678025468.843,-187.500,170.898,12.695,-217.773,-131.836
1678025468.847,-85.938,170.410,11.230,-176.270,124.023
1678025468.851,-156.738,166.992,9.766,-199.707,156.250
1678025468.855,-330.078,163.086,-2.441,-276.367,-133.301
1678025468.859,-354.492,166.016,-11.719,-278.809,-169.922
1678025468.863,-252.930,162.598,-13.672,-246.582,64.453
1678025468.866,-120.117,152.344,-20.996,-219.727,40.039
1678025468.870,-136.230,139.648,-19.531,-217.285,-5.371
1678025468.874,-300.293,133.301,-19.531,-262.695,-46.387
1678025468.878,-351.074,130.859,-23.926,-287.598,71.289
1678025468.882,-261.230,134.277,-25.879,-240.723,114.746
1678025468.884,-144.531,137.695,-40.039,-187.988,-8.301
1678025468.888,-133.301,143.066,-33.203,-204.590,2.441
1678025468.892,-263.184,154.785,-24.414,-257.324,-88.379
1678025468.896,-317.871,148.438,-28.809,-283.203,-244.629
1678025468.900,-263.184,129.883,-31.738,-270.996,-261.719
1678025468.904,-181.641,123.047,-37.109,-230.957,69.336
1678025468.908,-149.902,120.605,-46.875,-218.750,371.094
1678025468.911,-264.648,123.047,-51.270,-287.598,28.809
1678025468.915,-353.027,134.766,-48.340,-318.848,-245.117
1678025468.919,-301.758,146.484,-51.270,-282.715,-177.734
1678025468.923,-192.871,149.902,-68.848,-231.445,-58.594
1678025468.927,-144.531,155.762,-76.172,-204.590,36.133
1678025468.930,-250.488,162.598,-44.434,-241.211,-54.688
1678025468.934,-369.141,161.621,-28.809,-289.062,-92.285
1678025468.938,-334.473,149.414,-36.133,-281.250,48.340
1678025468.942,-210.938,145.020,-40.527,-227.539,-84.961
1678025468.946,-143.555,164.062,-58.105,-195.312,-84.473
1678025468.950,-230.469,172.363,-40.039,-226.074,35.156
1678025468.954,-348.633,168.457,-33.203,-285.156,-129.883
1678025468.957,-331.055,160.156,-67.383,-292.480,-248.047
1678025468.961,-222.656,137.207,-73.242,-251.465,-146.484
1678025468.965,-147.461,133.301,-68.359,-219.727,176.270
1678025468.969,-245.117,130.371,-64.941,-257.812,121.582
1678025468.973,-382.812,123.047,-65.430,-311.523,-238.281
1678025468.992,-354.492,136.719,-71.777,-300.781,-292.480
1678025468.996,-227.539,147.461,-53.711,-250.000,-135.254
1678025469.000,-132.812,148.438,-47.363,-224.609,67.383
1678025469.004,-203.125,146.484,-51.758,-260.742,-47.852
1678025469.008,-344.238,141.113,-52.734,-308.594,-119.141
1678025469.012,-351.562,139.160,-52.246,-299.805,0.977
1678025469.016,-239.746,130.371,-66.406,-254.395,-52.734
1678025469.019,-115.234,136.719,-68.359,-217.773,-60.547
1678025469.023,-157.227,149.414,-42.969,-235.840,15.625
1678025469.027,-320.801,146.973,-40.039,-278.809,58.105
1678025469.031,-361.328,141.602,-58.105,-286.133,-194.824
1678025469.035,-261.719,135.742,-67.871,-270.020,-308.105
1678025469.034,-153.809,132.324,-66.895,-232.910,-99.609
1678025469.038,-181.152,131.836,-56.641,-231.445,85.938
1678025469.042,-314.941,140.137,-36.621,-289.551,-111.328
1678025469.046,-353.027,150.879,-45.898,-318.848,-285.156
1678025469.050,-251.953,137.207,-60.547,-277.344,-26.367
1678025469.054,-139.160,128.418,-61.035,-223.145,133.789
1678025469.058,-159.668,126.953,-58.594,-221.191,13.672
1678025469.061,-306.152,128.418,-63.477,-280.762,-148.926
1678025469.065,-369.141,132.812,-67.871,-315.430,-69.336
1678025469.069,-293.945,133.789,-60.059,-282.227,182.617
1678025469.073,-167.480,141.113,-56.641,-234.863,39.551
1678025469.077,-141.113,141.113,-49.316,-219.238,-28.809
1678025469.079,-276.855,140.625,-46.387,-273.926,-80.078
1678025469.083,-343.750,141.602,-58.594,-311.035,-241.699
1678025469.087,-277.832,138.672,-62.988,-277.344,-245.605
1678025469.091,-166.992,124.512,-73.242,-232.422,-77.148
1678025469.095,-120.605,109.863,-91.797,-207.520,79.102
1678025469.099,-257.812,118.164,-76.660,-258.301,61.035
1678025469.103,-357.422,111.328,-73.730,-307.617,-42.969
1678025469.106,-299.316,111.328,-73.730,-287.598,13.184
1678025469.110,-180.664,122.070,-67.383,-236.328,282.227
1678025469.114,-132.324,123.047,-69.336,-213.379,247.559
1678025469.118,-248.535,131.348,-57.617,-257.812,-11.230
1678025469.122,-351.562,138.184,-52.246,-293.945,-127.441
1678025469.124,-305.664,147.461,-39.551,-277.344,-126.465
1678025469.128,-185.547,147.461,-37.109,-240.723,-39.551
1678025469.132,-126.465,125.977,-53.223,-218.750,-30.762
1678025469.136,-219.727,104.004,-72.754,-234.863,76.172
1678025469.140,-346.191,102.051,-102.539,-292.969,-65.918
1678025469.144,-330.566,107.422,-83.496,-309.570,-220.215
1678025469.148,-208.496,107.422,-57.129,-253.906,-24.414
1678025469.151,-118.652,100.586,-58.594,-197.266,228.027
1678025469.155,-191.895,104.004,-64.453,-208.984,214.844
1678025469.159,-334.473,106.934,-77.637,-271.484,-66.406
1678025469.163,-325.684,107.422,-77.637,-266.113,-174.805
1678025469.167,-216.309,120.605,-66.406,-218.750,-3.418
1678025469.170,-125.488,120.605,-65.918,-189.941,-16.113
1678025469.174,-185.059,109.375,-73.242,-227.539,-85.449
1678025469.178,-329.590,109.375,-83.984,-279.297,-151.367
1678025469.182,-327.637,109.863,-87.402,-265.625,-241.699
1678025469.186,-221.191,108.398,-80.566,-240.723,-252.441
1678025469.190,-120.117,101.074,-80.566,-177.246,-115.723
1678025469.194,-154.785,95.703,-74.219,-177.246,110.352
1678025469.197,-295.898,94.238,-77.148,-257.324,204.590
1678025469.201,-345.703,95.703,-104.492,-284.668,-110.352
1678025469.205,-256.348,97.656,-79.102,-261.230,-213.379
1678025469.209,-120.605,98.633,-58.594,-204.590,-20.996
1678025469.213,-151.367,93.750,-92.285,-202.637,-1.953
1678025469.214,-307.129,98.145,-94.238,-265.625,-115.234
1678025469.218,-338.867,108.398,-68.359,-288.086,-141.113
1678025469.222,-254.883,101.562,-73.242,-256.348,-20.996
1678025469.226,-157.227,88.379,-103.516,-197.266,137.207
1678025469.230,-173.828,76.660,-114.258,-204.590,65.918
1678025469.234,-351.074,56.152,-122.070,-297.852,-15.137
1678025469.238,-419.434,48.340,-143.555,-341.797,48.340
1678025469.241,-332.031,47.363,-168.457,-312.012,93.750
1678025469.245,-216.309,42.969,-166.992,-254.395,-84.961
1678025469.249,-191.406,38.086,-141.602,-232.422,-54.199
1678025469.253,-322.754,37.598,-125.488,-287.598,20.020
1678025469.257,-403.809,47.852,-118.164,-337.402,-165.039
1678025469.260,-321.289,57.617,-121.582,-290.527,-271.484
1678025469.264,-176.758,70.312,-123.535,-206.055,-62.500
1678025469.268,-145.996,64.453,-123.535,-183.105,164.551
1678025469.272,-275.879,57.617,-105.957,-237.305,-47.852
1678025469.276,-363.281,74.219,-95.215,-282.227,-233.398
1678025469.280,-306.641,87.891,-90.332,-234.375,-66.406
1678025469.284,-178.711,85.449,-73.242,-188.965,168.457
1678025469.287,-104.492,93.262,-63.477,-167.969,107.910
1678025469.291,-209.961,109.375,-82.520,-190.430,-33.203
1678025469.295,-316.895,116.699,-89.844,-229.004,-107.422
1678025469.299,-284.180,125.000,-81.055,-237.793,-99.121
1678025469.303,-176.758,123.535,-89.844,-201.172,-121.094
1678025469.319,-83.008,103.516,-81.055,-139.648,-30.762
1678025469.323,-146.973,92.773,-85.938,-159.180,114.746
1678025469.327,-288.086,102.539,-92.285,-230.957,-13.184
1678025469.331,-291.992,104.980,-74.707,-260.254,-123.535
1678025469.335,-165.527,97.656,-70.801,-235.352,-87.402
1678025469.339,-46.387,99.609,-84.473,-171.387,165.527
1678025469.343,-112.793,104.492,-91.797,-159.668,344.727
1678025469.346,-284.668,109.863,-83.984,-223.633,-85.449
1678025469.350,-301.758,126.465,-87.891,-241.211,-281.738
1678025469.354,-208.984,124.512,-94.238,-183.105,-31.250
1678025469.358,-110.352,108.887,-84.473,-136.230,48.340
1678025469.362,-140.625,103.516,-92.773,-156.250,-110.840
1678025469.366,-264.648,111.328,-113.281,-194.824,-243.652
1678025469.370,-288.086,116.211,-100.586,-209.473,-240.234
1678025469.374,-200.684,103.027,-66.406,-198.242,-236.816
1678025469.378,-87.402,104.980,-57.129,-157.227,-118.652
1678025469.382,-103.516,113.770,-76.172,-148.438,0.000
1678025469.386,-250.000,108.887,-84.473,-212.402,-59.570
1678025469.390,-283.203,104.980,-73.242,-247.559,-191.406
1678025469.393,-203.125,103.027,-93.262,-211.914,-208.496
1678025469.397,-101.074,101.562,-97.656,-151.367,-25.879
1678025469.401,-81.543,104.004,-83.496,-155.273,305.664
1678025469.405,-224.121,102.051,-78.125,-222.168,68.848
1678025469.409,-295.898,107.422,-71.777,-237.305,-270.020
1678025469.409,-214.844,115.723,-64.941,-197.266,-171.387
1678025469.413,-86.426,120.605,-65.918,-161.621,-48.828
1678025469.417,-70.801,116.699,-46.387,-154.785,-51.270
1678025469.421,-224.609,116.699,-37.598,-202.637,-172.852
1678025469.425,-287.598,130.859,-38.574,-220.215,-134.766
1678025469.429,-193.359,135.742,-32.715,-183.594,-35.645
1678025469.433,-82.031,124.023,-35.156,-141.602,-14.160
1678025469.436,-61.035,115.723,-43.457,-132.812,52.734
1678025469.440,-179.199,112.305,-46.875,-183.105,186.035
1678025469.444,-278.320,114.258,-51.758,-213.867,280.273
1678025469.448,-223.145,117.676,-62.500,-202.637,-42.480
1678025469.452,-92.773,109.375,-63.477,-159.668,-129.883
1678025469.454,-48.828,104.004,-64.453,-130.859,74.219
1678025469.458,-164.062,95.703,-71.289,-175.293,11.230
1678025469.462,-275.391,85.449,-86.914,-248.047,-151.855
1678025469.466,-256.836,80.566,-90.332,-228.027,-186.523
1678025469.470,-145.996,92.773,-83.008,-168.945,-92.285
1678025469.474,-62.500,101.562,-78.613,-142.090,50.781
1678025469.478,-131.348,99.609,-75.684,-174.316,26.855
1678025469.481,-263.672,101.562,-72.266,-229.980,-42.480
1678025469.485,-243.164,100.098,-78.613,-213.379,87.891
1678025469.489,-111.816,95.215,-79.590,-148.926,35.156
1678025469.493,-31.738,96.191,-80.078,-123.047,32.227
1678025469.497,-112.305,92.773,-75.684,-138.672,79.590
1678025469.499,-249.512,87.891,-67.871,-158.203,-35.156
1678025469.503,-238.770,83.008,-73.242,-169.434,-173.340
1678025469.507,-113.770,89.355,-71.289,-131.836,-115.723
1678025469.511,2.930,100.098,-52.246,-64.941,161.621
1678025469.515,-36.133,99.121,-39.551,-73.730,170.898
1678025469.519,-185.547,94.727,-42.969,-130.859,-77.148
1678025469.523,-223.145,84.473,-65.430,-152.832,-194.824
1678025469.526,-109.863,87.402,-65.918,-119.629,5.859
1678025469.530,5.859,101.562,-44.434,-76.172,164.551
1678025469.534,-30.273,97.656,-31.738,-62.012,-6.836
1678025469.538,-181.152,96.680,-29.297,-113.281,-95.703
1678025469.542,-218.262,99.609,-37.109,-147.949,-14.160
1678025469.545,-107.422,97.168,-34.180,-114.746,-112.793
1678025469.549,18.066,92.285,-34.668,-64.453,-62.988
1678025469.553,3.906,87.402,-38.086,-37.598,1.953
1678025469.557,-167.480,86.426,-41.504,-104.004,-54.199
1678025469.561,-234.375,76.660,-46.387,-159.668,-194.336
1678025469.565,-139.648,64.453,-47.363,-123.047,-169.922
1678025469.569,-28.320,61.035,-77.148,-76.660,44.434
1678025469.572,-27.344,64.453,-91.797,-50.781,308.594
1678025469.576,-141.602,72.266,-52.246,-97.656,33.691
1678025469.580,-217.285,68.848,-52.734,-148.926,-271.484
1678025469.584,-174.805,62.012,-65.918,-127.930,-215.332
1678025469.588,-51.758,76.172,-36.133,-91.797,-85.938
1678025469.589,-25.391,80.078,-26.855,-73.730,-31.738
1678025469.593,-158.203,75.684,-55.664,-111.328,-102.051
1678025469.597,-246.582,67.383,-64.453,-144.531,-124.512
1678025469.601,-207.520,64.941,-54.199,-145.020,-107.422
1678025469.605,-53.711,83.496,-68.848,-95.703,-60.059
1678025469.609,-11.230,74.707,-54.199,-76.660,45.410
1678025469.613,-156.250,61.523,-32.715,-136.230,202.148
1678025469.616,-250.000,58.594,-37.109,-168.945,149.414
1678025469.620,-205.566,65.918,-42.969,-148.438,-239.746
1678025469.624,-60.059,65.430,-49.316,-88.867,-237.305
1678025469.628,-13.184,42.969,-84.961,-71.289,-28.809
1678025469.632,-129.395,42.480,-110.840,-129.883,-77.637
1678025469.634,-248.047,58.594,-92.773,-195.801,-208.496
1678025469.638,-237.305,60.547,-62.988,-185.547,-223.145
1678025469.642,-116.699,41.016,-83.984,-148.438,-133.301
1678025469.646,-27.832,31.250,-88.379,-113.770,-51.270
1678025469.650,-105.957,51.758,-60.059,-130.371,-106.445
1678025469.654,-231.934,56.152,-46.875,-186.035,-94.238
1678025469.658,-208.496,49.316,-64.453,-190.430,141.113
1678025469.661,-99.609,59.570,-63.965,-135.254,43.457
1678025469.665,-3.418,67.383,-60.547,-71.777,-58.105
1678025469.669,-84.473,55.176,-74.219,-97.656,40.527
1678025469.673,-225.098,48.828,-89.355,-149.902,54.199
1678025469.677,-213.379,63.477,-101.074,-155.762,-233.887
1678025469.694,-114.746,72.754,-96.191,-115.723,-250.488
1678025469.698,-9.277,75.195,-81.055,-66.406,70.312
1678025469.702,-62.012,73.730,-65.430,-82.031,122.559
1678025469.706,-193.848,68.359,-76.172,-137.695,-155.273
1678025469.710,-199.219,65.430,-79.102,-132.324,-284.668
1678025469.714,-112.793,41.992,-67.871,-94.727,-17.090
1678025469.718,-0.977,27.344,-84.473,-74.707,125.488
1678025469.721,-40.527,23.438,-105.469,-87.402,87.891
1678025469.725,-176.758,23.438,-107.910,-147.949,-18.066
1678025469.729,-212.402,25.391,-109.863,-169.434,23.926
1678025469.733,-124.512,21.484,-126.953,-128.906,119.629
1678025469.737,-3.418,29.297,-141.602,-67.383,-12.207
1678025469.739,-13.672,16.602,-150.879,-75.195,-20.508
1678025469.743,-158.203,-1.465,-127.441,-136.230,-47.363
1678025469.747,-247.070,7.812,-92.285,-163.574,-166.016
1678025469.751,-163.574,16.602,-92.285,-138.672,-195.312
1678025469.755,-49.316,1.953,-110.840,-82.520,-36.133
1678025469.759,-62.012,-14.160,-117.676,-80.078,66.406
1678025469.763,-179.688,-21.484,-114.746,-131.836,-31.738
1678025469.766,-245.117,-24.902,-120.605,-166.504,-165.039
1678025469.770,-181.152,-20.020,-127.441,-144.531,-106.445
1678025469.774,-55.664,-24.414,-119.141,-75.195,234.863
1678025469.778,-25.879,-39.062,-126.953,-74.219,222.656
1678025469.782,-159.668,-38.086,-149.414,-136.230,-46.387
1678025469.784,-236.816,-46.387,-134.277,-172.363,-107.422
1678025469.788,-218.262,-65.430,-139.648,-170.898,123.047
1678025469.792,-114.746,-62.988,-151.855,-130.859,-26.855
1678025469.796,-28.320,-42.969,-136.719,-91.309,-71.289
1678025469.800,-122.559,-41.504,-133.789,-124.023,35.645
1678025469.804,-221.191,-49.316,-135.254,-170.898,-93.262
1678025469.808,-198.730,-54.199,-140.137,-162.109,-179.688
1678025469.811,-115.234,-58.105,-147.461,-113.281,-112.305
1678025469.815,-29.785,-57.617,-147.949,-83.008,233.398
1678025469.819,-117.676,-59.082,-145.996,-125.977,209.473
1678025469.823,-250.488,-58.105,-146.484,-176.758,-189.453
1678025469.827,-211.914,-57.617,-142.578,-159.668,-261.230
1678025469.832,-111.328,-61.523,-132.324,-117.676,-17.090
1678025469.836,-34.668,-56.641,-130.859,-90.820,80.078
1678025469.840,-115.234,-63.965,-145.996,-126.953,-63.965
1678025469.844,-265.625,-72.266,-151.855,-197.266,-135.254
1678025469.848,-261.719,-76.660,-152.344,-197.754,-42.480
1678025469.852,-151.367,-75.195,-149.414,-166.504,-0.488
1678025469.856,-57.129,-77.148,-145.020,-125.977,31.738
1678025469.859,-87.402,-79.590,-144.531,-100.586,58.594
1678025469.863,-218.750,-71.289,-142.578,-150.391,161.133
1678025469.867,-261.230,-68.848,-146.973,-196.777,-67.871
1678025469.871,-162.109,-66.406,-143.555,-176.758,-239.746
1678025469.875,-46.875,-53.711,-140.137,-93.262,-63.477
1678025469.889,-61.035,-50.293,-141.602,-78.125,5.371
1678025469.893,-191.895,-55.664,-136.230,-167.480,-127.441
1678025469.897,-252.441,-54.199,-122.559,-178.223,-195.801
1678025469.901,-165.527,-53.711,-120.117,-131.836,27.832
1678025469.905,-27.832,-59.570,-127.930,-89.844,44.434
1678025469.909,-43.457,-67.383,-125.000,-88.867,38.086
1678025469.913,-178.711,-61.523,-120.117,-129.883,-61.523
1678025469.916,-238.281,-49.805,-114.746,-139.160,-16.602
1678025469.920,-157.227,-51.758,-120.117,-113.770,260.742
1678025469.924,-30.273,-58.105,-117.188,-59.570,102.051
1678025469.928,-21.484,-56.152,-109.863,-55.176,10.254
1678025469.932,-138.184,-56.152,-107.422,-118.164,13.184
1678025469.950,-204.102,-54.688,-107.422,-147.949,-199.707
1678025469.954,-123.535,-41.992,-117.188,-107.422,-261.719
1678025469.958,0.977,-41.016,-111.816,-56.152,-114.746
1678025469.962,15.137,-46.875,-104.980,-45.410,38.574
1678025469.966,-113.281,-42.480,-119.629,-74.707,-24.902
1678025469.970,-196.289,-27.344,-123.535,-106.445,-199.707
1678025469.974,-127.930,-32.715,-110.352,-95.703,-99.121
1678025469.977,-16.602,-46.387,-96.680,-56.152,85.938
1678025469.981,33.203,-45.898,-94.727,-30.762,71.777
1678025469.985,-76.660,-44.922,-106.445,-56.641,-72.266
1678025469.989,-192.383,-52.246,-97.168,-88.867,-132.812
1678025469.993,-154.297,-46.387,-85.938,-72.266,127.930
1678025469.965,-50.781,-46.387,-104.492,-34.180,58.105
1678025469.969,18.066,-50.293,-121.094,-16.113,15.625
1678025469.973,-50.781,-58.594,-102.051,-51.270,168.945
1678025469.977,-186.035,-60.059,-110.840,-92.773,70.801
1678025469.981,-193.848,-50.781,-134.277,-91.309,-222.168
1678025469.985,-62.500,-50.781,-125.488,-45.898,-160.156
1678025469.989,27.832,-54.688,-125.000,-4.883,158.203
1678025469.992,-66.406,-55.664,-114.746,-34.668,108.398
1678025469.996,-181.641,-62.012,-101.562,-94.238,-177.246
1678025470.000,-156.250,-60.059,-112.305,-86.426,-245.117
1678025470.004,-67.871,-62.500,-130.371,-33.203,20.996
1678025470.008,8.301,-81.543,-152.344,-25.391,125.488
1678025470.009,-38.086,-82.031,-139.160,-71.777,-35.156
1678025470.013,-167.480,-72.754,-123.047,-115.723,-203.613
1678025470.017,-190.918,-80.078,-149.902,-115.723,64.453
1678025470.021,-74.707,-72.754,-140.137,-76.660,221.191
1678025470.025,49.316,-55.664,-108.887,-30.762,17.090
1678025470.029,-8.789,-71.777,-108.398,-49.805,67.383
1678025470.033,-146.484,-84.473,-107.910,-86.914,240.234
1678025470.036,-178.223,-70.801,-100.586,-100.098,-73.730
1678025470.040,-93.262,-74.707,-114.258,-78.125,-305.664
1678025470.044,34.180,-77.148,-124.512,-24.414,-31.250
1678025470.048,23.926,-84.473,-126.465,-0.488,239.746
1678025470.052,-130.371,-130.371,-131.348,-71.289,-127.441
1678025470.055,-166.992,-159.180,-122.070,-116.699,-245.117
1678025470.059,-99.609,-164.551,-103.516,-78.613,64.941
1678025470.063,-11.719,-172.363,-113.770,-26.855,104.980
1678025470.067,-10.742,-167.480,-125.488,-34.180,0.488
1678025470.071,-140.137,-164.062,-106.934,-89.355,-154.785
1678025470.075,-191.406,-167.480,-108.887,-115.723,-130.859
1678025470.079,-109.863,-156.250,-123.047,-86.426,-19.531
1678025470.082,-3.906,-145.020,-123.535,-28.809,-85.938
1678025470.086,14.648,-157.715,-134.766,-10.254,-45.898
1678025470.090,-99.609,-150.391,-134.277,-74.219,160.156
1678025470.094,-190.430,-133.301,-125.000,-123.047,-14.648
1678025470.098,-139.648,-137.695,-131.836,-101.074,-300.293
1678025470.102,-42.969,-149.414,-154.785,-59.570,-83.008
1678025470.106,2.930,-158.203,-153.809,-27.344,118.164
1678025470.110,-104.492,-145.996,-169.922,-52.246,-39.062
1678025470.114,-203.125,-128.906,-173.828,-103.027,-277.832
1678025470.118,-157.715,-138.184,-135.254,-81.543,-245.605
1678025470.122,-28.320,-145.996,-145.020,-17.090,134.277
1678025470.126,37.598,-129.883,-159.180,8.301,166.992
1678025470.129,-72.754,-127.441,-149.902,-34.180,-70.312
1678025470.133,-187.012,-147.949,-124.023,-94.727,-205.566
1678025470.137,-156.250,-150.879,-132.324,-89.355,-46.387
1678025470.141,-52.734,-153.809,-146.973,-42.969,-89.844
1678025470.145,4.395,-157.227,-152.344,-6.836,-43.457
1678025470.160,-65.918,-153.320,-165.527,-30.273,16.602
1678025470.164,-168.457,-149.902,-162.598,-95.703,-90.820
1678025470.168,-163.086,-150.879,-164.551,-105.957,-238.281
1678025470.172,-59.082,-150.879,-161.133,-27.832,-248.535
1678025470.176,26.367,-147.461,-160.156,19.531,61.035
1678025470.180,-24.414,-140.137,-160.645,-20.020,313.477
1678025470.184,-147.461,-135.254,-146.973,-80.566,-39.551
1678025470.187,-144.043,-141.602,-156.738,-79.102,-256.348
1678025470.191,-26.367,-136.719,-154.297,-21.973,54.688
1678025470.195,74.707,-144.043,-130.859,19.531,108.887
1678025470.199,19.531,-160.156,-135.254,-4.395,-153.320
1678025470.203,-131.836,-137.695,-151.855,-80.566,-229.004
1678025470.204,-145.020,-110.352,-149.902,-78.613,-287.109
1678025470.208,-46.387,-116.211,-155.762,-24.414,-270.508
1678025470.212,47.363,-120.117,-160.156,19.043,-71.777
1678025470.216,17.578,-125.000,-157.715,0.000,28.809
1678025470.220,-97.168,-132.812,-162.109,-70.312,-129.395
1678025470.224,-133.301,-129.395,-143.555,-88.379,-231.934
1678025470.228,-75.195,-131.348,-132.324,-49.316,-156.250
1678025470.231,35.645,-134.766,-132.812,15.137,33.203
1678025470.235,34.668,-133.301,-131.348,38.086,312.988
1678025470.239,-103.027,-141.602,-125.488,-22.461,66.406
1678025470.243,-153.320,-144.531,-132.812,-61.035,-326.660
1678025470.247,-68.848,-138.672,-154.785,-36.133,-210.938
1678025470.249,55.176,-140.625,-161.621,5.859,141.113
1678025470.253,59.082,-129.395,-174.805,7.324,105.957
1678025470.257,-77.637,-115.234,-146.973,-31.250,-119.141
1678025470.261,-136.719,-119.141,-109.863,-68.848,-108.398
1678025470.265,-89.844,-130.371,-131.836,-61.035,-95.703
1678025470.269,-2.441,-132.324,-163.086,-25.391,-5.371
1678025470.273,29.785,-133.789,-145.508,-24.414,88.379
1678025470.276,-76.172,-136.230,-129.395,-63.477,210.938
1678025470.280,-160.156,-140.137,-140.137,-101.562,266.602
1678025470.284,-112.793,-130.371,-145.508,-105.957,-141.113
1678025470.288,11.230,-131.348,-145.020,-37.598,-182.129
1678025470.292,70.312,-145.020,-146.973,3.906,29.297
1678025470.295,-41.016,-129.883,-139.160,-55.176,-74.707
1678025470.299,-149.414,-112.305,-133.301,-117.676,-286.133
1678025470.303,-124.023,-129.883,-129.395,-110.352,-252.441
1678025470.307,-13.672,-137.695,-134.277,-49.805,-89.355
1678025470.311,64.453,-125.000,-152.832,-4.395,4.395
1678025470.315,-11.230,-121.582,-147.461,-50.293,43.457
1678025470.319,-137.207,-122.559,-134.277,-129.883,11.719
1678025470.322,-113.770,-106.445,-134.277,-108.887,104.980
1678025470.326,-3.418,-94.238,-129.395,-47.852,35.156
1678025470.330,47.852,-112.305,-140.625,-39.062,9.277
1678025470.334,-34.668,-125.977,-153.320,-65.430,69.824
1678025470.338,-171.387,-127.930,-143.066,-116.211,-104.004
1678025470.339,-164.062,-130.371,-135.254,-119.141,-242.676
1678025470.343,-37.109,-128.418,-133.301,-72.266,-154.297
1678025470.347,58.594,-122.559,-145.996,-23.438,104.980
1678025470.351,-4.395,-125.488,-158.691,-32.715,181.641
1678025470.355,-134.766,-125.000,-158.203,-97.168,-154.785
1678025470.359,-129.395,-118.164,-144.043,-121.094,-226.074
1678025470.363,-39.551,-131.836,-111.816,-62.500,103.516
1678025470.366,44.922,-135.742,-115.723,9.766,329.590
1678025470.370,25.391,-105.469,-127.441,-20.508,123.535
1678025470.374,-119.141,-114.258,-115.723,-107.422,-80.566
1678025470.378,-183.594,-135.254,-134.766,-134.766,-204.102
1678025470.382,-99.609,-137.695,-147.949,-83.496,-156.250
1678025470.402,15.137,-148.926,-149.902,-29.297,7.812
1678025470.406,8.789,-151.367,-155.273,-46.387,68.848
1678025470.410,-115.234,-155.273,-148.438,-109.375,44.434
1678025470.414,-181.641,-166.992,-176.270,-137.207,-201.172
1678025470.418,-121.094,-161.133,-188.477,-119.141,-237.793
1678025470.422,-14.648,-150.879,-147.461,-82.520,81.055
1678025470.426,-9.277,-145.020,-139.648,-62.012,216.797
1678025470.429,-127.441,-151.855,-155.762,-108.398,-65.430
1678025470.433,-167.969,-151.367,-159.668,-132.324,-251.953
1678025470.437,-85.938,-131.348,-126.953,-76.660,-208.496
1678025470.441,21.484,-122.070,-114.258,-37.109,-25.391
1678025470.445,21.484,-133.789,-114.746,-46.875,43.457
1678025470.445,-118.164,-141.113,-120.117,-104.492,-71.289
1678025470.449,-193.848,-135.742,-135.254,-149.902,-133.789
1678025470.453,-113.281,-122.070,-136.230,-128.906,-90.332
1678025470.457,-6.348,-112.305,-134.277,-82.520,-28.320
1678025470.461,22.461,-130.859,-141.113,-70.801,14.160
1678025470.465,-66.406,-151.855,-155.273,-83.984,140.625
1678025470.469,-149.902,-151.855,-168.945,-116.211,97.168
1678025470.472,-100.586,-120.605,-136.719,-120.117,-176.270
1678025470.476,0.488,-87.402,-100.098,-62.500,-215.332
1678025470.480,46.387,-71.777,-90.332,-25.879,162.598
1678025470.484,-43.945,-74.219,-83.008,-60.547,431.641
1678025470.488,-145.508,-85.449,-101.074,-100.586,-24.414
1678025470.489,-119.141,-102.051,-134.766,-105.957,-298.828
1678025470.493,4.883,-92.773,-97.656,-46.387,-156.250
1678025470.497,85.449,-73.730,-73.730,-15.137,-46.875
1678025470.501,-5.859,-79.102,-94.238,-56.152,-71.777
1678025470.505,-130.371,-95.703,-106.934,-101.074,-200.195
1678025470.509,-144.043,-105.957,-105.469,-134.766,-147.949
1678025470.513,-49.316,-103.027,-95.703,-96.191,-46.387
1678025470.516,42.969,-103.516,-116.211,-33.691,-78.125
1678025470.520,-4.395,-110.840,-136.230,-26.367,4.883
1678025470.524,-139.648,-108.398,-109.863,-97.656,159.668
1678025470.528,-111.816,-87.891,-87.402,-94.727,-66.406
1678025470.532,-6.348,-81.055,-93.750,-27.832,-149.902
1678025470.534,42.969,-90.820,-82.520,25.879,101.074
1678025470.538,-20.020,-91.309,-70.312,-7.812,169.434
1678025470.542,-155.762,-87.891,-66.406,-83.496,-94.238
1678025470.546,-176.270,-98.145,-60.059,-96.680,-255.371
1678025470.550,-74.219,-105.957,-62.012,-50.781,3.906
1678025470.554,28.809,-109.863,-61.523,31.250,446.777
1678025470.558,-3.418,-115.723,-67.871,-5.859,259.766
1678025470.561,-149.902,-119.629,-65.918,-77.148,-100.098
1678025470.565,-195.312,-126.953,-53.223,-76.172,-36.133
1678025470.569,-81.055,-112.793,-75.684,-24.414,160.156
1678025470.573,20.020,-99.121,-100.098,15.625,41.504
1678025470.577,-8.789,-102.051,-64.941,-0.977,-2.441
1678025470.579,-137.207,-105.469,-44.434,-74.707,-52.246
1678025470.583,-172.852,-102.539,-57.617,-105.957,-197.754
1678025470.587,-82.031,-94.238,-61.035,-43.457,-209.473
1678025470.591,22.949,-93.262,-66.895,11.230,-82.031
1678025470.595,54.199,-93.262,-73.242,9.277,19.531
1678025470.599,-66.895,-78.125,-77.148,-34.180,-50.781
1678025470.603,-169.434,-83.008,-92.773,-73.730,-198.242
1678025470.606,-108.887,-108.398,-95.703,-55.176,-215.820
1678025470.610,-3.906,-106.445,-83.008,1.953,148.926
1678025470.614,23.438,-79.102,-78.613,26.367,205.078
1678025470.618,-73.730,-57.617,-85.938,-28.809,-61.035
1678025470.622,-156.738,-59.082,-104.980,-79.590,-136.719
1678025470.625,-121.582,-70.312,-106.934,-75.684,-94.727
1678025470.629,-17.578,-87.891,-100.098,-34.180,-7.812
1678025470.633,40.039,-79.590,-112.305,15.625,-5.371
1678025470.637,-38.086,-68.359,-109.375,-20.996,17.090
1678025470.641,-146.484,-78.125,-95.703,-87.402,6.348
1678025470.645,-113.770,-84.473,-104.492,-83.496,-100.098
1678025470.649,-12.695,-87.891,-108.398,-40.039,-61.035
1678025470.652,36.621,-81.055,-91.309,-7.812,192.383
1678025470.656,-55.176,-83.984,-100.098,-54.199,230.957
1678025470.660,-176.270,-80.566,-103.516,-123.047,-213.867
1678025470.664,-145.996,-62.012,-97.168,-111.816,-298.340
1678025470.668,-16.113,-60.547,-106.445,-43.945,-125.000
1678025470.684,60.059,-64.453,-103.027,-2.441,-64.453
1678025470.688,-25.879,-64.941,-73.242,-49.805,-102.051
1678025470.692,-173.340,-47.363,-68.359,-123.047,-148.438
1678025470.696,-184.570,-33.203,-90.332,-125.000,-81.055
1678025470.700,-73.242,-39.062,-83.008,-76.172,-125.977
1678025470.704,23.926,-40.039,-68.848,-40.039,-30.762
1678025470.708,-20.508,-41.016,-93.750,-48.828,126.465
1678025470.711,-153.320,-39.062,-107.910,-112.793,191.895
1678025470.715,-175.781,-46.875,-99.609,-145.508,-71.777
1678025470.719,-89.355,-60.547,-99.121,-86.426,-271.973
1678025470.723,20.020,-51.758,-96.191,-13.184,-26.855
1678025470.727,-11.719,-32.227,-79.590,-65.430,43.945
1678025470.730,-153.320,-22.949,-71.777,-132.324,-144.043
1678025470.734,-186.035,-28.320,-64.941,-124.512,-211.426
1678025470.738,-92.773,-32.715,-73.730,-73.242,36.621
1678025470.742,32.227,-31.250,-93.262,7.812,210.938
1678025470.746,10.254,-24.902,-85.938,-13.184,-46.875
1678025470.750,-166.016,-33.203,-74.219,-115.234,-123.047
1678025470.754,-198.242,-41.992,-72.266,-128.418,-87.891
1678025470.757,-94.727,-39.062,-78.125,-87.402,-195.801
1678025470.761,3.418,-38.574,-116.699,-43.457,-164.062
1678025470.765,12.695,-40.527,-125.000,-33.691,-37.109
1678025470.769,-110.352,-36.133,-85.938,-81.543,98.633
1678025470.773,-181.641,-38.574,-74.707,-122.559,-54.199
1678025470.789,-121.094,-44.434,-50.781,-90.820,-257.812
1678025470.793,-17.578,-26.367,-45.898,-31.250,-91.309
1678025470.797,8.789,-30.273,-86.426,-39.062,15.625
1678025470.801,-117.676,-46.387,-98.633,-97.168,-128.418
1678025470.805,-187.012,-56.641,-109.863,-121.582,-242.676
1678025470.809,-113.770,-50.781,-82.031,-90.332,-106.934
1678025470.813,2.441,-24.902,-49.316,-36.621,118.164
1678025470.816,41.016,-17.578,-53.223,-30.273,87.402
1678025470.820,-95.215,-18.555,-69.336,-82.031,-87.891
1678025470.824,-192.871,-10.254,-75.195,-119.629,-122.070
1678025470.828,-126.953,-17.578,-58.594,-83.496,108.398
1678025470.832,-10.254,-23.926,-96.680,-37.109,14.160
1678025470.819,27.832,-9.277,-109.863,-25.879,-103.516
1678025470.823,-85.449,-26.855,-77.637,-68.359,85.938
