timestamps,TP9,AF7,AF8,TP10,Right AUX
1678025644.521,-41.504,-495.117,692.871,-11.230,83.496
1678025644.525,-58.594,-472.656,674.316,37.109,87.891
1678025644.529,-82.520,-469.727,642.090,10.742,-102.051
1678025644.533,-113.281,-453.613,601.562,-34.180,-193.359
1678025644.537,-65.918,-428.711,580.078,-2.441,-37.109
1678025644.541,-36.621,-403.320,555.176,18.066,47.852
1678025644.545,-41.992,-408.203,522.949,-4.395,90.820
1678025644.548,-63.965,-456.543,464.355,-53.711,11.230
1678025644.552,-72.754,-445.312,417.969,-81.543,70.312
1678025644.556,-73.730,-408.203,400.391,-80.078,-104.492
1678025644.560,-69.336,-405.273,369.629,-24.414,-188.965
1678025644.564,-43.457,-394.531,350.098,43.457,33.691
1678025644.565,-54.688,-376.465,340.332,7.812,-2.930
1678025644.569,-65.430,-361.816,321.289,-25.879,-230.957
1678025644.573,-76.172,-351.562,283.203,-34.180,-296.875
1678025644.577,-74.707,-340.332,260.742,-44.434,-99.609
1678025644.581,-64.941,-310.059,244.629,-18.066,46.387
1678025644.585,-58.105,-294.922,213.867,-5.371,69.824
1678025644.589,-52.734,-308.594,172.363,-35.645,-58.594
1678025644.592,-70.801,-325.684,127.930,-18.066,77.637
1678025644.596,-50.293,-319.824,124.512,61.035,316.406
1678025644.600,-46.387,-320.312,104.980,80.078,100.098
1678025644.604,-41.016,-320.801,79.102,9.277,-43.945
1678025644.608,-18.555,-313.965,62.500,-59.570,-117.188
1678025644.610,-1.953,-319.336,40.527,-51.270,-188.477
1678025644.614,24.414,-302.246,46.875,15.137,-142.578
1678025644.618,-3.906,-315.430,9.766,14.160,48.828
1678025644.622,-38.086,-356.934,-32.227,-30.273,286.133
1678025644.626,-34.180,-361.328,-22.461,-46.387,-20.508
1678025644.630,-26.855,-378.906,-43.457,-40.527,-237.793
1678025644.634,-19.531,-413.086,-63.477,-5.859,-28.320
1678025644.637,-11.719,-433.105,-66.895,51.758,266.113
1678025644.641,-26.367,-478.027,-73.242,42.480,182.129
1678025644.645,-41.016,-519.043,-84.961,-24.414,-131.348
1678025644.649,-55.176,-541.504,-123.535,-69.824,-228.516
1678025644.653,-43.457,-552.246,-130.371,-48.340,-141.602
1678025644.657,-35.645,-539.551,-99.121,-0.488,-64.453
1678025644.661,-44.922,-554.199,-88.379,17.578,36.621
1678025644.665,-33.203,-590.332,-93.262,-13.672,-13.672
1678025644.669,-43.457,-615.234,-112.305,-44.922,-221.680
1678025644.673,-47.852,-646.484,-121.094,-52.246,-221.191
1678025644.677,-17.578,-628.418,-116.699,-0.488,69.336
1678025644.681,-29.785,-595.703,-137.695,21.973,376.953
1678025644.684,-21.484,-587.891,-112.793,21.484,248.047
1678025644.688,-26.367,-585.449,-92.773,-1.465,-191.895
1678025644.692,-37.598,-595.215,-100.586,-9.277,-276.367
1678025644.696,17.578,-591.309,-89.844,56.152,-113.281
1678025644.700,22.461,-587.402,-115.234,75.195,33.691
1678025644.701,1.953,-575.195,-145.020,24.902,-28.320
1678025644.705,16.113,-548.340,-143.555,-9.766,-131.836
1678025644.709,15.137,-528.320,-120.117,22.461,12.695
1678025644.713,-16.602,-503.418,-86.914,97.656,20.020
1678025644.717,-17.090,-492.676,-107.422,115.234,-37.109
1678025644.721,-21.484,-501.465,-127.930,38.574,54.688
1678025644.725,-10.742,-510.742,-123.535,21.484,258.301
1678025644.728,15.625,-536.133,-116.211,35.156,59.082
1678025644.732,31.738,-576.660,-123.535,52.734,-158.691
1678025644.736,56.152,-655.762,-147.949,97.168,13.672
1678025644.740,20.020,-850.586,-143.555,66.406,23.438
1678025644.744,8.301,-994.141,-117.676,34.668,-242.188
1678025644.747,38.574,-999.023,-136.230,14.648,-329.102
1678025644.751,17.578,-997.559,-146.973,9.277,-124.512
1678025644.755,24.902,-1000.000,-140.137,60.547,48.340
1678025644.759,33.691,-1000.000,-129.395,40.039,-96.191
1678025644.763,19.043,-1000.000,-121.582,-2.930,-290.039
1678025644.767,9.277,-1000.000,-149.902,2.441,-85.938
1678025644.771,0.488,-1000.000,-174.316,-0.488,77.637
1678025644.774,26.855,-1000.000,-169.434,37.598,-28.320
1678025644.778,28.809,-1000.000,-136.719,29.297,-78.613
1678025644.782,-8.301,-1000.000,-123.047,-33.203,51.758
1678025644.786,0.488,-1000.000,-101.074,-35.156,-120.117
1678025644.790,39.551,-1000.000,-92.285,14.160,-233.887
1678025644.806,32.715,-1000.000,-98.145,53.711,109.863
1678025644.810,18.066,-1000.000,-74.707,41.016,252.930
1678025644.814,21.484,-1000.000,-83.984,-12.207,-32.227
1678025644.818,-7.812,-1000.000,-106.934,-51.270,-263.672
1678025644.822,38.574,-1000.000,-60.059,-8.301,-72.754
1678025644.826,50.293,-1000.000,-39.551,0.977,276.367
1678025644.830,-2.441,-1000.000,-46.875,-38.086,204.590
1678025644.833,-12.695,-1000.000,-12.695,-74.219,-121.094
1678025644.837,-19.531,-1000.000,28.809,-70.312,-287.109
1678025644.841,51.270,-1000.000,45.410,0.488,-60.547
1678025644.845,72.266,-1000.000,35.645,30.762,-43.457
1678025644.849,9.277,-1000.000,22.461,2.930,-102.539
1678025644.850,-63.965,-1000.000,43.945,-63.477,-114.258
1678025644.854,-49.316,-1000.000,78.125,-60.547,-192.383
1678025644.858,-2.930,-1000.000,83.008,-26.367,-217.773
1678025644.862,14.160,-1000.000,99.609,-11.719,-117.676
1678025644.866,47.363,-1000.000,128.906,18.555,98.633
1678025644.870,18.555,-999.512,120.117,-11.719,61.523
1678025644.874,-41.992,-1000.000,100.586,-57.129,-130.371
1678025644.877,-52.246,-972.168,132.324,-73.730,-136.719
1678025644.881,-6.348,-907.227,150.879,-36.621,198.730
1678025644.885,56.641,-847.656,155.273,20.508,422.363
1678025644.889,15.137,-819.824,151.855,-28.320,-1.953
1678025644.893,-53.223,-786.621,145.508,-103.516,-241.211
1678025644.896,-81.055,-741.211,141.113,-92.285,-134.277
1678025644.900,-68.359,-703.613,133.789,-54.688,-168.945
1678025644.904,-2.930,-668.945,133.301,-30.273,-123.535
1678025644.908,1.953,-654.297,128.418,-30.762,-53.711
1678025644.912,-43.945,-634.277,128.418,-67.383,-80.078
1678025644.916,-40.039,-578.125,136.719,-71.777,-153.809
1678025644.920,22.949,-526.367,149.902,-4.883,-55.664
1678025644.923,65.430,-500.488,156.250,33.691,71.289
1678025644.927,65.918,-457.031,158.691,10.254,364.746
1678025644.931,19.043,-421.387,153.320,-29.785,116.211
1678025644.935,6.348,-396.973,146.973,-38.086,-266.602
1678025644.939,37.109,-361.328,151.855,-4.883,-146.484
1678025644.941,53.711,-318.359,151.367,3.906,-19.531
1678025644.945,61.523,-302.734,130.859,-19.531,-8.301
1678025644.949,44.434,-297.852,115.723,-33.203,-99.121
1678025644.953,9.277,-263.184,125.488,-27.344,-139.648
1678025644.957,-3.906,-238.770,128.418,14.160,-145.508
1678025644.961,20.508,-219.727,133.301,39.062,19.043
1678025644.965,10.742,-189.453,145.020,17.090,85.938
1678025644.968,3.906,-162.109,143.555,-9.277,71.289
1678025644.972,30.273,-129.883,142.578,-37.598,-17.090
1678025644.976,64.941,-113.281,150.879,-42.969,-236.816
1678025644.980,55.176,-122.070,127.930,-24.902,-81.543
1678025644.984,-6.836,-99.609,134.766,-9.277,234.375
1678025644.986,-63.965,-63.477,175.293,-29.785,83.496
1678025644.990,-38.574,-13.184,162.598,-42.480,-229.980
1678025644.994,2.930,-11.230,132.324,-16.602,-163.574
1678025644.998,3.418,-40.039,126.465,-18.066,178.223
1678025645.002,-11.719,-19.043,136.719,-34.668,175.781
1678025645.006,-49.316,-12.207,132.324,-67.871,-1.465
1678025645.010,-55.664,-9.277,139.160,-77.148,-41.016
1678025645.013,-29.297,6.348,155.762,-47.852,118.652
1678025645.017,-8.789,5.371,139.648,-22.949,59.570
1678025645.021,-8.301,8.789,121.094,-7.324,-46.387
1678025645.025,-20.508,12.207,122.559,-26.855,-30.273
1678025645.029,-12.695,-8.789,126.465,-74.219,-174.805
1678025645.032,-17.090,-0.977,152.344,-54.199,-227.051
1678025645.036,-42.969,4.883,155.762,-29.297,-20.996
1678025645.040,-55.176,-11.230,111.328,-44.434,112.793
1678025645.044,-85.938,-18.066,109.375,-61.523,26.367
1678025645.048,-155.273,-41.504,98.633,-158.203,-159.668
1678025645.052,-194.336,-47.852,97.168,-194.824,-183.105
1678025645.056,-188.477,-40.039,115.723,-179.199,121.094
1678025645.059,-143.555,-33.691,128.906,-141.113,317.383
1678025645.063,-154.297,-40.527,144.043,-110.352,25.879
1678025645.067,-181.152,-50.781,159.180,-146.973,-200.684
1678025645.071,-152.832,-51.758,155.273,-156.738,-187.500
1678025645.075,-115.723,-55.176,130.859,-124.512,-134.277
1678025645.076,-114.258,-51.758,112.793,-113.281,1.465
1678025645.080,-153.809,-44.922,123.047,-126.465,3.906
1678025645.084,-131.348,-34.180,148.926,-142.090,26.855
1678025645.088,-104.004,-41.992,156.250,-154.297,-87.402
1678025645.092,-131.348,-34.180,151.367,-127.930,-184.570
1678025645.096,-116.211,-16.113,142.090,-97.656,76.660
1678025645.100,-95.215,1.953,152.344,-87.891,485.352
1678025645.103,-109.375,10.742,158.203,-112.305,145.996
1678025645.107,-96.191,6.348,161.133,-125.488,-345.215
1678025645.111,-41.504,33.203,168.457,-70.801,-202.637
1678025645.115,-10.742,51.758,183.105,-35.156,27.344
1678025645.119,-10.742,62.012,174.805,-29.785,58.105
1678025645.138,-21.484,74.219,163.574,-26.855,-167.969
1678025645.142,-5.371,95.703,163.086,-36.133,-247.559
1678025645.146,16.113,116.699,166.992,-17.578,-144.043
1678025645.150,58.105,128.906,174.316,20.020,-30.273
1678025645.154,75.195,143.066,157.715,37.598,34.180
1678025645.158,46.387,161.621,143.555,18.555,27.344
1678025645.162,36.133,193.359,157.227,-0.977,-119.141
1678025645.165,65.918,218.750,151.367,-0.488,-123.535
1678025645.169,121.094,221.191,129.395,11.230,33.691
1678025645.173,118.652,231.934,128.906,32.715,193.848
1678025645.177,84.473,244.629,132.324,18.066,22.461
1678025645.181,66.895,252.930,126.953,0.000,-197.266
1678025645.196,75.195,259.766,114.746,24.414,-123.047
1678025645.200,121.582,267.578,109.863,65.918,41.992
1678025645.204,154.297,291.992,117.188,101.562,69.336
1678025645.208,110.352,282.227,104.492,54.199,-59.082
1678025645.212,99.121,258.301,104.980,38.574,-143.555
1678025645.216,101.074,258.789,112.793,91.797,219.727
1678025645.220,125.488,269.043,114.258,92.285,305.176
1678025645.223,166.504,275.391,109.375,93.750,61.035
1678025645.227,100.098,264.648,109.375,61.523,41.992
1678025645.231,82.520,256.836,129.883,21.973,156.250
1678025645.235,134.277,250.488,153.320,45.898,173.828
1678025645.239,157.715,240.723,144.043,79.590,-51.758
1678025645.226,165.527,245.117,115.723,83.496,23.438
1678025645.230,140.625,237.305,111.328,29.785,2.930
1678025645.234,116.699,226.562,121.094,-16.113,-287.598
1678025645.238,122.559,229.492,136.230,13.672,-322.266
1678025645.242,106.445,215.332,120.117,29.297,-114.746
1678025645.246,99.121,217.285,117.676,28.320,112.305
1678025645.250,112.793,209.473,125.977,32.227,92.285
1678025645.253,79.102,164.062,104.004,9.277,-145.508
1678025645.257,45.898,157.227,99.609,-15.625,-203.125
1678025645.261,59.570,166.016,96.191,-6.348,-168.457
1678025645.265,95.215,170.898,99.609,37.598,-15.137
1678025645.269,114.746,178.223,120.605,51.758,115.234
1678025645.270,89.355,148.926,117.676,15.137,140.625
1678025645.274,56.641,105.957,94.238,-16.602,-106.445
1678025645.278,79.590,102.539,86.426,-0.488,-258.789
1678025645.282,93.750,93.750,76.660,24.902,-87.891
1678025645.286,44.922,82.520,74.707,15.625,221.680
1678025645.290,27.344,81.055,80.566,-28.809,142.578
1678025645.294,53.223,71.289,85.449,-49.805,-128.418
1678025645.297,79.102,55.664,74.707,-11.230,-96.191
1678025645.301,63.477,62.012,56.641,14.648,200.195
1678025645.305,50.293,70.801,53.711,-20.508,77.637
1678025645.309,41.016,42.969,58.594,-43.457,-185.059
1678025645.313,18.066,23.926,62.500,-48.828,-274.902
1678025645.315,5.859,30.273,64.941,-73.730,-215.332
1678025645.319,27.832,51.270,72.266,-40.039,-57.617
1678025645.323,46.875,45.898,76.172,-6.348,-80.078
1678025645.327,-9.277,27.832,80.078,-53.223,-14.160
1678025645.331,-19.531,31.738,60.059,-95.703,-111.328
1678025645.335,0.977,29.785,55.664,-71.777,-225.098
1678025645.339,4.883,37.598,64.941,-37.109,32.227
1678025645.342,11.230,46.387,58.105,-26.367,333.984
1678025645.346,3.418,42.480,69.824,-39.551,223.633
1678025645.350,11.230,43.457,82.520,-78.613,-196.289
1678025645.354,9.277,41.504,65.430,-100.098,-296.387
1678025645.358,-0.977,34.668,43.945,-83.984,-119.629
1678025645.377,1.465,32.227,43.945,-51.758,116.699
1678025645.381,-24.414,27.832,53.711,-64.453,-26.855
1678025645.385,-29.785,34.180,52.734,-80.078,-242.188
1678025645.389,-5.371,44.922,40.039,-73.730,-9.277
1678025645.393,-1.953,46.387,52.734,-52.246,32.715
1678025645.397,-20.996,34.668,55.176,-63.477,6.348
1678025645.401,-25.391,33.691,37.109,-102.539,100.098
1678025645.404,-43.945,32.715,34.180,-113.770,108.887
1678025645.408,-39.551,31.250,49.316,-115.723,-176.758
1678025645.412,-28.809,45.898,48.340,-84.961,-283.203
1678025645.416,-6.836,51.270,38.574,-53.223,-68.848
1678025645.420,-11.719,39.551,39.551,-55.664,-43.457
1678025645.405,-75.195,30.273,37.109,-73.242,-247.070
1678025645.409,-63.965,26.367,37.109,-73.242,-314.453
1678025645.413,-10.742,35.156,38.574,-59.082,-170.410
1678025645.417,23.438,48.828,34.668,-45.898,0.977
1678025645.421,30.273,46.387,35.645,-40.039,18.555
1678025645.425,-21.973,36.621,23.438,-63.965,-86.426
1678025645.429,-62.012,45.898,27.344,-78.125,-73.730
1678025645.432,-39.062,54.688,45.410,-65.918,-54.199
1678025645.436,-6.836,50.293,46.875,-30.762,-45.410
1678025645.440,30.762,52.734,28.809,0.488,-22.949
1678025645.444,10.742,53.711,16.113,-43.945,167.480
1678025645.448,-56.641,56.641,22.949,-108.398,187.012
1678025645.451,-76.660,68.848,32.227,-104.492,-100.098
1678025645.455,-50.781,71.777,30.762,-83.984,31.738
1678025645.459,-26.855,82.031,30.273,-88.867,313.477
1678025645.463,-55.664,93.750,38.086,-95.215,32.715
1678025645.467,-52.246,93.750,41.504,-110.840,-311.035
1678025645.471,-13.672,104.980,49.316,-92.285,-146.484
1678025645.475,-16.113,128.906,51.758,-62.988,191.406
1678025645.478,-24.414,146.973,44.434,-68.848,232.422
1678025645.482,-28.320,146.484,63.965,-94.727,-80.078
1678025645.486,-21.484,154.785,79.590,-99.609,-204.102
1678025645.490,-34.180,158.691,68.848,-79.590,54.199
1678025645.494,-59.082,147.461,62.988,-74.219,1.953
1678025645.511,-50.293,152.344,50.781,-69.824,-58.594
1678025645.515,-29.785,164.551,53.223,-75.195,-64.941
1678025645.519,-36.133,156.738,58.594,-98.633,-193.359
1678025645.523,-56.641,154.297,62.012,-94.238,-250.488
1678025645.527,-47.852,161.133,65.918,-61.523,-91.797
1678025645.531,-17.578,158.203,69.824,-46.875,208.984
1678025645.535,-20.996,144.531,81.543,-74.219,153.320
1678025645.538,-22.949,133.789,82.520,-102.539,-192.383
1678025645.542,-8.301,124.512,72.754,-109.863,-341.309
1678025645.546,-25.879,122.559,85.449,-74.219,55.664
1678025645.550,-58.105,125.488,93.750,-36.133,370.117
1678025645.554,-42.969,130.859,78.125,-65.918,75.195
1678025645.557,-28.809,125.488,89.844,-102.051,-135.254
1678025645.561,-55.176,114.746,96.191,-106.445,-42.480
1678025645.565,-40.039,121.582,75.684,-87.402,-65.918
1678025645.569,-48.828,119.629,77.148,-71.289,-85.938
1678025645.573,-98.145,111.816,79.590,-108.887,-29.785
1678025645.577,-103.516,107.422,64.453,-162.598,-68.359
1678025645.581,-92.773,108.887,60.547,-156.250,-199.219
1678025645.584,-98.145,111.328,51.270,-137.207,-209.961
1678025645.588,-117.188,110.352,37.109,-138.672,-4.395
1678025645.592,-150.391,108.398,36.133,-159.180,299.316
1678025645.596,-176.758,117.188,44.434,-196.289,17.578
1678025645.600,-189.941,127.441,44.434,-211.426,-263.184
1678025645.601,-172.852,131.836,48.340,-189.941,-72.266
1678025645.605,-157.227,139.648,77.637,-156.250,24.902
1678025645.609,-160.156,148.926,73.242,-156.738,4.883
1678025645.613,-154.785,144.043,61.523,-202.637,-113.770
1678025645.617,-170.410,139.160,61.523,-223.633,-122.070
1678025645.621,-199.707,137.695,58.105,-200.684,-17.090
1678025645.625,-162.598,151.855,93.262,-152.344,114.258
1678025645.628,-179.688,178.223,110.352,-212.402,84.473
1678025645.632,-202.637,175.781,133.301,-294.922,77.637
1678025645.636,-155.273,180.664,139.648,-273.438,165.039
1678025645.640,-159.180,210.938,141.113,-250.000,-185.547
1678025645.644,-211.426,240.234,178.223,-228.027,-181.152
1678025645.662,-227.539,259.277,209.961,-232.422,143.555
1678025645.666,-213.379,280.273,234.375,-252.930,-44.434
1678025645.670,-206.543,316.895,291.504,-262.695,-242.676
1678025645.674,-188.477,428.223,345.703,-255.371,-180.664
1678025645.678,-146.484,501.953,348.145,-222.168,152.832
1678025645.682,-121.094,549.316,403.809,-184.082,264.160
1678025645.686,-108.398,706.055,524.414,-173.340,-6.348
1678025645.689,-145.020,822.266,679.199,-215.820,-97.168
1678025645.693,-29.785,884.277,903.809,-135.254,41.992
1678025645.697,78.125,962.402,978.516,-20.020,-8.301
1678025645.701,-41.992,971.191,960.449,-113.770,-1.953
1678025645.705,-127.930,966.309,970.215,-193.848,-70.801
1678025645.690,-117.676,969.727,968.750,-189.941,-249.023
1678025645.694,-249.023,968.750,968.750,-319.824,-261.230
1678025645.698,-383.301,968.750,968.750,-481.445,-140.137
1678025645.702,-365.234,968.750,968.750,-500.977,12.207
1678025645.706,-419.434,968.750,968.750,-559.570,23.438
1678025645.710,-572.754,968.750,969.238,-721.680,-132.324
1678025645.714,-625.488,968.750,968.750,-793.457,-143.066
1678025645.717,-652.344,968.750,968.750,-821.289,45.410
1678025645.721,-741.699,968.750,969.238,-924.316,44.434
1678025645.725,-774.902,969.238,968.750,-991.211,-19.531
1678025645.729,-854.492,968.750,968.750,-999.512,-202.148
1678025645.733,-904.785,968.750,968.750,-996.582,-49.316
1678025645.736,-844.727,968.750,969.238,-1000.000,369.141
1678025645.740,-775.391,968.750,968.750,-953.613,149.902
1678025645.744,-734.863,968.750,968.750,-910.645,-29.785
1678025645.748,-760.742,968.750,969.238,-931.152,-105.957
1678025645.752,-687.988,968.750,968.750,-848.633,-325.195
1678025645.756,-583.496,968.750,968.750,-752.441,-220.215
1678025645.760,-559.082,968.750,968.750,-698.242,45.898
1678025645.763,-583.496,968.750,968.750,-688.965,375.000
1678025645.767,-517.090,968.750,968.750,-667.969,79.102
1678025645.771,-351.562,968.750,968.750,-546.875,-311.523
1678025645.775,-206.055,968.750,968.750,-351.074,-165.039
1678025645.779,-129.395,969.238,968.750,-214.844,82.520
1678025645.796,-75.684,964.844,968.750,-176.758,17.090
1678025645.800,-36.133,971.680,968.750,-136.230,-166.992
1678025645.804,-4.883,934.082,969.238,-65.430,-198.242
1678025645.808,79.102,786.133,965.332,22.949,-119.141
1678025645.812,140.137,655.762,972.168,69.824,-42.969
1678025645.816,162.598,573.730,942.383,64.941,38.086
1678025645.820,184.082,506.836,825.195,151.367,272.949
1678025645.823,208.008,454.102,710.449,264.648,147.949
1678025645.827,223.145,377.441,602.539,342.285,-264.648
1678025645.831,246.094,289.062,485.840,403.809,-79.590
1678025645.835,297.363,207.031,357.422,447.266,214.355
1678025645.839,331.543,145.020,236.816,488.770,87.402
1678025645.825,330.566,88.867,153.320,524.414,-105.957
1678025645.829,338.379,16.113,58.105,575.684,-146.484
1678025645.833,359.863,-80.078,-47.363,645.508,133.301
1678025645.837,354.004,-141.113,-154.297,713.379,180.176
1678025645.841,322.754,-163.086,-259.277,651.367,-42.480
1678025645.845,321.777,-221.680,-273.926,568.848,-74.219
1678025645.849,345.703,-300.293,-274.414,574.219,22.461
1678025645.852,356.445,-362.793,-314.453,578.125,27.832
1678025645.856,356.445,-404.297,-334.473,607.910,-0.488
1678025645.860,378.906,-457.031,-345.215,627.441,25.879
1678025645.864,370.605,-517.578,-357.422,621.582,140.625
1678025645.868,345.703,-567.383,-407.715,609.375,-110.840
1678025645.872,413.574,-616.699,-437.988,639.648,-200.684
1678025645.876,445.801,-671.387,-429.199,681.641,112.793
1678025645.880,393.066,-725.098,-445.801,631.836,122.559
1678025645.884,358.887,-767.578,-495.117,567.871,-179.199
1678025645.888,390.625,-797.363,-541.504,579.590,-246.582
1678025645.892,435.547,-830.078,-567.383,617.188,3.906
1678025645.896,449.219,-868.164,-584.473,616.211,128.906
1678025645.899,439.941,-895.020,-600.098,609.375,49.316
1678025645.903,420.898,-910.645,-623.535,583.496,-89.844
1678025645.907,431.152,-935.059,-644.043,587.891,-48.340
1678025645.911,442.871,-960.938,-659.668,623.047,28.809
1678025645.915,467.285,-981.445,-689.941,618.164,-2.930
1678025645.931,463.867,-998.047,-738.281,606.445,90.332
1678025645.935,450.195,-1000.000,-790.527,577.637,135.742
1678025645.939,459.473,-1000.000,-847.656,571.777,-24.902
1678025645.943,452.148,-1000.000,-935.059,603.027,-188.477
1678025645.947,461.426,-1000.000,-997.070,599.121,-62.012
1678025645.951,474.609,-1000.000,-1000.000,595.215,329.102
1678025645.955,453.613,-1000.000,-999.023,557.129,121.582
1678025645.958,431.641,-1000.000,-1000.000,532.227,-283.203
1678025645.962,443.359,-1000.000,-1000.000,547.363,-176.758
1678025645.966,483.398,-1000.000,-1000.000,556.641,28.809
1678025645.970,483.398,-1000.000,-1000.000,544.434,-14.160
1678025645.974,432.129,-1000.000,-1000.000,508.301,-142.090
1678025645.976,383.301,-1000.000,-1000.000,469.727,-194.824
1678025645.980,360.352,-1000.000,-1000.000,459.961,-166.504
1678025645.984,360.352,-1000.000,-1000.000,458.496,-99.121
1678025645.988,360.840,-1000.000,-1000.000,452.148,59.570
1678025645.992,337.402,-1000.000,-1000.000,432.617,200.195
1678025645.996,311.035,-1000.000,-1000.000,402.832,-19.531
1678025646.000,331.543,-1000.000,-1000.000,396.484,-140.137
1678025646.003,343.262,-1000.000,-1000.000,397.949,-97.168
1678025646.007,311.035,-1000.000,-1000.000,385.254,144.043
1678025646.011,270.020,-1000.000,-1000.000,355.957,236.816
1678025646.015,247.559,-1000.000,-1000.000,306.152,-218.750
1678025646.019,229.004,-1000.000,-1000.000,279.785,-292.480
1678025646.021,223.633,-1000.000,-1000.000,285.645,39.551
1678025646.025,224.609,-1000.000,-1000.000,297.363,77.148
1678025646.029,210.938,-1000.000,-1000.000,289.551,-49.316
1678025646.033,187.012,-1000.000,-1000.000,264.160,-119.629
1678025646.037,160.645,-1000.000,-1000.000,234.863,-90.332
1678025646.041,174.316,-1000.000,-1000.000,226.562,-69.824
1678025646.045,204.590,-1000.000,-1000.000,248.535,-41.992
1678025646.048,197.266,-1000.000,-1000.000,246.094,83.496
1678025646.052,131.836,-983.398,-1000.000,182.617,221.191
1678025646.056,120.605,-954.102,-1000.000,161.621,14.160
1678025646.060,159.668,-940.430,-1000.000,169.922,-186.035
1678025646.064,161.133,-932.617,-1000.000,193.359,-43.457
1678025646.065,138.672,-916.016,-1000.000,188.965,0.000
1678025646.069,125.488,-895.996,-999.512,149.902,-140.137
1678025646.073,142.578,-871.094,-1000.000,149.902,-176.270
1678025646.077,158.203,-851.074,-981.934,165.039,-69.336
1678025646.081,149.414,-837.891,-932.617,166.504,-38.086
1678025646.085,120.605,-827.148,-887.695,150.879,-11.230
1678025646.089,110.840,-815.430,-864.258,108.887,-38.574
1678025646.092,102.051,-801.270,-899.414,94.727,-20.020
1678025646.096,76.660,-785.156,-929.688,109.863,49.805
1678025646.100,76.172,-765.625,-902.344,114.258,-30.273
1678025646.104,79.102,-757.324,-873.535,99.609,0.000
1678025646.108,45.410,-756.836,-859.375,61.035,52.734
1678025646.110,35.156,-750.488,-836.914,39.062,-62.988
1678025646.114,37.598,-727.051,-803.711,40.039,-180.664
1678025646.118,47.363,-698.730,-775.391,48.828,-81.055
1678025646.122,52.246,-686.035,-738.770,57.129,188.965
1678025646.126,18.555,-673.340,-698.730,31.738,15.625
1678025646.130,-11.230,-655.273,-666.992,-2.441,-190.430
1678025646.134,-1.465,-650.391,-636.230,0.000,-81.055
1678025646.137,-12.207,-652.832,-617.676,19.531,243.652
1678025646.141,-38.086,-639.648,-623.535,12.207,222.656
1678025646.145,-34.180,-625.000,-608.398,-4.883,-64.453
1678025646.149,-42.480,-605.469,-558.594,-20.020,-177.734
1678025646.153,-32.715,-591.309,-508.301,-20.508,-131.836
1678025646.155,-22.461,-599.121,-500.000,-8.789,-90.820
1678025646.159,-35.645,-579.102,-488.281,-12.695,-34.180
1678025646.163,-60.547,-555.664,-447.754,-17.578,-10.742
1678025646.167,-68.848,-547.852,-421.875,-41.992,-91.797
1678025646.171,-70.801,-532.715,-420.898,-54.199,-217.285
1678025646.175,-40.527,-518.555,-411.621,-25.879,-59.570
1678025646.179,-14.648,-515.625,-380.859,2.441,307.129
1678025646.182,-49.805,-502.930,-353.027,-28.320,295.410
1678025646.186,-71.777,-493.652,-333.984,-86.426,-193.848
1678025646.190,-66.406,-489.746,-321.289,-94.727,-280.273
1678025646.194,-56.641,-479.004,-311.523,-58.594,-95.215
1678025646.198,-34.668,-474.609,-312.012,-50.781,22.949
1678025646.202,-48.340,-472.656,-327.148,-79.590,4.883
1678025646.206,-68.848,-474.121,-323.730,-101.562,-87.402
1678025646.210,-68.359,-481.445,-278.809,-82.520,69.336
1678025646.214,-46.875,-452.637,-239.258,-63.477,-6.836
1678025646.218,-56.152,-422.852,-232.910,-69.824,-114.258
1678025646.222,-83.984,-428.711,-226.074,-67.871,20.508
1678025646.226,-71.777,-425.293,-215.820,-62.012,109.863
1678025646.229,-59.570,-411.621,-215.820,-70.312,-29.785
1678025646.233,-36.621,-411.133,-220.215,-53.223,-142.578
1678025646.237,-3.418,-407.715,-208.496,-11.230,-22.461
1678025646.241,-52.246,-401.855,-180.664,-49.316,149.414
1678025646.245,-71.289,-400.391,-160.156,-83.496,-56.641
1678025646.260,-22.949,-396.484,-148.926,-55.176,-216.797
1678025646.264,-17.578,-386.719,-158.203,-55.176,-161.621
1678025646.268,9.277,-381.348,-153.809,-19.043,-104.980
1678025646.272,47.852,-383.789,-127.930,22.461,5.859
1678025646.276,31.738,-377.441,-125.977,-11.230,-27.832
1678025646.280,31.738,-369.141,-130.371,-28.320,58.105
1678025646.284,64.941,-368.164,-123.535,12.207,231.445
1678025646.287,81.055,-365.723,-109.863,68.359,-30.762
1678025646.291,62.500,-366.211,-103.027,82.520,-48.828
1678025646.295,51.270,-367.676,-100.586,59.570,3.418
1678025646.299,43.945,-364.746,-87.891,54.688,-178.223
1678025646.303,53.223,-358.887,-76.172,54.688,-211.914
1678025646.306,61.523,-353.516,-70.801,57.617,-86.426
1678025646.310,45.410,-354.980,-61.523,66.406,142.578
1678025646.314,42.969,-349.609,-53.711,68.848,12.695
1678025646.318,14.160,-353.027,-41.992,42.969,-211.914
1678025646.322,19.531,-358.887,-37.598,51.758,-204.590
1678025646.326,55.664,-350.586,-39.062,69.824,-103.027
1678025646.330,59.570,-344.727,-37.598,94.238,47.363
1678025646.333,46.875,-343.750,-41.016,99.609,14.160
1678025646.337,37.598,-337.891,-38.086,71.777,-44.434
1678025646.341,42.480,-340.820,-26.855,92.285,169.434
1678025646.345,56.641,-337.891,-24.902,125.488,95.215
1678025646.349,65.430,-328.125,-31.250,144.531,2.441
1678025646.351,41.016,-325.684,-24.902,93.750,3.418
1678025646.355,26.367,-323.730,-25.391,43.945,-96.680
1678025646.359,17.578,-315.918,-32.715,49.805,-209.961
1678025646.363,41.992,-313.477,-61.035,63.965,-193.359
1678025646.367,67.871,-314.941,-55.664,75.684,-22.949
1678025646.371,19.531,-309.082,-19.043,40.527,-6.348
1678025646.375,11.230,-305.176,-15.625,22.461,-60.059
1678025646.378,4.883,-298.828,-22.461,20.508,-109.375
1678025646.382,-7.324,-289.551,-34.180,35.645,211.426
1678025646.386,14.160,-288.574,-32.227,21.973,458.008
1678025646.390,13.672,-281.738,-22.949,4.395,54.688
1678025646.394,-10.742,-275.391,-30.273,-8.789,-171.387
1678025646.396,1.953,-274.414,-34.668,-17.090,-118.652
1678025646.400,40.527,-270.996,-47.363,-0.488,-176.758
1678025646.404,40.039,-263.672,-46.387,38.086,-185.547
1678025646.408,26.855,-258.301,-33.203,41.504,-100.098
1678025646.412,29.785,-254.395,-38.574,12.695,-47.852
1678025646.416,-17.578,-244.629,-52.734,16.113,-151.367
1678025646.420,-32.715,-240.723,-55.176,6.836,-192.383
1678025646.423,-10.254,-238.281,-47.363,23.926,-53.711
1678025646.427,0.000,-226.074,-33.691,74.707,286.133
1678025646.431,-10.742,-216.797,-20.996,38.574,73.242
1678025646.435,-27.344,-210.938,-28.809,-8.789,-289.062
1678025646.439,-7.812,-209.473,-37.109,14.648,-160.645
1678025646.444,21.484,-214.355,-29.785,50.781,-47.852
1678025646.448,15.625,-198.730,-29.785,49.805,-42.969
1678025646.452,5.371,-181.152,-37.598,30.273,-81.543
1678025646.456,-13.672,-187.988,-34.668,17.578,-153.320
1678025646.460,-4.883,-201.172,-28.320,27.832,-196.289
1678025646.464,17.578,-187.988,-25.391,63.965,-106.934
1678025646.468,28.809,-157.715,-28.809,66.406,70.801
1678025646.471,2.930,-152.832,-19.043,46.387,149.414
1678025646.475,-11.719,-163.574,-22.461,39.062,87.891
1678025646.479,3.906,-169.434,-31.738,46.875,-138.672
1678025646.483,6.348,-164.551,-32.227,55.664,-122.559
1678025646.487,32.715,-159.180,-35.645,78.613,16.113
1678025646.487,4.395,-163.086,-35.645,61.523,5.371
1678025646.491,-38.574,-168.945,-30.762,39.551,-114.258
1678025646.495,-23.438,-165.527,-30.762,55.176,-184.082
1678025646.499,-1.465,-161.133,-44.922,65.430,-16.113
1678025646.503,17.090,-162.598,-39.062,80.078,12.207
1678025646.507,9.766,-153.809,-36.621,81.543,-27.832
1678025646.511,6.348,-151.855,-33.203,76.172,-57.129
1678025646.514,-29.785,-158.203,-24.902,38.574,157.715
1678025646.518,-38.574,-162.109,-28.320,62.500,299.805
1678025646.522,23.438,-167.969,-24.414,129.395,71.777
1678025646.526,37.109,-170.898,-23.438,143.066,-5.371
1678025646.530,1.953,-169.922,-32.715,113.281,-89.844
1678025646.531,4.395,-170.410,-35.156,94.238,-233.398
1678025646.535,42.969,-164.062,-43.945,132.324,-236.816
1678025646.539,72.266,-158.691,-46.387,170.898,-47.852
1678025646.543,57.617,-154.785,-44.434,154.297,41.016
1678025646.547,31.738,-159.180,-46.875,115.723,-136.230
1678025646.551,37.598,-167.480,-46.875,116.699,-243.164
1678025646.555,48.340,-165.039,-51.758,128.418,33.691
1678025646.558,45.898,-165.039,-53.711,137.207,386.719
1678025646.562,44.922,-164.062,-52.246,152.832,145.996
1678025646.566,20.508,-163.086,-52.734,125.000,-154.785
1678025646.570,24.414,-163.086,-55.664,90.332,-169.922
1678025646.574,44.434,-164.062,-61.523,105.469,-139.160
1678025646.575,36.133,-166.016,-61.523,133.789,-93.262
1678025646.579,27.832,-170.898,-51.758,126.953,9.766
1678025646.583,18.066,-180.664,-59.082,92.773,166.992
1678025646.587,1.953,-178.711,-73.242,73.242,-11.230
1678025646.591,4.395,-175.781,-62.500,77.637,-249.023
1678025646.595,23.438,-174.316,-53.223,98.633,-45.898
1678025646.599,17.090,-171.875,-57.129,103.516,243.652
1678025646.602,6.348,-176.270,-59.570,72.754,18.555
1678025646.606,0.488,-180.664,-53.711,56.641,-295.898
1678025646.610,7.812,-179.199,-50.293,60.547,-229.980
1678025646.614,28.320,-180.664,-48.828,91.309,130.859
1678025646.618,32.227,-180.664,-50.781,104.980,65.918
1678025646.621,9.766,-182.129,-49.805,63.477,-150.391
1678025646.625,-14.648,-185.547,-49.805,38.574,-151.855
1678025646.629,-3.906,-185.547,-56.152,44.922,-144.043
1678025646.633,27.832,-185.547,-57.129,82.520,-116.699
1678025646.637,41.504,-187.500,-63.965,94.238,13.672
1678025646.641,5.859,-187.988,-72.266,73.730,69.336
1678025646.645,-16.113,-186.523,-61.523,51.758,-126.953
1678025646.648,7.324,-182.129,-62.988,52.246,-198.730
1678025646.652,33.203,-182.129,-44.434,78.125,-128.906
1678025646.656,34.180,-183.105,-18.066,100.098,141.113
1678025646.660,20.996,-177.246,-16.602,84.473,240.723
1678025646.664,2.930,-171.875,-23.438,58.105,-76.172
1678025646.681,17.578,-171.387,-33.691,54.688,-89.844
1678025646.685,27.832,-170.898,-34.668,63.965,118.652
1678025646.689,27.344,-165.527,-32.715,84.473,77.637
1678025646.693,36.621,-165.039,-37.109,66.895,-73.730
1678025646.697,7.324,-166.992,-45.410,39.551,-135.254
1678025646.701,11.230,-167.480,-47.363,36.133,-142.090
1678025646.705,20.508,-164.551,-44.922,35.645,-152.344
1678025646.708,23.438,-165.039,-51.270,41.992,-59.570
1678025646.712,30.273,-166.992,-47.363,36.133,29.785
1678025646.716,6.836,-168.945,-28.809,13.672,117.188
1678025646.720,0.488,-168.457,-20.996,-5.859,-43.945
1678025646.724,-0.488,-163.086,-25.391,20.020,-181.152
1678025646.726,20.508,-167.969,-26.855,61.035,8.301
1678025646.730,26.855,-171.875,-24.414,44.922,74.707
1678025646.734,-12.207,-162.109,-20.508,6.836,-147.461
1678025646.738,-18.555,-156.250,-19.043,-0.977,-250.977
1678025646.742,-0.488,-152.832,-29.785,21.973,-118.164
1678025646.746,16.602,-154.297,-23.926,41.504,89.355
1678025646.750,16.602,-156.738,-12.695,29.297,125.977
1678025646.753,-16.113,-158.203,-11.719,-0.977,-60.547
1678025646.757,-21.973,-161.133,-7.812,-5.371,72.266
1678025646.761,7.812,-159.668,-15.137,21.973,159.668
1678025646.765,35.156,-153.809,-27.832,40.039,-46.875
1678025646.769,28.809,-148.438,-30.762,41.992,47.363
1678025646.770,-4.883,-150.391,-26.367,21.484,170.898
1678025646.774,-20.020,-152.344,-21.973,-12.695,-81.543
1678025646.778,-10.742,-151.855,-16.602,3.906,-242.676
1678025646.782,19.043,-150.391,-16.602,47.363,-97.656
1678025646.786,25.391,-150.391,-12.207,61.035,152.832
1678025646.790,-1.465,-152.832,-8.789,19.531,32.227
1678025646.794,-17.578,-150.879,-13.672,-20.020,-138.672
1678025646.797,-6.836,-144.043,-2.441,-7.324,-116.211
1678025646.801,17.090,-143.066,-2.441,26.367,141.602
1678025646.805,30.762,-140.625,-10.742,45.898,145.996
1678025646.809,14.648,-136.230,-10.254,28.320,-96.680
1678025646.813,-15.625,-130.859,-10.742,-5.371,-243.652
1678025646.815,-8.301,-126.465,-17.090,-9.277,-240.234
1678025646.819,15.137,-126.953,-17.090,17.090,-164.062
1678025646.823,38.086,-123.535,-21.484,48.340,-78.613
1678025646.827,18.555,-121.094,-18.066,28.809,40.039
1678025646.831,-17.090,-121.094,-11.719,-17.090,-47.363
1678025646.835,-17.090,-123.047,-16.113,-9.766,-169.434
1678025646.839,17.090,-118.652,-18.066,21.973,-136.230
1678025646.842,25.879,-110.840,-20.508,40.527,156.250
1678025646.846,-5.859,-113.281,-22.949,22.461,286.621
1678025646.850,-19.531,-115.234,-19.531,-4.883,-88.867
1678025646.854,-7.812,-113.770,-23.926,-10.742,-234.375
1678025646.858,9.766,-114.258,-29.785,10.254,-58.105
1678025646.860,26.367,-116.699,-28.320,40.527,51.270
1678025646.864,-1.953,-118.652,-34.668,19.043,-20.020
1678025646.868,-19.043,-115.234,-36.621,-18.066,-122.559
1678025646.872,1.953,-108.887,-27.344,1.465,9.766
1678025646.876,-1.953,-111.816,-31.250,23.926,-53.711
1678025646.880,18.555,-108.887,-40.039,54.688,-8.789
1678025646.884,0.977,-108.887,-41.504,38.574,174.805
1678025646.887,-12.695,-112.793,-32.715,-7.812,337.891
1678025646.891,9.766,-103.516,-32.227,-4.883,85.449
1678025646.895,23.438,-98.633,-39.551,31.250,-260.742
1678025646.899,22.461,-93.262,-40.039,48.340,-81.543
1678025646.903,19.531,-91.797,-28.809,67.871,33.203
1678025646.906,-5.371,-90.820,-26.367,39.062,-131.348
1678025646.910,-28.320,-90.332,-33.203,-2.441,-285.156
1678025646.914,12.207,-93.262,-34.180,4.883,-194.824
1678025646.918,42.480,-87.402,-40.527,56.641,-13.672
1678025646.922,34.180,-82.520,-50.781,54.688,80.566
1678025646.926,-1.465,-86.914,-47.363,-27.832,68.848
1678025646.930,-27.344,-91.797,-45.898,-15.137,52.734
1678025646.933,-1.953,-89.844,-52.734,14.160,93.262
1678025646.937,-11.230,-86.914,-43.945,1.465,-22.949
1678025646.941,-8.789,-89.844,-38.086,28.809,-14.160
1678025646.945,26.855,-84.961,-54.199,50.781,96.191
1678025646.949,8.301,-72.754,-70.801,6.836,-56.641
1678025646.951,-53.711,-72.754,-62.012,-53.711,-193.848
1678025646.955,-61.035,-61.523,-57.129,-37.598,-62.988
1678025646.959,-22.949,-46.387,-72.754,2.441,251.465
1678025646.963,-46.387,-36.621,-79.102,-54.199,134.766
1678025646.967,-112.305,-38.086,-74.707,-128.906,-256.836
1678025646.971,-133.789,-42.969,-70.312,-141.113,-171.875
1678025646.975,-132.324,-33.691,-73.730,-136.230,151.855
1678025646.978,-144.531,-35.156,-89.355,-142.090,65.918
1678025646.982,-157.227,-40.039,-91.797,-163.086,-84.961
1678025646.986,-210.449,-35.156,-83.496,-206.055,-128.906
1678025646.990,-238.770,-31.738,-87.891,-229.980,59.082
1678025646.994,-208.496,-30.273,-102.051,-219.238,7.324
1678025647.011,-188.477,-20.020,-103.027,-207.520,-34.668
1678025647.015,-211.914,-22.461,-101.074,-226.562,27.832
1678025647.019,-229.492,-25.391,-104.004,-270.508,-161.621
1678025647.023,-254.883,-14.160,-106.934,-311.523,-318.359
1678025647.027,-266.113,-8.301,-117.188,-287.109,-215.332
1678025647.031,-218.750,-1.465,-119.629,-228.027,169.434
1678025647.035,-210.938,2.441,-111.816,-250.977,212.402
1678025647.038,-256.348,-6.348,-114.258,-301.758,-116.211
1678025647.042,-272.949,-7.812,-125.000,-291.016,-258.789
1678025647.046,-247.559,-5.371,-119.141,-246.094,-19.531
1678025647.050,-216.309,-9.766,-115.234,-208.008,62.500
1678025647.054,-188.477,-10.254,-117.676,-208.008,-34.180
1678025647.056,-210.938,-9.766,-114.746,-228.027,-11.230
1678025647.060,-229.980,-13.672,-117.676,-217.285,29.297
1678025647.064,-181.152,-9.766,-119.141,-188.477,-20.996
1678025647.068,-135.254,-1.953,-112.793,-152.832,-93.262
1678025647.072,-147.949,-0.977,-107.422,-137.207,-2.441
1678025647.076,-181.641,-9.766,-106.445,-176.758,9.766
1678025647.080,-181.641,-15.137,-94.238,-196.777,-138.672
1678025647.083,-155.273,-7.324,-88.867,-164.062,-236.816
1678025647.087,-109.863,-0.977,-95.215,-115.234,-37.598
1678025647.091,-108.398,-6.836,-103.516,-103.516,346.680
1678025647.095,-134.277,-10.254,-106.934,-126.465,90.820
1678025647.099,-138.672,-1.953,-95.215,-135.254,-219.727
1678025647.102,-119.141,6.836,-84.961,-133.301,-170.898
1678025647.106,-99.121,4.883,-76.660,-123.047,-67.871
1678025647.110,-81.055,2.930,-71.777,-102.051,58.105
1678025647.114,-98.633,-0.977,-83.008,-115.234,-4.883
1678025647.118,-131.348,0.000,-79.102,-145.508,-84.473
1678025647.122,-138.672,1.953,-66.406,-134.277,-28.809
1678025647.126,-110.352,0.488,-59.570,-100.098,-72.754
1678025647.129,-89.844,3.906,-74.707,-85.938,-6.836
1678025647.133,-90.820,12.207,-91.309,-108.887,178.223
1678025647.137,-115.234,12.207,-68.359,-140.625,58.594
1678025647.141,-134.277,5.859,-51.270,-132.324,-215.332
1678025647.145,-94.727,8.301,-53.223,-95.703,-129.395
1678025647.145,-75.684,17.090,-55.176,-70.801,90.332
1678025647.149,-95.703,21.973,-61.523,-87.891,41.992
1678025647.153,-106.934,21.973,-63.477,-127.930,-211.426
1678025647.157,-96.680,21.973,-59.570,-133.301,-287.598
1678025647.161,-82.520,25.391,-66.406,-104.492,-44.922
1678025647.165,-65.430,29.785,-63.965,-73.242,127.930
1678025647.169,-63.965,33.691,-50.293,-73.242,118.652
1678025647.172,-90.820,36.621,-51.758,-100.098,-0.977
1678025647.176,-81.543,36.621,-56.152,-100.586,32.227
1678025647.180,-66.895,35.645,-50.293,-81.055,19.531
1678025647.184,-52.246,34.668,-38.574,-64.453,-23.438
1678025647.188,-64.453,30.762,-43.457,-75.684,3.906
1678025647.190,-95.703,28.320,-57.617,-111.816,-81.055
1678025647.194,-87.402,37.598,-47.363,-99.121,-252.441
1678025647.198,-77.637,40.527,-37.598,-78.613,-235.352
1678025647.202,-59.570,44.434,-29.785,-71.777,-19.531
1678025647.206,-56.641,55.664,-17.578,-62.988,16.113
1678025647.210,-97.656,57.617,-11.230,-106.445,-49.316
1678025647.214,-110.840,50.293,-13.184,-136.719,-207.031
1678025647.217,-88.379,61.035,-36.133,-97.656,-109.863
1678025647.221,-56.152,69.336,-57.617,-56.152,250.977
1678025647.225,-46.875,65.918,-38.086,-60.059,59.082
1678025647.229,-82.031,68.848,-20.508,-112.305,-132.324
1678025647.233,-90.332,69.336,-15.625,-132.812,-127.441
1678025647.236,-83.984,66.406,-8.301,-107.422,-135.254
1678025647.240,-71.777,74.219,-9.766,-72.266,-71.777
1678025647.244,-50.781,84.473,-17.090,-61.035,-8.301
1678025647.248,-64.941,81.055,-16.602,-85.449,101.562
1678025647.252,-85.449,82.520,-18.066,-107.910,-127.930
1678025647.256,-77.148,90.332,-28.809,-95.215,-256.348
1678025647.260,-45.410,88.867,-22.461,-50.781,10.742
1678025647.263,-27.832,90.332,-6.348,-37.598,355.957
1678025647.267,-51.758,97.168,-4.883,-79.102,102.051
1678025647.271,-78.125,90.332,0.000,-99.609,-235.352
1678025647.275,-84.961,84.961,-7.812,-88.867,-180.664
1678025647.279,-68.848,90.820,-10.254,-67.383,-61.523
1678025647.280,-24.414,92.285,26.855,-4.395,11.719
1678025647.284,-48.340,101.074,29.785,-24.414,-66.895
1678025647.288,-141.602,109.863,14.160,-133.789,-156.250
1678025647.292,-160.645,105.957,24.414,-168.457,-197.266
1678025647.296,-109.375,107.422,34.668,-139.160,-128.906
1678025647.300,-89.844,105.469,25.391,-106.934,60.547
1678025647.304,-121.582,100.586,9.766,-123.535,270.996
1678025647.307,-180.664,96.680,13.184,-174.316,180.664
1678025647.311,-216.797,92.773,12.695,-205.566,-183.105
1678025647.315,-184.570,104.980,3.906,-187.012,-114.258
1678025647.319,-166.504,119.629,1.465,-173.828,68.359
1678025647.323,-203.125,119.141,-10.254,-210.938,-38.086
1678025647.327,-234.863,115.723,-14.648,-240.234,-112.305
1678025647.331,-213.379,120.117,3.906,-218.750,-119.141
1678025647.335,-158.691,124.023,6.836,-167.969,166.016
1678025647.339,-122.559,124.023,20.996,-140.625,260.254
1678025647.343,-127.441,132.812,23.438,-150.879,-24.902
1678025647.347,-160.645,126.953,10.742,-163.574,-74.707
1678025647.351,-156.250,124.023,8.789,-171.875,101.562
1678025647.354,-119.629,130.371,8.789,-141.113,-29.297
1678025647.358,-86.426,124.512,13.184,-83.984,-89.355
1678025647.362,-76.660,126.465,5.371,-52.734,45.410
1678025647.366,-109.863,133.301,7.812,-98.633,-74.707
1678025647.370,-113.281,137.207,23.926,-136.719,-247.559
1678025647.386,-78.125,140.137,29.297,-93.262,-193.848
1678025647.390,-45.898,145.020,21.484,-35.156,-19.043
1678025647.394,-38.574,157.715,20.508,-18.555,113.770
1678025647.398,-59.082,160.156,18.066,-69.824,-52.734
1678025647.402,-77.148,141.113,8.301,-127.930,-285.156
1678025647.406,-75.195,134.277,29.785,-82.031,-87.891
1678025647.410,-41.992,154.297,62.988,-40.527,237.793
1678025647.413,-27.832,159.180,63.965,-35.156,89.844
1678025647.417,-50.293,147.461,47.852,-11.230,-114.258
1678025647.421,-71.289,144.531,47.852,15.625,-121.094
1678025647.425,-64.941,145.996,47.363,-6.836,-156.250
1678025647.429,-21.973,138.184,34.180,-23.438,-123.535
1678025647.431,-4.883,142.578,43.945,23.438,89.355
1678025647.435,-44.922,151.855,48.828,20.996,161.133
1678025647.439,-73.730,146.973,55.664,-30.273,-82.031
1678025647.443,-57.617,152.344,65.430,-47.852,-236.328
1678025647.447,-44.434,156.250,63.477,-17.090,-74.219
1678025647.451,-44.922,157.227,61.035,21.973,200.684
1678025647.455,-65.918,157.227,57.129,-12.207,119.629
1678025647.458,-97.168,156.738,54.199,-63.965,-158.203
1678025647.462,-88.379,153.320,54.199,-64.453,-202.637
1678025647.466,-79.590,147.461,55.176,-32.227,197.754
1678025647.470,-48.828,144.531,49.316,-25.391,181.152
1678025647.474,-64.453,149.414,46.387,-42.969,-106.934
1678025647.475,-139.648,147.461,46.387,-73.730,-164.551
1678025647.479,-140.625,146.973,50.293,-81.543,-205.566
1678025647.483,-108.887,144.043,56.152,-65.430,-173.828
1678025647.487,-85.449,141.602,46.387,-40.527,12.695
1678025647.491,-89.844,139.160,45.410,-45.898,94.238
1678025647.495,-112.793,139.160,52.246,-73.730,14.160
1678025647.499,-153.809,147.461,45.898,-124.023,-95.703
1678025647.502,-166.504,146.973,35.156,-132.324,-74.219
1678025647.506,-132.324,145.020,23.926,-95.703,179.199
1678025647.510,-145.508,151.367,15.625,-105.469,371.582
1678025647.514,-186.523,155.273,7.324,-168.945,-47.363
1678025647.518,-182.617,156.738,-4.395,-217.773,-259.766
1678025647.520,-168.945,155.762,-13.184,-208.008,-15.137
1678025647.524,-175.781,153.809,-18.066,-204.590,-41.016
1678025647.528,-207.520,149.902,-30.273,-243.164,-50.781
1678025647.532,-229.492,146.973,-37.109,-258.789,-49.316
1678025647.536,-226.074,152.344,-35.156,-255.859,-88.867
1678025647.540,-205.566,153.320,-40.527,-244.629,-101.562
1678025647.544,-161.133,152.344,-43.945,-203.613,-30.762
1678025647.547,-156.738,145.508,-57.617,-187.988,78.613
1678025647.551,-188.965,129.395,-60.547,-201.660,214.355
1678025647.555,-189.453,135.742,-60.547,-224.609,4.395
1678025647.559,-174.316,136.230,-69.336,-219.727,-272.949
1678025647.563,-139.160,125.000,-78.125,-189.941,-90.332
1678025647.566,-120.605,118.164,-83.984,-156.250,66.406
1678025647.570,-155.273,106.934,-73.242,-149.902,-135.742
1678025647.574,-173.340,99.121,-76.172,-215.820,-285.156
1678025647.578,-169.922,91.309,-85.449,-250.000,-172.363
1678025647.582,-123.047,96.680,-79.590,-149.902,-64.941
1678025647.586,-114.258,96.680,-79.590,-104.004,15.625
1678025647.590,-154.297,85.938,-84.961,-158.691,7.324
1678025647.593,-157.715,83.984,-88.867,-187.500,7.812
1678025647.597,-122.070,87.402,-76.660,-157.227,3.906
1678025647.601,-87.402,88.379,-68.359,-108.398,-99.609
1678025647.605,-72.266,82.520,-71.777,-69.824,-18.555
1678025647.609,-83.984,75.195,-56.152,-81.055,99.609
1678025647.610,-117.188,71.289,-51.758,-123.047,-26.855
1678025647.614,-108.398,75.684,-45.410,-112.793,-197.754
1678025647.618,-58.594,85.938,-39.551,-82.031,-140.137
1678025647.622,-51.270,85.449,-51.270,-47.852,209.473
1678025647.626,-75.684,81.055,-28.320,-50.781,118.652
1678025647.630,-93.262,82.031,-9.766,-100.586,-224.121
1678025647.634,-86.426,74.707,-22.949,-98.633,-190.918
1678025647.637,-46.875,65.918,-20.020,-49.805,131.836
1678025647.641,-34.668,63.965,-1.953,-43.945,100.586
1678025647.645,-62.500,72.754,-14.160,-87.402,12.207
1678025647.649,-87.402,76.660,-29.297,-112.305,-82.520
1678025647.653,-89.355,76.660,-2.930,-114.746,-204.102
1678025647.672,-73.242,71.777,15.137,-106.445,-145.508
1678025647.676,-54.688,68.359,9.277,-70.312,-10.254
1678025647.680,-55.176,66.406,14.648,-88.379,134.766
1678025647.684,-91.797,67.383,11.719,-133.789,-59.570
1678025647.688,-104.980,66.406,-1.465,-137.207,-281.250
1678025647.692,-79.590,67.871,5.859,-112.305,-166.016
1678025647.696,-52.734,76.172,12.695,-81.055,198.242
1678025647.699,-44.922,77.637,20.508,-78.125,286.133
1678025647.703,-84.473,77.148,30.273,-121.582,-101.074
1678025647.707,-87.402,77.637,35.645,-142.578,-278.809
1678025647.711,-67.871,77.148,47.363,-120.117,-187.988
1678025647.715,-51.270,81.543,26.855,-91.797,-59.570
1678025647.701,-43.457,68.848,13.184,-85.449,38.574
1678025647.705,-66.895,67.383,27.344,-117.188,-36.133
1678025647.709,-88.379,77.148,32.715,-138.672,-42.480
1678025647.713,-90.332,83.984,47.363,-133.301,-101.562
1678025647.717,-74.707,89.355,75.195,-113.770,-69.824
1678025647.721,-69.824,71.289,78.613,-106.445,133.301
1678025647.725,-105.957,59.570,63.477,-129.883,141.602
1678025647.728,-115.234,72.754,63.965,-159.668,-160.645
1678025647.732,-83.496,76.660,54.199,-139.648,-305.176
1678025647.736,-50.781,77.148,30.762,-98.633,-101.074
1678025647.740,-44.434,81.543,51.758,-76.660,310.547
1678025647.744,-71.777,91.797,76.172,-93.750,163.574
1678025647.761,-83.496,97.656,57.129,-104.004,-187.988
1678025647.765,-75.684,83.008,62.988,-87.891,-174.805
1678025647.769,-64.453,89.844,66.406,-75.195,-134.277
1678025647.773,-26.855,117.676,32.227,-63.965,-42.969
1678025647.777,-39.062,116.699,69.336,-59.082,-83.984
1678025647.781,-70.312,113.770,109.863,-66.895,-124.512
1678025647.785,-87.402,106.445,89.844,-77.148,-105.469
1678025647.788,-88.867,109.375,67.383,-71.289,-68.359
1678025647.792,-56.641,129.883,69.336,-53.223,39.062
1678025647.796,-64.941,126.953,76.172,-76.660,222.656
1678025647.800,-94.238,122.070,67.871,-115.234,128.906
1678025647.804,-76.660,127.441,99.121,-105.469,-217.773
1678025647.806,-50.781,131.836,120.605,-88.867,-89.355
1678025647.810,-37.109,136.719,104.492,-56.152,210.449
1678025647.814,-66.406,141.602,99.121,-58.105,40.527
1678025647.818,-102.051,133.301,97.656,-98.633,-246.094
1678025647.822,-82.520,132.324,90.820,-107.910,-292.969
1678025647.826,-51.270,158.691,86.914,-77.637,-83.008
1678025647.830,-29.297,169.434,76.172,-24.414,89.844
1678025647.833,-51.758,146.973,77.637,-36.133,-27.832
1678025647.837,-110.840,152.344,92.285,-111.328,-109.375
1678025647.841,-93.262,166.504,100.098,-114.746,104.492
1678025647.845,-52.246,156.250,94.727,-63.477,39.062
1678025647.849,-48.340,160.645,103.027,-36.621,-119.629
1678025647.850,-63.965,176.270,105.469,-47.852,-65.918
1678025647.854,-81.055,173.828,94.727,-95.215,-79.590
1678025647.858,-91.797,154.785,89.844,-108.887,-232.910
1678025647.862,-92.773,157.227,84.961,-69.824,-256.836
1678025647.866,-77.148,165.527,82.031,-41.992,3.418
1678025647.870,-75.684,148.926,68.848,-41.992,223.633
1678025647.874,-84.473,133.301,67.383,-66.406,96.680
1678025647.877,-98.633,144.043,79.590,-89.355,-158.203
1678025647.881,-90.332,166.504,69.336,-61.523,-125.977
1678025647.885,-43.945,170.898,67.871,-16.602,63.477
1678025647.889,-13.184,171.387,87.402,10.742,78.613
1678025647.893,-67.871,159.180,50.293,-42.480,-39.062
1678025647.897,-114.258,142.090,29.297,-115.234,123.047
1678025647.901,-93.262,138.184,41.016,-95.215,266.113
1678025647.905,-71.777,134.766,39.062,-60.059,9.766
1678025647.909,-43.945,122.070,37.598,-34.668,-6.348
1678025647.913,-38.086,134.277,33.203,-11.230,-29.297
1678025647.917,-83.008,157.227,36.133,-60.059,-71.289
1678025647.921,-97.656,147.949,33.691,-92.285,-125.977
1678025647.924,-66.895,142.090,36.133,-38.086,-101.074
1678025647.928,-35.645,136.719,38.574,27.344,280.273
1678025647.932,-56.152,137.695,39.551,-19.043,82.520
1678025647.936,-123.535,143.066,38.574,-102.539,-270.508
1678025647.940,-120.117,141.113,32.227,-73.730,-259.766
1678025647.941,-62.012,134.766,30.273,-19.043,-151.855
1678025647.945,-44.434,129.883,24.902,6.836,62.988
1678025647.949,-71.777,125.977,18.066,-11.230,-11.230
1678025647.953,-103.027,115.234,20.996,-60.059,-59.570
1678025647.957,-93.262,120.117,21.484,-59.570,-77.148
1678025647.961,-55.664,119.629,13.672,-25.391,-114.258
1678025647.965,-32.227,104.004,11.230,3.906,35.645
1678025647.968,-50.781,94.238,11.230,7.812,197.754
1678025647.972,-93.262,87.402,1.953,-19.043,238.770
1678025647.976,-92.285,89.844,-4.395,-23.438,-102.051
1678025647.980,-62.012,85.938,-0.977,-10.742,-178.223
1678025647.984,-19.531,78.613,8.301,27.832,29.297
1678025647.986,-32.715,80.078,1.465,20.020,78.613
1678025647.990,-95.215,83.984,-20.996,-28.809,-73.242
1678025647.994,-102.051,77.637,-11.719,-30.762,-217.285
1678025647.998,-76.660,71.777,-4.395,-6.836,126.953
1678025648.002,-46.875,70.801,-5.371,12.695,171.387
1678025648.006,-31.738,64.453,3.906,18.066,65.430
1678025648.010,-70.801,57.617,4.883,-21.484,63.477
1678025648.013,-76.172,45.898,-21.484,-36.621,62.012
1678025648.017,-29.785,24.902,-37.109,-3.418,-92.773
1678025648.021,-22.949,40.039,-22.461,23.438,-152.344
1678025648.025,-39.062,62.500,-17.578,29.297,66.895
1678025648.029,-78.613,47.363,-29.297,-15.137,90.820
1678025648.031,-100.098,35.156,-24.902,-45.898,-161.133
1678025648.035,-63.477,41.504,-20.508,-16.113,-272.461
1678025648.039,-34.668,11.230,-54.199,16.602,-96.680
1678025648.043,-43.945,1.465,-43.457,16.113,42.969
1678025648.047,-70.801,31.250,-29.785,-1.953,-63.965
1678025648.051,-95.703,27.344,-61.035,-33.203,-186.523
1678025648.055,-83.008,11.719,-61.035,-33.691,39.551
1678025648.058,-44.922,19.043,-45.898,-2.441,264.648
1678025648.062,-54.199,31.738,-38.574,-4.883,22.461
1678025648.066,-87.891,34.180,-33.691,-25.391,-94.727
1678025648.070,-100.098,28.320,-33.203,-41.016,-84.961
1678025648.074,-81.055,27.832,-40.527,-27.832,-187.012
1678025648.076,-41.504,28.809,-53.223,5.371,-197.754
1678025648.080,-26.367,19.531,-45.898,15.625,-75.195
1678025648.084,-37.598,8.301,-43.457,-14.648,110.840
1678025648.088,-88.867,11.230,-42.969,-66.895,-94.238
1678025648.092,-106.934,27.832,-35.645,-75.684,-281.250
1678025648.096,-65.918,43.457,-39.062,-47.363,-12.695
1678025648.100,-55.176,41.504,-45.410,-13.184,384.766
1678025648.103,-64.941,24.414,-41.992,-29.297,176.270
1678025648.107,-87.891,22.949,-25.391,-67.383,-234.375
1678025648.111,-99.121,23.438,-25.879,-61.035,-231.934
1678025648.115,-60.547,21.973,-30.762,-38.574,5.859
1678025648.119,-10.254,22.949,-31.250,-11.719,-3.906
1678025648.121,-31.738,30.273,-37.598,-20.996,-87.891
1678025648.125,-86.426,33.691,-43.457,-73.242,-164.062
1678025648.129,-83.984,26.367,-42.480,-87.402,-241.699
1678025648.133,-56.152,23.926,-38.574,-59.082,-251.953
1678025648.137,-49.805,32.715,-46.387,-20.996,-152.344
1678025648.141,-67.871,37.109,-34.180,-37.598,36.133
1678025648.145,-80.566,41.992,-19.531,-82.520,-11.230
1678025648.148,-90.332,42.480,-22.461,-108.887,-210.938
1678025648.152,-85.449,36.133,-32.227,-100.098,-237.793
1678025648.156,-58.105,32.227,-19.043,-48.340,135.742
1678025648.160,-54.199,33.691,-2.930,-32.715,299.316
1678025648.164,-78.613,31.738,-28.809,-89.355,-46.875
1678025648.181,-90.820,34.180,-27.344,-125.488,-136.719
1678025648.185,-53.223,42.480,2.441,-110.352,52.734
1678025648.189,-31.738,49.805,10.742,-65.430,85.449
1678025648.193,-39.062,52.246,5.859,-42.480,-73.730
1678025648.197,-53.711,53.223,14.160,-60.059,-230.957
1678025648.201,-78.613,36.133,10.742,-99.121,-176.270
1678025648.205,-86.426,19.043,-7.324,-115.723,-85.449
1678025648.208,-60.059,57.129,-16.113,-81.543,-98.633
1678025648.212,-46.387,72.754,-20.020,-65.918,12.207
1678025648.216,-78.125,45.898,-17.090,-73.242,146.973
1678025648.220,-88.379,49.316,10.742,-89.355,-119.629
1678025648.224,-71.777,36.133,30.273,-100.586,-312.500
1678025648.227,-38.086,42.969,24.414,-55.664,-49.805
1678025648.231,-16.113,63.965,-0.488,-22.949,141.113
1678025648.235,-39.551,41.504,13.184,-53.711,-66.895
1678025648.239,-65.430,44.434,51.270,-84.473,-215.332
1678025648.243,-80.566,68.848,41.504,-84.961,-147.949
1678025648.247,-59.570,87.891,35.156,-41.016,-8.789
1678025648.251,-22.461,84.961,37.598,-11.719,111.816
1678025648.254,-37.109,56.152,48.828,-43.945,-22.949
1678025648.258,-58.105,62.988,63.477,-38.086,-84.473
1678025648.262,-54.688,85.938,47.363,-24.902,21.973
1678025648.266,-20.996,75.195,47.852,-36.133,-80.078
1678025648.270,-10.742,80.078,46.387,-10.742,32.227
1678025648.270,-21.973,114.746,40.527,2.930,264.160
1678025648.274,-60.547,121.094,69.824,-45.898,-26.855
1678025648.278,-90.332,112.793,86.914,-75.195,-231.445
1678025648.282,-53.711,104.492,82.520,-62.988,-43.945
1678025648.286,-2.441,113.281,82.520,-17.578,139.160
1678025648.290,-7.324,124.023,68.359,1.465,165.039
1678025648.294,-56.641,125.488,71.777,-63.965,-1.465
1678025648.297,-78.125,144.043,111.816,-100.586,-159.668
1678025648.301,-59.570,169.434,108.887,-68.359,159.180
1678025648.305,-24.902,161.133,91.797,-37.109,292.969
1678025648.309,-23.926,166.504,115.723,-28.809,25.879
1678025648.313,-81.543,180.664,110.840,-79.590,-69.336
1678025648.316,-83.008,153.809,73.730,-99.121,-148.926
1678025648.320,-24.414,181.152,77.148,-38.086,-213.867
1678025648.324,-25.391,230.957,108.398,-28.809,-40.527
1678025648.328,-59.570,227.051,123.535,-69.336,62.500
1678025648.332,-82.031,197.754,121.582,-84.961,-127.441
1678025648.336,-68.359,213.867,128.906,-78.613,-187.988
1678025648.340,-65.918,262.695,126.953,-88.867,-108.887
1678025648.343,-68.848,279.785,96.191,-77.637,136.719
1678025648.347,-58.594,267.578,97.168,-56.641,211.426
1678025648.351,-94.727,247.559,119.629,-88.379,-110.352
1678025648.355,-132.324,267.090,109.375,-111.328,-287.109
1678025648.359,-117.188,291.504,104.980,-101.074,-10.254
1678025648.361,-73.242,277.832,106.445,-82.520,411.621
1678025648.365,-63.965,283.203,103.027,-73.730,150.391
1678025648.369,-112.793,328.613,114.746,-113.281,-85.938
1678025648.373,-169.922,341.797,118.164,-175.781,-161.621
1678025648.377,-151.855,330.078,116.699,-160.645,-237.793
1678025648.381,-134.766,340.820,131.348,-135.742,-85.449
1678025648.385,-157.715,344.727,144.531,-176.270,132.812
1678025648.388,-184.570,342.773,149.902,-197.754,403.809
1678025648.392,-208.496,327.637,130.371,-205.078,86.426
1678025648.396,-205.566,322.754,117.676,-188.965,-321.777
1678025648.400,-196.777,348.633,83.496,-144.043,-133.301
1678025648.404,-201.172,357.422,104.492,-173.340,60.547
1678025648.405,-222.168,342.773,203.613,-218.262,-96.191
1678025648.409,-291.504,353.516,202.637,-271.484,-291.504
1678025648.413,-327.148,368.164,164.062,-285.645,-264.160
1678025648.417,-294.434,345.215,176.270,-235.352,-157.715
1678025648.421,-278.320,338.867,192.383,-216.797,-0.488
1678025648.425,-301.758,334.961,205.078,-242.676,44.922
1678025648.429,-318.848,316.895,213.867,-252.441,36.621
1678025648.432,-306.152,312.500,210.449,-221.191,41.504
1678025648.436,-255.859,313.965,208.008,-179.199,-140.137
1678025648.440,-218.750,306.641,184.082,-126.465,-30.762
1678025648.444,-222.168,292.480,176.758,-134.766,110.840
1678025648.448,-227.539,277.344,195.801,-165.039,-60.059
1678025648.450,-210.938,253.906,208.008,-129.883,-150.879
1678025648.454,-157.715,262.695,211.426,-78.125,-111.328
1678025648.458,-132.812,274.414,197.754,-63.477,156.250
1678025648.462,-134.277,244.141,158.203,-65.918,162.109
1678025648.466,-117.188,206.543,143.555,-52.734,-145.996
1678025648.470,-91.309,193.359,152.832,-29.785,-161.133
1678025648.474,-77.637,196.289,135.742,14.160,126.953
1678025648.477,-57.129,187.500,112.793,65.918,92.773
1678025648.481,-32.715,183.105,107.910,75.684,-40.039
1678025648.485,-55.176,166.992,113.770,40.527,-126.953
1678025648.489,-55.664,146.973,114.746,23.926,-217.285
1678025648.493,-11.230,138.184,104.980,60.059,-208.984
1678025648.497,35.645,111.328,95.703,135.254,-70.312
1678025648.501,59.570,93.262,79.102,159.668,110.352
1678025648.505,62.988,93.750,71.777,133.301,50.293
1678025648.509,54.688,91.309,70.801,112.305,-181.641
1678025648.513,79.102,70.312,61.523,155.762,-205.078
1678025648.517,144.043,54.199,61.035,229.980,135.742
1678025648.521,170.898,52.734,32.715,242.188,264.648
1678025648.524,163.086,47.852,14.648,222.656,-53.711
1678025648.528,163.574,45.898,31.250,200.684,-197.754
1678025648.532,170.898,45.898,41.992,204.590,-18.066
1678025648.536,170.898,27.832,27.344,224.609,23.438
1678025648.540,181.641,14.648,16.602,231.445,-32.715
1678025648.557,174.805,4.883,26.855,216.309,34.180
1678025648.561,158.203,-17.578,12.695,191.406,5.371
1678025648.565,173.340,-36.621,-0.977,208.496,-80.078
1678025648.569,222.168,-31.738,-23.438,251.465,-67.871
1678025648.573,229.004,-41.992,-47.363,259.277,28.809
1678025648.577,182.617,-46.387,-27.832,217.285,229.980
1678025648.581,141.602,-47.363,-6.836,177.246,88.867
1678025648.584,127.441,-60.547,-3.418,167.480,-162.109
1678025648.588,157.715,-69.824,-12.207,180.664,-66.895
1678025648.592,178.711,-87.891,-27.344,179.688,125.000
1678025648.596,176.270,-95.215,-22.461,194.824,5.859
1678025648.600,138.184,-69.336,-7.812,171.387,-196.289
1678025648.601,123.535,-65.918,-3.906,150.879,-154.297
1678025648.605,116.699,-75.684,-17.578,163.574,31.250
1678025648.609,126.953,-87.402,-42.480,163.574,-22.949
1678025648.613,133.301,-96.680,-49.805,160.156,-108.398
1678025648.617,84.961,-101.074,-40.039,117.188,-110.840
1678025648.621,88.867,-113.281,-50.293,104.492,-85.938
1678025648.625,145.508,-100.586,-45.410,156.250,-82.031
1678025648.628,183.105,-92.773,-34.180,184.570,-51.270
1678025648.632,154.297,-103.516,-42.480,155.273,128.418
1678025648.636,75.195,-105.469,-24.414,96.680,237.305
1678025648.640,62.988,-124.023,-15.625,84.961,-202.148
1678025648.644,102.539,-137.207,-18.066,110.840,-245.605
1678025648.646,114.258,-105.957,-16.602,104.004,111.816
1678025648.650,125.488,-78.125,-16.113,98.633,24.414
1678025648.654,83.496,-95.703,-20.508,62.500,-195.312
1678025648.658,40.039,-125.488,-24.414,25.879,-223.145
1678025648.662,65.918,-117.676,-25.879,45.898,-125.977
1678025648.666,82.520,-109.375,-31.738,66.406,11.719
1678025648.670,77.148,-115.723,-44.434,68.848,50.293
1678025648.673,47.852,-118.652,-52.734,35.156,16.113
1678025648.677,48.340,-121.094,-48.340,52.734,125.000
1678025648.681,57.617,-116.699,-46.387,89.355,27.832
1678025648.685,74.707,-111.816,-40.039,83.008,-146.484
1678025648.689,92.773,-105.469,-32.227,91.309,-82.520
1678025648.690,53.711,-99.121,-28.320,80.078,-92.285
1678025648.694,44.922,-107.422,-26.855,50.781,-235.840
1678025648.698,48.828,-111.328,-29.297,52.734,-201.172
1678025648.702,63.477,-106.934,-33.203,69.336,-58.105
1678025648.706,82.520,-110.840,-34.180,87.402,34.180
1678025648.710,44.922,-120.117,-42.969,49.805,14.160
1678025648.714,18.066,-118.652,-47.852,29.297,-131.348
1678025648.717,28.320,-120.117,-50.781,40.527,-27.344
1678025648.721,48.828,-124.023,-52.246,44.922,62.988
1678025648.725,55.176,-121.094,-56.152,46.387,-23.438
1678025648.729,33.691,-126.953,-70.801,44.434,-60.059
1678025648.733,10.254,-137.695,-67.383,40.527,80.566
1678025648.735,17.090,-149.414,-62.500,43.945,246.094
1678025648.739,43.945,-164.551,-54.199,58.105,-40.527
1678025648.743,53.223,-153.320,-63.477,60.547,-105.957
1678025648.747,44.434,-141.113,-79.102,34.668,-6.348
1678025648.751,43.457,-156.738,-75.195,20.996,-171.875
1678025648.755,20.996,-167.480,-89.355,-4.395,-213.867
1678025648.759,-12.695,-181.641,-94.727,-16.113,-62.500
1678025648.762,-2.441,-193.848,-84.961,17.578,204.590
1678025648.766,2.930,-190.918,-83.496,-1.465,42.480
1678025648.770,-6.348,-201.172,-97.168,-25.391,-243.164
1678025648.774,18.555,-221.191,-97.656,23.438,-212.402
1678025648.778,20.996,-205.078,-84.473,39.551,-177.734
1678025648.784,4.883,-184.082,-77.148,7.812,-107.910
1678025648.788,-7.812,-191.406,-79.590,-12.207,-112.793
1678025648.792,-12.695,-195.801,-88.379,-18.066,-155.273
1678025648.796,3.906,-191.895,-89.355,6.836,-173.828
1678025648.800,17.090,-191.895,-94.727,12.695,-188.965
1678025648.804,22.949,-201.660,-107.910,-17.090,-42.969
1678025648.808,35.645,-198.242,-116.211,-15.137,207.031
1678025648.811,-1.953,-197.266,-114.746,-10.254,155.273
1678025648.815,-28.320,-205.078,-111.328,-20.020,-152.832
1678025648.819,5.859,-204.102,-107.422,-2.930,-183.105
1678025648.823,37.598,-204.102,-101.074,18.066,-72.266
1678025648.827,8.789,-207.520,-98.633,13.184,15.625
1678025648.827,-25.391,-211.426,-96.680,0.977,-32.227
1678025648.831,-25.879,-209.961,-95.703,-9.277,-95.215
1678025648.835,-4.883,-212.402,-98.633,-9.277,151.367
1678025648.839,23.926,-210.938,-94.238,17.090,32.715
1678025648.843,20.996,-206.055,-91.797,24.902,-114.258
1678025648.847,-2.441,-212.891,-86.914,0.488,0.000
1678025648.851,-21.973,-214.355,-89.355,-20.508,297.363
1678025648.854,-17.578,-215.332,-90.820,-7.324,352.051
1678025648.858,2.930,-222.656,-89.844,4.883,-25.879
1678025648.862,8.789,-229.492,-98.145,2.930,-138.184
1678025648.866,-28.320,-240.234,-107.422,5.371,-55.176
1678025648.870,-54.688,-253.418,-113.281,-0.488,-154.785
1678025648.886,-41.504,-246.582,-105.469,-2.441,-190.430
1678025648.890,-28.320,-239.746,-83.984,11.719,-78.125
1678025648.894,-25.879,-238.770,-71.777,20.020,-47.852
1678025648.898,-31.738,-237.305,-75.684,-2.441,-64.941
1678025648.902,-56.641,-243.652,-80.566,-31.250,-92.773
1678025648.906,-54.688,-248.047,-80.566,-19.531,22.949
1678025648.910,-31.250,-244.141,-79.590,0.977,145.508
1678025648.913,-30.273,-247.070,-88.379,-1.465,2.930
1678025648.917,-41.504,-257.324,-92.773,-4.395,-119.629
1678025648.921,-51.270,-261.230,-98.633,-21.484,-41.992
1678025648.925,-57.617,-260.254,-117.676,-12.695,-88.867
1678025648.929,-41.992,-257.812,-115.234,16.113,-131.348
1678025648.931,-23.438,-250.977,-100.098,13.672,-5.371
1678025648.935,-44.434,-251.953,-90.820,-4.883,111.816
1678025648.939,-57.129,-255.371,-86.426,-19.531,-68.848
1678025648.943,-53.711,-251.465,-77.148,-24.902,-254.883
1678025648.947,-28.320,-249.023,-76.172,-13.184,-164.551
1678025648.951,-6.348,-246.582,-87.402,-9.277,-12.207
1678025648.955,-11.719,-241.699,-90.820,0.000,-9.277
1678025648.958,-13.184,-234.375,-99.121,0.977,-35.645
1678025648.962,-1.465,-240.723,-88.379,4.395,-77.637
1678025648.966,-29.785,-244.629,-60.059,4.395,151.367
1678025648.970,-52.734,-237.305,-53.223,2.930,151.367
1678025648.974,-52.734,-238.770,-52.734,-10.742,-83.008
1678025648.994,-79.590,-236.328,-42.969,-35.156,-132.812
1678025648.998,-92.773,-232.910,-35.156,-45.898,-170.898
1678025649.002,-84.473,-235.840,-25.391,-43.457,-175.293
1678025649.006,-94.727,-236.816,-22.461,-48.340,-145.020
1678025649.010,-111.816,-242.676,-20.508,-57.129,18.555
1678025649.014,-142.090,-251.953,-20.020,-75.195,5.371
1678025649.018,-156.738,-256.836,-39.062,-79.590,-59.082
1678025649.021,-142.090,-255.371,-44.922,-74.707,-130.371
1678025649.025,-136.719,-262.695,-29.785,-81.543,14.648
1678025649.029,-141.113,-268.555,-12.207,-83.008,141.113
1678025649.033,-154.785,-270.020,11.719,-85.449,-124.512
1678025649.037,-164.551,-270.508,15.625,-79.102,-160.156
1678025649.021,-142.090,-254.883,11.719,-70.801,105.469
1678025649.025,-107.422,-241.211,-7.324,-71.777,21.484
1678025649.029,-85.938,-241.699,-14.648,-50.293,-106.934
1678025649.033,-81.055,-229.004,17.090,-44.922,-10.254
1678025649.037,-94.727,-216.309,9.766,-68.359,33.691
1678025649.041,-80.078,-218.262,-16.602,-64.453,-65.918
1678025649.045,-38.086,-211.914,-2.930,-30.273,-120.117
1678025649.048,-39.062,-209.961,5.859,-33.203,-27.832
1678025649.052,-60.059,-208.984,14.160,-39.551,270.508
1678025649.056,-70.801,-199.707,18.555,-35.156,114.746
1678025649.060,-59.570,-204.590,8.789,-50.293,-120.117
1678025649.064,-32.715,-205.078,7.324,-43.945,7.812
1678025649.065,-11.719,-189.453,29.785,-29.785,321.289
1678025649.069,-15.625,-179.199,42.969,-36.133,293.457
1678025649.073,-33.691,-178.711,56.641,-41.992,-141.602
1678025649.077,-33.203,-171.875,61.035,-31.738,-127.441
1678025649.081,-4.395,-169.922,37.109,1.953,26.855
1678025649.085,25.879,-174.316,29.785,17.090,-40.039
1678025649.089,2.441,-158.203,48.340,-11.230,-62.012
1678025649.092,-36.133,-149.414,42.480,-30.273,24.902
1678025649.096,-34.668,-149.902,31.250,-25.391,76.660
1678025649.100,-4.883,-142.578,56.152,-16.113,-171.875
1678025649.104,7.812,-134.277,74.707,-7.812,-153.320
1678025649.108,-1.953,-126.953,71.289,3.906,-31.250
1678025649.112,-23.926,-128.906,52.734,-24.414,-52.734
1678025649.116,-18.066,-129.395,43.457,-29.785,-106.934
1678025649.120,-3.906,-125.977,72.266,6.348,-102.051
1678025649.124,-3.418,-124.023,74.707,19.531,135.254
1678025649.128,2.441,-123.535,82.031,18.066,88.867
1678025649.132,-8.789,-122.559,93.750,-5.859,-161.621
1678025649.136,-1.953,-109.375,77.637,-13.184,-121.094
1678025649.139,-8.789,-100.098,65.918,3.418,157.227
1678025649.143,13.672,-104.980,62.500,32.715,90.332
1678025649.147,38.574,-109.375,63.965,43.945,-82.520
1678025649.151,-6.836,-117.188,60.059,2.441,-142.578
1678025649.155,-38.574,-120.117,45.410,-5.859,-165.039
1678025649.171,-19.531,-111.328,46.875,14.160,-191.895
1678025649.175,24.414,-107.910,53.711,20.020,-158.203
1678025649.179,31.738,-111.328,52.734,15.625,-0.977
1678025649.183,1.953,-114.258,55.176,10.254,-10.254
1678025649.187,-22.461,-120.117,40.039,0.000,-106.934
1678025649.191,-13.672,-113.281,23.438,8.789,-109.863
1678025649.195,0.000,-102.539,38.086,19.043,75.195
1678025649.198,9.766,-112.305,49.805,14.160,375.977
1678025649.202,-4.395,-117.188,54.688,0.000,82.520
1678025649.206,-18.555,-108.887,47.852,-10.254,-217.773
1678025649.210,-3.906,-104.004,29.297,9.766,-78.613
1678025649.214,3.418,-103.516,32.227,7.324,-91.309
1678025649.201,15.137,-110.840,39.062,-2.930,-50.781
1678025649.205,0.977,-112.305,32.227,0.488,-22.461
1678025649.209,-14.648,-113.281,16.602,0.977,47.363
1678025649.213,4.883,-112.305,16.602,-3.906,-23.926
1678025649.217,23.926,-106.445,26.367,-0.977,-110.840
1678025649.221,42.969,-109.375,16.602,20.508,37.598
1678025649.225,28.320,-116.699,7.812,12.695,112.305
1678025649.228,-9.277,-111.816,19.043,-13.672,-45.898
1678025649.232,-6.836,-104.980,21.484,-22.461,-198.242
1678025649.236,21.973,-105.469,20.508,-1.465,-123.535
1678025649.240,38.086,-99.121,18.555,23.438,273.438
1678025649.244,27.344,-92.285,0.488,10.742,219.727
1678025649.261,-3.418,-98.145,1.953,-4.883,-184.570
1678025649.265,-7.324,-110.352,20.508,-14.160,-243.164
1678025649.269,11.719,-107.910,21.973,-18.066,-166.992
1678025649.273,37.598,-103.516,10.742,5.371,-109.863
1678025649.277,48.340,-108.887,-1.953,25.391,-113.770
1678025649.281,11.719,-113.770,-5.859,8.301,34.180
1678025649.285,9.766,-115.723,-11.230,0.488,29.785
1678025649.288,19.043,-120.117,-10.742,12.207,-179.688
1678025649.292,31.250,-122.559,-11.719,26.367,-115.234
1678025649.296,39.062,-123.535,-27.832,36.133,166.504
1678025649.300,0.000,-132.812,-35.156,24.902,160.156
1678025649.304,-3.906,-130.371,-12.695,17.578,-147.461
1678025649.305,16.113,-130.859,-20.996,22.461,-70.312
1678025649.309,27.344,-138.672,-20.996,31.738,196.777
1678025649.313,23.926,-137.695,-4.883,33.203,113.770
1678025649.317,-7.324,-134.277,-4.883,0.000,-119.141
1678025649.321,-24.902,-131.836,-16.113,-19.043,-165.527
1678025649.325,-8.789,-130.371,-32.227,-12.695,-73.242
1678025649.329,40.527,-142.578,-45.410,10.742,-37.109
1678025649.332,50.781,-139.160,-49.805,43.457,-90.820
1678025649.336,7.324,-133.789,-48.340,23.926,-84.473
1678025649.340,-12.695,-139.160,-29.297,-12.695,90.332
1678025649.344,-19.043,-135.742,-16.602,-21.973,18.066
1678025649.348,-20.020,-131.348,-27.832,-20.996,-48.340
1678025649.350,-4.883,-125.000,-27.344,10.742,-36.133
1678025649.354,-1.953,-134.277,-28.320,10.254,-38.574
1678025649.358,-8.301,-147.949,-30.762,-24.414,-145.020
1678025649.362,-8.301,-140.625,-24.414,-47.363,-217.773
1678025649.366,6.836,-126.953,-18.555,-33.691,-122.070
1678025649.370,12.695,-125.977,-11.719,-11.719,66.406
1678025649.374,-9.766,-133.301,-15.625,-15.137,89.355
1678025649.377,-30.273,-129.395,-31.250,-15.137,-75.195
1678025649.381,-21.484,-120.117,-31.250,-15.137,-14.648
1678025649.385,1.465,-114.746,-24.902,-12.695,33.203
1678025649.389,16.113,-108.887,-15.625,1.953,-50.781
1678025649.393,-12.695,-107.910,-16.113,-13.184,5.371
1678025649.396,-36.621,-114.258,-32.715,-19.043,151.367
1678025649.400,-7.324,-117.676,-25.879,-6.836,69.336
1678025649.404,-11.230,-115.723,-25.879,-22.461,-91.797
1678025649.408,1.465,-108.398,-32.715,-11.719,-17.578
1678025649.412,7.812,-107.422,-16.113,2.930,240.723
1678025649.416,-62.012,-116.699,0.488,-38.086,220.703
1678025649.420,-80.566,-115.234,-0.488,-72.266,-100.586
1678025649.423,-46.387,-113.770,-5.371,-47.363,-139.160
1678025649.427,-31.250,-112.793,-5.371,-22.461,168.945
1678025649.431,-32.227,-103.516,-2.930,-25.879,98.633
1678025649.435,-68.848,-107.910,-21.973,-45.898,-151.367
1678025649.439,-87.891,-119.141,-26.855,-49.805,-250.488
1678025649.441,-78.613,-121.094,-7.324,-45.898,-234.863
1678025649.445,-89.844,-116.699,-3.906,-89.844,-146.973
1678025649.449,-83.008,-122.070,-2.441,-83.008,-125.977
1678025649.453,-102.539,-132.324,3.418,-67.871,-78.125
1678025649.457,-119.141,-131.836,-20.508,-89.355,-79.102
1678025649.461,-85.449,-126.953,-19.531,-71.777,-113.770
1678025649.465,-69.336,-133.301,-2.441,-44.922,-62.012
1678025649.468,-53.711,-139.160,-8.301,-22.461,145.996
1678025649.472,-58.594,-129.395,-9.766,-40.039,230.469
1678025649.476,-80.078,-119.629,-25.879,-66.406,-69.336
1678025649.480,-70.801,-121.094,-20.508,-62.500,-163.086
1678025649.484,-45.410,-132.812,-17.578,-18.066,52.734
1678025649.486,-25.879,-126.953,-14.160,-12.695,126.465
1678025649.490,-54.199,-111.328,0.977,-26.367,-98.145
1678025649.494,-66.895,-104.004,-4.395,-22.949,-136.719
1678025649.498,-39.062,-104.492,-12.207,-24.902,97.656
1678025649.502,-8.301,-106.445,-20.508,-11.719,17.578
1678025649.506,-2.930,-106.934,-23.438,0.000,-61.523
1678025649.510,-17.090,-107.910,-26.855,5.859,-47.852
1678025649.513,-15.625,-100.098,-45.410,17.578,193.359
1678025649.517,-1.465,-110.352,-37.109,21.484,165.039
1678025649.521,20.996,-106.445,-14.160,41.992,-218.750
1678025649.525,45.410,-85.449,2.441,67.383,-128.418
1678025649.529,30.273,-81.055,7.812,45.410,-54.199
1678025649.531,-3.906,-73.730,2.930,28.320,-214.844
1678025649.535,0.000,-71.777,15.137,38.086,-233.398
1678025649.539,17.578,-78.125,10.742,36.133,-120.117
1678025649.543,29.785,-83.496,-5.859,33.203,-60.059
1678025649.547,23.926,-83.008,-10.742,26.367,-99.121
1678025649.551,-0.977,-79.590,-4.883,10.254,-126.465
1678025649.555,9.766,-80.078,-1.953,10.742,15.625
1678025649.558,39.551,-69.824,-3.418,29.297,158.203
1678025649.562,51.758,-69.824,-7.812,39.062,-16.113
1678025649.566,30.762,-83.984,-2.930,26.367,-77.148
1678025649.570,-3.906,-83.496,3.906,12.207,-61.523
1678025649.574,-3.906,-73.242,11.230,5.371,-118.164
1678025649.576,19.531,-63.965,2.930,4.883,-123.535
1678025649.580,41.016,-64.941,-1.465,19.043,-16.113
1678025649.584,25.391,-68.359,-0.977,27.832,188.477
1678025649.588,8.789,-66.406,14.160,20.020,-20.996
1678025649.592,0.977,-61.035,19.531,2.441,-250.000
1678025649.596,11.230,-65.430,8.789,17.578,-17.090
1678025649.600,29.785,-72.266,-9.766,25.391,275.391
1678025649.603,29.297,-68.848,-28.320,18.066,100.586
1678025649.607,13.184,-67.383,-21.973,20.020,-140.625
1678025649.611,-7.324,-67.383,-2.441,3.418,-149.902
1678025649.615,-6.348,-67.383,7.324,2.930,-74.707
1678025649.619,14.160,-71.289,-0.488,13.672,-20.508
1678025649.635,15.137,-77.637,-8.301,28.809,-26.855
1678025649.639,-4.395,-81.055,-19.531,29.785,-10.254
1678025649.643,-12.695,-80.566,-38.086,1.953,-86.426
1678025649.647,-7.812,-83.984,-30.273,-7.812,-238.770
1678025649.651,4.395,-78.613,-25.391,10.254,-213.867
1678025649.655,2.930,-74.707,-26.367,12.207,62.012
1678025649.659,-16.602,-94.727,-21.484,8.301,144.531
1678025649.662,-13.184,-103.516,-33.691,2.930,-88.379
1678025649.666,-9.766,-83.008,-45.410,-7.812,-186.523
1678025649.670,-10.742,-72.266,-32.227,0.000,5.371
1678025649.674,7.812,-70.801,-13.672,-6.836,31.250
1678025649.678,-6.348,-73.730,-7.812,-27.832,-119.141
1678025649.681,-52.734,-85.449,-14.648,-39.062,-57.129
1678025649.685,-59.082,-93.750,-25.879,-21.484,165.039
1678025649.689,-35.156,-95.215,-40.527,-4.883,100.098
1678025649.693,-0.977,-96.680,-39.551,-10.742,-104.980
1678025649.697,-3.906,-94.238,-25.391,-16.113,-65.430
1678025649.701,-27.344,-89.844,-27.344,-22.461,7.324
1678025649.705,-19.531,-91.797,-36.133,-15.625,6.836
1678025649.708,1.953,-88.379,-34.180,-2.441,-52.734
1678025649.712,23.926,-88.867,-29.297,10.742,7.812
1678025649.716,17.578,-104.980,-13.184,17.578,276.367
1678025649.720,-10.742,-91.309,-16.602,-16.602,94.727
1678025649.724,-24.902,-81.055,-24.902,-40.039,-127.441
1678025649.726,-5.859,-91.797,-19.043,-8.789,-77.148
1678025649.730,38.086,-90.820,-9.766,24.414,-80.566
1678025649.734,37.598,-80.078,-5.859,9.277,-84.473
1678025649.738,-20.020,-81.055,-12.695,-40.039,-83.984
1678025649.742,-33.691,-84.473,-27.344,-47.363,-25.391
1678025649.746,3.906,-84.473,-30.273,-17.578,93.262
1678025649.750,23.438,-80.566,-23.438,5.371,81.543
1678025649.753,16.602,-81.543,-23.926,5.371,-49.316
1678025649.757,1.465,-88.379,-36.621,0.488,-25.391
1678025649.761,7.812,-94.727,-41.992,3.906,54.199
1678025649.765,31.738,-88.867,-12.207,8.301,-145.020
1678025649.769,47.852,-80.566,-8.789,25.391,-166.016
1678025649.771,51.270,-74.707,-15.137,30.273,145.020
1678025649.775,23.438,-80.566,-8.789,7.324,27.832
1678025649.779,5.859,-85.449,-2.441,-0.488,-245.605
1678025649.783,18.555,-80.078,-15.625,29.785,-184.082
1678025649.787,39.551,-77.148,-27.344,45.898,-90.820
1678025649.791,50.781,-80.078,-9.277,31.250,-104.492
1678025649.795,26.367,-87.402,-2.441,16.602,-119.141
1678025649.798,1.953,-92.285,-8.301,3.906,-81.543
1678025649.802,26.367,-94.238,-15.137,6.348,127.441
1678025649.806,55.176,-94.238,-24.414,-6.348,127.441
1678025649.810,59.570,-87.402,-23.438,-3.418,-68.848
1678025649.814,53.711,-82.520,-15.137,18.555,-96.191
1678025649.816,34.180,-84.961,-14.648,-0.977,-135.742
1678025649.820,17.090,-88.867,-14.648,2.930,-221.680
1678025649.824,33.203,-88.867,-30.273,37.109,-181.641
1678025649.828,46.387,-85.938,-54.199,42.969,-31.738
1678025649.832,11.230,-88.867,-30.762,23.926,-107.422
1678025649.836,-41.504,-98.633,0.000,-12.207,-171.387
1678025649.840,-38.086,-98.633,-13.672,-32.715,-151.367
1678025649.843,-12.695,-91.309,-17.090,-20.508,40.039
1678025649.847,14.648,-99.121,-14.160,1.953,347.168
1678025649.851,11.230,-103.516,-9.277,0.000,35.156
1678025649.855,-4.395,-90.332,-20.020,-17.090,-222.656
1678025649.859,4.883,-82.031,-18.066,-14.160,-133.301
1678025649.860,-4.883,-88.379,-9.277,-22.461,-33.691
1678025649.864,14.160,-87.402,-15.137,-9.277,-44.922
1678025649.868,5.371,-85.449,-10.742,-9.277,-76.172
1678025649.872,-21.484,-85.938,-5.859,-23.926,31.738
1678025649.876,-4.883,-85.449,-3.418,-14.160,-56.641
1678025649.880,3.906,-86.426,-1.465,-6.348,-123.047
1678025649.884,12.207,-84.961,1.465,-21.484,43.945
1678025649.887,0.000,-80.078,-10.742,-20.996,304.199
1678025649.891,-12.207,-80.078,-20.996,-20.020,67.383
1678025649.895,-8.789,-90.820,-10.254,-33.203,-229.980
1678025649.899,4.395,-86.426,1.465,-25.879,-150.391
1678025649.903,24.902,-82.031,0.000,-10.254,-26.855
1678025649.905,22.949,-83.008,0.488,-11.230,-85.449
1678025649.909,-5.859,-80.078,3.418,-23.926,-195.312
1678025649.913,-12.207,-77.637,-10.742,-22.461,-211.426
1678025649.917,13.184,-75.684,-20.996,-18.066,-190.430
1678025649.921,36.621,-75.684,1.465,-18.066,-111.816
1678025649.925,25.879,-77.637,13.184,-4.883,-58.105
1678025649.929,18.066,-73.730,0.488,-11.719,33.203
1678025649.932,10.742,-74.707,-10.742,-25.879,164.551
1678025649.936,6.836,-77.148,8.301,-37.598,-72.266
1678025649.940,27.832,-67.383,20.996,-13.184,-136.719
1678025649.944,32.715,-67.871,20.508,13.672,42.969
1678025649.948,-0.488,-78.613,10.742,0.000,-51.270
1678025649.952,-2.930,-75.195,-0.977,2.441,-73.730
1678025649.956,22.949,-66.895,0.000,21.484,-0.977
1678025649.960,36.621,-66.895,-4.395,35.645,207.520
1678025649.964,34.180,-72.266,-4.883,35.645,168.457
1678025649.968,11.230,-78.125,1.465,20.508,-164.062
1678025649.972,0.488,-80.566,-3.906,12.695,-88.867
1678025649.976,6.836,-80.078,0.000,10.742,241.699
1678025649.979,17.090,-80.078,11.230,8.301,108.398
1678025649.983,10.254,-74.707,15.137,4.883,-64.941
1678025649.987,-6.348,-65.918,9.766,15.137,-20.996
1678025649.991,-20.020,-66.406,4.395,14.160,-130.859
1678025649.995,-12.695,-71.289,-0.488,-6.836,-190.430
1678025650.011,20.020,-72.266,-12.695,-1.953,-78.125
1678025650.015,34.668,-75.684,-10.254,20.020,-20.020
1678025650.019,3.906,-83.008,-3.906,21.484,-14.648
1678025650.023,-30.762,-85.938,-13.184,1.465,-75.195
1678025650.027,-20.020,-88.867,-14.160,-6.836,-182.617
1678025650.031,16.113,-83.496,-14.160,3.906,52.734
1678025650.035,28.320,-78.125,-16.602,23.926,330.078
1678025650.038,11.719,-82.031,-9.277,26.855,9.766
1678025650.042,-18.066,-85.938,-12.695,5.371,-225.098
1678025650.046,-19.043,-92.285,-11.719,3.418,-87.402
1678025650.050,11.719,-90.332,-4.883,18.066,-107.910
1678025650.054,25.391,-81.055,-17.090,21.973,-118.652
1678025650.056,11.230,-77.637,-25.879,12.207,-2.441
1678025650.060,-12.207,-82.520,-13.672,16.602,86.426
1678025650.064,-12.695,-84.473,-10.742,24.414,-52.734
1678025650.068,20.020,-78.125,-28.809,30.762,-158.203
1678025650.072,32.715,-82.520,-25.879,40.039,-85.938
1678025650.076,2.930,-89.844,-14.160,31.738,46.875
1678025650.080,-21.973,-90.820,-20.996,15.137,44.922
1678025650.083,-20.020,-96.680,-13.672,20.020,-145.996
1678025650.087,-2.930,-90.820,-16.113,39.062,-131.348
1678025650.091,11.230,-84.961,-12.207,53.711,155.762
1678025650.095,0.000,-83.008,-18.555,31.738,106.934
1678025650.099,-29.785,-78.613,-27.344,0.000,-150.879
1678025650.102,-28.809,-72.266,-6.836,2.441,-146.484
1678025650.106,-1.465,-69.824,-7.812,-2.441,-155.273
1678025650.110,10.254,-72.266,-16.602,16.113,-192.871
1678025650.114,9.766,-72.754,0.000,35.156,-121.582
1678025650.118,-11.230,-76.172,-7.324,23.926,-93.750
1678025650.122,-16.113,-76.172,-17.578,8.789,-116.211
1678025650.126,14.648,-71.289,-14.648,7.812,-25.391
1678025650.129,43.945,-71.777,-21.973,28.320,-57.129
1678025650.133,39.551,-74.219,-17.578,51.758,43.457
1678025650.137,7.812,-70.801,-0.488,46.387,314.453
1678025650.141,-10.742,-69.824,0.000,20.996,-25.391
1678025650.145,-1.953,-67.871,-17.578,9.766,-179.688
1678025650.146,17.578,-70.801,-24.414,21.484,-2.930
1678025650.150,27.344,-76.660,-20.996,39.062,-21.484
1678025650.154,16.602,-70.801,-25.879,38.574,-81.055
1678025650.158,0.977,-71.777,-12.207,19.043,-87.891
1678025650.162,5.371,-79.102,-12.207,17.578,-38.086
1678025650.166,15.625,-65.430,-5.859,26.367,28.809
1678025650.170,31.738,-52.734,-1.953,31.738,87.402
1678025650.173,15.137,-58.594,-3.906,31.250,-1.953
1678025650.177,1.953,-63.477,5.371,36.133,166.504
1678025650.181,0.000,-61.035,-14.160,21.973,175.781
1678025650.185,14.160,-58.594,-26.855,17.090,-94.727
1678025650.189,33.203,-68.359,-14.160,28.809,-61.035
1678025650.206,11.230,-73.730,-20.020,22.949,16.602
1678025650.210,-18.555,-68.848,-23.926,9.277,-165.527
1678025650.214,-10.254,-63.477,-10.254,20.020,-212.402
1678025650.218,14.160,-61.035,-4.883,30.762,-151.367
1678025650.222,14.160,-63.965,-15.137,33.691,-49.316
1678025650.226,4.883,-67.871,-12.695,26.367,64.941
1678025650.230,-21.973,-68.848,0.000,6.348,-51.270
1678025650.233,-38.086,-72.754,1.953,0.000,1.465
1678025650.237,-19.043,-76.172,-10.254,0.977,114.258
1678025650.241,-0.977,-74.219,-15.137,18.066,-47.363
1678025650.245,-20.996,-72.266,-14.648,11.719,-50.781
1678025650.249,-24.414,-75.195,-12.695,-0.488,18.555
1678025650.236,-8.789,-71.777,-18.066,15.137,-67.871
1678025650.240,-9.277,-73.242,-32.715,28.809,-137.207
1678025650.244,6.836,-82.031,-20.020,18.555,-97.168
1678025650.248,6.348,-75.195,-8.301,2.930,145.996
1678025650.252,-9.277,-69.336,-6.348,-2.441,94.727
1678025650.256,-4.395,-62.012,7.812,4.883,-116.699
1678025650.260,-9.766,-50.781,8.301,-26.367,-30.762
1678025650.263,-14.160,-56.641,-5.371,-61.523,52.734
1678025650.267,-11.719,-62.012,-9.277,-37.598,26.855
1678025650.271,-12.207,-59.570,-0.977,-37.598,-110.840
1678025650.275,-42.480,-61.523,-13.184,-66.895,-167.969
1678025650.279,-62.500,-60.547,-23.438,-58.594,94.727
1678025650.282,-46.387,-62.012,-33.691,-61.035,40.527
1678025650.286,-41.504,-58.594,-47.363,-68.848,-144.043
1678025650.290,-65.430,-51.270,-59.570,-77.148,-52.734
1678025650.294,-95.215,-45.410,-70.312,-101.562,-72.754
1678025650.298,-80.078,-57.617,-55.176,-108.398,-193.848
1678025650.302,-68.848,-65.430,-39.551,-118.164,-154.785
1678025650.306,-66.406,-51.270,-31.250,-107.422,67.383
1678025650.309,-78.125,-42.480,-14.160,-103.516,212.402
1678025650.313,-87.402,-41.504,-24.414,-104.492,-140.137
1678025650.317,-55.664,-30.762,-41.504,-94.727,-272.949
1678025650.321,-36.621,-29.297,-29.297,-94.727,-131.836
1678025650.325,-20.508,-23.926,-58.105,-60.059,-45.410
1678025650.325,-22.461,0.488,-50.781,-63.477,-5.371
1678025650.329,-74.219,7.324,-31.250,-120.605,-104.980
1678025650.333,-86.426,5.859,-53.223,-129.883,13.672
1678025650.337,-49.805,-4.883,-39.551,-110.352,2.441
1678025650.341,-14.648,-5.371,-8.789,-95.703,-119.141
1678025650.345,-19.043,12.695,5.859,-88.867,60.547
1678025650.349,-44.922,22.461,-7.324,-85.449,301.270
1678025650.352,-53.223,1.953,8.789,-79.590,116.699
1678025650.356,-22.461,-14.648,8.789,-58.594,-207.031
1678025650.360,21.973,4.395,4.395,-38.086,-135.254
1678025650.364,19.531,23.438,37.109,-39.551,-17.578
1678025650.368,-11.719,32.715,12.207,-48.828,-113.281
1678025650.371,-13.672,43.457,26.855,-61.523,-225.098
1678025650.375,12.207,47.852,56.641,-49.805,-176.270
1678025650.379,43.945,47.852,52.734,-10.254,-53.711
1678025650.383,46.387,54.199,50.781,-14.160,-43.457
1678025650.387,18.066,56.641,66.406,-33.691,-96.191
1678025650.391,19.043,56.641,85.449,-21.973,-34.668
1678025650.395,49.316,52.734,87.402,-1.953,14.160
1678025650.398,66.406,40.527,104.980,4.883,-31.738
1678025650.402,49.805,60.547,106.445,12.207,-72.754
1678025650.406,20.508,79.590,97.168,19.531,117.676
1678025650.410,27.832,69.824,92.773,21.484,216.797
1678025650.414,53.711,68.848,96.680,32.227,-72.754
1678025650.431,64.941,85.449,112.793,48.828,8.789
1678025650.435,52.246,71.777,112.305,37.598,221.680
1678025650.439,28.320,71.777,96.191,40.039,31.738
1678025650.443,28.320,77.637,101.562,61.035,-179.199
1678025650.447,47.852,77.637,151.367,44.434,-148.926
1678025650.451,67.871,95.215,159.668,33.691,-61.523
1678025650.455,81.543,72.754,125.000,47.852,24.902
1678025650.458,57.129,79.102,125.977,55.176,-133.789
1678025650.462,24.902,96.191,114.746,51.758,-208.496
1678025650.466,37.598,91.309,87.402,62.988,199.219
1678025650.470,70.312,87.891,111.328,69.336,136.719
1678025650.474,92.285,89.844,138.184,95.215,-44.434
1678025650.476,66.895,104.980,138.672,97.656,-13.672
1678025650.480,23.438,107.422,143.066,46.875,-104.492
1678025650.484,18.066,93.750,144.531,34.668,-172.852
1678025650.488,50.781,91.309,131.348,60.059,-166.992
1678025650.492,69.336,97.168,125.488,61.523,-46.387
1678025650.496,57.129,95.703,131.348,46.875,115.723
1678025650.500,43.457,89.355,129.395,41.016,9.766
1678025650.503,62.500,90.332,125.488,56.152,-137.695
1678025650.507,99.121,115.234,106.934,70.801,10.254
1678025650.511,102.539,115.723,88.867,73.730,87.402
1678025650.515,75.195,124.023,128.906,73.242,-77.148
1678025650.519,46.875,136.230,132.812,60.547,-100.098
1678025650.521,37.109,129.395,122.559,48.340,205.078
1678025650.525,58.594,121.094,120.117,65.918,442.871
1678025650.529,87.891,116.699,97.168,78.613,48.340
1678025650.533,69.824,129.883,119.629,63.477,-177.246
1678025650.537,41.016,116.699,146.484,53.223,-76.660
1678025650.541,60.547,125.488,134.277,65.430,-149.902
1678025650.545,78.613,144.531,98.633,71.289,-182.617
1678025650.548,87.891,133.301,102.539,75.684,-82.031
1678025650.552,81.055,141.113,99.609,72.754,226.074
1678025650.556,44.434,146.973,90.820,49.316,72.754
1678025650.560,14.160,136.719,125.000,34.180,-203.125
1678025650.564,24.414,137.695,122.070,30.762,-151.367
1678025650.567,55.664,135.742,95.703,41.016,-54.199
1678025650.571,62.012,129.395,89.844,50.293,-36.133
1678025650.575,42.480,126.465,98.145,45.410,-81.055
1678025650.579,45.898,108.398,103.027,58.594,-100.098
1678025650.583,45.898,102.539,78.125,33.691,-91.309
1678025650.587,57.617,103.516,58.105,19.531,-59.570
1678025650.591,97.168,111.816,68.848,68.359,-62.500
1678025650.594,72.754,130.859,94.238,83.008,8.789
1678025650.598,11.719,122.559,94.727,51.758,88.867
1678025650.602,15.625,116.211,80.566,32.715,-104.492
1678025650.606,48.340,109.375,79.590,59.082,-118.164
1678025650.610,58.105,93.750,77.148,71.777,92.773
1678025650.611,30.273,87.891,66.406,63.477,74.707
1678025650.615,18.066,81.055,63.965,68.359,-138.184
1678025650.619,47.363,78.613,75.684,70.801,-136.230
1678025650.623,50.781,78.125,56.641,68.848,123.535
1678025650.627,49.805,71.777,23.926,54.688,125.488
1678025650.631,31.250,60.059,17.090,37.109,-6.836
1678025650.635,-1.465,51.270,45.898,44.434,-61.523
1678025650.638,16.113,51.758,53.711,67.871,163.574
1678025650.642,53.711,41.992,44.922,93.750,172.363
1678025650.646,56.641,32.227,38.086,76.660,-104.004
1678025650.650,27.344,23.926,3.418,52.246,-93.262
1678025650.654,3.418,11.719,-3.418,51.270,-90.820
1678025650.656,11.719,16.602,37.598,39.551,-172.852
1678025650.660,32.715,36.133,48.828,35.156,-157.227
1678025650.664,47.852,36.133,34.180,33.691,-33.203
1678025650.668,22.461,14.160,-2.441,18.066,-15.137
1678025650.672,-13.184,-4.395,-9.766,-0.488,-67.871
1678025650.676,-15.137,-13.672,6.836,-33.691,-111.328
1678025650.680,3.906,-3.418,-1.953,-20.508,35.645
1678025650.683,6.836,9.277,-28.809,-5.859,293.945
1678025650.687,-35.645,-25.879,-35.645,-54.688,43.945
1678025650.691,-76.172,-47.852,-0.488,-84.473,-164.551
1678025650.695,-58.105,-41.992,8.301,-74.707,-49.805
1678025650.699,-9.277,-45.410,-15.137,-49.805,-38.574
1678025650.701,2.441,-46.387,-18.066,-30.762,-94.238
1678025650.705,-20.996,-51.270,-14.160,-49.316,-69.336
1678025650.709,-34.180,-53.711,-12.207,-41.992,63.965
1678025650.713,-31.250,-52.734,-13.184,-20.508,-58.594
1678025650.717,-1.465,-51.758,-16.113,-1.465,-213.379
1678025650.721,33.691,-52.246,-16.113,3.418,0.488
1678025650.725,37.109,-52.734,-22.949,0.977,289.062
1678025650.728,27.832,-54.688,-26.855,2.930,7.812
1678025650.732,35.645,-57.617,-31.738,13.672,-265.137
1678025650.736,44.434,-62.012,-35.645,41.504,-68.359
1678025650.740,71.777,-64.941,-32.227,62.500,102.051
1678025650.744,87.891,-67.383,-31.738,56.152,-42.969
1678025650.746,61.035,-72.754,-35.645,41.992,-197.754
1678025650.750,38.574,-72.754,-46.875,35.156,-152.832
1678025650.754,51.270,-72.266,-56.641,18.555,-136.719
1678025650.758,82.031,-84.961,-42.969,25.391,-128.418
1678025650.762,93.262,-104.004,-53.223,48.340,-108.887
1678025650.766,66.895,-92.285,-60.547,51.758,45.898
1678025650.770,37.109,-83.008,-37.109,30.273,39.551
1678025650.773,31.250,-100.098,-35.156,24.902,-225.098
1678025650.777,40.527,-106.445,-35.645,32.715,-191.895
1678025650.781,52.734,-103.027,-35.156,38.086,72.266
1678025650.785,34.180,-112.793,-44.434,29.297,55.664
1678025650.789,0.977,-130.859,-53.711,-2.441,-94.727
1678025650.806,-0.977,-141.602,-63.965,-8.301,-133.301
1678025650.810,30.273,-144.043,-69.336,8.301,55.176
1678025650.814,48.828,-142.578,-72.754,23.438,119.629
1678025650.818,24.902,-142.090,-74.219,15.137,-115.234
1678025650.822,-2.441,-146.484,-76.172,-14.648,-157.227
1678025650.826,10.254,-150.879,-88.867,-11.230,-90.332
1678025650.830,29.297,-152.344,-96.680,3.906,-150.391
1678025650.833,22.949,-160.156,-95.215,3.418,-147.949
1678025650.837,3.906,-169.434,-102.051,3.418,-77.637
1678025650.841,-18.555,-179.199,-102.539,-12.695,84.961
1678025650.845,-11.719,-181.152,-92.285,-12.695,-15.625
1678025650.849,24.902,-180.176,-88.867,-10.254,-146.973
1678025650.851,43.945,-187.012,-101.074,9.766,-86.426
1678025650.855,20.996,-190.430,-108.887,-3.906,-14.160
1678025650.859,-9.277,-197.754,-115.723,-27.832,-115.234
1678025650.863,-10.254,-203.613,-123.535,-31.250,-230.957
1678025650.867,4.395,-202.148,-124.023,-33.691,-98.633
1678025650.871,13.184,-201.172,-116.699,-4.883,107.422
1678025650.875,-5.859,-203.613,-123.047,-1.465,135.742
1678025650.878,-34.668,-211.426,-142.090,-28.809,-33.691
1678025650.882,-38.086,-213.379,-131.836,-21.484,-5.371
1678025650.886,-2.930,-218.750,-130.371,-7.812,127.441
1678025650.890,19.043,-218.262,-138.672,-14.648,-38.574
1678025650.894,6.836,-211.426,-144.531,-17.090,-113.770
1678025650.896,-27.344,-218.262,-134.277,-25.391,42.969
1678025650.900,-33.203,-218.750,-118.652,-12.207,-22.461
1678025650.904,-24.902,-214.355,-120.605,-14.648,-174.805
1678025650.908,-8.301,-213.867,-136.230,-23.438,-19.531
1678025650.912,-0.977,-216.309,-140.137,-25.391,200.684
1678025650.916,-32.715,-214.844,-125.000,-27.344,90.332
1678025650.920,-50.293,-210.938,-117.188,-36.133,-64.941
1678025650.923,-27.344,-210.449,-119.141,-23.438,-68.359
1678025650.927,6.348,-212.402,-130.371,1.953,158.691
1678025650.931,2.930,-209.473,-141.113,-25.391,131.836
1678025650.935,-47.852,-208.496,-137.207,-40.039,-90.820
1678025650.939,-46.875,-211.426,-135.254,-24.902,-107.910
1678025650.941,-14.160,-206.543,-136.230,-19.531,-110.352
1678025650.945,-5.371,-197.266,-122.070,-15.137,-104.004
1678025650.949,-11.230,-191.895,-109.375,-8.301,-63.965
1678025650.953,-44.434,-189.453,-110.840,-18.555,-31.738
1678025650.957,-51.270,-186.523,-130.371,-31.738,-41.992
1678025650.961,-41.016,-178.223,-132.324,-29.785,-61.035
1678025650.965,-10.742,-176.270,-124.512,-27.832,-61.523
1678025650.968,3.418,-174.316,-113.281,-7.324,237.305
1678025650.972,-37.109,-171.387,-98.633,0.977,405.273
1678025650.976,-56.641,-169.434,-111.816,-20.996,22.949
1678025650.980,-45.898,-171.875,-107.422,-38.574,-197.266
1678025650.984,-21.484,-165.527,-96.191,-25.879,-43.945
1678025650.986,-2.930,-153.809,-115.723,-4.395,49.316
1678025650.990,-20.508,-163.574,-109.863,-0.488,-63.477
1678025650.994,-30.762,-155.273,-82.031,-10.254,-92.285
1678025650.998,-18.066,-140.625,-90.332,-11.230,53.711
1678025651.002,1.953,-147.949,-107.910,0.000,-47.363
1678025651.006,2.930,-147.461,-97.656,0.488,-29.297
1678025651.010,-4.395,-135.742,-82.031,-5.859,86.914
1678025651.013,-13.184,-134.766,-74.707,0.000,134.766
1678025651.017,-16.602,-136.230,-75.684,-4.883,-15.137
1678025651.021,2.441,-130.859,-69.336,14.648,-202.637
1678025651.025,15.137,-125.488,-65.430,49.316,-88.379
1678025651.029,7.812,-126.465,-69.336,48.828,41.992
1678025651.030,6.348,-120.117,-74.219,33.691,-62.500
1678025651.034,-3.418,-116.211,-71.289,33.203,-208.496
1678025651.038,10.254,-123.047,-77.148,41.016,-103.516
1678025651.042,51.758,-120.117,-88.867,63.477,-3.418
1678025651.046,63.477,-104.980,-66.895,89.355,-51.758
1678025651.050,4.395,-117.188,-55.176,80.078,-123.047
1678025651.054,-9.277,-128.418,-64.453,48.340,20.020
1678025651.057,5.371,-119.141,-58.105,54.199,175.781
1678025651.061,33.203,-120.117,-62.988,83.008,-70.312
1678025651.065,47.852,-115.234,-70.801,86.914,-159.668
1678025651.069,-2.441,-106.445,-59.570,43.945,-130.371
1678025651.073,-23.926,-101.562,-48.340,40.527,-226.562
1678025651.076,-7.324,-98.633,-60.059,57.617,-224.121
1678025651.080,18.066,-97.168,-68.848,61.523,-150.879
1678025651.084,36.621,-98.145,-89.355,70.312,122.559
1678025651.088,-1.465,-100.586,-102.539,62.500,88.379
1678025651.092,-10.254,-92.285,-65.918,44.434,-251.465
1678025651.096,10.742,-83.496,-43.945,51.270,-121.582
1678025651.100,26.855,-87.891,-39.551,62.988,200.195
1678025651.103,38.574,-89.355,-45.410,50.781,93.750
1678025651.107,17.578,-83.496,-47.363,34.180,-143.555
1678025651.111,-9.766,-84.961,-39.062,9.766,-160.645
1678025651.115,-1.465,-83.984,-49.805,-1.465,-152.832
1678025651.119,16.113,-76.660,-47.363,-12.207,-178.711
1678025651.122,14.160,-74.219,-41.504,0.000,-105.957
1678025651.126,4.395,-67.871,-54.688,23.438,-31.250
1678025651.130,-2.930,-76.172,-48.828,19.043,-41.016
1678025651.134,-0.488,-73.730,-39.551,35.156,-127.930
1678025651.138,39.551,-54.199,-40.039,33.691,-153.320
1678025651.142,55.664,-53.223,-36.133,27.832,113.281
1678025651.146,21.973,-57.617,-33.691,38.574,218.262
1678025651.149,3.418,-57.617,-29.785,36.133,-67.871
1678025651.153,10.254,-59.570,-33.203,45.410,-160.156
1678025651.157,41.992,-53.711,-44.922,54.199,0.977
1678025651.161,57.129,-48.340,-45.898,3.906,18.066
1678025651.165,38.574,-51.270,-43.945,8.301,-138.184
1678025651.181,34.180,-46.387,-29.785,55.176,-128.906
1678025651.185,27.832,-42.480,-10.742,44.434,0.000
1678025651.189,48.340,-47.363,-14.160,49.805,-4.883
1678025651.193,83.496,-41.504,-33.203,61.523,-23.926
1678025651.197,54.199,-38.574,-29.785,55.664,-8.301
1678025651.201,27.344,-39.062,-23.438,46.875,231.445
1678025651.205,28.320,-38.574,-25.879,48.340,181.641
1678025651.208,30.762,-37.109,-27.832,60.547,-118.652
1678025651.212,51.758,-32.715,-26.855,81.055,-58.105
1678025651.216,48.828,-37.598,-32.715,69.824,149.902
1678025651.220,35.645,-34.180,-41.016,38.574,-25.879
1678025651.224,25.391,-30.762,-39.062,35.645,-195.801
1678025651.225,20.996,-31.250,-41.992,50.781,-106.934
1678025651.229,62.500,-33.203,-52.734,59.082,-20.996
1678025651.233,52.734,-46.875,-51.758,55.176,-20.508
1678025651.237,6.836,-41.504,-44.434,42.480,-65.918
1678025651.241,10.742,-26.855,-45.898,51.758,-65.918
1678025651.245,29.297,-29.785,-44.922,40.039,-12.207
1678025651.249,34.180,-38.574,-50.293,42.969,20.996
1678025651.252,25.879,-41.016,-60.547,63.965,43.457
1678025651.256,14.648,-46.875,-57.617,71.777,173.828
1678025651.260,19.531,-47.363,-64.941,67.383,312.500
1678025651.264,26.855,-46.875,-62.500,42.969,-70.801
1678025651.268,34.668,-57.129,-43.457,43.945,-180.176
1678025651.271,44.922,-65.918,-39.551,58.105,194.824
1678025651.275,35.645,-58.105,-59.082,66.406,50.781
1678025651.279,42.969,-49.805,-59.570,70.312,-195.801
1678025651.283,17.578,-45.410,-41.504,60.547,-151.855
1678025651.287,29.785,-38.574,-59.082,53.223,-78.613
1678025651.291,77.637,-41.504,-74.707,67.871,35.645
1678025651.295,66.406,-50.293,-62.500,71.777,68.359
1678025651.298,51.758,-49.805,-58.105,75.195,-11.719
1678025651.302,63.477,-47.363,-65.430,87.402,197.266
1678025651.306,80.566,-48.828,-70.801,84.961,103.027
1678025651.310,101.074,-48.340,-67.383,109.375,-150.391
1678025651.314,86.426,-47.363,-71.289,104.492,-141.113
1678025651.315,59.570,-47.852,-79.590,73.730,-155.762
1678025651.319,78.125,-52.246,-84.473,77.637,-161.133
1678025651.323,89.844,-47.852,-76.660,86.426,-147.461
1678025651.327,96.191,-42.480,-83.984,92.773,-51.758
1678025651.331,88.379,-45.410,-91.797,98.633,27.832
1678025651.335,56.152,-49.805,-76.172,84.961,-34.668
1678025651.339,46.387,-54.199,-73.242,75.195,-26.367
1678025651.342,68.848,-56.641,-101.562,88.379,68.359
1678025651.346,89.844,-51.758,-97.168,83.008,207.031
1678025651.350,74.219,-48.828,-61.035,70.312,-6.348
1678025651.354,38.574,-52.246,-46.875,52.734,-123.535
1678025651.358,28.809,-52.246,-50.781,34.180,91.797
1678025651.361,35.645,-52.734,-61.035,26.855,-33.203
1678025651.365,54.688,-48.828,-68.848,30.273,-218.262
1678025651.369,60.547,-49.316,-69.824,45.410,-74.219
1678025651.373,31.250,-55.176,-70.801,32.227,86.914
1678025651.377,12.207,-48.828,-90.332,22.461,-122.070
1678025651.381,26.855,-47.363,-98.145,30.273,-260.254
1678025651.385,40.527,-51.270,-89.844,26.855,20.508
1678025651.388,41.016,-49.805,-74.707,32.715,276.855
1678025651.392,14.160,-56.152,-60.547,29.297,144.531
1678025651.396,-2.930,-58.105,-59.570,16.602,-95.703
1678025651.400,9.277,-56.641,-78.613,11.230,-146.484
1678025651.404,25.879,-58.105,-79.590,18.555,-135.254
1678025651.407,36.621,-59.082,-71.777,13.672,-109.863
1678025651.411,19.531,-60.059,-69.824,-17.578,-104.004
1678025651.415,5.859,-57.617,-63.477,-27.832,-124.023
1678025651.419,28.320,-55.664,-62.012,-5.371,-50.781
1678025651.423,50.293,-49.805,-62.012,13.672,-102.051
1678025651.427,35.645,-46.387,-58.105,15.625,-184.082
1678025651.431,18.555,-47.363,-62.012,-1.465,88.379
1678025651.434,1.953,-49.805,-64.453,-16.602,228.027
1678025651.438,14.160,-48.340,-56.152,-9.766,-131.836
1678025651.442,37.109,-45.898,-51.758,0.977,-164.062
1678025651.446,30.273,-57.129,-63.477,16.602,-40.527
1678025651.450,-4.883,-56.641,-77.637,3.418,-121.582
1678025651.451,-26.855,-55.176,-59.570,-16.113,-115.723
1678025651.455,-2.930,-59.082,-63.477,-13.184,-179.688
1678025651.459,50.293,-60.547,-71.289,29.297,-22.461
1678025651.463,54.199,-60.547,-54.688,43.945,84.473
1678025651.467,-9.277,-56.152,-44.922,10.742,-60.059
1678025651.471,-23.926,-58.594,-40.039,-8.789,24.414
1678025651.475,-25.879,-57.617,-41.504,4.883,251.953
1678025651.478,-25.879,-59.570,-56.152,14.160,86.914
1678025651.482,-3.906,-61.523,-42.480,-1.465,-167.969
1678025651.486,-32.715,-62.012,-13.184,-11.719,-118.164
1678025651.490,-86.426,-65.430,-16.113,-53.223,-6.348
1678025651.494,-100.586,-65.430,-27.344,-73.730,-173.828
1678025651.496,-94.727,-71.289,-40.527,-62.500,-234.863
1678025651.500,-69.336,-69.336,-43.457,-42.969,-78.613
1678025651.504,-58.594,-65.918,-17.090,-35.645,-66.895
1678025651.508,-92.285,-63.965,-5.859,-54.199,-167.480
1678025651.512,-97.656,-56.641,-24.902,-49.805,-226.562
1678025651.516,-64.941,-49.805,-28.320,-35.645,-45.898
1678025651.520,-42.480,-46.875,-9.277,-33.691,73.242
1678025651.523,-42.969,-54.199,-17.090,-24.414,46.875
1678025651.527,-70.312,-57.617,-31.250,-35.645,-127.930
1678025651.531,-80.566,-52.246,-16.602,-50.781,-39.551
1678025651.535,-51.758,-47.363,-10.742,-39.551,189.453
1678025651.539,-36.133,-44.434,-31.738,-16.113,-48.828
1678025651.555,-56.641,-44.434,-35.156,-20.508,-27.344
1678025651.559,-74.707,-46.387,-42.480,-46.387,165.039
1678025651.563,-72.754,-42.480,-33.203,-50.781,-36.621
1678025651.567,-71.289,-41.504,-5.859,-64.453,-199.707
1678025651.571,-53.711,-44.434,-12.695,-59.082,-82.520
1678025651.575,-42.480,-33.691,-20.996,-41.016,160.645
1678025651.579,-68.848,-27.832,-22.949,-47.852,76.172
1678025651.582,-84.961,-28.320,-24.902,-57.617,-105.957
1678025651.586,-81.055,-16.113,-14.648,-48.340,-42.969
1678025651.590,-55.176,-7.812,-9.277,-20.020,194.824
1678025651.594,-56.641,-7.812,-26.855,-29.785,85.449
1678025651.598,-77.148,-0.977,-29.785,-53.223,-125.000
1678025651.600,-80.566,2.441,-22.461,-45.898,-137.695
1678025651.604,-71.289,0.488,-38.086,-37.598,-196.289
1678025651.608,-44.434,-0.488,-34.668,-28.320,-115.723
1678025651.612,-28.809,-1.953,-23.926,-18.066,-52.734
1678025651.616,-58.105,1.953,-22.949,-41.504,-52.246
1678025651.620,-87.891,5.371,-23.438,-66.406,29.785
1678025651.624,-56.641,8.789,-11.230,-35.645,-37.109
1678025651.627,-30.762,18.066,-6.348,1.465,-129.395
1678025651.631,-21.484,21.973,-2.930,2.930,38.086
1678025651.635,-37.109,19.531,-4.395,-4.395,193.359
1678025651.639,-65.918,20.996,-18.555,-22.461,-46.387
1678025651.643,-50.293,26.855,-28.809,-0.488,-193.848
1678025651.646,-67.383,19.531,-9.766,-4.883,99.121
1678025651.650,-48.340,16.113,-0.488,-22.461,202.148
1678025651.654,-29.785,35.645,-4.883,-16.113,-79.590
1678025651.658,-65.918,46.875,-2.930,-22.461,-163.574
1678025651.662,-74.707,43.457,-5.371,-36.133,-83.984
1678025651.666,-68.359,39.062,-3.418,-51.758,-35.645
1678025651.670,-40.527,35.156,0.000,-29.297,28.809
1678025651.673,-36.621,41.992,-5.371,-17.578,50.293
1678025651.677,-64.941,37.598,17.090,-29.785,148.926
1678025651.681,-85.938,38.574,25.391,-39.062,-46.387
1678025651.685,-86.426,43.457,5.371,-54.199,-204.102
1678025651.689,-66.406,45.898,0.000,-35.156,-41.504
1678025651.690,-61.035,49.805,6.836,1.953,36.621
1678025651.694,-70.801,53.223,10.254,-5.371,-61.035
1678025651.698,-109.375,51.270,11.719,-56.641,-184.082
1678025651.702,-79.102,56.641,-7.324,-53.223,-131.348
1678025651.706,-12.207,59.570,-24.414,-9.766,34.668
1678025651.710,-56.641,54.199,7.812,-15.137,10.742
1678025651.714,-105.957,59.570,31.250,-49.805,-50.293
1678025651.717,-93.750,56.152,33.691,-62.012,41.992
1678025651.721,-79.590,56.641,27.344,-44.434,132.812
1678025651.725,-67.871,59.570,10.742,-22.949,-57.129
1678025651.729,-60.059,57.617,13.184,-40.527,-103.516
1678025651.733,-100.098,50.781,32.227,-72.266,1.953
1678025651.737,-131.836,45.410,43.457,-65.430,-46.875
1678025651.741,-114.258,48.340,46.387,-65.430,-208.496
1678025651.745,-115.723,48.828,34.180,-78.613,-135.742
1678025651.749,-108.398,45.898,21.973,-43.945,181.152
1678025651.753,-118.164,48.828,30.762,-63.965,116.211
1678025651.757,-146.973,58.105,40.527,-113.281,-141.113
1678025651.761,-125.977,60.059,51.758,-93.262,-76.172
1678025651.764,-117.188,54.688,48.340,-84.473,188.477
1678025651.768,-121.094,61.035,23.926,-74.707,166.992
1678025651.772,-130.371,69.824,21.484,-55.664,-89.355
1678025651.776,-146.484,63.965,37.109,-72.266,-173.340
1678025651.780,-124.512,58.105,36.133,-66.895,-142.578
1678025651.781,-78.125,53.711,8.789,-42.969,-107.910
1678025651.785,-87.402,50.781,7.812,-50.293,-69.336
1678025651.789,-114.258,62.012,30.762,-66.895,-28.320
1678025651.793,-118.652,77.148,22.949,-81.055,-73.242
1678025651.797,-109.375,82.520,8.301,-70.312,-94.727
1678025651.801,-89.844,83.008,16.113,-68.848,-82.031
1678025651.805,-74.219,86.426,37.598,-46.875,163.574
1678025651.808,-74.707,77.148,37.109,-50.781,428.223
1678025651.812,-112.793,72.266,20.020,-93.262,18.555
1678025651.816,-128.418,81.055,11.719,-82.031,-229.980
1678025651.820,-102.539,83.984,22.949,-77.148,-67.871
1678025651.824,-82.031,78.613,30.273,-61.035,-24.414
1678025651.826,-80.078,71.289,11.719,-50.293,-20.508
1678025651.830,-95.703,78.613,5.859,-70.312,-82.031
1678025651.834,-94.238,82.031,20.508,-68.848,-22.461
1678025651.838,-64.453,86.426,33.691,-62.500,-41.992
1678025651.842,-75.195,94.727,32.715,-62.988,-112.793
1678025651.846,-95.703,87.891,17.578,-76.172,-9.766
1678025651.850,-101.074,82.520,14.648,-85.449,195.801
1678025651.853,-92.773,89.844,17.578,-84.961,26.367
1678025651.857,-87.402,96.191,18.555,-72.266,-237.793
1678025651.861,-83.496,93.750,15.625,-67.383,-118.164
1678025651.865,-88.379,87.402,20.020,-79.102,23.438
1678025651.869,-112.305,88.867,19.043,-95.215,-82.031
1678025651.870,-113.770,88.379,18.555,-77.637,-171.875
1678025651.874,-97.656,88.379,27.344,-80.566,-103.027
1678025651.878,-68.848,94.238,31.250,-78.613,-21.973
1678025651.882,-49.805,96.191,24.902,-62.500,-57.129
1678025651.886,-92.285,91.797,16.602,-66.895,-84.473
1678025651.890,-104.004,95.215,14.160,-76.172,30.762
1678025651.894,-91.309,94.238,26.367,-76.660,9.766
1678025651.897,-98.633,88.379,19.043,-83.496,-113.281
1678025651.901,-91.797,89.844,-0.977,-88.379,-94.727
1678025651.905,-107.422,94.727,0.977,-81.055,75.195
1678025651.909,-121.094,101.562,17.090,-92.285,73.730
1678025651.913,-110.840,95.215,10.254,-96.680,-149.414
1678025651.931,-107.422,85.449,0.488,-80.078,-41.504
1678025651.935,-83.008,91.309,16.113,-71.777,188.477
1678025651.939,-83.984,102.051,22.949,-90.820,182.617
1678025651.943,-114.258,105.957,11.719,-100.586,-100.098
1678025651.947,-101.562,106.445,2.441,-85.938,-218.750
1678025651.951,-72.754,103.027,5.859,-74.707,-35.645
1678025651.955,-70.312,103.516,10.254,-59.082,79.590
1678025651.958,-91.797,104.004,15.625,-68.848,-105.957
1678025651.962,-112.793,98.633,14.160,-83.496,-188.965
1678025651.966,-105.957,93.750,10.742,-65.430,23.438
1678025651.970,-103.516,95.215,9.277,-78.613,-63.965
1678025651.974,-96.191,95.215,17.578,-95.703,-177.734
1678025651.976,-112.305,93.750,22.461,-98.633,-6.348
1678025651.980,-141.602,96.680,13.672,-116.699,-12.207
1678025651.984,-130.859,97.656,11.230,-113.281,-196.777
1678025651.988,-96.191,93.262,10.254,-93.750,-192.871
1678025651.992,-64.941,94.727,1.953,-76.660,-90.332
1678025651.996,-71.289,93.750,-8.301,-71.777,-17.578
1678025652.000,-102.051,91.797,2.930,-87.891,-46.387
1678025652.003,-120.605,99.121,14.648,-102.539,-223.145
1678025652.007,-103.516,104.492,20.508,-86.426,-45.410
1678025652.011,-102.539,99.609,31.250,-83.984,231.934
1678025652.015,-111.328,103.027,32.227,-99.609,-8.301
1678025652.019,-116.699,101.074,35.156,-100.586,-138.672
1678025652.022,-122.559,96.680,37.598,-98.145,30.762
1678025652.026,-97.168,101.562,30.762,-96.680,30.273
1678025652.030,-75.684,104.492,19.531,-89.844,1.465
1678025652.034,-85.938,104.004,4.883,-97.656,32.227
1678025652.038,-102.539,105.469,18.066,-102.051,84.473
1678025652.042,-114.258,104.492,42.969,-98.633,-4.395
1678025652.046,-106.445,108.398,37.109,-100.098,-115.723
1678025652.049,-76.172,117.188,33.203,-77.148,-62.988
1678025652.053,-79.102,118.652,39.062,-66.406,210.938
1678025652.057,-103.027,119.629,40.527,-81.055,103.027
1678025652.061,-95.215,112.793,46.875,-66.406,-224.609
1678025652.065,-85.938,114.258,62.012,-48.828,-227.539
1678025652.066,-94.238,122.559,55.664,-82.031,-117.676
1678025652.070,-89.355,121.582,59.082,-86.426,-27.344
1678025652.074,-94.238,121.094,48.828,-84.961,-108.887
1678025652.078,-120.605,124.023,44.434,-114.258,-166.016
1678025652.082,-154.297,127.930,59.570,-150.391,-34.180
1678025652.086,-125.488,116.699,46.387,-148.438,20.996
1678025652.090,-98.633,117.188,47.852,-112.305,-23.926
1678025652.093,-133.301,126.465,45.410,-130.371,32.715
1678025652.097,-144.531,124.512,41.504,-142.090,229.004
1678025652.101,-156.250,130.371,40.527,-147.461,-9.766
1678025652.105,-155.762,127.930,32.715,-162.598,-112.305
1678025652.109,-141.113,130.859,32.715,-147.949,54.199
1678025652.111,-166.504,140.625,26.855,-168.945,34.180
1678025652.115,-189.941,130.371,24.414,-201.660,-173.340
1678025652.119,-169.922,126.953,30.762,-181.152,-197.754
1678025652.123,-165.039,133.301,16.113,-167.480,38.574
1678025652.127,-146.484,129.395,3.418,-162.109,63.965
1678025652.131,-137.695,124.023,5.371,-157.715,63.965
1678025652.135,-153.809,118.164,13.672,-171.875,-8.789
1678025652.138,-154.785,117.676,31.738,-160.645,153.809
1678025652.142,-145.508,121.094,35.156,-128.906,128.906
1678025652.146,-119.629,121.094,36.621,-119.629,-125.488
1678025652.150,-126.465,120.117,43.945,-126.465,-77.148
1678025652.154,-158.203,122.070,37.109,-147.461,-136.230
1678025652.156,-169.434,119.141,30.273,-190.918,-304.688
1678025652.160,-149.902,113.281,20.996,-157.227,-276.855
1678025652.164,-116.211,116.699,18.555,-104.980,-111.328
1678025652.168,-110.352,119.629,24.902,-114.258,-23.926
1678025652.172,-145.996,111.816,21.484,-130.371,-110.840
1678025652.176,-160.645,106.445,-4.883,-138.184,-202.637
1678025652.180,-120.605,113.770,-1.465,-115.723,32.227
1678025652.183,-85.449,113.770,33.203,-103.027,205.566
1678025652.187,-115.234,106.445,33.691,-125.000,-67.871
1678025652.191,-145.020,99.121,36.621,-125.488,-85.938
1678025652.195,-149.414,98.633,35.645,-138.184,-23.438
1678025652.199,-151.367,102.539,23.438,-132.812,-100.098
1678025652.201,-139.160,101.562,22.461,-101.074,-36.133
1678025652.205,-123.535,104.004,23.438,-104.004,-9.277
1678025652.209,-146.484,96.191,17.090,-116.699,92.285
1678025652.213,-160.156,94.238,23.438,-121.582,8.301
1678025652.217,-136.230,94.727,23.926,-112.305,-183.105
1678025652.221,-112.793,87.891,9.766,-104.492,-69.824
1678025652.225,-122.070,100.098,13.672,-124.512,200.684
1678025652.228,-147.461,104.004,25.391,-144.531,16.113
1678025652.232,-167.969,98.633,26.367,-149.414,-285.156
1678025652.236,-151.367,100.586,24.902,-136.230,-237.793
1678025652.240,-114.258,94.238,25.391,-109.863,-102.051
1678025652.244,-112.793,85.449,16.602,-103.516,20.996
1678025652.246,-104.004,85.938,10.742,-120.605,-35.645
1678025652.250,-103.027,88.867,16.602,-138.184,-65.430
1678025652.254,-127.930,87.891,17.090,-136.230,56.641
1678025652.258,-124.512,84.473,12.695,-121.582,-40.039
1678025652.262,-113.281,83.008,6.348,-133.301,-71.289
1678025652.266,-111.328,90.332,1.953,-133.301,44.922
1678025652.270,-140.137,86.914,7.812,-139.648,74.707
1678025652.273,-138.184,77.148,15.137,-134.766,-93.262
1678025652.277,-80.078,77.148,15.137,-102.539,-186.523
1678025652.281,-55.176,88.867,11.719,-68.848,34.668
1678025652.285,-117.188,93.750,4.395,-110.840,89.844
1678025652.289,-160.645,87.891,-5.859,-161.621,-195.312
1678025652.305,-146.973,93.262,-16.113,-177.246,-247.070
1678025652.309,-134.277,104.492,-25.879,-170.410,34.180
1678025652.313,-126.953,103.027,-35.156,-167.969,173.340
1678025652.317,-133.301,102.539,-39.551,-189.941,-73.242
1678025652.321,-136.719,108.398,-38.574,-194.824,-169.922
1678025652.325,-126.465,111.328,-39.062,-185.059,94.238
1678025652.329,-156.250,105.957,-46.875,-219.238,21.484
1678025652.332,-140.625,105.957,-50.781,-236.816,-145.508
1678025652.336,-129.883,107.422,-57.129,-223.145,-44.434
1678025652.340,-159.180,101.074,-68.359,-227.539,90.332
1678025652.344,-158.691,104.980,-74.707,-233.398,-54.688
1678025652.348,-142.578,109.863,-73.242,-239.258,-135.742
1678025652.351,-122.559,109.863,-66.895,-230.469,-73.242
1678025652.355,-117.188,104.980,-70.312,-217.285,-77.637
1678025652.359,-140.137,108.887,-74.707,-218.750,-112.793
1678025652.363,-146.973,111.328,-76.172,-228.516,-187.988
1678025652.367,-137.207,103.516,-76.172,-220.215,-71.777
1678025652.371,-83.008,103.516,-75.684,-195.801,40.527
1678025652.375,-54.199,97.656,-77.148,-188.965,109.375
1678025652.378,-101.562,96.191,-73.242,-204.590,8.789
1678025652.382,-115.723,98.633,-70.801,-208.984,-44.922
1678025652.386,-102.539,96.191,-75.684,-165.039,192.871
1678025652.390,-104.004,89.844,-83.496,-149.414,73.730
1678025652.394,-95.703,82.031,-91.797,-167.969,-1.465
1678025652.396,-99.609,78.125,-91.309,-171.387,193.848
1678025652.400,-116.211,72.754,-83.984,-180.664,22.949
1678025652.404,-114.746,67.383,-76.660,-178.223,-174.805
1678025652.408,-83.008,64.941,-78.613,-159.180,-104.004
1678025652.412,-56.152,68.848,-82.031,-149.414,17.090
1678025652.416,-101.562,64.453,-78.613,-168.457,-14.160
1678025652.420,-131.836,59.082,-71.289,-180.664,-103.027
1678025652.423,-94.238,68.359,-67.383,-164.551,-60.059
1678025652.427,-55.664,71.777,-66.406,-161.133,102.051
1678025652.431,-5.371,66.406,-62.012,-145.020,49.805
1678025652.435,-5.859,58.105,-57.617,-134.766,-114.258
1678025652.439,-103.516,46.387,-58.105,-146.484,-120.117
1678025652.441,-106.445,52.734,-53.223,-121.582,63.477
1678025652.445,-83.008,54.688,-44.922,-89.844,-6.836
1678025652.449,-88.867,40.527,-46.387,-79.102,-84.961
1678025652.453,-102.539,40.039,-49.805,-77.637,-39.062
1678025652.457,-125.977,43.945,-58.105,-99.609,-93.262
1678025652.461,-115.723,41.992,-64.453,-111.816,-147.949
1678025652.465,-84.473,41.016,-61.523,-101.562,-89.355
1678025652.468,-63.477,40.039,-54.688,-103.027,57.617
1678025652.472,-56.152,46.875,-56.641,-97.656,190.918
1678025652.476,-87.402,43.945,-47.852,-118.164,-21.484
1678025652.480,-107.910,40.527,-44.922,-139.160,-230.469
1678025652.484,-67.871,43.457,-55.664,-126.465,36.133
1678025652.486,-46.387,41.504,-54.199,-113.770,254.395
1678025652.490,-74.707,39.062,-50.781,-122.559,-20.996
1678025652.494,-92.285,35.156,-57.617,-151.367,-136.230
1678025652.498,-67.383,34.180,-57.129,-166.016,9.277
1678025652.502,-64.453,28.320,-47.852,-149.414,-31.738
1678025652.506,-80.078,24.902,-53.223,-120.605,-65.918
1678025652.510,-101.562,23.438,-59.570,-117.188,62.988
1678025652.513,-132.324,21.973,-61.035,-120.605,258.301
1678025652.517,-147.461,16.602,-69.824,-125.488,69.336
1678025652.521,-124.512,16.113,-75.195,-127.930,-188.965
1678025652.525,-89.844,15.625,-78.613,-110.840,-74.707
1678025652.529,-87.891,6.348,-76.660,-112.793,68.359
1678025652.531,-100.098,8.301,-79.102,-144.531,-46.875
1678025652.535,-139.648,9.277,-78.125,-189.453,-138.184
1678025652.539,-129.395,6.348,-65.918,-181.152,-133.789
1678025652.543,-85.938,7.812,-59.570,-137.695,-125.488
1678025652.547,-90.820,11.230,-64.941,-163.574,-76.660
1678025652.551,-151.367,8.789,-67.383,-185.059,10.254
1678025652.555,-141.113,-10.254,-61.035,-144.531,66.406
1678025652.558,-100.586,-9.766,-63.477,-144.043,92.285
1678025652.562,-90.820,1.953,-66.895,-168.457,-87.402
1678025652.566,-75.684,-2.930,-73.730,-162.598,-100.586
1678025652.570,-77.148,-5.371,-79.590,-145.020,-20.508
1678025652.574,-110.352,-7.812,-75.684,-166.992,-53.711
1678025652.577,-132.324,-17.578,-77.637,-171.387,-90.332
1678025652.581,-103.516,-18.555,-74.219,-147.461,-33.691
1678025652.585,-100.098,-14.160,-61.035,-132.324,189.941
1678025652.589,-140.625,-19.043,-46.387,-108.398,182.617
1678025652.593,-139.160,-13.184,-47.852,-113.770,-109.863
1678025652.597,-105.469,-11.719,-40.039,-126.465,-100.586
1678025652.601,-76.660,-17.090,-32.715,-117.188,145.508
1678025652.604,-62.012,-10.254,-38.086,-117.676,77.148
1678025652.608,-92.773,-12.695,-30.762,-142.090,-81.543
1678025652.612,-129.883,-16.113,-30.762,-130.859,-93.262
1678025652.616,-115.723,-12.695,-28.809,-131.348,-73.242
1678025652.620,-79.102,-9.277,-20.020,-130.371,-93.750
1678025652.622,-37.598,-7.324,-20.996,-104.980,-50.781
1678025652.626,-41.016,-13.184,-29.785,-104.492,-43.457
1678025652.630,-102.539,-21.484,-30.762,-123.047,-111.328
1678025652.634,-107.422,-25.391,-22.461,-127.441,-81.543
1678025652.638,-65.918,-19.531,-18.555,-124.512,-136.230
1678025652.642,-41.016,-20.020,-18.066,-125.000,68.359
1678025652.646,-51.270,-23.926,-24.414,-118.652,404.785
1678025652.649,-94.727,-19.531,-19.043,-110.352,12.207
1678025652.653,-88.867,-23.926,-10.742,-106.934,-212.402
1678025652.657,-47.363,-30.273,-11.719,-112.305,-55.664
1678025652.661,-36.133,-26.855,-11.719,-110.352,-77.637
1678025652.665,-56.152,-30.762,-14.160,-113.770,-109.863
1678025652.681,-109.863,-30.273,-15.137,-108.398,-18.555
1678025652.685,-156.250,-30.273,-12.695,-110.352,15.137
1678025652.689,-138.184,-38.574,-13.184,-113.770,-124.512
1678025652.693,-87.402,-34.180,-11.719,-126.465,-200.195
1678025652.697,-55.176,-30.273,-11.719,-123.535,-74.219
1678025652.701,-71.289,-30.762,-17.090,-94.727,263.672
1678025652.705,-107.910,-26.855,-19.043,-101.074,223.633
1678025652.708,-88.379,-31.250,-18.066,-121.582,-63.965
1678025652.712,-56.152,-29.297,-16.113,-112.793,-89.844
1678025652.716,-45.410,-26.855,-11.230,-89.355,168.945
1678025652.720,-71.289,-37.598,9.766,-87.891,52.246
1678025652.724,-116.211,-39.062,22.949,-133.789,-181.152
1678025652.726,-116.211,-33.203,10.742,-143.555,-155.762
1678025652.730,-73.730,-29.785,-0.488,-125.977,-104.980
1678025652.734,-44.434,-32.227,-11.230,-130.371,-63.965
1678025652.738,-63.965,-31.250,-20.508,-123.047,-81.055
1678025652.742,-88.379,-22.461,-5.371,-133.301,-85.449
1678025652.746,-75.684,-17.090,14.160,-137.695,-44.434
1678025652.750,-55.176,-17.578,12.207,-120.117,-79.590
1678025652.753,-52.734,-16.113,7.812,-110.840,-120.117
1678025652.757,-78.613,-15.625,17.090,-113.281,85.449
1678025652.761,-110.352,-16.602,30.762,-118.164,306.152
1678025652.765,-110.352,-8.789,37.598,-112.305,-47.363
1678025652.769,-91.797,3.418,22.461,-102.051,-191.406
1678025652.771,-80.078,9.277,16.602,-104.980,138.184
1678025652.775,-75.684,7.812,17.090,-117.676,28.320
1678025652.779,-90.332,9.766,-0.488,-123.047,-226.074
1678025652.783,-92.285,13.184,-1.953,-125.977,-208.984
1678025652.787,-80.566,17.090,21.484,-130.371,-121.582
1678025652.791,-63.965,20.020,30.762,-132.324,-42.969
1678025652.795,-71.777,19.043,28.320,-114.258,-61.523
1678025652.798,-87.891,20.996,22.949,-110.840,-83.496
1678025652.802,-70.312,29.297,12.695,-128.418,142.578
1678025652.806,-50.293,24.414,7.812,-121.094,80.566
1678025652.810,-27.832,12.207,15.625,-111.816,-105.469
1678025652.814,-40.527,12.207,15.625,-114.746,-40.039
1678025652.815,-92.773,15.625,14.160,-114.746,-33.203
1678025652.819,-102.539,21.973,8.789,-112.305,-182.617
1678025652.823,-64.941,28.809,-16.113,-118.164,-224.121
1678025652.827,-30.762,29.785,-9.766,-102.051,-107.422
1678025652.831,-28.320,22.949,10.742,-92.285,-19.531
1678025652.835,-64.941,18.066,9.766,-108.398,37.598
1678025652.839,-130.859,16.602,8.301,-117.676,-50.293
1678025652.842,-130.859,20.996,3.418,-111.328,-19.531
1678025652.846,-76.660,23.926,-0.977,-90.332,177.734
1678025652.850,-60.059,24.902,-4.883,-100.098,-44.434
1678025652.854,-90.820,24.414,-7.324,-96.680,-181.152
1678025652.858,-78.125,22.949,2.930,-77.148,-100.098
1678025652.862,-45.410,25.391,-2.930,-93.262,-87.402
1678025652.866,-36.133,25.879,-3.906,-92.773,-156.250
1678025652.870,-31.738,24.414,5.859,-86.426,-174.805
1678025652.874,-68.848,21.484,7.324,-91.797,33.691
1678025652.878,-107.422,18.555,6.348,-101.074,75.195
1678025652.882,-86.914,19.043,1.465,-103.027,-122.559
1678025652.886,-33.691,33.203,-8.789,-81.543,-41.016
1678025652.889,-17.090,39.062,-7.812,-65.430,212.402
1678025652.893,-53.711,33.203,-4.395,-79.102,42.969
1678025652.897,-57.617,28.809,-11.230,-81.055,-265.625
1678025652.901,-35.645,20.508,-0.977,-81.543,-282.227
1678025652.905,-3.906,24.902,0.977,-56.641,-204.590
1678025652.906,7.812,35.156,2.930,-53.711,-104.492
1678025652.910,-27.344,35.645,6.836,-74.707,-144.043
1678025652.914,-72.266,35.645,0.977,-63.477,-137.207
1678025652.918,-104.004,33.203,4.395,-61.035,-12.695
1678025652.922,-72.754,33.203,15.625,-49.805,-72.754
1678025652.926,-26.855,28.809,17.090,-53.223,-114.258
1678025652.930,-43.457,25.391,3.418,-49.805,158.691
1678025652.933,-79.590,25.879,0.488,-39.062,402.832
1678025652.937,-77.148,30.762,0.000,-62.012,21.973
1678025652.941,-36.621,32.715,-5.859,-57.617,-185.547
1678025652.945,-9.277,25.879,1.465,-32.715,38.574
1678025652.949,-32.227,22.949,9.277,-37.109,81.055
1678025652.951,-67.383,17.090,13.184,-38.574,-113.281
1678025652.955,-61.523,27.344,17.578,-35.156,-129.883
1678025652.959,-40.039,31.250,10.254,-37.109,99.609
1678025652.963,-18.066,14.648,13.184,-34.180,48.340
1678025652.967,-20.020,15.625,14.648,-37.109,-81.543
1678025652.971,-35.645,25.879,7.812,-36.621,20.508
1678025652.975,-45.898,24.902,12.207,-38.574,171.387
1678025652.978,-40.527,5.859,18.066,-44.434,-7.324
1678025652.982,-14.160,9.277,25.391,-37.598,-183.594
1678025652.986,-5.371,35.645,27.344,-34.668,-45.898
1678025652.990,-39.551,40.527,16.602,-42.480,117.676
1678025652.994,-68.848,32.227,15.137,-51.758,-107.910
1678025652.996,-60.547,27.344,23.438,-54.688,-202.148
1678025653.000,-37.598,23.438,22.461,-33.203,-100.098
1678025653.004,-7.812,18.066,34.180,-11.719,-97.656
1678025653.008,-42.480,31.250,30.762,-42.969,-151.855
1678025653.012,-100.098,31.250,14.160,-83.008,-183.594
1678025653.016,-89.844,16.602,21.973,-85.938,-44.434
1678025653.020,-51.270,20.508,28.809,-70.312,96.680
1678025653.023,-65.918,21.973,21.973,-66.406,39.062
1678025653.027,-82.520,25.391,26.855,-48.340,-15.137
1678025653.031,-68.359,32.715,44.922,-43.457,31.250
1678025653.035,-81.055,17.578,23.926,-86.914,90.820
1678025653.039,-75.195,3.906,6.348,-100.586,-52.246
1678025653.056,-67.383,1.465,15.625,-80.078,-32.227
1678025653.060,-90.332,5.371,21.973,-85.938,130.371
1678025653.064,-88.379,7.812,21.973,-81.543,47.852
1678025653.068,-58.105,7.324,18.066,-71.777,-123.535
1678025653.072,-43.945,14.648,8.301,-59.082,-94.238
1678025653.076,-27.832,12.207,-4.395,-51.270,93.262
1678025653.080,-39.551,-6.836,3.906,-49.316,74.219
1678025653.083,-66.406,-3.906,25.391,-34.668,-112.793
1678025653.087,-64.453,10.742,20.020,-47.852,-145.020
1678025653.091,-48.828,7.324,21.484,-39.551,164.062
1678025653.095,-36.133,1.465,35.645,-22.949,125.488
1678025653.099,-67.383,-4.883,18.066,-61.523,-118.652
1678025653.101,-91.797,-1.465,12.695,-62.500,-151.367
1678025653.105,-76.660,-1.953,0.977,-38.574,-43.945
1678025653.109,-44.922,-4.395,-10.254,-63.477,-29.785
1678025653.113,-29.785,-5.371,2.930,-54.199,-44.922
1678025653.117,-30.762,3.906,6.348,-33.691,-23.438
1678025653.121,-54.199,11.230,9.277,-44.922,-73.242
1678025653.125,-55.664,6.836,0.977,-28.320,-34.180
1678025653.128,-19.531,6.836,-2.441,-8.789,-89.355
1678025653.132,9.277,9.277,13.184,7.812,-12.207
1678025653.136,-6.836,16.113,27.832,3.418,181.152
1678025653.140,-61.523,20.508,18.066,-2.930,-60.547
