timestamps,TP9,AF7,AF8,TP10,Right AUX
1678025572.190,-78.613,-64.453,-59.082,-73.730,-239.258
1678025572.194,-66.406,-74.707,-69.336,-91.309,-155.762
1678025572.198,-70.801,-76.172,-83.496,-86.914,23.926
1678025572.202,-88.379,-78.613,-89.844,-104.980,1.953
1678025572.206,-109.863,-70.312,-102.051,-146.973,-127.930
1678025572.210,-99.121,-62.500,-88.867,-128.418,-68.848
1678025572.214,-68.848,-55.664,-71.289,-92.773,134.766
1678025572.217,-46.875,-53.223,-83.008,-65.430,86.914
1678025572.221,-47.852,-56.641,-105.469,-75.684,-51.270
1678025572.225,-84.961,-62.988,-104.004,-126.953,-14.160
1678025572.229,-95.215,-75.684,-88.379,-145.020,-16.602
1678025572.233,-49.805,-66.895,-99.121,-117.188,-128.418
1678025572.236,-32.227,-69.336,-103.027,-104.004,-77.637
1678025572.240,-56.152,-75.195,-90.820,-118.164,220.703
1678025572.244,-89.355,-83.496,-88.379,-132.812,325.195
1678025572.248,-87.891,-82.031,-89.844,-125.488,-42.969
1678025572.252,-60.059,-83.008,-102.051,-111.816,-215.820
1678025572.256,-44.434,-76.660,-121.582,-104.980,53.223
1678025572.260,-60.059,-62.988,-118.652,-104.004,243.652
1678025572.263,-82.031,-67.871,-100.586,-113.281,14.160
1678025572.267,-88.867,-85.938,-108.398,-114.258,-241.211
1678025572.271,-78.125,-87.402,-126.465,-100.586,-96.191
1678025572.275,-53.223,-102.539,-134.277,-96.191,41.016
1678025572.279,-27.344,-112.793,-156.250,-80.566,-56.152
1678025572.295,-65.918,-80.566,-137.207,-98.633,-62.012
1678025572.299,-112.305,-56.152,-101.074,-139.160,-116.699
1678025572.303,-86.426,-60.547,-104.492,-131.836,-162.598
1678025572.307,-51.270,-79.590,-125.977,-104.492,-110.352
1678025572.311,-26.855,-89.844,-148.438,-81.055,22.461
1678025572.315,-42.969,-102.051,-151.367,-79.102,193.359
1678025572.319,-89.844,-97.656,-136.719,-93.262,76.172
1678025572.322,-98.145,-85.938,-143.066,-107.422,-162.598
1678025572.326,-61.523,-86.426,-123.047,-104.004,-59.082
1678025572.330,-35.156,-91.309,-93.750,-90.820,95.215
1678025572.334,-73.730,-105.957,-109.375,-114.746,-41.504
1678025572.338,-126.465,-111.328,-134.766,-123.047,-229.492
1678025572.340,-144.043,-107.910,-136.230,-113.281,-59.570
1678025572.344,-125.000,-113.770,-112.305,-103.516,21.973
1678025572.348,-104.004,-127.930,-103.516,-81.543,-126.953
1678025572.352,-120.605,-123.535,-100.098,-68.359,-128.418
1678025572.356,-145.996,-117.188,-96.680,-74.219,-119.629
1678025572.360,-145.020,-124.023,-96.680,-86.914,-72.754
1678025572.364,-142.090,-128.906,-87.891,-89.355,-12.695
1678025572.367,-107.910,-126.953,-98.633,-53.711,-31.738
1678025572.371,-111.328,-116.699,-116.699,-39.551,86.426
1678025572.375,-132.324,-119.629,-173.340,-57.617,170.410
1678025572.379,-102.051,-125.488,-273.438,-51.270,-136.719
1678025572.383,-115.723,-126.465,-282.227,-42.969,-244.629
1678025572.385,-100.586,-119.141,-240.234,-41.504,-114.746
1678025572.389,-76.172,-104.004,-247.070,-35.156,-99.609
1678025572.393,-113.281,-109.375,-270.508,-48.340,-193.359
1678025572.397,-109.375,-104.004,-288.086,-53.223,-158.691
1678025572.401,-78.125,-98.145,-315.430,-42.480,-83.008
1678025572.405,-41.992,-97.168,-300.293,-21.973,-46.387
1678025572.409,-31.738,-98.145,-272.461,-3.906,56.641
1678025572.412,-76.172,-107.910,-268.066,-20.508,-35.156
1678025572.416,-97.656,-104.980,-262.695,-28.809,220.703
1678025572.420,-63.965,-106.445,-262.695,-29.297,271.484
1678025572.424,-17.578,-104.004,-273.926,-15.137,-145.508
1678025572.428,-23.926,-121.094,-283.203,3.418,-75.195
1678025572.430,-52.246,-120.117,-268.066,-10.742,40.527
1678025572.434,-55.176,-88.379,-244.141,-11.230,-102.539
1678025572.438,-32.227,-107.422,-250.488,-24.902,-264.160
1678025572.442,-9.277,-103.516,-239.746,-12.695,31.738
1678025572.446,-8.789,-81.055,-226.074,35.156,209.961
1678025572.450,-29.297,-88.379,-257.324,-3.906,-13.672
1678025572.454,-53.223,-88.867,-249.023,-41.992,-141.602
1678025572.457,-54.688,-102.539,-229.492,-28.320,1.953
1678025572.461,-20.508,-108.398,-230.957,8.789,138.184
1678025572.465,1.465,-100.586,-217.285,1.953,-135.254
1678025572.469,-27.344,-95.703,-198.242,-37.598,-176.270
1678025572.473,-26.855,-90.332,-180.664,-20.020,-52.246
1678025572.475,-10.742,-95.703,-188.477,-16.602,-125.488
1678025572.479,15.137,-103.516,-193.848,-16.113,-126.465
1678025572.483,33.203,-104.004,-172.852,31.738,-48.828
1678025572.487,-18.555,-105.469,-164.551,23.926,-97.656
1678025572.491,-46.875,-103.516,-176.270,-9.277,-184.570
1678025572.495,-23.926,-93.750,-180.664,-8.301,-165.527
1678025572.499,4.395,-98.145,-157.227,4.395,-2.930
1678025572.502,48.340,-125.488,-147.461,23.438,242.676
1678025572.506,41.992,-93.262,-158.691,-2.930,111.816
1678025572.510,-24.902,-64.453,-153.809,-53.223,-195.801
1678025572.514,-60.547,-83.984,-143.066,-74.707,-164.062
1678025572.518,-24.902,-96.191,-145.508,-68.359,-81.055
1678025572.521,1.465,-94.238,-135.742,-79.102,-32.715
1678025572.525,-21.973,-89.355,-106.934,-103.027,-3.906
1678025572.529,-43.457,-89.844,-99.121,-107.910,20.020
1678025572.533,-34.180,-83.984,-109.863,-105.469,41.992
1678025572.537,-14.160,-89.355,-119.141,-101.562,-94.238
1678025572.541,-5.859,-113.281,-113.281,-96.191,-76.172
1678025572.545,-26.855,-108.398,-101.562,-96.191,229.980
1678025572.548,-64.941,-90.332,-111.816,-113.770,248.535
1678025572.552,-57.129,-97.168,-114.746,-117.188,-163.574
1678025572.556,-22.461,-92.773,-101.074,-93.750,-279.297
1678025572.560,-4.395,-76.660,-111.328,-87.891,-105.469
1678025572.564,-6.348,-84.961,-101.562,-81.055,-11.719
1678025572.565,-11.719,-86.426,-74.219,-94.727,-94.727
1678025572.569,-54.688,-72.754,-75.684,-143.555,-177.734
1678025572.573,-67.871,-68.359,-91.797,-133.301,-145.996
1678025572.577,-20.020,-83.008,-105.469,-90.332,-68.359
1678025572.581,5.859,-86.914,-82.031,-85.449,-47.852
1678025572.585,-42.969,-73.242,-53.711,-122.559,-69.824
1678025572.589,-62.012,-73.242,-54.199,-92.285,210.449
1678025572.592,-24.902,-66.895,-60.059,-69.336,205.078
1678025572.596,8.789,-59.082,-51.758,-86.426,-50.293
1678025572.600,-4.883,-81.543,-40.527,-89.844,-41.016
1678025572.604,-29.785,-103.027,-29.297,-63.965,-102.051
1678025572.608,-16.602,-72.754,-43.457,-39.062,-157.715
1678025572.610,-17.578,-59.082,-66.406,-64.453,-114.258
1678025572.614,-8.301,-74.707,-40.039,-38.574,54.199
1678025572.618,-3.418,-67.383,-0.977,-6.348,139.160
1678025572.622,-47.852,-67.383,-12.695,-61.523,-40.527
1678025572.626,-58.105,-64.941,-24.902,-85.449,-188.477
1678025572.630,-37.598,-61.035,-5.859,-34.668,-94.238
1678025572.634,-29.785,-65.918,-1.465,-21.973,32.227
1678025572.637,17.090,-67.871,-19.043,-12.695,50.781
1678025572.641,-0.488,-63.477,-21.484,-1.465,-42.969
1678025572.645,-62.500,-69.824,-8.789,-26.367,13.672
1678025572.649,-53.223,-75.684,-5.371,-23.926,41.504
1678025572.653,7.324,-94.238,-11.230,5.371,-162.598
1678025572.670,47.852,-89.844,-23.926,18.555,-133.301
1678025572.674,-4.883,-43.945,-34.180,-19.043,55.664
1678025572.678,-48.340,-48.340,-33.203,-58.594,-16.113
1678025572.682,-47.852,-64.941,-41.016,-46.875,-197.266
1678025572.686,-52.246,-66.406,-59.570,-43.457,-89.355
1678025572.690,-40.039,-76.172,-45.898,-21.484,113.281
1678025572.694,-60.059,-75.195,-34.668,-10.742,144.043
1678025572.697,-88.379,-88.379,-41.992,-16.602,-92.773
1678025572.701,-67.383,-111.328,-29.785,-0.977,-84.961
1678025572.705,-29.785,-78.613,-29.297,7.324,87.402
1678025572.709,-1.465,-78.613,-30.273,6.836,20.996
1678025572.713,8.789,-101.074,-14.160,19.043,-12.207
1678025572.716,0.000,-79.590,-53.223,52.246,93.262
1678025572.720,-17.090,-50.293,-83.008,31.738,323.730
1678025572.724,-41.992,-39.551,-37.109,-18.066,145.508
1678025572.728,-50.293,-69.824,-43.945,-45.898,-104.980
1678025572.732,-20.508,-73.242,-53.711,-44.434,-39.551
1678025572.736,-36.621,-64.941,-13.184,-45.410,-11.719
1678025572.740,-53.223,-76.172,-22.949,-61.035,-21.484
1678025572.743,-17.578,-85.449,-18.066,-61.035,-85.449
1678025572.747,18.555,-87.402,-3.906,-30.762,62.012
1678025572.751,20.508,-75.684,-11.719,-21.484,222.168
1678025572.755,-34.180,-82.520,-12.695,-51.758,4.395
1678025572.759,-46.875,-77.148,-6.348,-20.020,-154.785
1678025572.760,-29.785,-59.570,-7.324,-17.090,-89.355
1678025572.764,0.000,-57.129,-4.883,-4.883,-12.207
1678025572.768,-5.371,-53.223,3.906,63.477,-167.969
1678025572.772,-42.969,-65.430,2.930,15.137,-242.188
1678025572.776,-40.527,-71.289,16.113,3.906,-214.355
1678025572.780,-5.859,-53.223,26.367,50.781,-110.840
1678025572.784,35.645,-42.480,26.855,66.895,-90.332
1678025572.787,0.488,-34.180,3.418,62.988,-71.289
1678025572.791,-53.223,-39.062,-12.695,36.133,88.867
1678025572.795,-33.691,-53.711,15.625,17.578,-97.168
1678025572.799,13.672,-59.082,46.875,30.762,-266.602
1678025572.803,46.875,-42.969,44.434,74.219,-51.758
1678025572.806,70.312,-36.133,23.926,66.406,68.848
1678025572.810,37.598,-54.199,41.504,41.016,17.090
1678025572.814,-16.113,-44.434,51.758,36.621,-156.250
1678025572.818,27.832,-36.133,63.477,79.102,-48.340
1678025572.822,62.988,-46.387,98.633,91.309,183.105
1678025572.826,77.637,-42.969,136.719,61.035,48.828
1678025572.830,89.844,-23.438,226.562,34.668,-32.227
1678025572.833,23.438,-29.297,310.547,3.906,74.707
1678025572.837,-20.508,-52.246,317.871,-6.348,98.633
1678025572.841,35.645,-58.105,305.176,52.246,-115.723
1678025572.845,60.059,-72.754,326.660,64.453,-81.543
1678025572.849,32.715,-75.684,322.754,-3.418,-41.016
1678025572.850,17.578,-53.711,286.133,6.836,-126.465
1678025572.854,30.273,-49.316,269.043,15.625,-250.000
1678025572.858,62.012,-44.922,262.207,13.184,-164.551
1678025572.862,99.609,-38.086,249.512,45.898,45.898
1678025572.866,87.891,-49.316,232.910,60.547,9.277
1678025572.870,45.410,-60.059,233.887,46.387,-24.414
1678025572.874,23.438,-48.828,223.633,19.531,-72.754
1678025572.877,57.129,-49.316,217.285,24.902,115.234
1678025572.881,90.820,-46.387,215.332,39.551,171.875
1678025572.885,56.152,-43.945,201.172,-1.953,-108.398
1678025572.889,22.461,-67.383,183.594,-33.691,-101.562
1678025572.893,51.270,-69.336,150.879,8.301,-84.473
1678025572.895,32.227,-66.406,127.930,13.672,-55.176
1678025572.899,11.719,-72.754,128.906,-16.602,-25.391
1678025572.903,43.945,-75.195,106.445,-15.625,54.199
1678025572.907,37.109,-69.336,73.242,-12.207,33.203
1678025572.911,11.719,-84.961,96.191,1.953,-211.426
1678025572.915,26.367,-68.848,136.719,11.719,-176.270
1678025572.919,74.219,-27.344,138.184,38.086,176.270
1678025572.922,90.820,-15.625,97.656,51.270,385.742
1678025572.926,27.344,-25.879,71.289,14.160,15.137
1678025572.930,5.859,-37.109,78.613,2.441,-242.676
1678025572.934,21.973,-35.156,79.102,-12.695,-152.344
1678025572.938,46.875,-48.828,62.012,-0.977,-52.734
1678025572.940,63.965,-55.176,61.523,36.621,-83.496
1678025572.944,9.277,-61.035,67.383,3.418,-94.727
1678025572.948,-20.508,-69.824,55.664,-40.039,-168.457
1678025572.952,-18.066,-69.336,41.992,-35.156,-215.820
1678025572.956,-0.977,-78.125,40.039,-31.250,-211.914
1678025572.960,-2.441,-79.590,16.602,-50.293,-107.910
1678025572.964,-42.969,-72.754,-11.230,-60.059,90.332
1678025572.967,-32.227,-70.312,-10.742,-58.105,-3.906
1678025572.971,-3.906,-71.289,-6.348,-39.062,-217.285
1678025572.975,-8.301,-87.891,-19.043,-35.156,-96.191
1678025572.979,-19.043,-92.773,-33.691,-42.969,107.910
1678025572.983,-40.039,-101.562,-46.875,-62.988,15.625
1678025573.000,-68.848,-105.469,-50.293,-70.801,-26.367
1678025573.004,-65.918,-101.074,-54.199,-74.707,57.617
1678025573.008,-11.719,-106.934,-65.918,-69.336,130.859
1678025573.012,-6.836,-87.891,-76.172,-52.734,-11.719
1678025573.016,-56.641,-87.402,-72.754,-39.062,-92.773
1678025573.020,-68.359,-106.445,-107.422,-52.734,-50.293
1678025573.024,-31.250,-99.609,-196.289,-67.383,-50.293
1678025573.027,8.301,-95.215,-238.770,-39.062,-61.523
1678025573.031,-7.812,-101.562,-264.648,-22.461,-107.910
1678025573.035,-22.461,-111.816,-309.570,-29.785,112.305
1678025573.039,-23.926,-114.258,-328.613,-25.391,114.746
1678025573.043,-58.594,-119.141,-326.660,-27.832,-242.676
1678025573.045,-66.895,-129.883,-347.656,-33.691,-191.406
1678025573.049,-37.598,-127.441,-375.000,-23.926,41.016
1678025573.053,-35.645,-129.395,-383.301,-9.277,59.570
1678025573.057,-66.406,-137.695,-405.762,-26.855,-92.285
1678025573.061,-66.406,-138.672,-426.758,-35.156,-95.215
1678025573.065,-41.016,-139.648,-433.105,-9.277,-25.391
1678025573.069,-18.555,-134.766,-435.059,-5.371,20.020
1678025573.072,-23.926,-120.117,-422.363,-16.113,-22.461
1678025573.076,-47.363,-119.141,-419.922,-40.527,-98.633
1678025573.080,-77.148,-132.324,-424.805,-68.359,154.297
1678025573.084,-81.543,-141.602,-419.922,-46.387,37.598
1678025573.088,-51.758,-139.648,-407.227,-25.879,-194.824
1678025573.090,-58.594,-130.371,-405.273,-40.039,24.414
1678025573.094,-66.406,-129.395,-385.742,-28.320,152.832
1678025573.098,-60.059,-136.230,-358.887,-23.926,8.301
1678025573.102,-49.805,-130.371,-349.609,-29.785,-189.941
1678025573.106,-22.461,-121.094,-356.445,3.418,8.301
1678025573.110,-34.180,-125.488,-347.168,0.488,215.820
1678025573.114,-71.289,-129.883,-342.773,-48.828,45.410
1678025573.117,-94.238,-129.883,-356.934,-59.082,-152.832
1678025573.121,-76.660,-123.047,-352.051,-31.738,22.949
1678025573.125,-62.500,-124.023,-339.844,-22.461,219.727
1678025573.129,-58.594,-121.582,-338.867,-38.574,-10.254
1678025573.133,-73.730,-125.000,-333.984,-23.926,-109.863
1678025573.136,-82.031,-132.324,-327.148,-44.922,-130.859
1678025573.140,-45.898,-115.723,-331.055,-38.574,-167.480
1678025573.144,-59.570,-108.398,-327.637,-8.789,-117.676
1678025573.148,-98.633,-119.629,-326.172,-36.133,61.523
1678025573.152,-84.961,-124.512,-308.105,-19.043,84.961
1678025573.156,-56.641,-109.375,-314.453,-1.465,-3.418
1678025573.160,-55.176,-117.188,-310.547,-9.277,-103.027
1678025573.163,-45.410,-125.488,-285.645,22.461,-95.703
1678025573.167,-26.855,-118.652,-291.504,41.016,182.617
1678025573.171,-58.594,-120.117,-289.062,17.578,86.914
1678025573.175,-101.562,-117.676,-271.973,-22.949,-233.887
1678025573.179,-98.633,-106.445,-262.207,6.836,-172.852
1678025573.180,-63.965,-114.258,-256.836,30.762,-33.691
1678025573.184,-34.180,-123.047,-253.906,28.809,-14.648
1678025573.188,-68.848,-119.629,-231.934,25.879,-90.820
1678025573.192,-117.676,-118.652,-223.145,-20.020,-40.039
1678025573.196,-112.793,-126.953,-234.375,-37.109,9.766
1678025573.200,-99.121,-135.742,-239.258,-40.039,-109.863
1678025573.204,-67.383,-132.324,-219.727,-24.414,-87.891
1678025573.207,-56.152,-127.441,-216.797,11.719,128.418
1678025573.211,-35.645,-112.305,-220.703,55.176,311.035
1678025573.215,-33.203,-101.074,-176.270,57.617,41.016
1678025573.219,-51.270,-112.305,-166.504,44.922,-139.160
1678025573.223,-31.738,-130.371,-191.406,51.270,-59.570
1678025573.225,-41.504,-114.258,-180.664,35.156,-3.418
1678025573.229,-68.848,-96.191,-151.855,6.348,-91.309
1678025573.233,-91.309,-115.234,-148.926,-24.414,-155.273
1678025573.237,-83.008,-111.816,-158.203,-41.016,-127.930
1678025573.241,-42.480,-107.910,-153.809,-6.836,-64.941
1678025573.245,-48.340,-116.211,-145.020,41.016,82.031
1678025573.249,-84.473,-115.723,-135.742,11.719,92.773
1678025573.252,-93.262,-119.141,-135.254,-17.578,276.855
1678025573.256,-74.707,-108.887,-139.648,-1.953,270.996
1678025573.260,-47.363,-106.934,-143.555,4.883,-21.973
1678025573.264,-55.176,-122.559,-138.672,10.742,9.766
1678025573.268,-62.500,-115.723,-115.723,2.441,-25.879
1678025573.270,-30.762,-92.285,-92.773,0.000,-31.738
1678025573.274,-39.062,-99.121,-85.938,-3.418,-113.770
1678025573.278,-60.059,-117.676,-107.422,5.859,-46.387
1678025573.282,-50.781,-124.512,-113.770,24.902,168.945
1678025573.286,-70.312,-118.652,-92.773,10.742,-31.738
1678025573.290,-64.941,-95.703,-91.797,8.301,-142.090
1678025573.294,-35.645,-78.613,-113.281,18.066,124.512
1678025573.297,-24.902,-88.379,-124.512,31.738,238.770
1678025573.301,-18.555,-106.445,-103.516,40.039,-32.715
1678025573.305,-36.133,-116.211,-90.820,13.672,-75.195
1678025573.309,-59.570,-116.211,-104.004,-18.066,-27.832
1678025573.313,-42.480,-114.258,-92.285,-7.324,-143.555
1678025573.315,-44.922,-109.375,-69.824,14.648,-245.117
1678025573.319,-35.156,-93.262,-74.707,24.414,-124.512
1678025573.323,-34.180,-99.121,-62.988,15.137,5.371
1678025573.327,-77.148,-105.469,-37.109,3.906,-84.961
1678025573.331,-66.406,-97.168,-52.734,-7.324,-241.211
1678025573.335,-33.203,-96.191,-65.918,-18.555,-44.922
1678025573.339,-24.902,-91.309,-67.871,2.441,213.867
1678025573.342,-47.363,-102.051,-63.965,-4.395,28.809
1678025573.346,-24.902,-107.422,-58.594,-15.625,-187.012
1678025573.350,-31.250,-74.219,-68.359,-16.113,-104.004
1678025573.354,-70.801,-90.332,-65.918,-28.809,-6.836
1678025573.358,-58.105,-107.910,-66.406,-11.230,-38.574
1678025573.361,-52.734,-91.797,-74.219,-13.672,-22.461
1678025573.365,-65.918,-85.938,-71.289,-14.160,27.344
1678025573.369,-80.566,-83.496,-83.496,-27.344,95.703
1678025573.373,-40.527,-86.914,-67.871,-32.715,-41.504
1678025573.377,-22.949,-89.355,-58.594,4.395,-77.637
1678025573.381,-44.434,-92.773,-82.520,13.672,95.703
1678025573.385,-60.059,-103.027,-55.176,-12.207,103.027
1678025573.388,-64.453,-98.145,-27.832,-20.020,-44.434
1678025573.392,-37.598,-84.961,-50.293,-24.902,-163.574
1678025573.396,-18.066,-86.426,-66.406,-6.348,67.871
1678025573.400,-24.414,-85.449,-63.477,7.324,173.828
1678025573.404,-58.105,-85.449,-72.266,-34.180,-135.254
1678025573.420,-43.457,-81.543,-62.500,-33.691,-167.480
1678025573.424,-21.973,-79.590,-54.688,-11.230,-114.746
1678025573.428,-18.555,-86.426,-67.383,-1.465,-29.785
1678025573.432,10.254,-94.238,-54.199,15.137,-16.113
1678025573.436,-5.371,-101.562,-53.223,0.000,-137.207
1678025573.440,-36.621,-83.008,-50.293,-19.043,44.434
1678025573.444,-20.508,-75.684,-44.434,-20.996,105.957
1678025573.447,-3.418,-88.867,-56.152,-20.508,-92.285
1678025573.451,0.977,-79.102,-54.688,-7.324,-32.715
1678025573.455,-18.555,-77.148,-58.594,-1.953,12.207
1678025573.459,-21.973,-78.125,-52.734,-26.855,-154.297
1678025573.463,3.418,-77.637,-39.551,-18.555,-282.715
1678025573.465,10.742,-90.820,-53.711,2.930,-33.691
1678025573.469,19.531,-93.262,-66.406,8.301,230.469
1678025573.473,-6.836,-93.262,-45.898,22.949,-76.172
1678025573.477,-38.086,-93.262,-47.852,-0.488,-290.039
1678025573.481,-20.020,-87.891,-57.129,-9.277,-181.152
1678025573.485,11.230,-90.332,-51.270,8.301,-81.543
1678025573.489,5.371,-85.938,-63.477,-1.465,-20.020
1678025573.492,-17.578,-86.426,-52.734,-12.695,-125.488
1678025573.496,-41.992,-92.285,-27.832,-16.602,-75.684
1678025573.500,-26.367,-80.078,-33.203,-3.418,66.895
1678025573.504,-6.348,-85.938,-53.711,7.324,-142.578
1678025573.508,4.883,-98.633,-62.012,-14.160,-105.469
1678025573.510,1.465,-89.355,-46.875,-15.625,-78.613
1678025573.514,-11.719,-82.520,-29.297,-28.320,-184.570
1678025573.518,3.418,-79.102,-36.133,-42.480,-213.867
1678025573.522,7.812,-82.520,-47.852,-15.625,-203.613
1678025573.526,-12.695,-95.703,-58.594,-14.648,-99.121
1678025573.530,-33.203,-80.078,-60.059,-32.227,20.020
1678025573.534,-38.086,-81.055,-50.293,-33.203,-92.773
1678025573.537,-27.832,-94.727,-49.316,-31.738,-125.977
1678025573.541,-22.949,-82.520,-38.086,-20.020,200.684
1678025573.545,-16.113,-83.008,-36.133,-13.672,203.613
1678025573.549,12.695,-83.008,-41.504,-9.766,-79.590
1678025573.553,9.766,-72.266,-42.480,-20.508,-98.633
1678025573.555,-10.742,-66.406,-50.293,-22.949,-25.391
1678025573.559,-13.184,-72.754,-56.641,-5.371,-126.953
1678025573.563,8.301,-76.660,-54.688,0.488,-152.832
1678025573.567,20.508,-78.613,-62.012,11.230,77.148
1678025573.571,-22.949,-82.520,-59.082,-13.672,76.172
1678025573.575,-47.363,-85.449,-49.805,-41.016,-128.418
1678025573.579,-11.719,-81.055,-54.688,-16.602,-176.758
1678025573.582,18.066,-82.520,-62.012,1.465,104.004
1678025573.586,10.254,-79.102,-66.895,25.391,310.547
1678025573.590,-17.090,-70.801,-47.852,6.348,-20.508
1678025573.594,-21.484,-79.590,-50.781,-6.836,-215.332
1678025573.598,-19.531,-82.031,-57.129,13.184,-92.285
1678025573.600,-11.719,-59.570,-35.156,34.180,42.969
1678025573.604,17.578,-61.035,-57.617,25.879,-11.230
1678025573.608,-9.277,-87.402,-72.754,-0.488,-82.031
1678025573.612,-49.316,-79.590,-56.152,-15.137,-164.062
1678025573.616,-18.066,-75.684,-67.383,-20.020,-189.453
1678025573.620,20.020,-93.262,-51.758,12.695,-75.684
1678025573.624,17.578,-76.172,-35.156,28.809,128.418
1678025573.627,-8.789,-48.340,-28.320,-1.465,317.871
1678025573.631,-17.578,-70.312,-26.367,-16.113,75.195
1678025573.635,-1.465,-108.398,-62.012,15.137,-193.848
1678025573.639,10.742,-91.309,-73.242,28.809,-116.699
1678025573.643,15.625,-61.523,-38.086,26.855,48.828
1678025573.645,-1.465,-69.824,-31.250,3.418,50.781
1678025573.649,-16.602,-94.238,-61.035,-13.184,-136.719
1678025573.653,-20.508,-86.426,-33.691,-0.488,-99.609
1678025573.657,4.395,-65.918,-27.344,8.301,164.062
1678025573.661,19.531,-69.824,-41.504,14.160,20.508
1678025573.665,-10.254,-83.008,-33.203,-2.441,-129.883
1678025573.669,-13.184,-80.566,-34.180,-10.254,45.898
1678025573.672,-6.836,-71.777,-31.738,-12.207,108.398
1678025573.676,-15.625,-83.496,-20.020,-18.066,-107.910
1678025573.680,11.719,-88.867,-19.531,15.625,-157.227
1678025573.684,-2.930,-79.102,-25.879,9.277,-92.285
1678025573.688,-39.062,-78.613,-30.273,-25.391,-135.254
1678025573.691,-27.832,-79.102,-32.227,-19.043,-193.359
1678025573.695,0.000,-72.266,-29.785,6.348,-128.906
1678025573.699,26.367,-70.312,-20.508,22.461,58.594
1678025573.703,23.438,-77.637,-18.066,16.113,32.227
1678025573.707,-33.203,-85.938,-21.484,-7.324,-163.086
1678025573.711,-56.641,-81.543,-32.227,-12.207,-125.488
1678025573.715,-37.109,-66.895,-48.828,3.906,181.152
1678025573.718,-6.836,-65.918,-44.922,15.137,100.098
1678025573.722,2.930,-81.055,-40.527,6.348,-56.152
1678025573.726,-26.367,-82.031,-21.484,1.465,17.578
1678025573.730,-27.832,-64.453,-12.695,-20.996,-56.152
1678025573.734,-37.109,-67.871,-35.645,-48.828,-168.945
1678025573.735,-32.227,-69.824,-45.898,-1.953,-102.051
1678025573.739,-20.508,-74.219,-43.945,17.090,38.574
1678025573.743,-42.480,-81.055,-40.039,-22.949,101.562
1678025573.747,-50.293,-81.543,-40.527,-33.691,-66.895
1678025573.751,-19.043,-83.008,-53.223,-21.484,-127.441
1678025573.755,11.230,-83.984,-58.105,9.277,133.301
1678025573.759,-11.719,-88.867,-57.617,8.301,333.984
1678025573.762,-47.363,-91.309,-70.801,-24.414,13.672
1678025573.766,-72.754,-82.520,-78.613,-35.156,-160.156
1678025573.770,-35.156,-78.613,-61.035,-14.160,-67.383
1678025573.774,13.184,-83.496,-42.480,27.832,-57.129
1678025573.778,12.207,-87.891,-47.363,27.832,-48.340
1678025573.795,-24.414,-96.680,-45.898,-12.207,-24.414
1678025573.799,-30.762,-90.820,-42.480,-14.160,-142.578
1678025573.803,-6.348,-80.078,-48.828,9.277,-188.965
1678025573.807,21.484,-83.008,-35.156,7.812,-123.047
1678025573.811,23.438,-86.426,-35.645,25.879,-5.859
1678025573.815,-27.832,-95.703,-49.316,15.137,179.688
1678025573.819,-61.523,-104.004,-41.992,-14.160,77.637
1678025573.822,-34.180,-95.703,-45.410,2.930,-112.305
1678025573.826,17.578,-89.355,-67.383,20.020,-111.328
1678025573.830,15.625,-95.215,-62.500,30.762,217.285
1678025573.834,-15.625,-101.562,-40.039,-0.977,188.965
1678025573.838,-21.484,-101.562,-50.781,-26.855,-192.383
1678025573.840,-21.973,-103.516,-68.848,1.465,-59.082
1678025573.844,-16.602,-111.328,-64.453,11.230,92.773
1678025573.848,-8.301,-109.863,-46.387,-0.488,-56.152
1678025573.852,-19.043,-103.027,-29.785,5.371,-114.746
1678025573.856,-31.250,-89.355,-33.203,2.441,-61.523
1678025573.860,-25.879,-82.031,-55.176,-18.066,-47.363
1678025573.864,-12.695,-90.820,-49.316,-17.090,-82.031
1678025573.867,6.348,-93.262,-47.363,20.020,-131.348
1678025573.871,9.277,-98.633,-62.012,33.691,111.816
1678025573.875,-30.273,-102.539,-58.105,3.906,296.387
1678025573.879,-15.625,-88.379,-65.430,-9.277,-89.844
1678025573.883,28.809,-80.566,-77.637,11.719,-244.141
1678025573.885,14.160,-107.422,-47.852,25.391,-75.195
1678025573.889,-0.488,-107.422,-25.391,23.438,-31.738
1678025573.893,-24.414,-81.543,-27.344,7.812,-166.016
1678025573.897,-40.039,-83.984,-22.461,0.977,-216.797
1678025573.901,-22.461,-93.750,-25.879,-0.977,-106.445
1678025573.905,22.461,-94.727,-39.551,14.648,98.633
1678025573.909,32.715,-97.656,-44.922,6.348,142.578
1678025573.912,-34.668,-96.680,-62.012,-19.531,9.766
1678025573.916,-50.781,-103.027,-77.637,-11.230,83.496
1678025573.920,-7.812,-97.656,-68.848,-2.930,-3.418
1678025573.924,5.371,-97.168,-57.617,6.836,-117.676
1678025573.928,13.672,-100.098,-48.828,10.742,103.027
1678025573.930,-23.438,-103.027,-45.410,-12.695,121.582
1678025573.934,-54.199,-104.980,-47.363,-16.113,-120.605
1678025573.938,-20.020,-97.656,-51.270,18.066,-170.898
1678025573.942,18.555,-98.633,-34.668,34.668,-15.137
1678025573.946,33.203,-101.074,-29.785,14.160,175.293
1678025573.950,8.301,-97.168,-31.738,-3.906,17.090
1678025573.954,-9.277,-86.426,-26.855,5.371,-104.980
1678025573.957,0.488,-84.961,-26.367,10.254,111.816
1678025573.961,9.766,-91.309,-42.969,25.879,234.863
1678025573.965,17.090,-99.609,-41.016,35.645,16.113
1678025573.969,0.000,-94.727,-23.926,12.207,-96.191
1678025573.973,-19.043,-85.938,-17.578,-1.465,-111.328
1678025573.976,-3.418,-79.590,-33.203,-13.184,-194.336
1678025573.980,24.902,-81.055,-46.387,0.488,-103.516
1678025573.984,27.344,-94.238,-21.973,37.598,0.977
1678025573.988,-15.625,-97.656,-26.855,19.531,-52.246
1678025573.992,-22.461,-84.473,-46.875,-8.789,-131.836
1678025573.996,-24.902,-84.473,-30.762,-8.789,-130.371
1678025574.000,-17.090,-93.262,-16.602,18.555,-54.199
1678025574.003,12.695,-89.355,-37.598,20.508,164.062
1678025574.007,14.160,-82.031,-48.828,2.441,141.602
1678025574.011,-25.391,-86.426,-20.996,-12.695,-117.188
1678025574.015,-81.055,-93.262,-18.555,-25.879,-142.090
1678025574.019,-39.551,-89.844,-33.691,-20.996,-77.637
1678025574.020,-0.488,-84.473,-27.344,-36.133,-19.043
1678025574.024,-7.812,-79.102,-39.062,-35.645,-50.293
1678025574.028,-4.395,-78.125,-20.996,-17.090,-41.504
1678025574.032,-11.719,-86.914,-2.930,-46.387,42.480
1678025574.036,-24.414,-90.332,-14.648,-55.664,-87.402
1678025574.040,-17.578,-83.008,-21.484,-27.832,-48.828
1678025574.044,-17.578,-82.520,-8.789,-10.742,194.824
1678025574.047,-18.555,-90.820,-4.395,-25.879,249.512
1678025574.051,-9.766,-90.332,-22.461,-46.875,-44.434
1678025574.055,-7.324,-91.309,-23.926,-49.805,-148.926
1678025574.059,-23.926,-95.215,-7.324,-39.062,-93.750
1678025574.063,-29.297,-93.262,7.324,-13.672,-80.078
1678025574.065,-26.855,-92.773,-1.953,-39.551,-173.828
1678025574.069,-46.387,-94.727,-0.977,-72.266,-256.836
1678025574.073,-26.367,-86.914,-15.625,-89.355,-203.613
1678025574.077,41.504,-80.566,-41.992,-65.430,-124.023
1678025574.081,41.504,-81.055,-14.648,-44.434,-41.016
1678025574.085,-46.875,-88.867,11.230,-74.219,-41.992
1678025574.089,-64.941,-92.773,16.602,-83.496,44.434
1678025574.092,-23.438,-96.680,20.996,-72.266,52.246
1678025574.096,-9.766,-97.656,7.324,-61.523,-37.109
1678025574.100,-12.207,-98.145,1.953,-51.758,19.043
1678025574.104,-30.762,-100.098,-6.836,-51.758,46.387
1678025574.108,-33.691,-105.957,-10.254,-80.078,-104.980
1678025574.110,-4.883,-105.957,-16.602,-103.027,-132.812
1678025574.114,17.578,-101.074,-18.555,-86.914,40.039
1678025574.118,17.090,-105.469,2.441,-78.125,168.457
1678025574.122,-12.207,-103.027,-2.441,-97.656,-23.438
1678025574.126,-14.160,-86.426,-20.996,-114.746,-247.559
1678025574.130,-6.836,-78.613,-16.602,-117.676,-81.055
1678025574.134,-5.859,-84.473,-15.625,-106.934,92.285
1678025574.137,-10.742,-91.797,-23.926,-116.699,-34.180
1678025574.141,-38.574,-96.191,-18.066,-124.512,-87.402
1678025574.145,-62.012,-94.727,-14.648,-135.254,-4.395
1678025574.149,-55.664,-103.027,-20.508,-123.535,47.363
1678025574.153,-1.953,-100.586,-4.395,-99.121,-161.621
1678025574.170,20.020,-89.355,-5.371,-108.398,-120.117
1678025574.174,1.953,-89.844,-27.344,-119.629,-89.844
1678025574.178,-16.602,-102.539,-35.156,-128.906,-193.848
1678025574.182,-33.691,-99.121,-28.809,-135.742,-287.598
1678025574.186,-1.953,-82.520,-12.695,-114.258,-208.008
1678025574.190,18.066,-80.566,-7.324,-99.121,36.621
1678025574.194,-22.949,-86.426,-19.531,-118.164,94.727
1678025574.197,-52.246,-91.309,-21.484,-140.625,-128.906
1678025574.201,-66.895,-98.633,-21.484,-151.367,-254.883
1678025574.205,-62.988,-128.418,-31.738,-130.859,-8.301
1678025574.209,-18.555,-115.723,-40.039,-116.211,81.055
1678025574.213,-10.254,-82.520,-39.062,-112.305,-33.691
1678025574.215,-46.387,-91.309,-41.992,-118.164,-64.941
1678025574.219,-51.758,-96.680,-55.664,-123.047,69.336
1678025574.223,-26.367,-110.352,-56.152,-104.492,-31.250
1678025574.227,0.488,-117.676,-57.129,-71.289,-127.930
1678025574.231,-19.043,-102.539,-49.805,-49.316,53.223
1678025574.235,-59.570,-105.957,-61.523,-51.758,123.535
1678025574.239,-50.293,-117.676,-77.148,-79.102,-30.762
1678025574.242,-10.742,-111.328,-80.566,-88.379,-150.391
1678025574.246,0.977,-93.262,-62.012,-64.941,-7.324
1678025574.250,-15.137,-93.750,-40.527,-83.008,107.422
1678025574.254,-41.992,-105.957,-50.293,-115.234,-87.402
1678025574.258,-49.805,-108.887,-60.547,-107.422,-227.051
1678025574.260,-42.480,-101.074,-63.965,-78.125,25.879
1678025574.264,-53.223,-91.309,-58.594,-49.316,308.105
1678025574.268,-50.781,-94.727,-45.898,-40.527,42.969
1678025574.272,-67.871,-99.121,-46.387,-78.613,-112.305
1678025574.276,-83.496,-103.027,-62.500,-95.703,-129.883
1678025574.280,-58.594,-103.027,-76.172,-69.824,-153.809
1678025574.284,-24.414,-109.863,-78.613,-41.504,-98.633
1678025574.287,-25.391,-111.816,-89.355,-56.152,-5.371
1678025574.291,-51.270,-84.473,-73.242,-78.125,173.828
1678025574.295,-56.152,-81.055,-50.293,-90.820,23.438
1678025574.299,-52.734,-94.727,-64.941,-84.473,-288.086
1678025574.303,-49.316,-99.609,-70.801,-72.754,-145.020
1678025574.305,-19.043,-96.191,-75.195,-66.895,13.672
1678025574.309,-49.805,-90.820,-72.266,-57.617,-81.543
1678025574.313,-74.707,-89.844,-59.570,-73.730,-193.359
1678025574.317,-44.922,-83.008,-72.754,-55.664,3.418
1678025574.321,-25.391,-77.148,-87.402,-51.270,229.004
1678025574.325,4.883,-68.359,-70.801,-62.988,190.918
1678025574.329,-32.715,-79.102,-51.758,-75.684,43.457
1678025574.332,-84.961,-92.285,-58.594,-101.074,94.238
1678025574.336,-72.266,-86.426,-76.660,-101.562,140.625
1678025574.340,-61.523,-84.961,-77.148,-77.637,-112.305
1678025574.344,-42.480,-89.355,-75.195,-72.266,-89.355
1678025574.348,-39.062,-83.984,-70.312,-79.102,-28.320
1678025574.350,-66.406,-78.125,-72.754,-92.773,-131.836
1678025574.354,-74.219,-79.102,-68.359,-98.145,-209.473
1678025574.358,-59.082,-68.359,-59.082,-84.961,-132.812
1678025574.362,-48.340,-66.406,-76.660,-79.590,-28.809
1678025574.366,-34.180,-68.848,-96.680,-100.098,-35.645
1678025574.370,-56.641,-80.566,-86.426,-113.281,-128.906
1678025574.374,-78.613,-75.195,-76.172,-123.047,-194.824
1678025574.377,-73.242,-57.129,-66.406,-112.793,142.090
1678025574.381,-75.684,-53.711,-74.219,-91.797,234.863
1678025574.385,-84.473,-59.082,-81.055,-84.473,-80.078
1678025574.389,-83.496,-62.500,-73.242,-121.094,-104.004
1678025574.393,-92.773,-62.012,-76.172,-144.043,-145.020
1678025574.395,-104.980,-70.312,-67.383,-142.578,-56.152
1678025574.399,-93.750,-75.684,-57.129,-132.324,-16.602
1678025574.403,-106.445,-82.520,-55.176,-109.375,65.430
1678025574.407,-142.090,-83.008,-66.895,-141.602,96.680
1678025574.411,-166.504,-78.125,-71.289,-184.570,-109.863
1678025574.415,-134.766,-83.496,-54.688,-163.574,-114.258
1678025574.419,-104.492,-90.820,-59.082,-147.949,125.000
1678025574.422,-116.211,-83.008,-69.824,-142.578,258.301
1678025574.426,-165.039,-72.266,-56.641,-161.621,-83.008
1678025574.430,-208.496,-75.195,-49.805,-190.430,-290.039
1678025574.434,-184.082,-84.473,-49.316,-164.551,-156.738
1678025574.438,-140.137,-85.449,-48.340,-161.133,-47.852
1678025574.440,-134.766,-78.125,-69.824,-165.039,-92.285
1678025574.444,-154.297,-80.078,-85.938,-155.273,-108.887
1678025574.448,-153.320,-83.984,-61.523,-172.363,-149.414
1678025574.452,-124.023,-87.891,-37.598,-150.879,-220.215
1678025574.456,-121.582,-90.332,-35.156,-115.723,-200.195
1678025574.460,-115.723,-83.008,-54.199,-128.418,1.953
1678025574.464,-110.352,-75.684,-63.965,-136.230,262.695
1678025574.467,-136.719,-74.707,-62.988,-151.367,63.477
1678025574.471,-134.766,-78.613,-60.547,-146.484,-235.840
1678025574.475,-100.098,-84.961,-61.523,-110.352,-130.859
1678025574.479,-80.078,-86.914,-69.336,-95.215,31.738
1678025574.483,-94.238,-85.449,-70.312,-102.051,0.000
1678025574.485,-98.145,-79.590,-79.102,-113.770,-77.148
1678025574.489,-87.402,-81.543,-88.379,-109.375,-7.812
1678025574.493,-48.828,-74.707,-90.820,-59.082,106.445
1678025574.497,-7.324,-66.895,-87.402,-45.898,-25.879
1678025574.501,-26.855,-73.242,-81.055,-73.730,-115.234
1678025574.505,-24.902,-72.266,-87.891,-76.172,28.809
1678025574.509,-33.691,-79.102,-94.238,-70.801,71.777
1678025574.512,-33.203,-84.961,-84.473,-48.828,-114.258
1678025574.516,-7.812,-82.031,-81.543,-20.996,-217.773
1678025574.520,-35.645,-87.402,-106.445,-24.414,-37.598
1678025574.524,-55.176,-83.496,-103.516,-42.480,20.996
1678025574.528,-52.734,-87.402,-95.215,-43.945,-203.613
1678025574.545,-18.066,-104.004,-91.797,-22.461,-137.695
1678025574.549,27.344,-99.121,-83.984,-0.488,76.660
1678025574.553,25.879,-97.656,-94.238,-3.906,28.809
1678025574.557,-38.574,-104.004,-78.125,-27.344,-110.352
1678025574.561,-50.781,-104.492,-62.012,-32.715,-166.504
1678025574.565,-16.113,-103.027,-60.547,-8.301,-71.289
1678025574.569,8.301,-101.562,-77.637,18.066,71.777
1678025574.572,21.484,-100.586,-96.191,0.000,-36.621
1678025574.576,10.742,-92.773,-87.402,-20.020,-137.695
1678025574.580,-0.977,-93.262,-85.938,-19.043,-50.293
1678025574.584,18.066,-90.820,-90.820,-19.043,-74.219
1678025574.588,45.898,-92.773,-76.660,11.230,-147.461
1678025574.591,30.762,-94.727,-59.082,30.762,100.098
1678025574.595,18.066,-84.961,-63.477,13.184,157.227
1678025574.599,3.418,-82.520,-65.918,9.766,-100.098
1678025574.603,3.906,-84.961,-56.152,14.648,-134.277
1678025574.607,57.617,-92.773,-64.453,19.531,27.344
1678025574.611,72.266,-93.750,-70.801,23.438,229.004
1678025574.615,23.438,-86.914,-67.383,9.766,23.926
1678025574.618,11.230,-90.820,-62.988,3.906,-206.543
1678025574.622,16.602,-92.773,-55.664,-1.953,-34.180
1678025574.626,34.180,-82.031,-62.988,21.973,176.270
1678025574.630,44.922,-89.844,-78.613,25.879,-8.301
1678025574.634,36.133,-95.703,-71.777,28.320,-144.531
1678025574.635,26.367,-76.172,-45.898,31.738,-221.680
1678025574.639,37.598,-59.570,-43.945,8.301,-235.352
1678025574.643,58.594,-64.453,-54.688,-1.465,-142.578
1678025574.647,51.758,-75.684,-49.805,27.832,-48.340
1678025574.651,42.480,-77.148,-51.758,11.230,-35.645
1678025574.655,9.277,-75.195,-64.941,0.977,-77.148
1678025574.659,-9.766,-69.824,-43.945,10.742,-64.453
1678025574.662,21.973,-64.941,-44.434,19.531,-28.320
1678025574.666,57.617,-73.242,-57.129,49.316,225.098
1678025574.670,34.180,-76.660,-52.246,26.367,266.602
1678025574.674,0.977,-69.336,-55.664,2.441,-158.691
1678025574.678,5.859,-72.266,-48.340,1.953,-153.809
1678025574.680,21.973,-69.336,-45.410,10.742,11.719
1678025574.684,35.645,-77.148,-63.477,33.691,-30.762
1678025574.688,20.996,-78.125,-55.176,20.508,-119.141
1678025574.692,-6.348,-74.707,-34.180,2.930,-41.504
1678025574.696,4.395,-73.242,-42.969,12.207,53.223
1678025574.700,29.297,-69.824,-43.945,17.090,-53.223
1678025574.704,43.457,-67.383,-51.758,23.926,12.207
1678025574.707,44.922,-73.242,-58.594,31.738,252.441
1678025574.711,1.465,-80.566,-50.781,3.906,316.406
1678025574.715,-21.484,-70.801,-48.828,-7.324,-67.871
1678025574.719,3.906,-71.777,-51.758,26.367,-157.715
1678025574.723,30.273,-69.824,-54.688,25.391,91.797
1678025574.725,10.742,-72.266,-52.734,11.230,70.801
1678025574.729,-18.066,-75.684,-49.316,2.441,-113.281
1678025574.733,-11.230,-64.453,-46.387,-16.113,-124.023
1678025574.737,13.672,-63.477,-48.828,4.883,-90.332
1678025574.741,26.367,-69.824,-43.945,33.691,-71.777
1678025574.745,25.391,-68.359,-44.922,24.414,-41.016
1678025574.749,35.156,-65.430,-58.105,-11.719,-69.824
1678025574.752,15.137,-59.082,-54.688,-15.137,71.777
1678025574.756,-28.809,-57.617,-35.645,-10.254,-37.598
1678025574.760,-9.277,-65.918,-38.574,1.465,-187.988
1678025574.764,15.625,-65.430,-43.945,25.391,37.109
1678025574.768,-22.461,-60.059,-41.992,18.555,7.324
1678025574.770,-46.875,-66.406,-38.574,-2.930,-84.473
1678025574.774,-19.043,-74.707,-29.297,-15.137,-108.887
1678025574.778,15.137,-63.965,-38.086,13.184,-4.395
1678025574.782,31.738,-58.105,-60.059,30.273,211.914
1678025574.786,20.508,-53.223,-41.016,18.066,-28.809
1678025574.790,-12.695,-46.875,-19.531,-11.719,-194.824
1678025574.794,-24.414,-46.387,-23.926,-16.113,87.891
1678025574.797,14.648,-44.922,-39.551,19.531,220.703
1678025574.801,36.621,-49.805,-51.758,21.484,4.883
1678025574.805,-24.414,-63.965,-39.062,4.395,-115.723
1678025574.809,-69.336,-77.148,-33.691,-11.230,-156.250
1678025574.813,-27.832,-64.453,-35.156,-18.555,-188.965
1678025574.845,10.742,-53.223,-32.227,-5.859,-170.410
1678025574.849,0.488,-61.035,-26.855,17.578,-56.152
1678025574.853,-16.113,-53.711,-37.109,-12.207,-12.695
1678025574.857,-30.762,-52.246,-48.340,-38.574,-77.637
1678025574.861,-22.949,-54.199,-36.133,0.000,-191.895
1678025574.865,23.438,-50.781,-35.645,19.531,-115.234
1678025574.869,33.203,-48.340,-46.875,32.715,301.270
1678025574.872,-10.742,-50.781,-38.574,11.719,284.668
1678025574.876,-41.016,-50.293,-38.086,-31.250,-140.137
1678025574.880,-30.762,-37.598,-37.109,-24.414,-193.359
1678025574.884,-7.324,-41.504,-27.832,-9.766,-87.402
1678025574.888,23.438,-39.551,-46.387,16.113,-77.637
1678025574.875,15.137,-25.879,-41.504,19.043,-86.426
1678025574.879,-27.832,-41.992,-31.738,-15.137,-9.766
1678025574.883,-53.223,-67.871,-20.508,-21.973,65.918
1678025574.887,-22.949,-63.477,-19.531,-10.254,-127.441
1678025574.891,6.348,-50.781,-30.762,-5.859,-147.461
1678025574.895,-14.648,-64.453,-22.461,-9.277,67.383
1678025574.899,-27.344,-60.059,-25.879,-14.160,68.359
1678025574.902,-39.062,-39.062,-13.184,-26.367,-122.070
1678025574.906,-14.648,-29.297,-16.113,-29.785,-210.938
1678025574.910,26.855,-36.621,-20.508,1.953,45.898
1678025574.914,20.508,-50.781,-19.531,26.855,271.973
1678025574.918,-32.227,-32.715,-9.766,-2.441,-4.883
1678025574.920,-34.668,-35.156,-2.441,-16.113,-205.566
1678025574.924,-7.324,-43.945,-6.836,-14.160,-14.648
1678025574.928,-13.672,-31.738,-18.555,-16.602,110.840
1678025574.932,-11.230,-41.016,-31.738,-10.742,-99.609
1678025574.936,-25.391,-45.898,-28.809,-25.391,-93.262
1678025574.940,-32.227,-39.551,-18.555,-11.230,39.062
1678025574.944,-15.137,-45.898,-15.625,-8.789,10.254
1678025574.947,0.977,-42.480,-23.438,-18.555,-74.219
1678025574.951,7.324,-42.969,-18.555,3.906,-32.227
1678025574.955,-15.137,-48.340,-15.137,12.695,218.262
1678025574.959,-15.625,-51.758,-11.230,-3.418,50.293
1678025574.963,-5.371,-51.270,-5.859,-11.230,-223.633
1678025574.965,8.301,-38.574,-2.930,-1.465,18.555
1678025574.969,32.227,-29.297,-13.672,9.277,174.316
1678025574.973,-2.930,-31.250,-23.438,3.418,-59.082
1678025574.977,-26.855,-33.691,-0.977,-9.766,-133.789
1678025574.981,-11.719,-31.250,-1.953,-24.414,-56.641
1678025574.985,18.066,-22.461,-19.531,-11.719,-9.277
1678025574.989,41.016,-27.344,-16.113,22.949,53.711
1678025574.992,14.160,-37.109,-8.301,10.742,-6.348
1678025574.996,-7.812,-34.180,-13.184,-14.160,25.391
1678025575.000,-20.996,-44.434,-14.648,-10.742,176.270
1678025575.004,-17.090,-59.570,-18.555,-2.441,-65.918
1678025575.008,13.672,-38.574,-28.320,-1.953,-178.711
1678025575.010,35.156,-39.062,-11.230,9.277,-73.242
1678025575.014,6.348,-49.316,-9.766,15.625,-201.172
1678025575.018,-20.020,-28.809,-26.367,10.254,-235.840
1678025575.022,6.836,-25.879,-23.438,33.691,-91.797
1678025575.026,-0.488,-27.832,-15.137,16.602,19.531
1678025575.030,-25.391,-29.297,-27.832,-23.926,31.738
1678025575.034,-47.363,-34.180,-36.621,-32.715,-55.176
1678025575.037,-41.992,-33.203,-26.367,-53.711,-144.043
1678025575.041,-23.438,-30.273,-24.414,-40.527,49.316
1678025575.045,3.418,-28.320,-40.039,-18.555,114.746
1678025575.049,8.789,-34.668,-27.344,-22.461,-71.289
1678025575.053,-37.109,-41.992,-21.484,-21.973,12.695
1678025575.070,-27.832,-35.645,-41.504,-24.902,68.359
1678025575.074,13.672,-40.527,-26.367,0.488,-123.047
1678025575.078,53.711,-48.340,-4.883,45.898,-170.410
1678025575.082,53.711,-21.484,-25.391,29.785,6.348
1678025575.086,44.922,11.230,4.883,29.785,43.945
1678025575.090,-14.160,-2.441,-1.953,-13.184,-121.094
1678025575.094,-64.941,-33.691,-54.199,-70.312,-116.211
1678025575.097,-33.691,-38.574,-41.016,-64.941,104.492
1678025575.101,-21.973,-20.996,-28.320,-41.504,245.117
1678025575.105,-31.738,-10.254,-22.461,-25.879,-64.453
1678025575.109,-38.086,-20.508,-29.297,-50.781,-235.352
1678025575.113,-51.758,-48.340,-32.227,-67.383,-178.711
1678025575.100,-36.133,-49.805,-14.648,-27.344,-138.184
1678025575.104,-7.812,-13.184,8.301,11.230,-82.520
1678025575.108,-37.109,-8.301,-4.883,-41.016,-79.590
1678025575.112,-54.688,-19.531,-18.066,-55.664,-116.211
1678025575.116,-27.832,-17.090,-16.602,-17.090,-125.488
1678025575.120,4.395,-15.137,-17.090,18.555,-95.215
1678025575.124,19.531,-7.812,-8.789,54.688,38.086
1678025575.127,3.418,6.836,-0.488,17.578,38.086
1678025575.131,-8.301,-2.930,-3.906,-9.766,-132.324
1678025575.135,-13.184,-4.883,-16.602,3.906,-193.359
1678025575.139,-39.551,12.207,-13.184,-16.113,-71.289
1678025575.143,-20.020,0.977,-8.301,-38.574,202.637
1678025575.160,-12.695,0.488,-6.348,-37.109,193.359
1678025575.164,-42.969,20.508,-1.465,-60.547,-59.082
1678025575.168,-50.781,9.766,-19.043,-90.820,-17.578
1678025575.172,-44.922,2.930,-41.992,-92.285,170.898
1678025575.176,-40.527,-10.742,-26.855,-60.547,82.520
1678025575.180,-65.430,-17.090,0.977,-62.500,-47.363
1678025575.184,-85.449,6.348,-6.836,-84.961,116.699
1678025575.187,-77.637,14.160,-6.348,-68.848,143.555
1678025575.191,-77.637,-5.371,-8.789,-46.875,-153.320
1678025575.195,-41.504,-15.625,-20.020,-27.344,-86.426
1678025575.199,-10.742,-8.301,-19.043,-10.742,-15.137
1678025575.203,-49.805,4.883,-23.438,-36.621,-116.211
1678025575.191,-59.570,7.324,-15.625,-61.035,-190.430
1678025575.195,-39.551,5.859,-13.184,-48.340,-204.590
1678025575.199,-34.180,-3.418,-28.809,-46.875,-97.168
1678025575.203,-15.625,-4.395,-31.250,-24.902,-81.055
1678025575.207,-56.152,9.277,-25.879,-37.109,-163.086
1678025575.211,-80.078,13.184,-27.344,-59.082,-182.617
1678025575.215,-36.133,2.930,-38.574,-30.273,7.812
1678025575.218,-18.066,-4.883,-36.621,-1.953,48.828
1678025575.222,-13.184,1.953,-36.621,4.883,-90.820
1678025575.226,-10.742,-3.906,-45.410,1.953,-94.727
1678025575.230,1.465,-9.766,-41.992,4.883,69.824
1678025575.234,14.160,-0.977,-29.297,11.719,10.254
1678025575.235,15.625,-17.090,-35.156,13.184,-74.707
1678025575.239,15.625,6.348,-55.664,26.855,145.020
1678025575.243,-1.465,42.480,-41.504,17.578,83.008
1678025575.247,12.695,21.973,-5.859,14.648,-171.875
1678025575.251,37.598,10.254,5.859,38.574,-260.254
1678025575.255,18.555,0.977,-32.715,25.879,24.414
1678025575.259,-3.418,-2.441,-64.941,36.133,376.953
1678025575.262,-23.926,7.812,-62.012,7.324,98.633
1678025575.266,-22.949,15.137,-61.035,-18.066,-220.215
1678025575.270,-24.902,2.930,-47.852,23.926,-89.844
1678025575.274,10.254,-3.906,-34.180,31.250,23.926
1678025575.278,47.363,-2.930,-42.969,18.555,-95.215
1678025575.295,19.531,-15.625,-54.688,8.789,-183.105
1678025575.299,-16.602,-17.578,-59.082,-13.672,-216.309
1678025575.303,-4.883,5.859,-49.316,-4.395,-158.691
1678025575.307,12.207,14.648,-47.363,23.926,-90.332
1678025575.311,14.648,4.883,-49.805,36.621,-61.035
1678025575.315,-13.184,7.324,-34.180,41.016,-2.930
1678025575.319,-62.988,21.484,-39.062,5.859,-30.762
1678025575.322,-63.477,20.508,-46.387,-19.043,-165.527
1678025575.326,-17.090,15.625,-41.016,27.832,-121.094
1678025575.330,6.348,10.742,-45.898,54.199,261.230
1678025575.334,-20.020,8.789,-48.828,26.855,216.797
1678025575.338,-25.391,8.301,-47.363,10.742,-173.828
1678025575.340,-14.160,6.836,-45.410,32.715,-25.879
1678025575.344,6.348,7.812,-39.551,27.832,90.820
1678025575.348,4.395,6.836,-47.363,32.227,-34.180
1678025575.352,16.113,3.906,-50.781,62.012,-80.078
1678025575.356,40.039,3.418,-38.086,67.383,-140.625
1678025575.360,17.090,15.625,-41.992,42.969,-90.820
1678025575.364,23.438,6.348,-64.941,43.457,-55.664
1678025575.367,47.363,4.883,-58.105,73.730,-94.238
1678025575.371,22.461,28.320,-37.598,62.012,148.926
1678025575.375,-6.836,45.898,-15.625,41.992,195.801
1678025575.379,6.836,46.387,-1.465,37.109,-116.699
1678025575.383,7.324,33.203,-14.648,41.016,-79.590
1678025575.385,-3.906,36.621,-31.738,40.039,73.730
1678025575.389,-1.953,27.344,-35.156,39.551,16.113
1678025575.393,-18.555,18.066,-26.855,23.926,-161.133
1678025575.397,-30.762,18.555,-28.809,15.137,-156.250
1678025575.401,-34.668,17.578,-20.508,43.945,-109.863
1678025575.405,-5.859,20.508,-19.531,47.852,14.648
1678025575.409,18.066,20.508,-29.785,44.434,106.445
1678025575.412,-16.602,31.738,-15.137,30.762,-9.277
1678025575.416,-47.852,24.414,-15.137,24.902,80.566
1678025575.420,-29.785,17.090,-41.992,37.109,17.578
1678025575.424,-27.832,34.180,-20.020,34.668,-95.703
1678025575.428,-38.086,40.039,-4.395,16.602,72.754
1678025575.431,-49.805,32.715,-11.230,-2.930,69.824
1678025575.435,-56.152,24.414,-2.930,-12.207,-68.359
1678025575.439,-31.738,26.367,-8.789,10.254,-165.527
1678025575.443,-4.395,48.828,0.977,39.062,22.461
1678025575.447,-36.621,50.293,13.184,21.484,274.902
1678025575.451,-60.547,41.016,-23.438,-12.207,60.059
1678025575.455,-53.223,42.969,-20.996,-13.184,-105.957
1678025575.458,-55.664,26.855,17.090,10.742,54.199
1678025575.462,-48.340,22.461,11.230,0.488,118.652
1678025575.466,-31.738,36.621,0.000,-16.602,-100.586
1678025575.470,-62.500,54.199,-34.668,-0.488,-139.160
1678025575.474,-59.570,53.711,-21.484,1.953,-168.457
1678025575.475,-42.969,46.387,30.762,0.977,-178.711
1678025575.479,-29.297,43.457,39.551,34.180,-131.836
1678025575.483,0.977,51.270,12.695,52.246,-72.266
1678025575.487,-21.484,53.711,-2.930,20.996,-22.949
1678025575.491,-73.242,41.016,3.906,-12.695,-52.246
1678025575.495,-59.082,56.641,15.137,-5.859,-157.227
1678025575.499,-41.504,63.965,29.297,1.953,-131.348
1678025575.502,-28.809,52.734,20.020,39.062,214.355
1678025575.506,-29.297,55.176,1.465,43.945,188.477
1678025575.510,-65.430,59.570,-3.418,22.949,-206.055
1678025575.514,-85.938,61.035,14.160,9.766,-197.754
1678025575.518,-54.688,64.453,28.809,-1.465,-139.160
1678025575.520,-29.785,68.359,16.113,26.855,-34.180
1678025575.524,-73.730,66.406,9.277,17.578,-58.594
1678025575.528,-96.680,62.012,17.578,1.465,-76.172
1678025575.532,-69.336,66.406,15.137,15.137,35.645
1678025575.536,-66.895,67.383,5.371,17.578,-63.477
1678025575.540,-61.035,62.988,3.906,2.930,-3.418
1678025575.544,-57.129,67.383,-8.301,0.977,223.145
1678025575.547,-93.262,73.242,-22.949,6.836,291.992
1678025575.551,-90.332,72.266,-17.090,13.672,-80.566
1678025575.555,-80.566,67.871,-6.348,-1.465,-220.215
1678025575.559,-92.285,64.941,-8.301,-21.484,-37.598
1678025575.563,-92.773,60.059,-11.719,-14.648,8.789
1678025575.567,-96.191,66.406,3.906,-33.203,-89.355
1678025575.571,-96.191,80.566,-0.488,-12.695,-162.109
1678025575.575,-68.359,83.984,-14.648,5.859,-140.137
1678025575.579,-44.922,73.730,1.465,-1.953,-82.031
1678025575.583,-62.012,49.805,3.906,-18.066,-83.008
1678025575.587,-104.980,59.570,-10.742,-26.367,-70.312
1678025575.591,-121.582,84.961,-14.160,-55.176,74.707
1678025575.594,-100.098,86.426,-19.043,-64.941,-39.551
1678025575.598,-62.500,85.938,-22.461,-20.508,-99.121
1678025575.602,-74.707,80.078,-21.484,-31.250,80.566
1678025575.606,-121.094,68.848,-13.672,-33.691,172.363
1678025575.610,-135.742,58.105,-11.230,-13.184,-4.883
1678025575.610,-141.113,54.688,-18.066,-30.273,-190.918
1678025575.614,-101.562,62.012,-30.762,-50.781,-83.984
1678025575.618,-70.312,71.777,-24.902,-42.969,6.836
1678025575.622,-104.980,73.730,-20.508,-62.500,-139.160
1678025575.626,-119.141,73.730,-28.809,-86.426,-249.023
1678025575.630,-121.094,72.266,-12.695,-66.406,20.020
1678025575.634,-127.441,77.637,-16.602,-51.270,294.434
1678025575.637,-112.305,72.266,-33.691,-37.109,61.035
1678025575.641,-125.000,57.617,-24.414,-60.059,-166.504
1678025575.645,-169.922,68.848,-27.344,-93.262,-157.715
1678025575.649,-162.598,78.613,-34.668,-75.684,-192.871
1678025575.653,-128.906,75.195,-32.227,-86.426,-180.176
1678025575.670,-95.215,71.777,-36.621,-89.844,-109.375
1678025575.674,-122.070,69.336,-39.551,-83.008,18.555
1678025575.678,-152.832,65.918,-37.598,-99.121,-34.668
1678025575.682,-161.621,62.500,-37.109,-108.398,-207.520
1678025575.686,-174.805,69.336,-38.574,-93.262,-148.438
1678025575.690,-111.328,73.730,-43.457,-76.172,33.691
1678025575.694,-115.234,78.125,-47.363,-114.746,40.527
1678025575.697,-186.523,70.801,-45.898,-148.438,-123.535
1678025575.701,-173.340,54.688,-43.457,-137.695,-211.426
1678025575.705,-136.719,48.340,-48.340,-114.258,28.320
1678025575.709,-130.859,56.152,-64.941,-86.914,104.980
1678025575.713,-133.301,65.430,-69.336,-105.957,-50.293
1678025575.715,-152.344,73.730,-64.453,-151.367,24.414
1678025575.719,-132.324,69.336,-47.363,-141.602,203.613
1678025575.723,-135.742,62.012,-39.551,-135.742,-37.598
1678025575.727,-101.562,69.336,-53.711,-118.652,-157.715
1678025575.731,-101.074,68.848,-59.570,-100.098,73.730
1678025575.735,-158.203,75.195,-51.758,-139.160,105.957
1678025575.739,-156.250,69.336,-60.059,-166.992,-43.945
1678025575.742,-129.883,53.711,-62.500,-162.109,-131.836
1678025575.746,-112.793,49.805,-50.781,-150.391,48.828
1678025575.750,-113.281,51.758,-66.895,-121.094,243.164
1678025575.754,-145.996,58.594,-83.008,-147.461,-52.734
1678025575.758,-172.852,49.805,-67.383,-163.574,-195.801
1678025575.760,-143.555,43.945,-56.641,-127.930,-108.398
1678025575.764,-115.234,62.012,-62.988,-129.395,-114.746
1678025575.768,-128.418,67.383,-73.730,-171.875,-112.305
1678025575.772,-162.109,57.129,-51.270,-178.711,-95.703
1678025575.776,-168.945,58.105,-36.621,-160.645,-62.500
1678025575.780,-171.875,59.570,-52.734,-174.805,-96.191
1678025575.784,-159.180,45.898,-63.477,-173.340,-69.336
1678025575.787,-127.441,39.551,-76.172,-151.367,17.578
1678025575.791,-148.926,22.949,-92.285,-175.293,190.918
1678025575.795,-169.434,29.785,-87.402,-183.594,59.082
1678025575.799,-145.996,64.453,-70.312,-164.551,-190.430
1678025575.803,-136.719,73.730,-61.035,-187.988,-56.152
1678025575.805,-126.465,63.965,-56.641,-188.477,69.336
1678025575.809,-131.348,55.176,-55.664,-170.410,28.809
1678025575.813,-178.223,56.641,-57.617,-175.293,-134.277
1678025575.817,-175.293,59.082,-55.664,-169.922,-77.148
1678025575.821,-147.461,65.430,-64.453,-165.039,110.352
1678025575.825,-122.070,67.871,-77.148,-169.922,59.082
1678025575.829,-118.164,61.523,-71.777,-163.086,30.762
1678025575.832,-159.180,63.965,-60.059,-162.598,77.637
1678025575.836,-166.504,70.312,-63.965,-154.785,123.047
1678025575.840,-128.906,70.312,-75.195,-150.879,-89.355
1678025575.844,-108.398,60.547,-64.941,-156.738,-156.738
1678025575.848,-126.953,54.688,-59.082,-166.992,-78.125
1678025575.850,-151.855,65.430,-71.777,-181.152,-165.039
1678025575.854,-150.879,66.406,-70.312,-182.129,-189.941
1678025575.858,-124.512,60.547,-66.406,-166.992,-156.250
1678025575.862,-98.145,64.941,-72.266,-156.250,-108.398
1678025575.866,-102.539,71.777,-68.359,-134.766,-38.574
1678025575.870,-127.930,71.289,-67.871,-135.254,-56.152
1678025575.874,-150.391,69.336,-62.012,-153.809,-117.188
1678025575.877,-150.391,66.406,-55.664,-152.832,157.227
1678025575.881,-97.656,67.383,-66.895,-166.504,188.965
1678025575.885,-83.984,69.336,-70.312,-166.504,-132.812
1678025575.889,-132.812,62.500,-62.500,-157.227,-96.191
1678025575.893,-145.020,67.383,-58.594,-150.879,0.977
1678025575.896,-115.234,63.477,-57.617,-133.301,-34.180
1678025575.900,-112.305,57.129,-61.035,-141.113,-64.941
1678025575.904,-128.418,62.012,-64.453,-159.180,63.965
1678025575.908,-129.883,63.477,-54.199,-173.828,120.605
1678025575.912,-143.555,59.570,-62.500,-200.195,-119.141
1678025575.916,-146.484,47.852,-75.195,-183.105,-185.547
1678025575.920,-116.699,44.922,-69.824,-162.598,94.727
1678025575.923,-114.258,56.152,-71.777,-161.133,320.312
1678025575.927,-122.559,71.289,-78.125,-196.289,-3.906
1678025575.931,-145.996,68.848,-81.055,-202.148,-224.609
1678025575.935,-162.598,57.129,-74.707,-154.785,-78.613
1678025575.939,-140.137,61.035,-71.777,-178.711,-22.949
1678025575.940,-111.816,68.359,-68.848,-168.945,-91.309
1678025575.944,-134.766,68.848,-69.824,-209.473,-120.605
1678025575.948,-178.711,65.918,-81.543,-230.469,-142.578
1678025575.952,-146.484,63.965,-87.891,-186.035,-140.137
1678025575.956,-115.234,60.547,-86.914,-186.035,-92.773
1678025575.960,-124.023,58.105,-83.984,-156.738,89.355
1678025575.964,-121.582,57.129,-79.590,-190.918,349.121
1678025575.967,-148.438,52.246,-82.031,-204.102,72.266
1678025575.971,-149.414,58.594,-80.566,-155.273,-303.711
1678025575.975,-119.629,59.082,-73.730,-149.902,-170.898
1678025575.979,-120.605,45.410,-73.242,-158.691,-19.531
1678025575.983,-124.023,52.734,-78.125,-150.879,-43.457
1678025575.986,-123.047,63.477,-75.684,-151.855,-136.719
1678025575.990,-125.000,60.059,-79.102,-171.875,18.066
1678025575.994,-144.043,53.711,-89.355,-159.180,191.406
1678025575.998,-134.766,55.664,-81.543,-132.324,8.789
1678025576.002,-131.836,54.199,-76.660,-135.254,-105.957
1678025576.006,-150.391,50.293,-75.684,-129.395,29.297
1678025576.010,-153.320,40.527,-71.289,-113.281,43.457
1678025576.013,-125.000,43.945,-73.730,-104.980,-95.703
1678025576.017,-104.004,48.340,-74.707,-94.727,-137.695
1678025576.021,-139.160,31.738,-76.660,-84.961,-48.340
1678025576.025,-169.434,33.691,-78.125,-146.973,-48.340
1678025576.029,-149.414,44.922,-80.566,-157.715,-229.004
1678025576.045,-125.000,47.852,-76.172,-80.566,-198.242
1678025576.049,-105.957,50.293,-63.965,-50.293,107.910
1678025576.053,-128.418,47.852,-64.941,-57.129,124.512
1678025576.057,-158.691,43.457,-70.801,-106.445,-133.301
1678025576.061,-156.738,43.945,-66.406,-90.332,-180.664
1678025576.065,-117.188,44.434,-67.871,-67.383,154.785
1678025576.069,-110.840,31.738,-69.336,-72.266,246.094
1678025576.072,-137.695,20.996,-58.594,-70.312,-14.648
1678025576.076,-152.832,17.090,-57.617,-92.773,-89.844
1678025576.080,-170.898,22.461,-62.988,-83.496,24.414
1678025576.084,-146.484,30.273,-62.988,-77.637,-83.496
1678025576.088,-117.676,29.297,-61.035,-77.148,-169.922
1678025576.090,-124.023,30.762,-61.035,-67.871,126.953
1678025576.094,-146.973,33.203,-69.336,-81.543,155.762
1678025576.098,-169.434,32.715,-77.637,-103.027,-157.227
1678025576.102,-153.320,29.297,-81.543,-98.633,-250.488
1678025576.106,-139.648,30.762,-75.684,-73.730,-87.891
1678025576.110,-131.348,26.367,-77.148,-66.406,43.457
1678025576.114,-127.441,17.578,-74.707,-90.820,-40.527
1678025576.117,-155.273,20.508,-64.941,-117.188,-139.160
1678025576.121,-151.855,25.879,-61.523,-99.609,52.734
1678025576.125,-113.281,32.227,-53.711,-68.848,276.367
1678025576.129,-118.652,35.645,-46.387,-70.312,72.266
1678025576.133,-141.602,36.621,-42.969,-96.191,-85.938
1678025576.135,-144.531,29.785,-59.082,-126.953,-104.492
1678025576.139,-141.113,34.668,-70.312,-133.789,-158.203
1678025576.143,-120.605,41.504,-58.594,-122.070,-154.785
1678025576.147,-100.098,34.180,-62.012,-103.516,-49.316
1678025576.151,-119.629,33.203,-61.523,-127.441,23.926
1678025576.155,-160.156,34.180,-54.688,-141.113,-48.340
1678025576.159,-149.902,39.062,-55.176,-111.328,-141.113
1678025576.162,-116.699,41.016,-36.133,-131.836,-149.902
1678025576.166,-119.629,39.062,-40.527,-118.652,177.734
1678025576.170,-126.465,42.969,-55.664,-100.586,194.824
1678025576.174,-138.184,48.340,-38.086,-139.648,-188.477
1678025576.178,-154.785,39.551,-34.668,-139.648,-243.652
1678025576.180,-146.973,36.133,-34.668,-119.629,-113.281
1678025576.184,-118.164,43.457,-31.250,-107.910,8.301
1678025576.188,-111.328,41.504,-32.227,-99.609,-62.012
1678025576.192,-156.250,40.039,-38.574,-133.789,-14.648
1678025576.196,-163.574,44.922,-46.387,-134.766,-13.672
1678025576.200,-124.512,45.898,-37.598,-114.746,-137.207
1678025576.204,-105.957,47.852,-31.738,-112.793,17.578
1678025576.207,-112.793,37.598,-23.926,-111.816,152.344
1678025576.211,-132.324,33.691,-39.062,-128.418,129.395
1678025576.215,-134.766,58.594,-62.500,-125.000,-135.254
1678025576.219,-101.074,64.941,-42.969,-107.910,-177.734
1678025576.223,-90.332,50.781,-20.508,-85.938,16.602
1678025576.225,-82.031,53.711,-5.371,-79.590,50.293
1678025576.229,-111.328,66.895,4.883,-113.770,-112.793
1678025576.233,-145.508,56.152,-1.953,-128.906,-156.250
1678025576.237,-139.648,43.457,-14.648,-111.328,-107.422
1678025576.241,-119.629,46.387,-17.578,-97.656,-96.191
1678025576.245,-92.773,49.805,-13.672,-80.078,-25.879
1678025576.249,-132.324,51.758,-24.414,-103.516,-57.129
1678025576.252,-149.902,55.664,-18.066,-113.770,-46.875
1678025576.256,-105.469,54.199,-6.348,-80.566,-68.848
1678025576.260,-75.684,54.199,-9.277,-69.824,-139.160
1678025576.264,-80.078,51.758,-11.719,-74.707,36.621
1678025576.268,-83.984,45.410,-18.555,-51.758,118.652
1678025576.271,-100.586,50.293,3.906,-65.430,-40.527
1678025576.275,-104.492,49.805,22.461,-96.191,-202.637
1678025576.279,-90.332,49.316,4.395,-61.035,-84.961
1678025576.283,-90.332,51.758,-10.254,-48.828,263.184
1678025576.287,-110.352,50.781,-1.953,-62.988,77.148
1678025576.291,-139.160,41.504,1.465,-71.289,-149.414
1678025576.295,-115.234,41.504,-6.836,-62.500,122.070
1678025576.298,-62.988,42.480,-4.395,-20.020,297.852
1678025576.302,-50.781,43.945,4.395,-0.977,69.336
1678025576.306,-76.660,46.875,9.277,-34.180,-93.750
1678025576.310,-99.121,32.715,14.160,-47.852,-180.176
1678025576.314,-79.590,32.227,13.184,-7.324,-242.676
1678025576.316,-42.969,46.387,4.883,6.348,-210.449
1678025576.320,-35.156,40.527,3.906,1.953,-99.121
1678025576.324,-47.363,28.809,9.277,23.438,56.641
1678025576.328,-58.594,30.762,9.766,-6.836,-49.316
1678025576.332,-75.195,24.902,5.859,-28.320,-229.492
1678025576.336,-45.410,15.137,-3.906,28.320,-115.723
1678025576.340,1.465,20.508,3.906,90.820,273.438
1678025576.343,-14.160,30.762,12.207,80.078,316.895
1678025576.347,-29.785,35.645,12.695,57.129,-102.051
1678025576.351,-0.977,26.855,15.625,74.219,-148.438
1678025576.355,49.805,22.949,13.672,105.957,-29.785
1678025576.359,88.867,29.785,1.953,143.066,-52.734
1678025576.360,101.074,31.250,0.488,163.086,-32.715
1678025576.364,67.383,22.949,9.277,153.809,78.125
1678025576.368,57.129,15.137,5.371,142.090,102.051
1678025576.372,92.773,23.926,2.441,149.902,-20.996
1678025576.376,124.023,19.531,-0.488,176.270,-27.344
1678025576.380,128.418,8.789,-3.906,193.848,241.699
1678025576.384,104.980,18.066,-4.883,175.781,312.012
1678025576.387,102.539,22.949,-4.395,169.434,-79.590
1678025576.391,128.418,24.414,-4.883,197.266,-214.355
1678025576.395,162.109,24.414,-4.395,214.355,44.434
1678025576.399,172.852,33.691,-16.113,197.266,195.312
1678025576.403,156.738,43.457,-19.531,176.758,-28.320
1678025576.420,133.789,35.156,-21.973,173.828,-195.312
1678025576.424,138.184,26.367,-38.574,179.199,-167.480
1678025576.428,165.039,30.273,-32.227,192.383,-18.066
1678025576.432,148.926,33.691,-21.484,196.777,11.230
1678025576.436,117.676,28.809,-17.090,187.500,-112.305
1678025576.440,113.281,36.133,-20.996,160.645,-135.254
1678025576.444,122.559,36.621,-34.180,152.832,-58.105
1678025576.447,131.836,28.809,-35.645,159.668,8.301
1678025576.451,145.020,29.785,-34.180,167.969,76.660
1678025576.455,129.883,30.762,-46.387,150.879,207.520
1678025576.459,102.051,28.320,-45.410,104.492,74.219
1678025576.463,117.676,34.668,-44.922,91.309,-215.332
1678025576.465,164.551,37.109,-45.410,125.977,-16.113
1678025576.469,166.992,32.715,-36.133,153.320,151.367
1678025576.473,125.488,33.203,-44.922,131.836,-155.762
1678025576.477,119.629,38.086,-50.293,109.863,-313.965
1678025576.481,124.512,40.527,-38.086,110.840,-190.918
1678025576.485,97.656,30.762,-37.109,91.309,-49.805
1678025576.489,77.637,19.531,-31.738,79.102,77.637
1678025576.492,84.473,24.414,-30.273,60.059,-12.695
1678025576.496,112.793,30.273,-45.898,64.453,-62.500
1678025576.500,103.027,33.691,-40.039,72.266,44.434
1678025576.504,84.473,30.762,-37.109,83.496,-153.320
1678025576.508,103.516,4.395,-32.227,108.887,-135.254
1678025576.510,103.027,-2.930,-33.691,90.332,8.789
1678025576.514,64.941,24.414,-59.570,50.781,-98.145
1678025576.518,38.574,36.133,-64.453,41.504,-210.449
1678025576.522,51.270,26.367,-36.621,63.477,-171.387
1678025576.526,66.406,30.273,-16.602,34.668,-20.508
1678025576.530,42.969,33.203,-20.020,21.973,36.133
1678025576.534,3.418,26.367,-16.113,14.160,-66.406
1678025576.537,-0.488,23.438,-20.508,-0.977,-152.344
1678025576.541,14.160,14.160,-24.902,-4.883,85.938
1678025576.545,21.484,7.324,-24.902,-13.672,185.059
1678025576.549,13.672,8.789,-23.438,-24.902,-11.230
1678025576.553,-22.949,6.348,-19.531,-47.363,36.621
1678025576.555,-41.016,3.906,-23.438,-45.410,-9.277
1678025576.559,-21.484,-0.977,-24.414,-28.320,-83.008
1678025576.563,1.465,-5.371,-24.902,-16.602,-38.574
1678025576.567,-4.883,-11.719,-24.414,-11.230,23.438
1678025576.571,-41.992,-11.230,-20.020,-20.996,107.422
1678025576.575,-66.895,0.488,-12.695,-37.109,-48.340
1678025576.579,-62.012,2.441,-5.371,-39.062,-136.230
1678025576.582,-37.109,4.883,-14.160,-12.207,98.145
1678025576.586,-35.156,6.836,-22.949,9.766,231.934
1678025576.590,-32.715,5.859,-18.066,-14.648,-73.730
1678025576.594,-39.551,5.859,-16.113,-41.992,-234.375
1678025576.598,-39.551,-4.395,-11.230,-62.988,-203.125
1678025576.601,-18.555,-9.766,-7.324,-47.363,-136.719
1678025576.605,-14.160,-2.441,-14.160,-26.855,-94.238
1678025576.609,-38.574,-7.324,-15.137,-52.246,-89.355
1678025576.613,-57.617,-15.137,-20.020,-77.637,-79.102
1678025576.617,-51.758,-7.812,-11.230,-46.387,-57.617
1678025576.621,-35.156,-1.953,-5.859,-10.254,55.664
1678025576.625,-39.062,-3.906,-13.184,-7.324,130.859
1678025576.628,-92.773,-1.465,-18.066,-63.477,226.074
1678025576.632,-96.191,-1.953,-25.391,-118.164,64.941
1678025576.636,-65.430,-8.301,-17.090,-102.051,-268.066
1678025576.640,-39.551,-12.207,-16.602,-72.266,-147.949
1678025576.644,-45.898,-15.137,-20.020,-66.406,36.133
1678025576.645,-67.871,-13.672,-9.277,-56.641,10.742
1678025576.649,-73.730,-2.441,5.859,-57.617,-162.109
1678025576.653,-62.500,-4.883,-0.488,-75.195,-134.766
1678025576.657,-28.809,-8.301,-20.996,-56.641,52.246
1678025576.661,-13.184,-5.371,-20.508,-33.203,33.691
1678025576.665,-41.992,-6.348,-15.137,-40.039,-49.805
1678025576.669,-81.055,-5.859,-18.555,-62.012,0.000
1678025576.672,-74.219,-4.883,-24.902,-76.660,147.461
1678025576.676,-51.758,-9.766,-20.020,-64.453,-50.293
1678025576.680,-46.875,-11.719,-8.301,-32.227,-203.613
1678025576.684,-53.223,-9.766,-1.953,-28.809,-111.328
1678025576.688,-72.754,-13.184,1.465,-52.734,-166.016
1678025576.690,-76.172,-12.695,-3.906,-62.988,-274.414
1678025576.694,-46.387,-9.277,-8.301,-35.645,-143.066
1678025576.698,-17.090,-15.625,-12.207,-14.648,20.508
1678025576.702,-34.668,-24.414,-20.508,-20.996,-27.832
1678025576.706,-84.961,-19.043,-20.508,-42.480,-203.125
1678025576.710,-86.426,-11.719,-25.391,-71.777,-115.723
1678025576.714,-56.152,-8.789,-18.555,-42.480,183.594
1678025576.717,-21.484,-10.254,-5.859,1.953,108.398
1678025576.721,-30.273,-15.137,3.906,-8.301,-80.078
1678025576.725,-68.848,-13.672,5.371,-23.438,-91.309
1678025576.729,-87.402,-12.207,-3.418,-71.289,-36.621
1678025576.733,-77.148,-14.648,-11.230,-97.656,-137.695
1678025576.735,-46.875,-19.043,-20.020,-45.898,-88.867
1678025576.739,-45.410,-26.855,-30.273,-3.906,95.703
1678025576.743,-66.406,-30.762,-22.949,-12.207,81.055
1678025576.747,-71.289,-19.043,-4.395,-42.480,-165.039
1678025576.751,-73.242,-9.766,1.953,-53.223,-228.027
1678025576.755,-51.758,-11.230,-5.371,-32.715,62.500
1678025576.759,-31.250,-12.207,-4.395,-6.836,195.801
1678025576.762,-64.453,-13.184,14.160,-27.344,-13.184
1678025576.766,-77.148,-20.020,13.184,-63.965,-159.668
1678025576.770,-56.641,-34.668,-3.418,-36.621,14.648
1678025576.774,-29.785,-34.668,-7.324,5.859,174.805
1678025576.778,-22.949,-20.020,-5.371,-17.578,-37.109
1678025576.795,-44.434,-17.578,-7.812,-45.410,-122.559
1678025576.799,-77.637,-25.391,-8.301,-62.500,-140.625
1678025576.803,-94.727,-29.297,-6.348,-86.914,-167.480
1678025576.807,-53.711,-16.602,0.977,-58.594,-151.855
1678025576.811,-33.203,-9.277,0.000,-37.109,-87.402
1678025576.815,-46.875,-22.949,-14.648,-48.828,4.883
1678025576.819,-62.988,-22.461,-22.949,-56.641,-34.180
1678025576.822,-99.609,-22.949,-15.625,-47.363,-175.781
1678025576.826,-71.777,-30.273,-4.883,-8.789,-104.004
1678025576.830,-49.805,-25.391,-10.254,-21.973,161.133
1678025576.834,-82.520,-23.438,-12.207,-54.199,82.031
1678025576.838,-95.215,-24.414,-6.836,-60.547,-100.098
1678025576.840,-80.078,-24.414,-12.695,-52.734,1.953
1678025576.844,-46.387,-27.832,-8.301,-31.738,172.363
1678025576.848,-47.852,-27.344,11.719,-29.297,39.551
1678025576.852,-65.918,-25.391,8.301,-41.992,-101.562
1678025576.856,-89.844,-27.344,1.953,-65.918,-170.410
1678025576.860,-93.262,-36.621,6.836,-66.406,-140.137
1678025576.864,-47.363,-32.715,8.789,-30.273,-33.203
1678025576.867,-39.062,-21.973,-0.977,-17.090,-101.074
1678025576.871,-62.988,-21.973,-11.230,-38.086,56.641
1678025576.875,-83.008,-16.113,0.488,-34.668,209.473
1678025576.879,-103.027,-20.020,4.395,-49.316,-95.703
1678025576.883,-73.730,-19.531,-3.906,-55.664,-199.707
1678025576.885,-48.340,-20.020,-1.465,-36.621,-79.590
1678025576.889,-48.340,-27.832,0.488,-20.508,-20.020
1678025576.893,-67.871,-28.809,4.883,-18.066,-50.781
1678025576.897,-75.195,-30.273,10.742,-41.504,-172.363
1678025576.901,-59.082,-28.320,4.883,-38.574,-96.191
1678025576.905,-39.551,-30.273,-2.930,-6.348,108.887
1678025576.909,-30.273,-33.691,0.000,-7.324,92.773
1678025576.912,-65.430,-30.762,5.371,-16.602,-47.363
1678025576.916,-84.473,-35.156,-8.301,-33.691,80.078
1678025576.920,-52.734,-37.109,-6.348,-45.410,44.434
1678025576.924,-38.574,-34.180,12.207,-14.648,-125.977
1678025576.928,-52.246,-31.738,8.789,-15.625,83.008
1678025576.930,-82.520,-21.973,-9.766,-68.359,55.176
1678025576.934,-104.980,-15.137,-14.160,-87.891,-104.492
1678025576.938,-91.309,-17.578,-5.371,-77.148,-149.414
1678025576.942,-73.242,-25.879,0.977,-69.336,-28.320
1678025576.946,-66.406,-29.785,12.207,-41.016,298.340
1678025576.950,-81.543,-17.090,5.859,-44.922,124.023
1678025576.954,-86.914,-23.926,-6.348,-59.570,-173.828
1678025576.957,-61.035,-33.203,-4.883,-32.715,-68.359
1678025576.961,-22.461,-25.391,-5.371,-12.207,155.273
1678025576.965,-23.926,-17.578,-12.207,-30.273,0.977
1678025576.969,-75.195,-15.137,-9.277,-66.895,-136.230
1678025576.973,-74.219,-17.090,-12.207,-92.285,-122.559
1678025576.975,-51.270,-24.902,-21.484,-68.359,-169.434
1678025576.979,-45.410,-35.645,-26.855,-37.109,-168.457
1678025576.983,-24.414,-40.039,-29.785,-23.926,-46.875
1678025576.987,-29.297,-43.945,-30.273,-30.762,-34.668
1678025576.991,-57.617,-47.363,-29.297,-41.016,-115.234
1678025576.995,-62.988,-42.969,-21.484,-37.109,-102.051
1678025576.999,-28.809,-49.316,-20.508,-19.043,-22.949
1678025577.002,-7.812,-54.199,-34.180,24.414,284.668
1678025577.006,-11.719,-48.340,-41.016,9.766,287.109
1678025577.010,-42.969,-51.758,-24.902,-32.715,-134.277
1678025577.014,-55.664,-53.223,-3.418,-16.113,-196.777
1678025577.018,-17.578,-36.621,-3.418,-9.766,-96.680
1678025577.020,7.324,-22.949,-0.977,-5.371,6.836
1678025577.024,-23.438,-30.762,4.883,-9.766,-30.762
1678025577.028,-49.805,-38.574,2.930,-24.414,-57.129
1678025577.032,-53.711,-40.039,-1.953,-19.043,27.832
1678025577.036,-31.250,-49.805,-8.789,-17.578,-186.035
1678025577.040,-12.695,-45.410,-9.277,18.555,-158.691
1678025577.044,-36.133,-33.203,-7.324,20.508,193.359
1678025577.047,-61.035,-33.203,-3.906,-14.160,129.395
1678025577.051,-65.918,-39.062,-10.742,-19.531,-142.090
1678025577.055,-31.738,-42.969,-19.531,-0.488,-161.133
1678025577.059,7.324,-36.133,-22.949,21.484,17.578
1678025577.063,-11.230,-29.785,-17.578,11.719,35.156
1678025577.065,-45.410,-32.227,-3.418,-11.230,-131.348
1678025577.069,-40.039,-29.785,-3.906,-14.648,-159.668
1678025577.073,-22.461,-35.645,0.000,-18.555,-136.230
1678025577.077,13.184,-31.250,2.930,-4.395,-25.879
1678025577.081,4.395,-29.785,-19.043,4.395,10.742
1678025577.085,-17.578,-37.598,-28.320,8.301,-39.551
1678025577.089,-13.184,-22.949,5.859,15.137,102.539
1678025577.092,-9.277,-11.230,15.137,-3.906,-4.883
1678025577.096,21.484,-23.926,9.766,0.488,-159.668
1678025577.100,25.879,-30.273,9.766,21.484,20.996
1678025577.104,-13.184,-19.043,7.324,7.812,86.914
1678025577.108,-34.180,-8.301,6.836,-13.672,-85.449
1678025577.111,-15.625,-16.113,8.301,-5.371,-160.156
1678025577.115,2.441,-26.367,6.836,4.883,-8.789
1678025577.119,24.902,-28.320,-8.789,33.203,329.102
1678025577.123,9.766,-26.855,-15.625,21.484,183.594
1678025577.127,-30.273,-17.578,0.000,-29.785,-236.816
1678025577.131,-29.297,-30.273,8.789,-24.902,-64.941
1678025577.135,-4.883,-42.969,4.883,-5.371,143.555
1678025577.138,0.977,-11.719,13.184,-14.648,-27.344
1678025577.142,-41.016,-4.883,21.484,-34.668,-160.645
1678025577.146,-56.152,-25.879,13.184,-35.156,-84.473
1678025577.150,-41.016,-25.879,22.949,-20.996,-62.500
1678025577.154,-18.555,-23.926,30.273,-9.277,-139.648
1678025577.170,16.113,-21.973,8.789,0.488,-94.727
1678025577.174,-18.066,-18.555,0.977,-30.762,-18.555
1678025577.178,-104.492,-24.414,12.207,-87.891,-46.875
1678025577.182,-129.395,-28.809,18.066,-111.816,-145.020
1678025577.186,-109.863,-27.344,19.043,-108.398,-162.109
1678025577.190,-99.609,-22.949,19.043,-97.168,166.992
1678025577.194,-127.441,-11.230,21.973,-127.441,225.098
1678025577.197,-180.176,-11.719,14.648,-206.055,-165.527
1678025577.201,-216.309,-15.137,11.230,-233.887,-205.078
1678025577.205,-233.398,-16.113,24.414,-232.910,-15.137
1678025577.209,-242.676,-20.020,23.926,-243.164,-24.902
1678025577.213,-267.090,-16.113,15.137,-257.812,-129.395
1678025577.215,-305.176,-12.695,23.438,-296.387,26.367
1678025577.219,-317.383,-14.160,34.180,-317.383,135.254
1678025577.223,-323.242,-15.625,37.109,-320.312,-47.852
1678025577.227,-328.613,-20.996,27.344,-325.684,9.766
1678025577.231,-349.609,-21.973,35.645,-337.891,201.172
1678025577.235,-385.742,-19.043,54.199,-380.371,144.531
1678025577.239,-411.621,-9.277,49.805,-412.109,-5.859
1678025577.242,-404.785,-3.418,34.668,-421.875,-123.535
1678025577.246,-389.648,-6.836,42.480,-397.461,41.504
1678025577.250,-404.297,-7.812,54.199,-393.555,233.398
1678025577.254,-424.316,-7.812,55.176,-422.363,-115.234
1678025577.258,-413.574,-11.230,49.805,-404.785,-292.969
1678025577.260,-384.277,-10.254,37.598,-393.555,-203.613
1678025577.264,-378.418,-7.324,33.203,-372.559,-93.750
1678025577.268,-359.375,-6.836,38.086,-343.262,-83.984
1678025577.272,-364.258,-0.488,32.715,-377.930,-128.906
1678025577.276,-371.094,-2.930,18.066,-379.883,-161.621
1678025577.280,-343.262,-10.254,10.254,-350.098,-166.016
1678025577.284,-318.359,-8.301,7.324,-332.031,-90.820
1678025577.287,-294.922,-6.836,10.254,-292.969,-35.645
1678025577.291,-312.500,-13.184,11.719,-294.922,170.898
1678025577.295,-316.895,-7.812,15.625,-309.570,107.910
1678025577.299,-268.555,-4.395,-0.488,-282.227,-232.910
1678025577.303,-252.930,-22.949,-15.137,-274.902,-161.621
1678025577.305,-239.746,-19.043,-8.789,-274.902,107.910
1678025577.309,-235.840,-15.625,-21.973,-247.070,29.785
1678025577.313,-232.910,-23.438,-18.066,-221.680,-178.223
1678025577.317,-200.195,-24.902,-3.418,-214.844,-60.059
1678025577.321,-170.410,-35.645,2.441,-183.105,53.711
1678025577.325,-135.742,-37.598,-13.672,-143.555,23.438
1678025577.329,-133.301,-37.109,-18.066,-152.344,7.324
1678025577.332,-143.066,-38.086,0.488,-161.621,25.879
1678025577.336,-122.559,-28.809,-12.695,-147.949,202.637
1678025577.340,-95.215,-25.879,-20.508,-123.047,19.531
1678025577.344,-56.152,-25.879,-1.953,-56.152,-97.168
1678025577.348,-59.082,-32.715,-4.395,-43.457,-16.602
1678025577.350,-66.406,-48.828,-13.184,-54.199,-119.629
1678025577.354,-48.828,-51.758,-11.230,-50.781,-260.254
1678025577.358,-41.992,-52.734,-11.719,-27.344,-201.660
1678025577.362,-5.859,-45.898,-15.137,3.418,-11.719
1678025577.366,8.789,-33.691,-24.902,-22.461,-3.906
1678025577.370,-30.762,-32.227,-15.625,-31.250,-47.852
1678025577.374,-30.273,-42.969,-11.230,-19.043,-64.941
1678025577.377,6.836,-55.176,-13.184,10.742,136.230
1678025577.381,20.996,-53.711,-5.371,49.316,165.527
1678025577.385,4.883,-47.363,-15.137,26.367,-39.551
1678025577.389,-26.367,-45.410,-18.066,4.883,39.062
1678025577.393,-7.324,-42.480,-12.207,24.414,-48.340
1678025577.395,2.441,-50.781,-15.625,40.527,-167.969
1678025577.399,9.277,-63.965,-29.297,44.434,-129.395
1678025577.403,23.438,-50.293,-18.555,51.758,18.555
1678025577.407,3.906,-49.316,-14.648,30.762,138.184
1678025577.411,-12.695,-58.105,-13.672,-24.902,-153.320
1678025577.415,-0.488,-41.016,-9.766,-2.441,-166.016
1678025577.419,16.113,-50.293,-14.160,47.852,216.309
1678025577.422,59.570,-55.664,-19.531,87.891,326.172
1678025577.426,51.270,-36.133,-21.973,92.773,-27.832
1678025577.430,-3.906,-28.809,-18.066,45.410,-199.219
1678025577.434,3.418,-41.504,-22.461,46.875,-143.066
1678025577.438,34.180,-49.805,-29.785,57.617,-79.102
1678025577.441,48.340,-55.664,-29.785,68.359,-35.645
1678025577.445,36.133,-54.688,-26.855,65.430,-14.648
1678025577.449,18.066,-44.434,-30.762,47.852,-43.457
1678025577.453,21.973,-48.340,-44.922,63.965,-113.281
1678025577.457,61.035,-55.664,-36.621,78.613,-180.664
1678025577.461,68.848,-44.922,-20.996,83.008,-85.449
1678025577.465,32.227,-33.203,-18.555,69.336,130.371
1678025577.468,-5.859,-45.410,-25.391,16.113,26.855
1678025577.472,-9.766,-50.293,-39.062,20.996,-228.516
1678025577.476,-16.113,-51.270,-41.504,28.320,-177.734
1678025577.480,-6.348,-57.129,-37.598,32.715,-1.953
1678025577.484,-7.812,-53.711,-34.180,39.062,-53.223
1678025577.485,-11.719,-44.922,-26.367,36.133,-214.355
1678025577.489,19.043,-43.945,-31.250,43.945,-96.191
1678025577.493,31.250,-58.594,-49.805,55.176,49.316
1678025577.497,36.621,-56.641,-57.129,72.266,60.547
1678025577.501,23.926,-35.645,-58.105,43.457,-59.082
1678025577.505,-10.254,-32.227,-51.270,28.320,-41.504
1678025577.509,-13.672,-43.945,-36.621,41.992,277.344
1678025577.512,8.789,-45.410,-33.203,28.809,26.367
1678025577.516,28.320,-43.457,-38.574,40.039,-126.953
1678025577.520,26.367,-49.316,-43.945,38.086,43.457
1678025577.524,4.395,-47.363,-46.387,20.508,-36.621
1678025577.528,-20.020,-46.387,-50.293,11.230,-102.051
1678025577.545,-9.277,-46.387,-60.059,24.414,-104.004
1678025577.549,24.414,-43.945,-48.828,43.457,-61.523
1678025577.553,5.859,-50.293,-29.785,39.551,0.488
1678025577.557,-22.949,-49.805,-30.273,9.766,-101.074
1678025577.561,-10.254,-42.969,-31.738,7.812,-150.879
1678025577.565,16.113,-53.711,-30.762,30.273,-10.742
1678025577.569,36.133,-57.129,-34.668,25.391,73.730
1678025577.572,23.926,-54.688,-42.480,11.230,62.012
1678025577.576,-20.508,-54.688,-40.039,-1.953,-118.652
1678025577.580,-55.176,-52.734,-36.621,-6.836,101.074
1678025577.584,-33.203,-49.805,-36.133,5.859,140.625
1678025577.588,5.371,-53.223,-31.738,36.621,-175.293
1678025577.590,9.277,-64.941,-33.691,39.062,88.379
1678025577.594,-3.906,-52.246,-29.297,26.367,199.707
1678025577.598,-24.902,-47.363,-20.996,10.742,-109.375
1678025577.602,-7.812,-55.664,-25.879,-5.859,-256.836
1678025577.606,-5.859,-65.918,-30.762,10.742,-121.582
1678025577.610,-19.531,-63.477,-25.391,22.461,73.730
1678025577.614,-36.133,-58.105,-32.227,-3.418,41.992
1678025577.617,-44.922,-65.430,-37.109,-16.113,-104.492
1678025577.621,-30.273,-66.406,-39.551,5.371,-48.828
1678025577.625,-29.297,-71.289,-37.598,31.738,203.125
1678025577.629,-20.020,-64.453,-38.086,29.785,85.938
1678025577.633,-35.156,-59.082,-45.410,-0.977,-89.355
1678025577.635,-33.203,-63.477,-48.828,-20.508,-153.320
1678025577.639,-20.020,-66.406,-37.109,-18.066,-204.590
1678025577.643,7.812,-75.195,-24.902,36.621,-140.137
1678025577.647,13.672,-76.172,-41.016,38.086,-6.836
1678025577.651,-24.414,-59.082,-38.574,-12.695,-2.930
1678025577.655,-30.273,-60.059,-17.578,-12.207,-75.195
1678025577.659,-23.438,-67.871,-17.090,-18.066,-5.371
1678025577.662,-19.043,-64.453,-31.738,-22.461,-60.059
1678025577.666,-3.418,-64.941,-39.551,15.137,163.086
1678025577.670,-10.742,-64.941,-40.527,30.762,182.617
1678025577.674,-39.062,-67.383,-40.527,-12.207,-148.438
1678025577.678,-24.414,-65.430,-35.645,-16.602,-123.535
1678025577.680,-11.719,-69.824,-35.156,12.695,78.613
1678025577.684,9.277,-73.730,-38.086,21.973,48.340
1678025577.688,18.555,-73.730,-36.133,32.715,-129.883
1678025577.692,-14.648,-77.637,-29.785,17.578,-105.957
1678025577.696,-22.949,-70.312,-31.250,3.418,-70.801
1678025577.700,-4.883,-68.359,-38.086,0.488,-106.934
1678025577.704,18.066,-72.754,-38.574,0.977,-61.523
1678025577.707,24.902,-67.871,-30.762,28.320,75.684
1678025577.711,-9.277,-70.801,-27.832,18.066,116.699
1678025577.715,-34.668,-66.406,-28.320,-12.207,-131.348
1678025577.719,-11.230,-67.383,-31.250,4.395,-225.586
1678025577.723,5.859,-70.801,-36.133,7.812,-136.230
1678025577.725,-5.371,-67.383,-42.480,9.766,-17.578
1678025577.729,-22.461,-69.336,-35.645,2.441,-72.266
1678025577.733,-29.785,-70.312,-25.879,-16.113,-208.496
1678025577.737,-9.766,-68.848,-26.367,0.977,-142.578
1678025577.741,16.113,-65.430,-18.555,34.180,-62.012
1678025577.745,17.090,-60.547,-17.578,32.715,-58.105
1678025577.749,-17.090,-66.406,-21.973,-2.930,20.020
1678025577.752,-48.828,-73.242,-21.973,-6.836,161.621
1678025577.756,-16.113,-73.242,-30.273,5.859,64.453
1678025577.760,10.742,-71.777,-28.320,22.461,-127.930
1678025577.764,2.441,-67.383,-28.320,43.945,-30.273
1678025577.768,-29.297,-69.824,-32.715,-9.277,-30.762
1678025577.771,-45.410,-72.754,-32.715,-34.668,-88.379
1678025577.775,-55.176,-73.242,-34.668,-9.766,-134.277
1678025577.779,-63.965,-73.730,-36.621,-3.906,-1.465
1678025577.783,-43.457,-74.707,-35.645,3.418,254.883
1678025577.787,-46.875,-73.242,-22.949,-0.488,-7.812
1678025577.791,-60.059,-65.918,-25.391,-16.113,-139.648
1678025577.795,-47.363,-66.895,-34.668,-20.996,124.023
1678025577.798,-33.203,-74.219,-37.598,-3.906,219.727
1678025577.802,-13.184,-75.684,-39.062,3.906,-30.273
1678025577.806,-33.203,-77.637,-40.039,-27.832,-104.492
1678025577.810,-60.059,-76.172,-36.133,-31.738,-159.180
1678025577.814,-38.574,-73.242,-25.391,-4.395,-176.270
1678025577.815,-27.344,-68.848,-37.598,0.000,-146.973
1678025577.819,-17.090,-68.848,-53.223,-2.441,-99.121
1678025577.823,-34.668,-69.824,-33.203,-6.348,-26.855
1678025577.827,-52.734,-79.102,-30.273,-20.508,-159.668
1678025577.831,-51.758,-84.961,-54.199,-28.320,-188.477
1678025577.835,-38.086,-54.199,-50.781,-12.695,-41.504
1678025577.839,-20.020,-37.598,-28.320,1.953,315.918
1678025577.842,-41.504,-50.293,-26.855,-12.695,335.938
1678025577.846,-67.383,-62.012,-29.785,-34.668,-104.492
1678025577.850,-53.711,-68.359,-20.020,-22.461,-181.152
1678025577.854,-13.184,-68.848,-31.250,-15.137,-98.145
1678025577.858,-22.461,-77.637,-34.180,-14.648,-50.781
1678025577.860,-35.645,-80.566,-26.367,-11.230,-6.836
1678025577.864,-46.387,-68.848,-29.785,-28.320,29.785
1678025577.868,-51.270,-67.383,-30.762,-34.180,-33.691
1678025577.872,-31.250,-68.848,-37.598,-32.715,-144.043
1678025577.876,-31.250,-61.035,-41.504,-33.691,-134.766
1678025577.880,-21.484,-61.035,-31.250,-12.207,129.883
1678025577.884,-19.043,-66.895,-24.414,-7.812,141.602
1678025577.887,-28.320,-68.359,-34.668,-34.180,-100.586
1678025577.891,-44.434,-63.965,-41.016,-35.645,-159.180
1678025577.895,-29.785,-72.754,-32.715,-22.949,29.785
1678025577.899,-16.602,-70.801,-36.621,-23.438,218.750
1678025577.903,-47.363,-50.781,-55.176,-48.340,-120.117
1678025577.920,-71.289,-49.805,-52.246,-66.406,-216.797
1678025577.924,-55.176,-55.176,-47.852,-58.105,-105.957
1678025577.928,-10.742,-62.500,-41.992,-41.504,-32.227
1678025577.932,-5.371,-68.359,-40.039,-21.484,-59.082
1678025577.936,-33.203,-62.012,-37.109,-33.691,-85.938
1678025577.940,-40.527,-51.270,-34.180,-70.801,8.789
1678025577.944,-41.504,-63.477,-47.363,-57.617,-100.098
1678025577.947,-31.738,-73.730,-38.086,-28.320,-160.156
1678025577.951,-20.020,-67.871,-26.367,-28.320,-17.090
1678025577.955,-47.852,-68.848,-30.273,-49.316,276.367
1678025577.959,-56.641,-77.148,-41.504,-79.102,156.738
1678025577.963,-33.691,-79.102,-47.852,-56.641,-252.930
1678025577.965,-21.484,-70.312,-46.875,-30.273,-137.207
1678025577.969,-9.766,-54.688,-28.320,-28.320,141.602
1678025577.973,-25.391,-49.805,-18.066,-44.434,-2.441
1678025577.977,-43.945,-46.875,-34.180,-63.477,-255.859
1678025577.981,-50.293,-40.039,-40.039,-57.617,-199.707
1678025577.985,-36.133,-47.363,-31.738,-39.551,-28.320
1678025577.989,-19.043,-51.758,-29.785,-37.598,47.363
1678025577.992,-28.320,-59.082,-27.832,-56.641,-51.758
1678025577.996,-62.988,-54.688,-27.344,-68.359,32.715
1678025578.000,-59.082,-46.875,-29.785,-72.754,96.191
1678025578.004,-26.855,-57.129,-25.879,-48.340,-98.145
1678025578.008,-29.785,-62.500,-17.090,-35.156,-85.938
1678025578.010,-30.762,-59.570,-13.672,-75.684,80.566
1678025578.014,-61.523,-51.270,-28.809,-98.145,-13.184
1678025578.018,-66.406,-39.551,-32.715,-75.195,-170.410
1678025578.022,-63.965,-44.434,-21.973,-61.523,-127.930
1678025578.026,-84.961,-52.246,-14.648,-49.805,-94.238
1678025578.030,-84.473,-45.898,-11.230,-43.945,20.020
1678025578.034,-107.422,-41.016,-16.113,-80.078,3.418
1678025578.037,-113.281,-40.527,-10.742,-104.980,-167.969
1678025578.041,-81.543,-39.062,-7.324,-102.539,3.906
1678025578.045,-61.523,-30.762,-26.367,-93.750,97.168
1678025578.049,-92.773,-28.809,-29.297,-97.168,-73.242
1678025578.053,-128.418,-36.133,-20.508,-99.609,-135.254
1678025578.057,-173.828,-41.992,-8.301,-139.160,-94.727
1678025578.061,-188.965,-36.621,1.953,-157.227,-62.012
1678025578.065,-166.504,-33.203,7.812,-128.906,-58.594
1678025578.069,-169.922,-39.062,4.395,-150.391,112.793
1678025578.073,-195.312,-35.645,-5.371,-196.777,229.004
1678025578.077,-221.680,-39.551,-2.441,-205.566,33.203
1678025578.081,-223.633,-54.688,3.906,-195.801,-73.242
1678025578.084,-197.754,-43.457,3.906,-144.531,118.652
1678025578.088,-177.734,-34.180,11.230,-135.742,276.855
1678025578.092,-207.031,-39.551,22.949,-185.059,-30.273
1678025578.096,-212.891,-52.246,23.926,-181.641,-199.219
1678025578.100,-208.008,-62.988,15.625,-184.082,-191.895
1678025578.100,-202.148,-65.430,10.742,-173.340,-95.703
1678025578.104,-195.312,-56.152,0.000,-149.902,-45.410
1678025578.108,-219.727,-42.480,-6.348,-163.574,-97.656
1678025578.112,-203.613,-50.781,2.441,-163.574,-142.578
1678025578.116,-168.457,-52.734,3.418,-144.043,-70.801
1678025578.120,-139.160,-57.129,-7.324,-126.465,35.156
1678025578.124,-115.723,-67.871,-21.484,-99.121,31.250
1678025578.127,-135.742,-57.129,-15.137,-95.215,267.578
1678025578.131,-146.484,-52.246,-3.906,-86.426,190.918
1678025578.135,-112.305,-56.641,-9.766,-69.336,-163.574
1678025578.139,-70.801,-57.617,-19.531,-70.312,-154.785
1678025578.143,-38.086,-62.012,-26.367,-37.109,-40.527
1678025578.160,-52.246,-64.453,-24.902,-19.531,14.160
1678025578.164,-63.965,-68.359,-38.574,-42.480,-155.273
1678025578.168,-21.973,-62.012,-53.711,-43.945,-173.828
1678025578.172,0.000,-57.617,-58.105,-10.742,0.977
1678025578.176,6.348,-59.570,-58.594,7.812,-8.789
1678025578.180,1.953,-57.129,-51.270,10.254,-62.012
1678025578.184,-4.395,-61.523,-48.340,2.441,37.109
1678025578.187,-5.371,-71.289,-50.293,1.953,230.469
1678025578.191,9.766,-78.613,-56.641,-8.789,-47.363
1678025578.195,35.645,-77.148,-62.012,2.930,-195.801
1678025578.199,31.738,-72.266,-52.246,36.133,13.184
1678025578.203,1.465,-81.055,-52.246,26.855,0.000
1678025578.190,2.441,-89.844,-52.246,1.953,-190.918
1678025578.194,42.969,-74.707,-58.105,12.695,-161.621
1678025578.198,52.734,-68.359,-69.336,20.996,-95.215
1678025578.202,41.504,-70.801,-60.059,32.227,-102.051
1678025578.206,20.020,-62.500,-50.293,18.555,-154.785
1678025578.210,18.066,-64.941,-51.758,2.441,-93.262
1678025578.214,28.809,-73.730,-53.223,7.324,66.895
1678025578.217,56.152,-57.129,-49.805,24.414,1.953
1678025578.221,63.965,-55.176,-46.387,52.246,-66.406
1678025578.225,45.898,-71.289,-42.480,42.480,-84.961
1678025578.229,29.297,-74.707,-41.504,31.738,56.641
1678025578.233,28.320,-73.242,-39.062,37.109,62.988
1678025578.235,68.359,-76.172,-53.223,42.969,-93.750
1678025578.239,90.332,-68.848,-72.266,39.551,13.672
1678025578.243,27.344,-62.500,-61.035,17.090,74.707
1678025578.247,8.301,-61.035,-66.406,10.742,-108.398
1678025578.251,42.969,-62.012,-65.430,31.738,-225.586
1678025578.255,76.660,-62.012,-49.316,50.293,-1.465
1678025578.259,70.312,-61.523,-49.805,67.871,227.539
1678025578.262,28.320,-67.871,-51.270,53.711,-37.598
1678025578.266,37.109,-69.824,-52.246,47.363,-265.625
1678025578.270,52.734,-70.312,-55.176,55.664,-113.770
1678025578.274,60.547,-74.707,-54.199,51.270,-6.836
1678025578.278,64.941,-80.078,-50.781,62.500,-35.156
1678025578.310,41.992,-72.266,-51.758,43.457,-150.391
1678025578.314,41.504,-63.965,-54.688,30.273,-146.484
1678025578.318,47.852,-66.406,-64.941,39.062,-100.098
1678025578.322,45.898,-71.777,-56.152,53.711,-188.477
1678025578.326,49.805,-72.754,-47.363,87.891,-122.070
1678025578.330,44.922,-58.594,-48.828,77.148,64.453
1678025578.334,24.414,-56.152,-38.574,43.945,-43.945
1678025578.337,16.113,-54.199,-31.738,38.086,-259.277
1678025578.341,42.969,-58.105,-27.832,73.730,-135.742
1678025578.345,73.242,-68.848,-30.762,94.727,128.906
1678025578.349,72.754,-62.988,-36.133,70.801,77.148
1678025578.353,29.785,-60.547,-36.133,47.852,-123.535
1678025578.340,18.555,-61.523,-39.062,30.273,-86.914
1678025578.344,48.828,-70.312,-41.016,42.969,249.512
1678025578.348,66.406,-74.707,-43.945,56.641,173.828
1678025578.352,49.316,-75.684,-41.992,27.344,-72.266
1678025578.356,9.277,-79.102,-50.781,3.418,-25.879
1678025578.360,15.137,-76.172,-58.594,10.742,11.719
1678025578.364,55.664,-83.008,-47.363,29.297,-39.551
1678025578.367,42.969,-79.102,-42.480,58.594,-95.703
1678025578.371,1.465,-79.590,-42.969,29.297,44.434
1678025578.375,-22.949,-84.473,-44.434,-21.973,117.676
1678025578.379,-13.184,-69.336,-32.227,-20.020,-125.000
1678025578.383,3.906,-72.266,-34.180,6.836,-179.688
1678025578.385,16.602,-70.801,-41.992,32.715,84.961
1678025578.389,24.902,-65.918,-39.062,53.223,220.703
1678025578.393,0.488,-72.266,-42.969,20.996,-124.512
1678025578.397,-14.648,-80.566,-46.387,-20.996,-177.734
1678025578.401,-4.883,-86.914,-47.363,-8.789,-75.684
1678025578.405,-3.418,-76.660,-46.387,21.973,-57.129
1678025578.409,-8.301,-68.848,-41.504,32.715,-54.199
1678025578.412,-16.602,-66.895,-40.039,5.371,-126.953
1678025578.416,-17.090,-69.336,-44.922,-31.250,-20.996
1678025578.420,-16.113,-72.754,-48.340,-11.719,-32.715
1678025578.424,-21.484,-77.637,-49.316,16.113,-145.508
1678025578.428,-16.113,-79.102,-42.480,16.113,-49.805
1678025578.446,-37.598,-73.730,-39.551,0.000,264.160
1678025578.450,-41.016,-67.383,-41.016,-9.277,216.309
1678025578.454,-33.203,-75.195,-44.434,-12.207,-162.598
1678025578.458,-24.902,-87.891,-51.270,-6.348,-88.379
1678025578.462,-9.766,-72.266,-62.988,16.113,11.719
1678025578.466,-23.438,-66.406,-57.617,0.488,17.578
1678025578.470,-38.086,-83.496,-37.109,-34.180,-63.477
1678025578.473,-30.273,-68.359,-29.785,-16.602,-52.246
1678025578.477,-11.719,-63.477,-32.227,2.441,111.816
1678025578.481,1.953,-78.613,-33.691,2.441,-48.828
1678025578.485,-8.301,-78.613,-38.574,-14.648,-104.492
1678025578.489,-22.949,-73.730,-42.969,-41.016,-51.270
1678025578.475,-43.945,-74.219,-38.086,-39.551,-122.559
1678025578.479,-29.785,-90.820,-36.133,-3.418,-178.223
1678025578.483,-10.742,-86.914,-44.434,26.367,-84.473
1678025578.487,-37.598,-63.965,-46.387,-10.742,1.465
1678025578.491,-57.617,-65.918,-40.039,-52.246,-139.648
1678025578.495,-46.875,-81.543,-55.176,-50.781,-204.590
1678025578.499,-19.531,-86.426,-58.594,-36.133,9.766
1678025578.502,10.742,-73.242,-41.992,-18.066,119.141
1678025578.506,-8.301,-65.918,-45.898,-19.043,3.418
1678025578.510,-42.480,-73.730,-45.898,-45.410,-153.809
1678025578.514,-45.898,-67.871,-37.109,-50.293,-168.945
1678025578.518,-19.531,-56.641,-52.246,-23.438,24.414
1678025578.520,-7.812,-67.871,-67.871,-7.812,75.195
1678025578.524,-23.926,-73.730,-53.711,-14.160,-8.789
1678025578.528,-37.598,-64.453,-22.461,-33.691,-80.078
1678025578.532,-40.527,-62.012,-8.789,-21.484,188.477
1678025578.536,-28.320,-60.547,-19.043,-6.348,312.012
1678025578.540,-15.137,-64.453,-25.391,-0.977,54.688
1678025578.544,-9.277,-71.289,-24.902,12.207,158.691
1678025578.547,-23.438,-63.477,-37.109,-5.371,162.109
1678025578.551,-27.344,-64.453,-42.969,-39.062,-237.305
1678025578.555,-3.418,-68.848,-35.645,-18.066,-285.645
1678025578.559,20.020,-75.195,-42.480,11.230,-9.766
1678025578.563,22.949,-79.590,-37.109,19.531,56.641
1678025578.565,-16.602,-61.523,-34.668,6.836,-165.039
1678025578.569,-52.246,-50.293,-38.086,-18.555,-307.617
1678025578.573,-24.902,-59.082,-32.715,-15.625,-208.008
1678025578.577,1.465,-54.688,-38.086,-9.277,-68.359
1678025578.581,16.113,-49.316,-40.039,13.672,-101.562
1678025578.585,-1.953,-65.918,-38.574,-10.254,-136.719
1678025578.589,-24.902,-74.707,-26.855,-26.855,105.957
1678025578.592,6.348,-68.848,-16.602,-6.836,45.410
1678025578.596,8.301,-58.594,-22.461,2.930,-211.426
1678025578.600,-3.906,-62.012,-24.414,18.066,-53.223
1678025578.604,-1.953,-63.477,-23.438,-4.395,-73.730
1678025578.608,-16.113,-56.152,-20.996,3.418,-224.121
1678025578.612,-15.137,-62.012,-21.973,-2.441,-197.266
1678025578.616,1.465,-56.152,-32.227,-20.020,-19.043
1678025578.620,18.066,-40.039,-36.621,3.906,219.238
1678025578.624,-1.953,-46.875,-32.227,0.977,6.836
1678025578.628,-41.504,-52.246,-29.297,-26.367,-268.066
1678025578.632,-26.855,-42.480,-21.973,-19.531,-84.961
1678025578.636,19.043,-48.340,-27.344,15.137,106.934
1678025578.639,19.531,-58.594,-43.457,-1.465,-7.812
1678025578.643,-3.906,-57.617,-37.109,-14.648,-143.555
1678025578.647,-30.762,-66.406,-28.320,-34.668,-65.430
1678025578.651,-37.598,-76.172,-30.762,-47.363,-23.438
1678025578.655,-20.508,-65.430,-25.879,-20.996,-153.809
1678025578.670,0.977,-61.035,-16.113,2.930,-73.242
1678025578.674,-25.879,-69.824,-16.602,-8.301,1.465
1678025578.678,-59.570,-64.453,-28.320,-31.738,-120.605
1678025578.682,-54.199,-61.035,-28.809,-26.367,-217.773
1678025578.686,-24.414,-68.359,-32.715,-10.742,-94.238
1678025578.690,22.949,-77.637,-38.086,7.324,277.832
1678025578.694,17.578,-76.172,-32.227,11.719,280.273
1678025578.697,-35.156,-66.406,-34.668,-23.438,-159.180
1678025578.701,-57.129,-63.965,-37.109,-31.738,-263.184
1678025578.705,-40.039,-64.453,-43.457,-20.508,-38.086
1678025578.709,-6.348,-63.477,-48.828,0.977,31.250
1678025578.713,6.836,-63.965,-39.551,7.812,-100.586
1678025578.715,-30.762,-63.477,-33.691,-31.738,-96.191
1678025578.719,-52.246,-70.801,-29.297,-36.133,-32.715
1678025578.723,-26.855,-73.730,-16.602,-0.977,-172.852
1678025578.727,-3.906,-67.871,-27.832,-4.883,-152.832
1678025578.731,-12.207,-77.148,-46.387,-18.555,2.930
1678025578.735,-45.898,-85.449,-39.062,-22.949,-18.555
1678025578.739,-62.012,-84.473,-41.992,-33.691,-57.617
1678025578.742,-37.598,-81.543,-45.898,-24.902,-54.199
1678025578.746,-4.883,-86.426,-36.133,-0.977,128.906
1678025578.750,0.977,-90.332,-37.109,9.766,381.348
1678025578.754,-25.879,-87.402,-44.922,-25.391,32.715
1678025578.758,-54.688,-83.496,-44.922,-36.133,-270.996
1678025578.760,-50.781,-83.496,-49.805,-17.578,-206.543
1678025578.764,-14.160,-82.520,-46.875,-3.906,-139.160
1678025578.768,-4.883,-74.219,-31.250,-0.488,-51.270
1678025578.772,-28.320,-63.965,-23.926,-25.879,-38.086
1678025578.776,-54.199,-55.664,-24.902,-44.434,-97.168
1678025578.780,-49.805,-64.941,-42.480,-31.250,-95.703
1678025578.784,-10.742,-70.801,-58.594,-25.391,-17.578
1678025578.787,6.348,-66.406,-49.316,-16.113,-50.781
1678025578.791,-40.039,-76.172,-31.738,-26.855,159.180
1678025578.795,-88.867,-73.242,-24.902,-60.059,208.496
1678025578.799,-75.684,-71.777,-40.527,-64.453,-172.363
1678025578.803,-48.828,-78.125,-52.246,-44.922,-99.121
1678025578.805,-26.855,-73.242,-39.062,-16.113,87.891
1678025578.809,-29.785,-68.848,-28.809,-31.250,-58.594
1678025578.813,-50.293,-72.754,-35.645,-51.758,-225.098
1678025578.817,-68.848,-72.754,-40.039,-56.152,-105.957
1678025578.821,-49.316,-62.500,-35.156,-46.875,60.059
1678025578.825,-7.812,-57.129,-29.785,-14.160,69.824
1678025578.829,-13.184,-57.617,-24.414,-16.602,16.602
1678025578.832,-26.367,-58.594,-21.484,-43.457,22.949
1678025578.836,-42.480,-67.871,-18.066,-34.668,86.914
1678025578.840,-24.414,-75.684,-37.598,-12.207,-69.824
1678025578.844,9.766,-67.383,-41.992,-0.977,-86.426
1678025578.848,-28.320,-62.988,-15.137,-1.465,62.012
1678025578.853,-50.781,-60.547,-3.906,-15.137,-51.758
1678025578.857,-45.410,-58.105,-13.672,-39.551,-239.746
1678025578.861,-25.391,-61.523,-25.391,-20.020,-120.605
1678025578.865,0.977,-68.848,-19.043,20.508,-45.410
1678025578.869,1.465,-65.430,-20.508,0.488,-93.750
1678025578.873,-35.156,-71.777,-31.250,-28.809,-49.316
1678025578.877,-49.805,-82.520,-24.902,-40.039,-51.270
1678025578.880,-10.254,-59.082,-21.484,-17.090,156.250
1678025578.884,13.184,-55.176,-24.902,0.000,198.242
1678025578.888,-7.812,-58.594,-24.902,-37.598,-8.789
1678025578.892,-48.828,-51.270,-32.227,-92.773,-63.965
1678025578.896,-55.664,-59.570,-32.715,-113.770,-98.145
1678025578.896,-29.297,-62.988,-41.504,-114.258,-73.730
1678025578.900,-3.906,-69.336,-50.293,-81.543,-25.391
1678025578.904,-13.672,-76.172,-46.875,-63.477,92.773
1678025578.908,-43.945,-68.848,-47.363,-89.355,116.211
1678025578.912,-34.668,-65.918,-38.574,-111.328,-110.352
1678025578.916,-9.277,-68.359,-37.109,-106.445,-169.434
1678025578.920,11.719,-66.406,-41.504,-67.871,104.004
1678025578.923,2.930,-67.383,-42.480,-54.688,467.285
1678025578.927,-31.250,-73.242,-34.668,-81.543,228.516
1678025578.931,-50.293,-72.754,-31.738,-109.863,-209.961
1678025578.935,-30.762,-72.754,-26.855,-89.355,-179.199
1678025578.939,-8.301,-79.102,-28.320,-44.434,-90.820
1678025578.940,-2.441,-70.312,-39.062,-27.344,-27.344
1678025578.944,-20.508,-59.082,-22.949,-19.043,-97.168
1678025578.948,-45.410,-54.199,-41.016,-64.941,-168.457
1678025578.952,-32.715,-61.523,-57.129,-79.590,-172.852
1678025578.956,-7.324,-75.684,-37.109,-34.180,-167.480
1678025578.960,-12.695,-63.477,-23.926,-4.395,-26.855
1678025578.964,-24.414,-45.410,2.930,-9.277,199.219
1678025578.967,-55.664,-54.199,-8.301,-65.430,202.148
1678025578.971,-87.402,-64.453,-34.668,-104.492,-178.711
1678025578.975,-72.754,-63.477,-31.250,-96.191,-136.719
1678025578.979,-47.363,-59.570,-27.344,-98.633,30.762
1678025578.983,-57.617,-49.316,-26.367,-113.281,-69.824
1678025578.986,-90.332,-45.898,-28.809,-119.629,-117.188
1678025578.990,-113.770,-49.805,-36.133,-119.141,-56.641
1678025578.994,-76.172,-50.293,-36.621,-105.469,28.320
1678025578.998,-46.387,-52.734,-8.301,-81.055,-10.254
1678025579.002,-84.961,-32.715,-20.996,-105.469,-55.664
1678025579.006,-120.117,-47.363,-63.965,-144.043,12.695
1678025579.010,-149.414,-54.199,-40.527,-159.668,39.062
1678025579.013,-149.902,-16.113,-9.277,-164.062,26.367
1678025579.017,-113.281,-26.855,-6.348,-137.695,29.785
1678025579.021,-119.141,-31.250,1.465,-129.395,171.387
1678025579.025,-142.578,-16.113,37.598,-162.598,104.492
1678025579.029,-168.457,-4.883,5.371,-201.660,-190.430
1678025579.045,-156.738,-0.488,-19.531,-187.012,-176.270
1678025579.049,-134.277,-43.457,28.809,-153.809,43.457
1678025579.053,-152.832,-65.918,21.973,-165.039,24.902
1678025579.057,-164.062,-47.363,-31.738,-180.664,-211.426
1678025579.061,-160.645,24.902,-14.160,-177.246,-200.195
1678025579.065,-143.555,46.387,43.457,-152.344,122.559
1678025579.069,-197.266,-9.766,41.504,-195.801,256.348
1678025579.072,-270.020,-24.902,54.199,-285.156,21.973
1678025579.076,-218.750,3.906,40.039,-270.508,-65.430
1678025579.080,-172.852,13.672,-9.766,-197.754,62.988
1678025579.084,-158.691,-31.250,41.992,-151.855,34.668
1678025579.088,-53.223,-34.668,32.227,-70.312,-110.840
1678025579.090,-26.367,25.391,-69.824,-48.340,76.172
1678025579.094,-92.773,81.055,116.211,-101.562,67.871
1678025579.098,-125.488,107.422,265.137,-118.652,-217.285
1678025579.102,-36.133,70.312,135.254,-32.715,-218.750
1678025579.106,11.230,30.762,178.711,10.254,-61.035
1678025579.110,-138.672,116.699,225.098,-153.809,32.715
1678025579.114,-253.906,197.266,199.219,-279.297,42.480
1678025579.117,-224.609,197.754,213.379,-263.184,-123.535
1678025579.121,-128.906,218.262,256.348,-213.867,-136.719
1678025579.125,-44.434,271.484,320.312,-171.875,106.445
1678025579.129,1.953,305.176,410.156,-127.930,104.980
1678025579.133,-10.254,345.703,494.629,-129.395,-46.387
1678025579.135,-12.207,402.344,586.426,-129.883,-120.605
1678025579.139,-6.348,445.312,750.977,-97.656,-133.789
1678025579.143,-0.488,467.773,923.340,-67.383,-188.965
1678025579.147,41.016,479.980,972.168,-33.203,-100.586
1678025579.151,35.645,537.598,964.355,-21.973,-24.414
1678025579.155,-1.465,593.262,968.750,-43.945,3.906
1678025579.159,-27.832,591.797,968.750,-61.523,-62.988
1678025579.162,-29.785,561.523,968.750,-50.781,-148.926
1678025579.166,-3.906,529.785,968.750,16.602,147.461
1678025579.170,13.184,522.949,968.750,66.895,198.730
1678025579.174,-0.977,486.328,968.750,49.316,-133.301
1678025579.178,-52.734,439.453,968.750,21.973,-204.102
1678025579.181,-45.410,416.992,968.750,49.805,-87.402
1678025579.185,7.324,390.625,968.750,142.578,4.883
1678025579.189,13.184,355.957,968.750,152.832,-52.246
1678025579.193,6.836,314.941,969.238,135.254,-88.867
1678025579.197,-15.625,277.344,966.797,134.277,83.496
1678025579.201,-10.742,256.836,967.773,116.211,21.484
1678025579.205,43.457,220.215,963.379,156.738,-92.773
1678025579.208,38.086,186.035,865.234,196.777,92.773
1678025579.212,11.230,178.711,768.555,187.988,156.250
1678025579.216,-2.441,156.250,727.051,160.156,-107.422
1678025579.220,-2.930,116.699,644.531,179.199,-182.617
1678025579.224,16.113,75.684,559.082,179.688,1.465
1678025579.240,37.598,50.293,507.324,170.410,45.410
1678025579.244,27.344,37.598,454.102,156.738,-96.191
1678025579.248,20.020,26.367,386.230,130.859,-100.098
1678025579.252,38.574,-7.324,322.754,168.457,31.738
1678025579.256,63.477,-29.785,266.602,196.777,16.602
1678025579.260,79.102,-23.926,225.098,179.688,104.980
1678025579.264,53.711,-38.574,186.035,162.109,119.629
1678025579.267,30.762,-75.195,139.160,152.344,190.918
1678025579.271,50.293,-92.773,101.074,159.180,181.152
1678025579.275,71.777,-73.730,50.293,171.387,-112.305
1678025579.279,58.105,-67.871,-15.137,161.621,-56.641
1678025579.283,26.367,-93.262,-28.320,136.230,-73.242
1678025579.270,21.973,-127.930,-66.406,119.629,-132.812
1678025579.274,36.621,-138.672,-207.520,123.047,-157.227
1678025579.278,75.684,-136.719,-335.938,153.809,-94.727
1678025579.282,74.707,-146.484,-421.875,154.297,125.488
1678025579.286,41.016,-145.020,-478.516,125.488,-18.555
1678025579.290,27.344,-147.949,-515.625,94.727,-235.352
1678025579.294,38.574,-164.551,-550.781,89.844,-74.707
1678025579.297,72.754,-167.480,-583.496,120.117,50.781
1678025579.301,67.871,-167.969,-599.121,137.695,-18.555
1678025579.305,25.391,-176.758,-620.117,107.910,-129.883
1678025579.309,-5.859,-182.129,-658.691,85.938,-26.855
1678025579.313,9.766,-162.109,-656.250,100.586,128.418
1678025579.330,32.227,-143.066,-642.090,97.168,-32.227
1678025579.334,47.852,-158.691,-638.184,105.957,-71.289
1678025579.338,62.988,-171.387,-635.254,117.676,-109.375
1678025579.342,23.926,-165.039,-649.902,70.801,-238.281
1678025579.346,2.930,-161.621,-649.902,39.551,-246.094
1678025579.350,46.387,-167.480,-630.371,53.711,-224.609
1678025579.354,71.289,-169.434,-609.375,82.520,144.043
1678025579.357,61.035,-165.039,-593.750,88.379,306.152
1678025579.361,17.090,-168.945,-585.938,46.387,-133.301
1678025579.365,4.883,-178.711,-571.777,41.016,-227.539
1678025579.369,14.648,-174.316,-533.203,61.035,-69.824
1678025579.373,36.133,-165.039,-516.602,66.406,-58.594
1678025579.376,39.062,-175.781,-522.461,53.711,-69.336
1678025579.380,-1.953,-172.852,-502.930,20.020,-4.395
1678025579.384,-20.508,-163.086,-488.770,9.766,-3.906
1678025579.388,6.348,-161.621,-488.281,43.945,-142.578
1678025579.392,49.805,-162.598,-475.098,71.289,-126.465
1678025579.396,60.547,-162.598,-482.422,67.871,0.488
1678025579.400,36.133,-164.551,-469.727,38.086,28.320
1678025579.403,5.371,-171.875,-431.641,17.578,-107.910
1678025579.407,33.691,-155.273,-432.129,27.344,-187.988
1678025579.411,49.805,-141.113,-438.477,33.691,41.504
1678025579.415,29.297,-157.715,-441.406,34.668,152.344
1678025579.419,8.789,-167.969,-432.617,19.531,-79.590
1678025579.420,-4.395,-171.387,-401.855,13.184,-231.934
1678025579.424,15.625,-164.551,-401.367,33.203,-47.852
1678025579.428,31.738,-157.715,-406.250,54.688,145.996
1678025579.432,48.340,-162.109,-372.070,63.965,-14.160
1678025579.436,25.879,-163.086,-364.746,33.691,-92.773
1678025579.440,-7.812,-153.320,-361.816,19.043,-57.129
1678025579.444,-6.348,-150.879,-346.680,20.020,23.926
1678025579.447,20.508,-160.156,-344.238,22.949,-20.020
1678025579.451,47.363,-156.738,-340.332,49.805,-32.715
1678025579.455,21.973,-152.344,-330.566,41.992,200.684
1678025579.459,-18.555,-151.855,-329.102,-9.277,103.027
1678025579.463,9.277,-152.344,-330.566,-9.277,-194.824
1678025579.465,38.086,-143.555,-321.777,37.598,2.441
1678025579.469,19.043,-144.043,-324.219,29.785,308.594
1678025579.473,-3.906,-153.809,-324.219,-0.488,118.652
1678025579.477,-20.020,-143.066,-301.270,-21.484,-161.133
1678025579.481,-20.020,-142.090,-291.016,-24.902,-85.449
1678025579.485,2.441,-145.020,-291.016,-3.418,65.918
1678025579.489,7.324,-148.438,-289.062,6.836,111.816
1678025579.492,-6.836,-148.926,-286.133,0.488,-61.523
1678025579.496,-36.621,-142.578,-281.738,-27.344,-76.660
1678025579.500,-40.039,-144.043,-279.785,-31.250,89.355
1678025579.504,-15.625,-147.461,-266.602,-15.137,-125.977
1678025579.508,2.930,-146.973,-262.695,8.789,-140.137
1678025579.511,-0.977,-145.996,-271.484,16.113,-27.344
1678025579.515,-17.578,-149.902,-243.652,-7.812,-153.809
1678025579.519,-14.648,-146.973,-221.191,-21.484,-138.672
1678025579.523,25.879,-139.648,-232.422,5.859,-92.285
1678025579.527,56.152,-141.602,-240.234,38.086,18.066
1678025579.531,30.273,-150.391,-216.309,33.203,27.344
1678025579.535,-16.602,-158.691,-199.219,1.953,-63.477
1678025579.538,-21.484,-145.020,-197.266,-16.602,-208.008
1678025579.542,3.418,-140.137,-198.242,5.371,-21.973
1678025579.546,22.949,-136.230,-208.008,16.602,128.418
1678025579.550,24.414,-125.977,-210.938,6.348,-108.887
1678025579.554,-7.812,-129.395,-200.195,-10.254,-70.801
1678025579.555,-32.715,-138.672,-197.266,-14.160,-45.898
1678025579.559,-12.207,-147.461,-203.613,-3.418,-149.414
1678025579.563,29.785,-143.066,-190.430,23.926,-175.293
1678025579.567,51.758,-133.789,-179.688,41.016,-26.855
1678025579.571,27.344,-131.348,-177.734,18.555,100.586
1678025579.575,-3.906,-128.418,-174.805,-0.488,-46.875
1678025579.579,12.695,-130.859,-177.246,17.578,-119.141
1678025579.582,36.621,-138.184,-178.223,29.297,99.609
1678025579.586,25.391,-142.578,-169.922,21.973,352.539
1678025579.590,5.859,-134.277,-164.551,4.395,68.848
1678025579.594,-6.348,-131.836,-164.062,-12.207,-239.258
1678025579.598,-2.441,-141.113,-153.809,-4.883,-145.020
1678025579.600,22.461,-144.043,-149.902,3.418,-73.242
1678025579.604,54.199,-137.695,-148.926,39.551,-45.898
1678025579.608,32.715,-137.695,-141.602,19.531,-84.473
1678025579.612,-6.348,-144.043,-144.531,-10.742,-121.094
1678025579.616,0.000,-142.578,-148.438,1.465,-144.043
1678025579.620,47.363,-146.484,-149.902,9.766,-39.551
1678025579.624,69.336,-150.879,-147.461,26.855,107.910
1678025579.627,36.133,-137.207,-142.090,19.043,296.875
1678025579.631,22.461,-134.277,-143.555,-2.930,221.191
1678025579.635,3.906,-145.020,-141.602,-7.812,-186.035
1678025579.639,21.484,-155.273,-133.789,31.738,-166.016
1678025579.643,53.711,-156.738,-128.418,58.105,-60.547
1678025579.645,31.738,-150.391,-125.977,39.551,-71.777
1678025579.649,21.484,-156.250,-124.023,20.020,-148.438
1678025579.653,25.879,-155.273,-115.234,41.016,-133.789
1678025579.657,43.945,-143.066,-120.117,62.500,34.180
1678025579.661,62.012,-136.230,-128.418,72.266,1.953
1678025579.665,47.852,-141.113,-122.559,60.059,-49.316
1678025579.669,25.879,-138.184,-120.605,20.508,72.266
1678025579.672,40.039,-134.277,-116.211,27.832,108.398
1678025579.676,59.082,-139.160,-121.094,37.598,-90.332
1678025579.680,56.641,-138.184,-136.719,53.711,-84.473
1678025579.684,41.992,-150.879,-132.324,58.105,29.297
1678025579.688,11.719,-151.855,-109.863,25.879,-81.055
1678025579.690,24.414,-139.160,-107.910,17.090,-248.535
1678025579.694,60.059,-142.578,-106.445,39.062,-132.324
1678025579.698,51.758,-144.043,-107.910,51.758,-12.207
1678025579.702,50.293,-141.113,-112.305,50.781,-12.695
1678025579.706,40.039,-149.414,-99.609,36.621,-97.168
1678025579.710,29.297,-155.762,-101.074,23.926,-169.922
1678025579.714,44.434,-152.832,-114.258,27.344,103.516
1678025579.717,44.434,-145.996,-112.305,39.062,238.770
1678025579.721,47.852,-138.672,-111.328,39.551,-12.207
1678025579.725,32.715,-149.414,-111.328,0.488,-79.102
1678025579.729,9.277,-148.438,-102.051,0.000,-116.699
1678025579.733,26.367,-139.160,-104.004,34.180,-175.781
1678025579.751,44.434,-140.625,-106.934,31.738,2.930
1678025579.755,48.828,-142.090,-97.656,33.203,127.441
1678025579.759,19.531,-149.414,-95.703,34.668,131.348
1678025579.763,16.113,-150.391,-93.262,17.090,-52.734
1678025579.767,29.785,-150.879,-96.191,3.906,-320.801
1678025579.771,42.969,-155.762,-106.445,37.598,-60.547
1678025579.775,67.383,-144.531,-104.492,53.711,222.656
1678025579.778,22.461,-145.996,-95.703,14.160,-46.387
1678025579.782,-1.465,-149.902,-83.496,3.418,-281.250
1678025579.786,35.156,-130.859,-81.055,20.020,-89.355
1678025579.790,62.988,-125.977,-83.496,46.387,118.164
1678025579.794,53.223,-139.160,-83.984,62.500,27.832
1678025579.797,34.180,-139.160,-84.961,44.922,-45.410
1678025579.801,15.137,-126.465,-97.168,25.391,-79.102
1678025579.805,21.973,-128.418,-90.820,34.180,-119.141
1678025579.809,50.781,-130.859,-77.148,51.758,-169.922
1678025579.813,53.711,-140.137,-82.520,59.082,-81.055
1678025579.817,37.109,-135.254,-82.520,60.547,14.648
1678025579.821,24.414,-122.070,-82.520,25.391,-37.598
1678025579.824,24.414,-127.441,-71.289,10.254,-234.375
1678025579.828,40.527,-130.371,-67.871,56.641,-259.277
1678025579.832,65.430,-125.000,-84.473,78.613,146.973
1678025579.836,46.875,-132.324,-85.449,61.035,211.426
1678025579.840,15.137,-140.625,-78.125,38.574,-170.410
1678025579.840,6.836,-130.859,-82.520,24.902,-145.996
1678025579.844,40.527,-125.488,-92.285,29.297,39.062
1678025579.848,57.129,-125.488,-99.609,47.363,-8.789
1678025579.852,33.691,-123.047,-87.402,54.199,-60.547
1678025579.856,1.465,-119.629,-73.242,28.809,10.742
1678025579.860,-20.996,-117.676,-81.055,-10.254,-29.297
1678025579.864,-2.930,-121.094,-82.031,-10.742,-72.754
1678025579.867,26.367,-120.605,-81.055,22.461,-45.410
1678025579.871,40.527,-116.211,-84.473,45.410,24.902
1678025579.875,17.090,-113.770,-78.613,30.762,242.676
1678025579.879,-6.348,-120.605,-73.242,6.836,20.508
1678025579.883,21.484,-120.117,-77.637,16.113,-265.137
1678025579.888,44.434,-121.094,-85.938,41.016,-106.445
1678025579.892,50.293,-125.000,-81.543,48.340,16.113
1678025579.896,22.949,-108.887,-80.078,4.395,-113.281
1678025579.900,-14.648,-96.680,-75.684,-26.855,-208.008
1678025579.904,-1.953,-107.910,-65.918,-13.184,-151.855
1678025579.908,19.531,-120.117,-72.266,21.484,-17.578
1678025579.912,27.832,-112.793,-70.801,27.832,13.184
1678025579.915,-11.719,-109.375,-68.848,-3.418,-47.363
1678025579.919,-22.949,-101.562,-81.543,-28.320,137.695
1678025579.923,0.000,-92.285,-83.984,-19.043,128.418
1678025579.927,-7.324,-94.727,-77.637,-6.836,-149.414
1678025579.931,9.766,-98.633,-72.266,-2.930,-71.289
1678025579.930,-6.348,-99.121,-68.848,-6.348,66.406
1678025579.934,-21.973,-93.262,-62.500,-19.043,-102.539
1678025579.938,-8.789,-87.402,-63.477,-19.043,-229.980
1678025579.942,3.906,-87.891,-67.383,-1.953,-70.801
1678025579.946,31.738,-85.449,-59.570,10.742,88.867
1678025579.950,5.859,-85.449,-60.059,-7.324,28.809
1678025579.954,-33.203,-91.309,-63.965,-25.879,-120.117
1678025579.957,-26.367,-83.496,-59.082,-12.207,-128.418
1678025579.961,9.766,-83.008,-65.918,-3.418,273.926
1678025579.965,24.902,-93.750,-67.871,11.719,418.457
1678025579.969,-4.395,-79.590,-67.871,-5.859,19.531
1678025579.973,-28.809,-71.289,-73.242,-36.621,-161.133
1678025579.975,-14.160,-73.730,-69.336,-32.227,-124.512
1678025579.979,5.371,-70.801,-65.430,-13.672,-122.559
1678025579.983,9.277,-69.336,-74.219,-8.789,-105.469
1678025579.987,-4.883,-85.449,-78.125,-10.254,-68.848
1678025579.991,-26.855,-84.961,-70.801,-21.484,-132.812
1678025579.995,-28.809,-58.594,-72.266,-29.785,-117.676
1678025579.999,-12.207,-54.688,-67.871,-15.137,-129.395
1678025580.002,2.930,-61.523,-65.918,4.883,84.473
1678025580.006,-20.020,-54.199,-77.148,-8.789,149.414
1678025580.010,-40.039,-41.504,-73.242,-33.691,-185.059
1678025580.014,-44.434,-57.617,-60.059,-26.367,-207.031
1678025580.018,-19.531,-58.105,-66.895,-15.137,-55.664
1678025580.020,10.254,-52.734,-70.801,-3.906,67.383
1678025580.024,8.301,-50.781,-59.570,-12.695,-18.066
1678025580.028,-20.508,-35.156,-44.922,-29.297,-92.773
1678025580.032,-38.574,-25.391,-59.082,-25.879,57.617
1678025580.036,-19.043,-28.809,-77.148,-30.762,8.301
1678025580.040,-12.695,-44.922,-56.641,-12.695,-21.484
1678025580.044,-32.227,-39.551,-42.480,-0.977,142.578
1678025580.047,-54.199,-41.992,-44.434,-45.898,217.773
1678025580.051,-60.547,-50.293,-46.387,-72.266,-78.125
1678025580.055,-35.645,-27.832,-72.266,-47.852,-238.770
1678025580.059,13.672,-14.648,-80.566,-28.809,-65.918
1678025580.063,29.785,-23.438,-45.898,-21.973,-6.836
1678025580.066,-31.738,-34.180,-30.273,-55.664,-172.363
1678025580.070,-79.102,-25.879,-27.832,-78.125,-218.750
1678025580.074,-57.129,-10.254,-36.133,-62.012,-69.824
1678025580.078,-26.367,-6.836,-26.855,-37.109,35.156
1678025580.082,-14.160,-1.465,-8.301,-22.949,23.438
1678025580.086,-35.156,-0.488,-5.859,-51.270,-16.113
1678025580.090,-55.176,-2.441,-6.836,-54.199,115.723
1678025580.093,-41.992,7.324,-7.812,-29.785,54.199
1678025580.097,-26.367,18.555,1.465,-30.762,-118.652
1678025580.101,-16.113,28.809,-0.977,-26.855,62.500
1678025580.105,-37.109,26.855,-4.883,-56.152,12.695
1678025580.109,-77.637,22.949,-1.465,-77.637,-169.434
1678025580.110,-62.012,24.902,-4.883,-57.129,-162.598
1678025580.114,-25.391,33.203,-7.324,-35.156,-16.113
1678025580.118,-27.832,38.574,-12.695,-15.625,158.691
1678025580.122,-52.734,47.852,-11.719,-30.273,50.781
1678025580.126,-70.801,53.223,-2.930,-61.523,-169.922
1678025580.130,-56.641,37.109,6.348,-50.781,-41.504
1678025580.134,-38.086,37.598,10.742,-45.898,402.344
1678025580.137,-24.902,50.293,22.461,-35.645,202.637
1678025580.141,-39.062,63.477,22.461,-54.199,-137.695
1678025580.145,-66.895,56.152,16.602,-90.820,-154.297
1678025580.149,-72.754,45.410,26.855,-72.754,-182.129
1678025580.153,-52.734,67.871,32.227,-41.016,-173.340
1678025580.185,-15.625,75.684,29.785,-23.926,-134.766
1678025580.189,-20.508,68.359,29.785,-21.973,-73.242
1678025580.193,-56.641,77.148,21.973,-37.598,-154.785
1678025580.197,-75.684,93.262,17.090,-78.613,-284.180
1678025580.201,-79.102,98.633,34.180,-83.984,-248.535
1678025580.205,-59.082,90.820,35.156,-56.152,-10.742
1678025580.209,-51.758,82.520,35.156,-52.734,164.062
1678025580.212,-64.941,81.543,37.598,-77.148,26.367
1678025580.216,-74.707,83.496,37.109,-83.008,-177.246
1678025580.220,-66.895,82.520,29.785,-69.336,70.312
1678025580.224,-42.969,81.543,22.949,-50.781,217.285
1678025580.228,-32.715,86.426,25.879,-36.621,-2.930
1678025580.215,-65.430,95.215,36.133,-57.129,35.645
1678025580.219,-88.379,93.750,39.062,-79.590,93.262
1678025580.223,-73.242,90.332,37.598,-68.359,-91.309
1678025580.227,-38.086,100.098,47.852,-32.227,-59.570
1678025580.231,-32.715,111.816,42.480,-17.578,125.488
1678025580.235,-71.289,113.281,41.016,-63.477,124.512
1678025580.239,-87.402,109.863,43.457,-90.820,-28.809
1678025580.242,-75.195,93.262,34.668,-67.383,-201.172
1678025580.246,-37.109,92.773,45.410,-39.062,45.410
1678025580.250,-3.906,122.070,41.992,-40.527,140.625
1678025580.254,-44.922,128.906,41.504,-55.176,-88.867
1678025580.258,-91.309,110.352,52.246,-84.473,-223.145
1678025580.261,-68.848,84.473,52.734,-76.660,-53.223
1678025580.265,-44.434,76.660,49.805,-50.293,260.742
1678025580.269,-42.480,105.957,34.668,-75.684,-0.977
1678025580.273,-81.543,137.207,25.391,-104.004,-210.449
1678025580.277,-121.582,130.859,45.410,-120.605,-156.738
1678025580.281,-100.098,123.535,59.570,-108.398,-62.988
1678025580.285,-52.246,119.141,51.758,-76.172,36.133
1678025580.288,-55.664,102.051,39.062,-68.359,82.031
1678025580.292,-94.727,103.027,17.090,-96.680,89.844
1678025580.296,-100.586,113.281,27.832,-99.609,-48.828
1678025580.300,-104.492,131.836,43.457,-94.238,-143.066
1678025580.304,-103.027,126.953,32.715,-109.375,-63.477
1678025580.305,-70.801,115.723,41.992,-58.594,140.137
1678025580.309,-77.637,115.234,63.965,-52.246,51.758
1678025580.313,-107.910,111.328,66.406,-113.770,-239.258
1678025580.317,-107.422,115.723,53.223,-114.258,-172.363
1678025580.321,-76.660,118.164,49.316,-78.125,43.945
1678025580.325,-71.289,119.629,51.758,-67.383,90.820
1678025580.329,-85.938,125.488,45.898,-74.707,-10.254
1678025580.332,-86.914,130.371,44.922,-86.914,-49.316
1678025580.336,-104.492,119.141,38.574,-90.332,108.398
1678025580.340,-122.559,110.840,34.668,-88.379,2.441
1678025580.344,-99.609,126.465,49.316,-79.102,-139.160
1678025580.348,-66.895,144.043,50.293,-78.125,-70.312
1678025580.350,-107.910,154.297,42.480,-112.793,-133.789
1678025580.354,-146.484,147.461,39.062,-122.559,-246.582
1678025580.358,-112.305,145.508,37.109,-100.098,-207.031
1678025580.362,-110.352,149.414,36.133,-107.422,-2.930
1678025580.366,-125.000,149.414,41.504,-111.816,32.715
1678025580.370,-123.047,153.320,39.062,-117.188,-56.641
1678025580.374,-156.738,138.672,36.621,-126.953,-111.816
1678025580.377,-126.953,124.512,42.969,-84.473,41.016
1678025580.381,-54.688,143.066,40.039,-81.543,147.461
1678025580.385,-92.773,164.551,34.180,-118.164,-60.059
1678025580.389,-165.527,165.527,34.180,-124.023,-131.348
1678025580.393,-182.617,167.969,37.109,-154.297,-169.922
1678025580.395,-158.203,173.340,32.715,-187.012,-128.906
1678025580.399,-130.859,173.340,17.578,-160.156,-92.773
1678025580.403,-121.582,176.270,5.859,-129.395,24.414
1678025580.407,-163.086,179.199,5.859,-165.527,172.852
1678025580.411,-202.148,174.316,3.418,-205.566,-85.938
1678025580.415,-187.500,174.316,-3.418,-202.637,-271.484
1678025580.419,-150.879,178.223,-11.719,-171.875,-38.574
1678025580.422,-144.043,186.523,-13.672,-167.969,244.629
1678025580.426,-176.270,192.871,-2.441,-208.984,57.129
1678025580.430,-194.824,197.266,-0.977,-218.262,-201.172
1678025580.434,-184.082,204.102,-3.418,-183.594,-202.637
1678025580.438,-159.668,192.383,12.207,-151.855,-147.949
1678025580.440,-137.695,191.895,4.883,-155.762,-90.332
1678025580.444,-151.367,199.219,0.488,-201.172,-69.824
1678025580.448,-201.660,184.082,8.789,-216.309,-130.859
1678025580.452,-207.520,177.246,4.395,-191.406,-196.777
1678025580.456,-178.711,185.547,6.836,-184.570,-208.984
1678025580.460,-153.809,183.594,11.719,-176.758,-27.832
1678025580.464,-169.922,186.035,10.254,-185.547,263.184
1678025580.467,-217.285,184.570,16.113,-210.938,121.094
1678025580.471,-223.633,165.527,21.484,-183.105,-210.449
1678025580.475,-202.148,166.016,20.020,-169.434,-136.230
1678025580.479,-170.410,195.312,33.203,-184.570,53.223
1678025580.483,-192.871,199.219,27.832,-194.336,-63.965
1678025580.485,-227.051,181.152,25.879,-199.707,-204.102
1678025580.489,-222.656,178.711,34.180,-194.336,-124.023
1678025580.493,-229.004,178.223,33.203,-203.613,-13.672
1678025580.497,-211.426,172.852,39.551,-193.359,-17.578
1678025580.501,-201.660,172.363,35.156,-189.941,-108.887
1678025580.505,-230.957,175.293,32.227,-207.520,11.719
1678025580.509,-238.281,181.152,24.902,-205.078,142.578
1678025580.512,-201.660,160.645,13.672,-179.199,5.859
1678025580.516,-148.926,166.504,25.879,-161.621,-39.062
1678025580.520,-170.410,192.383,28.320,-154.297,32.715
1678025580.524,-234.375,175.781,32.227,-177.246,29.785
1678025580.528,-223.633,178.711,42.480,-214.355,-215.820
1678025580.545,-198.730,184.570,34.180,-203.125,-181.641
1678025580.549,-168.945,174.805,34.668,-161.621,-7.812
1678025580.553,-170.410,169.922,19.531,-150.879,20.508
1678025580.557,-239.258,168.457,-0.977,-191.406,-126.953
1678025580.561,-256.836,166.016,28.320,-223.633,-227.051
1678025580.565,-212.402,171.875,48.340,-194.336,-76.660
1678025580.569,-179.688,165.527,41.504,-177.734,11.230
1678025580.572,-138.184,164.551,32.715,-165.039,-25.391
1678025580.576,-176.758,171.875,29.785,-188.965,-42.969
1678025580.580,-231.445,162.598,32.715,-196.289,88.379
1678025580.584,-198.730,164.551,34.668,-182.617,129.883
1678025580.588,-152.344,164.551,39.551,-177.246,-37.109
1678025580.591,-157.715,170.410,51.270,-152.344,54.199
1678025580.595,-205.078,188.965,46.875,-178.711,236.816
1678025580.599,-197.266,189.453,39.062,-220.703,12.207
1678025580.603,-186.523,178.711,42.480,-194.824,-187.988
1678025580.607,-160.156,170.410,41.992,-156.738,-27.832
1678025580.611,-135.254,170.898,34.668,-171.387,149.414
1678025580.615,-152.344,171.387,30.762,-176.270,48.340
1678025580.618,-177.734,164.551,43.945,-187.012,-175.293
1678025580.622,-192.383,149.902,51.270,-197.266,-114.746
1678025580.626,-193.359,142.090,50.293,-190.918,119.141
1678025580.630,-167.480,165.039,30.762,-190.918,-21.484
1678025580.634,-173.828,174.316,24.414,-167.969,-177.246
1678025580.636,-228.027,164.551,33.691,-209.473,-114.258
1678025580.640,-240.234,171.875,37.598,-248.535,-108.398
1678025580.644,-207.031,174.316,36.621,-207.031,-175.781
1678025580.648,-170.410,171.875,21.973,-199.219,-54.688
1678025580.652,-202.148,156.250,24.902,-209.961,58.594
1678025580.656,-232.910,151.855,37.109,-219.238,-72.266
1678025580.660,-222.168,166.504,35.645,-240.723,-133.301
1678025580.663,-208.008,172.363,13.184,-247.070,-155.762
1678025580.667,-202.148,167.969,4.395,-226.074,126.953
1678025580.671,-229.004,162.109,26.367,-213.867,220.215
1678025580.675,-225.098,165.039,34.180,-252.930,-179.688
1678025580.679,-213.867,169.922,30.273,-259.277,-237.305
1678025580.680,-216.309,163.086,33.691,-199.219,-19.043
1678025580.684,-183.105,158.691,35.156,-205.566,24.414
1678025580.688,-156.738,163.086,21.484,-229.492,-23.438
1678025580.692,-197.266,156.250,28.320,-236.816,0.488
1678025580.696,-225.098,154.785,23.926,-270.020,70.312
1678025580.700,-202.148,162.109,9.766,-281.250,14.160
1678025580.704,-216.309,144.043,14.648,-257.324,-109.863
1678025580.707,-231.934,136.719,5.859,-254.883,67.383
1678025580.711,-232.910,149.902,-3.906,-274.902,153.809
1678025580.715,-236.328,143.555,-4.395,-278.809,-153.320
1678025580.719,-218.750,138.184,0.488,-257.324,-194.336
1678025580.723,-189.453,141.602,-2.930,-241.211,5.859
1678025580.725,-187.012,135.254,-14.160,-241.211,17.090
1678025580.729,-227.051,130.859,-23.438,-311.035,-97.168
1678025580.733,-250.000,133.789,-26.855,-367.188,-167.480
1678025580.737,-219.238,128.418,-12.695,-304.199,-97.656
1678025580.741,-187.012,117.188,-1.465,-258.789,10.742
1678025580.745,-187.988,114.746,-8.789,-280.762,70.801
1678025580.749,-208.984,120.117,-20.996,-296.875,-20.020
1678025580.752,-252.930,131.348,-21.484,-309.570,149.902
1678025580.756,-248.535,150.879,-25.391,-342.285,155.273
1678025580.760,-217.285,149.902,-23.438,-330.566,-160.156
1678025580.764,-197.266,140.625,-17.578,-304.688,-60.059
1678025580.768,-216.797,137.695,-19.531,-306.152,-6.348
1678025580.770,-239.258,143.066,-24.902,-335.938,-45.898
1678025580.774,-218.750,140.137,-20.020,-334.473,-123.047
1678025580.778,-206.055,133.301,-20.996,-327.148,-49.316
1678025580.782,-205.566,132.812,-27.832,-319.824,199.707
1678025580.786,-223.145,125.977,-17.578,-301.758,25.391
1678025580.790,-240.723,125.488,-9.277,-333.984,-148.438
1678025580.794,-229.980,133.789,-7.812,-350.098,12.207
1678025580.797,-197.754,137.695,-7.324,-330.078,336.426
