timestamps,TP9,AF7,AF8,TP10,Right AUX
1688814549.162,32.227,-50.293,-30.762,-22.461,-156.250
1688814549.166,5.859,-46.387,-23.438,-11.719,-178.711
1688814549.170,-6.348,-41.504,-25.391,-1.953,-150.391
1688814549.174,25.879,-40.527,-32.227,-41.992,-148.438
1688814549.178,59.570,-41.016,-29.297,-44.922,-88.867
1688814549.182,57.617,-43.457,-23.438,-27.344,-62.988
1688814549.186,29.785,-46.387,-30.273,-20.996,-20.020
1688814549.189,8.301,-45.410,-31.250,-7.324,266.602
1688814549.193,28.809,-42.480,-21.973,-31.738,301.270
1688814549.197,56.152,-40.039,-18.066,-44.434,-49.805
1688814549.201,67.383,-38.086,-16.602,-32.715,-157.227
1688814549.205,49.316,-42.480,-21.484,-28.320,-66.895
1688814549.222,8.301,-44.434,-28.320,-18.555,-75.684
1688814549.226,14.648,-42.480,-27.832,-47.363,-168.457
1688814549.230,47.852,-41.992,-23.926,-50.293,-138.184
1688814549.234,46.387,-44.922,-27.344,-25.879,-53.711
1688814549.238,22.461,-45.410,-33.691,-18.066,-102.539
1688814549.242,-6.348,-43.457,-32.227,-0.488,-21.484
1688814549.246,5.859,-45.898,-28.809,-28.320,109.375
1688814549.249,46.387,-41.992,-28.320,-43.457,257.812
1688814549.253,56.641,-41.016,-23.926,-28.320,121.582
1688814549.257,35.156,-45.410,-24.414,-29.785,-76.660
1688814549.261,-8.789,-48.828,-27.344,-19.043,66.406
1688814549.265,-20.508,-54.199,-30.273,-41.992,150.391
1688814549.252,12.695,-51.270,-36.133,-71.777,-144.531
1688814549.256,31.738,-48.340,-34.180,-54.199,-223.145
1688814549.260,20.508,-54.199,-35.156,-49.805,-97.168
1688814549.264,-14.648,-55.664,-38.086,-36.621,-130.371
1688814549.268,-21.484,-56.152,-37.109,-50.293,-163.574
1688814549.272,23.438,-52.246,-37.109,-77.148,-142.578
1688814549.276,48.828,-48.340,-36.133,-54.199,-84.961
1688814549.279,33.203,-46.875,-38.574,-46.875,-89.844
1688814549.283,-3.418,-43.457,-36.133,-33.691,-163.574
1688814549.287,-12.695,-46.387,-34.668,-38.574,-173.828
1688814549.291,26.367,-46.875,-34.668,-61.523,85.449
1688814549.295,44.434,-51.758,-40.039,-45.410,165.039
1688814549.297,33.691,-53.223,-40.527,-41.016,-140.625
1688814549.301,7.324,-45.410,-36.133,-20.508,-155.762
1688814549.305,-11.719,-44.922,-35.645,-17.090,-106.445
1688814549.309,6.836,-49.805,-40.527,-64.453,-167.480
1688814549.313,22.461,-53.711,-37.109,-63.477,-215.820
1688814549.317,16.602,-56.152,-35.645,-47.363,-60.547
1688814549.321,-10.254,-55.176,-40.527,-33.203,120.605
1688814549.324,-29.297,-51.270,-34.668,-24.902,103.027
1688814549.328,-2.441,-51.270,-37.598,-56.152,-50.781
1688814549.332,31.250,-50.781,-37.598,-50.781,-82.031
1688814549.336,24.902,-55.176,-33.203,-31.250,49.316
1688814549.340,-2.441,-56.152,-33.691,-23.926,-139.648
1688814549.343,-20.508,-54.199,-33.203,-15.137,-136.719
1688814549.347,-2.930,-65.430,-38.086,-46.875,-14.160
1688814549.351,26.367,-75.684,-44.922,-49.805,-57.617
1688814549.355,26.855,-76.172,-45.898,-33.691,-164.062
1688814549.359,-3.418,-81.055,-40.527,-23.438,-146.973
1688814549.363,-44.922,-83.496,-42.480,-5.371,75.684
1688814549.367,-35.645,-80.566,-46.875,-41.016,91.309
1688814549.370,-0.488,-79.102,-43.945,-55.664,-92.773
1688814549.374,-0.977,-77.637,-39.551,-37.109,-187.012
1688814549.378,-37.598,-80.078,-39.551,-13.184,37.598
1688814549.382,-80.078,-76.660,-36.133,7.324,130.859
1688814549.386,-88.379,-73.242,-39.062,-37.598,-150.879
1688814549.403,-65.430,-70.312,-41.504,-55.176,-115.723
1688814549.407,-60.547,-68.848,-36.133,-24.414,-41.992
1688814549.411,-81.543,-69.824,-35.645,-19.531,-45.410
1688814549.415,-112.793,-63.965,-36.621,-5.859,-102.539
1688814549.419,-116.211,-59.570,-38.574,-25.879,-104.980
1688814549.423,-79.590,-62.500,-40.039,-51.270,77.637
1688814549.427,-60.059,-65.430,-39.551,-34.668,7.812
1688814549.430,-82.031,-64.941,-38.574,-42.969,-96.680
1688814549.434,-119.141,-60.547,-41.504,-21.973,45.410
1688814549.438,-121.094,-58.105,-43.457,-15.625,283.691
1688814549.442,-93.262,-61.035,-42.480,-54.688,45.898
1688814549.446,-82.520,-61.523,-40.527,-49.805,-236.816
1688814549.447,-101.074,-58.594,-41.992,-30.273,-194.824
1688814549.451,-134.766,-62.012,-44.434,-13.672,-99.121
1688814549.455,-143.555,-60.059,-42.969,-19.531,-79.102
1688814549.459,-116.699,-54.199,-45.898,-49.316,-179.688
1688814549.463,-99.609,-58.105,-49.805,-39.551,-109.375
1688814549.467,-104.004,-58.594,-47.852,-35.156,15.137
1688814549.471,-122.559,-55.176,-44.922,-23.438,38.086
1688814549.474,-136.230,-58.594,-41.016,-18.066,-43.945
1688814549.478,-109.375,-59.570,-35.156,-47.852,22.949
1688814549.482,-77.637,-58.105,-34.668,-38.574,64.453
1688814549.486,-68.848,-61.523,-39.551,-25.879,-171.875
1688814549.490,-88.867,-61.035,-42.480,-22.949,-129.395
1688814549.492,-121.094,-62.500,-41.504,-19.043,-30.273
1688814549.496,-99.609,-62.012,-42.969,-60.547,-105.469
1688814549.500,-62.012,-56.641,-41.992,-63.477,-155.762
1688814549.504,-62.012,-58.594,-43.457,-36.621,-181.152
1688814549.508,-83.496,-60.547,-41.992,-24.902,-87.402
1688814549.512,-104.004,-63.477,-41.504,-20.020,54.688
1688814549.516,-77.637,-63.965,-39.551,-58.594,-17.090
1688814549.519,-42.969,-62.500,-38.086,-64.941,-59.082
1688814549.523,-43.457,-64.941,-44.434,-37.598,253.906
1688814549.527,-66.406,-66.406,-41.992,-28.320,368.652
1688814549.531,-94.727,-64.453,-38.086,-25.391,94.238
1688814549.535,-73.242,-59.570,-37.598,-61.523,-53.223
1688814549.537,-33.691,-59.570,-38.086,-72.266,-122.559
1688814549.541,-26.367,-61.035,-36.133,-42.480,-199.219
1688814549.545,-49.316,-59.570,-32.715,-26.367,-194.824
1688814549.549,-91.797,-59.082,-36.133,-11.230,-60.059
1688814549.553,-78.613,-56.641,-44.434,-34.180,-86.914
1688814549.557,-36.133,-53.223,-57.129,-44.922,-65.430
1688814549.561,-23.438,-53.223,-59.082,-25.391,10.254
1688814549.564,-32.715,-56.641,-56.641,-17.578,126.465
1688814549.568,-64.941,-57.129,-58.105,-6.836,161.133
1688814549.572,-67.871,-60.547,-56.152,-37.109,-80.078
1688814549.576,-34.180,-60.547,-58.594,-61.523,-179.688
1688814549.580,-20.996,-55.176,-62.012,-42.480,-90.820
1688814549.583,-36.621,-56.152,-62.988,-34.180,-73.730
1688814549.587,-63.965,-55.664,-61.035,-27.832,-90.820
1688814549.591,-66.895,-53.223,-52.246,-44.922,-26.855
1688814549.595,-30.762,-54.199,-49.805,-70.312,-37.109
1688814549.599,-21.973,-58.594,-54.688,-58.105,-120.605
1688814549.603,-37.598,-57.617,-55.664,-48.340,-50.781
1688814549.607,-51.758,-51.758,-57.617,-28.809,71.777
1688814549.610,-59.570,-53.711,-58.594,-26.367,352.051
1688814549.614,-31.738,-53.711,-61.035,-59.082,253.418
1688814549.618,-9.277,-53.711,-64.453,-53.711,-101.562
1688814549.622,-13.672,-57.617,-59.082,-39.062,-46.387
1688814549.626,-32.715,-53.711,-55.176,-21.973,-71.777
1688814549.643,-48.340,-52.246,-61.035,-23.926,-125.488
1688814549.647,-17.090,-56.641,-58.105,-58.105,-210.938
1688814549.651,9.766,-59.570,-52.246,-40.527,-115.723
1688814549.655,-9.766,-60.547,-51.758,-25.391,-86.914
1688814549.659,-40.039,-58.594,-48.828,-6.836,-142.090
1688814549.663,-77.148,-57.617,-45.410,4.395,-12.207
1688814549.667,-95.215,-63.965,-45.410,-39.551,205.566
1688814549.670,-64.453,-63.965,-50.293,-34.668,200.684
1688814549.674,-40.527,-58.594,-48.828,-22.461,-107.910
1688814549.678,-57.129,-60.547,-48.828,-24.414,-175.293
1688814549.682,-81.055,-66.406,-49.805,-12.207,70.801
1688814549.686,-67.383,-63.965,-47.363,-49.805,33.691
1688814549.688,-34.668,-58.594,-43.945,-63.477,-239.258
1688814549.692,-36.133,-59.082,-49.316,-41.016,-97.168
1688814549.696,-66.406,-58.105,-47.852,-31.250,24.902
1688814549.700,-98.633,-60.547,-38.086,-23.926,-126.953
1688814549.704,-78.125,-57.617,-41.016,-62.012,-211.426
1688814549.708,-31.738,-47.363,-46.875,-70.801,-107.422
1688814549.712,-19.043,-50.781,-44.922,-53.223,48.340
1688814549.715,-41.992,-60.059,-41.992,-49.316,31.738
1688814549.719,-73.242,-59.570,-41.992,-29.785,-88.867
1688814549.723,-51.758,-53.711,-44.434,-54.688,-103.027
1688814549.727,-7.812,-53.711,-45.410,-65.430,238.770
1688814549.731,0.977,-52.246,-43.945,-47.363,197.754
1688814549.717,-6.348,-49.316,-47.363,-51.270,-147.461
1688814549.721,-34.180,-50.293,-47.363,-34.180,-33.691
1688814549.725,-41.992,-54.199,-42.969,-50.781,0.000
1688814549.729,-1.953,-50.781,-41.992,-76.172,-170.410
1688814549.733,-2.441,-49.316,-41.992,-59.570,-109.863
1688814549.737,-42.969,-52.734,-41.016,-43.457,129.395
1688814549.741,-88.867,-50.781,-42.969,-20.020,110.840
1688814549.744,-107.910,-48.828,-45.410,-37.598,-22.949
1688814549.748,-75.195,-52.246,-41.992,-71.777,-120.117
1688814549.752,-59.082,-54.199,-44.922,-54.688,41.992
1688814549.756,-83.984,-52.734,-48.828,-46.387,246.582
1688814549.760,-119.141,-52.246,-53.223,-45.410,9.277
1688814549.777,-147.949,-56.152,-60.059,-65.918,-122.070
1688814549.781,-124.023,-56.152,-62.988,-95.703,-147.461
1688814549.785,-93.262,-50.781,-57.617,-70.801,-117.188
1688814549.789,-92.773,-49.805,-52.246,-57.129,-155.273
1688814549.793,-116.211,-56.152,-51.270,-38.574,-111.816
1688814549.797,-134.277,-60.547,-46.875,-21.484,79.102
1688814549.801,-115.723,-56.152,-41.016,-45.898,54.199
1688814549.804,-104.004,-53.711,-40.039,-37.109,-55.664
1688814549.808,-112.793,-51.758,-39.062,-17.578,-6.836
1688814549.812,-142.578,-52.734,-41.504,-6.836,341.309
1688814549.816,-167.969,-51.270,-45.898,-8.789,308.594
1688814549.820,-138.672,-48.340,-41.016,-57.129,-81.055
1688814549.822,-118.652,-48.828,-36.133,-54.688,-91.309
1688814549.826,-130.859,-48.828,-38.086,-40.527,-41.992
1688814549.830,-148.926,-51.758,-40.527,-31.250,-141.113
1688814549.834,-184.570,-50.781,-37.109,-14.648,-154.785
1688814549.838,-169.922,-54.688,-39.551,-59.082,-80.566
1688814549.842,-120.605,-59.082,-45.410,-63.477,-35.645
1688814549.846,-110.840,-56.152,-46.387,-43.457,-76.172
1688814549.849,-124.512,-54.199,-46.875,-39.551,-115.234
1688814549.853,-128.418,-60.547,-43.945,-13.184,137.695
1688814549.857,-92.285,-61.523,-46.387,-37.109,242.188
1688814549.861,-39.551,-59.570,-55.176,-56.152,-93.750
1688814549.865,-17.578,-61.035,-52.734,-39.551,-172.363
1688814549.867,-23.926,-57.129,-45.410,-26.367,-62.988
1688814549.871,-40.527,-47.852,-44.922,-2.441,-84.961
1688814549.875,-28.320,-50.781,-43.945,-39.062,-197.754
1688814549.879,15.625,-55.664,-45.898,-70.801,-178.223
1688814549.883,45.410,-47.852,-46.875,-42.969,-134.766
1688814549.887,32.227,-42.969,-41.992,-36.621,-123.047
1688814549.891,-2.441,-44.922,-42.969,-30.273,3.906
1688814549.894,9.766,-47.852,-55.176,-59.082,109.375
1688814549.898,52.246,-51.270,-57.617,-78.613,267.090
1688814549.902,63.477,-46.875,-48.340,-54.199,166.992
1688814549.906,54.199,-40.527,-42.480,-55.176,-166.504
1688814549.910,19.043,-46.875,-38.086,-41.016,6.348
1688814549.912,3.906,-53.711,-41.504,-52.734,68.848
1688814549.916,44.922,-49.805,-42.969,-88.867,-184.570
1688814549.920,74.219,-47.363,-45.898,-72.754,-194.824
1688814549.924,67.383,-50.293,-43.457,-57.617,-113.770
1688814549.928,30.762,-51.758,-36.621,-37.109,-71.777
1688814549.932,9.766,-48.828,-35.645,-35.156,-14.648
1688814549.936,40.527,-48.340,-33.691,-64.941,5.371
1688814549.939,56.641,-49.805,-38.086,-41.504,117.188
1688814549.943,43.945,-48.340,-40.039,-26.855,145.020
1688814549.947,18.555,-48.828,-37.598,-22.461,-104.492
1688814549.951,-5.859,-56.152,-45.898,-28.809,-116.699
1688814549.955,13.672,-57.617,-45.410,-66.895,-66.406
1688814549.958,34.668,-50.293,-40.527,-62.012,-165.039
1688814549.962,34.668,-50.781,-44.434,-44.434,-251.465
1688814549.966,13.672,-53.711,-45.898,-25.879,-98.633
1688814549.970,-8.789,-53.223,-43.945,-25.879,67.871
1688814549.974,14.160,-46.875,-42.480,-71.289,-44.922
1688814549.978,35.156,-46.387,-43.457,-74.707,-94.238
1688814549.982,22.461,-52.246,-45.898,-55.176,-3.906
1688814549.985,-2.930,-50.781,-46.387,-40.039,127.441
1688814549.989,-32.715,-48.340,-48.340,-44.922,14.160
1688814549.993,-27.344,-50.293,-52.246,-92.285,-185.059
1688814549.997,0.000,-46.875,-47.852,-76.660,-80.078
1688814550.001,-5.371,-45.410,-41.992,-39.551,173.340
1688814550.002,-39.062,-52.246,-44.922,-40.039,-17.090
1688814550.006,-71.777,-52.734,-46.875,-25.391,-151.367
1688814550.010,-63.477,-49.805,-46.875,-52.734,-81.055
1688814550.014,-22.949,-48.828,-48.340,-69.336,-89.355
1688814550.018,-15.137,-51.758,-51.758,-52.734,-80.078
1688814550.022,-37.109,-51.758,-51.270,-49.316,-68.359
1688814550.026,-62.988,-49.805,-50.781,-26.367,243.164
1688814550.029,-60.059,-52.246,-50.781,-42.969,330.078
1688814550.033,-27.832,-50.781,-44.434,-61.523,-92.773
1688814550.037,-14.160,-47.852,-37.598,-41.504,-226.074
1688814550.041,-33.203,-46.387,-37.598,-33.691,-118.652
1688814550.045,-71.289,-48.828,-36.133,-17.090,-39.551
1688814550.047,-78.125,-49.805,-34.668,-41.992,-131.348
1688814550.051,-57.129,-51.270,-39.062,-70.312,-234.863
1688814550.055,-55.664,-51.270,-40.039,-48.828,-153.320
1688814550.059,-83.496,-49.805,-43.945,-45.410,-143.066
1688814550.063,-117.676,-45.898,-43.457,-43.945,-83.496
1688814550.067,-129.883,-42.969,-38.574,-63.477,28.809
1688814550.071,-113.281,-48.340,-42.480,-97.168,114.746
1688814550.074,-107.422,-50.293,-47.852,-82.031,19.531
1688814550.078,-129.883,-47.852,-46.875,-62.988,-116.699
1688814550.082,-172.363,-47.852,-46.387,-45.410,-3.906
1688814550.086,-185.059,-44.434,-49.316,-41.504,285.645
1688814550.090,-150.391,-43.457,-51.758,-72.754,145.020
1688814550.092,-141.113,-46.387,-49.316,-67.383,-135.254
1688814550.096,-156.250,-47.852,-46.387,-55.664,-53.223
1688814550.100,-178.711,-47.852,-47.363,-35.156,4.883
1688814550.104,-193.848,-46.387,-45.898,-34.180,-74.707
1688814550.108,-168.945,-49.805,-43.945,-71.289,-122.559
1688814550.112,-146.973,-55.664,-48.828,-62.012,2.441
1688814550.116,-152.832,-54.688,-56.152,-52.734,35.156
1688814550.119,-177.734,-46.875,-53.223,-32.227,-74.219
1688814550.123,-197.754,-47.852,-50.293,-23.438,-83.984
1688814550.127,-159.668,-52.734,-54.199,-65.430,131.348
1688814550.131,-111.328,-50.293,-53.223,-59.570,152.344
1688814550.135,-97.168,-48.340,-51.270,-45.410,-175.293
1688814550.152,-115.723,-47.852,-52.246,-40.527,-175.293
1688814550.156,-144.043,-49.805,-55.176,-24.902,-18.066
1688814550.160,-133.301,-55.176,-54.199,-52.734,-80.078
1688814550.164,-96.191,-52.246,-49.316,-58.594,-191.895
1688814550.168,-98.145,-45.410,-48.828,-37.598,-102.051
1688814550.172,-127.441,-47.363,-49.316,-22.461,48.340
1688814550.176,-150.879,-50.293,-53.711,-2.441,54.688
1688814550.179,-131.836,-52.246,-51.758,-24.414,4.883
1688814550.183,-86.426,-50.781,-50.293,-41.016,-59.082
1688814550.187,-74.219,-53.711,-53.223,-24.414,157.715
1688814550.191,-78.613,-55.176,-51.758,-17.090,160.645
1688814550.195,-88.379,-47.363,-51.758,-8.789,-63.477
1688814550.197,-66.895,-47.363,-53.223,-41.504,-22.949
1688814550.201,-12.695,-44.922,-50.781,-62.500,-29.297
1688814550.205,6.348,-46.875,-54.199,-50.781,-112.305
1688814550.209,-10.742,-50.781,-56.641,-48.828,-62.012
1688814550.213,-41.504,-49.805,-54.688,-34.668,-23.438
1688814550.217,-43.457,-54.688,-54.688,-69.336,-34.668
1688814550.221,-12.695,-57.129,-53.223,-99.609,-53.711
1688814550.224,3.418,-57.129,-55.664,-86.426,-154.785
1688814550.228,-1.953,-55.176,-50.293,-76.172,42.969
1688814550.232,-22.949,-54.688,-45.898,-56.152,265.625
1688814550.236,-20.996,-52.734,-47.363,-77.637,-16.602
1688814550.240,12.695,-50.293,-47.852,-104.980,-181.152
1688814550.242,25.391,-49.316,-50.293,-85.449,-118.652
1688814550.246,3.906,-46.875,-46.875,-72.754,-94.727
1688814550.250,-38.086,-50.293,-47.363,-57.617,-89.355
1688814550.254,-54.688,-54.199,-50.293,-66.406,-35.645
1688814550.258,-26.855,-54.199,-47.363,-92.773,-26.367
1688814550.262,-6.836,-51.758,-45.410,-77.637,-117.188
1688814550.266,-11.230,-48.828,-42.969,-63.477,-123.047
1688814550.269,-41.992,-44.434,-39.062,-43.945,104.980
1688814550.273,-54.688,-39.062,-39.062,-32.227,442.383
1688814550.277,-15.137,-45.898,-43.457,-62.988,226.074
1688814550.281,22.461,-47.852,-39.062,-67.871,-133.301
1688814550.285,36.621,-48.828,-38.574,-52.246,-71.289
1688814550.287,13.672,-52.734,-39.062,-44.434,-99.121
1688814550.291,-6.836,-47.852,-40.527,-45.410,-138.672
1688814550.295,37.598,-39.551,-43.945,-73.730,-130.859
1688814550.299,72.754,-43.457,-46.875,-71.777,-79.590
1688814550.303,63.965,-48.828,-54.688,-57.129,-77.148
1688814550.307,36.621,-48.828,-52.734,-52.734,31.738
1688814550.311,6.836,-46.387,-44.922,-48.828,-77.637
1688814550.314,25.879,-44.434,-41.992,-76.660,-98.633
1688814550.318,50.293,-48.340,-48.828,-83.984,122.559
1688814550.322,44.434,-46.875,-48.340,-69.336,-98.633
1688814550.326,26.367,-46.387,-42.969,-55.176,-164.551
1688814550.330,-0.488,-44.434,-45.898,-34.668,-97.656
1688814550.332,2.930,-43.945,-47.363,-65.430,-134.766
1688814550.336,27.832,-46.387,-41.016,-72.266,-168.945
1688814550.340,27.832,-50.293,-40.039,-39.062,-141.113
1688814550.344,13.184,-54.688,-38.574,-20.508,-103.516
1688814550.348,-15.625,-57.129,-41.504,0.977,-69.824
1688814550.352,-6.836,-55.664,-40.527,-18.555,-81.543
1688814550.356,28.809,-53.711,-31.738,-44.434,-46.387
1688814550.359,26.367,-55.176,-36.621,-28.320,333.496
1688814550.363,9.766,-51.758,-41.016,-15.137,258.789
1688814550.367,-22.461,-50.781,-40.527,-3.418,-80.078
1688814550.371,-36.621,-48.340,-44.434,-29.785,24.414
1688814550.375,-16.602,-47.363,-39.551,-62.988,-48.340
1688814550.377,-18.066,-50.781,-37.598,-50.293,-187.500
1688814550.381,-43.945,-50.293,-41.992,-48.828,-157.227
1688814550.385,-74.707,-48.828,-36.621,-27.344,11.230
1688814550.389,-74.707,-49.316,-34.180,-31.738,72.266
1688814550.393,-37.109,-47.852,-36.133,-59.570,-104.492
1688814550.397,-19.043,-45.410,-40.527,-46.875,-95.703
1688814550.401,-28.320,-39.551,-46.387,-35.645,117.188
1688814550.404,-52.734,-38.574,-52.734,-14.648,224.609
1688814550.408,-55.664,-40.039,-48.340,-22.461,-33.691
1688814550.412,-21.973,-42.969,-40.527,-50.293,-173.828
1688814550.416,1.953,-49.805,-42.969,-41.992,-78.613
1688814550.420,-1.465,-49.316,-42.969,-37.109,-50.781
1688814550.422,-26.367,-47.363,-37.598,-20.996,-88.867
1688814550.426,-47.363,-44.434,-33.691,-26.855,-92.285
1688814550.430,-25.391,-45.410,-33.691,-72.754,-166.504
1688814550.434,2.930,-45.410,-32.227,-64.941,-202.637
1688814550.438,-1.953,-35.156,-37.598,-54.688,-223.145
1688814550.442,-28.320,-32.715,-41.992,-48.340,-57.129
1688814550.446,-50.293,-41.504,-37.109,-46.387,158.691
1688814550.449,-22.461,-42.480,-41.504,-78.125,-10.742
1688814550.453,17.090,-40.527,-44.922,-71.289,-157.227
1688814550.457,18.555,-42.480,-40.039,-55.664,-105.957
1688814550.461,-13.672,-41.504,-38.574,-38.086,290.527
1688814550.465,-42.480,-41.992,-36.621,-31.250,239.746
1688814550.467,-24.414,-46.387,-36.133,-74.707,-160.156
1688814550.471,3.418,-44.434,-40.039,-81.543,-93.750
1688814550.475,-1.465,-40.527,-43.457,-61.035,-88.867
1688814550.479,-20.508,-38.574,-35.156,-46.875,-122.559
1688814550.483,-42.480,-37.109,-31.250,-32.227,-51.270
1688814550.487,-31.738,-39.551,-35.645,-65.430,42.969
1688814550.491,1.465,-38.574,-38.086,-73.242,97.168
1688814550.494,-0.977,-34.668,-38.086,-53.711,-24.414
1688814550.498,-35.645,-32.715,-41.504,-51.758,-123.535
1688814550.502,-67.871,-30.273,-35.645,-26.367,144.531
1688814550.506,-52.734,-38.574,-32.227,-47.363,172.363
1688814550.510,-13.184,-42.480,-33.691,-64.941,-204.102
1688814550.527,-13.184,-38.574,-31.250,-52.246,-198.730
1688814550.531,-37.598,-39.062,-29.785,-47.363,-33.203
1688814550.535,-70.801,-43.457,-31.738,-24.414,-3.418
1688814550.539,-73.242,-43.457,-38.574,-51.270,-115.723
1688814550.543,-41.504,-39.062,-36.133,-70.801,-148.926
1688814550.547,-38.086,-36.621,-33.691,-51.270,2.441
1688814550.551,-62.012,-37.598,-36.133,-56.641,-94.727
1688814550.554,-105.469,-39.062,-38.574,-44.434,-141.602
1688814550.558,-113.281,-40.039,-36.133,-53.711,11.719
1688814550.562,-82.520,-39.551,-30.762,-75.195,198.242
1688814550.566,-77.637,-41.992,-35.645,-62.012,122.559
1688814550.570,-90.332,-40.039,-36.133,-54.199,-174.316
1688814550.572,-118.652,-41.016,-28.809,-42.969,-105.957
1688814550.576,-118.652,-44.434,-25.879,-48.828,-81.055
1688814550.580,-78.125,-46.387,-29.297,-80.078,-122.559
1688814550.584,-59.082,-47.363,-31.738,-63.477,-119.141
1688814550.588,-62.500,-42.480,-30.273,-42.969,26.367
1688814550.592,-79.102,-41.992,-29.297,-33.203,188.477
1688814550.596,-84.473,-42.969,-29.785,-35.645,89.844
1688814550.599,-52.734,-43.945,-33.203,-68.359,-108.398
1688814550.603,-26.367,-44.434,-31.738,-58.105,26.855
1688814550.607,-20.020,-40.039,-28.809,-34.180,145.020
1688814550.611,-44.434,-42.969,-26.855,-27.344,-82.031
1688814550.615,-79.590,-45.898,-28.809,-39.062,-68.848
1688814550.617,-51.270,-43.945,-30.762,-70.801,-95.703
1688814550.621,-19.043,-41.992,-30.273,-63.477,-180.664
1688814550.625,-25.391,-44.434,-32.715,-45.898,-167.480
1688814550.629,-51.270,-43.945,-33.203,-29.785,-16.602
1688814550.633,-79.102,-41.992,-31.738,-17.578,13.672
1688814550.637,-59.570,-44.922,-28.320,-57.129,-35.156
1688814550.641,-31.250,-44.434,-26.367,-57.129,-51.270
1688814550.644,-41.504,-42.969,-24.414,-33.203,-35.645
1688814550.648,-67.871,-42.969,-26.855,-19.043,291.016
1688814550.652,-88.867,-37.598,-29.785,-3.906,405.273
1688814550.656,-71.289,-37.598,-30.762,-60.059,-29.785
1688814550.660,-33.203,-40.039,-31.250,-76.660,-190.918
1688814550.662,-32.227,-33.203,-32.715,-50.781,-111.816
1688814550.666,-58.594,-32.227,-35.156,-42.969,-172.363
1688814550.670,-83.984,-38.086,-33.691,-27.832,-108.887
1688814550.674,-71.289,-39.062,-38.086,-65.430,-58.105
1688814550.678,-37.109,-37.598,-41.504,-85.449,-70.801
1688814550.682,-37.109,-41.016,-34.668,-60.547,-53.223
1688814550.686,-59.082,-37.109,-28.809,-52.246,-43.457
1688814550.689,-91.797,-33.691,-27.832,-24.414,203.613
1688814550.693,-90.332,-36.621,-27.832,-45.410,293.945
1688814550.697,-56.152,-40.527,-28.320,-84.473,-84.473
1688814550.701,-38.086,-35.156,-29.785,-54.688,-191.406
1688814550.705,-53.223,-35.156,-31.738,-41.992,-83.496
1688814550.707,-94.238,-43.457,-30.273,-23.438,-100.098
1688814550.711,-88.867,-43.457,-29.297,-34.180,-99.609
1688814550.715,-43.457,-38.086,-28.320,-62.500,-90.820
1688814550.719,-27.832,-33.203,-23.438,-41.504,-116.699
1688814550.723,-26.855,-32.227,-26.855,-29.785,-136.719
1688814550.727,-48.340,-34.180,-32.227,-17.578,-60.059
1688814550.731,-62.012,-33.203,-29.297,-22.461,106.934
1688814550.734,-26.855,-34.668,-30.762,-49.805,205.566
1688814550.738,-1.953,-37.109,-31.738,-49.316,-19.043
1688814550.742,-12.695,-37.109,-26.855,-44.922,-139.648
1688814550.746,-44.434,-36.133,-23.438,-27.832,47.852
1688814550.750,-55.176,-37.109,-25.391,-17.578,344.727
1688814550.752,-18.066,-39.551,-24.902,-44.922,256.348
1688814550.756,-2.441,-41.992,-24.414,-55.176,-134.277
1688814550.760,-23.438,-41.992,-27.344,-52.246,-146.973
1688814550.764,-47.363,-43.457,-27.344,-35.156,-71.289
1688814550.768,-62.012,-40.039,-24.414,-28.320,-151.855
1688814550.772,-35.645,-37.598,-26.367,-58.105,-232.422
1688814550.776,-6.348,-42.480,-31.738,-48.340,35.156
1688814550.779,-12.695,-43.457,-28.320,-30.273,130.371
1688814550.783,-46.387,-45.898,-26.855,-30.273,-152.832
1688814550.787,-88.867,-46.387,-28.320,-22.949,-121.582
1688814550.791,-83.984,-43.457,-27.832,-59.570,-112.305
1688814550.795,-61.035,-43.945,-30.273,-72.754,-128.906
1688814550.798,-71.777,-42.480,-32.715,-59.570,-43.945
1688814550.802,-98.633,-42.480,-34.668,-56.152,-45.898
1688814550.806,-118.164,-41.016,-33.203,-37.109,6.836
1688814550.810,-97.656,-40.039,-30.762,-62.500,-87.891
1688814550.814,-62.012,-41.504,-30.273,-76.660,-204.102
1688814550.818,-66.895,-41.992,-27.832,-62.500,-5.371
1688814550.822,-94.727,-42.480,-29.785,-49.805,201.660
1688814550.825,-113.281,-43.457,-27.344,-27.832,120.605
1688814550.829,-97.656,-43.945,-24.902,-58.105,-129.395
1688814550.833,-60.547,-43.457,-31.738,-77.637,-142.578
1688814550.837,-53.711,-43.945,-35.156,-53.711,32.715
1688814550.841,-70.801,-42.969,-33.203,-39.551,-76.660
1688814550.857,-100.098,-44.434,-26.855,-27.344,-118.652
1688814550.861,-93.262,-47.363,-24.414,-65.918,-73.242
1688814550.865,-45.410,-45.410,-22.461,-85.938,-42.480
1688814550.869,-29.297,-45.898,-20.508,-64.453,-94.238
1688814550.873,-42.969,-45.410,-26.367,-65.430,-179.688
1688814550.877,-71.289,-47.363,-28.320,-49.316,176.270
1688814550.881,-71.289,-48.828,-25.391,-56.641,367.676
1688814550.884,-26.855,-45.410,-25.391,-79.590,-10.742
1688814550.888,-7.812,-48.828,-21.484,-68.848,-132.324
1688814550.892,-14.648,-48.828,-24.414,-61.523,-46.387
1688814550.896,-39.062,-50.781,-26.855,-42.969,44.434
1688814550.900,-54.199,-49.805,-22.949,-57.129,-14.648
1688814550.902,-25.879,-45.898,-20.020,-88.379,-140.625
1688814550.906,-9.766,-47.363,-16.113,-74.219,-85.938
1688814550.910,-25.879,-47.852,-20.996,-72.266,-71.289
1688814550.914,-62.500,-47.363,-26.367,-52.734,-80.566
1688814550.918,-80.078,-49.316,-25.879,-47.852,-8.301
1688814550.922,-41.016,-47.363,-23.438,-77.148,24.414
1688814550.926,-7.812,-44.922,-23.926,-63.477,-10.254
1688814550.929,-16.113,-45.410,-26.855,-51.758,-152.344
1688814550.933,-41.992,-44.922,-26.855,-41.504,-130.371
1688814550.937,-60.059,-44.922,-26.367,-34.180,226.562
1688814550.941,-40.527,-43.457,-26.367,-74.219,197.754
1688814550.945,-20.508,-38.086,-22.949,-82.520,-133.301
1688814550.947,-33.203,-37.598,-20.020,-69.824,-118.652
1688814550.951,-65.918,-40.039,-21.484,-66.406,-40.039
1688814550.955,-86.914,-40.039,-26.367,-59.082,-42.480
1688814550.959,-66.895,-40.039,-27.344,-89.844,-80.078
1688814550.963,-45.898,-41.504,-26.367,-96.680,-49.805
1688814550.967,-41.504,-45.410,-27.344,-74.219,34.668
1688814550.971,-65.430,-41.504,-23.438,-58.594,60.059
1688814550.974,-108.398,-44.434,-25.879,-51.758,63.965
1688814550.978,-115.234,-51.758,-29.785,-88.867,147.949
1688814550.982,-85.938,-48.340,-21.973,-87.891,166.992
1688814550.986,-70.801,-42.969,-20.020,-60.547,-148.438
1688814550.990,-81.055,-44.922,-26.367,-44.434,-166.016
1688814550.992,-99.121,-41.504,-26.367,-17.578,-87.891
1688814550.996,-80.078,-40.527,-20.508,-46.875,-169.434
1688814551.000,-39.551,-41.504,-21.973,-62.012,-196.289
1688814551.004,-29.297,-43.457,-21.484,-33.203,-142.578
1688814551.008,-43.945,-43.457,-22.461,-28.320,-83.496
1688814551.012,-67.383,-40.039,-24.902,-10.254,-7.324
1688814551.016,-61.523,-42.969,-27.344,-41.016,-63.965
1688814551.019,-25.879,-43.945,-26.855,-71.289,-126.953
1688814551.023,-14.648,-39.551,-25.391,-35.156,226.074
1688814551.027,-25.391,-31.738,-25.879,-20.508,360.352
1688814551.031,-50.781,-32.715,-22.949,-14.160,56.152
1688814551.035,-53.223,-32.715,-19.043,-29.297,3.906
1688814551.037,-12.695,-33.691,-21.484,-54.688,-6.348
1688814551.041,1.465,-41.504,-21.973,-47.363,-148.926
1688814551.045,-21.484,-45.898,-24.902,-49.805,-214.355
1688814551.049,-48.828,-40.527,-21.973,-26.855,-133.789
1688814551.053,-59.570,-38.086,-17.090,-28.809,-79.590
1688814551.057,-38.574,-43.945,-24.414,-63.477,-89.355
1688814551.061,-28.809,-41.992,-27.344,-53.711,-103.027
1688814551.064,-39.551,-38.086,-21.484,-35.156,14.648
1688814551.068,-66.406,-40.527,-20.996,-18.555,149.414
1688814551.072,-85.938,-43.457,-28.809,-35.156,-41.504
1688814551.076,-63.477,-44.434,-27.832,-62.988,-113.281
1688814551.080,-45.898,-46.387,-27.344,-55.664,-94.727
1688814551.082,-49.316,-46.387,-29.297,-50.781,-73.242
1688814551.086,-68.848,-46.875,-27.832,-35.156,-56.152
1688814551.090,-87.402,-48.340,-26.855,-27.832,-68.848
1688814551.094,-62.500,-49.316,-24.902,-62.500,-3.418
1688814551.098,-33.691,-47.363,-22.461,-60.059,-71.777
1688814551.102,-35.156,-47.363,-23.438,-46.875,-162.109
1688814551.106,-56.641,-47.363,-25.879,-32.227,-79.102
1688814551.109,-76.172,-46.387,-25.879,-6.348,263.672
1688814551.113,-54.199,-43.945,-26.855,-39.551,207.031
1688814551.117,-22.949,-41.504,-20.996,-48.828,-199.219
1688814551.121,-27.832,-39.062,-15.625,-35.645,-145.508
1688814551.125,-57.617,-39.551,-18.066,-30.762,-83.496
1688814551.128,-85.449,-45.898,-21.484,-21.973,-127.441
1688814551.132,-68.359,-42.480,-21.484,-62.500,-151.367
1688814551.136,-33.203,-38.086,-22.949,-69.336,-61.523
1688814551.140,-25.879,-42.969,-29.297,-51.758,-30.273
1688814551.144,-37.109,-43.457,-30.273,-48.828,-187.012
1688814551.148,-59.082,-36.133,-29.785,-26.367,-71.289
1688814551.152,-48.828,-40.039,-29.785,-47.363,190.918
1688814551.155,-5.371,-41.992,-28.809,-59.570,171.387
1688814551.159,10.254,-39.062,-35.156,-51.270,-107.910
1688814551.163,-6.348,-42.480,-38.574,-53.711,-191.895
1688814551.167,-45.898,-48.828,-38.086,-31.250,84.961
1688814551.171,-53.711,-53.223,-38.086,-52.734,95.703
1688814551.172,-10.254,-48.340,-25.391,-72.754,-187.012
1688814551.176,2.441,-41.504,-20.508,-49.316,-187.500
1688814551.180,-6.836,-34.180,-23.438,-45.410,-142.090
1688814551.184,-34.668,-32.715,-21.484,-36.133,-110.840
1688814551.188,-58.594,-40.039,-20.996,-55.176,-33.691
1688814551.192,-37.598,-46.875,-24.414,-79.590,-122.070
1688814551.196,-25.879,-42.480,-25.879,-40.039,188.965
1688814551.199,-40.039,-39.062,-20.996,-22.949,328.613
1688814551.203,-62.500,-38.574,-20.508,-15.625,-99.121
1688814551.207,-77.148,-38.574,-21.484,-31.250,-74.219
1688814551.211,-63.477,-41.992,-23.438,-65.430,25.391
1688814551.215,-48.828,-40.527,-19.531,-46.387,-90.332
1688814551.217,-65.430,-40.039,-15.625,-35.156,-104.492
1688814551.221,-104.004,-40.527,-16.113,-22.949,-32.715
1688814551.225,-119.629,-38.574,-21.973,-33.691,-60.547
1688814551.229,-87.891,-42.480,-25.391,-82.031,-183.594
1688814551.233,-59.082,-43.945,-23.926,-71.289,-221.191
1688814551.237,-60.059,-41.504,-24.414,-49.805,-15.137
1688814551.241,-77.148,-44.434,-23.438,-37.598,106.445
1688814551.244,-90.820,-43.945,-16.113,-32.715,34.668
1688814551.248,-68.359,-43.457,-18.555,-72.266,-144.531
1688814551.252,-48.828,-42.480,-23.926,-60.547,-41.016
1688814551.256,-65.430,-39.062,-14.648,-32.715,105.957
1688814551.260,-91.797,-39.062,-11.719,-22.949,-145.996
1688814551.277,-115.234,-43.945,-19.531,-20.020,-107.422
1688814551.281,-94.238,-48.340,-20.996,-61.035,-2.441
1688814551.285,-64.941,-44.922,-20.020,-72.754,-71.289
1688814551.289,-77.148,-41.016,-23.438,-63.965,-109.863
1688814551.293,-106.445,-42.969,-21.484,-51.758,-6.836
1688814551.297,-127.930,-45.410,-27.832,-30.762,105.957
1688814551.301,-106.934,-41.504,-31.250,-57.129,77.148
1688814551.304,-76.172,-37.109,-26.855,-71.777,15.625
1688814551.308,-69.824,-35.645,-23.926,-47.852,31.738
1688814551.312,-90.820,-40.039,-17.090,-21.973,343.750
1688814551.316,-126.953,-38.574,-20.996,-4.395,243.164
1688814551.320,-117.676,-35.645,-19.531,-37.598,-111.816
1688814551.322,-75.684,-34.180,-14.160,-47.852,-15.625
1688814551.326,-68.848,-33.203,-17.090,-27.344,88.867
1688814551.330,-90.332,-33.691,-15.137,-31.250,-57.617
1688814551.334,-129.883,-40.039,-20.020,-24.902,-76.172
1688814551.338,-139.160,-41.504,-20.508,-51.270,-63.965
1688814551.342,-99.121,-30.762,-15.625,-71.777,-97.656
1688814551.346,-83.984,-29.785,-15.625,-50.781,-64.453
1688814551.349,-92.285,-33.691,-14.160,-36.621,-99.609
1688814551.353,-106.445,-25.879,-13.184,-14.160,57.617
1688814551.357,-107.422,-27.832,-13.672,-32.227,183.594
1688814551.361,-65.918,-35.156,-11.230,-71.777,-137.695
1688814551.365,-39.062,-35.645,-11.719,-58.594,-201.660
1688814551.367,-52.246,-30.273,-13.672,-46.387,-47.363
1688814551.371,-85.449,-31.250,-11.230,-38.086,-17.090
1688814551.375,-94.238,-36.621,-13.184,-51.270,-112.305
1688814551.379,-62.500,-31.738,-15.625,-81.055,-189.453
1688814551.383,-53.223,-28.809,-20.508,-71.289,-102.539
1688814551.387,-73.242,-34.180,-20.996,-65.918,-55.664
1688814551.391,-101.074,-38.086,-20.508,-55.176,-18.555
1688814551.394,-112.793,-42.969,-21.973,-62.012,165.527
1688814551.398,-87.402,-47.363,-23.926,-97.168,184.082
1688814551.402,-71.777,-45.898,-25.879,-87.402,-65.918
1688814551.406,-76.172,-42.480,-19.043,-71.777,-216.309
1688814551.410,-106.445,-39.062,-15.137,-53.223,-45.410
1688814551.413,-139.648,-39.062,-17.578,-43.457,226.074
1688814551.417,-105.957,-38.086,-14.160,-74.707,80.078
1688814551.421,-77.637,-34.180,-10.254,-81.055,-126.953
1688814551.425,-83.496,-35.156,-13.184,-78.125,-21.973
1688814551.429,-100.586,-34.180,-11.230,-61.523,44.922
1688814551.433,-122.070,-33.203,-11.719,-43.457,47.852
1688814551.437,-102.539,-35.645,-11.719,-84.473,-54.199
1688814551.440,-67.383,-38.086,-13.184,-83.496,35.645
1688814551.444,-66.406,-40.039,-18.066,-55.664,114.258
1688814551.448,-92.773,-37.598,-18.066,-45.410,-157.715
1688814551.452,-119.629,-32.715,-20.508,-24.414,-169.922
1688814551.456,-119.629,-31.738,-25.391,-64.453,-205.566
1688814551.457,-101.562,-33.203,-23.926,-79.590,-237.793
1688814551.461,-90.820,-32.715,-20.508,-62.012,-204.590
1688814551.465,-100.586,-34.180,-20.508,-61.035,-143.555
1688814551.469,-121.094,-36.621,-16.113,-39.062,-86.914
1688814551.473,-108.398,-37.109,-15.625,-69.824,-64.453
1688814551.477,-68.848,-37.598,-22.461,-90.332,-122.559
1688814551.481,-53.223,-37.109,-26.367,-66.895,-63.477
1688814551.484,-64.941,-33.691,-26.855,-51.758,253.906
1688814551.488,-102.539,-32.715,-30.762,-24.414,362.793
1688814551.492,-111.328,-35.645,-28.809,-54.199,10.254
1688814551.496,-75.684,-32.227,-24.414,-89.844,-184.570
1688814551.500,-60.059,-27.344,-21.973,-65.918,-134.766
1688814551.502,-69.824,-27.832,-21.973,-57.129,-179.199
1688814551.506,-98.633,-37.109,-23.926,-37.109,-118.652
1688814551.510,-96.680,-39.062,-19.043,-38.574,-62.500
1688814551.514,-62.012,-41.504,-20.508,-63.965,-114.746
1688814551.518,-43.457,-44.922,-19.531,-43.945,-105.469
1688814551.522,-55.176,-42.969,-20.020,-31.738,-62.012
1688814551.526,-91.797,-43.945,-26.367,-14.648,173.828
1688814551.529,-93.262,-45.410,-24.902,-14.648,251.953
1688814551.533,-66.895,-43.457,-23.438,-59.570,-72.754
1688814551.537,-55.176,-41.992,-27.344,-58.105,-174.805
1688814551.541,-62.988,-42.969,-27.344,-39.551,-12.695
1688814551.545,-93.262,-42.480,-25.391,-29.785,7.324
1688814551.547,-107.422,-42.969,-26.367,-28.809,-146.973
1688814551.551,-74.707,-38.574,-27.344,-56.152,-154.297
1688814551.555,-39.062,-39.062,-24.902,-54.688,-79.590
1688814551.559,-33.203,-39.551,-21.484,-46.875,-90.332
1688814551.563,-61.523,-38.574,-23.926,-35.645,-109.375
1688814551.567,-91.797,-38.574,-27.832,-34.180,35.156
1688814551.571,-78.613,-36.621,-23.438,-67.871,245.117
1688814551.574,-57.617,-37.109,-20.508,-66.406,147.949
1688814551.578,-62.988,-39.062,-26.855,-61.035,8.301
1688814551.582,-79.102,-35.645,-24.414,-47.363,95.215
1688814551.586,-88.867,-32.227,-23.438,-21.484,267.090
1688814551.590,-57.617,-34.180,-24.414,-56.152,110.840
1688814551.592,-25.879,-33.691,-20.020,-64.941,-163.574
1688814551.596,-37.109,-32.715,-20.020,-43.945,-116.699
1688814551.600,-66.406,-33.691,-18.066,-42.480,-83.008
1688814551.604,-92.285,-29.785,-18.555,-43.457,-89.355
1688814551.608,-77.637,-28.809,-21.484,-84.473,-140.137
1688814551.612,-45.410,-37.109,-22.461,-95.703,-47.363
1688814551.616,-32.715,-38.086,-26.367,-76.660,-4.883
1688814551.619,-43.945,-40.039,-29.297,-72.754,-63.965
1688814551.623,-67.383,-39.551,-33.203,-63.477,-85.938
1688814551.627,-46.387,-31.250,-34.668,-90.332,23.438
1688814551.631,0.488,-30.273,-31.738,-106.934,71.289
1688814551.635,9.766,-33.691,-33.691,-106.445,-82.520
1688814551.652,-4.883,-33.691,-29.785,-109.863,-79.102
1688814551.656,-33.203,-33.203,-23.438,-92.285,56.641
1688814551.660,-28.809,-33.203,-20.996,-112.793,-10.742
1688814551.664,16.602,-35.645,-22.461,-122.070,-154.297
1688814551.668,24.902,-36.133,-24.414,-92.285,-116.699
1688814551.672,-0.977,-36.133,-24.902,-84.473,-52.246
1688814551.676,-32.715,-33.691,-18.555,-63.477,59.082
1688814551.679,-36.133,-33.203,-18.555,-77.148,63.477
1688814551.683,0.000,-38.574,-23.438,-95.703,-82.520
1688814551.687,12.695,-35.645,-24.414,-66.895,171.875
1688814551.691,0.977,-29.297,-23.926,-58.105,144.043
1688814551.695,-29.785,-36.621,-20.508,-48.340,-101.562
1688814551.697,-56.641,-39.551,-17.578,-53.711,-3.418
1688814551.701,-45.410,-36.621,-18.555,-85.938,-52.246
1688814551.705,-32.715,-35.156,-18.066,-73.730,-143.066
1688814551.709,-42.969,-32.715,-13.184,-58.594,-187.012
1688814551.713,-68.359,-33.691,-11.719,-40.527,21.973
1688814551.717,-69.336,-40.039,-14.648,-44.434,155.762
1688814551.721,-35.156,-38.574,-18.555,-79.102,-65.918
1688814551.724,-9.766,-38.574,-19.043,-68.848,-175.293
1688814551.728,-15.625,-41.016,-20.508,-56.152,34.180
1688814551.732,-39.062,-36.621,-22.461,-29.785,216.309
1688814551.736,-55.664,-37.598,-20.996,-23.926,-15.137
1688814551.740,-25.879,-38.574,-19.531,-66.895,-171.875
1688814551.742,2.930,-38.574,-20.996,-63.477,-92.773
1688814551.746,-4.395,-37.109,-22.949,-45.898,-84.473
1688814551.750,-26.855,-34.668,-20.508,-24.414,-232.422
1688814551.754,-55.176,-39.551,-17.578,-14.160,-120.117
1688814551.758,-45.410,-39.551,-22.461,-49.805,-10.742
1688814551.762,-20.020,-35.156,-28.809,-58.105,-74.707
1688814551.766,-26.855,-35.156,-27.832,-45.410,-41.504
1688814551.769,-51.270,-35.156,-23.926,-31.738,-41.504
1688814551.773,-89.355,-37.109,-20.996,-28.320,283.203
1688814551.777,-91.309,-44.434,-23.926,-72.266,291.016
1688814551.781,-57.129,-41.504,-22.461,-83.008,-173.340
1688814551.785,-52.246,-41.504,-20.508,-64.941,-145.020
1688814551.788,-76.660,-41.992,-19.531,-51.270,-92.285
1688814551.792,-106.445,-42.969,-16.602,-26.367,-78.125
1688814551.796,-95.703,-47.363,-20.020,-58.594,-52.246
1688814551.800,-61.035,-44.922,-26.367,-75.195,-107.422
1688814551.804,-45.898,-41.992,-21.973,-43.945,-54.688
1688814551.808,-53.711,-42.969,-21.484,-27.344,6.836
1688814551.812,-73.242,-40.527,-19.531,-8.789,72.754
1688814551.815,-58.594,-39.062,-18.555,-21.973,193.848
1688814551.819,-21.484,-40.039,-20.020,-28.809,220.215
1688814551.823,-6.836,-42.480,-12.207,-11.719,-38.086
1688814551.827,-16.602,-41.992,-6.348,-9.766,-129.395
1688814551.831,-45.898,-44.434,-9.277,6.348,-51.270
1688814551.833,-44.434,-45.898,-12.695,-15.625,-106.934
1688814551.837,-1.953,-38.574,-15.137,-45.410,-220.703
1688814551.841,20.020,-35.645,-19.043,-19.043,-182.129
1688814551.845,5.371,-36.133,-15.625,-11.719,-62.988
1688814551.849,-23.926,-32.715,-10.254,0.977,-41.016
1688814551.853,-29.297,-31.250,-8.789,-5.371,-62.500
1688814551.857,5.371,-33.203,-16.602,-48.340,-58.594
1688814551.860,20.996,-35.645,-23.438,-29.785,299.805
1688814551.864,5.371,-34.668,-22.949,-12.695,443.848
1688814551.868,-21.484,-33.691,-22.461,-7.812,3.418
1688814551.872,-33.203,-35.645,-24.902,-9.277,-104.004
1688814551.876,-2.441,-42.480,-28.320,-53.223,-39.551
1688814551.878,25.391,-41.992,-21.973,-44.922,-195.312
1688814551.882,19.531,-33.203,-14.648,-31.738,-208.008
1688814551.886,-14.160,-30.762,-21.973,-20.508,-96.680
1688814551.890,-41.992,-32.227,-23.926,-14.648,-79.102
1688814551.894,-23.438,-35.645,-17.578,-39.551,-196.777
1688814551.898,1.953,-39.062,-17.090,-24.902,-132.812
1688814551.902,-7.324,-35.645,-20.508,-10.742,194.336
1688814551.905,-38.086,-34.668,-26.367,-2.930,246.094
1688814551.909,-66.895,-41.504,-28.809,-0.977,-83.496
1688814551.913,-47.363,-44.922,-26.855,-41.992,-185.547
1688814551.917,-18.555,-40.527,-26.367,-45.410,-85.449
1688814551.921,-25.391,-39.062,-27.344,-21.484,-89.844
1688814551.922,-52.246,-41.504,-26.367,-8.301,-173.340
1688814551.926,-76.660,-40.527,-24.414,6.348,-92.285
1688814551.930,-60.547,-36.621,-26.855,-29.297,0.977
1688814551.934,-25.879,-34.668,-27.832,-37.109,-112.793
1688814551.938,-13.184,-28.809,-26.367,-10.742,-127.930
1688814551.942,-35.156,-28.320,-22.461,-3.906,-36.621
1688814551.946,-66.895,-34.668,-17.578,7.324,207.031
1688814551.949,-50.293,-31.738,-18.066,-31.250,124.512
1688814551.953,-19.043,-34.668,-20.020,-55.664,-248.535
1688814551.957,-20.996,-33.691,-18.066,-32.715,-169.922
1688814551.961,-41.504,-32.227,-17.090,-14.160,183.105
1688814551.965,-63.965,-35.645,-20.508,4.883,105.469
1688814551.983,-57.129,-40.039,-22.461,-24.414,-86.914
1688814551.987,-21.484,-36.133,-20.996,-44.434,16.113
1688814551.991,-3.418,-33.691,-24.414,-25.391,-11.230
1688814551.995,-10.742,-34.180,-25.879,-23.438,-147.461
1688814551.999,-31.250,-29.785,-28.320,-7.812,-102.051
1688814552.003,-30.273,-31.738,-24.902,-20.996,-0.488
1688814552.007,5.371,-29.785,-22.949,-46.875,5.859
1688814552.010,20.020,-27.832,-25.391,-32.715,-96.191
1688814552.014,8.301,-31.738,-24.902,-27.832,-212.402
1688814552.018,-20.508,-34.668,-23.438,-0.488,15.137
1688814552.022,-33.691,-35.156,-22.461,-2.441,153.320
1688814552.026,0.488,-36.133,-25.391,-44.922,-146.973
1688814552.027,20.020,-34.180,-24.414,-37.598,-172.852
1688814552.031,0.488,-33.203,-20.508,-27.344,-57.617
1688814552.035,-38.574,-34.668,-20.508,-10.742,-5.371
1688814552.039,-56.152,-32.227,-21.973,-16.113,-46.875
1688814552.043,-36.621,-34.668,-27.344,-51.758,-119.629
1688814552.047,-31.250,-39.551,-28.320,-41.992,-4.883
1688814552.051,-44.434,-35.156,-29.297,-36.133,26.367
1688814552.054,-65.918,-30.762,-28.809,-21.484,41.992
1688814552.058,-81.055,-32.715,-16.602,-11.719,-14.160
1688814552.062,-50.781,-35.645,-19.043,-39.062,163.574
1688814552.066,-21.973,-38.574,-27.832,-35.645,313.965
1688814552.070,-17.090,-38.086,-24.414,-27.832,-20.020
1688814552.072,-38.574,-34.668,-15.625,-18.066,-57.129
1688814552.076,-68.359,-33.691,-15.137,-9.277,-19.043
1688814552.080,-38.574,-32.227,-17.578,-44.434,-170.898
1688814552.084,-1.465,-36.621,-20.508,-45.898,-180.664
1688814552.088,-17.578,-42.480,-26.367,-32.227,-104.004
1688814552.092,-50.293,-41.992,-24.902,-26.367,-15.625
1688814552.096,-81.543,-40.527,-19.043,-4.395,25.391
1688814552.099,-72.754,-38.086,-22.461,-40.527,-117.188
1688814552.103,-41.016,-40.527,-26.855,-53.223,-2.441
1688814552.107,-27.832,-38.574,-22.949,-24.902,203.613
1688814552.111,-41.016,-38.086,-19.531,-27.344,-60.547
1688814552.115,-71.289,-40.527,-20.020,-15.625,-86.426
1688814552.118,-69.336,-41.504,-24.902,-48.340,-38.574
1688814552.122,-37.109,-43.945,-25.391,-69.336,-158.203
1688814552.126,-38.086,-42.480,-21.484,-52.246,-166.992
1688814552.130,-68.848,-36.621,-23.438,-46.875,-159.668
1688814552.134,-103.516,-40.527,-26.855,-25.879,-98.633
1688814552.138,-108.887,-45.410,-29.297,-51.758,20.020
1688814552.142,-82.031,-40.527,-26.367,-81.543,42.969
1688814552.145,-70.312,-38.574,-29.297,-62.988,28.809
1688814552.149,-88.379,-41.992,-36.133,-44.434,276.367
1688814552.153,-113.281,-37.109,-35.156,-19.531,180.664
1688814552.157,-116.699,-36.621,-32.227,-45.898,-177.246
1688814552.161,-75.684,-40.039,-30.273,-73.242,-87.402
1688814552.177,-58.594,-39.551,-29.297,-45.898,90.820
1688814552.181,-80.078,-38.574,-30.273,-46.387,-38.086
1688814552.185,-105.469,-35.645,-26.855,-31.250,-112.305
1688814552.189,-116.699,-33.691,-26.855,-28.320,-10.254
1688814552.193,-84.473,-33.691,-27.832,-65.918,-97.168
1688814552.197,-58.105,-35.156,-24.414,-53.223,-171.875
1688814552.201,-66.895,-35.645,-23.926,-44.922,-104.004
1688814552.204,-101.074,-38.086,-28.809,-25.879,159.668
1688814552.208,-122.070,-37.598,-31.738,-17.090,219.238
1688814552.212,-97.656,-39.062,-27.344,-60.547,-126.465
1688814552.216,-83.008,-40.527,-26.367,-56.152,-131.836
1688814552.220,-94.238,-38.574,-23.438,-50.781,-35.645
1688814552.207,-125.977,-39.062,-22.461,-36.621,-41.992
1688814552.211,-145.996,-40.039,-25.879,-29.785,-75.195
1688814552.215,-109.863,-39.062,-28.809,-60.547,-124.512
1688814552.219,-73.242,-37.598,-30.273,-60.059,3.418
1688814552.223,-74.707,-40.527,-27.832,-53.223,-54.688
1688814552.227,-94.238,-46.387,-29.297,-37.598,-143.066
1688814552.231,-114.746,-44.434,-29.297,-30.273,106.934
1688814552.234,-94.238,-38.086,-27.832,-70.312,141.113
1688814552.238,-72.266,-42.480,-28.809,-69.336,-68.848
1688814552.242,-83.984,-45.410,-23.926,-51.270,-117.676
1688814552.246,-108.887,-44.922,-20.996,-40.527,-72.266
1688814552.250,-135.254,-47.852,-23.438,-10.254,256.836
1688814552.254,-121.094,-48.340,-25.879,-41.992,191.895
1688814552.258,-87.402,-48.828,-23.438,-61.523,-211.914
1688814552.262,-79.102,-44.434,-19.043,-46.875,-76.172
1688814552.266,-91.309,-39.551,-16.602,-30.762,2.930
1688814552.270,-106.934,-38.086,-16.602,-8.301,-105.957
1688814552.274,-91.797,-39.062,-20.996,-43.457,-56.641
1688814552.278,-53.711,-38.574,-24.902,-57.129,94.727
1688814552.281,-37.109,-36.621,-20.996,-36.133,30.762
1688814552.285,-50.781,-42.969,-21.484,-36.621,-189.941
1688814552.289,-78.613,-41.992,-21.484,-20.020,-160.645
1688814552.293,-80.566,-36.133,-22.949,-40.039,-8.789
1688814552.297,-41.992,-33.203,-21.973,-62.500,-16.113
1688814552.298,-23.438,-33.691,-15.625,-39.062,-197.266
1688814552.302,-35.156,-36.133,-16.113,-41.992,-216.797
1688814552.306,-59.082,-37.109,-22.949,-36.621,-25.391
1688814552.310,-58.105,-40.039,-26.855,-54.688,-14.648
1688814552.314,-18.066,-39.062,-19.531,-73.242,-192.871
1688814552.318,-2.441,-37.598,-18.066,-47.363,-80.566
1688814552.322,-21.973,-40.527,-20.508,-43.945,230.469
1688814552.325,-45.898,-41.504,-21.484,-22.949,259.766
1688814552.329,-46.875,-40.527,-25.391,-34.668,-62.988
1688814552.333,-20.020,-43.945,-24.414,-73.730,-176.758
1688814552.337,-5.859,-48.340,-22.461,-48.340,136.719
1688814552.341,-6.836,-45.410,-21.484,-34.668,99.121
1688814552.342,-25.879,-38.086,-19.531,-25.879,-124.512
1688814552.346,-35.645,-36.133,-21.484,-19.531,-69.336
1688814552.350,2.441,-34.180,-20.996,-55.664,-102.539
1688814552.354,25.879,-28.809,-20.508,-54.688,-148.926
1688814552.358,18.555,-26.367,-18.066,-39.551,-132.812
1688814552.362,-4.395,-28.809,-18.555,-24.414,147.949
1688814552.366,-29.297,-32.715,-26.367,-21.484,274.902
1688814552.369,-10.254,-31.250,-26.367,-61.035,-33.691
1688814552.373,12.695,-26.855,-20.996,-60.547,-179.688
1688814552.377,2.930,-27.344,-21.484,-51.270,44.434
1688814552.381,-21.484,-29.297,-21.973,-38.574,146.973
1688814552.385,-50.781,-34.668,-23.926,-22.949,-23.926
1688814552.402,-46.875,-39.551,-27.344,-62.988,-155.762
1688814552.406,-23.926,-41.016,-30.273,-69.824,-156.250
1688814552.410,-28.809,-44.922,-25.879,-51.270,-122.070
1688814552.414,-55.664,-46.875,-22.461,-40.039,-171.875
1688814552.418,-83.496,-41.016,-22.949,-17.578,-34.180
1688814552.422,-77.148,-45.410,-24.902,-48.828,23.926
1688814552.426,-46.875,-51.758,-23.438,-58.594,-71.777
1688814552.429,-49.805,-48.340,-14.648,-31.738,-26.367
1688814552.433,-82.520,-44.922,-19.043,-27.832,48.828
1688814552.437,-112.305,-39.062,-20.020,-1.465,346.191
1688814552.441,-96.680,-34.180,-17.090,-27.344,244.141
1688814552.445,-61.035,-38.086,-21.484,-57.617,-189.941
1688814552.447,-46.875,-39.551,-20.020,-35.645,-163.086
1688814552.451,-53.711,-38.574,-16.113,-28.320,-49.316
1688814552.455,-80.078,-41.016,-22.949,-14.160,-64.941
1688814552.459,-70.312,-33.203,-21.484,-34.668,-130.859
1688814552.463,-41.504,-28.320,-21.484,-61.523,-135.742
1688814552.467,-37.598,-31.738,-20.996,-43.945,-9.766
1688814552.471,-46.387,-31.250,-16.113,-29.785,49.805
1688814552.474,-80.078,-35.156,-20.020,-12.207,-86.914
1688814552.478,-83.008,-35.645,-22.461,-20.508,-5.859
1688814552.482,-47.363,-34.668,-21.973,-44.434,162.598
1688814552.486,-36.621,-31.250,-20.508,-26.367,-57.617
1688814552.490,-45.410,-29.785,-16.113,-23.926,-214.355
1688814552.492,-71.289,-35.156,-14.648,-11.719,-67.383
1688814552.496,-72.754,-36.133,-16.602,-11.230,7.812
1688814552.500,-36.621,-35.645,-18.555,-40.039,-126.953
1688814552.504,-24.414,-31.250,-14.648,-20.508,-115.723
1688814552.508,-40.039,-32.227,-13.184,-15.137,-64.941
1688814552.512,-65.918,-38.086,-11.719,0.488,27.344
1688814552.516,-79.102,-36.621,-6.348,4.395,84.961
1688814552.519,-53.711,-46.875,-13.184,-35.156,-21.973
1688814552.523,-41.992,-54.199,-17.578,-16.602,230.469
1688814552.527,-61.035,-52.246,-14.160,-4.395,239.258
1688814552.531,-90.332,-55.176,-8.301,-4.883,-109.375
1688814552.535,-95.215,-50.293,-7.324,-3.906,41.504
1688814552.537,-59.570,-43.457,-17.578,-43.945,90.332
1688814552.541,-25.879,-42.969,-20.996,-50.293,-153.320
1688814552.545,-20.020,-39.551,-20.020,-45.898,-178.223
1688814552.549,-40.527,-37.109,-25.391,-40.039,-28.320
1688814552.553,-63.477,-44.434,-26.855,-24.414,-50.781
1688814552.557,-50.293,-45.898,-26.367,-56.641,-159.668
1688814552.561,-25.391,-40.527,-22.949,-62.012,-84.473
1688814552.564,-23.926,-38.086,-18.066,-41.016,85.938
1688814552.568,-56.641,-39.062,-16.602,-25.879,135.254
1688814552.572,-101.074,-41.504,-16.113,-20.020,-55.664
1688814552.576,-91.309,-47.363,-21.973,-63.477,-123.047
1688814552.580,-62.988,-48.828,-19.531,-74.707,-136.230
1688814552.583,-64.453,-46.875,-15.625,-49.805,-179.199
1688814552.587,-81.055,-48.340,-16.113,-33.691,-138.184
1688814552.591,-98.633,-47.852,-11.719,-10.254,-34.180
1688814552.595,-81.543,-46.875,-16.602,-42.969,-4.395
1688814552.599,-39.062,-47.363,-20.996,-56.641,-54.199
1688814552.603,-21.484,-49.316,-18.066,-34.180,-65.430
1688814552.607,-29.785,-46.875,-19.043,-36.621,-22.461
1688814552.610,-43.457,-44.922,-19.531,-12.695,372.559
1688814552.614,-23.438,-45.410,-20.020,-32.227,260.742
1688814552.618,22.461,-41.016,-20.996,-62.988,-250.977
1688814552.622,39.062,-38.574,-24.902,-43.945,-80.078
1688814552.626,22.461,-38.086,-30.762,-44.434,35.645
1688814552.627,-12.695,-40.527,-32.227,-32.715,-100.586
1688814552.631,-21.973,-43.945,-30.273,-51.758,-88.867
1688814552.635,2.930,-46.387,-30.273,-85.938,-74.707
1688814552.639,6.836,-45.410,-33.203,-61.523,-115.234
1688814552.643,-10.254,-40.527,-35.645,-51.758,-114.746
1688814552.647,-44.922,-40.039,-33.203,-41.992,-47.363
1688814552.651,-61.035,-43.945,-29.297,-48.828,189.941
1688814552.654,-24.902,-42.969,-25.879,-72.754,285.645
1688814552.658,-2.441,-41.016,-27.344,-56.152,2.441
1688814552.662,-21.973,-43.457,-31.250,-50.293,-137.207
1688814552.666,-59.570,-44.434,-27.344,-29.785,-94.238
1688814552.670,-75.684,-42.480,-27.832,-23.926,-140.137
1688814552.672,-44.434,-44.434,-33.203,-64.453,-233.398
1688814552.676,-17.578,-45.410,-26.367,-53.711,-218.262
1688814552.680,-26.367,-39.062,-26.855,-47.852,-190.430
1688814552.684,-63.965,-38.086,-30.762,-45.410,-119.141
1688814552.688,-89.355,-37.109,-27.832,-37.598,-126.953
1688814552.692,-62.012,-34.180,-24.902,-80.078,-39.551
1688814552.696,-26.367,-34.180,-26.367,-71.777,222.656
1688814552.699,-21.973,-36.133,-27.344,-56.152,151.367
1688814552.703,-41.016,-39.062,-29.297,-54.199,-22.461
1688814552.707,-60.059,-42.969,-31.250,-41.016,14.648
1688814552.711,-42.480,-45.898,-32.227,-72.266,230.469
1688814552.715,-10.254,-39.062,-29.785,-75.684,155.273
1688814552.717,-9.766,-32.715,-28.809,-62.012,-187.988
1688814552.721,-44.434,-39.062,-37.109,-46.387,-155.762
1688814552.725,-72.754,-37.598,-35.645,-22.949,-8.789
1688814552.729,-51.270,-34.668,-33.691,-58.594,-85.938
1688814552.733,-13.672,-37.109,-32.227,-65.918,-167.480
1688814552.737,-10.254,-32.715,-24.414,-45.898,109.863
1688814552.741,-25.879,-33.691,-25.391,-44.434,184.570
1688814552.744,-49.316,-41.504,-29.297,-33.691,-25.391
1688814552.748,-34.180,-41.504,-24.414,-60.547,-174.805
1688814552.752,7.812,-41.016,-23.438,-71.777,-6.348
1688814552.756,16.602,-39.551,-26.855,-53.711,52.734
1688814552.760,3.418,-41.504,-21.973,-46.875,-175.781
1688814552.792,-26.855,-43.457,-20.020,-29.297,-118.164
1688814552.796,-25.391,-39.062,-22.949,-48.340,-33.203
1688814552.800,7.324,-39.551,-24.902,-69.336,-70.312
1688814552.804,2.441,-39.551,-24.414,-56.641,-145.508
1688814552.808,-30.273,-39.062,-24.902,-52.246,-129.395
1688814552.812,-75.195,-44.434,-27.344,-28.809,55.176
1688814552.816,-93.750,-45.410,-23.438,-47.852,34.180
1688814552.819,-71.777,-44.434,-22.949,-75.195,-126.465
1688814552.823,-61.523,-41.504,-21.484,-48.340,-83.496
1688814552.827,-78.613,-41.016,-18.555,-28.809,163.086
1688814552.831,-102.539,-40.527,-19.531,-6.348,203.613
1688814552.835,-98.633,-41.016,-24.902,-32.715,-70.801
1688814552.822,-60.547,-41.504,-30.273,-72.266,-33.203
1688814552.826,-28.320,-33.691,-31.250,-51.758,46.875
1688814552.830,-36.133,-28.320,-29.785,-50.293,-100.098
1688814552.834,-59.570,-30.273,-30.762,-37.109,-133.301
1688814552.838,-58.594,-30.762,-28.809,-27.832,-52.246
1688814552.842,-18.555,-27.832,-23.438,-65.430,-29.297
1688814552.846,8.301,-26.367,-22.461,-49.805,-92.285
1688814552.849,2.930,-28.809,-19.043,-35.645,-141.113
1688814552.853,-18.555,-29.297,-14.160,-25.879,-7.812
1688814552.857,-23.926,-30.762,-17.090,-9.766,-17.578
1688814552.861,10.742,-30.273,-19.043,-51.270,-177.734
1688814552.865,29.785,-30.762,-14.648,-61.523,-125.488
1688814552.868,18.066,-29.785,-19.043,-44.922,-8.301
1688814552.872,-5.859,-29.297,-24.902,-34.180,-1.465
1688814552.876,-23.926,-32.227,-24.414,-37.109,-51.270
1688814552.880,-3.906,-36.621,-27.832,-82.031,-147.461
1688814552.884,31.250,-36.133,-24.902,-67.871,103.027
1688814552.888,38.574,-32.715,-25.391,-36.133,200.684
1688814552.892,12.695,-36.133,-24.902,-34.668,-70.312
1688814552.895,-26.855,-40.527,-19.043,-29.297,14.160
1688814552.899,-20.508,-37.598,-20.020,-55.664,253.418
1688814552.903,0.488,-33.203,-22.949,-69.336,156.738
1688814552.907,-3.418,-31.250,-28.809,-54.199,-173.828
1688814552.911,-22.949,-31.738,-26.367,-35.156,-139.648
1688814552.912,-54.199,-35.156,-19.043,-17.578,-102.051
1688814552.916,-43.457,-38.086,-22.949,-49.316,-270.996
1688814552.920,-1.953,-39.062,-24.902,-64.453,-290.527
1688814552.924,5.371,-38.086,-21.973,-41.504,-165.527
1688814552.928,-18.066,-40.527,-17.578,-41.016,-71.777
1688814552.932,-50.781,-40.527,-19.043,-27.344,1.953
1688814552.936,-49.316,-38.086,-22.461,-46.875,-39.551
1688814552.939,-20.508,-36.133,-24.902,-65.918,18.066
1688814552.943,-11.719,-30.762,-23.438,-40.527,227.539
1688814552.947,-19.043,-32.715,-19.531,-29.297,30.273
1688814552.951,-41.992,-37.109,-21.484,-12.695,-126.465
1688814552.955,-42.969,-37.598,-21.973,-24.414,-120.605
1688814552.957,-11.230,-37.109,-21.484,-55.176,-149.414
1688814552.961,-3.906,-37.109,-18.555,-42.969,-141.113
1688814552.965,-26.367,-36.621,-17.578,-35.645,-92.285
1688814552.969,-57.129,-37.598,-16.602,-15.625,-26.855
1688814552.973,-66.406,-38.574,-20.508,-29.297,-82.031
1688814552.977,-30.273,-37.598,-20.508,-72.754,-77.637
1688814552.981,-8.301,-41.504,-20.996,-56.152,-4.883
1688814552.984,-20.020,-40.527,-28.809,-34.668,261.230
1688814552.988,-46.387,-37.598,-24.414,-25.391,331.543
1688814552.992,-59.570,-40.527,-21.484,-43.945,32.715
1688814552.996,-29.297,-40.039,-20.020,-78.613,-72.754
1688814553.000,2.441,-34.180,-14.160,-58.594,69.336
1688814553.017,-4.395,-34.180,-15.625,-50.781,-14.648
1688814553.021,-31.250,-36.621,-22.949,-33.203,-111.816
1688814553.025,-44.922,-39.551,-21.484,-27.344,2.441
1688814553.029,-15.625,-37.109,-16.602,-69.336,-52.734
1688814553.033,12.207,-30.762,-14.160,-61.523,-146.973
1688814553.037,4.883,-37.109,-14.648,-53.711,-93.262
1688814553.041,-25.391,-39.551,-17.090,-48.340,134.277
1688814553.044,-52.246,-37.109,-17.090,-38.086,231.934
1688814553.048,-24.414,-40.527,-19.043,-69.824,-74.219
1688814553.052,8.789,-40.527,-17.578,-65.430,-163.086
1688814553.056,9.766,-39.062,-17.090,-50.781,-28.320
1688814553.060,-6.348,-35.645,-20.508,-47.852,-47.852
1688814553.047,-29.297,-37.109,-19.531,-33.691,-160.645
1688814553.051,-8.301,-41.504,-16.113,-60.059,-169.922
1688814553.055,22.461,-42.480,-18.555,-62.012,-99.121
1688814553.059,25.879,-38.574,-17.578,-35.156,-151.855
1688814553.063,11.719,-39.551,-19.531,-33.203,-230.957
1688814553.067,-22.949,-42.480,-21.973,-20.020,-39.062
1688814553.071,-11.230,-42.480,-20.020,-42.480,40.527
1688814553.074,29.297,-39.062,-24.414,-57.129,-118.652
1688814553.078,34.180,-35.645,-22.461,-39.551,-77.148
1688814553.082,12.207,-40.527,-19.043,-35.645,-63.965
1688814553.086,-23.438,-41.992,-18.066,-15.137,270.996
1688814553.090,-19.043,-44.922,-19.043,-41.016,340.332
1688814553.092,21.973,-46.875,-20.508,-72.266,-120.117
1688814553.096,26.855,-42.969,-18.066,-45.898,-140.625
1688814553.100,6.348,-40.039,-18.555,-35.156,-62.500
1688814553.104,-27.832,-45.410,-23.438,-17.578,-78.125
1688814553.108,-36.621,-44.922,-21.973,-22.949,-138.672
1688814553.112,-6.836,-38.574,-22.949,-56.152,47.852
1688814553.116,7.812,-35.156,-26.855,-46.875,178.223
1688814553.119,-7.324,-35.645,-24.414,-43.457,-67.871
1688814553.123,-48.340,-38.574,-20.508,-34.180,-144.043
1688814553.127,-59.082,-36.621,-20.020,-28.809,49.805
1688814553.131,-23.438,-32.715,-23.926,-54.199,34.668
1688814553.135,-11.230,-32.715,-28.320,-48.828,-219.727
1688814553.152,-33.203,-38.574,-23.438,-38.574,-177.246
1688814553.156,-66.406,-41.504,-15.137,-27.344,-22.949
1688814553.160,-91.309,-37.598,-14.160,-38.574,-27.832
1688814553.164,-67.871,-36.133,-23.926,-78.125,-165.527
1688814553.168,-42.969,-38.574,-26.367,-71.289,-155.762
1688814553.172,-48.340,-38.574,-20.996,-52.734,14.648
1688814553.176,-65.918,-38.574,-16.602,-34.180,-3.906
1688814553.179,-94.238,-41.992,-23.926,-34.668,-8.789
1688814553.183,-69.336,-39.551,-30.762,-67.871,-80.566
1688814553.187,-35.156,-43.945,-30.273,-61.035,156.250
1688814553.191,-44.434,-43.945,-31.250,-48.340,152.344
1688814553.195,-68.359,-41.992,-25.879,-41.016,-166.992
1688814553.197,-97.168,-45.410,-23.926,-42.480,0.977
1688814553.201,-73.730,-41.992,-24.414,-78.613,-40.527
1688814553.205,-34.180,-41.016,-22.949,-72.754,-169.434
1688814553.209,-41.016,-47.852,-25.391,-64.941,-188.477
1688814553.213,-66.895,-47.852,-28.809,-50.293,-2.441
1688814553.217,-90.332,-41.504,-26.367,-26.855,154.785
1688814553.221,-81.543,-41.504,-20.996,-60.547,-77.148
1688814553.224,-57.129,-39.551,-21.484,-69.336,-200.684
1688814553.228,-62.988,-34.180,-26.367,-44.434,66.895
1688814553.232,-86.914,-35.645,-23.926,-32.715,209.961
1688814553.236,-119.629,-35.156,-19.531,-18.555,-13.184
1688814553.240,-130.859,-32.715,-22.461,-50.293,-132.812
1688814553.242,-109.863,-36.133,-24.902,-68.359,-155.273
1688814553.246,-99.121,-42.969,-22.461,-42.480,-116.699
1688814553.250,-112.305,-46.387,-16.113,-38.086,-135.742
1688814553.254,-140.625,-43.945,-15.625,-25.879,-83.008
1688814553.258,-130.859,-39.551,-21.484,-44.922,-31.250
1688814553.262,-86.914,-41.504,-24.414,-67.871,-99.121
1688814553.266,-70.801,-42.480,-22.949,-47.363,-100.098
1688814553.269,-87.402,-39.062,-27.344,-35.645,-110.840
1688814553.273,-116.699,-39.062,-25.879,-7.812,304.688
1688814553.277,-118.652,-41.992,-18.555,-16.113,499.023
1688814553.281,-85.938,-39.062,-23.926,-53.711,5.859
1688814553.285,-82.520,-30.273,-29.297,-50.293,-110.840
1688814553.287,-109.375,-33.203,-23.926,-43.945,-62.012
1688814553.291,-140.625,-35.645,-19.531,-18.066,-115.234
1688814553.295,-145.996,-35.645,-21.973,-33.691,-136.230
1688814553.299,-111.816,-35.645,-22.461,-71.289,-193.359
1688814553.303,-101.074,-35.645,-20.020,-48.828,-178.223
1688814553.307,-126.465,-38.574,-26.367,-39.062,-44.922
1688814553.311,-168.945,-34.668,-29.297,-28.809,-28.809
1688814553.314,-174.805,-33.691,-27.344,-27.344,163.086
1688814553.318,-131.348,-39.551,-26.855,-61.035,239.746
1688814553.322,-103.027,-36.621,-23.926,-63.965,-115.234
1688814553.326,-93.262,-29.297,-24.414,-51.758,-239.746
1688814553.330,-111.328,-30.762,-20.508,-37.109,4.395
1688814553.332,-123.047,-29.297,-20.996,-33.203,93.262
1688814553.336,-85.449,-26.855,-31.250,-71.777,-123.535
1688814553.340,-52.246,-28.320,-29.785,-62.988,-181.152
1688814553.344,-51.758,-27.344,-28.809,-50.781,-143.066
1688814553.348,-72.266,-27.344,-31.250,-40.039,-109.375
1688814553.352,-98.633,-31.250,-25.879,-21.973,-64.941
1688814553.356,-87.402,-37.109,-23.438,-70.801,-110.840
1688814553.359,-68.359,-36.621,-22.461,-67.383,223.633
1688814553.363,-82.520,-35.645,-21.973,-43.457,206.055
1688814553.367,-120.117,-35.645,-21.484,-52.246,-231.934
1688814553.371,-146.484,-32.715,-23.438,-40.527,-43.457
1688814553.375,-122.559,-33.691,-21.484,-65.430,63.477
1688814553.377,-85.938,-37.109,-20.020,-80.078,-155.273
1688814553.381,-77.637,-39.551,-19.531,-72.754,-145.508
1688814553.385,-86.914,-41.016,-19.531,-64.941,-103.516
1688814553.389,-105.469,-41.992,-24.414,-32.227,-62.500
1688814553.393,-92.285,-42.969,-25.879,-52.734,-95.215
1688814553.397,-50.293,-41.992,-20.020,-66.895,-113.770
1688814553.401,-35.156,-39.551,-18.555,-39.062,141.113
1688814553.404,-50.781,-40.527,-24.414,-26.855,210.938
1688814553.408,-70.801,-42.480,-25.879,-16.113,-56.152
1688814553.412,-59.570,-38.086,-20.020,-39.551,-174.805
1688814553.416,-23.926,-35.156,-23.438,-61.035,-113.770
1688814553.420,-3.906,-33.203,-23.438,-41.504,-67.383
1688814553.423,-14.160,-31.738,-18.066,-29.297,-97.168
1688814553.427,-42.969,-34.180,-23.438,-13.184,-87.402
1688814553.431,-51.758,-34.668,-25.391,-32.227,-31.250
1688814553.435,-26.855,-38.086,-23.926,-68.359,-153.320
1688814553.439,-5.859,-36.621,-20.020,-42.969,-229.980
1688814553.443,-28.320,-36.133,-19.531,-37.109,-74.707
1688814553.447,-66.895,-40.039,-20.996,-17.578,153.320
1688814553.450,-70.312,-31.738,-17.090,-22.461,107.910
1688814553.454,-32.227,-32.715,-18.555,-65.918,-72.266
1688814553.458,-13.184,-37.598,-20.508,-48.828,-25.391
1688814553.462,-25.879,-35.156,-22.461,-31.738,110.352
1688814553.466,-51.758,-34.180,-24.902,-19.531,37.109
1688814553.467,-64.453,-32.715,-23.438,-22.949,-90.332
1688814553.471,-40.039,-32.227,-23.438,-57.129,-60.059
1688814553.475,-14.648,-33.203,-23.926,-45.410,-22.461
1688814553.479,-29.785,-35.156,-25.879,-40.039,-20.508
1688814553.483,-62.500,-35.645,-28.320,-33.203,-30.762
1688814553.487,-82.031,-33.203,-25.391,-13.184,138.672
1688814553.491,-61.523,-33.203,-19.531,-47.363,284.668
1688814553.494,-26.855,-34.668,-18.555,-54.688,-26.367
1688814553.498,-26.367,-35.645,-21.973,-41.992,-208.496
1688814553.502,-48.340,-34.668,-17.578,-23.438,-113.770
1688814553.506,-68.848,-33.691,-15.137,-8.789,-73.730
1688814553.510,-49.316,-30.762,-20.508,-55.176,-198.242
1688814553.527,-16.113,-33.691,-24.902,-58.594,-229.492
1688814553.531,-10.742,-34.668,-24.902,-39.062,-139.648
1688814553.535,-31.250,-34.668,-22.461,-31.250,-122.559
1688814553.539,-52.246,-36.133,-20.508,-20.508,-146.484
1688814553.543,-30.273,-36.621,-21.973,-56.152,-180.664
1688814553.547,1.465,-36.133,-26.855,-66.895,-90.820
1688814553.551,6.836,-39.551,-27.832,-52.734,-18.555
1688814553.554,-6.836,-40.527,-26.855,-45.898,30.762
1688814553.558,-42.480,-40.527,-28.320,-28.809,200.684
1688814553.562,-35.645,-39.062,-28.809,-55.176,166.504
1688814553.566,0.977,-37.598,-27.344,-68.848,-112.305
1688814553.570,4.883,-45.410,-31.738,-53.223,-202.637
1688814553.572,-15.137,-47.363,-31.738,-48.828,-47.852
1688814553.576,-45.410,-45.410,-34.180,-27.344,155.762
1688814553.580,-37.598,-43.457,-38.574,-54.688,-7.812
1688814553.584,-3.418,-48.340,-35.645,-89.355,-242.188
1688814553.588,7.812,-49.805,-33.691,-68.848,15.137
1688814553.592,1.465,-45.410,-28.809,-54.688,153.809
1688814553.596,-25.879,-46.875,-23.926,-39.551,-34.668
1688814553.599,-35.645,-42.480,-27.344,-51.270,-71.777
1688814553.603,-5.371,-43.457,-31.250,-74.707,87.891
1688814553.607,9.766,-44.434,-34.668,-54.199,214.355
1688814553.611,-4.883,-41.016,-34.180,-51.270,-18.066
1688814553.615,-35.645,-42.480,-22.949,-38.574,-80.078
1688814553.617,-55.176,-44.922,-25.879,-54.688,-123.535
1688814553.621,-28.320,-45.898,-35.645,-95.215,-236.328
1688814553.625,-16.602,-42.480,-34.180,-81.543,-201.172
1688814553.629,-32.715,-43.457,-30.762,-72.754,-154.785
1688814553.633,-56.152,-47.363,-30.273,-50.781,-71.777
1688814553.637,-81.543,-42.969,-32.715,-45.898,13.672
1688814553.641,-56.152,-37.598,-34.668,-79.102,32.715
1688814553.644,-25.391,-40.039,-36.133,-68.359,-49.805
1688814553.648,-26.367,-40.039,-36.621,-47.852,121.094
1688814553.652,-43.457,-39.551,-32.227,-19.531,246.582
1688814553.656,-59.570,-41.992,-29.297,-20.996,6.348
1688814553.660,-31.738,-41.504,-25.391,-66.406,-88.867
1688814553.662,-4.883,-36.621,-23.438,-55.664,-89.355
1688814553.666,-14.648,-37.598,-24.414,-37.109,-166.016
1688814553.670,-39.062,-34.180,-21.973,-19.043,-151.855
1688814553.674,-62.500,-32.715,-23.926,-4.883,-73.242
1688814553.678,-38.574,-36.133,-21.484,-42.969,-127.930
1688814553.682,-6.836,-38.574,-17.578,-50.781,-62.012
1688814553.686,-19.531,-40.039,-22.949,-41.016,-8.789
1688814553.689,-49.805,-39.062,-24.902,-28.809,79.102
1688814553.693,-83.496,-41.504,-26.367,-15.137,169.922
1688814553.697,-75.195,-40.039,-26.855,-62.500,-121.094
1688814553.701,-48.828,-44.922,-26.367,-78.125,-187.988
1688814553.705,-50.293,-44.434,-22.461,-50.293,-67.871
1688814553.708,-73.242,-38.086,-23.438,-40.039,49.316
1688814553.712,-107.422,-37.109,-29.297,-24.902,58.105
1688814553.716,-97.168,-40.039,-27.344,-44.922,-45.410
1688814553.720,-62.988,-40.039,-23.926,-57.617,-31.250
1688814553.724,-61.035,-35.156,-26.367,-44.434,-47.363
1688814553.728,-79.590,-35.156,-28.809,-33.203,-27.344
1688814553.732,-108.398,-34.668,-28.809,-15.137,14.160
1688814553.735,-99.121,-34.668,-24.902,-35.156,320.312
1688814553.739,-60.059,-38.574,-29.297,-57.617,260.254
1688814553.743,-53.223,-39.551,-30.762,-47.852,-168.945
1688814553.747,-64.941,-38.574,-26.367,-34.668,-126.953
1688814553.751,-80.566,-38.086,-19.043,-20.020,-52.734
1688814553.753,-83.008,-39.551,-17.090,-41.016,-102.051
1688814553.757,-56.641,-38.574,-22.461,-60.059,-171.387
1688814553.761,-46.875,-35.645,-29.785,-38.574,37.109
1688814553.765,-55.664,-33.203,-28.320,-35.156,112.793
1688814553.769,-81.055,-37.109,-27.832,-22.949,-60.059
1688814553.773,-106.445,-41.504,-31.250,-33.203,9.766
1688814553.777,-87.891,-39.551,-31.738,-56.641,136.719
1688814553.780,-68.848,-38.574,-28.320,-38.574,238.281
1688814553.784,-73.242,-33.203,-19.043,-39.062,-64.453
1688814553.788,-99.121,-27.832,-17.578,-23.438,-130.371
1688814553.792,-114.746,-33.203,-24.414,-28.320,-37.598
1688814553.796,-75.684,-34.180,-24.414,-74.219,-138.672
1688814553.812,-40.039,-33.203,-21.973,-65.430,-147.949
1688814553.816,-39.551,-41.504,-24.902,-53.711,-185.547
1688814553.820,-58.594,-41.504,-26.367,-38.574,-105.957
1688814553.824,-72.266,-39.551,-29.785,-37.109,-12.695
1688814553.828,-42.969,-39.062,-28.320,-73.242,-129.395
1688814553.832,-11.719,-37.598,-22.461,-65.918,-152.344
1688814553.836,-9.277,-30.762,-20.508,-33.203,136.230
1688814553.839,-31.250,-29.297,-19.043,-26.855,191.895
1688814553.843,-51.270,-30.273,-14.160,-29.297,-56.641
1688814553.847,-33.691,-29.297,-15.625,-58.105,-79.102
1688814553.851,-7.324,-30.762,-20.508,-58.105,74.707
1688814553.855,-14.160,-30.762,-22.949,-44.434,-50.781
1688814553.842,-44.434,-33.203,-22.949,-40.039,-208.984
1688814553.846,-70.312,-32.715,-22.949,-25.879,-110.840
1688814553.850,-48.828,-30.762,-21.973,-61.035,-143.555
1688814553.854,-5.371,-30.762,-19.531,-65.430,-210.938
1688814553.858,-8.301,-33.691,-20.996,-55.176,-114.258
1688814553.862,-40.039,-34.180,-20.996,-51.758,87.402
1688814553.866,-70.312,-34.180,-20.508,-30.273,70.312
1688814553.869,-67.383,-39.062,-24.414,-59.082,-142.578
1688814553.873,-33.691,-39.062,-25.391,-73.730,-275.879
1688814553.877,-22.949,-34.668,-21.973,-43.457,-24.902
1688814553.881,-46.387,-31.250,-20.020,-22.461,200.195
1688814553.885,-78.613,-31.738,-14.648,-12.207,-26.855
1688814553.903,-70.801,-35.645,-14.648,-45.898,-151.855
1688814553.907,-36.621,-38.574,-21.973,-67.871,-67.871
1688814553.911,-30.762,-38.086,-20.996,-38.086,-62.988
1688814553.915,-47.363,-38.086,-17.578,-31.250,-188.965
1688814553.919,-77.637,-41.504,-18.066,-20.996,-80.078
1688814553.923,-74.219,-41.016,-17.090,-32.227,66.406
1688814553.927,-33.203,-38.574,-17.578,-58.105,36.621
1688814553.930,-21.484,-35.645,-20.508,-46.875,4.883
1688814553.934,-36.133,-34.668,-19.531,-39.062,-82.031
1688814553.938,-61.035,-36.133,-16.602,-15.625,247.070
1688814553.942,-66.895,-36.133,-18.555,-17.578,337.402
1688814553.946,-32.227,-33.691,-22.949,-46.875,-133.789
1688814553.947,-7.812,-31.250,-26.855,-36.621,-85.938
1688814553.951,-20.508,-35.156,-26.855,-31.250,-23.438
1688814553.955,-56.152,-38.086,-19.043,-17.578,-122.070
1688814553.959,-78.613,-36.133,-17.578,-20.996,-62.500
1688814553.963,-56.152,-37.598,-22.461,-55.176,-63.477
1688814553.967,-41.016,-40.039,-21.484,-47.852,27.344
1688814553.971,-61.523,-39.551,-23.438,-42.480,60.547
1688814553.974,-87.402,-34.668,-20.996,-30.762,-77.148
1688814553.978,-111.816,-32.227,-22.949,-25.879,90.820
1688814553.982,-91.797,-32.715,-22.949,-53.711,194.824
1688814553.986,-60.059,-37.109,-23.438,-54.199,-83.984
1688814553.990,-62.500,-38.574,-22.949,-48.828,-135.254
1688814553.992,-89.355,-39.062,-23.926,-32.715,52.734
1688814553.996,-113.281,-36.133,-23.926,-18.555,48.828
1688814554.000,-86.426,-30.762,-19.043,-51.270,-130.371
1688814554.004,-40.039,-33.203,-19.043,-55.176,-105.957
1688814554.008,-29.785,-32.715,-17.090,-44.434,-65.430
1688814554.012,-53.223,-34.668,-20.020,-35.645,-70.801
1688814554.016,-94.238,-40.527,-24.414,-18.555,39.551
1688814554.019,-83.008,-37.109,-23.438,-53.711,20.020
1688814554.023,-40.039,-35.645,-25.391,-62.988,229.492
1688814554.027,-35.156,-36.621,-25.391,-44.922,254.883
1688814554.031,-48.828,-32.227,-26.367,-45.898,-134.277
1688814554.035,-73.730,-28.809,-32.227,-24.414,-27.344
1688814554.038,-59.570,-22.461,-33.691,-49.805,35.156
1688814554.042,-17.578,-21.484,-27.832,-74.219,-162.598
1688814554.046,-11.719,-25.879,-24.902,-51.270,-165.039
1688814554.050,-43.457,-26.367,-24.902,-35.156,-20.996
1688814554.054,-87.891,-28.809,-18.555,-12.207,86.914
1688814554.058,-93.750,-28.320,-13.672,-27.344,6.836
1688814554.062,-77.148,-28.809,-14.648,-52.246,-23.438
1688814554.065,-87.891,-33.691,-13.672,-36.621,125.000
1688814554.069,-111.328,-30.762,-13.184,-31.250,188.477
1688814554.073,-140.625,-27.832,-16.113,-20.020,-91.309
1688814554.077,-147.461,-32.715,-16.113,-36.621,-188.965
1688814554.081,-110.352,-33.203,-19.043,-66.895,-148.438
1688814554.082,-87.402,-31.738,-24.902,-48.340,-134.766
1688814554.086,-99.121,-31.738,-22.949,-35.156,-113.281
1688814554.090,-142.090,-31.250,-24.902,-14.648,-36.133
1688814554.094,-164.062,-33.691,-28.809,-25.391,-34.180
1688814554.098,-143.066,-35.156,-23.926,-64.453,-104.980
1688814554.102,-140.625,-36.621,-15.625,-54.199,2.441
1688814554.106,-154.297,-37.598,-16.113,-53.223,-53.711
1688814554.109,-170.410,-36.621,-20.020,-29.785,212.402
1688814554.113,-179.688,-34.180,-19.043,-25.391,348.633
1688814554.117,-142.578,-30.762,-20.508,-68.359,-165.039
1688814554.121,-107.422,-36.621,-23.438,-62.988,-177.734
1688814554.125,-99.121,-35.156,-17.578,-45.898,32.715
1688814554.127,-110.840,-30.762,-17.090,-31.250,-52.246
1688814554.131,-137.695,-37.598,-20.020,-24.414,-172.363
1688814554.135,-118.164,-38.574,-21.484,-56.641,-194.824
1688814554.139,-92.773,-36.133,-25.879,-62.988,-192.383
1688814554.143,-105.957,-38.574,-26.855,-52.734,-185.547
1688814554.147,-132.812,-40.039,-25.391,-38.086,-79.102
1688814554.151,-145.996,-41.016,-24.414,-19.531,202.148
1688814554.154,-122.559,-37.598,-28.320,-53.223,255.859
1688814554.158,-98.633,-32.227,-28.320,-61.523,-73.730
1688814554.162,-111.328,-39.551,-26.367,-41.016,-144.043
1688814554.166,-145.996,-41.992,-26.855,-41.016,-57.129
1688814554.170,-181.152,-38.086,-26.367,-37.598,-59.082
1688814554.172,-168.457,-42.480,-27.344,-64.941,-157.715
1688814554.176,-131.836,-45.898,-28.320,-71.777,-178.711
1688814554.180,-130.371,-46.875,-20.996,-52.734,-55.176
1688814554.184,-155.762,-44.922,-16.602,-44.922,-36.133
1688814554.188,-184.082,-47.363,-20.020,-28.320,-13.184
1688814554.192,-162.109,-47.852,-17.578,-44.434,47.363
1688814554.196,-120.605,-44.434,-16.602,-48.828,176.758
1688814554.199,-119.629,-46.387,-24.414,-36.621,114.746
1688814554.203,-132.324,-41.504,-26.855,-33.203,-162.598
1688814554.207,-160.156,-39.062,-27.832,-14.648,-87.891
1688814554.211,-163.574,-41.504,-30.762,-36.133,209.961
1688814554.215,-118.164,-41.504,-25.391,-62.988,17.090
1688814554.217,-93.750,-39.551,-16.602,-42.969,-282.227
1688814554.221,-118.652,-37.109,-13.184,-22.949,-194.824
1688814554.225,-157.715,-37.598,-16.113,-9.766,-58.594
1688814554.229,-159.668,-35.156,-14.648,-31.250,-60.059
1688814554.233,-125.000,-35.645,-11.230,-64.941,-173.340
1688814554.237,-112.305,-41.992,-18.555,-44.922,-7.324
1688814554.241,-127.930,-41.504,-25.879,-29.785,139.160
1688814554.244,-156.250,-38.574,-24.902,-20.996,49.316
1688814554.248,-163.574,-43.945,-25.391,-32.715,-83.984
1688814554.252,-123.535,-42.480,-21.973,-57.617,41.992
1688814554.256,-103.516,-43.945,-17.090,-49.316,62.012
1688814554.260,-120.117,-50.293,-23.926,-51.270,-186.035
1688814554.277,-136.230,-47.852,-30.762,-36.621,-133.301
1688814554.281,-135.254,-45.410,-26.855,-31.250,-15.137
1688814554.285,-87.402,-46.875,-20.996,-59.082,-125.488
1688814554.289,-59.082,-45.410,-23.438,-55.664,-262.695
1688814554.293,-73.730,-43.457,-26.855,-36.133,-151.855
1688814554.297,-103.516,-45.410,-28.809,-13.672,59.082
1688814554.301,-121.582,-45.410,-29.785,-10.254,105.469
1688814554.304,-87.891,-41.016,-27.832,-51.270,-29.297
1688814554.308,-47.852,-35.645,-24.902,-52.734,-89.844
1688814554.312,-43.457,-35.645,-27.344,-29.297,165.039
1688814554.316,-64.941,-37.109,-27.832,-17.090,167.480
1688814554.320,-78.125,-34.668,-24.414,-11.230,-29.297
1688814554.323,-53.223,-35.156,-24.414,-48.340,-43.457
1688814554.327,-19.043,-37.598,-25.391,-56.641,-57.129
1688814554.331,-18.066,-35.645,-28.809,-38.574,-132.812
1688814554.335,-41.504,-34.668,-32.715,-30.762,-166.504
1688814554.339,-65.430,-32.715,-33.203,-5.371,40.039
1688814554.343,-49.316,-33.203,-36.621,-40.527,84.473
1688814554.347,-6.348,-33.691,-36.621,-63.477,-81.055
1688814554.350,7.324,-31.738,-34.180,-43.945,-141.113
1688814554.354,-9.766,-30.762,-30.762,-35.156,32.227
1688814554.358,-38.574,-30.762,-25.879,-16.113,149.414
1688814554.362,-27.832,-35.645,-25.391,-48.828,-110.352
1688814554.366,4.395,-36.621,-23.438,-69.336,-175.293
1688814554.367,5.859,-35.156,-23.438,-45.410,-65.430
1688814554.371,-11.719,-34.180,-25.879,-35.156,-10.254
1688814554.375,-51.758,-35.156,-26.367,-23.926,1.953
1688814554.379,-54.688,-39.551,-35.156,-56.152,-4.395
1688814554.383,-6.348,-38.574,-36.621,-75.684,10.254
1688814554.387,16.113,-36.621,-30.762,-49.316,1.465
1688814554.391,2.441,-37.109,-25.879,-40.039,20.508
1688814554.394,-25.391,-36.133,-17.578,-18.555,80.566
1688814554.398,-27.832,-37.598,-18.555,-20.508,272.461
1688814554.402,10.254,-37.109,-22.949,-43.457,216.797
1688814554.406,40.039,-33.203,-22.949,-31.250,-114.746
1688814554.410,41.016,-32.227,-20.508,-28.320,-157.715
1688814554.412,21.484,-34.180,-21.973,-16.602,-74.219
1688814554.416,15.625,-32.715,-21.973,-26.855,-90.332
1688814554.420,45.898,-34.180,-19.043,-58.594,-200.684
1688814554.424,62.988,-37.109,-21.484,-43.945,-180.176
1688814554.428,47.852,-33.691,-24.414,-37.109,-32.715
1688814554.432,14.160,-34.180,-23.438,-21.973,14.648
1688814554.436,-4.883,-36.621,-21.484,-24.414,-43.457
1688814554.439,14.648,-36.621,-22.949,-56.152,137.207
1688814554.443,27.832,-39.062,-25.879,-41.016,255.859
1688814554.447,18.555,-36.133,-26.367,-41.016,-70.801
1688814554.451,-9.766,-32.227,-22.461,-34.180,-175.293
1688814554.455,-44.434,-35.156,-22.461,-24.414,-73.242
1688814554.457,-32.715,-38.574,-22.949,-63.477,-176.758
1688814554.461,-9.766,-33.203,-22.461,-51.758,-224.609
1688814554.465,-29.785,-31.738,-26.855,-35.156,-151.367
1688814554.469,-66.895,-36.133,-23.438,-29.297,-121.094
1688814554.473,-98.145,-39.062,-20.508,-16.113,-42.480
1688814554.477,-87.891,-42.480,-21.973,-53.223,-47.852
1688814554.481,-59.082,-42.480,-20.020,-58.594,-106.934
1688814554.484,-51.270,-38.574,-19.043,-33.203,194.824
1688814554.488,-64.941,-34.668,-18.066,-27.344,276.367
1688814554.492,-92.773,-36.133,-17.578,-17.090,-47.852
1688814554.496,-85.449,-40.039,-18.555,-49.805,-61.523
1688814554.500,-51.270,-39.551,-20.020,-62.500,-13.184
1688814554.503,-45.898,-35.156,-22.949,-45.898,-99.121
1688814554.507,-73.730,-28.809,-23.438,-40.039,-75.195
1688814554.511,-107.910,-31.250,-24.902,-26.855,17.090
1688814554.515,-95.215,-31.738,-27.832,-61.523,-64.941
1688814554.519,-54.199,-31.250,-26.855,-77.637,-187.988
1688814554.523,-43.945,-35.645,-24.414,-58.105,-133.301
1688814554.527,-59.570,-36.621,-22.949,-45.410,205.566
1688814554.530,-83.984,-36.621,-23.438,-24.902,390.137
1688814554.534,-83.496,-38.574,-22.949,-50.293,-30.273
1688814554.538,-63.965,-40.039,-20.020,-66.406,-224.121
1688814554.542,-70.801,-31.738,-18.555,-35.156,-105.957
1688814554.546,-77.148,-27.344,-15.625,-24.414,15.625
1688814554.564,-90.820,-31.738,-17.578,-11.230,-24.902
1688814554.568,-95.215,-32.715,-17.090,-22.949,-111.816
1688814554.572,-64.453,-33.203,-19.043,-55.176,-70.312
1688814554.576,-44.922,-33.691,-23.438,-44.922,-69.336
1688814554.580,-53.223,-35.645,-23.438,-39.062,-109.375
1688814554.584,-91.309,-41.992,-24.902,-29.297,-15.137
1688814554.588,-98.145,-38.086,-25.879,-36.621,241.699
1688814554.591,-59.082,-34.180,-27.344,-72.266,150.391
1688814554.595,-45.410,-37.109,-27.832,-68.359,-159.668
1688814554.599,-60.059,-31.738,-26.367,-49.805,-93.262
1688814554.603,-98.145,-29.785,-22.461,-29.785,111.328
1688814554.607,-116.699,-32.715,-19.531,-29.297,-35.156
1688814554.593,-90.332,-33.203,-19.531,-70.312,-245.605
1688814554.597,-79.590,-32.227,-19.531,-64.941,18.066
1688814554.601,-93.750,-31.250,-21.973,-45.898,129.395
1688814554.605,-127.441,-33.691,-21.484,-41.016,-94.238
1688814554.609,-148.926,-37.109,-18.066,-33.203,-93.750
1688814554.613,-128.418,-36.621,-21.484,-73.242,-4.883
1688814554.617,-101.562,-34.668,-25.391,-67.383,47.852
1688814554.620,-91.797,-32.227,-27.344,-50.781,-126.953
1688814554.624,-109.375,-31.250,-31.250,-49.316,-221.680
1688814554.628,-135.742,-30.762,-29.297,-39.062,38.574
1688814554.632,-106.445,-29.785,-20.508,-68.848,240.723
1688814554.636,-64.941,-30.273,-20.508,-73.242,-54.199
1688814554.652,-61.035,-33.203,-25.879,-54.199,-217.773
1688814554.656,-77.148,-34.668,-23.438,-38.086,-113.770
1688814554.660,-102.539,-35.156,-17.578,-17.090,-34.668
1688814554.664,-85.938,-35.645,-20.996,-46.875,-78.613
1688814554.668,-58.105,-32.227,-22.461,-62.012,-113.770
1688814554.672,-63.965,-35.645,-22.461,-43.945,108.398
1688814554.676,-74.219,-41.504,-22.949,-43.945,109.863
1688814554.679,-98.633,-42.969,-20.508,-39.062,-2.930
1688814554.683,-103.027,-41.016,-19.531,-65.918,-71.289
1688814554.687,-74.707,-38.574,-25.391,-67.871,54.688
1688814554.691,-58.105,-36.133,-25.391,-46.875,50.781
1688814554.695,-70.312,-31.738,-20.996,-44.922,-184.570
1688814554.697,-115.723,-32.715,-20.020,-29.785,-75.195
1688814554.701,-140.625,-37.598,-24.902,-57.617,-65.430
1688814554.705,-121.094,-35.645,-27.344,-88.379,-200.195
1688814554.709,-114.258,-35.156,-26.367,-70.312,-220.703
1688814554.713,-149.414,-37.109,-29.785,-48.828,-148.926
1688814554.717,-194.336,-34.180,-34.668,-29.297,19.531
1688814554.721,-196.289,-35.645,-36.621,-48.340,-1.953
1688814554.724,-173.828,-32.715,-28.809,-73.242,-120.605
1688814554.728,-175.293,-29.297,-21.973,-47.363,46.387
1688814554.732,-199.707,-36.133,-22.949,-37.598,326.172
1688814554.736,-233.398,-37.598,-26.367,-32.715,76.172
1688814554.740,-249.023,-36.133,-23.438,-41.016,-118.164
1688814554.742,-220.215,-40.039,-18.066,-69.824,-118.652
1688814554.746,-188.477,-42.969,-16.113,-55.176,-214.355
1688814554.750,-174.316,-41.504,-15.625,-47.363,-219.727
1688814554.754,-169.922,-42.480,-18.555,-27.344,-129.395
1688814554.758,-149.414,-39.062,-24.902,-24.414,8.789
1688814554.762,-95.215,-40.527,-26.855,-63.477,-42.480
1688814554.766,-62.988,-43.945,-24.902,-51.758,-126.465
1688814554.769,-80.566,-41.016,-26.367,-50.293,-92.285
1688814554.773,-125.000,-41.992,-29.297,-39.062,157.227
1688814554.777,-154.297,-48.828,-25.879,-21.973,418.945
1688814554.781,-126.953,-47.363,-22.461,-66.895,76.172
1688814554.785,-94.727,-41.992,-19.531,-67.871,-138.672
1688814554.802,-101.562,-46.875,-20.020,-49.805,-62.988
1688814554.806,-124.512,-49.316,-21.484,-41.992,-117.676
1688814554.810,-153.320,-46.875,-18.066,-28.320,-115.234
1688814554.814,-145.996,-44.434,-14.160,-64.453,-71.289
1688814554.818,-116.699,-43.945,-20.508,-66.406,-119.141
1688814554.822,-111.328,-43.945,-27.344,-45.410,-166.504
1688814554.826,-118.164,-42.969,-25.391,-40.039,-155.762
1688814554.829,-125.000,-43.457,-24.414,-19.531,72.754
1688814554.833,-97.656,-42.480,-27.344,-50.781,148.438
1688814554.837,-47.852,-39.551,-27.344,-68.359,-176.758
1688814554.841,-26.367,-42.480,-19.531,-44.922,-206.055
1688814554.845,-28.809,-46.875,-18.066,-38.086,6.836
1688814554.832,-50.781,-49.316,-21.973,-27.344,6.348
1688814554.836,-41.016,-52.734,-26.367,-62.012,-163.574
1688814554.840,-0.977,-51.270,-25.391,-84.473,-167.969
1688814554.844,-1.953,-48.828,-27.344,-66.895,-83.496
1688814554.848,-19.531,-42.969,-19.531,-50.781,-165.039
1688814554.852,-49.316,-41.016,-14.648,-31.250,-62.988
1688814554.856,-64.941,-39.551,-16.602,-49.316,85.938
1688814554.859,-50.781,-38.086,-20.020,-73.730,10.254
1688814554.863,-40.039,-35.645,-18.066,-48.340,-54.688
1688814554.867,-48.828,-38.574,-17.578,-40.527,-103.516
1688814554.871,-82.031,-43.457,-25.879,-36.133,-60.547
1688814554.875,-84.473,-40.527,-24.902,-35.156,297.363
1688814554.908,-55.176,-41.504,-25.879,-60.059,261.230
1688814554.912,-37.598,-45.898,-28.809,-54.199,-117.676
1688814554.916,-36.621,-49.316,-32.227,-44.434,-45.898
1688814554.920,-62.500,-48.828,-32.227,-31.738,66.406
1688814554.924,-57.617,-47.363,-32.227,-36.133,-72.266
1688814554.928,-12.207,-45.410,-29.785,-68.359,-178.223
1688814554.932,9.766,-35.645,-24.902,-50.293,114.258
1688814554.935,16.113,-32.227,-22.461,-33.203,229.004
1688814554.939,-1.953,-40.527,-21.973,-24.414,-87.891
1688814554.943,-16.113,-44.434,-21.973,-18.066,-168.457
1688814554.947,24.902,-39.551,-23.438,-50.781,-48.340
1688814554.951,57.129,-38.086,-22.461,-51.758,-0.977
1688814554.924,54.688,-42.480,-16.113,-39.551,-144.531
1688814554.928,30.273,-42.480,-15.625,-14.160,-97.656
1688814554.932,-3.906,-41.504,-18.555,-9.277,-9.766
1688814554.936,9.766,-42.480,-20.508,-51.270,-113.770
1688814554.940,36.621,-44.434,-23.438,-51.270,-228.027
1688814554.944,33.203,-39.062,-18.066,-33.203,-106.445
1688814554.948,10.254,-33.691,-19.043,-18.555,44.434
1688814554.951,-20.996,-36.621,-22.949,-8.789,9.277
1688814554.955,-4.395,-37.598,-19.043,-42.969,-113.281
1688814554.959,25.879,-38.574,-23.438,-50.293,-81.055
1688814554.963,21.484,-35.156,-24.902,-31.250,20.020
1688814554.967,-5.859,-39.551,-21.973,-25.879,-36.133
1688814554.967,-37.598,-44.434,-24.414,-14.160,-67.383
1688814554.971,-27.832,-40.039,-24.414,-41.504,-46.387
1688814554.975,4.395,-39.062,-19.531,-47.363,224.609
1688814554.979,9.766,-39.551,-21.484,-31.250,131.348
1688814554.983,-14.648,-41.016,-26.855,-29.785,-203.125
1688814554.987,-48.828,-43.945,-28.809,-8.789,68.359
1688814554.991,-35.645,-46.387,-28.809,-31.738,359.863
1688814554.994,0.977,-44.434,-27.344,-61.035,73.242
1688814554.998,4.883,-38.086,-24.902,-49.316,-235.352
1688814555.002,-18.555,-33.203,-23.926,-38.574,-107.910
1688814555.006,-52.246,-38.574,-27.344,-21.973,91.309
1688814555.010,-54.688,-41.016,-32.227,-45.410,-58.105
1688814555.027,-17.090,-38.086,-30.273,-67.871,-184.082
1688814555.031,8.789,-39.551,-31.250,-48.828,-106.934
1688814555.035,7.324,-40.039,-31.250,-36.133,-45.410
1688814555.039,-9.277,-41.016,-26.855,-16.602,-42.969
1688814555.043,-16.113,-49.316,-26.367,-41.016,-10.742
1688814555.047,9.766,-51.270,-25.879,-72.266,5.371
1688814555.051,27.832,-48.340,-29.297,-50.293,-18.555
1688814555.054,17.578,-42.969,-28.320,-45.410,-110.352
1688814555.058,-10.254,-40.527,-23.438,-31.738,-0.977
1688814555.062,-21.484,-46.875,-25.391,-41.504,71.289
1688814555.066,13.184,-49.316,-29.785,-74.219,-140.137
1688814555.070,43.457,-44.922,-29.785,-62.500,-173.340
1688814555.072,34.668,-39.551,-28.320,-49.316,-76.172
1688814555.076,-3.418,-40.527,-28.320,-24.902,280.273
1688814555.080,-32.715,-45.898,-30.273,-28.320,246.582
1688814555.084,-9.277,-44.434,-28.809,-72.266,-94.238
1688814555.088,20.996,-43.457,-31.250,-68.359,-110.840
1688814555.092,20.508,-43.945,-34.668,-58.594,-56.641
1688814555.096,4.395,-41.016,-37.109,-47.852,-12.695
1688814555.099,-21.973,-44.434,-36.133,-45.898,-69.336
1688814555.103,-7.324,-50.293,-33.203,-73.242,26.855
1688814555.107,16.602,-44.922,-31.738,-60.059,147.461
1688814555.111,-5.371,-43.457,-25.879,-47.363,-24.414
1688814555.115,-47.852,-44.922,-14.648,-39.551,-81.055
1688814555.118,-86.426,-41.992,-14.648,-25.879,101.562
1688814555.122,-84.961,-41.016,-17.578,-53.223,81.055
1688814555.126,-70.801,-40.039,-15.137,-65.918,-108.887
1688814555.130,-85.449,-39.551,-22.949,-57.617,-133.301
1688814555.134,-107.422,-42.480,-27.344,-45.898,-61.035
1688814555.138,-142.090,-44.434,-27.344,-35.156,34.668
1688814555.142,-145.508,-43.945,-30.762,-69.336,-104.492
1688814555.145,-121.582,-42.969,-27.832,-79.102,-78.125
1688814555.149,-116.699,-41.504,-23.926,-64.941,104.492
1688814555.153,-131.348,-38.574,-29.785,-63.477,-32.227
1688814555.157,-159.668,-44.434,-32.715,-52.246,-74.707
1688814555.161,-150.391,-46.875,-31.250,-78.613,-111.328
1688814555.162,-125.977,-47.852,-28.320,-89.844,165.039
1688814555.166,-124.512,-51.270,-24.414,-73.730,247.070
1688814555.170,-138.184,-46.387,-29.785,-73.730,-59.082
1688814555.174,-165.039,-45.898,-34.180,-56.152,-60.547
1688814555.178,-158.203,-48.340,-29.297,-73.730,-69.824
1688814555.182,-112.305,-44.922,-26.855,-95.215,-88.379
1688814555.186,-92.285,-43.945,-25.879,-83.984,-125.977
1688814555.189,-105.957,-46.875,-26.367,-77.148,24.902
1688814555.193,-130.859,-46.875,-25.879,-49.316,246.582
1688814555.197,-120.605,-43.945,-25.391,-57.617,62.012
1688814555.201,-77.637,-41.016,-28.809,-90.820,-121.094
1688814555.205,-62.012,-43.457,-29.297,-78.613,-94.727
1688814555.208,-71.777,-46.387,-25.879,-68.359,-65.918
1688814555.212,-94.238,-45.410,-19.043,-42.480,-69.336
1688814555.216,-106.934,-41.016,-20.020,-41.016,-22.949
1688814555.220,-82.031,-44.922,-24.414,-75.195,35.645
1688814555.224,-56.641,-39.062,-15.137,-60.059,-8.301
1688814555.228,-73.242,-35.156,-13.184,-52.734,-22.461
1688814555.232,-113.281,-41.016,-18.555,-39.062,-24.902
1688814555.235,-131.836,-39.551,-21.973,-26.855,229.492
1688814555.239,-87.402,-35.645,-19.531,-56.641,241.699
1688814555.243,-51.758,-37.598,-16.602,-53.711,-127.930
1688814555.247,-58.594,-40.527,-21.484,-37.109,-118.652
1688814555.251,-86.426,-39.062,-27.832,-20.508,-63.965
1688814555.252,-110.352,-38.086,-30.762,-16.602,-137.207
1688814555.256,-78.125,-36.133,-26.855,-51.270,-183.105
1688814555.260,-29.297,-37.109,-25.879,-55.664,-139.648
1688814555.264,-33.691,-36.133,-26.367,-38.086,-121.094
1688814555.268,-78.125,-33.691,-22.949,-20.996,-141.113
1688814555.272,-116.211,-35.645,-23.926,-17.578,-130.859
1688814555.276,-99.609,-40.527,-27.832,-47.363,103.516
1688814555.279,-45.898,-37.598,-30.273,-62.988,310.059
1688814555.283,-26.855,-39.062,-29.785,-54.199,-47.363
1688814555.287,-38.574,-44.434,-31.738,-41.992,-257.812
1688814555.291,-49.805,-37.598,-32.715,-27.832,-115.723
1688814555.295,-13.672,-35.156,-30.273,-53.223,-116.211
1688814555.297,35.645,-36.621,-28.320,-65.918,-208.496
1688814555.301,42.480,-37.109,-29.297,-48.828,-189.941
1688814555.305,28.809,-39.062,-30.273,-41.016,-119.141
1688814555.309,14.648,-37.109,-25.391,-23.438,-32.227
1688814555.313,27.832,-39.551,-19.043,-55.176,-79.590
1688814555.317,67.871,-42.480,-24.414,-75.195,-80.078
1688814555.321,73.730,-41.016,-29.785,-47.852,160.645
1688814555.324,50.781,-40.039,-22.949,-36.621,161.133
1688814555.328,29.297,-36.133,-18.555,-25.879,-4.883
1688814555.332,21.973,-37.109,-21.973,-49.805,-86.426
1688814555.336,56.641,-40.527,-24.414,-69.824,103.516
1688814555.340,80.078,-39.062,-20.508,-46.387,118.164
1688814555.342,58.105,-39.551,-19.043,-52.246,-168.457
1688814555.346,18.555,-36.133,-20.508,-31.250,-77.148
1688814555.350,1.953,-35.645,-23.438,-42.480,-71.289
1688814555.354,28.809,-38.086,-26.367,-78.613,-193.359
1688814555.358,45.898,-37.598,-24.902,-53.711,-205.078
1688814555.362,28.809,-34.668,-21.973,-34.668,54.688
1688814555.366,-4.395,-35.645,-21.973,-20.996,212.402
1688814555.369,-8.789,-41.016,-22.949,-30.273,-49.316
1688814555.373,21.484,-43.945,-24.414,-67.383,-187.988
1688814555.377,37.598,-45.410,-24.902,-51.758,-3.906
1688814555.381,36.621,-48.340,-25.391,-39.062,103.027
1688814555.385,18.066,-45.410,-32.715,-35.645,-90.332
1688814555.402,5.371,-39.062,-26.367,-25.391,-122.559
1688814555.406,31.738,-37.598,-19.043,-49.316,-23.438
1688814555.410,50.781,-37.109,-20.996,-41.504,-39.551
1688814555.414,34.180,-43.457,-24.902,-34.180,-153.320
1688814555.418,-2.441,-44.434,-23.926,-23.438,-114.746
1688814555.422,-31.250,-40.039,-19.043,-17.090,108.398
1688814555.426,-11.719,-43.457,-22.461,-56.641,59.570
1688814555.429,5.371,-48.828,-22.949,-56.152,-57.129
1688814555.433,3.906,-49.805,-21.973,-36.621,-31.250
1688814555.437,-36.133,-48.340,-23.438,-18.066,214.355
1688814555.441,-102.051,-46.875,-25.391,-6.836,294.434
1688814555.445,-89.844,-43.945,-25.879,-49.805,-77.637
1688814555.447,-47.852,-38.086,-26.367,-54.688,-26.855
1688814555.451,-45.898,-34.668,-24.414,-30.273,65.430
1688814555.455,-65.430,-36.133,-20.996,-24.414,-101.074
1688814555.459,-93.750,-41.504,-23.926,-17.090,-181.641
1688814555.463,-76.660,-43.457,-28.809,-48.828,-123.535
1688814555.467,-35.645,-40.527,-25.391,-57.617,-52.734
1688814555.471,-39.551,-44.922,-28.809,-46.387,-90.332
1688814555.474,-52.246,-41.016,-31.738,-43.945,-152.344
1688814555.478,-65.918,-34.668,-23.926,-17.578,95.703
1688814555.482,-46.875,-39.551,-24.902,-35.645,197.266
1688814555.486,-3.906,-41.016,-25.391,-54.688,-152.832
1688814555.490,15.625,-37.109,-18.066,-34.668,-166.504
1688814555.507,8.789,-33.691,-20.508,-38.086,-60.059
1688814555.511,-28.809,-44.434,-26.855,-26.855,-37.598
1688814555.515,-27.832,-51.270,-29.297,-44.922,28.320
1688814555.519,13.184,-48.340,-31.250,-67.383,-64.941
1688814555.523,20.020,-49.805,-34.180,-45.898,-72.266
1688814555.527,-11.719,-53.223,-28.320,-45.898,35.645
1688814555.531,-43.945,-48.340,-22.949,-32.227,-1.465
1688814555.534,-39.062,-44.922,-25.391,-35.156,2.930
1688814555.538,-6.836,-46.875,-27.344,-59.082,253.906
1688814555.542,15.137,-43.457,-27.344,-42.480,296.387
1688814555.546,4.395,-41.992,-31.738,-40.527,-151.367
1688814555.550,-35.156,-41.016,-34.180,-27.344,-123.535
1688814555.537,-50.293,-44.922,-31.250,-32.227,-34.180
1688814555.541,-20.996,-53.711,-26.367,-72.754,-211.914
1688814555.545,1.953,-53.711,-20.508,-55.664,-187.988
1688814555.549,3.906,-46.387,-16.113,-35.645,-109.375
1688814555.553,-14.160,-41.504,-15.137,-15.625,-61.523
1688814555.557,-36.133,-40.039,-20.508,-10.254,-11.230
1688814555.561,-22.461,-38.574,-20.508,-48.340,-117.188
1688814555.564,-10.742,-43.457,-16.602,-40.039,27.832
1688814555.568,-21.973,-45.410,-16.602,-20.996,52.246
1688814555.572,-52.734,-45.410,-20.508,-16.113,-91.797
1688814555.576,-72.266,-46.387,-19.043,-18.066,-111.328
1688814555.580,-45.898,-47.363,-21.973,-51.758,-25.879
1688814555.582,-12.695,-48.340,-25.879,-53.223,149.414
1688814555.586,-14.648,-46.875,-25.879,-46.875,-48.828
1688814555.590,-40.527,-42.480,-33.203,-41.992,-145.508
1688814555.594,-56.152,-39.551,-34.180,-21.484,-61.035
1688814555.598,-33.203,-38.574,-27.832,-52.246,-120.117
1688814555.602,-5.859,-42.480,-30.273,-59.570,-151.367
1688814555.606,-4.883,-45.898,-30.273,-37.109,-86.426
1688814555.609,-19.043,-46.875,-27.832,-18.066,241.211
1688814555.613,-44.434,-46.387,-26.855,-3.418,344.238
1688814555.617,-30.273,-38.574,-27.344,-49.805,-102.051
1688814555.621,7.324,-33.203,-26.367,-65.430,-165.527
1688814555.625,4.395,-33.203,-22.461,-40.039,10.254
1688814555.627,-22.461,-36.621,-23.926,-26.367,-43.945
1688814555.631,-62.012,-35.156,-27.344,-12.207,-83.008
1688814555.635,-59.082,-35.156,-28.809,-39.062,-34.180
1688814555.639,-23.926,-41.992,-28.320,-56.152,-76.660
1688814555.643,-30.273,-39.551,-26.367,-36.621,-110.352
1688814555.647,-58.105,-39.551,-21.484,-32.227,-110.352
1688814555.651,-95.215,-48.340,-20.020,-13.184,179.199
1688814555.654,-109.863,-52.246,-23.926,-27.832,303.711
1688814555.658,-85.449,-51.270,-28.809,-64.453,-71.777
1688814555.662,-72.266,-50.781,-25.391,-52.734,-133.789
1688814555.666,-85.449,-51.758,-21.973,-45.410,-10.742
1688814555.670,-109.863,-50.293,-28.809,-33.691,-26.855
1688814555.672,-106.445,-50.293,-35.156,-49.805,-154.297
1688814555.676,-65.430,-49.316,-33.203,-78.125,-200.684
1688814555.680,-51.270,-47.363,-32.227,-62.500,-167.480
1688814555.684,-66.406,-45.410,-28.809,-53.711,-144.043
1688814555.688,-105.469,-47.363,-32.715,-46.875,-140.137
1688814555.692,-115.723,-51.270,-25.391,-50.293,-31.738
1688814555.696,-82.031,-50.293,-22.949,-82.031,232.910
1688814555.699,-73.730,-45.898,-31.738,-80.566,93.750
1688814555.703,-78.613,-46.387,-28.809,-73.242,-148.438
1688814555.707,-104.004,-43.945,-26.855,-51.758,-55.176
1688814555.711,-124.512,-44.434,-26.855,-40.527,75.195
1688814555.715,-91.797,-49.316,-28.809,-77.637,-49.805
1688814555.719,-50.293,-45.898,-30.273,-74.219,-150.391
1688814555.723,-45.410,-44.434,-27.344,-54.688,-46.387
1688814555.727,-76.172,-48.828,-26.367,-45.898,32.715
1688814555.731,-87.891,-43.457,-31.738,-41.504,-53.711
1688814555.735,-47.363,-40.039,-34.668,-75.195,-198.242
1688814555.739,5.859,-43.945,-27.344,-68.359,32.715
1688814555.743,22.949,-39.551,-24.902,-50.293,182.129
1688814555.746,-1.465,-36.133,-27.344,-56.152,-69.824
1688814555.750,-29.297,-39.551,-26.367,-56.641,-115.234
1688814555.754,-12.207,-39.551,-25.391,-105.957,-27.832
1688814555.758,20.020,-37.109,-28.809,-123.047,-72.754
1688814555.762,16.602,-42.480,-31.738,-122.559,-169.434
1688814555.778,-16.113,-42.969,-34.180,-130.859,-160.156
1688814555.782,-45.410,-39.551,-39.062,-111.328,-22.461
1688814555.786,-26.367,-40.527,-42.969,-144.531,-4.395
1688814555.790,9.277,-41.504,-40.039,-164.062,-183.105
1688814555.794,5.859,-41.504,-35.645,-138.672,-209.961
1688814555.798,-30.762,-46.387,-31.738,-127.930,203.125
1688814555.802,-75.684,-50.781,-31.738,-113.770,442.383
1688814555.805,-70.801,-42.969,-27.344,-144.531,68.848
1688814555.809,-33.691,-37.598,-20.020,-166.016,-78.613
1688814555.813,-26.855,-38.574,-21.973,-143.555,114.746
1688814555.817,-41.504,-40.039,-18.066,-139.160,22.461
1688814555.821,-74.219,-41.504,-16.113,-119.629,-128.418
1688814555.822,-77.637,-42.480,-26.855,-135.742,-91.309
1688814555.826,-40.527,-47.363,-28.320,-163.574,-144.043
1688814555.830,-30.762,-42.969,-25.879,-141.113,-159.668
1688814555.834,-53.223,-36.133,-30.273,-133.789,-139.648
1688814555.838,-84.473,-38.574,-24.414,-113.281,58.594
1688814555.842,-95.703,-36.621,-14.160,-120.605,160.156
1688814555.846,-65.430,-33.691,-13.184,-154.785,-15.625
1688814555.849,-39.062,-33.203,-19.043,-143.066,-177.246
1688814555.853,-49.805,-36.133,-22.949,-123.535,-48.340
1688814555.857,-85.938,-38.574,-27.344,-98.633,269.531
1688814555.861,-105.469,-38.574,-27.344,-104.980,36.133
1688814555.865,-96.191,-41.504,-23.438,-137.207,-232.422
1688814555.867,-85.938,-38.086,-24.414,-127.930,-191.895
1688814555.871,-86.914,-36.133,-23.926,-120.117,-149.902
1688814555.875,-121.094,-40.527,-23.926,-108.398,-153.809
1688814555.879,-144.043,-42.969,-25.879,-97.168,-153.320
1688814555.883,-110.840,-43.457,-24.902,-124.512,-124.512
1688814555.887,-85.449,-43.945,-27.344,-120.117,-20.020
1688814555.891,-94.238,-44.434,-32.227,-107.422,-56.641
1688814555.894,-107.910,-36.621,-27.344,-92.285,-101.074
1688814555.898,-122.559,-36.621,-24.902,-74.219,287.109
1688814555.902,-101.562,-41.016,-30.762,-106.934,406.738
1688814555.906,-75.684,-44.434,-35.645,-118.652,-29.297
1688814555.910,-74.707,-47.363,-27.344,-94.727,-116.699
1688814555.912,-91.309,-41.992,-19.531,-74.219,-66.895
1688814555.916,-109.863,-43.457,-30.273,-66.406,-107.910
1688814555.920,-88.379,-44.922,-34.180,-97.168,-160.156
1688814555.924,-37.598,-41.992,-22.949,-104.492,-132.812
1688814555.928,-19.043,-37.109,-27.832,-86.914,-72.754
1688814555.932,-51.758,-32.227,-34.180,-85.449,-59.570
1688814555.936,-94.727,-33.691,-31.738,-72.266,32.715
1688814555.939,-87.402,-35.645,-28.320,-89.844,137.695
1688814555.943,-53.223,-36.621,-25.391,-98.145,181.152
1688814555.947,-50.781,-37.598,-25.879,-94.727,-20.996
1688814555.951,-62.500,-38.574,-25.879,-88.867,-135.254
1688814555.955,-95.215,-41.016,-26.367,-58.105,7.324
1688814555.957,-98.145,-46.387,-29.785,-79.102,-19.531
1688814555.961,-52.734,-46.875,-29.785,-104.492,-209.961
1688814555.965,-29.785,-46.875,-24.414,-88.867,-163.086
1688814555.969,-39.062,-44.922,-19.043,-73.730,-91.309
1688814555.973,-66.895,-39.551,-18.066,-45.410,-72.754
1688814555.977,-68.359,-42.480,-21.973,-60.059,-56.152
1688814555.981,-21.484,-41.992,-19.531,-84.473,-99.121
1688814555.984,-2.441,-39.062,-21.484,-57.617,217.285
1688814555.988,-23.926,-36.621,-23.926,-46.875,239.258
1688814555.992,-45.898,-35.645,-22.461,-30.273,-133.789
1688814555.996,-44.434,-39.551,-22.461,-29.785,-68.848
1688814556.000,-7.812,-44.922,-26.367,-56.152,88.379
1688814556.002,20.020,-44.434,-27.344,-43.457,-83.984
1688814556.006,17.578,-43.945,-23.438,-39.551,-216.797
1688814556.010,-8.789,-45.410,-27.832,-24.414,-38.574
1688814556.014,-23.926,-45.898,-29.297,-26.855,15.625
1688814556.018,10.742,-44.434,-23.926,-62.500,-150.879
1688814556.022,22.461,-41.992,-30.273,-60.059,-208.496
1688814556.026,9.766,-40.039,-31.250,-50.293,5.859
1688814556.029,-9.277,-39.551,-25.391,-33.203,218.262
1688814556.033,-17.578,-39.062,-26.855,-32.715,36.621
1688814556.037,26.855,-41.504,-30.762,-71.777,-116.211
1688814556.041,59.570,-38.086,-31.738,-63.965,-126.465
1688814556.045,49.316,-36.621,-29.785,-53.711,-90.820
1688814556.048,18.555,-41.992,-31.738,-43.457,-119.141
1688814556.052,0.000,-39.062,-33.203,-30.762,-0.488
1688814556.056,32.227,-37.109,-33.203,-62.012,69.824
1688814556.060,65.918,-37.109,-36.133,-55.176,-80.566
1688814556.064,64.453,-36.621,-33.691,-38.086,-190.918
1688814556.068,36.621,-37.598,-31.250,-25.391,-4.883
1688814556.072,2.441,-40.039,-31.738,-5.859,312.012
1688814556.075,20.020,-42.969,-25.879,-36.133,148.438
1688814556.079,50.293,-42.480,-23.438,-49.805,-135.254
1688814556.083,37.109,-42.480,-26.367,-39.062,-112.793
1688814556.087,8.789,-42.480,-28.809,-29.297,116.211
1688814556.091,-23.926,-39.062,-27.832,-14.160,43.945
1688814556.092,-13.672,-41.504,-28.320,-49.316,-185.059
1688814556.096,29.297,-47.363,-30.762,-64.941,-125.488
1688814556.100,37.109,-44.434,-29.297,-43.457,-51.758
1688814556.104,13.184,-46.875,-27.344,-38.086,-105.469
1688814556.108,-13.672,-55.176,-28.809,-25.879,-91.309
1688814556.112,-17.090,-58.105,-33.691,-47.852,101.562
1688814556.116,12.695,-56.641,-33.203,-58.594,234.863
1688814556.119,32.715,-51.758,-29.297,-36.133,-42.480
1688814556.123,18.555,-52.734,-28.809,-28.320,-204.102
1688814556.127,-19.043,-53.223,-27.344,-12.695,-83.496
1688814556.131,-23.438,-49.805,-32.227,-30.273,-120.605
1688814556.135,16.113,-49.316,-39.062,-50.293,-216.797
1688814556.152,34.180,-51.270,-36.621,-23.438,-128.418
1688814556.156,19.043,-49.316,-31.250,-19.531,-44.434
1688814556.160,-16.602,-45.898,-32.715,-9.766,14.648
1688814556.164,-26.367,-44.922,-30.762,-13.672,-10.742
1688814556.168,4.883,-46.387,-25.391,-44.434,-94.727
1688814556.172,17.090,-44.434,-27.832,-41.016,7.324
1688814556.176,1.953,-45.410,-35.645,-41.992,50.293
1688814556.179,-29.297,-45.410,-34.668,-26.367,-16.113
1688814556.183,-43.457,-41.016,-34.668,-30.273,50.781
1688814556.187,-15.137,-42.969,-43.945,-63.477,249.023
1688814556.191,2.441,-46.387,-44.434,-48.340,196.289
1688814556.195,-6.348,-43.457,-31.738,-41.992,-128.906
1688814556.198,-36.621,-45.410,-28.320,-28.809,-128.906
1688814556.202,-63.965,-44.434,-33.203,-23.438,-78.613
1688814556.206,-41.016,-41.992,-32.227,-57.617,-119.629
1688814556.210,-11.719,-43.457,-28.320,-46.387,-121.582
1688814556.214,-9.277,-45.898,-29.785,-37.598,-136.230
1688814556.218,-35.645,-49.316,-34.668,-36.133,2.441
1688814556.222,-57.617,-49.805,-33.691,-17.578,32.227
1688814556.225,-30.762,-47.852,-34.668,-52.246,-144.043
1688814556.229,-18.066,-46.387,-40.039,-59.570,-14.160
1688814556.233,-31.738,-48.828,-37.598,-25.879,207.031
1688814556.237,-47.363,-46.387,-32.715,-7.812,-1.465
1688814556.241,-69.824,-44.434,-29.785,-2.930,-128.906
1688814556.242,-52.734,-49.316,-28.809,-43.457,-66.895
1688814556.246,-18.066,-47.363,-29.297,-60.059,-98.145
1688814556.250,-19.043,-49.805,-31.738,-49.805,-158.691
1688814556.254,-36.133,-49.316,-34.668,-35.156,-115.234
1688814556.258,-63.965,-48.828,-36.133,-14.648,-9.277
1688814556.262,-49.805,-54.199,-40.039,-55.664,-27.832
1688814556.266,-7.812,-55.664,-45.410,-75.684,-57.617
1688814556.269,3.906,-54.688,-51.758,-59.082,-10.742
1688814556.273,-7.324,-48.828,-45.898,-46.875,296.875
1688814556.277,-34.180,-49.316,-38.086,-33.691,352.051
1688814556.281,-31.738,-55.176,-43.457,-73.730,-53.223
1688814556.285,0.000,-56.641,-43.945,-93.750,-108.398
1688814556.287,21.484,-47.852,-38.574,-65.918,91.797
1688814556.291,12.695,-44.922,-37.598,-60.547,-6.836
1688814556.295,-6.348,-46.387,-34.668,-47.363,-181.152
1688814556.299,2.930,-43.457,-35.645,-62.012,-120.605
1688814556.303,20.508,-48.340,-40.527,-79.102,-94.727
1688814556.307,16.113,-49.805,-37.109,-53.711,-94.727
1688814556.311,0.000,-47.363,-37.109,-42.969,-87.891
1688814556.314,-29.297,-48.340,-39.062,-19.531,121.094
1688814556.318,-40.039,-51.270,-32.227,-18.555,292.480
1688814556.322,-17.578,-51.758,-29.785,-57.129,-58.594
1688814556.326,-14.160,-54.199,-32.227,-50.781,-223.633
1688814556.330,-29.297,-54.688,-34.180,-39.062,-184.082
1688814556.333,-43.945,-53.711,-36.133,-23.926,-114.258
1688814556.337,-47.363,-44.434,-35.156,-28.320,-65.430
1688814556.341,-24.902,-41.016,-30.762,-63.477,-101.074
1688814556.345,-3.906,-43.945,-32.715,-55.664,-46.387
1688814556.349,-9.766,-41.992,-34.668,-56.152,-41.992
1688814556.353,-44.922,-46.387,-33.203,-49.805,-125.488
1688814556.357,-67.383,-49.805,-32.715,-41.504,-140.625
1688814556.360,-44.922,-52.246,-30.762,-70.312,172.852
1688814556.364,-34.668,-51.270,-32.227,-68.359,285.156
1688814556.368,-47.852,-49.316,-30.762,-60.059,-86.426
1688814556.372,-80.078,-47.363,-34.180,-36.621,-127.930
1688814556.376,-112.305,-44.434,-38.574,-16.113,-3.418
1688814556.378,-89.355,-52.246,-41.992,-48.828,-61.523
1688814556.382,-53.223,-53.711,-42.480,-48.828,-142.090
1688814556.386,-44.434,-45.410,-45.410,-32.715,-86.914
1688814556.390,-58.594,-42.969,-43.457,-29.297,8.789
1688814556.394,-80.078,-43.457,-37.109,-15.137,11.230
1688814556.398,-70.801,-44.922,-37.109,-49.805,-51.758
1688814556.402,-43.945,-49.805,-37.109,-62.500,112.793
1688814556.405,-45.898,-49.805,-37.109,-35.645,326.660
1688814556.409,-79.590,-47.363,-33.203,-34.668,37.598
1688814556.413,-116.211,-43.945,-27.344,-22.949,-157.227
1688814556.417,-108.887,-43.945,-28.320,-46.387,-148.926
1688814556.421,-72.266,-49.316,-35.645,-67.871,-164.551
1688814556.422,-59.082,-48.340,-34.668,-44.922,-168.945
1688814556.426,-76.172,-42.480,-31.738,-37.109,-155.273
1688814556.430,-102.539,-41.992,-30.273,-16.113,-64.453
1688814556.434,-81.055,-41.992,-30.273,-37.109,-84.961
1688814556.438,-31.250,-43.945,-32.227,-59.570,-140.137
1688814556.442,-20.020,-44.922,-35.156,-45.410,-57.617
1688814556.446,-41.504,-43.945,-41.504,-45.898,155.273
1688814556.449,-58.594,-46.387,-42.480,-25.879,167.969
1688814556.453,-37.109,-47.852,-37.109,-44.434,-26.367
1688814556.457,-2.441,-42.480,-32.715,-71.777,-163.086
1688814556.461,-2.441,-38.086,-32.227,-47.363,62.988
1688814556.465,-17.090,-41.016,-39.062,-42.969,60.547
1688814556.467,-42.480,-42.969,-46.875,-34.180,-170.410
1688814556.471,-53.711,-41.016,-50.293,-43.457,-95.215
1688814556.475,-27.344,-38.574,-45.898,-76.172,-116.211
1688814556.479,-8.789,-44.434,-40.527,-62.500,-168.457
1688814556.483,-17.578,-40.527,-38.574,-53.711,-186.523
1688814556.487,-58.594,-35.645,-41.992,-31.738,65.918
1688814556.491,-79.102,-42.969,-49.316,-30.762,134.766
1688814556.494,-40.039,-44.434,-51.270,-57.617,-131.836
1688814556.498,-10.742,-42.480,-50.293,-49.805,-239.258
1688814556.502,-28.320,-45.898,-49.316,-41.992,-38.574
1688814556.506,-66.895,-48.828,-49.316,-19.043,181.152
1688814556.510,-82.031,-47.363,-45.410,-15.137,-26.855
1688814556.528,-54.688,-52.734,-44.434,-61.035,-145.996
1688814556.532,-23.438,-55.664,-46.387,-64.941,-200.684
1688814556.536,-21.973,-50.293,-37.598,-48.340,-147.461
1688814556.540,-44.434,-46.875,-38.574,-35.156,-88.867
1688814556.544,-62.988,-46.387,-41.504,-27.344,-57.129
1688814556.548,-31.250,-43.457,-37.109,-63.965,37.598
1688814556.552,7.812,-42.969,-36.621,-71.289,1.465
1688814556.555,3.418,-45.410,-39.551,-59.570,-29.297
1688814556.559,-25.391,-40.527,-41.992,-50.781,-73.730
1688814556.563,-56.641,-41.504,-40.039,-28.320,221.680
1688814556.567,-44.922,-51.270,-40.039,-64.941,268.066
1688814556.571,-2.930,-51.270,-41.992,-92.285,-89.355
1688814556.572,0.977,-47.852,-41.504,-72.266,17.578
1688814556.576,-26.855,-49.805,-40.039,-68.848,52.246
1688814556.580,-34.180,-45.410,-39.551,-52.246,-105.957
1688814556.584,-14.160,-35.645,-36.621,-73.730,-213.867
1688814556.588,-9.277,-42.480,-36.621,-93.750,-166.504
1688814556.592,-10.254,-49.805,-39.551,-65.918,-30.762
1688814556.596,-18.555,-49.805,-42.480,-58.594,30.762
1688814556.599,-52.246,-50.293,-42.480,-45.410,-36.621
1688814556.603,-63.965,-51.758,-41.992,-62.500,15.625
1688814556.607,-30.762,-53.223,-43.457,-75.195,141.113
1688814556.611,-4.883,-51.758,-43.945,-56.641,-82.520
1688814556.615,-7.812,-52.734,-36.621,-52.734,-212.402
1688814556.618,-36.133,-48.340,-35.156,-38.086,-16.113
1688814556.622,-43.457,-45.898,-40.527,-57.617,-13.184
1688814556.626,-2.930,-49.316,-43.945,-91.309,-262.695
1688814556.630,24.414,-42.480,-39.062,-78.125,-222.168
1688814556.634,10.254,-39.551,-36.621,-72.266,-97.656
1688814556.638,-25.879,-43.457,-41.504,-57.617,-47.363
1688814556.642,-29.785,-41.992,-38.574,-60.547,-34.668
1688814556.645,3.906,-44.922,-39.551,-88.867,-25.879
1688814556.649,17.578,-44.922,-40.039,-74.219,188.477
1688814556.653,2.441,-39.551,-43.457,-59.082,196.777
1688814556.657,-26.367,-35.645,-40.527,-39.551,-79.102
1688814556.661,-41.504,-34.668,-35.645,-41.016,-69.336
1688814556.662,-11.719,-30.273,-30.273,-79.102,-112.305
1688814556.666,14.648,-29.785,-27.344,-67.871,-197.266
1688814556.670,-2.441,-38.574,-38.574,-57.129,-107.422
1688814556.674,-38.574,-42.969,-42.480,-41.992,42.969
1688814556.678,-52.734,-41.504,-39.062,-31.738,-11.230
1688814556.682,-22.461,-34.668,-32.715,-59.570,-18.066
1688814556.686,8.789,-35.645,-26.855,-44.922,-14.648
1688814556.689,-10.254,-42.969,-27.832,-23.438,35.645
1688814556.693,-55.176,-43.945,-26.855,-0.977,250.488
1688814556.697,-63.965,-44.922,-26.367,9.277,88.867
1688814556.701,-33.691,-42.969,-32.715,-30.273,-111.328
1688814556.705,-4.395,-41.992,-34.668,-36.621,-97.168
1688814556.707,-3.906,-41.504,-33.203,-26.367,-63.965
1688814556.711,-28.320,-44.434,-33.203,-25.879,-79.590
1688814556.715,-54.199,-45.410,-35.156,-21.484,-78.125
1688814556.719,-38.574,-42.969,-40.039,-64.453,-87.891
1688814556.723,0.977,-36.621,-36.133,-67.871,-40.039
1688814556.727,-22.461,-40.039,-31.738,-41.992,-22.949
1688814556.731,-86.426,-41.992,-35.645,-36.133,28.809
1688814556.734,-110.352,-34.668,-32.715,-6.836,354.980
1688814556.738,-93.262,-32.715,-25.391,-21.973,379.395
1688814556.742,-74.707,-39.551,-27.344,-34.668,-78.125
1688814556.746,-98.145,-44.434,-31.250,-5.859,-124.512
1688814556.750,-130.371,-41.504,-28.320,4.883,9.766
1688814556.752,-151.855,-41.504,-26.367,28.809,-70.312
1688814556.756,-148.926,-43.457,-30.273,9.277,-156.250
1688814556.760,-114.258,-47.363,-35.156,-26.367,-102.051
1688814556.764,-101.074,-45.898,-34.668,-9.277,-33.691
1688814556.768,-114.746,-41.016,-27.344,2.441,-127.930
1688814556.772,-144.043,-44.434,-26.367,20.020,-105.469
1688814556.776,-146.973,-47.363,-34.668,6.836,127.441
1688814556.779,-112.793,-50.781,-34.668,-21.484,179.199
1688814556.783,-104.980,-48.828,-28.320,-8.301,-44.922
1688814556.787,-123.047,-48.340,-26.367,1.465,-173.340
1688814556.791,-137.207,-51.270,-27.832,34.180,-0.977
1688814556.795,-140.625,-46.875,-29.297,23.926,48.828
1688814556.797,-107.910,-43.945,-31.250,-23.438,-140.137
1688814556.801,-77.148,-43.457,-34.668,-2.441,-143.066
1688814556.805,-85.938,-43.945,-33.691,1.465,-141.602
1688814556.809,-110.840,-47.363,-31.738,1.953,-97.168
1688814556.813,-116.211,-44.922,-30.762,7.812,-79.102
1688814556.817,-84.961,-40.039,-28.809,-24.902,-140.137
1688814556.821,-72.754,-42.480,-29.297,-20.020,114.746
1688814556.824,-86.426,-44.922,-31.250,-7.324,194.824
1688814556.828,-105.469,-37.109,-36.133,4.395,-70.801
1688814556.832,-119.629,-34.180,-40.527,8.301,-93.262
1688814556.836,-87.402,-41.016,-39.062,-25.879,173.828
1688814556.840,-40.527,-41.504,-29.785,-27.832,64.941
1688814556.842,-29.297,-39.551,-28.809,-19.531,-162.598
1688814556.846,-51.270,-38.086,-34.668,4.395,-40.039
1688814556.850,-75.684,-39.062,-29.785,21.484,23.438
1688814556.854,-57.617,-41.504,-25.391,-16.602,-115.723
1688814556.858,-26.855,-40.039,-31.250,-30.273,-174.316
1688814556.862,-24.902,-39.551,-31.738,-5.859,189.941
1688814556.866,-45.898,-38.086,-29.297,10.742,367.188
1688814556.869,-68.848,-37.598,-28.320,18.066,18.555
1688814556.873,-54.688,-37.598,-34.668,-25.391,-174.805
1688814556.877,-20.996,-44.434,-34.668,-44.922,-10.742
1688814556.881,-8.301,-42.480,-22.949,-20.020,46.387
1688814556.885,-21.973,-39.062,-26.367,-9.277,-187.012
1688814556.902,-50.293,-45.410,-32.227,5.859,-83.984
1688814556.906,-44.434,-41.992,-30.762,-19.043,77.148
1688814556.910,-9.277,-40.039,-29.785,-42.480,-37.109
1688814556.914,-8.789,-41.992,-24.902,-27.344,-168.457
1688814556.918,-39.062,-44.434,-31.250,-17.090,-154.297
1688814556.922,-69.336,-43.457,-37.109,2.930,-18.555
1688814556.926,-62.500,-44.434,-40.527,-22.461,11.719
1688814556.929,-29.297,-48.828,-40.527,-51.758,-36.621
1688814556.933,-25.391,-46.387,-32.227,-36.133,-140.625
1688814556.937,-45.898,-46.875,-26.855,-23.926,81.543
1688814556.941,-75.684,-45.898,-28.809,-0.488,180.176
1688814556.945,-75.684,-47.363,-34.668,-22.461,-153.320
1688814556.963,-36.133,-50.293,-32.715,-59.082,-141.602
1688814556.967,-15.137,-51.758,-29.785,-41.504,-182.129
1688814556.971,-23.438,-49.805,-29.785,-36.133,-206.543
1688814556.975,-48.828,-44.922,-21.973,-25.879,-132.324
1688814556.979,-59.082,-41.992,-20.996,-25.879,-4.395
1688814556.983,-27.344,-40.039,-29.785,-52.734,121.582
1688814556.987,-6.836,-41.504,-35.156,-50.781,6.348
1688814556.990,-17.090,-41.504,-38.574,-44.434,-136.719
1688814556.994,-45.898,-37.598,-32.227,-25.391,-0.977
1688814556.998,-65.430,-37.598,-27.832,-27.344,112.305
1688814557.002,-42.480,-39.551,-29.297,-72.754,-118.164
1688814557.006,-23.926,-41.504,-34.668,-69.336,-211.426
1688814556.992,-25.391,-42.969,-36.133,-45.898,75.195
1688814556.996,-39.551,-41.016,-32.227,-30.762,215.332
1688814557.000,-50.293,-47.363,-36.133,-29.785,-42.969
1688814557.004,-22.949,-47.363,-40.039,-65.430,-112.305
1688814557.008,9.766,-36.133,-35.156,-55.176,-63.965
1688814557.012,12.207,-32.715,-30.273,-31.250,-88.867
1688814557.016,-9.766,-30.273,-33.203,-26.367,-86.426
1688814557.019,-36.133,-32.715,-27.832,-12.207,71.289
1688814557.023,-19.043,-40.527,-23.438,-44.434,93.750
1688814557.027,15.625,-38.574,-28.320,-56.641,-139.648
1688814557.031,18.066,-37.598,-27.344,-41.992,-229.004
1688814557.035,1.465,-42.480,-23.926,-31.738,-161.621
1688814557.037,-20.996,-43.457,-26.367,-14.160,244.629
1688814557.041,-2.441,-43.457,-33.203,-45.898,356.445
1688814557.045,35.156,-41.992,-34.668,-67.383,-41.016
1688814557.049,41.016,-40.039,-33.691,-51.758,-113.770
1688814557.053,18.066,-41.016,-31.250,-45.410,-58.594
1688814557.057,-15.137,-40.039,-28.809,-28.809,14.160
1688814557.061,-22.461,-39.062,-31.738,-51.270,-29.297
1688814557.064,-18.555,-42.480,-36.133,-58.105,47.363
1688814557.068,-31.250,-42.969,-41.992,-34.668,271.973
1688814557.072,-60.547,-43.457,-43.945,-37.598,30.273
1688814557.076,-104.980,-44.922,-37.109,-20.508,-100.586
1688814557.080,-105.957,-40.039,-30.762,-40.039,-74.707
1688814557.082,-64.941,-33.691,-32.227,-65.430,-160.156
1688814557.086,-61.523,-36.621,-38.086,-53.223,-197.754
1688814557.090,-69.336,-38.574,-35.645,-47.363,-172.363
1688814557.094,-76.660,-41.504,-31.250,-24.902,-71.777
1688814557.098,-67.383,-40.527,-35.645,-42.480,-61.523
1688814557.102,-15.137,-36.621,-36.621,-72.266,-80.566
1688814557.106,8.789,-36.621,-35.645,-52.734,-83.984
1688814557.109,0.488,-33.691,-34.180,-37.109,169.922
1688814557.113,-11.719,-31.738,-27.344,-9.766,268.555
1688814557.117,-9.277,-32.715,-24.902,-15.625,-38.574
1688814557.121,16.602,-37.109,-30.762,-63.477,-141.602
1688814557.125,34.180,-36.621,-32.715,-52.246,-137.695
1688814557.129,29.785,-30.762,-29.297,-35.645,-188.477
1688814557.133,3.418,-28.320,-33.203,-25.879,-219.238
1688814557.137,-15.625,-26.367,-37.598,-20.020,-116.211
1688814557.141,4.395,-30.273,-34.668,-53.223,-130.859
1688814557.145,27.832,-36.133,-31.250,-53.711,-221.191
1688814557.149,27.832,-36.133,-34.180,-42.480,-103.027
1688814557.153,2.930,-32.715,-29.785,-27.344,144.531
1688814557.156,-22.949,-38.086,-25.879,-16.602,212.402
1688814557.160,6.348,-39.062,-28.809,-57.129,-78.613
1688814557.164,35.645,-37.109,-28.809,-59.570,-188.965
1688814557.168,26.855,-32.715,-27.344,-44.434,-63.965
1688814557.172,4.883,-28.809,-28.320,-47.363,0.977
1688814557.173,-20.508,-29.297,-29.785,-37.598,-84.961
1688814557.177,-13.184,-33.691,-35.645,-71.777,-174.805
1688814557.181,8.789,-36.133,-35.645,-83.008,-91.309
1688814557.185,2.441,-36.133,-28.809,-62.012,-110.352
1688814557.189,-31.250,-40.039,-28.809,-51.270,-172.852
1688814557.193,-64.453,-40.039,-26.367,-28.320,-21.973
1688814557.197,-65.918,-43.457,-26.367,-50.293,196.777
1688814557.200,-38.086,-43.945,-25.879,-54.199,312.012
1688814557.204,-21.973,-37.598,-21.484,-30.762,-24.414
1688814557.208,-41.504,-34.668,-20.020,-20.996,-177.246
1688814557.212,-63.477,-38.574,-20.996,-3.418,28.320
1688814557.216,-40.527,-41.992,-24.414,-37.598,-85.938
1688814557.218,0.488,-42.480,-24.902,-61.035,-280.762
1688814557.222,4.883,-49.316,-29.297,-44.922,-185.547
1688814557.226,-15.625,-48.340,-31.738,-44.922,-42.969
1688814557.230,-40.039,-41.992,-31.738,-25.391,-46.387
1688814557.234,-37.598,-37.598,-32.227,-52.246,-146.484
1688814557.238,-5.859,-35.645,-29.785,-77.637,23.926
1688814557.242,5.859,-38.574,-29.785,-54.688,293.945
1688814557.245,-1.465,-41.992,-34.180,-59.570,-3.906
1688814557.249,-23.926,-39.551,-34.668,-44.922,-137.207
1688814557.253,-31.738,-39.062,-36.621,-54.199,0.000
1688814557.257,-3.418,-37.109,-38.574,-92.773,-113.281
1688814557.261,11.230,-31.250,-33.691,-77.637,-202.148
1688814557.277,-2.441,-35.156,-36.621,-62.012,-206.055
1688814557.281,-31.250,-35.645,-37.598,-39.551,-132.812
1688814557.285,-41.992,-36.621,-38.086,-39.062,-75.684
1688814557.289,-15.137,-41.016,-39.062,-72.754,-121.094
1688814557.293,-3.418,-40.527,-34.180,-57.129,-67.871
1688814557.297,-13.672,-38.086,-24.414,-36.621,202.148
1688814557.301,-39.551,-43.457,-19.531,-24.902,181.641
1688814557.304,-52.246,-46.875,-25.391,-29.785,-23.438
1688814557.308,-18.555,-46.875,-31.738,-64.453,-112.305
1688814557.312,8.789,-46.875,-35.645,-47.852,88.379
1688814557.316,5.371,-46.387,-33.203,-31.250,109.375
1688814557.320,-22.949,-48.340,-28.809,-26.367,-132.812
1688814557.322,-47.852,-49.316,-26.367,-14.648,17.578
1688814557.326,-20.508,-47.363,-18.555,-53.223,-52.734
1688814557.330,15.625,-44.922,-18.555,-51.758,-246.094
1688814557.334,12.695,-44.922,-25.391,-31.738,-209.961
1688814557.338,-15.137,-48.340,-22.461,-24.414,-56.641
1688814557.342,-45.898,-46.875,-27.344,-22.949,12.695
1688814557.346,-32.715,-43.945,-30.762,-64.453,-4.395
1688814557.349,0.000,-42.969,-27.832,-72.754,-65.918
1688814557.353,-3.906,-44.434,-32.715,-56.641,-0.977
1688814557.357,-27.832,-44.434,-32.227,-45.898,278.809
1688814557.361,-54.199,-41.016,-27.344,-39.551,134.766
1688814557.365,-33.691,-36.133,-28.809,-73.242,-86.914
1688814557.367,10.254,-33.691,-32.715,-82.031,-49.316
1688814557.371,18.555,-34.668,-26.855,-57.129,-107.422
1688814557.375,0.488,-37.598,-25.879,-40.039,-204.590
1688814557.379,-36.621,-41.992,-26.855,-30.273,-106.445
1688814557.383,-30.273,-45.898,-22.461,-53.711,-46.387
1688814557.387,12.207,-44.922,-22.461,-64.941,-17.090
1688814557.391,23.926,-38.574,-23.926,-47.852,-36.133
1688814557.394,7.324,-37.598,-26.367,-45.410,-85.938
1688814557.398,-16.113,-40.527,-22.461,-14.160,223.633
1688814557.402,-2.930,-41.016,-20.020,-27.344,414.551
1688814557.406,43.457,-35.156,-20.508,-67.871,-28.320
1688814557.410,60.547,-36.133,-25.879,-54.199,-209.961
1688814557.412,46.875,-34.668,-32.227,-41.504,-74.707
1688814557.416,8.301,-34.180,-32.227,-29.297,-87.402
1688814557.420,-6.348,-39.062,-27.832,-44.434,-96.680
1688814557.424,21.484,-40.039,-23.926,-72.754,-98.145
1688814557.428,27.832,-37.598,-23.438,-56.641,-107.422
1688814557.432,10.254,-33.203,-22.949,-49.316,-21.484
1688814557.436,-17.090,-29.785,-24.902,-38.574,-34.180
1688814557.439,-31.250,-31.250,-28.320,-41.504,50.781
1688814557.443,0.977,-31.250,-30.273,-64.453,119.141
1688814557.447,32.227,-26.367,-23.438,-42.480,-59.082
1688814557.451,25.879,-25.879,-18.066,-35.645,-96.680
1688814557.455,-2.441,-31.250,-21.973,-31.738,-32.715
1688814557.457,-20.020,-32.715,-22.461,-28.320,15.137
1688814557.461,3.418,-32.715,-18.555,-61.523,-101.074
1688814557.465,35.156,-36.621,-20.020,-58.105,-184.570
1688814557.469,26.367,-35.645,-20.508,-40.527,-71.289
1688814557.473,-7.324,-29.785,-21.484,-29.297,-55.664
1688814557.477,-31.250,-33.203,-25.391,-24.414,1.953
1688814557.481,-14.648,-33.203,-20.996,-56.641,4.883
1688814557.484,5.371,-25.391,-20.996,-50.781,179.688
1688814557.488,-6.836,-31.738,-25.879,-40.527,284.180
1688814557.492,-33.203,-37.109,-21.484,-40.527,-82.031
1688814557.496,-68.848,-32.715,-25.879,-29.785,-96.191
1688814557.500,-52.246,-32.227,-29.785,-63.477,-40.039
1688814557.503,-12.207,-34.180,-20.020,-62.500,-174.805
1688814557.507,-27.344,-39.551,-20.020,-59.082,-140.625
1688814557.511,-70.312,-40.527,-23.438,-62.012,107.422
1688814557.515,-113.281,-39.062,-26.367,-47.852,190.430
1688814557.519,-100.586,-41.016,-31.738,-83.496,-71.777
1688814557.523,-55.664,-41.016,-32.227,-84.961,-119.629
1688814557.527,-41.992,-40.527,-31.250,-54.688,108.398
1688814557.530,-52.246,-36.621,-29.297,-41.504,175.781
1688814557.534,-71.777,-34.668,-24.902,-29.785,-53.711
1688814557.538,-63.477,-38.086,-20.508,-60.547,-207.520
1688814557.542,-31.250,-41.016,-22.949,-81.543,-192.871
1688814557.546,-23.438,-43.945,-28.809,-62.500,-98.633
1688814557.548,-41.992,-45.410,-31.250,-56.641,-154.297
1688814557.552,-70.801,-42.969,-30.273,-41.016,-83.984
1688814557.556,-64.453,-37.598,-25.879,-56.152,-0.977
1688814557.560,-24.414,-36.621,-26.855,-80.078,-48.828
1688814557.564,-12.695,-43.945,-31.250,-64.453,-20.020
1688814557.568,-26.367,-47.363,-25.879,-60.059,-34.180
1688814557.572,-59.570,-43.457,-22.949,-43.457,192.871
1688814557.575,-84.473,-41.992,-27.832,-46.875,285.156
1688814557.579,-70.312,-39.551,-24.902,-77.148,-104.492
1688814557.583,-71.777,-40.039,-23.438,-65.430,-186.523
1688814557.587,-96.191,-41.992,-24.414,-60.547,-33.203
1688814557.591,-109.863,-42.969,-25.391,-45.898,-62.012
1688814557.592,-113.770,-41.016,-22.949,-45.410,-166.504
1688814557.596,-88.867,-34.668,-22.461,-78.613,-150.391
1688814557.600,-75.684,-36.621,-25.391,-66.406,-88.379
1688814557.604,-94.238,-36.621,-24.902,-48.340,-184.082
1688814557.608,-125.488,-33.691,-23.438,-35.156,-180.664
1688814557.612,-145.996,-35.645,-27.344,-32.715,107.422
1688814557.616,-113.770,-35.645,-29.785,-66.895,257.324
1688814557.619,-75.684,-30.273,-20.508,-64.453,55.176
1688814557.623,-83.496,-29.297,-21.973,-53.711,-138.672
1688814557.627,-115.723,-34.668,-20.508,-39.551,59.570
1688814557.631,-143.066,-37.598,-17.578,-31.738,179.688
1688814557.635,-120.117,-40.527,-20.508,-75.195,-118.164
1688814557.652,-80.566,-39.551,-23.438,-71.289,-182.129
1688814557.656,-81.543,-36.621,-21.973,-54.688,-105.469
1688814557.660,-101.562,-37.598,-22.461,-44.922,-67.383
1688814557.664,-111.328,-36.133,-20.020,-26.855,-100.586
1688814557.668,-81.055,-34.668,-19.043,-60.059,-116.699
1688814557.672,-48.828,-35.645,-22.949,-67.383,-28.809
1688814557.676,-49.316,-37.598,-21.484,-47.852,-23.926
1688814557.679,-73.730,-38.574,-20.508,-34.668,-16.113
1688814557.683,-113.770,-37.109,-20.996,-21.484,42.969
1688814557.687,-122.070,-39.062,-24.902,-47.363,252.441
