timestamps,TP9,AF7,AF8,TP10,Right AUX
1688815239.257,-115.234,-24.414,-23.926,-56.641,-93.262
1688815239.261,-135.254,-27.344,-28.320,-48.828,-171.875
1688815239.265,-120.117,-25.879,-28.809,-63.965,-110.840
1688815239.269,-79.590,-22.461,-28.809,-62.012,24.902
1688815239.273,-63.965,-24.414,-26.367,-41.016,-2.930
1688815239.277,-78.125,-23.926,-23.926,-37.109,-18.555
1688815239.281,-103.027,-23.926,-28.320,-23.438,145.020
1688815239.284,-96.680,-29.785,-24.414,-38.574,107.422
1688815239.288,-72.266,-33.203,-24.414,-53.223,-144.043
1688815239.292,-62.988,-30.762,-27.344,-33.203,-175.781
1688815239.296,-74.707,-26.367,-22.461,-22.949,-83.008
1688815239.300,-106.934,-22.949,-21.973,-6.836,339.355
1688815239.303,-112.305,-22.949,-25.391,-31.250,380.371
1688815239.307,-94.238,-25.391,-25.391,-71.777,-68.359
1688815239.311,-87.891,-27.832,-23.438,-56.152,-102.539
1688815239.315,-95.215,-32.227,-25.391,-45.410,-68.848
1688815239.319,-118.652,-33.203,-31.250,-49.316,-55.176
1688815239.323,-118.652,-34.668,-31.250,-67.871,-42.480
1688815239.327,-82.520,-38.086,-24.414,-78.613,104.980
1688815239.330,-66.895,-33.691,-23.438,-55.664,264.160
1688815239.334,-90.332,-32.227,-24.414,-51.270,-45.410
1688815239.338,-126.953,-32.227,-23.438,-46.875,-169.434
1688815239.342,-135.254,-32.227,-22.461,-54.688,-62.500
1688815239.346,-108.398,-34.668,-16.602,-87.402,-109.375
1688815239.349,-99.121,-36.133,-15.625,-76.660,-186.523
1688815239.353,-104.004,-32.715,-15.137,-50.293,-214.355
1688815239.357,-127.441,-26.855,-14.160,-28.809,-153.809
1688815239.361,-137.695,-26.855,-15.137,-45.410,-85.449
1688815239.365,-107.910,-28.809,-17.090,-75.684,-163.574
1688815239.369,-92.285,-25.391,-17.090,-59.570,-115.234
1688815239.373,-106.445,-29.297,-20.508,-55.176,240.723
1688815239.376,-142.578,-31.250,-21.973,-53.223,208.496
1688815239.380,-167.480,-27.344,-21.484,-73.242,-115.723
1688815239.384,-138.672,-30.762,-23.926,-112.305,-168.457
1688815239.388,-107.422,-32.227,-21.484,-109.863,-97.656
1688815239.392,-113.770,-29.297,-18.066,-91.797,-14.648
1688815239.407,-139.160,-26.855,-20.020,-81.055,-2.441
1688815239.411,-154.785,-28.809,-27.344,-72.754,-12.207
1688815239.415,-121.582,-30.762,-29.785,-88.867,-54.688
1688815239.419,-89.844,-33.203,-31.738,-91.797,-128.418
1688815239.423,-90.332,-30.762,-27.344,-71.777,-184.570
1688815239.427,-110.840,-30.762,-24.414,-62.988,50.781
1688815239.431,-131.836,-34.668,-31.250,-51.270,427.246
1688815239.434,-105.469,-36.621,-33.691,-75.195,183.594
1688815239.438,-73.730,-36.133,-31.738,-85.449,-143.555
1688815239.442,-82.520,-32.715,-30.762,-62.988,-41.992
1688815239.446,-106.934,-32.227,-28.809,-55.664,5.371
1688815239.450,-132.812,-29.785,-26.855,-47.363,-84.473
1688815239.452,-132.324,-31.738,-31.738,-68.848,-122.559
1688815239.456,-108.398,-35.156,-32.715,-76.172,-125.488
1688815239.460,-104.004,-30.273,-34.180,-54.688,-147.949
1688815239.464,-118.652,-25.391,-36.133,-45.410,-234.375
1688815239.468,-132.812,-27.832,-34.180,-42.969,-140.137
1688815239.472,-117.676,-28.320,-32.715,-67.871,84.961
1688815239.476,-78.613,-31.250,-29.297,-80.078,17.578
1688815239.479,-80.566,-34.180,-30.762,-63.477,-130.859
1688815239.483,-105.957,-37.109,-30.762,-51.270,-124.512
1688815239.487,-125.000,-35.645,-32.227,-28.320,172.852
1688815239.491,-110.840,-30.762,-34.180,-38.574,171.875
1688815239.495,-72.266,-28.809,-26.367,-59.570,-27.832
1688815239.497,-51.270,-27.832,-25.391,-50.293,-53.223
1688815239.501,-58.594,-24.902,-30.762,-32.715,29.297
1688815239.505,-91.797,-23.438,-26.367,-23.926,13.672
1688815239.509,-94.238,-27.344,-25.391,-44.434,-68.359
1688815239.513,-56.152,-31.250,-27.344,-58.105,-132.812
1688815239.517,-30.273,-28.320,-28.809,-36.133,-83.984
1688815239.521,-23.926,-29.297,-29.297,-30.273,-33.691
1688815239.524,-33.691,-32.227,-27.832,-27.832,-93.262
1688815239.528,-41.504,-30.273,-32.227,-27.832,-13.184
1688815239.532,-13.184,-24.902,-31.738,-34.668,135.742
1688815239.536,14.648,-19.043,-26.367,-28.809,-91.309
1688815239.540,14.648,-19.043,-26.367,-20.020,-123.047
1688815239.542,-8.301,-18.066,-24.902,-0.977,35.156
1688815239.546,-33.691,-23.438,-22.949,-7.324,-9.766
1688815239.550,-27.344,-26.855,-24.902,-44.434,-158.203
1688815239.554,-15.625,-25.879,-27.344,-34.668,-132.324
1688815239.558,-15.137,-28.320,-25.391,-18.066,-25.391
1688815239.562,-45.410,-32.715,-26.367,-19.043,37.598
1688815239.566,-80.078,-37.598,-31.738,-28.320,-28.320
1688815239.569,-56.152,-39.551,-32.227,-55.176,-92.285
1688815239.573,-26.367,-33.691,-29.785,-41.504,30.762
1688815239.577,-41.992,-29.297,-30.762,-33.691,-1.465
1688815239.581,-81.055,-32.715,-33.691,-41.016,-50.293
1688815239.585,-112.793,-35.156,-37.109,-35.645,87.402
1688815239.588,-106.445,-32.227,-33.203,-54.199,67.871
1688815239.592,-82.520,-32.227,-31.738,-50.293,-44.434
1688815239.596,-64.453,-33.203,-30.762,-33.691,-96.680
1688815239.600,-74.707,-33.691,-27.344,-27.344,-128.906
1688815239.604,-102.051,-31.250,-34.668,-12.695,250.977
1688815239.608,-78.125,-30.273,-32.227,-32.715,225.098
1688815239.612,-41.504,-30.273,-28.809,-43.945,-98.145
1688815239.615,-39.551,-30.273,-32.227,-23.438,10.254
1688815239.619,-57.129,-25.879,-31.250,-11.230,175.293
1688815239.623,-77.148,-25.879,-34.668,-24.902,-51.270
1688815239.627,-53.711,-29.297,-34.668,-51.758,-211.914
1688815239.631,-10.742,-28.809,-31.738,-56.641,-142.090
1688815239.632,8.301,-29.297,-30.273,-40.039,-145.508
1688815239.636,-1.953,-29.297,-31.738,-29.297,-221.191
1688815239.640,-41.016,-31.250,-33.691,-19.531,-105.469
1688815239.644,-42.969,-27.832,-32.715,-35.645,-32.715
1688815239.648,-12.695,-26.367,-40.039,-51.270,-156.738
1688815239.652,-9.766,-28.809,-41.992,-39.062,-139.648
1688815239.656,-32.227,-30.762,-38.086,-35.156,-31.738
1688815239.659,-65.430,-31.250,-36.133,-27.344,244.141
1688815239.663,-82.520,-31.738,-30.762,-40.039,187.012
1688815239.667,-65.918,-38.086,-33.203,-62.988,-158.691
1688815239.671,-50.293,-41.504,-32.715,-53.223,-177.734
1688815239.675,-56.152,-36.621,-27.832,-45.410,-110.840
1688815239.677,-78.613,-27.832,-28.809,-27.344,-119.629
1688815239.681,-82.520,-24.902,-26.855,-31.250,-132.324
1688815239.685,-49.805,-28.809,-24.902,-44.434,-125.977
1688815239.689,-30.762,-31.250,-22.949,-20.020,-19.531
1688815239.693,-48.828,-38.086,-27.832,-14.160,-56.641
1688815239.697,-85.449,-41.016,-34.668,-13.672,-16.602
1688815239.701,-97.656,-38.574,-32.227,-36.621,167.480
1688815239.704,-75.195,-37.109,-30.273,-65.430,191.406
1688815239.708,-49.805,-35.645,-27.832,-46.875,-83.496
1688815239.712,-51.270,-30.762,-24.902,-35.156,-241.699
1688815239.716,-81.055,-30.273,-24.414,-35.156,4.395
1688815239.720,-98.633,-27.344,-17.578,-29.785,152.832
1688815239.722,-67.383,-28.320,-22.949,-52.246,-115.723
1688815239.726,-40.527,-29.785,-26.855,-58.594,-219.727
1688815239.730,-47.852,-27.832,-28.320,-43.945,-177.734
1688815239.734,-83.496,-31.250,-31.738,-26.855,-73.730
1688815239.738,-110.840,-30.273,-26.855,-15.137,-45.410
1688815239.742,-94.238,-28.320,-25.879,-33.691,-63.477
1688815239.746,-80.078,-30.273,-24.902,-32.227,163.574
1688815239.749,-87.402,-30.273,-24.414,-26.367,61.035
1688815239.753,-104.980,-32.227,-23.926,-26.367,-130.371
1688815239.757,-123.535,-33.691,-23.438,-23.438,26.367
1688815239.761,-98.633,-38.574,-23.438,-41.016,62.988
1688815239.765,-67.383,-39.551,-22.461,-42.969,-54.199
1688815239.767,-62.988,-33.203,-18.066,-38.574,-163.574
1688815239.771,-71.777,-35.156,-17.090,-28.809,-49.316
1688815239.775,-91.309,-30.762,-20.996,-15.625,98.633
1688815239.779,-79.102,-27.832,-24.902,-41.016,-87.891
1688815239.783,-54.688,-27.832,-25.879,-42.480,-166.016
1688815239.787,-62.988,-29.297,-32.227,-25.879,-53.223
1688815239.791,-84.961,-29.785,-32.227,-29.785,47.852
1688815239.794,-125.488,-27.832,-25.391,-35.156,-37.109
1688815239.798,-133.789,-31.250,-29.785,-56.152,-207.031
1688815239.802,-107.910,-32.715,-33.691,-57.129,-78.125
1688815239.806,-101.074,-35.645,-32.227,-54.688,2.441
1688815239.810,-116.699,-33.691,-31.250,-59.570,-156.738
1688815239.827,-131.836,-24.414,-29.297,-34.668,-152.344
1688815239.831,-117.188,-21.484,-25.879,-46.875,-24.902
1688815239.835,-75.195,-21.484,-26.367,-60.547,-44.434
1688815239.839,-50.293,-23.438,-30.762,-48.340,-133.789
1688815239.843,-51.758,-25.391,-33.203,-53.223,-106.934
1688815239.847,-72.266,-21.973,-33.691,-40.527,94.727
1688815239.851,-80.566,-21.973,-30.273,-49.316,71.289
1688815239.854,-62.500,-27.344,-28.809,-67.383,-150.879
1688815239.858,-61.523,-29.297,-28.320,-36.133,-144.043
1688815239.862,-94.238,-26.367,-31.250,-21.973,127.930
1688815239.866,-133.301,-21.484,-30.762,-15.625,56.152
1688815239.870,-141.602,-27.344,-26.855,-28.320,-101.562
1688815239.872,-108.887,-30.762,-23.438,-52.246,-73.730
1688815239.876,-90.820,-26.367,-20.508,-26.367,183.594
1688815239.880,-100.098,-30.273,-25.391,-20.020,49.805
1688815239.884,-125.977,-36.621,-30.273,-27.832,-123.535
1688815239.888,-130.371,-30.762,-30.273,-40.039,-24.902
1688815239.892,-93.262,-28.809,-28.320,-54.688,24.414
1688815239.896,-70.312,-30.273,-23.926,-51.270,-3.418
1688815239.899,-62.012,-29.785,-21.973,-46.875,-145.996
1688815239.903,-72.754,-29.785,-23.926,-27.832,-16.113
1688815239.907,-84.961,-30.762,-26.367,-29.785,122.070
1688815239.911,-52.734,-31.250,-31.738,-75.195,-176.270
1688815239.915,-35.156,-34.180,-32.227,-80.566,-271.484
1688815239.917,-49.805,-37.598,-32.715,-58.594,1.953
1688815239.921,-70.801,-30.273,-30.762,-45.898,54.199
1688815239.925,-74.219,-24.902,-24.902,-44.434,-104.980
1688815239.929,-41.992,-30.762,-24.414,-61.523,-51.758
1688815239.933,-10.742,-29.297,-23.438,-44.922,73.242
1688815239.937,-3.906,-22.461,-21.484,-33.203,-45.410
1688815239.941,-22.949,-25.879,-23.926,-27.832,-154.297
1688815239.944,-35.156,-28.809,-24.414,-19.043,-40.039
1688815239.948,-8.789,-30.762,-23.926,-46.387,149.414
1688815239.952,24.902,-33.203,-27.832,-55.664,30.273
1688815239.956,36.133,-28.809,-28.809,-42.969,-141.602
1688815239.960,27.832,-25.879,-28.809,-29.297,-83.496
1688815239.962,1.465,-27.832,-29.297,-15.625,158.203
1688815239.966,13.672,-29.785,-25.879,-44.434,34.668
1688815239.970,52.246,-33.203,-23.438,-56.641,-207.520
1688815239.974,54.199,-29.785,-20.996,-35.645,-137.207
1688815239.978,29.785,-27.832,-22.949,-34.668,-45.410
1688815239.982,-7.812,-34.668,-30.273,-33.203,40.527
1688815239.986,-8.789,-31.738,-31.738,-59.082,20.020
1688815239.989,19.531,-30.273,-31.738,-74.219,98.633
1688815239.993,14.160,-39.062,-35.645,-67.383,273.438
1688815239.997,-10.254,-40.039,-35.645,-74.707,-10.254
1688815240.001,-30.762,-37.109,-36.133,-55.664,-159.180
1688815240.005,-23.926,-36.621,-36.133,-65.430,64.941
1688815240.022,12.695,-32.227,-29.785,-71.289,9.277
1688815240.026,24.414,-33.203,-27.832,-44.434,-209.961
1688815240.030,7.324,-35.156,-24.902,-41.992,-174.316
1688815240.034,-16.602,-30.762,-23.438,-31.250,-18.555
1688815240.038,-9.277,-30.273,-26.367,-34.668,-66.895
1688815240.042,33.691,-29.785,-26.855,-59.082,-172.852
1688815240.046,44.434,-33.691,-29.297,-53.223,12.207
1688815240.049,20.996,-33.691,-35.156,-29.785,300.293
1688815240.053,-3.906,-33.203,-34.668,-22.949,207.031
1688815240.057,-5.371,-38.086,-33.691,-51.758,-131.836
1688815240.061,21.484,-38.574,-36.133,-71.289,-170.898
1688815240.065,35.645,-32.715,-31.250,-43.457,16.602
1688815240.052,27.344,-29.785,-24.902,-30.273,-25.879
1688815240.056,-7.812,-30.762,-28.809,-29.297,-96.191
1688815240.060,-27.344,-32.227,-34.668,-33.691,-80.078
1688815240.064,13.184,-30.762,-33.203,-59.082,-117.676
1688815240.068,38.086,-30.762,-31.738,-54.199,-131.348
1688815240.072,28.320,-31.250,-34.180,-41.016,-72.266
1688815240.076,6.348,-31.250,-34.180,-31.250,47.852
1688815240.079,-5.859,-28.809,-34.180,-40.039,25.879
1688815240.083,18.066,-25.391,-37.598,-74.707,-143.066
1688815240.087,31.738,-28.320,-36.133,-73.730,-181.152
1688815240.091,22.461,-28.320,-33.691,-58.105,88.867
1688815240.095,1.953,-22.949,-34.180,-46.387,266.602
1688815240.127,-13.184,-26.855,-35.645,-49.316,-42.480
1688815240.131,2.441,-33.203,-42.480,-73.730,-206.543
1688815240.135,31.738,-29.785,-43.457,-66.406,-177.246
1688815240.139,31.250,-28.809,-39.551,-51.270,-209.473
1688815240.143,-0.977,-28.320,-39.551,-37.598,-171.387
1688815240.147,-22.949,-26.855,-39.062,-38.574,18.066
1688815240.151,6.348,-28.320,-37.598,-55.176,212.891
1688815240.154,32.715,-31.738,-34.668,-56.152,15.625
1688815240.158,29.785,-34.180,-34.180,-54.199,-191.406
1688815240.162,22.461,-32.715,-34.180,-36.133,-106.934
1688815240.166,6.348,-34.668,-35.156,-31.250,-37.109
1688815240.170,22.461,-34.668,-34.180,-58.105,-132.812
1688815240.143,49.316,-37.598,-40.039,-61.035,-92.773
1688815240.147,67.383,-42.969,-35.156,-34.668,-1.465
1688815240.151,73.730,-29.785,-31.250,-16.113,13.184
1688815240.155,40.039,-20.996,-45.410,-24.414,28.809
1688815240.159,39.062,-25.879,-57.617,-66.406,-43.945
1688815240.163,84.961,-18.555,-51.270,-67.383,24.902
1688815240.167,104.492,-11.230,-52.246,-41.016,232.910
1688815240.170,83.008,-9.277,-61.523,-42.480,-30.273
1688815240.174,53.711,-5.371,-64.941,-33.691,-172.852
1688815240.178,63.965,0.977,-69.336,-49.316,-1.465
1688815240.182,100.098,8.301,-73.242,-59.570,52.246
1688815240.186,103.516,14.160,-79.102,-46.875,-117.188
1688815240.217,69.824,20.996,-84.961,-51.758,-219.238
1688815240.221,34.180,24.902,-91.797,-31.250,26.855
1688815240.225,24.902,25.391,-101.074,-39.551,166.016
1688815240.229,50.781,30.762,-103.027,-73.242,-59.570
1688815240.233,60.059,31.738,-104.492,-61.523,-155.273
1688815240.237,32.715,26.367,-109.863,-46.875,97.656
1688815240.241,-2.441,28.809,-113.770,-34.668,130.371
1688815240.244,-20.996,32.715,-117.676,-52.246,-194.336
1688815240.248,10.254,40.039,-116.699,-65.918,-196.289
1688815240.252,26.367,40.527,-110.840,-47.852,77.148
1688815240.256,0.977,40.527,-112.793,-48.340,-8.301
1688815240.260,-41.992,48.340,-111.328,-41.992,-94.727
1688815240.247,-52.246,46.875,-110.840,-44.922,-35.156
1688815240.251,-13.672,44.922,-118.164,-71.777,20.508
1688815240.255,-1.953,47.363,-114.746,-63.477,-88.867
1688815240.259,-15.137,45.410,-108.398,-54.688,-194.336
1688815240.263,-50.293,38.574,-108.887,-48.828,-71.289
1688815240.267,-76.660,36.621,-108.887,-46.387,32.227
1688815240.271,-58.105,34.668,-102.051,-58.594,-90.820
1688815240.274,-44.922,31.250,-95.215,-51.270,-19.531
1688815240.278,-57.617,23.926,-97.168,-36.133,101.562
1688815240.282,-90.820,15.137,-96.191,-24.902,47.363
1688815240.286,-121.582,12.207,-93.750,-26.855,-132.812
1688815240.290,-97.656,9.766,-92.773,-62.500,-252.441
1688815240.292,-59.570,5.859,-91.797,-69.336,-43.457
1688815240.296,-60.059,2.441,-91.309,-51.758,112.793
1688815240.300,-68.848,0.000,-87.402,-42.969,-82.520
1688815240.304,-90.332,-4.395,-85.938,-43.945,-129.883
1688815240.308,-76.660,-7.812,-82.031,-66.895,-84.961
1688815240.312,-36.133,-4.883,-76.172,-64.453,-87.891
1688815240.316,-25.879,-1.953,-74.219,-46.875,-34.180
1688815240.319,-33.691,-8.301,-73.730,-39.062,-15.625
1688815240.323,-60.547,-11.719,-67.871,-22.949,209.473
1688815240.327,-53.711,-10.254,-67.383,-36.621,234.863
1688815240.331,-10.742,-16.113,-70.801,-52.246,-109.375
1688815240.335,13.672,-18.555,-69.336,-44.434,0.000
1688815240.337,17.090,-14.160,-65.918,-31.250,168.457
1688815240.341,-2.441,-16.113,-62.500,-16.113,-14.648
1688815240.345,1.465,-18.066,-64.453,-50.293,-172.363
1688815240.349,42.480,-19.531,-65.430,-65.430,-239.746
1688815240.353,41.504,-20.508,-61.035,-48.828,-193.359
1688815240.357,13.184,-19.043,-55.176,-55.176,-104.980
1688815240.361,-37.598,-20.020,-54.688,-52.246,-122.559
1688815240.364,-68.359,-19.531,-60.547,-68.848,-40.039
1688815240.368,-62.988,-15.137,-61.523,-74.707,122.070
1688815240.372,-66.406,-12.695,-57.129,-64.453,3.906
1688815240.376,-74.707,-11.230,-58.105,-67.383,-97.168
1688815240.380,-107.422,-13.184,-57.129,-58.105,-10.254
1688815240.397,-111.328,-15.625,-55.664,-76.172,38.574
1688815240.401,-84.961,-16.602,-55.176,-98.633,-95.703
1688815240.405,-86.914,-17.090,-54.199,-72.754,-127.441
1688815240.409,-102.539,-18.555,-48.828,-58.105,-46.875
1688815240.413,-138.672,-16.602,-47.852,-46.875,-23.438
1688815240.417,-157.227,-15.137,-50.293,-54.199,35.645
1688815240.421,-125.488,-20.020,-50.293,-81.055,35.645
1688815240.424,-107.422,-22.949,-50.781,-62.988,159.180
1688815240.428,-112.305,-21.484,-41.016,-40.039,65.918
1688815240.432,-139.160,-21.973,-37.109,-36.621,-78.125
1688815240.436,-155.762,-19.531,-40.039,-43.457,50.781
1688815240.440,-119.629,-22.461,-46.387,-56.152,214.844
1688815240.427,-91.797,-24.902,-48.828,-52.246,41.016
1688815240.431,-90.820,-22.949,-45.898,-44.434,-195.801
1688815240.435,-108.887,-22.949,-43.457,-23.438,-116.699
1688815240.439,-124.512,-23.438,-44.434,-22.949,54.199
1688815240.443,-94.727,-23.926,-41.992,-63.477,-110.840
1688815240.447,-67.383,-27.832,-40.527,-65.430,-79.102
1688815240.451,-71.777,-37.109,-43.945,-51.758,46.875
1688815240.454,-86.426,-36.133,-45.898,-42.969,-35.156
1688815240.458,-98.633,-26.855,-43.457,-40.039,-90.820
1688815240.462,-70.312,-25.879,-36.621,-59.570,-222.168
1688815240.466,-41.992,-27.344,-37.109,-60.059,-82.031
1688815240.470,-44.434,-25.879,-36.621,-52.734,204.590
1688815240.488,-65.918,-24.902,-36.621,-58.105,-35.645
1688815240.492,-93.262,-30.273,-38.086,-55.176,-103.027
1688815240.496,-83.008,-28.320,-32.227,-73.730,-55.176
1688815240.500,-59.082,-27.344,-30.762,-81.055,-159.668
1688815240.504,-55.664,-29.785,-32.227,-62.988,-175.781
1688815240.508,-73.242,-27.344,-36.621,-49.316,-170.410
1688815240.512,-121.094,-28.320,-37.598,-30.762,179.688
1688815240.515,-120.605,-31.250,-28.320,-46.875,163.574
1688815240.519,-93.750,-31.250,-23.438,-54.199,-211.914
1688815240.523,-110.352,-29.785,-31.250,-36.621,-159.668
1688815240.527,-138.184,-28.809,-32.227,-31.738,-104.004
1688815240.531,-182.617,-31.738,-28.809,-26.367,-54.688
1688815240.517,-179.688,-37.109,-31.738,-53.711,-119.629
1688815240.521,-152.344,-40.527,-33.203,-67.383,-130.859
1688815240.525,-145.020,-42.480,-31.738,-44.434,74.219
1688815240.529,-146.484,-37.598,-29.785,-35.156,-67.871
1688815240.533,-167.480,-34.668,-24.902,-28.809,-80.566
1688815240.537,-166.016,-31.738,-23.926,-43.457,26.855
1688815240.541,-133.789,-27.344,-25.879,-61.035,-73.242
1688815240.544,-121.094,-29.785,-25.879,-45.410,-137.207
1688815240.548,-134.277,-29.785,-22.949,-35.156,-175.781
1688815240.552,-161.621,-27.832,-25.391,-27.832,7.324
1688815240.556,-160.645,-27.344,-25.879,-48.828,287.598
1688815240.560,-131.348,-27.344,-26.855,-73.242,-40.039
1688815240.577,-118.164,-28.809,-27.832,-58.594,-256.348
1688815240.581,-131.348,-31.250,-24.414,-43.457,-117.188
1688815240.585,-168.457,-30.762,-21.484,-29.297,-63.477
1688815240.589,-192.383,-30.762,-24.902,-44.922,-106.445
1688815240.593,-169.922,-27.832,-28.320,-62.988,-115.234
1688815240.597,-160.645,-30.273,-29.785,-41.016,83.984
1688815240.601,-178.223,-33.203,-25.879,-31.738,21.484
1688815240.604,-206.543,-29.785,-23.438,-23.926,-90.820
1688815240.608,-221.680,-30.273,-23.926,-30.273,-23.926
1688815240.612,-197.754,-28.809,-22.461,-46.875,-32.715
1688815240.616,-190.918,-31.738,-25.391,-28.809,-105.957
1688815240.620,-202.637,-35.156,-25.879,-21.484,-70.801
1688815240.622,-224.121,-34.180,-24.902,-23.438,-50.293
1688815240.626,-244.629,-37.109,-25.879,-26.367,222.656
1688815240.630,-226.074,-41.992,-30.273,-53.711,258.301
1688815240.634,-201.660,-38.086,-31.738,-51.270,-85.938
1688815240.638,-191.895,-30.273,-27.344,-37.109,-155.762
1688815240.642,-219.727,-33.691,-25.391,-34.180,-80.078
1688815240.646,-258.789,-38.086,-25.879,-37.598,29.297
1688815240.649,-237.793,-33.203,-24.902,-55.176,-129.883
1688815240.653,-214.355,-28.320,-22.461,-47.363,-114.746
1688815240.657,-220.215,-32.715,-23.926,-37.109,337.402
1688815240.661,-217.285,-34.668,-22.461,-38.086,116.699
1688815240.665,-192.871,-30.762,-20.020,-38.086,-115.723
1688815240.667,-145.020,-29.297,-24.414,-60.547,-29.297
1688815240.671,-93.262,-30.762,-26.367,-63.965,-112.793
1688815240.675,-69.824,-34.180,-26.367,-49.316,-186.523
1688815240.679,-70.312,-32.227,-29.297,-50.293,-95.215
1688815240.683,-97.168,-26.855,-26.855,-49.316,-25.391
1688815240.687,-102.051,-26.367,-24.414,-65.918,26.367
1688815240.691,-78.613,-27.832,-26.855,-68.848,88.867
1688815240.694,-83.008,-29.297,-30.273,-50.781,37.109
1688815240.698,-94.238,-30.762,-31.738,-35.156,73.242
1688815240.702,-126.465,-37.109,-34.180,-24.414,24.414
1688815240.706,-135.254,-39.551,-36.133,-40.527,-42.480
1688815240.710,-116.699,-36.621,-35.645,-39.551,-28.320
1688815240.743,-119.141,-37.598,-33.691,-18.555,290.039
1688815240.747,-133.301,-40.527,-32.715,-9.277,334.961
1688815240.751,-162.598,-37.598,-32.227,-11.230,-40.527
1688815240.755,-155.762,-31.738,-32.715,-37.109,-166.016
1688815240.759,-114.746,-34.668,-34.180,-61.035,-180.176
1688815240.763,-87.402,-37.598,-36.133,-46.387,-64.453
1688815240.767,-64.941,-33.203,-39.551,-47.363,7.812
1688815240.770,-51.758,-32.715,-41.016,-42.480,111.328
1688815240.774,-28.809,-31.250,-39.062,-42.969,234.863
1688815240.778,11.230,-26.367,-37.598,-62.500,-106.445
1688815240.782,24.902,-25.391,-38.574,-40.527,-195.312
1688815240.786,15.137,-24.902,-40.039,-33.691,-34.180
1688815240.775,1.465,-25.391,-36.133,-33.691,-82.031
1688815240.779,3.418,-26.855,-35.645,-45.410,-155.273
1688815240.783,29.785,-26.855,-38.086,-73.730,-152.832
1688815240.787,38.086,-27.832,-41.504,-68.848,-44.434
1688815240.791,13.672,-32.227,-42.480,-67.383,-76.660
1688815240.795,-22.461,-31.738,-39.551,-49.316,-97.656
1688815240.799,-42.969,-28.320,-39.551,-42.969,25.391
1688815240.802,-22.949,-32.227,-40.039,-62.988,-56.641
1688815240.806,-4.883,-31.250,-40.039,-51.758,-130.859
1688815240.810,-7.324,-26.855,-41.504,-39.062,-141.602
1688815240.814,-31.250,-28.809,-42.480,-33.691,-84.961
1688815240.818,-45.410,-30.762,-42.480,-38.086,139.648
1688815240.817,-15.137,-29.785,-42.480,-61.035,3.418
1688815240.821,9.277,-28.809,-43.457,-55.176,-190.430
1688815240.825,5.371,-30.273,-41.016,-51.270,-175.293
1688815240.829,-17.090,-33.203,-40.527,-36.621,234.375
1688815240.833,-43.945,-40.527,-42.480,-31.738,340.332
1688815240.837,-39.551,-45.410,-41.504,-70.801,15.137
1688815240.841,-23.926,-38.086,-42.969,-78.125,-33.203
1688815240.844,-19.043,-29.297,-50.781,-72.754,-89.844
1688815240.848,-15.137,-22.949,-53.223,-50.293,-188.477
1688815240.852,-49.805,-31.250,-39.551,-41.504,-162.109
1688815240.856,-69.824,-47.363,-35.156,-82.031,-65.918
1688815240.860,-41.016,-47.363,-32.227,-77.148,245.117
1688815240.847,-31.250,-48.340,-21.973,-66.406,24.414
1688815240.851,-62.988,-57.129,-11.719,-73.730,-262.207
1688815240.855,-114.746,-62.012,-3.906,-72.754,-101.562
1688815240.859,-133.301,-65.918,2.930,-107.422,-145.996
1688815240.863,-124.512,-79.102,4.883,-126.465,-241.211
1688815240.867,-132.812,-86.914,12.207,-110.840,-146.973
1688815240.871,-183.594,-95.703,20.996,-115.234,-3.906
1688815240.874,-235.352,-99.609,26.367,-107.910,8.789
1688815240.878,-242.188,-103.516,35.645,-118.652,-56.152
1688815240.882,-217.285,-114.258,42.480,-129.395,-142.090
1688815240.886,-209.961,-121.094,50.781,-99.121,197.754
1688815240.890,-239.258,-121.094,55.176,-102.539,405.273
1688815240.892,-276.855,-120.605,51.758,-102.539,-1.953
1688815240.896,-289.551,-127.441,52.246,-110.840,-184.082
1688815240.900,-280.762,-133.789,58.594,-131.348,-177.734
1688815240.904,-271.973,-130.371,55.176,-112.305,-203.613
1688815240.908,-280.762,-130.371,55.664,-104.492,-196.289
1688815240.912,-310.059,-128.418,61.035,-88.379,-16.602
1688815240.916,-305.176,-121.582,54.688,-87.891,27.832
1688815240.919,-264.648,-115.723,48.340,-101.562,-181.152
1688815240.923,-240.234,-110.352,43.945,-83.008,-243.164
1688815240.927,-230.469,-103.516,38.086,-64.941,-12.207
1688815240.931,-255.371,-100.586,35.645,-49.805,204.590
1688815240.935,-261.230,-102.051,32.227,-63.477,-59.570
1688815240.952,-210.938,-98.633,28.809,-88.379,-199.219
1688815240.956,-182.129,-89.355,30.273,-65.918,5.371
1688815240.960,-186.035,-86.426,28.809,-60.547,-63.477
1688815240.964,-206.055,-91.309,27.832,-50.781,-226.074
1688815240.968,-212.402,-89.355,27.832,-40.039,-120.117
1688815240.972,-166.016,-80.566,28.320,-67.383,-22.461
1688815240.976,-141.602,-78.125,21.973,-62.012,-0.977
1688815240.979,-145.020,-75.195,14.160,-44.434,-90.820
1688815240.983,-168.945,-72.754,11.230,-34.180,-42.480
1688815240.987,-205.078,-67.871,7.324,-27.832,249.512
1688815240.991,-171.875,-62.500,5.859,-47.852,-7.812
1688815240.995,-113.281,-60.547,9.766,-37.109,-124.023
1688815241.013,-104.004,-61.035,8.301,-19.043,68.848
1688815241.017,-127.441,-56.152,0.000,-18.066,115.723
1688815241.021,-148.926,-54.199,-3.906,-25.879,12.695
1688815241.025,-112.793,-51.758,0.488,-48.340,-175.293
1688815241.029,-82.031,-53.711,-1.465,-43.945,-195.801
1688815241.033,-81.055,-58.594,-6.348,-23.926,-73.730
1688815241.037,-88.867,-52.734,-7.324,-18.066,-38.086
1688815241.040,-113.770,-51.758,-1.953,-18.555,-74.219
1688815241.044,-88.867,-51.758,-0.977,-38.574,43.945
1688815241.048,-49.805,-53.711,-8.301,-41.992,190.430
1688815241.052,-39.062,-55.176,-5.859,-31.738,19.043
1688815241.056,-50.781,-47.852,-1.465,-25.879,-70.312
1688815241.042,-86.914,-39.062,-1.953,-20.996,41.504
1688815241.046,-82.031,-44.922,-8.301,-50.293,15.137
1688815241.050,-49.316,-48.828,-8.789,-51.758,-153.809
1688815241.054,-42.969,-42.480,-6.836,-37.109,-191.406
1688815241.058,-55.176,-39.551,-8.301,-42.480,25.879
1688815241.062,-81.055,-40.527,-9.766,-28.320,123.047
1688815241.066,-77.637,-42.969,-14.160,-33.691,-42.480
1688815241.069,-47.852,-42.480,-14.160,-45.410,-125.488
1688815241.073,-34.668,-41.992,-11.230,-26.855,-66.895
1688815241.077,-39.062,-40.039,-14.648,-15.625,-176.270
1688815241.081,-63.477,-37.598,-16.602,-0.977,-124.023
1688815241.085,-66.895,-37.598,-16.602,-16.602,-56.152
1688815241.087,-22.461,-33.203,-12.695,-23.926,133.301
1688815241.091,-4.395,-29.785,-7.812,1.953,174.316
1688815241.095,-18.066,-34.180,-10.254,-4.883,-151.855
1688815241.099,-46.387,-35.645,-15.625,-7.812,-105.469
1688815241.103,-54.199,-34.668,-13.184,-18.555,-34.180
1688815241.107,-19.043,-35.156,-11.230,-34.180,-166.504
1688815241.111,-2.930,-38.574,-14.648,-13.184,-116.211
1688815241.114,-14.160,-30.273,-15.137,-8.301,-24.902
1688815241.118,-38.574,-25.879,-24.902,-23.438,44.434
1688815241.122,-50.293,-29.785,-33.691,-48.828,-76.172
1688815241.126,-25.391,-31.250,-26.367,-77.148,-226.562
1688815241.130,6.348,-31.250,-21.973,-56.152,-15.137
1688815241.132,-10.254,-34.668,-26.855,-42.969,86.426
1688815241.136,-53.711,-34.668,-20.996,-39.551,-109.375
1688815241.140,-82.520,-34.668,-21.484,-38.574,-42.480
1688815241.144,-72.266,-38.574,-27.832,-60.547,-36.621
1688815241.148,-50.781,-41.504,-25.879,-53.711,-102.051
1688815241.152,-53.711,-41.016,-23.926,-38.086,-27.832
1688815241.156,-92.285,-43.457,-27.344,-27.832,92.285
1688815241.159,-125.000,-42.969,-29.785,-22.461,370.117
1688815241.163,-113.281,-43.457,-26.367,-45.898,276.855
1688815241.167,-87.891,-41.016,-28.320,-48.340,-156.738
1688815241.171,-82.520,-36.621,-27.832,-24.414,-209.473
1688815241.175,-100.586,-36.621,-27.344,-10.742,-86.426
1688815241.177,-118.164,-38.574,-30.762,-12.207,-104.492
1688815241.181,-94.238,-34.180,-27.344,-32.715,-176.758
1688815241.185,-67.383,-30.273,-24.414,-19.043,-84.473
1688815241.189,-71.777,-35.645,-24.902,-0.488,-13.184
1688815241.193,-95.703,-35.645,-20.996,-0.488,-67.383
1688815241.197,-133.789,-34.668,-21.484,2.441,-85.449
1688815241.201,-128.418,-40.527,-28.809,-17.578,34.180
1688815241.204,-93.750,-39.551,-29.785,-20.508,198.242
1688815241.208,-80.566,-37.598,-26.855,-24.902,-7.324
1688815241.212,-93.750,-37.109,-24.902,-24.902,-127.930
1688815241.216,-105.957,-34.668,-30.273,-6.348,53.223
1688815241.220,-76.660,-30.762,-31.250,-29.785,73.730
1688815241.222,-37.109,-30.762,-28.320,-45.410,-111.328
1688815241.226,-26.855,-39.062,-31.738,-21.484,-142.090
1688815241.230,-38.574,-40.527,-30.273,-18.066,-87.891
1688815241.234,-68.848,-37.598,-28.320,-22.949,-24.902
1688815241.238,-62.012,-42.480,-27.832,-37.598,-90.332
1688815241.242,-21.484,-46.875,-26.855,-57.617,-73.242
1688815241.246,-13.672,-44.434,-25.391,-42.480,220.215
1688815241.249,-36.133,-47.363,-23.438,-33.203,75.684
1688815241.253,-66.895,-48.340,-21.973,-21.484,-166.992
1688815241.257,-60.059,-39.551,-20.996,-26.367,-155.273
1688815241.261,-21.484,-33.691,-17.578,-39.551,-117.676
1688815241.265,-16.113,-32.715,-19.043,-30.762,-28.320
1688815241.267,-23.438,-30.273,-19.531,-26.367,-90.820
1688815241.271,-43.457,-33.203,-21.484,-15.137,-80.566
1688815241.275,-55.176,-36.133,-26.855,-14.160,175.293
1688815241.279,-21.484,-36.133,-22.949,-40.039,43.945
1688815241.283,-4.883,-36.621,-20.508,-40.039,-178.711
1688815241.287,-21.973,-38.574,-21.484,-30.762,41.016
1688815241.291,-57.129,-41.504,-24.902,-20.020,197.266
1688815241.294,-78.613,-38.574,-22.949,-26.855,-114.258
1688815241.298,-64.941,-36.621,-16.602,-51.270,-213.867
1688815241.302,-61.523,-38.574,-21.973,-44.922,-61.523
1688815241.306,-77.148,-38.086,-27.344,-36.621,-113.770
1688815241.310,-100.586,-35.645,-26.855,-27.344,-249.023
1688815241.314,-120.117,-33.691,-28.320,-34.668,-181.641
1688815241.318,-90.820,-42.969,-31.250,-61.523,6.348
1688815241.322,-58.105,-47.363,-30.273,-57.617,-68.848
1688815241.326,-61.035,-39.062,-26.367,-56.641,-251.953
1688815241.330,-83.008,-38.574,-24.902,-45.898,-145.508
1688815241.334,-94.727,-36.621,-27.344,-34.180,90.820
1688815241.338,-75.684,-34.180,-23.926,-52.246,10.742
1688815241.341,-46.387,-36.133,-23.926,-46.387,-164.551
1688815241.345,-39.551,-35.156,-28.809,-34.668,-163.574
1688815241.349,-56.152,-30.273,-29.297,-29.297,142.578
1688815241.353,-69.336,-30.762,-27.344,-20.020,111.328
1688815241.357,-31.738,-30.273,-29.785,-37.109,-47.363
1688815241.373,6.836,-28.809,-27.832,-35.156,-23.438
1688815241.377,-10.254,-35.156,-25.391,-20.020,62.500
1688815241.381,-45.410,-34.668,-23.926,-15.137,-17.578
1688815241.385,-76.660,-30.762,-24.414,-4.883,-89.355
1688815241.389,-69.824,-29.297,-23.926,-23.926,-38.086
1688815241.393,-46.387,-30.762,-20.508,-31.250,183.105
1688815241.397,-54.199,-29.785,-20.508,-27.832,89.844
1688815241.400,-81.055,-27.344,-21.484,-21.484,-110.352
1688815241.404,-107.422,-24.902,-24.414,-8.789,94.727
1688815241.408,-92.285,-25.879,-27.832,-30.762,178.223
1688815241.412,-54.688,-28.320,-30.762,-45.898,-126.953
1688815241.416,-59.570,-25.391,-30.762,-36.133,-206.055
1688815241.417,-78.125,-19.531,-26.367,-30.273,-138.672
1688815241.421,-102.539,-22.461,-21.973,-16.602,-116.699
1688815241.425,-105.957,-31.738,-27.344,-44.434,-125.000
1688815241.429,-76.660,-36.621,-30.273,-69.336,-134.766
1688815241.433,-74.219,-35.156,-23.926,-53.711,-71.777
1688815241.437,-99.609,-29.297,-25.879,-51.758,-5.859
1688815241.441,-132.324,-25.879,-28.809,-31.738,19.531
1688815241.444,-126.953,-28.320,-33.203,-42.969,-25.391
1688815241.448,-75.195,-27.832,-38.574,-53.223,219.238
1688815241.452,-63.477,-25.879,-36.621,-32.227,219.238
1688815241.456,-68.848,-24.414,-37.109,-42.969,-75.684
1688815241.460,-89.844,-27.832,-35.645,-35.645,63.965
1688815241.462,-103.027,-28.320,-30.273,-39.062,102.051
1688815241.466,-67.383,-30.273,-33.203,-61.035,-65.918
1688815241.470,-58.105,-35.645,-40.039,-48.828,-145.996
1688815241.474,-71.289,-36.133,-38.574,-34.180,-40.527
1688815241.478,-91.797,-33.203,-36.621,-25.879,142.090
1688815241.482,-98.633,-33.691,-36.133,-39.551,142.090
1688815241.486,-47.363,-30.273,-36.621,-61.523,0.488
1688815241.489,-2.441,-28.809,-40.039,-49.805,66.406
1688815241.493,0.977,-26.855,-41.016,-34.668,235.840
1688815241.497,-20.020,-25.391,-34.668,-23.926,-46.387
1688815241.501,-46.875,-27.832,-33.691,-24.414,-219.727
1688815241.505,-31.738,-25.879,-35.645,-50.781,-95.703
1688815241.507,-13.184,-24.414,-32.715,-35.645,13.672
1688815241.511,-19.531,-26.367,-36.621,-14.160,-125.000
1688815241.515,-47.852,-28.809,-39.551,-7.324,-163.574
1688815241.519,-66.406,-27.344,-37.598,-12.207,-19.043
1688815241.523,-41.992,-26.855,-31.250,-45.410,-136.719
1688815241.527,-20.508,-28.320,-28.320,-47.852,-205.566
1688815241.531,-11.230,-24.902,-32.715,-30.762,-48.828
1688815241.534,-31.250,-26.855,-32.715,-27.344,90.332
1688815241.538,-63.965,-31.250,-32.227,-37.109,-1.465
1688815241.542,-41.504,-30.273,-28.809,-57.129,-168.457
1688815241.546,-13.184,-29.785,-25.879,-47.852,-103.027
1688815241.550,-16.113,-31.250,-25.391,-22.949,253.418
1688815241.552,-29.785,-33.691,-26.367,-14.160,273.926
1688815241.556,-47.363,-28.320,-24.414,-4.883,-79.590
1688815241.560,-33.203,-25.391,-27.344,-16.602,-187.500
1688815241.564,2.930,-28.320,-29.297,-18.555,-144.531
1688815241.568,-2.441,-28.320,-24.414,-11.230,-128.906
1688815241.572,-36.133,-34.180,-31.250,-22.461,-86.426
1688815241.576,-65.918,-35.156,-32.715,-15.625,86.914
1688815241.579,-52.246,-33.203,-25.391,-18.066,176.758
1688815241.583,-8.789,-34.180,-26.855,-37.109,-167.480
1688815241.587,7.812,-30.273,-29.785,-29.785,-268.555
1688815241.591,7.812,-23.926,-29.785,-15.137,-101.074
1688815241.595,-3.906,-27.344,-29.785,-9.277,17.090
1688815241.613,3.418,-29.785,-29.785,-20.020,10.742
1688815241.617,36.133,-28.320,-26.367,-40.527,-79.102
1688815241.621,47.363,-30.273,-25.391,-31.250,51.270
1688815241.625,34.180,-25.391,-27.832,-26.367,33.691
1688815241.629,-3.418,-22.461,-24.414,-27.344,-91.309
1688815241.633,-19.043,-25.391,-24.414,-47.363,21.973
1688815241.637,6.836,-26.855,-21.973,-51.758,166.992
1688815241.640,26.855,-23.926,-18.555,-20.508,50.293
1688815241.644,4.883,-27.344,-29.785,-32.715,-143.555
1688815241.648,-34.668,-28.809,-30.762,-38.574,-166.504
1688815241.652,-57.129,-28.320,-29.297,-52.734,-122.070
1688815241.656,-28.809,-32.227,-34.180,-70.312,-138.184
1688815241.657,6.836,-31.250,-35.645,-58.594,-143.555
1688815241.661,3.906,-25.879,-30.762,-39.551,-91.309
1688815241.665,-24.902,-28.320,-25.879,-17.578,105.957
1688815241.669,-35.645,-38.086,-27.344,-29.297,39.551
1688815241.673,-1.465,-39.551,-22.949,-54.688,-185.547
1688815241.677,21.484,-36.133,-22.461,-33.691,-137.695
1688815241.681,18.555,-33.203,-24.902,-16.113,10.254
1688815241.684,-1.953,-29.785,-23.438,-14.648,-5.859
1688815241.688,-12.207,-33.203,-26.367,-27.344,-143.555
1688815241.692,20.508,-31.250,-27.832,-45.898,-76.660
1688815241.696,43.945,-29.297,-25.879,-23.438,201.172
1688815241.700,40.039,-31.250,-27.344,-24.902,0.000
1688815241.689,9.766,-30.273,-26.367,-26.367,-138.184
1688815241.693,-19.531,-31.250,-27.344,-16.602,6.348
1688815241.697,8.301,-32.227,-29.297,-39.062,-131.348
1688815241.701,43.945,-28.809,-22.949,-48.828,-244.141
1688815241.705,44.922,-24.414,-20.508,-34.668,-79.590
1688815241.709,23.438,-27.832,-25.879,-26.855,47.852
1688815241.713,-2.930,-33.691,-25.391,-32.715,8.789
1688815241.716,10.742,-34.180,-20.020,-50.781,-68.359
1688815241.720,40.527,-32.227,-20.020,-46.387,-89.355
1688815241.724,43.945,-29.785,-20.508,-29.785,86.426
1688815241.728,24.902,-33.203,-20.996,-29.785,135.254
1688815241.732,0.488,-37.598,-26.367,-35.645,83.496
1688815241.762,4.883,-37.598,-26.367,-61.035,-26.367
1688815241.766,29.785,-35.156,-20.996,-61.523,-35.645
1688815241.770,32.715,-35.156,-22.949,-45.410,-60.059
1688815241.774,14.648,-38.086,-26.367,-46.387,-203.613
1688815241.778,-6.348,-33.691,-24.414,-32.715,-56.641
1688815241.782,0.000,-32.715,-20.020,-38.086,205.078
1688815241.786,36.621,-35.645,-18.066,-56.152,45.898
1688815241.789,55.664,-33.203,-19.531,-39.062,-46.387
1688815241.793,48.828,-29.785,-18.066,-27.832,20.508
1688815241.797,22.461,-31.250,-18.066,-25.391,62.012
1688815241.801,28.809,-30.273,-19.531,-45.898,-75.195
1688815241.805,68.848,-29.297,-19.043,-66.895,-288.574
1688815241.792,79.102,-29.297,-18.555,-57.617,-87.402
1688815241.796,70.801,-28.809,-21.484,-46.875,83.008
1688815241.800,35.156,-28.809,-21.973,-37.598,-79.102
1688815241.804,14.648,-27.344,-20.020,-44.434,-144.043
1688815241.808,44.434,-30.273,-20.020,-52.246,-165.527
1688815241.812,56.641,-30.762,-18.555,-36.621,-57.617
1688815241.816,43.945,-28.320,-15.625,-31.250,-53.711
1688815241.819,10.742,-28.809,-16.113,-19.531,-59.082
1688815241.823,-8.789,-27.344,-20.020,-31.250,28.809
1688815241.827,17.090,-25.391,-25.391,-46.875,-75.684
1688815241.831,27.344,-23.926,-23.926,-17.578,-105.469
1688815241.835,16.113,-22.949,-20.020,-5.371,-73.242
1688815241.837,-9.766,-23.438,-20.996,4.883,150.391
1688815241.841,-21.973,-26.367,-20.020,3.418,127.930
1688815241.845,9.766,-25.879,-20.508,-43.457,-192.871
1688815241.849,29.297,-25.879,-20.996,-48.340,-166.504
1688815241.853,23.926,-30.273,-15.625,-23.438,120.117
1688815241.857,-5.371,-32.227,-16.113,-20.996,137.695
1688815241.861,-33.691,-33.691,-23.926,-38.086,-46.387
1688815241.864,-7.812,-34.180,-25.879,-51.270,-122.559
1688815241.868,16.113,-29.785,-22.461,-34.180,16.113
1688815241.872,5.371,-29.297,-22.949,-36.133,-123.535
1688815241.876,-19.531,-32.227,-24.902,-35.645,-245.605
1688815241.880,-44.922,-30.762,-24.414,-25.391,-20.508
1688815241.882,-17.578,-28.320,-19.043,-48.828,5.859
1688815241.886,12.695,-30.273,-20.508,-49.316,-162.598
1688815241.890,-2.441,-34.180,-29.785,-38.574,-198.730
1688815241.894,-25.391,-31.250,-27.344,-29.297,15.625
1688815241.898,-49.316,-27.344,-22.461,-10.254,19.531
1688815241.902,-36.133,-24.414,-22.461,-39.062,-159.668
1688815241.906,-2.930,-22.949,-25.879,-62.500,-81.055
1688815241.909,-4.395,-24.902,-30.273,-42.969,166.016
1688815241.913,-16.113,-26.367,-32.227,-39.062,104.492
1688815241.917,-39.551,-27.344,-30.762,-35.645,-108.887
1688815241.921,-36.133,-27.832,-27.344,-58.105,-73.730
1688815241.925,-4.395,-23.926,-24.902,-72.754,12.207
1688815241.928,-1.465,-24.902,-21.973,-52.734,-59.082
1688815241.932,-23.926,-30.762,-24.902,-38.574,-208.496
1688815241.936,-53.223,-32.227,-28.809,-35.645,-76.660
1688815241.940,-48.828,-34.180,-32.227,-62.500,245.117
1688815241.944,-12.695,-33.203,-31.738,-76.660,-35.156
1688815241.948,-7.324,-31.250,-33.203,-65.918,-196.289
1688815241.952,-26.367,-32.227,-34.668,-53.711,25.879
1688815241.955,-53.711,-31.738,-34.180,-33.691,213.379
1688815241.959,-42.480,-32.227,-36.621,-53.223,-61.523
1688815241.963,4.883,-29.297,-34.668,-61.035,-187.500
1688815241.967,30.273,-27.832,-32.227,-42.969,-154.297
1688815241.971,24.902,-28.320,-32.715,-34.180,-174.316
1688815241.972,-12.695,-27.832,-37.109,-17.578,-182.129
1688815241.976,-12.207,-27.832,-38.086,-41.504,-221.680
1688815241.980,26.367,-24.902,-40.039,-62.012,-124.512
1688815241.984,37.598,-23.438,-42.969,-41.504,-131.348
1688815241.988,33.203,-23.926,-43.457,-40.039,-125.488
1688815241.992,0.000,-26.855,-47.363,-33.691,17.090
1688815241.996,-14.160,-27.344,-51.270,-40.039,297.363
1688815241.999,20.996,-26.367,-50.293,-72.754,225.098
1688815242.003,35.156,-25.879,-45.898,-69.336,-146.484
1688815242.007,27.832,-28.809,-45.410,-56.152,-169.922
1688815242.011,0.000,-32.715,-44.434,-50.293,2.441
1688815242.015,-21.973,-34.668,-41.504,-48.828,66.406
1688815242.017,-11.719,-36.621,-39.551,-64.453,-95.703
1688815242.021,2.441,-31.738,-35.156,-47.852,-149.414
1688815242.025,-8.301,-32.715,-31.738,-21.973,38.086
1688815242.029,-44.922,-36.621,-30.762,-23.926,16.602
1688815242.033,-78.613,-38.086,-30.273,-38.086,-132.812
1688815242.037,-62.012,-42.480,-32.227,-54.688,-51.270
1688815242.041,-40.039,-43.945,-34.668,-58.594,61.035
1688815242.044,-46.387,-41.992,-34.668,-50.781,-68.359
1688815242.048,-68.848,-42.969,-36.621,-41.504,-159.668
1688815242.052,-84.473,-37.598,-40.039,-38.574,-18.066
1688815242.056,-66.406,-31.738,-40.527,-50.781,145.996
1688815242.060,-43.945,-32.715,-42.480,-67.383,-89.844
1688815242.078,-50.293,-39.062,-45.898,-78.613,-121.582
1688815242.082,-71.289,-38.574,-47.363,-71.777,-28.809
1688815242.086,-98.145,-36.133,-45.410,-61.523,-65.918
1688815242.090,-81.543,-39.062,-43.457,-77.637,-129.395
1688815242.094,-34.180,-41.016,-42.969,-75.684,-116.699
1688815242.098,-21.484,-39.062,-41.016,-61.035,47.852
1688815242.102,-37.109,-35.645,-42.480,-58.105,23.926
1688815242.105,-72.266,-38.086,-49.316,-51.758,-40.527
1688815242.109,-65.918,-39.551,-48.828,-68.848,-73.730
1688815242.113,-40.039,-39.062,-45.410,-67.871,178.223
1688815242.117,-37.598,-36.621,-43.945,-47.852,214.844
1688815242.121,-56.641,-39.062,-37.598,-42.969,-59.570
1688815242.123,-95.215,-38.086,-36.133,-18.066,-12.695
1688815242.127,-94.727,-32.715,-36.133,-35.156,111.816
1688815242.131,-72.266,-32.715,-38.574,-60.059,-99.121
1688815242.135,-78.125,-35.156,-41.504,-44.922,-198.730
1688815242.139,-95.703,-34.180,-41.992,-37.109,-91.309
1688815242.143,-135.742,-33.203,-41.016,-27.832,-6.836
1688815242.147,-142.090,-34.668,-46.875,-38.574,-69.336
1688815242.150,-100.586,-37.598,-47.363,-45.898,-187.500
1688815242.154,-86.426,-37.598,-41.504,-35.156,-94.238
1688815242.158,-101.562,-34.668,-38.086,-25.879,123.535
1688815242.162,-121.582,-33.691,-34.180,-17.578,-19.043
1688815242.166,-127.441,-35.156,-33.691,-34.180,-104.492
1688815242.167,-110.840,-36.621,-31.738,-65.430,-65.918
1688815242.171,-99.121,-35.156,-31.738,-59.570,-74.219
1688815242.175,-114.258,-29.785,-35.645,-55.664,-159.180
1688815242.179,-143.066,-30.762,-35.645,-42.969,-118.164
1688815242.183,-147.461,-29.297,-34.668,-43.945,-56.641
1688815242.187,-110.352,-29.785,-37.598,-68.359,-55.664
1688815242.191,-83.496,-30.762,-35.156,-54.688,13.672
1688815242.194,-92.285,-25.391,-33.691,-39.062,-25.391
1688815242.198,-119.141,-29.297,-34.668,-32.227,199.707
1688815242.202,-134.277,-37.109,-35.645,-41.992,130.859
1688815242.206,-109.375,-34.668,-35.645,-65.430,-158.691
1688815242.210,-84.961,-29.785,-34.180,-48.340,5.371
1688815242.213,-93.750,-27.832,-36.133,-31.250,145.996
1688815242.217,-121.094,-33.203,-37.109,-30.762,24.414
1688815242.221,-144.043,-34.668,-38.086,-33.203,23.438
1688815242.225,-124.023,-34.668,-39.551,-57.617,-73.242
1688815242.229,-91.309,-29.297,-33.203,-49.805,-50.293
1688815242.233,-86.914,-29.297,-30.762,-34.668,-42.480
1688815242.237,-109.863,-32.227,-30.762,-32.227,-135.254
1688815242.240,-128.418,-27.344,-30.762,-24.414,10.254
1688815242.244,-104.004,-24.902,-28.809,-39.062,150.391
1688815242.248,-71.777,-28.809,-28.320,-41.504,-117.188
1688815242.252,-67.871,-31.738,-35.645,-27.344,-228.516
1688815242.256,-86.426,-30.762,-39.551,-18.066,-68.359
1688815242.257,-113.770,-31.738,-34.180,-10.254,-54.688
1688815242.261,-97.656,-29.785,-35.156,-39.062,-193.359
1688815242.265,-75.684,-29.297,-37.109,-55.664,-234.375
1688815242.269,-83.984,-31.250,-33.203,-40.527,-103.516
1688815242.273,-105.469,-28.809,-32.227,-32.227,13.672
1688815242.277,-138.672,-25.879,-34.180,-23.926,26.855
1688815242.281,-140.625,-27.832,-31.250,-41.992,-53.711
1688815242.284,-111.816,-29.297,-27.832,-43.457,85.449
1688815242.288,-113.770,-31.738,-30.273,-26.367,202.148
1688815242.292,-135.254,-37.598,-30.762,-33.203,-117.676
1688815242.296,-164.551,-41.504,-29.297,-31.738,-144.043
1688815242.300,-163.574,-38.574,-27.832,-47.363,26.367
1688815242.302,-131.348,-38.086,-30.273,-57.617,-110.840
1688815242.306,-120.605,-40.039,-34.668,-39.062,-199.219
1688815242.310,-130.859,-41.504,-35.156,-28.809,-88.379
1688815242.314,-164.062,-39.062,-31.738,-18.066,74.707
1688815242.318,-180.176,-34.668,-29.785,-37.109,-12.207
1688815242.322,-167.969,-34.180,-31.250,-51.758,-98.145
1688815242.326,-176.758,-39.062,-33.203,-35.156,41.016
1688815242.329,-201.172,-40.039,-35.156,-22.949,247.559
1688815242.333,-237.793,-41.992,-37.109,-15.625,51.758
1688815242.337,-244.629,-37.598,-32.715,-26.367,-115.723
1688815242.341,-214.355,-33.203,-31.738,-45.898,-153.320
1688815242.345,-199.707,-34.668,-28.809,-32.715,-176.270
1688815242.348,-213.867,-32.715,-27.344,-22.461,-168.945
1688815242.352,-248.535,-31.738,-29.297,-11.230,-57.129
1688815242.356,-263.184,-31.250,-28.320,-16.113,70.801
1688815242.360,-236.816,-35.645,-30.762,-56.152,-10.742
1688815242.364,-224.121,-42.480,-34.668,-45.898,-140.625
1688815242.368,-240.234,-37.598,-35.645,-24.414,-37.598
1688815242.372,-268.066,-26.367,-34.668,-7.812,300.781
1688815242.375,-274.902,-29.785,-38.574,-11.230,218.262
1688815242.379,-238.281,-31.250,-35.645,-43.457,-181.641
1688815242.383,-215.820,-30.273,-30.762,-36.133,-240.723
1688815242.387,-221.680,-31.738,-28.809,-26.855,-60.547
1688815242.391,-242.676,-34.180,-31.250,-20.508,26.367
1688815242.392,-256.836,-36.621,-34.668,-28.809,-94.238
1688815242.396,-223.145,-31.738,-33.203,-49.316,-144.531
1688815242.400,-185.059,-25.879,-30.273,-26.855,157.715
1688815242.404,-187.988,-32.227,-32.715,-31.738,41.016
1688815242.408,-200.684,-37.109,-38.574,-39.551,-172.363
1688815242.412,-205.078,-34.668,-38.574,-30.273,50.781
1688815242.416,-180.176,-35.645,-35.156,-55.176,256.836
1688815242.419,-145.996,-30.762,-32.715,-70.801,-18.066
1688815242.423,-135.742,-29.785,-34.180,-66.406,-197.754
1688815242.427,-138.672,-30.273,-37.598,-58.105,-69.336
1688815242.431,-148.926,-33.203,-41.016,-40.039,-40.039
1688815242.435,-125.000,-36.621,-43.457,-56.641,-95.215
1688815242.453,-83.984,-34.668,-40.039,-64.941,-79.102
1688815242.457,-79.590,-36.133,-35.645,-50.781,-6.348
1688815242.461,-100.586,-35.156,-34.180,-38.086,-33.691
1688815242.465,-135.742,-34.668,-35.645,-25.879,-107.422
1688815242.469,-129.395,-36.621,-36.621,-51.270,-99.609
1688815242.473,-94.727,-29.785,-36.621,-59.082,54.688
1688815242.477,-84.961,-20.020,-31.738,-33.203,93.750
1688815242.480,-101.074,-24.414,-31.738,-34.180,-14.160
1688815242.484,-133.301,-30.762,-33.203,-21.973,-18.555
1688815242.488,-133.301,-31.250,-29.785,-30.273,220.215
1688815242.492,-105.469,-37.109,-26.367,-51.758,102.051
1688815242.496,-99.609,-40.527,-27.344,-32.715,-108.887
1688815242.498,-114.746,-38.574,-30.273,-24.902,-68.848
1688815242.502,-145.508,-38.086,-33.691,-23.926,119.629
1688815242.506,-151.367,-37.598,-38.574,-53.711,-40.039
1688815242.510,-112.793,-38.574,-41.992,-77.148,-220.703
1688815242.514,-96.191,-36.133,-40.039,-56.641,-76.172
1688815242.518,-112.305,-32.227,-34.668,-43.457,39.551
1688815242.522,-145.996,-33.203,-35.645,-34.668,25.391
1688815242.525,-159.180,-36.133,-36.621,-43.945,-35.156
1688815242.529,-123.047,-35.156,-31.250,-61.523,-14.160
1688815242.533,-105.957,-32.715,-32.715,-44.434,250.488
1688815242.537,-115.234,-36.133,-32.227,-48.828,64.453
1688815242.541,-143.066,-37.109,-25.391,-36.621,-113.770
1688815242.543,-151.367,-32.715,-22.949,-24.902,-19.043
1688815242.547,-109.863,-32.227,-25.879,-63.965,-100.098
1688815242.551,-89.355,-28.809,-23.926,-53.223,-200.195
1688815242.555,-111.328,-29.785,-21.973,-48.828,-80.078
1688815242.559,-135.254,-33.203,-26.367,-43.945,164.551
1688815242.563,-148.438,-33.203,-31.738,-57.129,104.492
1688815242.567,-118.164,-32.227,-31.738,-98.145,-99.121
1688815242.570,-87.891,-34.180,-33.203,-85.938,-81.543
1688815242.574,-91.797,-36.621,-32.715,-59.082,112.305
1688815242.578,-105.957,-31.738,-28.809,-44.922,67.383
1688815242.582,-120.117,-26.367,-27.832,-49.316,-70.801
1688815242.586,-101.562,-34.180,-25.879,-64.453,-11.719
1688815242.587,-69.336,-34.668,-24.414,-47.363,216.797
1688815242.591,-71.289,-32.227,-25.391,-36.133,93.750
1688815242.595,-101.074,-35.645,-25.879,-26.855,-137.695
1688815242.599,-121.094,-38.086,-29.297,-25.879,-26.855
1688815242.603,-96.680,-40.039,-33.203,-57.129,-41.992
1688815242.607,-62.012,-37.598,-28.320,-51.758,-74.707
1688815242.611,-59.570,-36.621,-25.879,-44.922,-99.609
1688815242.614,-81.055,-43.945,-29.785,-44.434,58.594
1688815242.618,-98.145,-41.992,-36.133,-23.926,399.414
1688815242.622,-77.148,-32.715,-38.086,-53.223,102.539
1688815242.626,-43.945,-27.832,-36.133,-75.195,-243.164
1688815242.630,-45.410,-28.809,-37.598,-67.871,-187.012
1688815242.632,-58.594,-25.879,-34.668,-63.477,-179.199
1688815242.636,-73.242,-22.949,-31.250,-45.410,-92.773
1688815242.640,-65.430,-26.367,-30.273,-62.988,-112.305
1688815242.644,-32.227,-31.738,-29.297,-76.172,-140.137
1688815242.648,-33.691,-35.645,-31.738,-50.781,-109.863
1688815242.652,-56.641,-40.527,-37.598,-47.363,-60.059
1688815242.656,-85.449,-38.574,-39.551,-54.688,76.172
1688815242.659,-81.055,-34.668,-40.527,-69.824,152.832
1688815242.663,-40.527,-32.715,-39.062,-72.754,17.090
1688815242.667,-30.762,-33.691,-37.598,-62.012,-149.902
1688815242.671,-43.457,-34.180,-37.109,-53.223,-179.199
1688815242.675,-59.082,-32.715,-32.227,-39.062,211.426
1688815242.678,-50.293,-32.715,-27.832,-48.340,375.977
1688815242.682,-27.344,-36.133,-29.297,-75.195,-173.828
1688815242.686,-26.367,-39.062,-35.645,-67.383,-283.691
1688815242.690,-33.691,-39.062,-37.109,-48.340,54.199
1688815242.694,-62.988,-37.598,-37.109,-30.762,-30.273
1688815242.698,-73.242,-31.738,-39.551,-40.039,-204.102
1688815242.702,-45.410,-30.762,-38.574,-63.477,-40.527
1688815242.705,-32.227,-34.180,-29.297,-40.039,149.902
1688815242.709,-34.668,-36.621,-27.344,-5.371,-152.344
1688815242.713,-43.945,-24.902,-28.320,16.602,-253.418
1688815242.717,-69.824,-15.625,-27.832,-6.348,-138.672
1688815242.721,-57.129,-17.090,-35.156,-40.039,-145.996
1688815242.753,-27.344,-9.766,-41.992,-20.996,-159.668
1688815242.757,-38.574,-1.953,-46.387,-10.254,-199.707
1688815242.761,-67.383,-3.418,-57.129,-6.836,-37.598
1688815242.765,-74.219,-0.977,-63.965,-22.461,36.621
1688815242.769,-33.203,9.277,-68.848,-46.875,-187.012
1688815242.773,-12.207,9.277,-79.102,-41.992,-119.629
1688815242.777,-21.484,5.859,-85.938,-32.227,271.973
1688815242.780,-39.062,10.254,-91.797,-28.809,293.457
1688815242.784,-47.852,15.625,-98.145,-37.109,14.648
1688815242.788,-15.625,16.602,-101.562,-58.105,-109.863
1688815242.792,-4.395,20.508,-103.027,-52.246,2.930
1688815242.796,-15.625,31.738,-106.445,-45.410,-15.625
1688815242.769,-33.203,38.086,-111.328,-38.574,-175.293
1688815242.773,-59.570,39.551,-111.816,-31.250,-20.996
1688815242.777,-49.805,44.434,-114.258,-62.012,201.172
1688815242.781,-10.742,48.828,-121.582,-68.848,29.297
1688815242.785,-4.395,44.922,-127.930,-47.363,-166.992
1688815242.789,-30.762,43.457,-125.000,-33.203,7.324
1688815242.793,-54.199,49.316,-124.512,-30.273,183.105
1688815242.796,-44.434,55.664,-126.465,-57.617,-72.266
1688815242.800,-9.766,53.711,-125.000,-57.617,-248.535
1688815242.804,-1.953,53.223,-126.465,-28.809,-148.926
1688815242.808,-21.973,50.781,-127.930,-22.949,-125.000
1688815242.812,-38.574,49.805,-122.070,-16.113,-112.793
1688815242.858,-32.715,45.898,-120.117,-49.316,-75.684
1688815242.862,5.371,41.992,-121.094,-61.523,104.004
1688815242.866,17.090,45.898,-117.188,-40.039,275.879
1688815242.870,2.441,41.992,-108.398,-42.480,26.367
1688815242.874,-19.531,33.691,-106.445,-44.434,-107.422
1688815242.878,-21.484,30.273,-106.934,-55.176,212.402
1688815242.882,6.836,24.902,-101.074,-58.105,304.688
1688815242.885,13.672,16.113,-97.656,-42.969,-129.395
1688815242.889,-5.371,14.160,-96.191,-32.715,-179.199
1688815242.893,-36.133,13.672,-89.844,-13.184,-83.496
1688815242.897,-36.133,5.859,-85.449,-20.996,-201.660
1688815242.901,-4.395,5.859,-81.055,-41.504,-210.449
1688815242.862,3.906,4.883,-79.102,-30.273,-86.426
1688815242.866,-13.672,-0.488,-79.590,-21.973,17.578
1688815242.870,-48.340,-2.441,-75.684,-20.508,-24.414
1688815242.874,-57.129,-8.301,-71.777,-31.250,-113.770
1688815242.878,-29.785,-8.789,-66.406,-48.340,-120.117
1688815242.882,-23.438,-5.859,-67.383,-23.438,-2.441
1688815242.886,-33.691,-5.859,-68.359,-3.418,12.207
1688815242.889,-60.059,-5.371,-66.406,-5.859,-29.297
1688815242.893,-75.684,-7.812,-63.965,-16.602,3.906
1688815242.897,-44.434,-9.766,-62.500,-30.762,19.531
1688815242.901,-23.438,-15.137,-61.523,-28.809,-148.926
1688815242.905,-30.273,-18.555,-59.082,-26.855,-198.242
1688815242.932,-53.711,-20.020,-57.617,-13.672,18.555
1688815242.936,-73.730,-22.949,-59.570,-17.578,65.430
1688815242.940,-51.758,-19.043,-55.176,-53.223,-132.812
1688815242.944,-22.949,-20.020,-50.293,-52.734,-181.152
1688815242.948,-14.160,-23.438,-46.875,-26.855,69.336
1688815242.952,-34.180,-22.461,-50.293,1.953,561.523
1688815242.956,-61.035,-20.996,-53.223,9.766,345.215
1688815242.959,-44.434,-18.066,-51.758,-22.949,-66.406
1688815242.963,-11.719,-21.973,-53.223,-32.715,199.707
1688815242.967,-10.254,-20.508,-52.246,-19.043,145.020
1688815242.971,-33.203,-18.555,-51.758,-3.906,-138.184
1688815242.975,-73.730,-24.414,-51.758,-8.789,-91.309
1688815242.962,-77.637,-30.762,-49.805,-41.992,-77.148
1688815242.966,-53.223,-30.273,-47.852,-41.504,-193.848
1688815242.970,-50.293,-29.785,-51.758,-24.902,-247.559
1688815242.974,-76.660,-30.762,-51.758,-18.555,-135.254
1688815242.978,-103.516,-35.645,-48.340,-4.395,143.066
1688815242.982,-82.031,-30.762,-50.781,-33.203,25.391
1688815242.986,-48.340,-24.902,-48.828,-47.852,-150.879
1688815242.989,-33.691,-22.461,-40.527,-15.625,-4.395
1688815242.993,-42.969,-21.973,-35.645,0.977,228.027
1688815242.997,-68.359,-27.832,-40.527,0.977,-0.488
1688815243.001,-59.570,-31.250,-41.016,-20.020,-157.715
1688815243.005,-23.926,-32.227,-38.574,-36.621,-24.414
1688815243.007,16.602,-28.320,-37.598,-11.230,181.152
1688815243.011,40.039,-30.762,-42.480,-0.977,38.574
1688815243.015,16.113,-33.691,-41.504,5.371,-185.547
1688815243.019,0.000,-29.297,-40.039,-12.695,-169.434
1688815243.023,18.555,-27.344,-48.340,-49.316,-214.355
1688815243.027,22.461,-24.414,-48.828,-51.270,-109.375
1688815243.031,9.766,-27.344,-50.781,-47.852,-76.660
1688815243.034,-27.832,-28.809,-52.246,-45.898,60.547
1688815243.038,-44.434,-26.367,-53.711,-68.359,28.320
1688815243.042,-8.301,-27.832,-55.664,-99.609,-277.344
1688815243.046,10.254,-29.297,-49.316,-96.191,-255.371
1688815243.050,1.465,-27.832,-43.945,-84.473,-62.012
1688815243.098,-30.762,-30.273,-44.922,-73.730,-11.719
1688815243.102,-59.082,-37.109,-48.828,-88.379,-135.742
1688815243.106,-34.668,-37.109,-45.410,-122.559,-210.449
1688815243.110,-8.789,-38.086,-43.457,-122.070,52.246
1688815243.114,-9.766,-38.086,-46.387,-108.887,9.277
1688815243.118,-33.203,-38.574,-44.434,-90.820,-92.773
1688815243.122,-54.199,-40.527,-46.875,-87.402,69.336
1688815243.125,-22.461,-35.645,-48.340,-105.469,185.059
1688815243.129,11.719,-31.250,-43.457,-97.168,-36.133
1688815243.133,2.441,-32.715,-43.457,-83.496,-197.754
1688815243.137,-26.855,-32.715,-47.852,-68.848,-114.258
1688815243.141,-38.574,-28.320,-43.457,-74.219,-107.422
1688815243.117,-13.184,-30.273,-41.504,-98.633,-227.051
1688815243.121,5.371,-34.668,-42.969,-83.496,-260.742
1688815243.125,4.883,-35.156,-44.922,-61.035,-124.512
1688815243.129,-10.254,-37.598,-47.363,-45.898,-16.113
1688815243.133,-36.133,-38.086,-48.340,-37.109,-56.152
1688815243.137,-3.906,-41.992,-48.828,-67.871,-12.695
1688815243.141,42.969,-41.992,-43.457,-71.289,170.898
1688815243.144,56.641,-41.504,-39.551,-73.730,77.637
1688815243.148,56.641,-43.945,-43.945,-87.891,-146.973
1688815243.152,48.340,-41.992,-43.457,-90.332,-86.426
1688815243.156,71.289,-40.527,-37.598,-120.117,2.930
1688815243.160,106.934,-37.109,-37.598,-122.070,-61.523
1688815243.203,109.863,-36.621,-41.992,-112.305,-115.234
1688815243.207,82.520,-40.527,-43.457,-105.957,-87.402
1688815243.211,38.086,-38.574,-43.945,-75.684,65.918
1688815243.215,39.551,-37.109,-39.551,-83.496,10.742
1688815243.219,63.965,-40.527,-34.180,-83.496,-240.234
1688815243.223,54.688,-39.062,-33.691,-58.594,-116.211
1688815243.227,25.391,-36.133,-33.203,-42.480,280.762
1688815243.230,-13.672,-41.016,-39.551,-38.086,98.145
1688815243.234,-13.672,-39.551,-40.039,-56.152,-165.039
1688815243.238,15.137,-34.668,-34.668,-57.617,-90.332
1688815243.242,13.672,-34.668,-34.180,-26.855,199.707
1688815243.246,-5.371,-36.133,-35.645,-21.484,94.238
1688815243.210,-18.555,-31.738,-35.156,-17.578,-139.160
1688815243.214,-10.742,-22.461,-35.645,-20.996,27.344
1688815243.218,10.742,-19.531,-35.645,-32.227,160.645
1688815243.222,10.742,-17.090,-30.762,-30.273,-140.625
1688815243.226,-5.371,-18.555,-30.273,-18.555,-235.352
1688815243.230,-41.016,-20.508,-34.668,4.883,84.473
1688815243.234,-45.410,-24.414,-36.621,-3.418,54.199
1688815243.237,-6.348,-22.461,-35.156,-22.949,-156.250
1688815243.241,8.789,-20.020,-32.227,-8.789,-98.145
1688815243.245,2.441,-22.461,-28.320,3.906,-53.711
1688815243.249,-13.184,-20.996,-28.809,20.508,-36.133
1688815243.253,-23.926,-23.438,-32.227,15.137,-82.520
1688815243.247,-6.836,-29.297,-37.598,-17.090,-148.438
1688815243.251,9.277,-33.203,-38.086,-12.207,-32.227
1688815243.255,5.859,-35.645,-41.504,-2.441,-168.457
1688815243.259,-19.043,-35.645,-40.039,9.277,-185.547
1688815243.263,-37.109,-34.668,-34.668,13.184,-42.969
1688815243.267,-4.395,-38.086,-40.039,-9.277,-27.832
1688815243.271,20.508,-43.945,-43.457,-2.930,-83.496
1688815243.274,3.418,-41.992,-39.551,0.977,-123.047
1688815243.278,-15.137,-35.156,-36.133,4.395,-50.781
1688815243.282,-24.414,-36.621,-37.598,15.625,313.965
1688815243.286,2.441,-36.621,-34.668,-2.441,461.914
1688815243.290,20.508,-35.645,-36.133,-5.371,289.551
1688815243.292,18.066,-37.109,-37.598,4.883,-4.395
1688815243.296,2.441,-36.621,-32.715,12.695,-167.480
1688815243.300,-17.578,-38.086,-33.691,6.348,-131.836
1688815243.304,16.602,-37.598,-34.180,-22.461,-131.836
1688815243.308,52.734,-36.133,-36.133,-22.949,-39.551
1688815243.312,49.316,-32.715,-39.062,-17.578,46.875
1688815243.316,36.133,-35.156,-41.992,-13.184,47.363
1688815243.319,22.949,-37.598,-40.039,1.953,3.906
1688815243.323,41.992,-34.180,-39.551,-12.695,101.074
1688815243.327,66.895,-32.715,-39.551,-18.555,-6.348
1688815243.331,70.801,-31.250,-34.668,-8.789,-257.812
1688815243.335,59.082,-31.250,-36.621,-11.230,-47.363
1688815243.337,17.090,-34.180,-41.016,-3.906,245.117
1688815243.341,27.832,-30.762,-37.598,-14.648,-2.930
1688815243.345,66.895,-32.227,-39.062,-24.414,-220.703
1688815243.349,60.059,-40.039,-44.922,-10.254,-170.410
1688815243.353,46.875,-38.086,-43.457,-1.953,-89.844
1688815243.357,25.879,-28.320,-37.109,15.625,124.512
1688815243.361,22.461,-31.250,-40.527,-8.789,19.043
1688815243.364,54.688,-37.109,-45.898,-22.949,-110.840
1688815243.368,65.918,-36.133,-46.387,-7.812,175.781
1688815243.372,46.875,-36.621,-46.387,-17.090,-51.758
1688815243.376,14.160,-36.621,-42.969,-3.906,-244.629
1688815243.380,7.324,-37.598,-39.551,-17.090,-96.191
1688815243.384,43.945,-37.109,-37.109,-36.133,-141.602
1688815243.388,56.152,-36.133,-35.645,-8.789,-190.430
1688815243.392,37.598,-39.062,-41.992,-7.324,-154.785
1688815243.396,9.277,-41.992,-44.922,1.465,33.691
1688815243.400,-9.766,-37.598,-40.527,-12.695,31.738
1688815243.404,12.695,-31.738,-41.504,-37.109,-98.145
1688815243.408,20.508,-33.691,-46.387,-18.555,-51.270
1688815243.411,3.418,-32.227,-45.410,-12.695,148.926
1688815243.415,-14.160,-29.297,-40.527,-6.348,64.453
1688815243.419,-13.184,-33.691,-39.551,-24.414,-149.902
1688815243.423,26.367,-33.691,-39.062,-54.199,-172.363
1688815243.427,53.223,-34.180,-41.504,-29.785,-50.293
1688815243.427,43.457,-34.668,-42.969,-8.301,-93.750
1688815243.431,23.926,-31.738,-41.504,3.418,-154.785
1688815243.435,18.066,-33.691,-42.969,-4.395,-42.480
1688815243.439,51.758,-34.180,-42.480,-43.457,-39.062
1688815243.443,89.355,-29.297,-40.039,-34.180,-124.512
1688815243.447,143.555,-29.785,-41.992,-22.461,-130.371
1688815243.451,202.637,-28.809,-41.504,-19.043,28.320
1688815243.454,244.141,-21.973,-40.039,-3.418,398.438
1688815243.458,309.570,-22.949,-41.504,-28.320,164.551
1688815243.462,366.211,-30.273,-43.457,-27.344,-190.918
1688815243.466,395.020,-32.227,-43.945,0.488,-106.445
1688815243.470,388.672,-38.574,-42.480,3.418,-66.895
1688815243.472,368.652,-39.062,-38.086,-1.465,-81.543
1688815243.476,384.766,-32.715,-35.645,-34.668,-153.809
1688815243.480,410.156,-25.879,-37.598,-24.902,-92.285
1688815243.484,393.555,-24.902,-43.457,-9.277,-84.961
1688815243.488,351.074,-31.250,-47.363,-18.555,-178.711
1688815243.492,307.617,-34.668,-49.316,-5.371,-62.500
1688815243.496,307.617,-37.109,-51.758,-31.250,250.488
1688815243.499,328.125,-36.621,-46.875,-38.086,297.852
1688815243.503,312.012,-35.156,-41.504,-25.391,-80.566
1688815243.507,267.090,-35.156,-44.922,-32.715,-125.000
1688815243.511,226.074,-31.250,-41.016,-18.066,112.305
1688815243.515,220.703,-29.785,-35.156,-31.250,17.578
1688815243.517,241.211,-30.273,-37.109,-44.434,-162.109
1688815243.521,235.352,-32.227,-35.645,-22.949,-128.906
1688815243.525,199.707,-31.250,-35.156,-10.254,52.246
1688815243.529,166.016,-26.855,-35.645,-2.930,7.324
1688815243.533,153.320,-30.273,-34.180,-20.020,-173.340
1688815243.537,159.180,-35.645,-30.273,-36.621,-114.746
1688815243.541,156.738,-36.133,-30.273,-16.602,98.145
1688815243.544,134.766,-34.180,-33.203,-11.719,-57.129
1688815243.548,87.402,-36.133,-34.180,-5.371,-173.828
1688815243.552,62.012,-40.039,-37.109,-18.555,-10.742
1688815243.556,82.520,-38.086,-39.062,-47.363,47.363
1688815243.560,88.379,-37.109,-42.480,-39.062,-115.723
1688815243.577,63.965,-41.016,-50.781,-46.387,-166.992
1688815243.581,36.621,-36.133,-55.176,-39.551,-16.602
1688815243.585,52.734,-28.809,-46.875,-17.578,-54.688
1688815243.589,84.961,-34.180,-33.691,-32.715,-169.434
1688815243.593,73.730,-44.922,-29.297,-39.551,-131.836
1688815243.597,47.852,-52.734,-31.250,-42.969,51.758
1688815243.601,-4.395,-58.594,-31.250,-38.086,77.148
1688815243.604,-47.852,-67.383,-25.391,-49.805,-63.477
1688815243.608,-31.738,-76.660,-16.113,-81.055,-134.766
1688815243.612,-17.090,-80.078,-8.789,-61.035,40.039
1688815243.616,-29.785,-88.379,-0.977,-53.223,54.199
1688815243.620,-61.523,-96.191,7.324,-60.059,-84.473
1688815243.639,-76.172,-95.215,15.625,-55.664,50.293
1688815243.643,-52.734,-98.633,24.414,-83.496,218.750
1688815243.647,-38.086,-108.398,25.879,-89.355,-10.742
1688815243.651,-43.945,-111.328,26.855,-82.520,-294.922
1688815243.655,-54.688,-107.910,36.133,-69.824,-163.086
1688815243.659,-67.383,-108.398,47.852,-62.012,47.363
1688815243.663,-43.457,-113.770,52.734,-98.633,-42.969
1688815243.666,-6.348,-117.676,54.199,-89.355,-271.484
1688815243.670,-14.648,-119.629,52.734,-73.242,-273.926
1688815243.674,-48.340,-126.465,49.316,-69.336,169.922
1688815243.678,-48.340,-121.582,46.387,-51.758,111.816
1688815243.682,-8.789,-110.840,43.945,-64.453,-184.570
1688815243.668,16.602,-109.375,39.551,-65.430,-62.012
1688815243.672,7.812,-107.422,35.156,-51.270,-37.598
1688815243.676,-16.602,-104.004,31.250,-47.363,-125.977
1688815243.680,-52.734,-99.609,26.855,-41.016,-121.582
1688815243.684,-48.340,-94.727,21.484,-54.688,-48.828
1688815243.688,-23.926,-94.238,19.531,-62.500,-83.984
1688815243.692,-27.832,-93.750,15.625,-50.781,-104.004
1688815243.695,-40.039,-83.496,11.719,-33.691,-58.594
1688815243.699,-70.312,-75.684,9.766,-17.578,65.430
1688815243.703,-60.059,-78.125,6.348,-41.992,-109.863
1688815243.707,-3.418,-76.172,0.000,-58.105,-215.820
1688815243.711,17.578,-73.730,-5.371,-42.480,-90.820
1688815243.743,-5.371,-76.172,-7.324,-30.762,148.926
1688815243.747,-36.133,-70.801,-6.348,-23.438,402.832
1688815243.751,-25.391,-66.895,-5.371,-50.781,113.770
1688815243.755,2.441,-67.383,-7.812,-70.801,-210.449
1688815243.759,1.953,-64.941,-11.719,-56.641,-154.297
1688815243.763,-16.602,-60.547,-11.230,-53.223,-72.754
1688815243.767,-37.598,-57.617,-8.789,-47.363,-67.871
1688815243.770,-24.902,-53.223,-9.277,-46.387,-67.871
1688815243.774,7.324,-53.223,-8.301,-58.594,155.762
1688815243.778,1.953,-56.641,-9.766,-56.641,58.594
1688815243.782,-15.625,-53.223,-13.184,-44.434,-182.617
1688815243.786,-39.062,-45.898,-11.230,-17.090,-44.434
1688815243.758,-59.570,-47.363,-13.672,-19.531,-31.250
1688815243.762,-41.992,-47.852,-14.160,-47.363,-148.926
1688815243.766,-29.785,-50.781,-12.695,-30.762,-123.047
1688815243.770,-51.758,-49.805,-11.719,-19.043,-36.133
1688815243.774,-73.242,-46.875,-15.625,-14.648,-14.648
1688815243.778,-73.242,-48.340,-16.602,-19.531,-33.691
1688815243.782,-46.875,-46.387,-10.742,-36.133,14.648
1688815243.785,-33.203,-47.363,-13.184,-38.574,100.586
1688815243.789,-40.527,-45.410,-15.625,-35.156,-64.453
1688815243.793,-67.871,-45.410,-15.137,-22.461,-106.445
1688815243.797,-105.957,-45.898,-19.043,-23.926,-11.719
1688815243.801,-83.984,-40.527,-19.531,-49.316,0.488
1688815243.818,-33.691,-35.156,-19.531,-35.156,-66.895
1688815243.822,-17.090,-38.086,-22.461,-26.367,-160.645
1688815243.826,-37.109,-43.457,-20.508,-30.273,-97.656
1688815243.830,-70.801,-37.598,-22.461,-20.508,302.246
1688815243.834,-68.848,-33.691,-25.391,-33.203,338.867
1688815243.838,-57.129,-37.598,-17.578,-32.227,-2.441
1688815243.842,-72.754,-38.086,-20.996,-25.391,28.809
1688815243.845,-100.098,-39.062,-25.879,-8.789,92.773
1688815243.849,-129.395,-38.574,-23.926,-2.441,-111.328
1688815243.853,-124.512,-33.691,-27.832,-35.645,-178.223
1688815243.857,-97.656,-36.621,-32.715,-32.227,-57.617
1688815243.861,-92.773,-41.016,-30.273,-17.578,122.559
1688815243.878,-107.422,-35.645,-31.250,-27.832,-66.406
1688815243.882,-127.441,-30.762,-32.715,-18.066,-160.156
1688815243.886,-117.676,-31.738,-34.668,-29.297,10.742
1688815243.890,-95.703,-35.156,-33.203,-36.621,-30.273
1688815243.894,-99.121,-35.156,-26.855,-21.973,-135.254
1688815243.898,-107.422,-34.180,-30.273,-18.066,-54.688
1688815243.902,-133.789,-36.133,-32.227,-11.719,108.398
1688815243.905,-121.582,-38.574,-28.809,-40.039,-23.438
1688815243.909,-68.359,-39.551,-27.832,-59.082,-214.355
1688815243.913,-40.527,-39.551,-26.367,-45.898,-184.570
1688815243.917,-8.789,-36.133,-28.809,-36.621,168.945
1688815243.921,-5.371,-37.598,-33.203,-43.945,303.711
1688815243.896,12.695,-40.039,-36.621,-88.379,21.973
1688815243.900,76.172,-35.645,-31.738,-109.863,-151.855
1688815243.904,114.746,-35.645,-29.785,-92.773,127.441
1688815243.908,112.793,-38.086,-30.273,-89.844,196.777
1688815243.912,86.914,-39.551,-27.344,-102.051,-123.535
1688815243.916,96.191,-35.645,-26.855,-120.605,-60.547
1688815243.920,143.555,-33.691,-24.414,-128.418,87.402
1688815243.923,158.691,-36.621,-26.367,-108.887,-167.969
1688815243.927,148.926,-37.598,-30.762,-86.426,-296.875
1688815243.931,131.348,-38.086,-32.715,-62.988,-71.289
1688815243.935,128.906,-36.621,-29.297,-66.406,32.227
1688815243.939,157.715,-40.039,-30.762,-79.590,-156.250
1688815243.967,170.410,-41.992,-36.621,-55.176,-239.746
1688815243.971,154.785,-37.598,-34.668,-40.527,-85.449
1688815243.975,131.836,-34.180,-33.203,-20.508,46.875
1688815243.979,121.582,-38.574,-30.762,-26.367,-115.723
1688815243.983,146.484,-36.621,-32.227,-53.711,-219.238
1688815243.987,179.688,-34.668,-32.715,-20.996,78.125
1688815243.991,175.293,-34.668,-31.250,5.371,341.309
1688815243.994,144.043,-34.180,-32.227,6.348,1.465
1688815243.998,127.441,-34.668,-30.273,-0.977,-222.656
1688815244.002,156.250,-34.668,-31.250,-21.973,9.766
1688815244.006,162.109,-36.133,-33.203,-9.766,-69.336
1688815244.010,142.578,-39.551,-28.809,5.371,-244.141
1688815244.074,107.422,-41.016,-33.691,0.977,-154.785
1688815244.078,71.777,-32.715,-32.715,-2.930,-69.824
1688815244.082,94.727,-31.250,-25.879,-27.832,-132.324
1688815244.086,118.652,-40.039,-31.738,-33.203,-169.922
1688815244.090,115.723,-40.527,-39.551,-21.484,-93.262
1688815244.094,96.680,-36.621,-41.016,-6.836,212.402
1688815244.098,72.754,-37.598,-41.992,-8.301,97.656
1688815244.101,87.402,-36.621,-42.480,-42.969,-215.332
1688815244.105,108.887,-32.715,-43.457,-33.691,-118.652
1688815244.109,100.098,-32.227,-43.457,-7.812,4.883
1688815244.113,60.059,-33.691,-44.434,-8.301,-184.082
1688815244.117,17.090,-33.691,-42.969,-10.254,-162.109
1688815244.133,14.160,-36.621,-39.062,-37.109,-19.531
1688815244.137,23.926,-38.086,-39.551,-42.969,10.742
1688815244.141,5.859,-32.715,-35.156,-25.879,-106.445
1688815244.145,-20.020,-30.762,-34.180,-18.066,-120.605
1688815244.149,-53.223,-37.109,-38.574,0.488,60.547
1688815244.153,-44.922,-34.668,-38.574,-16.602,-20.508
1688815244.157,-23.438,-37.598,-40.039,-35.156,-117.188
1688815244.160,-27.344,-40.039,-39.551,-24.902,-7.812
1688815244.164,-55.176,-36.133,-40.527,-12.695,52.734
1688815244.168,-89.844,-34.668,-39.551,-3.906,-42.480
1688815244.172,-76.660,-35.645,-37.598,-25.879,-126.953
1688815244.176,-27.344,-34.180,-35.156,-31.738,-27.832
1688815244.194,-18.066,-36.621,-39.551,-25.391,20.020
1688815244.198,-27.344,-37.109,-42.480,-34.180,-94.238
1688815244.202,-27.832,-34.668,-40.527,-21.973,-100.586
1688815244.206,-11.719,-33.691,-39.551,-32.715,-65.918
1688815244.210,54.688,-35.645,-39.551,-46.875,-76.660
1688815244.214,113.770,-33.203,-39.062,-34.668,-87.891
1688815244.218,133.789,-23.926,-35.645,-27.344,-73.730
1688815244.221,118.164,-27.344,-36.133,-12.207,33.203
1688815244.225,123.047,-34.668,-36.621,-18.066,80.078
1688815244.229,177.734,-26.855,-31.250,-33.691,-86.426
1688815244.233,200.195,-24.902,-26.367,-25.391,-156.250
1688815244.237,190.430,-28.809,-28.320,-13.672,-75.195
1688815244.268,168.457,-32.227,-31.738,0.977,-76.172
1688815244.272,159.180,-33.691,-32.227,-2.441,-58.594
1688815244.276,187.988,-36.621,-35.156,-50.781,-153.809
1688815244.280,199.707,-37.109,-41.016,-65.918,-90.332
1688815244.284,194.336,-33.203,-42.480,-44.434,286.621
1688815244.288,157.715,-29.785,-40.527,-47.852,252.930
1688815244.292,128.906,-29.297,-44.922,-64.453,-16.113
1688815244.295,162.598,-28.809,-43.457,-82.520,-7.812
1688815244.299,190.430,-31.250,-41.504,-84.473,-102.539
1688815244.303,185.547,-31.738,-37.598,-71.289,-192.871
1688815244.307,157.715,-32.227,-30.273,-54.199,-103.027
1688815244.311,122.070,-36.133,-28.320,-48.828,209.473
1688815244.314,138.184,-37.109,-28.809,-76.172,83.496
1688815244.318,167.969,-37.109,-31.738,-76.172,-214.844
1688815244.322,157.227,-38.086,-37.109,-64.453,-159.180
1688815244.326,129.395,-40.039,-35.645,-58.594,49.805
1688815244.330,96.191,-40.039,-36.133,-49.805,-26.367
1688815244.334,103.027,-37.598,-34.668,-70.801,-188.477
1688815244.338,131.348,-29.785,-27.832,-74.707,-10.254
1688815244.341,130.371,-28.809,-24.414,-46.387,277.344
1688815244.345,104.004,-29.785,-28.809,-41.504,66.406
1688815244.349,65.430,-31.738,-32.227,-38.086,-127.441
1688815244.353,74.707,-35.645,-32.715,-55.664,4.395
1688815244.357,112.793,-33.203,-33.691,-51.758,41.504
1688815244.374,116.699,-36.133,-28.809,-32.227,-125.488
1688815244.378,96.680,-36.133,-28.320,-28.809,-98.633
1688815244.382,69.824,-31.250,-27.832,-15.137,139.160
1688815244.386,68.359,-32.227,-21.973,-30.273,95.215
1688815244.390,84.473,-37.598,-23.926,-65.918,-142.090
1688815244.394,91.309,-39.551,-30.273,-58.105,-85.449
1688815244.398,77.637,-37.598,-31.250,-40.039,129.395
1688815244.401,33.691,-32.715,-28.809,-23.438,149.902
1688815244.405,28.809,-28.320,-30.273,-30.273,-41.016
1688815244.409,54.199,-34.668,-32.227,-53.223,-178.711
1688815244.413,46.875,-38.086,-36.133,-37.598,120.605
1688815244.417,31.738,-36.621,-38.086,-21.973,416.504
1688815244.378,8.301,-38.086,-33.203,-23.438,21.484
1688815244.382,6.348,-35.645,-28.809,-42.480,-169.922
1688815244.386,50.293,-35.156,-27.832,-59.082,-31.250
1688815244.390,66.406,-42.480,-27.832,-48.828,-61.035
1688815244.394,51.270,-43.945,-29.785,-36.621,-202.637
1688815244.398,25.879,-38.086,-30.273,-20.996,-41.504
1688815244.402,22.949,-35.645,-30.273,-29.297,251.953
1688815244.405,64.941,-39.551,-35.156,-59.082,-32.227
1688815244.409,89.355,-33.203,-32.227,-47.852,-219.727
1688815244.413,78.125,-28.809,-28.320,-32.227,-94.238
1688815244.417,45.410,-32.715,-29.785,-16.113,24.902
1688815244.421,34.668,-32.227,-33.203,-27.344,-113.281
1688815244.407,75.684,-29.785,-32.227,-49.805,-203.613
1688815244.411,97.656,-32.227,-33.203,-36.133,-65.918
1688815244.415,88.379,-31.250,-33.691,-36.621,-80.566
1688815244.419,74.707,-33.203,-35.645,-26.855,-187.500
1688815244.423,53.223,-35.645,-39.062,-23.438,-175.781
1688815244.427,75.684,-35.156,-34.668,-44.922,55.176
1688815244.431,111.328,-37.109,-31.250,-31.738,133.789
1688815244.434,94.727,-36.133,-33.203,-30.273,-72.754
1688815244.438,61.035,-33.691,-36.621,-21.484,-56.641
1688815244.442,41.504,-29.785,-36.621,-12.695,70.801
1688815244.446,50.781,-31.250,-34.180,-45.898,-57.617
1688815244.450,78.613,-32.715,-32.227,-54.199,-150.879
1688815244.412,88.867,-32.227,-32.227,-46.387,-63.965
1688815244.416,58.105,-31.250,-34.668,-41.016,99.609
1688815244.420,25.879,-28.809,-35.156,-39.551,-14.648
1688815244.424,42.480,-27.344,-34.668,-69.336,-245.117
1688815244.428,56.641,-25.879,-36.621,-75.684,-161.133
1688815244.432,45.898,-26.855,-34.668,-51.758,244.629
1688815244.436,21.484,-32.227,-31.738,-39.551,213.379
1688815244.439,-18.066,-30.762,-32.715,-31.738,-20.508
1688815244.443,-1.953,-29.785,-32.715,-54.199,-24.902
1688815244.447,32.227,-35.645,-32.715,-64.453,-66.895
1688815244.451,12.207,-41.504,-33.203,-57.129,-153.809
1688815244.455,-4.883,-38.086,-36.133,-61.523,-178.223
1688815244.450,-28.320,-32.227,-34.180,-49.805,-63.477
1688815244.454,-31.738,-30.273,-33.203,-71.289,-19.043
1688815244.458,1.465,-34.668,-33.691,-78.613,-116.699
1688815244.462,13.672,-37.598,-31.250,-56.152,-202.637
1688815244.466,-5.371,-33.203,-26.855,-37.598,-30.273
1688815244.470,-34.668,-30.273,-28.809,-16.113,340.820
1688815244.474,-37.109,-33.691,-29.297,-39.062,114.746
1688815244.477,-9.766,-32.227,-23.926,-51.270,-141.602
1688815244.481,3.418,-30.273,-24.414,-31.738,68.359
1688815244.485,-19.043,-29.785,-26.367,-20.508,324.707
1688815244.489,-55.664,-36.133,-28.320,-11.230,336.914
1688815244.493,-73.242,-43.457,-33.691,-30.273,35.645
1688815244.464,-54.199,-40.527,-33.691,-51.270,-42.969
1688815244.468,-41.504,-33.691,-30.273,-36.133,-178.223
1688815244.472,-58.105,-30.762,-29.785,-28.320,-236.816
1688815244.476,-95.703,-30.273,-32.227,-20.996,-106.445
1688815244.480,-122.070,-29.785,-31.250,-20.996,155.273
1688815244.484,-108.887,-32.715,-31.250,-39.062,351.074
1688815244.488,-100.586,-30.762,-27.832,-30.273,451.660
1688815244.491,-114.258,-27.344,-23.438,-24.902,158.203
1688815244.495,-146.973,-27.344,-22.949,-20.508,-184.082
1688815244.499,-160.645,-26.367,-21.973,-25.391,-200.195
1688815244.503,-134.766,-28.809,-25.391,-44.434,-272.949
1688815244.507,-122.070,-29.785,-29.785,-34.668,-223.145
1688815244.540,-125.488,-28.809,-28.320,-26.855,-189.941
1688815244.544,-150.391,-28.809,-29.297,-21.484,-185.547
1688815244.548,-177.246,-27.344,-29.785,-24.902,-169.922
1688815244.552,-150.391,-29.785,-28.320,-52.734,-63.965
1688815244.556,-119.629,-30.762,-23.438,-41.992,240.723
1688815244.560,-130.371,-30.273,-27.344,-31.250,202.148
1688815244.564,-159.180,-31.738,-34.180,-31.738,-33.203
1688815244.567,-177.246,-34.180,-34.180,-15.137,118.164
1688815244.571,-151.367,-33.691,-31.250,-31.738,207.031
1688815244.575,-112.305,-28.809,-31.250,-46.875,-157.715
1688815244.579,-106.934,-22.949,-33.691,-34.180,-285.645
1688815244.583,-136.230,-21.484,-36.133,-24.902,-143.555
1688815244.554,-166.992,-27.832,-38.086,-23.438,-141.113
1688815244.558,-150.391,-32.227,-39.551,-44.434,-263.184
1688815244.562,-114.746,-31.250,-36.621,-47.363,-282.227
1688815244.566,-104.492,-30.273,-36.621,-37.109,-77.637
1688815244.570,-121.094,-31.738,-36.621,-40.527,-100.098
1688815244.574,-154.297,-37.109,-32.715,-35.645,-120.605
1688815244.578,-144.531,-36.621,-34.668,-56.152,-53.223
1688815244.581,-100.586,-32.715,-37.598,-60.059,-49.805
1688815244.585,-89.355,-30.762,-36.133,-40.039,-173.828
1688815244.589,-106.934,-32.715,-38.574,-35.156,-220.703
1688815244.593,-135.742,-34.668,-40.527,-23.438,-48.828
1688815244.597,-130.859,-36.621,-41.504,-38.574,127.441
1688815244.718,-71.777,-36.621,-43.945,-62.012,-63.965
1688815244.722,-44.434,-34.180,-41.016,-55.664,-241.211
1688815244.726,-61.035,-33.691,-36.133,-43.457,-46.875
1688815244.730,-83.984,-31.250,-39.062,-22.949,366.211
1688815244.734,-64.941,-30.762,-45.410,-42.480,187.500
1688815244.738,-14.648,-31.738,-48.340,-66.406,-120.605
1688815244.742,-3.906,-33.203,-51.270,-36.621,142.090
1688815244.745,-8.789,-32.715,-50.781,-27.344,342.773
1688815244.749,-22.461,-28.809,-45.898,-33.203,21.973
1688815244.753,-34.668,-29.785,-43.945,-47.363,-132.812
1688815244.757,-12.207,-34.180,-42.480,-65.430,-115.723
1688815244.761,-6.348,-35.156,-38.086,-62.988,-95.215
1688815244.723,-20.020,-34.668,-39.062,-55.176,-168.457
1688815244.727,-43.457,-34.668,-40.527,-42.969,-168.945
1688815244.731,-46.875,-33.691,-37.598,-42.969,97.656
1688815244.735,-9.766,-32.227,-39.062,-56.152,-63.477
1688815244.739,8.789,-33.691,-42.480,-51.758,-226.074
1688815244.743,4.883,-37.598,-43.945,-41.016,-6.836
1688815244.747,-19.043,-33.691,-41.992,-24.414,46.387
1688815244.750,-40.527,-29.785,-41.504,-31.738,-56.641
1688815244.754,-0.977,-29.297,-43.457,-59.570,-192.383
1688815244.758,31.738,-31.250,-37.598,-42.969,-171.387
1688815244.762,29.297,-33.203,-34.668,-29.297,-106.934
1688815244.766,13.184,-34.668,-35.645,-31.250,-178.711
1688815244.747,3.906,-35.645,-40.039,-35.156,-149.902
1688815244.751,40.527,-34.668,-41.504,-58.105,-105.469
1688815244.755,66.406,-38.574,-40.527,-54.199,-98.145
1688815244.759,63.965,-38.574,-39.062,-41.504,-211.426
1688815244.763,48.340,-36.133,-37.598,-24.902,-120.605
1688815244.767,26.367,-35.645,-41.992,-16.113,148.438
1688815244.771,54.199,-34.180,-40.039,-54.688,45.898
1688815244.774,100.098,-32.715,-31.738,-62.012,-150.391
1688815244.778,104.980,-29.297,-33.203,-40.527,-182.617
1688815244.782,86.914,-30.273,-36.621,-30.762,67.383
1688815244.786,62.988,-32.715,-35.645,-27.344,158.203
1688815244.790,73.242,-29.785,-38.574,-54.688,-110.352
1688815244.766,112.305,-28.320,-38.574,-53.711,-164.551
1688815244.770,118.652,-29.297,-32.227,-29.785,37.109
1688815244.774,87.402,-24.902,-32.227,-22.949,-51.270
1688815244.778,53.711,-20.020,-32.227,-12.207,-99.609
1688815244.782,58.594,-26.367,-30.762,-28.320,-19.531
1688815244.786,91.797,-30.762,-31.738,-38.086,42.969
1688815244.790,103.027,-29.785,-39.551,-29.785,-9.766
1688815244.793,81.543,-30.762,-42.480,-31.250,-125.488
1688815244.797,55.664,-32.715,-42.480,-20.508,-17.578
1688815244.801,68.359,-31.250,-39.551,-32.715,-45.410
1688815244.805,106.934,-26.855,-33.203,-40.527,-208.008
1688815244.809,124.512,-28.320,-33.203,-21.973,-201.172
1688815244.792,122.559,-32.227,-32.715,-18.555,16.113
1688815244.796,91.797,-31.250,-35.156,-7.324,361.816
1688815244.800,84.961,-28.809,-35.645,-27.832,393.555
1688815244.804,122.070,-27.344,-29.297,-48.340,260.254
1688815244.808,138.672,-24.414,-29.785,-42.480,-27.344
1688815244.812,131.348,-25.391,-35.156,-34.668,-110.352
1688815244.816,111.328,-26.367,-35.156,-41.992,-48.828
1688815244.819,109.863,-28.809,-34.180,-69.336,-79.102
1688815244.823,151.367,-29.785,-38.086,-98.145,51.270
1688815244.827,166.992,-31.738,-37.598,-119.141,-91.309
1688815244.831,148.438,-34.180,-41.504,-142.578,-260.742
1688815244.835,114.258,-34.180,-44.922,-156.738,-121.094
1688815244.838,108.398,-32.227,-37.598,-172.363,147.949
1688815244.842,149.414,-29.785,-35.645,-192.383,320.801
1688815244.846,151.367,-33.691,-39.551,-192.871,275.391
1688815244.850,124.512,-34.668,-38.086,-199.219,72.266
1688815244.854,100.098,-37.598,-35.645,-202.637,3.418
1688815244.858,84.961,-36.621,-34.668,-216.309,-94.238
1688815244.862,118.164,-32.715,-29.785,-255.371,-265.137
1688815244.865,136.719,-33.691,-28.320,-263.672,-211.426
1688815244.869,120.117,-35.156,-33.691,-254.395,-118.652
1688815244.873,102.539,-31.250,-31.738,-241.699,-201.660
1688815244.877,75.684,-29.297,-32.227,-245.605,-213.867
1688815244.881,87.891,-37.598,-36.621,-260.742,-93.750
1688815244.882,116.699,-41.016,-30.762,-237.305,-23.438
1688815244.886,118.164,-41.504,-33.203,-229.492,-194.824
1688815244.890,101.074,-39.062,-33.203,-224.121,-183.105
1688815244.894,68.848,-35.156,-29.297,-207.520,-5.371
1688815244.898,70.801,-38.086,-32.227,-231.445,-128.418
1688815244.902,93.750,-37.109,-30.762,-229.004,-162.598
1688815244.906,86.914,-32.715,-33.691,-202.637,-83.008
1688815244.909,57.129,-27.344,-37.109,-186.035,198.730
1688815244.913,31.738,-26.855,-35.645,-176.270,371.582
1688815244.917,51.758,-25.391,-31.738,-206.055,-105.469
1688815244.921,84.473,-25.391,-31.738,-216.797,-215.820
1688815244.925,83.984,-25.391,-32.227,-195.801,34.668
1688815244.927,53.711,-29.297,-35.156,-192.383,-93.262
1688815244.931,9.277,-32.715,-38.574,-185.059,-164.062
1688815244.935,10.742,-34.668,-38.086,-204.102,-71.777
1688815244.939,38.086,-34.180,-37.109,-208.984,-57.617
1688815244.943,41.992,-36.133,-33.203,-191.895,-156.738
1688815244.947,18.066,-41.992,-32.715,-184.570,-157.227
1688815244.951,-13.184,-41.992,-36.133,-165.039,38.086
1688815244.954,-6.348,-42.969,-36.133,-180.664,392.090
1688815244.958,25.391,-41.992,-34.668,-205.566,84.473
1688815244.962,34.180,-39.551,-33.691,-186.523,-175.781
1688815244.966,15.625,-39.551,-33.691,-167.969,-79.590
1688815244.970,-9.766,-37.598,-34.180,-156.250,-109.375
1688815244.987,-4.883,-33.203,-31.250,-169.434,-148.926
1688815244.991,19.531,-31.738,-28.320,-191.406,-173.340
1688815244.995,26.367,-31.738,-24.902,-195.312,-121.582
1688815244.999,20.508,-29.297,-24.902,-212.891,-145.996
1688815245.003,-1.953,-29.297,-31.250,-226.074,-126.465
1688815245.007,0.488,-25.879,-31.738,-250.000,-56.641
1688815245.011,37.598,-24.902,-27.344,-269.531,119.629
1688815245.014,55.176,-27.832,-30.762,-262.207,103.516
1688815245.018,53.223,-27.344,-31.738,-257.324,-198.730
1688815245.022,35.156,-22.949,-29.785,-245.117,-164.551
1688815245.026,20.508,-23.926,-32.715,-251.465,64.941
1688815245.030,47.852,-27.344,-33.203,-271.973,-78.125
1688815245.032,65.430,-30.762,-33.203,-259.277,-247.070
1688815245.036,43.945,-31.738,-32.715,-262.695,-184.570
1688815245.040,16.113,-24.414,-24.902,-248.047,137.207
1688815245.044,0.000,-26.367,-29.297,-243.164,37.598
1688815245.048,18.066,-33.691,-35.645,-270.020,-187.988
1688815245.052,39.062,-33.203,-34.668,-259.277,-51.270
1688815245.056,30.762,-32.715,-33.203,-242.188,44.922
1688815245.059,6.348,-34.668,-33.691,-229.492,-58.594
1688815245.063,-20.020,-36.621,-39.062,-234.375,-117.188
1688815245.067,-13.184,-36.621,-38.574,-266.113,-68.848
1688815245.071,-1.953,-41.016,-36.621,-267.090,72.266
1688815245.075,-10.254,-40.527,-42.480,-242.676,-75.195
1688815245.108,-29.297,-34.668,-41.504,-213.379,-123.535
1688815245.112,-52.734,-34.180,-40.039,-177.734,19.531
1688815245.116,-32.715,-30.273,-35.645,-171.387,-35.645
1688815245.120,-7.324,-28.320,-32.715,-154.297,-150.391
1688815245.124,-19.043,-28.809,-36.621,-118.164,-119.629
1688815245.128,-44.922,-31.738,-36.133,-85.449,70.312
1688815245.132,-79.102,-34.668,-33.203,-66.406,108.398
1688815245.135,-80.078,-34.180,-29.297,-83.008,-94.727
1688815245.139,-44.434,-33.691,-27.344,-77.148,-148.926
1688815245.143,-35.645,-34.668,-31.250,-58.594,76.660
1688815245.147,-70.312,-37.109,-34.180,-47.363,125.000
1688815245.151,-101.074,-29.785,-32.227,-22.949,3.906
1688815245.125,-85.938,-29.297,-29.785,-26.855,-75.684
1688815245.129,-55.176,-36.621,-29.297,-19.531,120.117
1688815245.133,-52.246,-36.621,-34.180,1.953,89.844
1688815245.137,-68.848,-34.668,-37.109,10.742,-182.617
1688815245.141,-93.262,-38.574,-37.109,32.715,-113.770
1688815245.145,-95.215,-38.086,-36.133,18.555,53.223
1688815245.149,-56.641,-31.738,-32.715,13.184,-36.133
1688815245.152,-35.645,-30.762,-31.250,42.480,-153.809
1688815245.156,-33.203,-32.227,-32.227,47.363,-103.027
1688815245.160,-41.504,-37.109,-33.203,53.223,151.367
1688815245.164,-44.434,-41.992,-29.785,32.715,12.695
1688815245.168,-18.066,-44.434,-31.250,20.508,-179.688
1688815245.167,0.000,-46.875,-35.156,41.016,-94.727
1688815245.171,-9.277,-49.316,-34.668,45.410,-114.746
1688815245.175,-32.227,-49.805,-36.133,62.988,-96.191
1688815245.179,-30.273,-48.340,-39.551,53.711,-104.004
1688815245.183,0.977,-44.434,-36.133,33.691,91.797
1688815245.187,18.066,-40.527,-36.621,62.988,409.668
1688815245.191,12.207,-39.551,-38.086,68.848,194.824
1688815245.194,-15.625,-42.480,-39.062,68.359,-87.402
1688815245.198,-25.391,-42.480,-39.062,56.641,138.184
1688815245.202,9.766,-42.969,-37.598,31.250,297.852
1688815245.206,29.297,-40.527,-33.691,31.738,-29.297
1688815245.210,19.531,-37.598,-32.715,37.109,-171.875
1688815245.212,-8.301,-38.574,-37.598,52.734,16.602
1688815245.216,-30.273,-42.480,-41.992,40.039,-49.805
1688815245.220,-4.883,-40.039,-40.039,13.672,-195.312
1688815245.224,10.254,-37.109,-40.039,35.645,-220.215
1688815245.228,0.977,-37.109,-43.945,47.852,-184.082
1688815245.232,-27.832,-35.645,-37.109,53.711,-79.590
1688815245.236,-62.012,-35.156,-34.668,52.734,-53.711
1688815245.239,-45.898,-38.574,-42.969,27.832,3.906
1688815245.243,-16.602,-38.086,-42.969,35.645,187.988
1688815245.247,-14.648,-33.203,-35.645,48.340,-91.797
1688815245.251,-39.062,-34.180,-38.086,51.270,-192.871
1688815245.255,-62.012,-35.645,-40.039,57.129,82.520
1688815245.306,-47.852,-37.598,-40.039,33.203,97.168
1688815245.310,-19.531,-40.039,-39.551,24.902,-142.578
1688815245.314,-8.789,-36.621,-37.598,38.574,-199.707
1688815245.318,-32.715,-37.598,-37.598,36.133,-77.148
1688815245.322,-67.871,-40.039,-37.598,30.762,-60.059
1688815245.326,-58.594,-38.574,-37.598,8.301,-71.289
1688815245.330,-22.461,-35.645,-36.621,8.789,35.156
1688815245.333,-11.230,-36.621,-40.039,27.344,146.484
1688815245.337,-26.367,-42.480,-44.434,24.902,5.371
1688815245.341,-54.199,-40.527,-42.969,37.109,-127.930
1688815245.345,-47.852,-34.180,-41.992,26.855,-66.406
1688815245.349,-12.695,-32.715,-45.410,2.930,11.719
1688815245.312,-2.441,-35.645,-48.340,5.371,-56.152
1688815245.316,-21.484,-38.086,-44.922,3.906,-135.254
1688815245.320,-47.363,-33.691,-45.898,9.766,-54.688
1688815245.324,-40.039,-30.762,-44.434,-7.812,17.578
1688815245.328,3.906,-30.762,-39.551,-16.602,-85.449
1688815245.332,21.973,-26.367,-36.621,10.254,-76.172
1688815245.336,3.418,-25.879,-37.109,8.301,23.926
1688815245.339,-27.344,-32.715,-41.016,5.371,43.457
1688815245.343,-31.250,-36.133,-47.363,-12.207,-116.211
1688815245.347,1.953,-33.691,-46.387,-27.344,-244.141
1688815245.351,19.531,-30.273,-43.945,-7.324,-122.559
1688815245.355,4.883,-30.762,-46.875,-4.395,-19.043
1688815245.347,-22.949,-33.203,-46.387,-2.441,-45.898
1688815245.351,-29.785,-33.691,-43.945,-16.602,-27.832
1688815245.355,-0.977,-36.621,-44.922,-36.621,59.082
1688815245.359,9.277,-34.668,-45.410,-18.555,30.273
1688815245.363,-11.719,-32.715,-48.828,-21.484,-71.289
1688815245.367,-44.922,-32.715,-48.828,-29.297,4.395
1688815245.371,-65.918,-28.809,-46.387,-30.762,274.414
1688815245.374,-42.480,-25.879,-45.898,-38.086,394.531
1688815245.378,-25.879,-28.320,-46.875,-29.297,369.629
1688815245.382,-45.410,-30.762,-45.898,-36.133,313.477
1688815245.386,-73.242,-33.691,-45.410,-39.551,-26.367
1688815245.390,-88.867,-33.203,-44.434,-38.086,-131.348
1688815245.393,-67.871,-31.738,-42.480,-57.129,-148.926
1688815245.397,-40.039,-33.691,-41.016,-52.246,-211.914
1688815245.401,-34.668,-36.133,-39.062,-34.180,129.395
1688815245.405,-54.199,-38.086,-37.598,-17.090,115.723
1688815245.409,-64.453,-39.062,-38.086,-22.461,-139.648
1688815245.413,-38.086,-41.504,-41.992,-56.641,-40.527
1688815245.417,-3.418,-34.180,-39.551,-43.457,73.242
1688815245.420,7.324,-32.227,-37.598,-31.250,-87.891
1688815245.424,-17.090,-36.621,-36.621,-24.414,-203.125
1688815245.428,-40.527,-33.203,-35.156,-11.230,-86.914
1688815245.432,-4.395,-24.414,-36.621,-34.180,-77.637
1688815245.436,41.016,-25.879,-41.992,-50.293,-184.082
1688815245.452,57.617,-26.367,-42.969,-49.316,-197.266
1688815245.456,41.504,-25.879,-45.410,-52.734,-133.789
1688815245.460,1.465,-35.645,-48.340,-46.875,-110.352
1688815245.464,11.230,-37.598,-42.969,-40.527,-151.367
1688815245.468,41.016,-30.762,-39.551,-27.344,-145.508
1688815245.472,42.480,-29.297,-39.062,-6.836,138.672
1688815245.476,30.273,-28.320,-40.039,-0.977,252.441
1688815245.479,11.230,-25.879,-42.480,5.371,-50.293
1688815245.483,21.484,-25.879,-42.969,-17.090,-188.965
1688815245.487,48.340,-31.738,-47.852,-37.598,-40.039
1688815245.491,59.570,-32.227,-46.387,-10.742,-54.199
1688815245.495,44.434,-34.668,-40.527,6.348,-85.449
1688815245.497,26.367,-36.621,-41.016,27.832,-3.906
1688815245.501,40.039,-20.020,-41.016,30.762,107.910
1688815245.505,62.988,-14.160,-41.992,8.789,-86.914
1688815245.509,73.730,-11.719,-50.293,9.766,-225.586
1688815245.513,59.082,-4.883,-53.711,15.625,-131.348
1688815245.517,27.832,-5.371,-57.617,29.785,55.176
1688815245.521,28.809,-0.977,-64.941,22.949,79.102
1688815245.524,65.918,2.930,-70.312,1.465,-76.172
1688815245.528,92.285,10.742,-73.242,15.625,-54.688
1688815245.532,81.055,15.625,-77.148,28.320,209.961
1688815245.536,52.734,16.113,-83.496,40.039,116.699
1688815245.540,49.316,17.578,-91.797,21.973,-95.215
1688815245.542,84.961,21.484,-95.703,-6.348,-131.348
1688815245.546,99.121,23.926,-94.727,7.812,-161.621
1688815245.550,80.078,26.855,-101.074,5.371,-146.484
1688815245.554,53.711,29.785,-107.910,7.812,-108.398
1688815245.558,42.480,28.320,-109.863,10.742,2.930
1688815245.562,69.824,32.715,-111.328,-9.766,23.926
1688815245.566,93.750,33.691,-111.816,-3.418,-16.602
1688815245.569,87.891,32.227,-112.793,13.672,-116.699
1688815245.573,63.965,38.086,-113.281,27.344,174.805
1688815245.577,56.641,44.434,-112.305,27.832,324.707
1688815245.581,82.031,40.527,-114.258,-3.906,-145.996
1688815245.585,100.586,39.551,-117.188,-3.906,-139.160
1688815245.587,97.168,43.457,-116.699,1.953,95.703
1688815245.591,73.242,43.457,-117.188,0.977,-14.160
1688815245.595,55.664,44.434,-114.746,3.418,-106.934
1688815245.599,74.219,41.992,-116.699,-26.855,-196.777
1688815245.603,118.164,42.969,-118.652,-15.137,-166.016
1688815245.607,121.582,42.969,-115.723,13.672,-72.266
1688815245.611,92.773,40.527,-114.258,22.461,-94.238
1688815245.614,73.242,40.039,-108.887,33.691,19.531
1688815245.618,86.914,32.715,-101.562,14.160,143.555
1688815245.622,112.305,27.344,-100.586,8.789,-102.051
1688815245.626,116.699,27.832,-100.098,13.184,-152.832
1688815245.630,94.238,23.926,-97.656,9.766,22.949
1688815245.632,61.035,19.043,-99.121,20.508,7.324
1688815245.636,67.871,20.508,-98.145,3.418,-156.738
1688815245.640,90.332,18.555,-94.238,-13.184,-269.531
1688815245.644,97.656,17.090,-87.402,3.906,-140.137
1688815245.648,81.543,11.719,-81.055,11.230,-72.754
1688815245.652,45.898,7.324,-78.613,19.043,-51.270
1688815245.656,46.875,4.883,-73.730,-0.977,55.664
1688815245.659,83.984,-1.465,-74.707,-22.949,144.043
1688815245.663,94.238,1.465,-73.730,-10.254,25.879
1688815245.667,70.801,3.906,-71.777,-6.836,-211.426
1688815245.671,37.109,3.418,-71.289,0.000,-106.445
1688815245.675,34.180,0.977,-67.383,-9.766,28.320
1688815245.678,50.293,-6.836,-64.453,-25.879,-86.914
1688815245.682,50.781,-11.230,-63.477,-14.648,-196.289
1688815245.686,41.992,-9.277,-62.012,-7.812,-109.863
1688815245.690,0.488,-10.742,-60.059,9.766,230.469
1688815245.694,-12.695,-14.648,-59.570,0.977,117.676
1688815245.698,15.137,-15.625,-59.570,-20.020,-190.918
1688815245.702,27.344,-19.043,-62.012,-7.324,-52.246
1688815245.705,16.602,-20.996,-64.941,11.719,163.086
1688815245.709,-14.160,-17.090,-61.523,12.207,-28.809
1688815245.713,-17.090,-14.160,-58.594,-12.207,-206.543
1688815245.717,30.762,-17.578,-54.199,-37.598,-182.129
1688815245.721,56.152,-17.578,-50.781,-30.273,-163.086
1688815245.722,47.363,-14.160,-49.316,-16.113,-176.758
1688815245.726,15.137,-16.602,-47.852,-2.441,-170.898
1688815245.730,-0.488,-15.137,-46.387,-13.184,-71.289
1688815245.734,26.367,-19.531,-47.363,-39.062,-39.551
1688815245.738,43.945,-22.949,-52.246,-15.137,-133.301
1688815245.742,38.086,-19.531,-50.781,-4.395,-131.836
1688815245.746,16.602,-21.484,-46.875,2.441,135.254
1688815245.749,4.395,-26.855,-46.387,16.113,274.902
1688815245.753,45.410,-28.809,-47.852,-14.648,-98.633
1688815245.757,73.242,-24.414,-44.434,-8.301,-178.711
1688815245.761,76.660,-20.508,-38.086,7.812,-103.027
1688815245.765,56.641,-21.484,-39.062,12.695,-66.406
1688815245.767,29.785,-22.949,-41.992,21.973,-12.207
1688815245.771,46.875,-19.043,-41.016,-9.277,-104.980
1688815245.775,65.430,-20.996,-41.016,-15.625,-1.465
1688815245.779,65.918,-25.391,-42.480,-14.160,-29.297
1688815245.783,40.039,-27.344,-41.016,-13.184,-146.484
1688815245.787,2.441,-29.785,-37.598,8.301,-32.227
1688815245.791,14.160,-32.715,-40.039,-19.531,84.473
1688815245.794,43.457,-32.715,-46.387,-42.480,-33.691
1688815245.798,41.016,-30.762,-49.316,-24.414,-142.090
1688815245.802,18.066,-31.250,-50.781,-15.137,-23.926
1688815245.806,-7.324,-29.297,-53.711,-16.602,165.039
1688815245.810,8.789,-25.391,-55.176,-48.828,-44.922
1688815245.828,38.574,-30.762,-46.875,-60.059,-200.195
1688815245.832,49.805,-35.645,-46.875,-48.340,-143.066
1688815245.836,32.715,-35.645,-48.828,-34.180,4.883
1688815245.840,-0.977,-38.574,-45.410,-20.508,12.207
1688815245.844,7.324,-36.133,-45.898,-44.434,-53.223
1688815245.848,34.668,-30.762,-44.922,-51.270,68.848
1688815245.852,42.969,-28.809,-44.922,-34.180,11.719
1688815245.855,33.203,-27.832,-46.387,-30.762,-85.449
1688815245.859,-7.324,-28.809,-41.016,-19.531,11.230
1688815245.863,-22.461,-30.762,-38.574,-20.996,190.918
1688815245.867,15.625,-30.273,-38.086,-34.180,190.430
1688815245.871,25.879,-29.297,-38.086,-24.902,-44.434
1688815245.872,7.324,-27.832,-41.992,-19.043,-49.316
1688815245.876,-22.949,-31.738,-41.016,-1.465,140.625
1688815245.880,-31.250,-34.668,-39.551,-17.090,20.996
1688815245.884,8.301,-32.715,-39.062,-38.574,-181.641
1688815245.888,31.250,-34.180,-39.551,-15.137,-107.422
1688815245.892,16.602,-33.691,-41.504,-7.324,62.012
1688815245.896,-13.672,-31.738,-40.039,-1.465,5.859
1688815245.899,-18.066,-27.832,-34.180,-9.766,-122.559
1688815245.903,18.066,-27.344,-29.785,-29.297,-115.234
1688815245.907,26.855,-27.344,-33.691,-26.367,161.621
1688815245.911,11.230,-28.320,-41.016,-24.902,66.895
1688815245.915,-8.789,-29.785,-41.016,-10.742,-71.289
1688815245.918,-29.297,-34.668,-40.039,-15.137,-3.906
1688815245.922,-3.418,-39.062,-39.551,-46.387,-50.293
1688815245.926,19.531,-38.574,-36.621,-35.645,-160.645
1688815245.930,16.113,-38.574,-33.203,-14.648,-164.551
1688815245.934,-6.836,-40.039,-33.203,-10.742,-146.973
1688815245.938,-31.250,-41.016,-36.621,-11.230,-101.074
1688815245.942,-4.395,-37.598,-36.133,-31.250,-74.219
1688815245.945,20.020,-34.180,-34.668,-30.273,-120.605
1688815245.949,16.602,-34.180,-36.621,-17.090,104.980
1688815245.953,-2.441,-37.598,-42.480,-18.555,111.816
1688815245.957,-17.090,-39.062,-43.457,-15.625,-133.789
1688815245.961,8.789,-34.180,-36.133,-27.344,-79.102
1688815245.963,36.621,-30.762,-35.156,-25.391,132.812
1688815245.967,30.762,-28.809,-34.180,-9.766,16.113
1688815245.971,3.418,-32.715,-35.645,-4.395,-214.355
1688815245.975,-24.414,-40.039,-43.457,-8.789,-40.039
1688815245.979,-2.441,-35.645,-45.410,-31.738,27.344
1688815245.983,34.180,-31.738,-42.480,-27.344,-96.191
1688815245.987,40.527,-31.250,-41.992,-14.648,-115.723
1688815245.990,32.227,-28.320,-45.410,-11.719,-53.711
1688815245.994,8.301,-27.832,-49.805,-0.488,279.297
1688815245.998,7.812,-32.227,-51.270,-27.832,101.562
1688815246.002,37.109,-33.203,-46.875,-35.645,-217.773
1688815246.006,41.504,-31.250,-46.875,-24.902,-111.816
1688815246.007,21.484,-33.203,-48.340,-29.297,-73.242
1688815246.011,-6.836,-29.297,-42.480,-11.230,-89.355
1688815246.015,-4.883,-32.227,-42.480,-19.531,-42.480
1688815246.019,31.250,-33.203,-45.898,-28.809,71.777
1688815246.023,44.922,-32.715,-45.898,-13.672,-27.344
1688815246.027,28.320,-31.250,-46.875,-13.672,-30.273
1688815246.031,-5.371,-30.762,-50.293,-11.719,14.160
1688815246.034,-4.395,-33.691,-54.688,-30.273,135.742
1688815246.038,31.738,-32.227,-52.734,-45.898,190.918
1688815246.042,48.828,-30.273,-46.387,-36.133,-122.559
1688815246.046,43.457,-30.762,-44.922,-26.855,-171.387
1688815246.050,11.230,-27.832,-43.457,-9.766,0.488
1688815246.052,4.395,-25.879,-43.945,-20.996,-95.703
1688815246.056,35.156,-26.367,-45.410,-35.156,-182.129
1688815246.060,41.992,-30.762,-48.340,-28.320,-52.734
1688815246.064,23.926,-35.156,-50.293,-20.508,75.684
1688815246.068,-2.441,-39.551,-50.293,-10.742,-21.973
1688815246.072,-1.953,-37.109,-46.875,-21.973,-129.883
1688815246.076,36.133,-33.203,-43.945,-37.109,-53.223
1688815246.079,58.105,-37.109,-48.340,-15.137,236.816
1688815246.083,45.410,-38.086,-49.316,-3.906,52.246
1688815246.087,16.602,-40.039,-50.293,-0.977,-155.273
1688815246.091,-3.418,-41.504,-53.711,0.488,-25.391
1688815246.095,18.555,-39.551,-51.758,-22.949,-71.289
1688815246.097,42.480,-37.109,-46.387,-21.973,-117.188
1688815246.101,38.086,-40.039,-46.387,-17.578,-115.234
1688815246.105,14.648,-41.016,-46.875,-15.137,-101.074
1688815246.109,-6.348,-36.133,-44.922,-18.066,-54.199
1688815246.113,16.113,-35.156,-42.969,-42.969,-137.207
1688815246.117,37.109,-37.598,-40.527,-47.363,-88.867
1688815246.121,25.391,-39.062,-41.504,-44.922,187.988
1688815246.124,-2.441,-38.574,-44.434,-43.457,178.711
1688815246.128,-26.855,-38.086,-39.062,-47.852,-4.395
1688815246.132,-5.371,-37.109,-39.551,-70.312,-150.391
1688815246.136,20.508,-35.156,-46.387,-68.359,88.379
1688815246.140,23.438,-30.762,-44.922,-56.641,178.711
1688815246.142,10.254,-28.320,-43.945,-54.199,-110.840
1688815246.146,-18.066,-28.320,-43.457,-57.129,-51.758
1688815246.150,-0.488,-29.297,-40.527,-76.172,124.023
1688815246.154,35.156,-29.297,-42.480,-75.195,-98.633
1688815246.158,33.691,-28.320,-41.504,-58.594,-302.246
1688815246.162,20.020,-31.250,-39.551,-45.898,-70.801
1688815246.166,-5.371,-35.156,-43.457,-34.180,141.602
1688815246.169,2.441,-34.668,-45.410,-54.688,-60.547
1688815246.173,37.109,-33.203,-45.898,-54.688,-193.848
1688815246.177,35.645,-35.645,-46.875,-41.016,-70.801
1688815246.181,20.996,-34.668,-42.480,-35.645,55.664
1688815246.185,-11.230,-35.156,-40.527,-27.832,-55.176
1688815246.192,-14.648,-37.109,-43.457,-49.805,-175.781
1688815246.196,19.531,-34.180,-45.410,-53.223,-111.816
1688815246.200,28.320,-31.738,-45.410,-41.504,-72.754
1688815246.204,14.648,-29.785,-43.457,-44.922,-239.258
1688815246.208,-15.625,-33.691,-46.875,-31.250,-167.969
1688815246.212,-19.043,-31.738,-49.316,-52.734,97.656
1688815246.216,8.301,-27.344,-51.758,-82.031,-15.625
1688815246.219,31.738,-23.438,-51.758,-55.176,-182.129
1688815246.223,53.223,-18.555,-45.898,-17.578,-70.312
1688815246.227,5.371,-33.203,-39.062,-16.602,201.660
1688815246.231,-37.598,-44.922,-30.762,-41.992,84.473
1688815246.235,-21.484,-47.363,-24.414,-69.336,-114.746
1688815246.263,-19.531,-52.246,-19.043,-70.801,-52.246
1688815246.267,-43.945,-61.523,-13.184,-65.430,8.789
1688815246.271,-93.262,-67.383,-4.883,-67.383,-71.777
1688815246.275,-124.023,-74.219,-0.977,-90.332,-109.375
1688815246.279,-101.562,-86.914,-0.488,-117.188,-200.195
1688815246.283,-84.473,-93.750,2.441,-104.492,149.902
1688815246.287,-111.816,-99.121,8.301,-105.469,459.473
1688815246.290,-153.320,-103.516,17.578,-107.910,25.391
1688815246.294,-180.176,-107.422,21.484,-112.793,-172.363
1688815246.298,-156.738,-112.793,27.832,-145.508,-115.234
1688815246.302,-132.324,-110.840,33.203,-135.742,-154.297
1688815246.306,-149.414,-111.816,33.203,-117.188,-143.066
1688815246.293,-173.340,-117.188,38.086,-102.539,-61.035
1688815246.297,-192.871,-119.141,43.945,-100.586,-20.020
1688815246.301,-176.270,-124.023,44.434,-125.000,-130.371
1688815246.305,-135.254,-123.535,40.039,-106.934,-139.648
1688815246.309,-115.723,-116.699,37.109,-71.289,-10.254
1688815246.313,-145.020,-115.234,35.645,-68.848,52.246
1688815246.317,-172.363,-113.281,33.203,-71.777,54.199
1688815246.320,-140.137,-105.469,27.344,-88.379,-68.848
1688815246.324,-106.934,-98.633,27.344,-87.891,-86.426
1688815246.328,-91.309,-96.191,21.973,-49.805,-96.680
1688815246.332,-103.027,-92.773,16.602,-36.621,-123.047
1688815246.336,-124.512,-86.914,16.602,-40.527,27.832
1688815246.337,-90.332,-83.496,11.230,-49.805,235.840
1688815246.341,-52.734,-81.055,7.324,-43.945,315.430
1688815246.345,-56.152,-78.613,5.371,-33.691,55.664
1688815246.349,-67.871,-78.613,3.418,-39.551,-88.379
1688815246.353,-88.379,-77.148,-0.977,-39.062,-16.602
1688815246.357,-80.566,-75.684,-0.977,-51.758,-53.711
1688815246.361,-36.133,-68.359,-1.465,-62.988,-128.906
1688815246.364,-21.973,-65.430,-0.977,-47.852,-49.316
1688815246.368,-48.340,-65.430,-3.906,-37.598,234.375
1688815246.372,-75.195,-61.523,-2.441,-41.504,103.516
1688815246.376,-67.871,-58.594,-4.395,-64.453,-194.336
1688815246.380,-15.137,-57.129,-8.789,-73.242,-220.215
1688815246.382,16.602,-55.664,-8.301,-52.734,-190.918
1688815246.386,-2.930,-54.199,-8.789,-52.246,-195.801
1688815246.390,-30.273,-55.176,-10.254,-41.992,-118.164
1688815246.394,-23.926,-51.758,-12.207,-42.480,-72.754
1688815246.398,5.371,-51.758,-10.254,-54.199,-142.090
1688815246.402,9.766,-52.734,-10.254,-41.504,-86.914
1688815246.406,-6.836,-49.805,-13.672,-33.203,48.828
1688815246.409,-39.062,-50.781,-15.137,-19.043,240.234
1688815246.413,-47.852,-54.688,-15.137,-24.414,159.668
1688815246.417,-15.625,-51.758,-14.648,-43.457,-159.180
1688815246.421,0.977,-49.805,-16.113,-37.598,-158.691
1688815246.425,-8.789,-54.688,-16.602,-22.949,240.723
1688815246.427,-43.457,-54.688,-17.578,-17.578,349.609
1688815246.431,-51.270,-48.340,-18.555,-43.945,-36.133
1688815246.435,-23.438,-49.316,-18.066,-69.336,-239.258
1688815246.439,-11.230,-51.270,-25.391,-55.664,-119.141
1688815246.443,-6.836,-43.457,-23.926,-43.945,-47.363
1688815246.447,-50.293,-47.852,-14.648,-49.316,-40.527
1688815246.451,-94.238,-54.688,-21.484,-73.730,63.965
1688815246.454,-52.246,-48.340,-18.555,-81.543,176.758
1688815246.458,-15.137,-42.969,-15.625,-65.918,-84.473
1688815246.462,-26.855,-42.969,-17.578,-62.500,-218.750
1688815246.466,-47.852,-43.457,-17.090,-53.711,-55.664
1688815246.470,-67.383,-46.875,-23.926,-46.875,-2.930
1688815246.477,-41.992,-45.410,-25.879,-67.871,-145.020
1688815246.481,-5.859,-41.992,-22.461,-67.383,-184.082
1688815246.485,-4.395,-41.992,-19.531,-49.316,-66.895
1688815246.489,-22.949,-41.504,-16.602,-39.062,-57.129
1688815246.493,-43.945,-46.875,-22.461,-44.434,-64.453
1688815246.497,-25.879,-51.758,-30.273,-74.707,-19.531
1688815246.501,11.719,-46.875,-28.809,-74.219,103.027
1688815246.504,24.902,-41.016,-22.949,-56.641,97.168
1688815246.508,8.301,-38.574,-20.996,-60.547,-117.188
1688815246.512,-28.809,-36.133,-20.996,-63.477,-150.879
1688815246.516,-13.184,-33.691,-20.508,-83.496,-113.770
1688815246.520,30.762,-36.133,-21.484,-93.262,-44.922
1688815246.518,24.414,-37.598,-21.973,-88.867,-33.203
1688815246.522,-2.441,-36.133,-21.484,-94.727,-101.074
1688815246.526,-28.320,-38.574,-22.949,-83.984,-29.297
1688815246.530,-24.414,-38.574,-22.949,-109.375,-69.336
1688815246.534,10.742,-39.062,-20.996,-134.277,-147.461
1688815246.538,20.020,-40.039,-18.555,-119.629,-52.734
1688815246.542,-0.488,-39.062,-18.066,-94.238,305.664
1688815246.545,-25.391,-36.133,-18.066,-81.543,335.938
1688815246.549,-21.973,-37.109,-20.996,-123.535,-89.844
1688815246.553,7.812,-39.062,-21.484,-175.293,-212.891
1688815246.557,26.855,-38.574,-21.973,-179.199,-175.293
1688815246.561,24.902,-35.156,-23.438,-196.777,-246.094
1688815246.578,-8.301,-36.621,-24.414,-212.891,-204.102
1688815246.582,-13.184,-38.086,-28.809,-228.027,-115.723
1688815246.586,20.996,-32.715,-27.832,-242.188,-149.414
1688815246.590,26.855,-32.715,-25.391,-230.469,-154.297
1688815246.594,11.230,-37.598,-30.762,-234.375,-108.398
1688815246.598,-20.020,-39.062,-33.203,-229.980,183.594
1688815246.602,-31.250,-37.598,-30.273,-247.559,206.543
1688815246.605,2.930,-38.086,-32.227,-289.551,-202.148
1688815246.609,21.973,-36.621,-33.691,-257.324,-244.629
1688815246.613,14.648,-32.715,-32.715,-206.543,-52.734
1688815246.617,-17.090,-31.738,-33.691,-175.293,-25.391
1688815246.621,-30.273,-34.180,-34.180,-152.832,-0.488
1688815246.622,4.395,-33.203,-35.156,-155.762,1.465
1688815246.626,25.391,-36.133,-39.551,-127.441,70.801
1688815246.630,15.625,-34.180,-41.016,-93.750,-52.246
1688815246.634,-9.277,-26.855,-35.645,-73.730,-234.863
1688815246.638,-27.832,-31.250,-35.156,-76.660,-117.188
1688815246.642,1.953,-30.273,-35.645,-98.633,29.297
1688815246.646,20.996,-28.320,-37.598,-86.914,-20.996
1688815246.649,9.277,-32.715,-38.574,-68.359,-127.930
1688815246.653,-12.695,-32.227,-37.109,-46.875,-71.777
1688815246.657,-31.738,-26.367,-38.574,-28.320,209.473
1688815246.661,-6.836,-24.902,-37.109,-49.316,32.715
1688815246.665,15.625,-25.879,-40.527,-42.480,-171.875
1688815246.667,9.277,-27.832,-42.480,-27.832,-38.086
1688815246.671,-11.719,-33.203,-44.922,-21.484,28.320
1688815246.675,-33.203,-34.180,-43.945,-8.789,-32.227
1688815246.679,-13.184,-29.297,-40.039,-43.945,-120.605
1688815246.683,15.137,-23.926,-39.062,-50.781,-126.465
1688815246.687,23.926,-19.531,-40.527,-20.508,17.090
1688815246.691,-1.465,-23.438,-40.039,-18.066,51.758
1688815246.694,-42.969,-27.344,-38.574,-17.090,15.625
1688815246.698,-29.297,-26.855,-38.086,-36.133,168.457
1688815246.702,9.766,-26.855,-37.598,-31.738,235.840
1688815246.706,20.508,-29.785,-40.527,-15.625,-41.016
1688815246.710,4.883,-31.250,-35.645,-9.277,4.883
1688815246.712,-21.484,-30.762,-36.133,9.766,217.773
1688815246.716,-12.207,-32.715,-36.621,-7.812,31.250
1688815246.720,18.555,-30.273,-35.156,-20.020,-166.016
1688815246.724,14.648,-27.832,-41.504,-0.488,-152.344
1688815246.728,-2.441,-29.785,-42.480,6.836,-79.590
1688815246.732,-31.738,-36.621,-44.922,12.207,128.906
1688815246.736,-32.715,-39.551,-45.898,-17.578,42.969
1688815246.739,5.371,-40.527,-40.527,-36.133,-96.191
1688815246.743,9.766,-38.086,-39.062,-6.348,132.812
1688815246.747,-4.883,-34.180,-38.086,3.418,23.926
1688815246.751,-43.457,-39.062,-39.062,13.184,-122.559
1688815246.755,-51.758,-42.480,-43.457,-8.789,-40.527
1688815246.757,-11.719,-41.992,-43.945,-35.156,14.648
1688815246.761,3.418,-41.016,-44.434,-26.367,-155.762
1688815246.765,-11.230,-41.992,-48.340,-20.020,-232.422
1688815246.769,-38.086,-38.086,-46.875,-2.441,-125.488
1688815246.773,-46.875,-34.668,-43.457,-14.160,-94.238
1688815246.777,-10.254,-35.645,-41.504,-32.715,-184.570
1688815246.781,17.578,-38.574,-39.062,-5.859,-123.535
1688815246.784,3.906,-41.016,-35.645,6.836,73.730
1688815246.788,-28.809,-41.016,-37.109,0.977,83.008
1688815246.792,-45.410,-40.039,-35.645,-6.836,-88.867
1688815246.796,-16.113,-36.621,-31.250,-14.160,-166.016
1688815246.800,1.465,-38.086,-30.273,-0.488,-78.125
1688815246.802,-7.812,-38.086,-31.250,7.324,-2.441
1688815246.806,-26.855,-33.691,-27.832,14.648,-104.004
1688815246.810,-47.363,-38.574,-25.391,19.043,-125.488
1688815246.814,-13.672,-38.574,-26.367,0.488,73.730
1688815246.818,18.555,-35.156,-28.809,-7.324,-51.270
1688815246.822,8.789,-33.691,-29.785,-4.395,-133.789
1688815246.826,-11.719,-33.691,-31.738,0.488,22.461
1688815246.829,-35.156,-30.762,-34.180,7.812,190.918
1688815246.833,-19.531,-27.832,-40.039,-29.785,-27.344
1688815246.837,5.859,-31.738,-39.551,-39.551,-178.711
1688815246.841,5.859,-34.180,-36.133,-19.531,-78.125
1688815246.845,-6.836,-29.297,-32.715,-6.348,-64.941
1688815246.863,-26.855,-31.250,-31.738,2.930,-76.660
1688815246.867,-6.348,-35.156,-37.109,-21.484,-97.168
1688815246.871,23.438,-35.645,-37.109,-31.738,-17.578
1688815246.875,25.391,-30.762,-32.227,-17.090,-50.781
1688815246.879,13.184,-24.902,-31.738,-1.953,-151.367
1688815246.883,-19.531,-29.297,-32.227,2.441,9.766
1688815246.887,-20.508,-33.203,-30.762,-17.578,145.996
1688815246.890,19.043,-30.273,-26.367,-16.113,3.418
1688815246.894,24.902,-30.762,-22.461,2.930,-179.688
1688815246.898,7.324,-33.691,-26.367,1.953,-152.344
1688815246.902,-15.625,-32.227,-26.367,14.160,191.895
1688815246.906,-14.648,-34.668,-27.344,1.953,197.266
1688815246.907,18.555,-34.668,-33.691,-17.090,-114.746
1688815246.911,22.949,-35.156,-35.645,-5.371,-104.492
1688815246.915,5.371,-36.621,-36.621,2.441,36.133
1688815246.919,-22.949,-34.668,-36.133,13.184,-41.992
1688815246.923,-32.715,-35.645,-34.668,-5.859,-139.648
1688815246.927,-4.883,-36.621,-40.527,-23.926,-40.527
1688815246.931,8.301,-31.738,-36.621,-3.418,235.840
1688815246.934,-8.789,-34.668,-32.227,-6.836,48.828
1688815246.938,-42.969,-38.086,-34.668,-2.930,-157.227
1688815246.942,-48.340,-34.668,-29.785,-3.418,-77.637
1688815246.946,-14.648,-36.133,-31.738,-17.578,121.582
1688815246.950,7.324,-39.062,-35.645,-7.324,21.973
1688815246.939,-0.488,-35.645,-34.180,-0.977,-132.812
1688815246.943,-25.391,-33.203,-31.738,1.953,-18.066
1688815246.947,-40.527,-31.250,-30.273,-9.277,-44.922
1688815246.951,-20.020,-33.203,-41.016,-28.809,-201.660
1688815246.955,-6.348,-35.156,-39.551,-19.043,-191.406
1688815246.959,-9.766,-33.691,-31.738,-4.883,44.922
1688815246.963,-32.715,-34.180,-34.180,7.812,95.703
1688815246.966,-47.852,-34.668,-31.738,-2.441,-43.945
1688815246.970,-10.254,-26.367,-32.227,-35.645,-126.953
1688815246.974,17.090,-20.996,-31.250,-23.438,122.559
1688815246.978,-0.977,-29.785,-32.227,-10.742,229.492
1688815246.982,-29.785,-33.691,-37.598,-15.137,11.230
1688815246.997,-47.852,-32.715,-40.039,-3.906,-26.855
1688815247.001,-26.367,-33.203,-34.180,-21.484,-55.176
1688815247.005,-2.930,-33.203,-31.250,-32.715,-164.551
1688815247.009,-8.301,-32.227,-35.156,-19.531,-255.371
1688815247.013,-30.762,-29.785,-30.273,-13.184,-111.816
1688815247.017,-60.547,-35.156,-25.879,-11.719,357.422
1688815247.021,-41.504,-37.598,-32.227,-47.363,216.309
1688815247.024,-11.230,-35.645,-32.715,-62.500,-167.969
1688815247.028,-17.090,-36.133,-29.785,-52.734,-125.977
1688815247.032,-34.180,-30.273,-35.156,-47.852,222.168
1688815247.036,-57.617,-33.203,-41.504,-47.363,93.262
1688815247.040,-42.969,-37.109,-43.457,-74.707,-155.762
1688815247.042,0.488,-30.762,-42.480,-80.566,-177.246
1688815247.046,7.812,-29.297,-36.621,-70.801,-184.082
1688815247.050,-14.160,-28.320,-32.715,-57.129,-191.895
1688815247.054,-41.504,-29.297,-36.133,-33.203,-181.152
1688815247.058,-34.668,-33.691,-36.133,-46.387,-131.348
1688815247.062,-2.930,-33.691,-34.668,-48.340,-66.406
1688815247.066,8.789,-28.320,-32.227,-30.273,-101.074
1688815247.069,-9.277,-26.855,-30.762,-33.203,-124.023
1688815247.073,-47.852,-28.320,-30.762,-20.508,144.043
1688815247.077,-41.992,-25.391,-29.785,-29.785,111.816
1688815247.081,-6.348,-29.785,-27.344,-48.340,-147.461
1688815247.085,7.324,-28.809,-21.973,-20.020,-120.605
1688815247.087,-5.859,-30.273,-22.461,5.371,187.012
1688815247.091,-46.387,-35.645,-23.438,2.441,183.105
1688815247.095,-44.434,-32.715,-24.414,-17.578,-55.664
1688815247.099,-10.742,-34.668,-25.879,-35.645,-158.691
1688815247.103,-3.906,-33.203,-22.949,-17.090,-156.738
1688815247.107,-14.648,-32.715,-24.902,-6.348,18.066
1688815247.111,-38.574,-37.109,-26.367,-7.812,76.660
1688815247.114,-46.387,-36.133,-29.785,-17.578,1.465
1688815247.118,-7.324,-31.738,-27.832,-35.645,104.492
1688815247.122,12.695,-29.297,-23.438,-29.297,-71.289
1688815247.126,0.977,-29.297,-27.344,-29.297,-188.477
1688815247.130,-29.297,-27.344,-28.320,-23.926,-52.246
1688815247.133,-38.574,-30.762,-28.320,-30.762,-94.238
1688815247.137,-3.906,-35.156,-32.227,-57.129,-206.055
1688815247.141,20.508,-33.203,-32.715,-41.504,-233.887
1688815247.145,12.207,-28.809,-26.855,-21.484,-71.777
1688815247.149,-21.484,-28.320,-23.926,-13.184,14.648
1688815247.153,-33.691,-31.250,-22.949,-24.414,-21.973
1688815247.157,-5.859,-24.414,-21.484,-47.852,-64.941
1688815247.160,18.555,-24.414,-23.438,-36.133,90.332
1688815247.164,18.066,-27.344,-26.367,-26.855,82.031
1688815247.168,-9.277,-26.855,-26.855,-27.344,-139.160
1688815247.172,-36.621,-29.297,-26.367,-21.973,-74.219
1688815247.176,-13.672,-29.297,-25.391,-41.992,68.848
1688815247.177,8.789,-30.273,-24.902,-47.852,-53.711
1688815247.181,4.883,-29.785,-25.879,-33.691,-254.395
1688815247.185,-14.160,-31.250,-25.391,-10.742,-154.785
1688815247.189,-37.109,-33.203,-27.344,4.883,53.223
1688815247.193,-23.438,-38.574,-29.297,-25.391,-51.270
1688815247.197,13.672,-40.039,-26.367,-36.133,-135.742
1688815247.201,16.602,-36.133,-21.973,-16.113,-41.016
1688815247.204,-14.648,-37.109,-21.484,0.977,245.117
1688815247.208,-39.551,-39.551,-23.438,-5.859,198.730
1688815247.212,-25.879,-39.551,-24.902,-39.551,-83.008
1688815247.216,-2.441,-38.574,-23.926,-43.945,-149.902
1688815247.220,2.930,-37.109,-23.926,-30.273,-113.281
1688815247.222,-3.418,-30.762,-24.902,-21.973,-63.477
1688815247.226,-24.414,-29.297,-23.926,-12.207,-49.805
1688815247.230,-12.695,-31.738,-27.832,-39.551,-11.719
1688815247.234,18.555,-31.250,-33.203,-47.363,-94.238
1688815247.238,18.555,-32.715,-34.180,-30.273,-163.086
1688815247.242,1.953,-34.668,-33.203,-19.043,-78.613
1688815247.246,-27.344,-33.691,-34.180,-1.465,266.113
1688815247.249,-20.996,-29.785,-31.738,-14.648,331.543
1688815247.253,16.113,-26.855,-29.785,-23.438,-91.309
1688815247.257,27.832,-24.902,-28.809,2.930,-220.703
1688815247.261,9.277,-24.414,-22.949,11.719,138.184
1688815247.265,-32.227,-25.879,-23.926,9.277,284.668
1688815247.282,-40.039,-27.344,-26.367,-14.160,-15.137
1688815247.286,-10.742,-29.297,-26.367,-36.621,-127.441
1688815247.290,-8.789,-28.809,-25.879,-21.973,-8.789
1688815247.294,-19.043,-28.809,-31.738,-14.648,-71.289
1688815247.298,-45.898,-27.832,-32.227,-8.301,-93.262
1688815247.302,-54.199,-27.832,-31.250,-12.207,80.078
1688815247.306,-16.113,-23.438,-30.273,-39.062,205.566
1688815247.309,-12.695,-24.902,-31.250,-41.504,-12.695
1688815247.313,-40.527,-29.785,-32.715,-37.109,-125.000
1688815247.317,-74.219,-29.297,-35.156,-32.715,-23.438
1688815247.321,-86.914,-30.762,-36.133,-50.781,-31.738
1688815247.325,-52.246,-31.738,-30.762,-76.172,-143.066
1688815247.328,-20.508,-27.832,-27.344,-60.059,-194.336
1688815247.332,-21.484,-24.414,-30.273,-45.898,-86.914
1688815247.336,-47.852,-25.879,-34.180,-37.598,18.555
1688815247.340,-51.270,-25.391,-35.156,-29.785,-130.859
1688815247.344,-17.090,-24.902,-37.598,-43.945,-214.355
1688815247.348,0.000,-24.414,-36.133,-30.273,-79.102
1688815247.352,-6.348,-25.391,-37.598,-19.531,-48.340
1688815247.355,-24.902,-30.762,-38.086,-15.625,-104.980
1688815247.359,-30.273,-28.320,-32.227,-7.812,-140.137
1688815247.363,-9.766,-29.785,-33.691,-28.809,-8.789
1688815247.367,11.230,-34.668,-36.621,-31.738,27.344
1688815247.371,8.789,-28.320,-35.645,-16.602,-68.848
1688815247.372,-24.414,-25.391,-38.086,-11.719,-37.109
1688815247.376,-43.457,-27.832,-35.645,-14.648,191.895
1688815247.380,-21.973,-27.344,-35.645,-41.016,31.250
1688815247.384,1.465,-26.367,-36.621,-42.480,-205.078
1688815247.388,3.906,-23.926,-31.738,-35.156,-144.043
1688815247.392,-18.066,-22.949,-30.762,-23.926,-34.668
1688815247.396,-46.387,-21.973,-28.809,-15.625,15.137
1688815247.399,-30.273,-20.020,-29.785,-53.711,-123.535
1688815247.403,3.418,-24.902,-27.832,-55.664,-136.719
1688815247.407,0.000,-28.809,-28.809,-25.879,166.016
1688815247.411,-21.484,-27.344,-34.668,-31.738,53.711
1688815247.415,-45.898,-28.809,-36.621,-35.156,-105.957
1688815247.422,-39.062,-30.762,-31.738,-61.523,-69.824
1688815247.426,-3.418,-24.902,-25.391,-72.266,-143.066
1688815247.430,2.441,-21.973,-23.926,-52.734,-154.297
1688815247.434,-8.789,-23.438,-25.879,-37.598,-180.664
1688815247.438,-36.621,-22.949,-22.949,-23.926,-4.395
1688815247.442,-50.293,-25.391,-25.391,-50.781,21.973
1688815247.446,-20.508,-30.273,-35.156,-65.918,-81.055
1688815247.449,-3.418,-32.227,-33.203,-40.039,-90.820
1688815247.453,-12.207,-27.832,-29.785,-28.809,45.410
1688815247.457,-43.945,-26.367,-33.691,-20.020,39.551
1688815247.461,-47.363,-31.738,-35.156,-28.809,-129.395
1688815247.465,-7.812,-28.809,-31.738,-45.898,-77.637
1688815247.463,-1.465,-24.414,-34.668,-39.062,77.148
1688815247.467,-11.230,-26.855,-36.621,-31.738,-44.922
1688815247.471,-30.273,-31.250,-32.227,-20.996,-157.715
1688815247.475,-39.062,-31.738,-30.762,-31.738,17.578
1688815247.479,-9.766,-27.832,-30.273,-43.945,250.000
1688815247.483,4.395,-28.809,-35.156,-40.527,148.438
1688815247.487,-8.301,-29.297,-36.621,-41.016,-80.078
1688815247.490,-43.457,-30.273,-36.621,-30.762,-45.410
1688815247.494,-66.895,-33.203,-35.156,-24.414,304.688
1688815247.498,-40.527,-35.645,-31.738,-50.781,221.191
1688815247.502,-11.719,-33.203,-30.273,-46.875,-201.660
1688815247.506,-22.461,-33.203,-31.738,-35.156,-111.816
1688815247.507,-50.293,-40.039,-34.180,-29.785,151.367
1688815247.511,-62.988,-39.062,-34.668,-40.527,-31.250
1688815247.515,-36.621,-36.133,-34.180,-62.012,-219.727
1688815247.519,-11.719,-38.574,-31.738,-46.875,-152.344
1688815247.523,-19.043,-37.598,-33.691,-40.039,-161.133
1688815247.527,-35.156,-36.133,-38.574,-27.832,-84.473
1688815247.531,-49.316,-35.156,-35.156,-22.461,-1.953
1688815247.534,-24.902,-34.668,-32.715,-34.180,203.125
1688815247.538,8.301,-31.250,-32.715,-16.602,283.691
1688815247.542,8.789,-25.879,-31.738,-6.348,-129.395
1688815247.546,-24.414,-25.879,-34.668,-12.207,-191.406
1688815247.550,-52.734,-26.855,-37.109,-8.301,273.926
1688815247.552,-31.738,-26.855,-36.621,-26.855,143.066
1688815247.556,-0.488,-31.738,-36.133,-44.922,-190.430
1688815247.560,6.836,-33.691,-34.180,-35.156,-138.184
1688815247.564,-23.926,-36.133,-33.691,-21.484,6.348
1688815247.568,-56.152,-36.133,-33.691,-16.113,-14.648
1688815247.572,-36.133,-32.227,-37.598,-39.551,-65.430
1688815247.576,-11.719,-32.715,-44.434,-53.711,15.625
1688815247.579,-15.625,-41.016,-41.992,-41.016,101.074
1688815247.583,-23.926,-42.969,-40.039,-31.250,-47.852
1688815247.587,-42.480,-37.109,-40.527,-23.926,-88.379
1688815247.591,-34.180,-37.109,-39.062,-44.434,13.672
1688815247.595,-4.883,-35.645,-36.621,-45.898,198.242
1688815247.612,2.930,-33.203,-41.992,-32.227,63.965
1688815247.616,-13.672,-31.738,-41.504,-34.668,-157.227
1688815247.620,-43.945,-31.250,-44.434,-18.066,-49.316
1688815247.624,-43.945,-34.668,-46.387,-30.762,-77.148
1688815247.628,-19.531,-37.598,-42.480,-46.875,-179.688
1688815247.632,-12.207,-40.527,-45.410,-31.738,-124.512
1688815247.636,-28.320,-43.945,-42.480,-21.484,191.406
1688815247.639,-63.965,-41.016,-40.527,-1.465,289.551
1688815247.643,-71.777,-40.039,-43.945,-20.996,-83.496
1688815247.647,-25.391,-38.574,-38.574,-38.086,-227.539
1688815247.651,-3.418,-34.180,-36.621,-17.578,-59.082
1688815247.655,-12.695,-30.273,-33.691,-14.648,-85.449
1688815247.644,-33.203,-29.785,-36.133,-7.324,-175.781
1688815247.648,-46.387,-32.227,-39.551,-13.672,-135.254
1688815247.652,-15.137,-33.691,-35.156,-26.855,56.152
1688815247.656,-3.418,-32.715,-40.039,-23.926,-62.500
1688815247.660,-17.090,-29.297,-42.969,-18.555,-213.379
1688815247.664,-44.434,-25.391,-37.109,-10.742,-25.879
1688815247.668,-58.594,-31.250,-35.645,-25.879,99.609
1688815247.671,-30.762,-39.062,-35.156,-54.199,-45.410
1688815247.675,-7.324,-37.109,-31.250,-40.039,-226.074
1688815247.679,-4.883,-33.203,-33.691,-20.508,-102.051
1688815247.683,-24.414,-38.574,-38.574,-7.812,185.059
1688815247.687,-43.457,-40.527,-39.062,-15.137,28.809
1688815247.692,-12.695,-34.668,-38.574,-41.504,-131.836
1688815247.696,11.719,-29.785,-42.969,-42.480,-115.234
1688815247.700,3.906,-31.738,-47.363,-31.738,-142.090
1688815247.704,-14.160,-33.691,-51.270,-31.738,-109.375
1688815247.708,-32.227,-36.133,-54.688,-39.062,-142.090
1688815247.712,-26.367,-45.898,-53.223,-56.641,124.512
1688815247.716,-9.277,-47.852,-50.781,-51.758,306.641
1688815247.719,-5.859,-42.969,-48.340,-39.551,-156.250
1688815247.723,-30.273,-43.457,-44.434,-35.156,-182.617
1688815247.727,-59.082,-41.016,-42.480,-34.668,147.461
1688815247.731,-39.062,-39.062,-45.898,-62.500,-71.777
1688815247.735,-16.113,-43.945,-44.434,-65.430,-241.699
1688815247.748,-21.973,-46.875,-44.434,-41.504,-83.496
1688815247.752,-42.969,-43.945,-44.922,-21.484,161.133
1688815247.756,-77.637,-41.992,-43.945,-15.137,88.379
1688815247.760,-71.289,-45.898,-52.734,-47.363,-139.160
1688815247.764,-36.621,-47.852,-54.688,-61.035,-164.551
1688815247.768,-24.902,-41.016,-47.363,-34.180,270.996
1688815247.772,-34.668,-39.551,-43.945,-15.137,477.539
1688815247.775,-58.105,-37.598,-41.992,-15.625,69.824
1688815247.779,-41.504,-32.715,-42.969,-30.273,-117.188
1688815247.783,-2.930,-32.227,-45.898,-41.992,-180.176
1688815247.787,-2.441,-33.691,-50.293,-30.762,-242.188
1688815247.791,-15.625,-38.574,-49.316,-14.648,-134.766
1688815247.792,-48.828,-35.156,-46.875,-12.695,1.953
1688815247.796,-53.711,-33.203,-44.434,-39.062,-32.715
1688815247.800,-14.648,-39.062,-44.922,-62.012,-160.156
1688815247.804,1.465,-35.156,-50.293,-51.758,-142.090
1688815247.808,-10.254,-29.297,-51.270,-48.340,-92.285
1688815247.812,-38.086,-31.738,-52.734,-46.875,-41.992
1688815247.816,-34.668,-29.297,-50.781,-56.152,-47.852
1688815247.819,-2.930,-29.785,-43.457,-62.988,-147.949
1688815247.823,5.371,-33.691,-47.363,-42.480,78.613
1688815247.827,-14.648,-39.551,-49.805,-33.691,184.570
