timestamps,TP9,AF7,AF8,TP10,Right AUX
1688815546.144,-22.949,-20.020,-31.738,-17.578,-187.012
1688815546.148,-53.711,-25.391,-28.809,-23.438,-90.820
1688815546.152,-44.922,-23.438,-27.832,-38.574,-72.266
1688815546.156,-19.043,-25.391,-28.320,-37.598,-136.230
1688815546.160,-23.926,-32.715,-32.715,-39.551,-124.023
1688815546.164,-55.176,-29.785,-32.715,-40.527,-51.758
1688815546.168,-79.590,-24.902,-30.273,-32.715,-49.805
1688815546.171,-68.359,-25.879,-31.250,-55.176,-7.324
1688815546.175,-41.504,-26.367,-35.645,-62.988,-49.316
1688815546.179,-27.344,-25.879,-34.180,-33.691,71.777
1688815546.183,-36.621,-27.832,-27.832,-27.832,79.102
1688815546.187,-62.988,-29.785,-25.879,-26.367,-94.727
1688815546.189,-55.664,-27.832,-26.367,-36.621,-65.430
1688815546.193,-30.273,-29.297,-27.832,-50.293,-81.543
1688815546.197,-17.578,-29.297,-29.297,-35.156,-90.332
1688815546.201,-26.855,-28.320,-26.855,-22.949,-121.094
1688815546.205,-58.105,-28.320,-26.855,-8.789,-60.059
1688815546.209,-59.570,-27.344,-26.855,-24.414,20.996
1688815546.213,-29.297,-28.809,-27.832,-45.410,-44.434
1688815546.216,-13.672,-25.879,-27.832,-37.109,-86.914
1688815546.220,-15.137,-20.996,-25.391,-29.785,83.008
1688815546.224,-41.016,-27.832,-24.902,-10.742,434.570
1688815546.228,-50.781,-34.180,-25.879,-21.973,181.641
1688815546.232,-21.484,-30.273,-27.832,-48.340,-227.051
1688815546.234,-11.230,-31.250,-33.203,-44.922,-167.480
1688815546.238,-14.160,-35.156,-36.621,-35.156,-76.660
1688815546.242,-26.855,-29.785,-31.738,-19.531,-158.203
1688815546.246,-49.805,-29.297,-34.668,-23.926,-197.754
1688815546.250,-34.668,-30.273,-34.180,-41.992,-157.227
1688815546.254,-21.973,-32.227,-30.762,-34.668,-92.773
1688815546.258,-29.785,-33.203,-28.809,-37.598,-64.941
1688815546.261,-45.898,-30.762,-31.250,-39.062,-29.297
1688815546.265,-59.570,-34.668,-32.227,-41.504,198.730
1688815546.269,-35.645,-33.691,-30.762,-61.035,95.215
1688815546.273,-17.578,-33.203,-34.668,-56.152,-153.809
1688815546.277,-21.973,-36.621,-35.645,-43.945,-32.227
1688815546.279,-40.039,-39.062,-36.133,-31.250,104.004
1688815546.283,-63.965,-37.109,-35.156,-36.621,-40.039
1688815546.287,-48.828,-34.668,-40.039,-62.988,-203.125
1688815546.291,-25.879,-32.227,-37.109,-49.316,-151.855
1688815546.295,-35.156,-33.691,-38.086,-34.180,-139.648
1688815546.299,-47.363,-33.203,-43.457,-27.832,-83.008
1688815546.303,-63.965,-35.156,-40.039,-27.344,26.367
1688815546.306,-60.059,-38.574,-40.039,-51.758,130.859
1688815546.310,-36.621,-39.062,-40.527,-51.270,225.098
1688815546.314,-28.809,-37.109,-38.086,-39.062,-33.691
1688815546.318,-42.969,-33.691,-35.645,-31.738,-141.602
1688815546.322,-61.035,-32.227,-32.227,-20.508,71.777
1688815546.340,-47.363,-29.297,-27.832,-42.480,49.805
1688815546.344,-29.785,-28.809,-28.809,-54.688,-96.191
1688815546.348,-30.273,-34.668,-31.738,-41.992,-136.230
1688815546.352,-53.223,-40.039,-33.691,-37.598,-16.602
1688815546.356,-85.449,-45.898,-37.109,-39.551,-0.977
1688815546.360,-75.684,-44.434,-34.668,-63.965,-185.059
1688815546.364,-46.387,-35.645,-28.320,-72.754,-105.957
1688815546.367,-42.969,-34.180,-26.855,-58.105,153.320
1688815546.371,-52.246,-35.645,-29.297,-56.641,51.270
1688815546.375,-70.801,-32.715,-32.715,-54.199,-206.055
1688815546.379,-78.613,-34.180,-36.621,-68.359,-202.637
1688815546.383,-50.781,-41.504,-39.062,-79.102,-170.410
1688815546.370,-30.273,-35.645,-41.504,-68.359,-131.348
1688815546.374,-39.551,-31.738,-36.133,-67.871,-133.301
1688815546.378,-68.359,-33.203,-30.273,-61.035,-34.668
1688815546.382,-70.312,-28.809,-27.832,-62.012,-10.742
1688815546.386,-31.250,-30.762,-24.902,-71.777,-137.207
1688815546.390,-15.137,-32.715,-27.832,-52.734,-156.250
1688815546.394,-22.949,-27.832,-29.785,-33.691,57.129
1688815546.397,-46.387,-25.391,-32.227,-20.996,160.156
1688815546.401,-61.035,-28.809,-37.109,-23.926,-23.438
1688815546.405,-31.250,-27.832,-38.086,-45.898,-197.754
1688815546.409,-0.488,-22.949,-40.039,-24.414,-0.488
1688815546.413,6.348,-25.879,-27.344,19.043,335.449
1688815546.414,-29.297,-33.203,-15.625,13.672,103.027
1688815546.418,-67.871,-40.039,-19.043,-29.297,-104.492
1688815546.422,-53.223,-46.875,-16.602,-59.082,-60.059
1688815546.426,-29.785,-48.828,-8.301,-46.875,-131.836
1688815546.430,-40.039,-49.316,-2.441,-25.391,-149.414
1688815546.434,-74.707,-53.711,-3.906,-21.484,7.812
1688815546.438,-97.656,-63.965,-4.883,-24.414,285.156
1688815546.441,-80.566,-72.266,-1.465,-36.133,109.863
1688815546.445,-58.105,-74.707,2.441,-31.250,-162.109
1688815546.449,-61.035,-77.637,8.301,-20.996,-106.445
1688815546.453,-84.473,-81.543,13.672,-15.625,-21.484
1688815546.457,-111.328,-84.473,15.625,-28.809,-66.895
1688815546.460,-95.215,-87.402,20.508,-59.570,-189.453
1688815546.464,-65.918,-89.844,26.367,-48.340,-130.859
1688815546.468,-64.941,-91.309,24.414,-27.344,-69.336
1688815546.472,-82.520,-90.820,21.973,-15.137,-83.008
1688815546.476,-102.051,-91.797,23.926,-2.930,-106.934
1688815546.480,-87.402,-91.309,23.926,-20.508,-26.855
1688815546.484,-62.012,-89.355,24.902,-21.973,61.035
1688815546.487,-54.199,-86.914,31.250,-5.859,-38.086
1688815546.491,-62.988,-84.961,35.156,0.000,-77.637
1688815546.495,-88.379,-89.844,32.715,4.883,117.676
1688815546.499,-83.496,-89.355,33.203,-6.348,297.363
1688815546.503,-58.594,-85.938,36.621,-13.184,-14.648
1688815546.519,-47.363,-89.844,41.016,4.883,-241.699
1688815546.523,-59.570,-92.773,43.457,16.602,-163.574
1688815546.527,-89.355,-87.402,39.062,20.996,-110.840
1688815546.531,-79.590,-86.914,35.156,-1.953,-158.691
1688815546.535,-49.316,-88.379,33.203,-10.742,-140.625
1688815546.539,-44.922,-81.055,38.574,10.742,35.156
1688815546.543,-56.152,-82.520,40.039,5.371,2.930
1688815546.546,-73.730,-84.473,36.621,20.020,-105.957
1688815546.550,-62.012,-80.078,37.598,27.344,-84.961
1688815546.554,-34.668,-80.566,34.180,1.465,24.414
1688815546.558,-34.668,-78.613,19.531,-0.488,-18.066
1688815546.562,-45.410,-74.219,8.301,-3.418,-83.008
1688815546.565,-60.547,-71.777,7.812,6.348,-0.488
1688815546.569,-65.430,-67.383,9.277,0.000,10.254
1688815546.573,-50.293,-67.871,8.301,-37.598,-183.594
1688815546.577,-36.621,-66.895,6.836,-28.809,-219.238
1688815546.581,-41.504,-61.523,1.953,-19.043,-93.750
1688815546.585,-66.406,-57.129,1.953,-8.301,90.820
1688815546.589,-81.055,-58.105,3.418,-16.113,20.020
1688815546.592,-60.059,-58.105,-3.418,-41.992,-71.777
1688815546.596,-39.062,-52.246,-4.395,-40.527,109.863
1688815546.600,-35.645,-48.828,-2.930,-24.414,259.277
1688815546.604,-57.129,-51.270,-5.371,-8.789,66.406
1688815546.608,-72.754,-49.316,-2.930,-10.254,-97.168
1688815546.610,-41.016,-45.410,1.465,-22.949,-64.453
1688815546.614,-17.578,-48.340,1.465,-16.113,-51.270
1688815546.618,-28.809,-47.852,-0.488,-9.277,-128.906
1688815546.622,-57.129,-47.363,-5.371,-4.395,-92.285
1688815546.626,-71.289,-51.758,-9.277,-8.789,11.719
1688815546.630,-50.293,-51.270,-10.742,-36.133,1.953
1688815546.634,-36.133,-51.758,-12.695,-41.016,32.715
1688815546.637,-48.828,-53.711,-17.578,-47.852,-13.672
1688815546.641,-70.801,-48.340,-15.625,-34.668,183.594
1688815546.645,-89.844,-40.527,-11.719,-15.625,234.375
1688815546.649,-69.336,-39.551,-17.578,-47.852,-130.371
1688815546.653,-43.945,-42.969,-23.926,-58.105,-150.879
1688815546.655,-46.387,-43.457,-25.391,-50.293,-72.266
1688815546.659,-54.688,-40.039,-22.461,-47.852,-56.152
1688815546.663,-67.871,-36.621,-23.438,-39.062,-84.473
1688815546.667,-46.875,-39.551,-27.344,-51.758,-4.883
1688815546.671,-9.766,-39.062,-23.926,-50.293,38.086
1688815546.675,0.977,-28.320,-23.926,-29.785,-12.207
1688815546.679,-4.883,-27.344,-27.344,-27.832,29.297
1688815546.682,-28.320,-31.250,-26.855,-23.438,165.039
1688815546.686,-18.066,-27.344,-29.785,-33.203,376.465
1688815546.690,9.766,-30.273,-28.809,-37.109,96.191
1688815546.694,0.488,-33.203,-25.391,-27.344,-177.246
1688815546.698,-29.785,-34.668,-20.508,-32.715,-57.617
1688815546.700,-64.453,-37.109,-18.066,-23.438,0.488
1688815546.704,-63.965,-41.504,-20.508,-44.922,-153.320
1688815546.708,-36.621,-40.527,-20.020,-66.895,-155.762
1688815546.712,-33.203,-41.992,-26.367,-49.316,-98.145
1688815546.716,-39.062,-42.969,-27.344,-41.992,-141.602
1688815546.720,-62.500,-37.109,-24.414,-32.227,-20.996
1688815546.724,-81.543,-40.527,-33.691,-49.316,6.836
1688815546.727,-53.223,-40.039,-29.785,-63.477,197.754
1688815546.731,-34.180,-34.180,-21.484,-38.574,216.797
1688815546.735,-45.410,-31.738,-21.484,-41.016,-115.723
1688815546.739,-61.523,-28.809,-20.996,-40.527,-98.633
1688815546.743,-62.500,-27.344,-22.461,-47.852,-71.777
1688815546.744,-37.598,-29.297,-24.414,-72.754,-175.293
1688815546.748,-21.484,-27.832,-23.926,-52.734,-195.312
1688815546.752,-27.832,-26.855,-22.949,-35.645,-112.305
1688815546.756,-47.363,-24.902,-18.066,-20.508,-45.898
1688815546.760,-58.594,-24.414,-17.578,-18.066,-103.027
1688815546.764,-35.645,-27.832,-23.926,-42.480,-205.566
1688815546.768,-22.949,-28.809,-25.391,-41.504,71.289
1688815546.771,-33.691,-26.855,-26.367,-33.203,308.105
1688815546.775,-53.223,-27.344,-25.879,-25.879,74.707
1688815546.779,-75.684,-29.785,-24.902,-30.762,-72.754
1688815546.783,-57.129,-31.738,-28.809,-46.875,18.066
1688815546.787,-35.645,-31.250,-29.297,-36.621,65.430
1688815546.789,-32.715,-30.273,-25.879,-40.527,-207.031
1688815546.793,-35.645,-31.738,-23.438,-26.855,-196.289
1688815546.797,-57.617,-33.691,-25.391,-19.531,-71.289
1688815546.801,-51.758,-30.273,-27.344,-57.617,-145.020
1688815546.805,-23.926,-28.320,-27.832,-53.711,-170.410
1688815546.809,-27.344,-32.227,-25.879,-41.992,-17.578
1688815546.813,-41.992,-30.273,-19.531,-24.902,157.715
1688815546.816,-51.270,-28.320,-17.578,-6.836,62.012
1688815546.820,-32.227,-31.250,-7.812,-14.648,-160.156
1688815546.824,-3.418,-33.203,-6.348,-13.672,-189.941
1688815546.828,0.977,-33.203,-9.766,-3.418,104.980
1688815546.832,-18.555,-32.227,-9.766,6.836,54.688
1688815546.834,-47.363,-33.691,-13.184,3.906,-142.578
1688815546.838,-33.691,-30.273,-14.648,-22.949,-56.641
1688815546.842,-18.066,-31.738,-15.137,-38.574,-127.930
1688815546.846,-23.438,-37.598,-19.531,-29.297,-167.480
1688815546.850,-32.227,-32.715,-22.949,-15.137,-165.039
1688815546.854,-59.570,-27.344,-21.484,-5.371,-14.160
1688815546.858,-51.758,-24.902,-20.020,-24.902,7.812
1688815546.861,-21.484,-26.855,-23.926,-39.551,-126.465
1688815546.865,-16.602,-29.297,-27.344,-30.762,-142.578
1688815546.869,-26.367,-30.762,-23.926,-14.648,20.508
1688815546.873,-49.316,-29.785,-19.043,13.672,236.816
1688815546.877,-45.898,-28.320,-15.625,0.000,17.578
1688815546.895,-16.113,-30.762,-13.672,-23.926,-147.461
1688815546.899,-7.812,-29.785,-14.160,-13.672,-94.238
1688815546.903,-24.902,-28.809,-15.625,-12.695,-28.809
1688815546.907,-49.805,-29.297,-16.113,-17.090,-45.898
1688815546.911,-52.246,-29.785,-14.648,-21.484,-78.125
1688815546.915,-29.297,-32.715,-22.461,-39.551,-50.293
1688815546.919,-21.484,-37.109,-31.250,-30.762,-64.941
1688815546.922,-30.762,-37.109,-29.785,-19.043,-104.980
1688815546.926,-42.480,-30.762,-26.367,-13.184,-75.195
1688815546.930,-51.270,-29.297,-23.926,-23.438,95.703
1688815546.934,-26.855,-26.855,-20.996,-42.969,-3.418
1688815546.938,-10.742,-29.297,-19.531,-34.668,-152.832
1688815546.940,-19.043,-29.297,-16.602,-28.809,-45.898
1688815546.944,-37.109,-28.809,-15.137,-17.090,-40.527
1688815546.948,-56.641,-30.762,-19.043,-6.836,19.043
1688815546.952,-34.668,-25.879,-17.090,-23.438,-54.688
1688815546.956,-12.695,-24.414,-13.672,-15.625,-55.664
1688815546.960,-28.320,-23.926,-19.531,-6.348,112.793
1688815546.964,-54.688,-27.344,-21.484,-0.977,45.410
1688815546.967,-68.359,-33.203,-16.602,1.953,15.625
1688815546.971,-45.410,-32.715,-17.090,-19.531,36.621
1688815546.975,-14.648,-27.832,-14.648,-0.488,262.695
1688815546.979,-11.719,-30.762,-12.207,4.395,81.055
1688815546.983,-37.598,-33.691,-11.230,-5.859,-148.438
1688815546.984,-55.664,-36.621,-14.160,-1.465,-36.133
1688815546.988,-36.133,-37.109,-17.090,-31.250,-91.309
1688815546.992,-4.395,-28.809,-18.555,-41.016,-215.820
1688815546.996,-9.766,-29.297,-24.414,-28.320,-127.441
1688815547.000,-33.203,-27.832,-29.297,-26.367,-39.062
1688815547.004,-51.270,-22.949,-30.762,-31.738,-13.672
1688815547.008,-47.852,-23.926,-32.227,-52.246,4.883
1688815547.011,-28.809,-23.438,-30.273,-53.223,-45.410
1688815547.015,-32.715,-23.926,-31.250,-33.203,129.883
1688815547.019,-44.434,-25.879,-34.180,-20.996,156.250
1688815547.023,-55.664,-28.809,-29.297,-7.812,-145.996
1688815547.027,-54.688,-25.879,-20.996,-38.086,-168.457
1688815547.030,-27.832,-28.809,-20.996,-53.711,-166.016
1688815547.034,-17.578,-35.645,-22.949,-29.785,-231.445
1688815547.038,-29.297,-33.691,-16.602,-23.438,-176.270
1688815547.042,-47.363,-31.250,-9.277,-14.160,-61.523
1688815547.046,-45.898,-27.832,-6.836,-29.297,-103.516
1688815547.050,-20.508,-27.344,-2.930,-38.574,-135.742
1688815547.054,-15.625,-28.320,-4.883,-21.973,-50.293
1688815547.057,-24.902,-28.809,-6.836,-18.555,109.863
1688815547.061,-44.434,-27.832,-0.488,-7.324,533.203
1688815547.065,-45.898,-29.785,-2.441,-24.414,366.699
1688815547.069,-20.020,-34.668,-9.277,-49.316,-202.637
1688815547.073,-10.254,-31.250,-9.766,-31.738,-191.406
1688815547.074,-19.043,-25.879,-8.301,-29.297,-133.301
1688815547.078,-42.969,-28.320,-12.695,-29.785,-188.477
1688815547.082,-49.805,-34.668,-20.508,-41.992,-147.461
1688815547.086,-22.949,-38.086,-20.508,-63.477,-123.047
1688815547.090,-2.930,-34.180,-18.555,-51.270,-97.168
1688815547.094,-9.277,-30.273,-19.043,-48.340,-18.555
1688815547.098,-32.715,-28.809,-20.020,-41.504,-48.340
1688815547.101,-48.828,-28.320,-20.996,-29.785,125.000
1688815547.105,-34.668,-32.227,-25.391,-50.293,58.594
1688815547.109,-21.973,-29.297,-20.996,-46.387,-173.828
1688815547.113,-33.691,-27.344,-16.602,-38.574,-46.387
1688815547.117,-56.641,-31.250,-16.602,-26.367,-53.223
1688815547.119,-70.801,-35.156,-18.066,-20.020,-141.602
1688815547.123,-47.852,-32.715,-20.020,-49.805,-171.875
1688815547.127,-27.832,-31.250,-18.555,-41.016,-165.039
1688815547.131,-39.062,-34.668,-19.043,-27.344,-136.719
1688815547.135,-61.035,-37.109,-22.949,-38.574,-100.098
1688815547.139,-79.590,-32.715,-23.926,-49.316,-82.031
1688815547.143,-67.383,-28.809,-20.996,-64.941,42.480
1688815547.146,-36.133,-24.902,-16.602,-52.246,375.000
1688815547.150,-33.691,-22.461,-18.066,-41.992,123.535
1688815547.154,-51.270,-25.391,-16.113,-36.133,-197.754
1688815547.158,-68.359,-21.973,-13.672,-26.855,-13.672
1688815547.162,-57.129,-15.625,-9.766,-49.805,2.441
1688815547.169,-35.156,-18.066,-10.254,-58.105,-83.984
1688815547.173,-38.574,-25.879,-20.508,-50.293,-130.859
1688815547.177,-51.758,-29.785,-20.020,-31.250,-63.477
1688815547.181,-76.172,-25.879,-18.555,-17.578,68.359
1688815547.185,-70.312,-24.414,-17.578,-50.293,-67.871
1688815547.189,-36.621,-26.367,-18.555,-58.594,-115.234
1688815547.193,-37.598,-23.926,-22.949,-41.504,234.375
1688815547.196,-64.453,-23.438,-23.438,-35.645,145.996
1688815547.200,-83.008,-25.879,-21.973,-25.879,-88.379
1688815547.204,-63.965,-27.344,-17.578,-41.016,-39.551
1688815547.208,-42.969,-27.344,-14.160,-47.363,-89.355
1688815547.212,-48.828,-31.738,-15.137,-34.180,-89.844
1688815547.210,-62.988,-35.645,-11.719,-24.902,-50.781
1688815547.214,-96.191,-32.715,-10.742,-17.090,54.199
1688815547.218,-100.586,-28.809,-6.836,-36.133,49.316
1688815547.222,-79.102,-31.738,-5.371,-51.758,-49.316
1688815547.226,-70.801,-34.668,-9.277,-48.340,-109.375
1688815547.230,-73.242,-34.180,-7.324,-47.363,92.773
1688815547.234,-104.980,-29.785,-5.859,-26.367,384.277
1688815547.237,-111.816,-23.438,-7.324,-37.109,158.203
1688815547.241,-69.824,-23.926,-5.371,-57.617,-126.953
1688815547.245,-56.152,-27.832,-4.883,-27.344,-8.301
1688815547.249,-66.406,-26.855,-14.648,-23.438,111.816
1688815547.253,-83.984,-26.367,-19.531,-35.156,-59.082
1688815547.270,-99.609,-25.391,-14.648,-37.598,-80.566
1688815547.274,-80.078,-29.297,-15.625,-50.781,-123.535
1688815547.278,-56.152,-34.668,-16.113,-41.504,-118.164
1688815547.282,-53.223,-29.297,-7.812,-29.297,-155.273
1688815547.286,-76.660,-30.273,-7.324,-14.160,-62.012
1688815547.290,-94.727,-36.133,-12.207,-24.902,230.469
1688815547.294,-66.895,-34.180,-11.719,-48.340,86.914
1688815547.297,-46.875,-26.855,-8.301,-41.016,-138.672
1688815547.301,-60.059,-25.879,-12.695,-37.109,-172.852
1688815547.305,-83.984,-29.785,-14.648,-28.809,24.902
1688815547.309,-106.934,-30.273,-15.137,-35.645,-14.160
1688815547.313,-90.820,-25.879,-16.113,-67.383,-229.492
1688815547.314,-71.777,-28.809,-18.555,-61.035,-194.824
1688815547.318,-79.102,-32.715,-20.996,-57.129,-129.395
1688815547.322,-90.820,-26.855,-20.508,-56.641,-153.320
1688815547.326,-91.309,-20.508,-20.020,-49.316,-128.418
1688815547.330,-71.777,-22.949,-13.184,-61.035,-89.355
1688815547.334,-49.805,-26.855,-13.184,-63.477,-80.566
1688815547.338,-35.156,-25.879,-19.531,-57.617,-70.312
1688815547.341,-40.527,-27.344,-18.555,-49.805,-69.824
1688815547.345,-61.035,-28.320,-16.113,-39.062,153.320
1688815547.349,-48.828,-32.227,-16.113,-44.922,350.586
1688815547.353,-21.484,-32.715,-15.137,-47.363,74.707
1688815547.357,-11.719,-28.320,-9.277,-40.527,-174.316
1688815547.359,-20.020,-30.273,-9.766,-30.273,38.574
1688815547.363,-52.246,-31.738,-20.508,-16.602,123.047
1688815547.367,-43.945,-32.227,-20.508,-40.039,-104.980
1688815547.371,-12.207,-26.855,-14.160,-44.434,-149.902
1688815547.375,-17.578,-25.391,-14.648,-28.809,-111.328
1688815547.379,-27.832,-26.367,-12.695,-29.297,-29.785
1688815547.383,-44.434,-25.391,-11.719,-21.484,32.715
1688815547.386,-37.598,-26.367,-13.672,-39.062,-59.082
1688815547.390,0.977,-26.367,-14.160,-44.922,21.484
1688815547.394,10.742,-25.879,-13.672,-34.180,50.781
1688815547.398,-8.301,-23.438,-15.625,-42.969,-222.656
1688815547.402,-28.320,-20.996,-20.020,-43.457,-130.859
1688815547.404,-39.062,-21.484,-17.578,-56.152,-11.230
1688815547.408,-24.902,-23.438,-13.672,-69.824,-251.465
1688815547.412,-13.672,-25.879,-15.137,-63.477,-282.715
1688815547.416,-26.367,-29.785,-11.719,-62.500,-123.535
1688815547.420,-49.316,-27.832,-17.090,-52.246,-47.852
1688815547.424,-58.105,-31.250,-22.461,-64.941,28.809
1688815547.428,-35.645,-33.691,-18.066,-89.355,-45.898
1688815547.431,-16.602,-29.297,-18.066,-66.895,49.316
1688815547.435,-22.461,-34.180,-17.090,-47.363,339.355
1688815547.439,-46.875,-37.109,-17.090,-52.246,136.230
1688815547.443,-66.406,-35.645,-17.578,-67.871,-163.574
1688815547.447,-43.945,-39.062,-19.043,-83.984,-115.723
1688815547.449,-23.438,-35.156,-17.090,-68.359,-52.734
1688815547.453,-31.738,-36.621,-14.160,-61.035,-132.812
1688815547.457,-37.109,-48.828,-13.184,-38.086,-118.652
1688815547.461,-37.109,-39.062,-9.277,-10.742,20.020
1688815547.465,-24.414,-20.996,-14.160,-43.945,-67.871
1688815547.469,-12.207,-17.578,-22.461,-62.500,-122.559
1688815547.473,-30.273,-17.578,-26.855,-73.242,-132.324
1688815547.476,-53.223,-11.719,-30.273,-67.871,83.984
1688815547.480,-78.613,-7.812,-41.504,-68.848,125.000
1688815547.484,-76.172,-11.719,-48.340,-116.699,-227.051
1688815547.488,-49.805,-11.719,-47.363,-116.211,-210.938
1688815547.492,-54.199,-5.859,-57.129,-115.234,-114.746
1688815547.495,-71.777,-4.883,-65.918,-120.605,-147.461
1688815547.499,-100.586,1.465,-75.684,-118.164,-101.562
1688815547.503,-95.215,8.301,-85.938,-150.879,17.090
1688815547.507,-55.176,16.113,-81.543,-146.973,-27.832
1688815547.511,-66.895,23.926,-83.496,-144.043,-170.410
1688815547.515,-109.863,21.484,-91.309,-162.598,-109.863
1688815547.519,-124.512,24.414,-95.215,-152.832,145.020
1688815547.522,-104.004,32.227,-101.074,-161.621,310.059
1688815547.526,-78.125,38.086,-103.027,-176.758,43.457
1688815547.530,-66.895,41.016,-106.445,-164.062,-112.305
1688815547.534,-70.801,45.410,-107.422,-153.320,107.910
1688815547.538,-96.680,49.316,-104.492,-151.855,108.887
1688815547.539,-94.727,43.945,-113.281,-185.059,-114.746
1688815547.543,-59.570,43.457,-119.141,-192.871,-149.902
1688815547.547,-52.734,53.711,-115.723,-176.758,-100.098
1688815547.551,-75.684,56.641,-118.164,-162.109,-78.125
1688815547.555,-96.191,54.199,-120.605,-164.551,-106.934
1688815547.559,-82.520,57.617,-117.188,-186.035,-4.883
1688815547.563,-61.035,56.641,-117.676,-185.059,328.125
1688815547.566,-52.734,52.246,-116.699,-169.922,61.035
1688815547.570,-73.242,47.363,-111.816,-160.645,-237.305
1688815547.574,-96.680,47.852,-105.957,-156.250,-58.105
1688815547.578,-80.078,49.316,-100.098,-161.621,-63.477
1688815547.582,-56.641,40.527,-98.145,-152.344,-230.957
1688815547.599,-61.523,30.273,-96.680,-132.324,-202.148
1688815547.603,-74.219,22.949,-88.867,-115.723,-52.734
1688815547.607,-81.543,22.461,-82.031,-101.074,-48.340
1688815547.611,-61.523,24.902,-76.172,-116.699,-172.363
1688815547.615,-34.668,17.578,-72.754,-106.445,-169.922
1688815547.619,-30.273,14.160,-75.195,-76.172,12.695
1688815547.623,-38.574,13.672,-78.125,-67.383,16.602
1688815547.626,-62.500,10.254,-73.242,-62.012,43.945
1688815547.630,-56.641,10.742,-65.430,-75.684,2.930
1688815547.634,-22.461,13.184,-56.641,-67.871,161.621
1688815547.638,-8.789,14.648,-52.734,-47.363,258.301
1688815547.642,-16.602,12.695,-55.664,-58.594,-49.316
1688815547.644,-39.551,7.324,-54.688,-55.664,-94.238
1688815547.648,-35.156,1.953,-59.570,-65.918,-92.285
1688815547.652,-0.488,6.348,-58.105,-72.754,-135.254
1688815547.656,15.625,7.812,-50.293,-52.734,-100.586
1688815547.660,3.906,0.488,-49.805,-46.387,-144.531
1688815547.664,-24.414,4.395,-47.852,-44.434,-87.891
1688815547.668,-31.250,5.371,-40.527,-57.129,-24.414
1688815547.671,-4.883,-5.859,-38.574,-66.895,-87.891
1688815547.675,8.301,-6.348,-40.527,-53.223,73.730
1688815547.679,-10.742,-5.371,-40.527,-44.434,300.781
1688815547.683,-35.156,-11.230,-39.551,-37.598,15.625
1688815547.687,-40.527,-11.230,-37.109,-44.922,-171.387
1688815547.690,-16.602,-6.348,-30.762,-56.641,-146.973
1688815547.694,-4.395,-7.324,-26.367,-45.410,-175.781
1688815547.698,-26.367,-13.184,-29.785,-43.945,-189.941
1688815547.702,-54.688,-10.254,-33.691,-30.273,-185.059
1688815547.706,-53.711,-8.789,-28.809,-36.621,-144.531
1688815547.710,-30.273,-12.207,-23.438,-67.383,-90.332
1688815547.714,-19.531,-12.207,-23.438,-55.664,-71.777
1688815547.717,-23.438,-13.184,-25.391,-50.293,-27.344
1688815547.721,-41.504,-14.648,-22.461,-26.855,335.449
1688815547.725,-48.340,-7.812,-13.672,-12.695,353.027
1688815547.729,-44.922,-2.930,-20.996,-69.336,-105.957
1688815547.733,-43.945,-4.883,-31.738,-81.543,-81.055
1688815547.734,-37.109,-6.836,-27.832,-64.453,48.340
1688815547.738,-66.406,-4.883,-29.785,-78.613,-71.289
1688815547.742,-98.145,-5.859,-33.691,-90.332,-81.055
1688815547.746,-82.031,-16.602,-35.156,-117.188,-53.711
1688815547.750,-45.898,-16.113,-34.668,-113.770,-97.168
1688815547.754,-25.879,-10.742,-25.879,-85.449,-83.008
1688815547.758,-43.945,-13.672,-25.879,-76.172,-111.328
1688815547.761,-68.848,-18.555,-26.367,-63.477,1.953
1688815547.765,-49.316,-19.531,-24.902,-73.730,139.648
1688815547.769,-26.367,-15.625,-23.926,-73.242,-117.676
1688815547.773,-26.855,-15.625,-21.484,-51.758,-223.145
1688815547.777,-36.133,-24.902,-24.902,-48.828,-128.418
1688815547.780,-54.199,-23.926,-21.973,-48.340,-113.281
1688815547.784,-49.805,-18.066,-20.508,-69.824,-166.504
1688815547.788,-23.438,-24.902,-21.484,-75.195,-168.945
1688815547.792,-15.625,-29.785,-15.625,-55.176,-32.715
1688815547.796,-33.203,-24.414,-14.160,-65.430,-39.551
1688815547.800,-57.617,-19.531,-18.555,-71.289,-42.969
1688815547.804,-56.152,-19.531,-25.879,-83.496,38.086
1688815547.807,-20.996,-21.484,-20.996,-73.242,323.242
1688815547.811,-11.230,-17.578,-20.996,-53.711,355.957
1688815547.815,-25.391,-16.602,-23.926,-62.988,-1.465
1688815547.819,-47.852,-23.438,-25.391,-64.941,-76.660
1688815547.823,-48.828,-22.461,-27.344,-78.125,-76.660
1688815547.824,-14.160,-23.926,-26.367,-90.820,-158.203
1688815547.828,6.348,-22.949,-26.855,-69.336,-139.648
1688815547.832,4.395,-22.949,-23.438,-51.758,-98.145
1688815547.836,-16.113,-24.902,-22.949,-41.992,3.418
1688815547.840,-21.973,-23.438,-22.461,-51.758,-60.059
1688815547.844,6.348,-24.414,-22.949,-74.707,-208.984
1688815547.848,14.648,-26.855,-28.320,-54.199,-44.922
1688815547.851,2.441,-24.902,-26.367,-31.250,327.637
1688815547.855,-18.555,-24.414,-24.414,-22.461,183.594
1688815547.859,-30.762,-24.902,-26.367,-27.344,-106.934
1688815547.863,-15.625,-25.879,-21.973,-56.641,-142.090
1688815547.867,6.348,-22.461,-19.043,-58.594,-153.809
1688815547.869,-2.441,-25.879,-16.113,-49.805,-150.879
1688815547.873,-29.785,-30.273,-15.625,-32.715,-76.660
1688815547.877,-38.574,-28.809,-18.555,-37.598,8.789
1688815547.881,-22.949,-30.762,-21.484,-78.613,-81.543
1688815547.885,-13.184,-30.762,-22.949,-65.430,-125.977
1688815547.889,-16.113,-29.297,-22.461,-48.828,19.531
1688815547.893,-45.410,-30.273,-26.855,-59.082,307.617
1688815547.896,-70.312,-23.926,-29.297,-80.078,142.578
1688815547.900,-39.062,-21.484,-30.273,-99.609,-102.051
1688815547.904,-16.113,-27.344,-33.203,-90.820,-103.516
1688815547.908,-23.438,-31.738,-31.250,-73.730,92.285
1688815547.912,-35.156,-26.367,-27.344,-60.059,88.867
1688815547.915,-52.246,-22.949,-25.391,-49.316,-91.797
1688815547.919,-38.574,-25.879,-22.949,-64.941,-140.137
1688815547.923,-8.789,-31.250,-22.461,-83.984,-189.453
1688815547.927,-2.930,-33.203,-22.949,-87.891,-170.410
1688815547.931,-19.531,-28.320,-23.926,-96.680,-150.879
1688815547.935,-41.016,-26.855,-23.926,-105.469,52.734
1688815547.939,-33.203,-30.273,-21.973,-132.812,84.961
1688815547.942,-9.277,-29.785,-21.484,-138.184,-83.984
1688815547.946,-5.371,-30.273,-21.973,-112.793,-80.566
1688815547.950,-14.648,-29.297,-18.555,-85.449,-1.953
1688815547.954,-29.297,-27.832,-14.648,-59.570,104.492
1688815547.958,-32.715,-28.320,-15.137,-75.195,-87.891
1688815547.974,-12.695,-27.832,-15.137,-80.078,-116.211
1688815547.978,-6.836,-33.203,-17.090,-67.383,-23.926
1688815547.982,-17.090,-35.156,-16.602,-69.824,-97.656
1688815547.986,-27.832,-29.297,-15.625,-56.641,-129.883
1688815547.990,-14.160,-24.902,-21.973,-67.871,-97.168
1688815547.994,15.625,-21.484,-22.949,-72.266,-37.598
1688815547.998,29.297,-18.555,-18.555,-55.176,-7.812
1688815548.001,21.484,-22.461,-23.438,-62.988,-29.785
1688815548.005,-10.254,-20.996,-23.926,-60.547,3.418
1688815548.009,-16.113,-18.066,-18.066,-79.102,221.680
1688815548.013,6.836,-23.438,-20.508,-125.000,201.660
1688815548.017,2.930,-27.832,-23.438,-157.227,-99.609
1688815548.019,-10.254,-24.902,-20.020,-166.992,-104.492
1688815548.023,-32.227,-18.066,-15.137,-143.555,65.430
1688815548.027,-45.898,-15.625,-16.602,-133.789,-68.848
1688815548.031,-25.879,-18.555,-22.949,-131.836,-211.914
1688815548.035,-9.277,-17.090,-20.996,-99.121,-124.512
1688815548.039,-17.090,-15.625,-17.090,-75.195,-47.852
1688815548.043,-44.434,-21.484,-22.461,-62.012,56.641
1688815548.046,-58.105,-22.949,-26.855,-54.199,20.996
1688815548.050,-35.156,-21.973,-30.273,-67.383,-26.855
1688815548.054,-18.066,-21.973,-26.367,-48.828,165.527
1688815548.058,-14.648,-25.879,-22.949,-40.039,-21.484
1688815548.062,-33.691,-27.832,-23.438,-38.574,-112.793
1688815548.065,-49.805,-21.973,-18.555,-28.320,88.867
1688815548.069,-33.691,-21.973,-21.484,-44.434,-57.129
1688815548.073,-17.090,-29.297,-26.367,-41.504,-225.098
1688815548.077,-23.438,-33.203,-24.414,-24.414,-152.344
1688815548.081,-50.293,-34.668,-21.973,-14.648,-5.371
1688815548.085,-75.195,-39.062,-23.438,-17.578,33.691
1688815548.089,-52.246,-37.109,-24.414,-31.738,63.965
1688815548.092,-24.902,-33.691,-19.043,-13.184,133.789
1688815548.096,-29.297,-34.668,-17.578,-4.883,283.203
1688815548.100,-52.246,-33.691,-17.090,-8.301,305.664
1688815548.104,-65.430,-30.762,-10.254,-4.395,17.578
1688815548.108,-34.668,-25.879,-7.812,-18.555,-155.762
1688815548.110,-12.695,-25.879,-11.719,-17.578,-119.629
1688815548.114,-20.996,-26.367,-15.625,-3.906,-158.691
1688815548.118,-36.621,-26.367,-12.695,-3.906,-125.977
1688815548.122,-63.477,-26.855,-15.137,3.418,103.027
1688815548.126,-66.895,-24.414,-20.508,-20.996,16.113
1688815548.130,-45.898,-26.855,-16.602,-30.273,-82.031
1688815548.134,-40.039,-29.297,-11.230,-18.066,-20.996
1688815548.137,-48.828,-25.879,-10.742,-12.207,10.742
1688815548.141,-70.801,-25.879,-10.254,5.371,257.324
1688815548.145,-67.383,-26.367,-15.137,-27.832,44.434
1688815548.149,-35.645,-25.391,-17.090,-53.711,-248.535
1688815548.153,-32.715,-27.344,-13.184,-33.203,-151.367
1688815548.154,-48.828,-31.738,-16.113,-32.227,-136.719
1688815548.158,-62.988,-28.809,-17.578,-21.973,-128.418
1688815548.162,-64.453,-24.902,-18.066,-20.508,-94.238
1688815548.166,-55.176,-32.227,-25.391,-34.180,-104.004
1688815548.170,-40.527,-31.738,-24.414,-18.555,-74.707
1688815548.174,-41.504,-27.344,-21.484,-4.883,47.363
1688815548.178,-72.754,-29.785,-24.902,-0.977,115.723
1688815548.181,-78.613,-26.855,-22.461,-25.391,337.402
1688815548.185,-46.875,-24.414,-19.531,-35.645,367.188
1688815548.189,-30.273,-27.832,-18.066,-23.438,-40.527
1688815548.193,-37.598,-31.250,-18.066,-23.438,-185.547
1688815548.197,-64.453,-27.832,-18.066,-15.625,-84.473
1688815548.200,-61.523,-25.391,-20.020,-20.020,-127.930
1688815548.204,-23.926,-23.926,-20.508,-37.109,-204.102
1688815548.208,-6.348,-22.461,-16.113,-21.484,-188.477
1688815548.212,-2.930,-23.438,-15.137,-9.277,-133.301
1688815548.216,-21.484,-22.949,-13.672,-3.418,-87.402
1688815548.220,-28.320,-23.926,-11.230,-20.508,-85.449
1688815548.224,-5.371,-22.461,-13.184,-52.246,72.266
1688815548.227,10.742,-27.344,-19.043,-34.668,319.824
1688815548.231,10.742,-29.785,-18.066,-27.832,-46.875
1688815548.235,-21.484,-26.855,-18.555,-16.113,-214.355
1688815548.239,-46.875,-27.344,-17.578,-6.836,-93.750
1688815548.243,-30.273,-24.414,-19.531,-37.109,-141.113
1688815548.244,-14.160,-23.926,-21.484,-39.551,-207.031
1688815548.248,-19.043,-28.320,-20.020,-19.043,-179.688
1688815548.252,-46.875,-30.762,-25.391,-7.812,-66.406
1688815548.256,-68.848,-33.203,-27.344,-19.043,-90.820
1688815548.260,-50.781,-37.109,-29.785,-45.898,-155.762
1688815548.264,-24.414,-41.016,-30.273,-37.598,-69.824
1688815548.268,-27.832,-43.945,-24.902,-26.855,232.910
1688815548.271,-44.434,-42.969,-20.508,-21.484,210.938
1688815548.275,-58.594,-41.016,-20.996,-19.043,-49.316
1688815548.279,-57.129,-45.410,-25.391,-52.246,-116.211
1688815548.283,-33.203,-42.480,-20.020,-42.969,166.504
1688815548.287,-21.484,-42.969,-19.531,-29.785,108.887
1688815548.291,-38.086,-42.969,-25.391,-37.598,-142.090
1688815548.295,-55.664,-40.527,-24.902,-20.508,-36.621
1688815548.299,-37.598,-41.504,-23.438,-33.203,-40.039
1688815548.303,-0.488,-36.133,-24.414,-44.434,-117.188
1688815548.307,-2.930,-38.574,-22.949,-32.227,-131.348
1688815548.311,-28.320,-41.504,-26.855,-30.273,85.449
1688815548.315,-50.781,-37.109,-30.762,-15.137,206.543
1688815548.318,-43.945,-33.203,-27.344,-37.109,-83.496
1688815548.322,-11.719,-30.273,-20.508,-51.270,-164.062
1688815548.326,1.953,-28.809,-15.625,-17.090,-31.250
1688815548.330,-12.207,-28.320,-20.996,-6.348,-56.641
1688815548.334,-40.039,-29.785,-21.973,-8.789,-24.414
1688815548.349,-37.598,-27.832,-19.043,-19.531,5.859
1688815548.353,-6.836,-23.926,-21.973,-29.785,-35.645
1688815548.357,-0.977,-21.973,-26.367,-23.926,-112.793
1688815548.361,-7.812,-23.926,-28.809,-22.461,-221.191
1688815548.365,-23.926,-25.391,-24.902,-16.602,-48.340
1688815548.369,-38.574,-25.879,-25.879,-26.855,253.418
1688815548.373,-14.160,-26.855,-33.203,-49.316,125.000
1688815548.376,0.000,-25.879,-32.227,-29.785,-89.844
1688815548.380,-12.695,-24.414,-27.832,-23.438,-24.902
1688815548.384,-31.250,-29.297,-23.438,-13.184,194.824
1688815548.388,-50.293,-30.273,-23.926,-19.043,147.949
1688815548.392,-31.250,-30.762,-24.902,-44.434,-168.457
1688815548.395,-4.395,-34.180,-24.414,-37.109,-164.062
1688815548.399,-15.137,-37.109,-26.855,-32.227,-110.352
1688815548.403,-45.898,-37.109,-27.344,-23.926,-103.027
1688815548.407,-59.082,-38.574,-26.855,-29.785,-78.125
1688815548.411,-33.203,-37.598,-26.855,-41.016,-62.012
1688815548.415,-16.602,-37.598,-22.949,-20.020,63.965
1688815548.419,-15.625,-39.062,-21.973,-11.719,14.160
1688815548.422,-34.180,-39.062,-22.949,-14.648,-77.637
1688815548.426,-54.688,-39.062,-20.508,-14.648,-38.086
1688815548.430,-30.273,-33.203,-20.996,-28.809,-36.133
1688815548.434,-9.766,-30.273,-20.996,-29.785,-138.184
1688815548.438,-20.508,-35.645,-23.926,-26.367,-133.789
1688815548.440,-39.551,-33.203,-25.879,-23.438,-39.551
1688815548.444,-58.105,-28.809,-25.391,-21.484,-24.902
1688815548.448,-38.574,-29.297,-26.367,-44.434,-158.203
1688815548.452,-10.254,-33.691,-25.879,-44.434,-168.457
1688815548.456,-21.484,-35.645,-30.762,-36.133,-57.129
1688815548.460,-32.715,-35.645,-32.227,-23.438,-39.551
1688815548.464,-48.828,-36.133,-26.367,-9.766,-28.320
1688815548.467,-46.387,-33.203,-23.438,-41.992,-21.484
1688815548.471,-16.602,-29.297,-22.461,-39.551,214.355
1688815548.475,-21.973,-32.227,-26.367,-11.230,330.078
1688815548.479,-42.969,-27.344,-26.367,-26.367,-60.059
1688815548.483,-68.359,-29.297,-27.344,-37.109,-193.359
1688815548.485,-69.336,-34.180,-30.762,-54.199,-150.879
1688815548.489,-41.992,-34.180,-28.320,-63.965,-196.777
1688815548.493,-36.133,-35.156,-27.832,-38.086,-195.801
1688815548.497,-50.293,-36.133,-26.855,-25.391,-165.039
1688815548.501,-72.754,-33.691,-25.879,-20.996,-92.773
1688815548.505,-72.266,-35.645,-26.367,-32.715,-85.449
1688815548.509,-38.086,-35.645,-27.832,-35.156,-239.258
1688815548.512,-21.484,-31.738,-26.855,-21.973,-119.629
1688815548.516,-40.039,-38.574,-25.879,-21.973,222.168
1688815548.520,-67.383,-37.598,-25.391,-21.484,50.781
1688815548.524,-68.848,-34.180,-24.414,-32.715,-183.105
1688815548.528,-36.133,-36.621,-26.367,-38.574,-135.742
1688815548.529,-24.902,-33.203,-28.809,-17.090,-125.977
1688815548.533,-37.598,-33.203,-27.344,-12.695,-149.902
1688815548.537,-56.641,-35.156,-27.832,-2.930,-70.801
1688815548.541,-65.430,-27.344,-28.320,-11.719,-7.324
1688815548.545,-39.551,-27.832,-30.273,-40.039,-31.738
1688815548.549,-26.855,-35.156,-28.320,-38.086,-51.758
1688815548.553,-37.598,-30.762,-28.320,-37.109,-50.781
1688815548.556,-60.059,-31.250,-30.762,-19.043,283.691
1688815548.560,-83.008,-38.086,-28.809,-14.160,402.832
1688815548.564,-63.477,-35.645,-29.785,-47.852,15.137
1688815548.568,-30.273,-32.715,-28.809,-49.316,-86.426
1688815548.572,-38.086,-31.250,-33.203,-30.273,-0.488
1688815548.574,-60.547,-30.762,-32.227,-17.090,-60.547
1688815548.578,-75.195,-33.203,-26.855,-18.555,-120.605
1688815548.582,-56.641,-32.715,-32.715,-41.992,-199.707
1688815548.586,-32.715,-30.273,-29.297,-28.809,-178.223
1688815548.590,-32.715,-30.273,-22.461,-12.695,-108.887
1688815548.594,-45.410,-31.250,-22.949,-9.277,-137.207
1688815548.598,-60.547,-32.715,-20.508,1.465,18.066
1688815548.601,-43.457,-36.133,-22.949,-16.602,243.164
1688815548.605,-18.066,-35.645,-28.320,-27.832,-54.688
1688815548.609,-22.949,-30.273,-21.484,-26.855,-252.930
1688815548.613,-34.668,-26.367,-20.996,-19.043,-115.234
1688815548.617,-55.664,-28.320,-27.832,-17.578,-27.344
1688815548.620,-43.457,-30.762,-24.414,-42.969,-109.375
1688815548.624,-17.090,-29.297,-23.438,-45.898,-208.496
1688815548.628,-21.973,-28.809,-25.391,-30.273,-70.801
1688815548.632,-36.621,-28.320,-20.508,-37.109,-10.742
1688815548.636,-60.059,-21.973,-24.414,-39.551,-44.922
1688815548.640,-57.617,-20.020,-23.438,-59.082,70.801
1688815548.644,-32.227,-21.484,-19.043,-62.500,215.820
1688815548.647,-24.902,-20.020,-22.461,-56.152,157.227
1688815548.651,-28.320,-18.066,-20.508,-59.082,-9.766
1688815548.655,-46.875,-21.973,-17.090,-48.828,6.348
1688815548.659,-40.039,-25.879,-22.949,-59.570,154.785
1688815548.663,-7.812,-20.996,-28.809,-65.430,-20.508
1688815548.665,-13.672,-19.043,-26.855,-50.293,-190.918
1688815548.669,-28.320,-26.367,-24.902,-41.504,-67.871
1688815548.673,-49.805,-28.320,-23.926,-33.203,65.430
1688815548.677,-55.176,-26.855,-20.020,-51.758,-45.410
1688815548.681,-21.484,-25.879,-20.508,-61.523,-142.578
1688815548.685,-12.207,-28.809,-18.066,-33.691,-2.441
1688815548.689,-27.344,-31.250,-15.137,-23.926,172.363
1688815548.692,-47.363,-30.762,-18.066,-23.926,-51.758
1688815548.696,-51.270,-29.785,-16.113,-40.527,-197.754
1688815548.700,-27.344,-31.738,-19.531,-62.012,-54.199
1688815548.704,-7.324,-28.320,-18.066,-38.574,1.953
1688815548.708,-9.277,-29.785,-16.602,-22.949,-113.770
1688815548.724,-36.133,-33.691,-17.578,-27.832,-100.586
1688815548.728,-55.664,-35.645,-20.996,-44.434,-23.438
1688815548.732,-26.855,-35.645,-22.949,-66.895,-128.906
1688815548.736,-7.324,-30.762,-23.926,-60.547,-178.711
1688815548.740,-17.090,-31.250,-26.855,-54.199,-111.328
1688815548.744,-36.133,-24.902,-23.926,-24.902,261.230
1688815548.748,-48.340,-22.461,-24.414,-11.230,293.945
1688815548.751,-25.391,-28.809,-29.785,-38.086,-61.035
1688815548.755,-3.418,-33.691,-29.297,-36.133,-86.914
1688815548.759,-5.859,-36.133,-27.832,-15.625,168.457
1688815548.763,-27.344,-31.738,-29.785,-9.277,139.160
1688815548.767,-46.387,-31.250,-31.250,-25.391,-117.188
1688815548.769,-32.227,-34.180,-29.785,-51.270,-90.820
1688815548.773,-10.742,-31.738,-26.367,-41.016,-81.055
1688815548.777,-6.348,-29.785,-23.926,-37.109,-125.488
1688815548.781,-22.949,-30.762,-22.949,-34.668,-97.168
1688815548.785,-46.875,-28.320,-21.973,-29.297,-9.277
1688815548.789,-31.250,-27.832,-20.996,-51.758,-27.344
1688815548.793,-0.977,-24.902,-23.926,-49.316,-107.910
1688815548.796,3.906,-23.438,-24.902,-43.457,-97.168
1688815548.800,-17.578,-24.902,-23.926,-44.434,33.203
1688815548.804,-41.016,-21.484,-21.973,-34.668,268.555
1688815548.808,-32.715,-17.578,-21.484,-64.941,7.324
1688815548.812,-11.230,-20.020,-20.508,-72.266,-228.516
1688815548.814,-12.207,-26.855,-20.020,-48.828,-171.875
1688815548.818,-35.156,-27.832,-24.902,-39.551,-192.871
1688815548.822,-62.500,-27.832,-24.902,-29.297,-143.555
1688815548.826,-53.223,-25.391,-17.090,-41.992,-94.238
1688815548.830,-23.438,-26.855,-18.555,-47.363,-88.867
1688815548.834,-20.508,-32.227,-26.367,-44.434,-41.992
1688815548.838,-37.109,-27.832,-27.344,-52.246,27.344
1688815548.841,-66.895,-23.438,-28.320,-40.527,49.805
1688815548.845,-61.523,-19.531,-26.367,-46.875,305.176
1688815548.849,-29.785,-22.461,-29.785,-59.570,470.215
1688815548.853,-20.996,-29.785,-37.598,-58.105,81.543
1688815548.857,-37.109,-27.344,-36.133,-54.199,-148.438
1688815548.859,-54.199,-23.438,-32.227,-31.250,-62.500
1688815548.863,-46.387,-21.484,-33.203,-37.109,-103.516
1688815548.867,-19.043,-23.438,-28.809,-51.270,-218.750
1688815548.871,-5.859,-26.367,-23.438,-37.598,-170.898
1688815548.875,-8.301,-20.996,-22.949,-29.785,-63.477
1688815548.879,-33.203,-20.020,-24.414,-28.809,34.180
1688815548.883,-48.828,-25.879,-27.832,-42.969,-36.133
1688815548.886,-24.414,-30.273,-31.738,-53.711,-14.648
1688815548.890,-13.184,-27.832,-31.738,-30.273,156.738
1688815548.894,-23.438,-27.344,-26.367,-22.461,-109.375
1688815548.898,-47.852,-28.320,-25.879,-20.020,-144.531
1688815548.902,-63.477,-29.785,-29.785,-22.461,89.355
1688815548.904,-38.086,-29.297,-30.273,-43.945,-77.148
1688815548.908,-13.184,-33.691,-28.809,-40.039,-168.945
1688815548.912,-16.113,-33.203,-26.855,-35.645,-79.590
1688815548.916,-44.434,-26.855,-25.391,-26.367,-44.922
1688815548.920,-59.570,-24.414,-25.391,-22.949,-80.078
1688815548.924,-44.434,-29.785,-29.297,-52.734,-134.277
1688815548.928,-31.738,-29.785,-31.738,-63.477,-62.500
1688815548.931,-37.598,-25.391,-29.785,-49.316,279.297
1688815548.935,-53.711,-26.855,-30.762,-30.762,328.613
1688815548.939,-67.871,-24.902,-33.203,-37.109,-119.629
1688815548.943,-44.922,-23.438,-27.832,-60.547,-214.355
1688815548.947,-9.277,-29.297,-20.996,-46.387,-218.262
1688815548.950,-10.742,-30.762,-26.367,-30.762,-196.289
1688815548.954,-12.207,-27.344,-30.273,-9.766,-55.176
1688815548.958,-28.320,-35.156,-20.508,0.488,18.555
1688815548.962,-41.992,-45.898,-15.137,-38.574,-31.738
1688815548.966,-26.367,-45.898,-15.137,-50.781,-144.043
1688815548.970,-23.438,-46.387,-11.230,-38.086,-68.848
1688815548.974,-48.340,-57.617,-5.859,-20.996,84.961
1688815548.977,-68.359,-62.012,-0.977,4.395,282.715
1688815548.981,-50.293,-63.965,3.906,-19.531,34.668
1688815548.985,-25.391,-69.824,10.254,-30.762,-224.609
1688815548.989,-21.484,-74.707,9.766,-7.324,-169.434
1688815548.993,-28.320,-80.078,9.766,10.254,-116.211
1688815548.994,-59.082,-83.984,19.043,9.766,-97.168
1688815548.998,-69.824,-85.449,20.508,-20.020,-161.133
1688815549.002,-36.621,-85.938,23.926,-15.137,-80.566
1688815549.006,-33.203,-92.285,26.855,-2.441,-21.484
1688815549.010,-43.945,-93.262,30.762,1.953,-18.555
1688815549.014,-66.406,-92.773,37.598,24.902,32.715
1688815549.018,-73.730,-100.586,35.645,15.625,254.883
1688815549.021,-39.551,-95.703,38.086,9.766,339.844
1688815549.025,-19.531,-92.285,45.410,24.414,-33.691
1688815549.029,-18.555,-95.703,46.387,26.367,-82.031
1688815549.033,-38.086,-93.262,45.410,44.922,119.629
1688815549.037,-48.340,-94.238,43.457,33.691,-12.207
1688815549.040,-18.066,-95.703,42.480,13.672,-189.941
1688815549.044,0.977,-95.703,42.969,33.203,-207.520
1688815549.048,-9.277,-93.750,41.504,43.457,-167.480
1688815549.052,-32.227,-92.773,47.852,51.758,-128.418
1688815549.056,-35.156,-94.238,53.711,55.664,-95.703
1688815549.060,-17.090,-94.727,53.711,39.062,125.000
1688815549.064,-3.906,-95.703,54.688,38.574,221.680
1688815549.067,-0.977,-96.680,51.758,44.434,0.000
1688815549.071,-26.367,-92.285,47.852,50.781,-124.023
1688815549.075,-48.340,-90.820,43.945,45.898,-59.570
1688815549.079,-14.648,-89.844,47.363,25.879,42.480
1688815549.083,6.348,-81.055,48.828,22.949,-138.184
1688815549.099,5.859,-79.590,45.410,31.250,-198.242
1688815549.103,-19.043,-83.496,44.434,38.086,-36.621
1688815549.107,-36.621,-80.566,41.504,39.062,44.434
1688815549.111,-9.277,-76.660,38.086,12.695,-101.074
1688815549.115,3.906,-77.148,38.086,17.090,-157.715
1688815549.119,-0.488,-72.754,41.504,33.203,-27.344
1688815549.123,-20.020,-66.406,35.156,30.762,-26.367
1688815549.126,-41.016,-68.359,26.855,18.555,-37.109
1688815549.130,-24.414,-69.824,27.832,-9.277,-104.980
1688815549.134,-5.859,-69.824,29.785,3.906,135.254
1688815549.138,-0.977,-70.312,26.855,15.625,306.152
1688815549.142,-16.113,-69.336,23.438,8.789,-15.137
1688815549.144,-40.039,-70.312,20.996,11.719,-148.438
1688815549.148,-28.809,-63.965,16.113,-6.348,-149.902
1688815549.152,-5.371,-61.523,12.695,-5.859,-154.785
1688815549.156,-9.277,-67.871,6.348,7.324,-152.344
1688815549.160,-26.855,-64.453,3.906,6.348,-102.539
1688815549.164,-53.223,-62.500,4.395,0.977,-31.250
1688815549.168,-47.852,-60.547,2.930,-17.578,-79.102
1688815549.171,-26.367,-54.199,2.930,-15.625,-236.328
1688815549.175,-19.043,-51.758,1.465,0.488,-68.359
1688815549.179,-29.297,-47.363,-1.953,-2.441,194.824
1688815549.183,-63.477,-47.363,-7.812,-3.906,-57.129
1688815549.187,-62.012,-48.828,-7.812,-9.277,-136.719
1688815549.189,-35.156,-50.293,-10.254,-21.973,6.348
1688815549.193,-31.738,-52.734,-20.020,-26.367,16.602
1688815549.197,-39.062,-46.875,-15.137,-25.391,-64.453
1688815549.201,-61.523,-39.062,-10.254,-10.742,-31.250
1688815549.205,-72.266,-36.621,-6.836,-19.043,-16.113
1688815549.209,-50.781,-39.551,0.000,-24.902,-51.758
1688815549.213,-37.598,-39.551,-2.441,-19.531,-120.605
1688815549.216,-49.805,-41.504,-5.859,-33.691,-21.484
1688815549.220,-74.219,-41.016,-6.348,-16.113,185.059
1688815549.224,-74.707,-37.109,-9.277,-26.855,99.121
1688815549.228,-44.922,-35.645,-12.207,-61.035,-165.039
1688815549.232,-27.832,-36.621,-9.277,-44.434,-206.055
1688815549.235,-24.414,-38.574,-6.348,-13.184,111.328
1688815549.239,-56.152,-42.969,-10.254,-12.207,119.629
1688815549.243,-78.613,-44.922,-12.695,-39.551,-130.859
1688815549.247,-53.711,-41.504,-11.230,-61.035,-179.688
1688815549.251,-43.945,-44.434,-10.742,-46.387,-62.500
1688815549.255,-49.316,-46.387,-10.742,-35.645,110.840
1688815549.259,-55.664,-42.969,-12.207,-29.297,88.867
1688815549.262,-71.289,-44.922,-11.719,-29.297,18.066
1688815549.266,-63.965,-47.363,-9.766,-50.293,129.395
1688815549.270,-32.227,-39.551,-7.812,-42.969,-62.012
1688815549.274,-20.508,-31.738,-5.859,-28.809,-162.109
1688815549.278,-41.992,-30.273,-9.766,-23.438,19.043
1688815549.279,-57.617,-32.227,-11.719,-16.602,46.387
1688815549.283,-37.109,-37.598,-10.254,-56.641,-147.949
1688815549.287,-10.742,-35.645,-9.277,-80.078,-169.922
1688815549.291,-9.277,-30.762,-11.230,-63.965,-55.664
1688815549.295,-32.227,-34.668,-14.160,-51.270,-107.910
1688815549.299,-59.082,-35.156,-19.531,-49.316,-73.242
1688815549.303,-50.781,-30.762,-20.508,-62.988,-65.430
1688815549.306,-22.949,-29.297,-13.672,-51.270,147.949
1688815549.310,-22.461,-35.156,-11.230,-36.621,405.762
1688815549.314,-45.410,-36.133,-14.648,-47.852,104.492
1688815549.318,-70.801,-34.668,-17.090,-41.992,-51.758
1688815549.322,-54.199,-32.715,-11.719,-51.758,-35.156
1688815549.324,-17.090,-32.227,-11.230,-55.176,-202.148
1688815549.328,-3.418,-36.621,-16.602,-47.852,-204.590
1688815549.332,-15.625,-40.527,-17.578,-56.152,-104.980
1688815549.336,-44.434,-40.039,-13.184,-45.898,-74.707
1688815549.340,-29.785,-33.691,-12.695,-59.082,-85.449
1688815549.344,10.254,-30.762,-16.602,-63.965,-135.254
1688815549.348,18.555,-35.156,-21.973,-43.457,55.664
1688815549.351,1.953,-37.598,-20.020,-34.668,369.141
1688815549.355,-25.879,-35.156,-16.602,-15.137,137.695
1688815549.359,-33.203,-33.691,-17.090,-31.738,-112.793
1688815549.363,-22.949,-36.133,-16.113,-53.223,-103.027
1688815549.367,-23.926,-37.598,-17.578,-33.691,-132.324
1688815549.369,-35.645,-36.621,-15.137,-28.809,-216.309
1688815549.373,-57.129,-34.180,-12.695,-23.438,-136.230
1688815549.377,-59.570,-34.668,-14.648,-40.527,-68.359
1688815549.381,-35.645,-35.156,-11.719,-46.875,-208.496
1688815549.385,-21.973,-31.250,-10.742,-20.508,-222.656
1688815549.389,-32.227,-30.273,-9.277,-20.508,-10.254
1688815549.393,-51.270,-31.738,-7.812,1.465,384.277
1688815549.396,-56.152,-30.273,-10.254,-14.160,244.141
1688815549.400,-37.598,-30.273,-14.160,-52.734,-25.391
1688815549.404,-20.508,-30.273,-13.672,-41.992,13.672
1688815549.408,-31.250,-32.227,-10.742,-24.902,176.270
1688815549.412,-53.711,-29.785,-9.277,-7.324,144.043
1688815549.414,-61.523,-25.391,-7.812,-13.672,-117.188
1688815549.418,-32.715,-26.367,-5.371,-43.457,-201.660
1688815549.422,-12.207,-24.902,-6.836,-27.832,-102.539
1688815549.426,-19.043,-26.855,-12.207,-9.766,-112.793
1688815549.430,-42.969,-32.227,-19.043,-17.090,-95.703
1688815549.434,-61.035,-28.320,-18.066,-17.090,34.668
1688815549.438,-37.109,-23.926,-16.602,-30.273,26.855
1688815549.441,-6.348,-25.391,-18.555,-26.855,-62.988
1688815549.445,-7.324,-27.832,-20.020,-25.391,-200.195
1688815549.449,-28.809,-26.367,-22.461,-21.973,-106.934
1688815549.453,-37.598,-26.855,-23.926,-15.137,16.602
1688815549.457,-23.926,-32.227,-24.414,-49.316,-98.145
1688815549.474,-6.348,-28.320,-22.949,-39.551,-204.590
1688815549.478,-6.836,-25.391,-20.508,-17.578,47.363
1688815549.482,-24.902,-32.227,-17.578,-24.414,283.203
1688815549.486,-40.039,-34.668,-20.020,-28.320,-17.090
1688815549.490,-32.227,-33.691,-20.996,-50.781,-144.531
1688815549.494,-17.578,-28.809,-17.578,-41.016,7.324
1688815549.498,-14.648,-27.832,-20.020,-23.438,-18.555
1688815549.501,-31.738,-30.762,-19.043,-17.090,-22.461
1688815549.505,-56.641,-28.320,-13.672,-10.254,68.359
1688815549.509,-47.363,-33.203,-15.137,-28.809,183.105
1688815549.513,-14.648,-32.227,-20.020,-25.879,105.957
1688815549.517,-10.254,-30.762,-20.020,-11.230,-111.816
1688815549.519,-19.043,-37.109,-16.602,-8.301,-39.062
1688815549.523,-41.992,-35.645,-13.672,-7.324,11.230
1688815549.527,-28.809,-27.832,-12.695,-31.250,-147.461
1688815549.531,5.859,-30.273,-18.066,-36.621,-247.070
1688815549.535,0.488,-36.133,-21.973,-27.344,-145.508
1688815549.539,-17.090,-37.109,-18.066,-30.762,-14.648
1688815549.543,-28.320,-34.668,-18.555,-17.090,36.133
1688815549.546,-29.297,-32.715,-22.949,-28.320,-105.957
1688815549.550,-11.230,-28.809,-25.391,-49.805,-140.625
1688815549.554,-3.906,-29.785,-26.367,-29.785,111.328
1688815549.558,-8.789,-32.715,-22.461,-10.254,-66.895
1688815549.562,-20.020,-30.762,-14.648,5.371,-138.672
1688815549.565,-24.414,-32.227,-17.578,-9.277,-58.594
1688815549.569,-1.465,-38.086,-22.461,-29.297,-185.547
1688815549.573,16.602,-38.574,-21.973,-27.344,-144.531
1688815549.577,12.207,-37.598,-21.973,-33.691,-16.113
1688815549.581,-19.531,-36.621,-20.996,-26.367,97.168
1688815549.585,-31.250,-34.180,-22.949,-43.457,110.352
1688815549.589,-11.719,-35.645,-23.438,-65.918,-4.395
1688815549.592,-0.488,-38.086,-25.391,-52.246,6.348
1688815549.596,-1.953,-33.691,-25.391,-39.551,213.379
1688815549.600,-25.391,-32.715,-19.531,-32.715,200.195
1688815549.604,-38.086,-36.133,-17.090,-49.316,-78.125
1688815549.608,-21.484,-41.016,-16.602,-69.824,-180.664
1688815549.609,7.324,-44.434,-6.836,-34.668,-187.012
1688815549.613,18.066,-40.039,-11.719,-9.277,-184.570
1688815549.617,-6.348,-26.367,-27.344,-20.508,-105.469
1688815549.621,-45.898,-22.461,-36.621,-34.180,-60.059
1688815549.625,-35.156,-25.879,-36.133,-45.898,-159.668
1688815549.629,-13.672,-22.949,-41.016,-41.504,-145.508
1688815549.633,-35.156,-16.602,-48.340,-55.176,-131.836
1688815549.636,-62.500,-13.672,-47.363,-49.805,-78.125
1688815549.640,-75.684,-10.742,-53.711,-33.691,285.645
1688815549.644,-71.289,-9.277,-61.035,-80.078,79.590
1688815549.648,-66.895,-8.301,-63.965,-110.840,-188.477
1688815549.652,-75.684,-4.395,-71.289,-108.887,-123.535
1688815549.655,-95.215,-2.441,-77.637,-112.305,-180.176
1688815549.659,-127.930,-1.953,-82.520,-120.117,-130.859
1688815549.663,-127.930,5.371,-83.496,-147.461,-96.680
1688815549.667,-97.656,17.578,-78.125,-155.762,-94.727
1688815549.671,-95.703,20.508,-92.773,-154.785,-70.312
1688815549.675,-119.141,22.461,-104.980,-160.645,-40.039
1688815549.679,-151.367,25.879,-108.398,-161.621,60.059
1688815549.682,-142.578,29.297,-111.816,-173.828,316.895
1688815549.686,-109.375,27.344,-113.281,-174.805,343.750
1688815549.690,-109.375,29.785,-114.258,-189.453,-55.664
1688815549.694,-124.512,36.133,-115.723,-192.871,-152.832
1688815549.698,-139.648,41.016,-121.582,-178.223,68.848
1688815549.700,-137.695,47.852,-123.535,-206.543,-25.391
1688815549.704,-104.980,48.828,-123.535,-216.797,-178.711
1688815549.708,-85.938,52.734,-125.977,-188.477,-145.996
1688815549.712,-89.844,50.781,-123.047,-171.387,-60.059
1688815549.716,-107.910,47.363,-122.559,-154.297,16.602
1688815549.720,-115.234,40.039,-125.488,-169.434,-5.371
1688815549.724,-76.172,35.156,-119.629,-166.992,-3.906
1688815549.727,-46.875,38.086,-115.234,-129.883,229.004
1688815549.731,-52.734,38.086,-112.305,-130.371,-4.883
1688815549.735,-75.684,33.203,-113.281,-130.371,-119.629
1688815549.739,-76.660,27.344,-105.957,-130.859,106.934
1688815549.743,-37.109,21.484,-97.656,-149.414,-46.387
1688815549.744,-22.461,18.555,-93.262,-143.066,-210.449
1688815549.748,-42.969,16.113,-85.449,-118.652,-159.180
1688815549.752,-58.105,10.254,-85.449,-100.586,-32.715
1688815549.756,-58.594,6.348,-85.449,-120.117,-60.547
1688815549.760,-36.621,1.953,-79.590,-178.223,-166.016
1688815549.764,-12.695,3.418,-73.242,-190.918,-132.324
1688815549.768,-23.926,-1.953,-70.312,-149.902,210.449
1688815549.771,-43.457,-8.789,-65.430,-121.582,256.348
1688815549.775,-53.711,-7.812,-60.059,-110.352,-119.629
1688815549.779,-35.156,-11.719,-51.270,-110.840,-169.922
1688815549.783,-7.324,-15.137,-47.852,-80.566,22.461
1688815549.787,-10.742,-13.672,-48.340,-50.781,-83.984
1688815549.790,-26.855,-14.648,-48.828,-42.969,-76.172
1688815549.794,-36.133,-13.672,-53.711,-38.574,25.879
1688815549.798,-22.949,-16.113,-49.805,-55.176,-75.195
1688815549.802,-6.348,-20.020,-45.410,-42.969,-98.633
1688815549.806,-12.207,-17.578,-43.945,-20.996,-86.914
1688815549.810,-28.320,-14.648,-43.457,-20.508,-20.508
1688815549.814,-48.340,-20.508,-46.875,-25.391,106.934
1688815549.817,-34.668,-19.531,-47.363,-41.992,-70.801
1688815549.821,-7.324,-15.625,-43.457,-41.504,-193.848
1688815549.825,0.000,-20.508,-42.480,-28.809,-62.988
1688815549.829,-0.488,-18.555,-42.480,-11.230,-36.621
1688815549.833,-22.461,-14.648,-41.504,3.906,-98.633
1688815549.865,-18.555,-17.578,-35.156,-12.207,-73.242
1688815549.869,10.254,-20.020,-34.668,-19.531,-102.539
1688815549.873,13.672,-21.973,-41.016,-8.789,-43.457
1688815549.877,-4.395,-23.926,-42.480,-3.906,-54.199
1688815549.881,-32.715,-25.879,-41.016,5.859,-62.012
1688815549.885,-26.855,-29.785,-40.527,-4.883,169.922
1688815549.889,-0.488,-28.809,-40.039,-23.926,142.578
1688815549.892,7.324,-26.855,-35.645,-10.254,-43.457
1688815549.896,-3.418,-26.367,-34.668,-2.930,-34.668
1688815549.900,-35.156,-24.414,-34.668,6.836,229.980
1688815549.904,-32.715,-31.250,-32.227,8.301,97.168
1688815549.908,5.371,-29.297,-31.250,-3.418,-262.695
1688815549.894,-13.672,-19.043,-38.574,-23.926,-189.453
1688815549.898,-39.062,-20.996,-43.457,-41.016,-58.594
1688815549.902,-48.828,-20.020,-37.109,-22.461,-34.180
1688815549.906,-48.340,-13.672,-38.574,-35.645,-111.328
1688815549.910,-28.320,-14.648,-46.387,-52.734,-129.883
1688815549.914,-17.578,-20.020,-44.434,-42.480,-33.203
1688815549.918,-21.973,-13.184,-39.551,-41.016,-42.480
1688815549.921,-38.086,-10.254,-39.062,-30.273,-71.289
1688815549.925,-44.434,-14.160,-40.039,-35.156,-18.066
1688815549.929,-11.230,-15.137,-40.527,-49.805,-71.777
1688815549.933,10.742,-17.090,-38.086,-32.715,-141.602
1688815549.937,-5.859,-17.578,-34.180,-19.531,-191.406
1688815549.939,-18.555,-19.531,-30.273,-5.371,55.176
1688815549.943,-32.227,-27.344,-32.715,-2.441,261.230
1688815549.947,-19.043,-31.250,-36.621,-27.832,-103.516
1688815549.951,4.395,-25.879,-32.227,-13.672,-176.270
1688815549.955,0.000,-21.484,-28.320,5.371,-87.891
1688815549.959,-24.902,-22.461,-29.297,9.766,-9.277
1688815549.963,-40.527,-22.461,-31.250,6.348,-40.527
1688815549.966,-21.484,-25.879,-34.180,-20.020,-67.871
1688815549.970,4.395,-25.879,-34.668,1.953,215.332
1688815549.974,-3.906,-25.879,-31.738,8.789,29.297
1688815549.978,-34.180,-26.367,-29.785,4.395,-214.844
1688815549.982,-58.105,-22.461,-30.762,10.254,-87.402
1688815549.984,-41.504,-23.926,-29.297,-13.672,197.754
1688815549.988,-11.230,-25.879,-26.855,-11.719,169.434
1688815549.992,-8.301,-26.367,-27.832,1.465,-130.371
1688815549.996,-24.902,-25.879,-29.297,7.812,-87.891
1688815550.000,-41.504,-20.996,-28.809,12.695,-32.227
1688815550.004,-22.461,-22.949,-27.344,-10.254,-16.113
1688815550.008,4.883,-28.809,-29.297,-20.020,-53.223
1688815550.011,8.301,-24.902,-30.273,-4.883,-53.711
1688815550.015,6.348,-20.996,-25.879,1.953,132.812
1688815550.019,-10.254,-23.926,-26.367,-2.930,-2.441
1688815550.023,-5.371,-30.273,-33.691,-25.879,-162.109
1688815550.027,25.879,-28.809,-32.227,-32.715,-69.336
1688815550.029,32.227,-25.879,-31.738,-37.598,-79.102
1688815550.033,10.742,-26.855,-32.227,-76.660,-186.035
1688815550.037,-37.109,-30.762,-27.344,-79.590,-102.539
1688815550.041,-46.875,-32.227,-30.762,-95.703,-28.320
1688815550.045,-20.508,-30.762,-33.691,-116.211,-65.918
1688815550.049,-13.672,-30.273,-31.738,-93.750,-35.645
1688815550.053,-19.043,-31.738,-26.855,-86.426,-9.277
1688815550.056,-42.480,-37.109,-28.809,-73.242,288.574
1688815550.060,-45.898,-38.086,-32.227,-64.453,380.371
1688815550.064,-9.766,-33.691,-28.320,-69.336,-19.531
1688815550.068,1.465,-32.715,-30.273,-47.363,-215.332
1688815550.072,-18.066,-35.156,-35.645,-24.414,-130.371
1688815550.076,-45.898,-33.691,-31.738,-14.160,53.711
1688815550.080,-50.293,-30.273,-27.832,-39.062,-2.930
1688815550.084,-20.508,-30.273,-26.855,-51.270,-109.375
1688815550.088,-10.254,-30.273,-21.484,-25.391,-12.207
1688815550.092,-22.461,-32.715,-19.043,-14.160,-52.734
1688815550.096,-38.086,-35.645,-21.973,-7.812,-44.434
1688815550.100,-43.945,-31.250,-20.020,-12.207,62.500
1688815550.103,-24.902,-24.414,-19.531,-25.879,142.090
1688815550.107,-6.836,-26.855,-19.531,-17.578,-37.109
1688815550.111,-12.207,-27.344,-20.020,-10.254,-148.926
1688815550.115,-39.062,-27.344,-25.391,-2.930,-25.391
1688815550.119,-52.246,-25.879,-23.926,0.977,-5.859
1688815550.120,-22.461,-21.973,-23.438,-28.809,-137.207
1688815550.124,-4.395,-21.973,-24.414,-24.414,-162.598
1688815550.128,-7.812,-23.926,-27.832,-4.883,42.480
1688815550.132,-21.484,-24.902,-29.785,0.488,9.766
1688815550.136,-45.898,-26.367,-27.344,1.465,-132.812
1688815550.140,-33.203,-31.738,-28.809,-24.414,-94.727
1688815550.144,-14.648,-36.621,-29.785,-27.344,260.254
1688815550.147,-16.602,-35.156,-32.715,-10.254,492.188
1688815550.151,-33.203,-29.297,-33.203,-4.395,43.945
1688815550.155,-53.711,-30.762,-26.367,-8.301,-147.461
1688815550.159,-35.156,-31.738,-22.949,-27.832,-42.480
1688815550.163,-9.766,-30.273,-28.809,-16.602,-149.414
1688815550.164,-19.043,-33.691,-35.156,-14.160,-216.797
1688815550.168,-45.410,-32.227,-34.180,-19.043,-166.016
1688815550.172,-75.195,-30.762,-32.715,-12.695,-51.270
1688815550.176,-67.383,-32.227,-30.273,-38.086,-68.359
1688815550.180,-38.574,-37.598,-30.762,-36.133,-150.879
1688815550.184,-26.855,-37.598,-29.297,-6.348,-40.527
1688815550.188,-54.688,-32.715,-32.227,-21.973,187.500
1688815550.191,-82.031,-34.668,-44.434,-33.203,-2.930
1688815550.195,-66.895,-39.551,-43.945,-40.039,-227.051
1688815550.199,-45.898,-41.504,-34.668,-39.062,-145.996
1688815550.203,-41.504,-33.691,-34.180,-25.391,-98.633
1688815550.207,-48.828,-32.715,-30.762,-32.227,-178.223
1688815550.224,-69.824,-34.668,-29.785,-24.902,-120.117
1688815550.228,-69.824,-24.902,-33.691,-38.086,-24.414
1688815550.232,-39.062,-24.902,-33.203,-58.105,-44.434
1688815550.236,-23.926,-30.273,-37.109,-43.457,-185.059
1688815550.240,-29.297,-27.832,-38.574,-31.250,-172.852
1688815550.244,-58.594,-33.691,-41.016,-15.137,60.547
1688815550.248,-64.941,-36.621,-45.410,-36.133,69.824
1688815550.251,-26.855,-31.738,-41.992,-61.523,-97.656
1688815550.255,-19.043,-32.715,-37.598,-39.551,-87.891
1688815550.259,-31.250,-34.180,-33.691,-13.184,184.570
1688815550.263,-47.363,-33.203,-34.668,-0.977,325.684
1688815550.267,-58.105,-28.320,-28.809,-18.555,4.883
1688815550.269,-30.273,-27.832,-26.855,-34.668,-214.355
1688815550.273,-17.578,-31.738,-33.691,-13.672,-148.926
1688815550.277,-24.414,-27.344,-30.762,-6.348,-95.703
1688815550.281,-41.016,-30.762,-33.691,0.977,-118.164
1688815550.285,-60.547,-36.133,-32.227,-5.859,-81.543
1688815550.289,-38.086,-36.133,-24.414,-31.738,-25.879
1688815550.293,-16.602,-37.598,-28.320,-21.484,-21.484
1688815550.296,-30.762,-41.504,-32.715,-22.949,-140.137
1688815550.300,-49.805,-41.504,-30.762,-15.137,-44.434
1688815550.304,-64.453,-41.016,-34.180,-3.906,388.672
1688815550.308,-45.898,-38.086,-33.691,-45.410,28.320
1688815550.312,-15.625,-35.156,-28.809,-49.316,-240.723
1688815550.314,-22.949,-39.551,-33.691,-30.762,-94.727
1688815550.318,-46.387,-39.062,-39.551,-25.391,-106.445
1688815550.322,-70.312,-34.668,-36.621,-23.438,-125.488
1688815550.326,-50.781,-35.645,-35.156,-44.434,-182.129
1688815550.330,-14.648,-36.621,-37.598,-38.086,-152.832
1688815550.334,-8.301,-35.645,-36.133,-18.555,-74.707
1688815550.338,-26.855,-37.109,-34.180,-8.301,-48.340
1688815550.341,-47.852,-38.086,-33.203,-6.836,74.707
1688815550.345,-41.992,-36.133,-35.645,-25.391,335.938
1688815550.349,-19.043,-32.715,-35.156,-25.391,277.832
1688815550.353,-20.996,-32.715,-30.273,-13.672,-77.637
1688815550.357,-42.480,-35.645,-29.785,-15.625,24.902
1688815550.359,-66.406,-35.645,-33.203,-21.973,145.020
1688815550.363,-57.617,-34.180,-32.227,-48.340,-71.777
1688815550.367,-30.273,-31.250,-29.785,-48.828,-143.066
1688815550.371,-27.832,-28.320,-33.691,-21.484,-104.492
1688815550.375,-46.387,-32.715,-34.668,-14.648,-92.773
1688815550.379,-76.172,-36.133,-36.621,-13.184,-37.598
1688815550.383,-72.754,-35.645,-40.039,-42.480,-30.273
1688815550.386,-45.898,-35.156,-35.156,-49.805,-27.832
1688815550.390,-37.598,-35.156,-35.156,-18.555,192.871
1688815550.394,-42.969,-35.645,-34.668,-24.414,-6.348
1688815550.398,-67.383,-36.133,-34.668,-24.902,-125.488
1688815550.402,-68.359,-37.109,-37.109,-35.156,-50.293
1688815550.405,-37.109,-36.133,-36.133,-41.016,-145.996
1688815550.409,-27.832,-34.180,-38.086,-23.926,-167.480
1688815550.413,-45.410,-34.180,-38.574,-24.902,-105.469
1688815550.417,-66.895,-30.762,-37.598,-11.719,43.945
1688815550.421,-70.801,-31.738,-36.133,-15.625,32.227
1688815550.425,-45.898,-36.133,-32.715,-43.945,-83.496
1688815550.429,-34.180,-36.133,-30.273,-31.250,-108.398
1688815550.432,-45.898,-43.945,-30.762,-14.648,240.723
1688815550.436,-65.430,-41.016,-30.762,-6.836,430.176
1688815550.440,-66.406,-31.738,-29.297,-19.531,-77.637
1688815550.444,-41.992,-38.574,-30.762,-42.480,-227.539
1688815550.448,-20.020,-40.039,-31.250,-32.227,-108.887
1688815550.449,-20.020,-32.715,-26.367,-17.090,-124.023
1688815550.453,-39.551,-33.203,-25.879,-12.695,-114.746
1688815550.457,-57.129,-38.574,-30.762,-15.137,-151.367
1688815550.461,-45.898,-39.551,-33.203,-34.180,-185.059
1688815550.465,-31.250,-39.551,-30.273,-29.785,-98.633
1688815550.469,-28.809,-38.086,-28.809,-21.484,-113.281
1688815550.473,-36.133,-34.668,-28.809,-10.742,42.969
1688815550.476,-54.199,-32.715,-32.715,-8.301,342.773
1688815550.480,-41.992,-34.668,-36.621,-47.852,5.859
1688815550.484,-17.090,-36.621,-36.133,-48.340,-233.887
1688815550.488,-20.996,-37.598,-35.156,-23.926,-70.312
1688815550.492,-41.504,-40.527,-36.133,-18.066,-82.031
1688815550.494,-62.500,-42.480,-36.133,-20.508,-133.301
1688815550.498,-47.363,-37.109,-36.133,-44.434,-205.078
1688815550.502,-19.043,-35.156,-34.180,-40.527,-156.738
1688815550.506,-22.461,-36.133,-36.621,-25.879,-109.375
1688815550.510,-39.551,-35.156,-38.086,-25.879,-139.648
1688815550.514,-60.059,-38.574,-32.715,-12.207,20.020
1688815550.518,-51.758,-36.621,-29.785,-25.391,263.184
1688815550.521,-23.926,-30.273,-30.273,-39.062,175.781
1688815550.525,-18.555,-30.762,-28.320,-25.879,-31.250
1688815550.529,-28.320,-25.391,-29.297,-18.555,-29.297
1688815550.533,-48.340,-24.902,-28.320,-4.395,240.723
1688815550.537,-36.133,-33.691,-28.809,-20.508,130.859
1688815550.539,-5.859,-32.227,-28.320,-34.180,-219.727
1688815550.543,2.930,-29.297,-28.320,-18.555,-194.336
1688815550.547,-4.395,-27.832,-27.344,-19.531,-144.531
1688815550.551,-25.879,-24.414,-24.902,-15.625,-144.043
1688815550.555,-32.715,-25.879,-27.344,-27.832,-177.734
1688815550.559,-5.859,-27.344,-34.180,-42.480,-54.199
1688815550.563,8.301,-29.297,-40.039,-42.480,101.562
1688815550.566,-7.812,-29.297,-37.598,-35.645,-125.000
1688815550.570,-27.344,-27.832,-37.109,-24.414,-132.324
1688815550.574,-25.391,-32.227,-36.621,-32.227,38.086
1688815550.578,-3.418,-34.668,-36.621,-50.781,7.324
1688815550.582,3.906,-36.621,-40.527,-48.828,-102.539
1688815550.600,-1.465,-38.086,-39.062,-35.645,-119.141
1688815550.604,-19.043,-39.551,-39.062,-24.902,-65.918
1688815550.608,-32.715,-33.691,-43.457,-37.598,-116.699
1688815550.612,-12.695,-34.180,-41.016,-61.523,-238.281
1688815550.616,-3.418,-46.875,-40.527,-56.152,-166.504
1688815550.620,-16.602,-47.852,-41.504,-42.969,1.953
1688815550.624,-36.621,-39.551,-38.086,-34.180,29.297
1688815550.627,-52.246,-34.180,-39.551,-44.922,-51.758
1688815550.631,-29.297,-34.180,-39.062,-61.035,-89.355
1688815550.635,3.418,-32.227,-35.645,-40.039,126.465
1688815550.639,-5.859,-32.227,-32.715,-39.062,229.492
1688815550.643,-30.762,-34.668,-32.227,-43.457,42.969
1688815550.645,-42.969,-34.668,-29.785,-36.133,-16.113
1688815550.649,-21.973,-34.180,-29.297,-51.758,-15.137
1688815550.653,0.977,-34.180,-25.879,-44.434,-40.527
1688815550.657,-9.766,-39.062,-21.973,-39.062,-18.555
1688815550.661,-37.109,-38.086,-23.926,-34.180,-61.523
1688815550.665,-54.199,-35.156,-25.879,-37.598,13.672
1688815550.669,-45.898,-38.574,-33.203,-66.895,30.762
1688815550.672,-29.297,-41.016,-32.715,-53.711,-132.812
1688815550.676,-33.203,-38.086,-30.762,-46.875,-65.430
1688815550.680,-59.082,-33.203,-33.203,-43.457,210.938
1688815550.684,-77.637,-37.598,-32.715,-46.875,12.207
1688815550.688,-62.500,-39.062,-34.668,-79.102,-209.961
1688815550.705,-23.438,-32.715,-32.227,-77.148,-161.133
1688815550.709,-15.625,-35.156,-35.645,-63.477,-148.926
1688815550.713,-25.879,-34.180,-36.621,-62.988,-181.152
1688815550.717,-40.039,-30.273,-39.062,-62.012,-56.152
1688815550.721,-37.109,-29.785,-40.039,-79.590,62.500
1688815550.725,-12.695,-28.320,-37.598,-83.008,22.949
1688815550.729,-7.812,-34.668,-37.598,-73.730,1.465
1688815550.732,-15.137,-36.621,-38.574,-68.848,22.949
1688815550.736,-38.574,-32.715,-37.598,-37.109,297.852
1688815550.740,-47.852,-30.273,-28.320,-41.504,304.688
1688815550.744,-22.949,-29.297,-20.508,-78.125,-118.652
1688815550.748,-9.766,-29.297,-20.996,-65.918,-205.566
1688815550.735,-26.367,-29.297,-27.832,-57.617,-167.480
1688815550.739,-54.688,-33.691,-32.715,-64.453,-143.066
1688815550.743,-52.734,-37.598,-31.250,-74.219,-177.246
1688815550.747,-29.297,-35.645,-28.809,-79.590,-176.270
1688815550.751,-20.508,-31.250,-28.809,-66.406,-13.672
1688815550.755,-36.133,-28.320,-27.832,-57.617,25.391
1688815550.759,-56.152,-26.855,-25.391,-42.969,10.254
1688815550.762,-66.406,-32.715,-28.809,-53.223,-44.922
1688815550.766,-38.086,-39.062,-28.809,-69.824,-90.820
1688815550.770,-10.742,-34.668,-27.344,-45.410,-123.047
1688815550.774,-28.809,-33.203,-33.203,-44.434,-186.523
1688815550.778,-54.199,-32.715,-30.273,-45.898,24.414
1688815550.779,-56.641,-32.715,-36.621,-46.387,177.246
1688815550.783,-37.109,-34.668,-43.457,-71.777,-132.812
1688815550.787,-16.602,-34.668,-41.504,-64.941,-153.320
1688815550.791,-19.043,-31.738,-40.527,-46.387,-32.227
1688815550.795,-55.176,-31.250,-42.969,-39.551,-48.340
1688815550.799,-67.383,-34.180,-41.016,-46.387,-29.785
1688815550.803,-37.109,-37.598,-39.062,-66.406,-23.438
1688815550.806,-18.555,-36.621,-40.527,-59.570,269.043
1688815550.810,-22.949,-35.645,-38.086,-43.457,437.988
1688815550.814,-47.363,-38.086,-38.086,-37.109,53.223
1688815550.818,-65.918,-34.180,-39.551,-35.645,-107.910
1688815550.822,-50.781,-29.785,-34.668,-53.223,-52.246
1688815550.824,-32.715,-28.320,-28.320,-50.293,-155.273
1688815550.828,-32.715,-26.367,-29.297,-44.922,-166.016
1688815550.832,-48.340,-28.809,-34.668,-50.293,-83.008
1688815550.836,-70.801,-29.785,-38.574,-47.852,-51.758
1688815550.840,-53.711,-27.832,-36.133,-63.965,-60.059
1688815550.844,-19.043,-29.297,-37.109,-49.316,-5.371
1688815550.848,-3.906,-29.297,-31.738,-6.836,134.766
1688815550.851,-25.879,-36.621,-19.043,-3.906,306.641
1688815550.855,-69.824,-40.039,-17.090,-24.902,157.227
1688815550.859,-67.871,-40.527,-15.625,-38.086,-106.445
1688815550.863,-41.016,-45.410,-6.348,-36.133,-129.395
1688815550.867,-31.738,-50.781,-1.465,-23.438,-70.312
1688815550.870,-46.387,-57.129,-4.395,-21.484,-117.188
1688815550.874,-64.941,-59.082,-1.465,-25.879,-109.375
1688815550.878,-54.688,-66.406,5.371,-35.645,-87.891
1688815550.882,-35.156,-68.359,8.789,-23.926,-92.773
1688815550.886,-32.227,-74.707,6.836,-7.324,-129.395
1688815550.890,-36.133,-79.590,9.766,-3.906,-62.500
1688815550.894,-40.039,-77.148,19.043,0.977,231.445
1688815550.897,-48.340,-82.031,17.578,-19.043,250.488
1688815550.901,-46.875,-88.379,15.625,-17.090,-41.992
1688815550.905,-31.738,-90.332,23.438,15.625,-66.895
1688815550.909,-22.949,-89.355,27.832,25.879,233.887
1688815550.913,-41.504,-88.379,21.484,15.137,121.582
1688815550.914,-50.293,-89.355,23.438,9.277,-150.391
1688815550.918,-31.738,-90.332,28.809,8.301,-142.578
1688815550.922,-19.043,-87.402,26.855,20.020,-120.117
1688815550.926,-30.273,-86.426,27.832,26.855,-104.492
1688815550.930,-62.500,-87.891,29.785,15.137,-120.117
1688815550.934,-73.242,-88.867,31.738,2.930,2.441
1688815550.938,-55.664,-84.961,37.598,18.066,159.668
1688815550.941,-51.758,-84.961,35.156,36.621,-43.945
1688815550.945,-55.664,-86.426,34.668,39.062,-203.613
1688815550.949,-68.359,-86.426,34.668,32.715,-73.242
1688815550.953,-65.918,-83.984,31.250,24.902,-54.199
1688815550.957,-33.691,-81.543,33.691,28.320,-226.074
1688815550.974,-17.578,-81.543,34.668,38.086,-156.250
1688815550.978,-15.625,-84.473,32.715,13.672,30.762
1688815550.982,-16.602,-83.496,30.762,-6.348,-103.027
1688815550.986,-22.461,-78.125,30.273,-6.836,-202.637
1688815550.990,-6.348,-78.613,30.762,0.977,-103.516
1688815550.994,6.348,-76.172,33.691,25.879,26.855
1688815550.998,-4.395,-77.148,30.762,24.902,63.965
1688815551.001,-26.855,-79.590,27.344,8.789,-39.551
1688815551.005,-35.156,-78.613,22.461,-5.859,-83.008
1688815551.009,-7.324,-76.660,20.020,4.883,164.551
1688815551.013,0.488,-73.730,20.508,18.066,181.641
1688815551.017,-12.207,-69.336,17.090,16.113,-141.113
1688815551.019,-14.160,-68.359,13.672,15.137,-168.457
1688815551.023,-24.414,-65.430,11.230,15.625,-133.789
1688815551.027,-10.254,-56.641,16.113,10.742,-157.715
1688815551.031,4.883,-55.664,16.602,12.207,-81.543
1688815551.035,8.301,-57.617,11.230,31.250,-3.906
1688815551.039,9.766,-53.711,6.348,25.879,115.234
1688815551.043,-11.719,-54.199,2.930,6.836,43.945
1688815551.046,-9.277,-53.223,-0.977,2.441,-99.609
1688815551.050,15.137,-51.758,-6.348,10.254,-53.223
1688815551.054,20.020,-53.711,-7.812,20.020,162.109
1688815551.058,9.766,-49.805,-11.230,5.859,-41.016
1688815551.062,-3.906,-44.434,-16.602,-9.766,-229.492
1688815551.064,-7.324,-45.410,-19.043,-9.277,-136.230
1688815551.068,11.230,-45.898,-17.578,-10.742,-103.027
1688815551.072,33.203,-40.039,-16.602,-9.277,-145.508
1688815551.076,25.391,-34.180,-16.602,1.465,-110.352
1688815551.080,7.324,-36.133,-17.090,-3.418,6.836
1688815551.084,18.066,-44.434,-21.973,-8.301,-32.227
1688815551.088,34.668,-47.852,-25.879,-3.418,-47.363
1688815551.091,31.738,-45.898,-28.809,0.000,-38.574
1688815551.095,14.160,-50.293,-25.879,-1.953,170.898
1688815551.099,-6.836,-55.664,-28.809,-7.812,325.195
1688815551.103,-12.695,-57.129,-29.785,-26.367,3.418
1688815551.107,7.812,-52.246,-23.926,-27.344,-159.180
1688815551.109,22.461,-45.410,-26.855,-0.977,-98.145
1688815551.113,11.719,-45.898,-24.414,6.348,-129.883
1688815551.117,0.488,-43.457,-20.996,0.488,-111.816
1688815551.121,4.883,-40.527,-24.902,-13.184,-133.301
1688815551.125,22.461,-42.480,-29.297,-13.672,-146.973
1688815551.129,28.809,-43.457,-31.738,-12.207,-25.879
1688815551.133,24.902,-39.062,-32.715,-16.602,-11.719
1688815551.136,11.719,-40.527,-33.691,-16.602,33.691
1688815551.140,-4.395,-44.922,-36.621,-25.391,326.660
1688815551.144,11.230,-39.062,-36.133,-23.438,116.211
1688815551.148,29.297,-38.086,-36.621,-9.277,-55.664
1688815551.152,19.043,-41.504,-33.691,-3.418,1.953
1688815551.154,10.742,-38.086,-36.133,-7.324,-73.730
1688815551.158,4.395,-33.691,-35.645,-18.555,-129.395
1688815551.162,3.418,-35.156,-31.738,-15.137,-118.652
1688815551.166,17.578,-31.738,-28.320,-2.441,-43.457
1688815551.170,3.906,-36.621,-30.273,-1.465,-113.770
1688815551.174,-15.625,-43.457,-34.668,-8.789,-69.824
1688815551.178,-20.996,-40.527,-34.180,-31.738,69.336
1688815551.181,-13.184,-40.527,-34.668,-32.715,255.859
1688815551.185,4.395,-44.922,-37.598,-15.137,323.730
1688815551.189,9.766,-48.340,-41.504,-20.020,-0.488
1688815551.193,-9.766,-48.828,-41.992,-13.672,-7.324
1688815551.197,-26.367,-47.852,-38.086,-12.695,30.273
1688815551.200,-16.113,-47.363,-34.180,-22.949,-127.441
1688815551.204,5.859,-44.434,-34.180,-12.207,-172.363
1688815551.208,6.836,-42.480,-37.109,-4.395,-91.797
1688815551.212,-13.672,-41.992,-40.039,-19.531,-41.992
1688815551.216,-19.531,-38.086,-39.062,-37.598,-60.059
1688815551.220,-4.883,-38.574,-35.645,-35.645,-118.164
1688815551.224,2.930,-37.598,-34.180,-26.855,-3.418
1688815551.227,0.488,-40.527,-31.738,-23.438,265.625
1688815551.231,-3.418,-38.574,-29.785,-30.273,27.832
1688815551.235,-15.137,-34.180,-33.691,-35.156,-97.168
1688815551.239,-13.672,-33.691,-37.598,-44.434,-31.250
1688815551.243,7.812,-34.668,-40.039,-32.227,-120.117
1688815551.245,15.137,-34.180,-39.062,-24.414,-46.875
1688815551.249,6.836,-34.180,-38.086,-31.738,-101.562
1688815551.253,-9.277,-35.156,-37.109,-30.273,5.859
1688815551.257,-13.672,-33.691,-36.133,-40.527,5.859
1688815551.261,-3.906,-35.156,-36.133,-49.805,-112.793
1688815551.265,8.789,-38.086,-32.227,-38.574,-11.719
1688815551.269,1.953,-37.598,-30.762,-32.227,214.844
1688815551.272,-13.184,-37.109,-27.832,-34.668,253.906
1688815551.276,-12.207,-37.598,-30.273,-35.156,-79.590
1688815551.280,-1.953,-38.574,-32.227,-27.344,-138.672
1688815551.284,-6.836,-42.480,-29.785,-17.090,119.629
1688815551.288,-12.207,-41.016,-28.320,-24.902,-12.207
1688815551.305,-18.066,-41.992,-32.715,-36.621,-83.496
1688815551.309,-29.785,-43.457,-39.062,-41.992,-126.953
1688815551.313,-8.301,-39.551,-33.203,-39.062,-122.070
1688815551.317,8.789,-37.109,-33.691,-32.227,-79.102
1688815551.321,-5.859,-38.086,-39.062,-27.344,-187.012
1688815551.325,-23.926,-39.062,-37.109,-25.879,12.207
1688815551.329,-27.832,-37.109,-40.039,-41.016,297.363
1688815551.332,-12.207,-35.645,-38.086,-51.758,-33.691
1688815551.336,12.695,-33.203,-35.156,-40.039,-234.375
1688815551.340,13.184,-30.273,-34.668,-30.273,-131.348
1688815551.344,-11.230,-33.691,-32.715,-26.367,-130.859
1688815551.348,-23.438,-34.180,-37.598,-34.180,-83.984
1688815551.349,-10.742,-29.785,-34.180,-35.156,-71.289
1688815551.353,-13.184,-29.297,-32.715,-24.902,-68.359
1688815551.357,-23.438,-33.691,-37.109,-34.180,-91.309
1688815551.361,-20.020,-36.621,-37.109,-43.945,-138.672
1688815551.365,-30.762,-36.621,-40.527,-52.734,-98.633
1688815551.369,-30.762,-38.574,-41.016,-56.152,44.922
1688815551.373,-1.465,-40.039,-41.016,-42.480,31.250
1688815551.376,8.301,-44.434,-40.527,-32.715,-33.203
1688815551.380,2.441,-42.969,-38.086,-28.809,7.812
1688815551.384,-12.207,-40.039,-37.109,-24.902,189.941
1688815551.388,-13.672,-41.016,-37.109,-24.414,276.855
1688815551.392,-11.719,-42.969,-40.527,-24.902,-17.578
1688815551.394,-19.043,-44.434,-39.551,-34.180,-101.074
1688815551.398,-29.297,-45.898,-38.086,-38.574,-47.363
1688815551.402,-28.809,-48.340,-38.574,-28.809,-113.281
1688815551.406,-18.555,-45.898,-39.551,-33.691,-161.621
1688815551.410,-4.395,-39.062,-33.203,-29.297,-176.270
1688815551.414,-0.977,-35.156,-29.297,-20.020,-24.902
1688815551.418,-20.020,-41.504,-34.180,-30.762,-28.320
1688815551.421,-29.785,-42.480,-38.086,-43.457,-112.305
1688815551.425,-19.043,-34.668,-35.645,-53.711,-76.660
1688815551.429,-8.301,-34.668,-33.203,-45.410,216.797
1688815551.433,1.465,-32.227,-31.250,-43.457,54.199
1688815551.437,0.000,-27.832,-34.668,-60.059,-189.453
1688815551.440,-17.578,-32.715,-39.551,-78.125,-73.242
1688815551.444,-24.902,-41.504,-35.156,-85.449,-106.934
1688815551.448,-15.137,-49.316,-31.738,-76.660,-182.617
1688815551.452,-8.789,-47.852,-29.785,-61.035,-155.273
1688815551.456,-20.508,-43.457,-35.645,-63.965,-116.211
1688815551.460,-43.945,-49.805,-41.016,-74.219,-11.230
1688815551.464,-48.340,-50.293,-37.598,-82.520,-13.672
1688815551.467,-28.809,-46.875,-39.062,-85.938,-23.438
1688815551.471,-13.184,-50.293,-39.551,-68.359,239.258
1688815551.475,-27.832,-49.316,-39.551,-54.199,425.293
1688815551.479,-39.551,-45.898,-35.645,-60.059,21.484
1688815551.483,-37.109,-47.852,-35.156,-61.035,-220.215
1688815551.499,-19.531,-47.852,-41.992,-45.410,-107.910
1688815551.503,3.906,-49.316,-39.062,-22.461,-154.785
1688815551.507,-0.977,-45.898,-32.227,-22.949,-164.062
1688815551.511,-18.555,-39.551,-32.715,-27.832,-82.520
1688815551.515,-30.762,-40.527,-37.109,-38.086,4.883
1688815551.519,-24.414,-42.969,-39.062,-38.086,-8.789
1688815551.523,-11.230,-43.945,-38.086,-23.438,-38.086
1688815551.526,-16.113,-41.504,-36.133,-13.184,0.000
1688815551.530,-35.645,-39.551,-37.598,-18.555,210.938
1688815551.534,-42.480,-35.156,-36.133,-24.902,15.137
1688815551.538,-33.203,-32.715,-36.621,-11.719,-194.336
1688815551.542,-26.855,-39.551,-39.062,-10.742,-91.309
1688815551.529,-22.461,-34.668,-38.086,-17.578,-57.617
1688815551.533,-28.809,-24.902,-35.156,-26.367,-135.254
1688815551.537,-42.969,-28.320,-32.715,-34.180,-167.480
1688815551.541,-37.598,-35.156,-32.227,-30.762,-3.418
1688815551.545,-17.090,-33.691,-33.203,-12.207,-54.199
1688815551.549,-15.137,-35.156,-34.180,1.465,-185.547
1688815551.553,-35.156,-37.598,-35.156,-1.953,3.418
1688815551.556,-39.062,-34.180,-37.109,-9.277,190.430
1688815551.560,-23.926,-32.227,-36.621,-17.090,-8.789
1688815551.564,-1.465,-33.691,-32.715,-4.883,-138.184
1688815551.568,5.371,-35.645,-30.273,9.277,-118.652
1688815551.572,-12.207,-36.621,-28.809,12.695,137.207
1688815551.576,-21.973,-36.133,-29.297,6.836,155.762
1688815551.580,-20.508,-40.039,-34.668,-15.137,-127.930
1688815551.584,-16.602,-43.457,-41.016,-10.742,-71.777
1688815551.588,-3.418,-37.109,-34.668,10.254,20.996
1688815551.592,-3.418,-35.156,-33.203,0.977,-115.234
1688815551.596,-21.973,-37.109,-40.527,-19.531,-164.551
1688815551.600,-12.695,-33.203,-41.504,-16.113,44.922
1688815551.603,18.555,-28.809,-38.574,0.977,181.641
1688815551.607,22.949,-29.297,-33.203,8.301,-56.152
1688815551.611,1.953,-32.227,-34.180,6.836,-202.637
1688815551.615,-14.160,-31.738,-40.039,-2.441,-104.492
1688815551.619,-14.160,-31.250,-41.992,-14.648,-89.355
1688815551.620,-7.812,-35.156,-41.504,-12.695,-158.691
1688815551.624,0.488,-36.621,-43.945,-0.488,-97.656
1688815551.628,-5.859,-36.133,-41.016,3.418,-48.828
1688815551.632,-21.973,-31.250,-37.598,4.883,-90.332
1688815551.636,-28.809,-29.785,-40.527,-6.836,-102.051
1688815551.640,-14.648,-34.180,-39.551,-19.043,-90.820
1688815551.644,-19.043,-41.504,-36.621,-9.766,235.352
1688815551.647,-37.598,-42.480,-44.922,-3.418,477.539
1688815551.651,-41.016,-41.992,-47.363,-16.113,91.309
1688815551.655,-42.480,-40.527,-42.969,-29.785,-152.832
1688815551.659,-29.297,-36.621,-41.504,-19.043,-27.832
1688815551.663,-11.719,-34.668,-45.898,-16.602,-61.035
1688815551.665,-6.348,-37.109,-47.363,-30.762,-167.969
1688815551.669,-20.996,-41.016,-46.387,-35.156,-228.027
1688815551.673,-36.133,-33.691,-44.922,-45.410,-160.645
1688815551.677,-26.367,-31.250,-41.504,-40.039,-144.531
1688815551.681,-8.301,-38.086,-37.109,-27.344,-185.059
1688815551.685,-14.648,-39.551,-37.598,-30.273,-72.266
1688815551.689,-38.574,-37.109,-40.039,-29.785,93.750
1688815551.692,-49.316,-39.062,-42.480,-33.203,5.859
1688815551.696,-33.691,-42.969,-38.086,-35.156,-194.336
1688815551.700,-11.230,-44.922,-38.086,-26.855,-106.934
1688815551.704,-8.301,-41.016,-41.504,-17.578,96.680
1688815551.708,-26.367,-34.180,-37.598,-38.086,-115.723
1688815551.725,-44.434,-33.203,-35.156,-62.012,-214.844
1688815551.729,-36.621,-38.574,-34.668,-65.430,-128.418
1688815551.733,-18.555,-42.969,-38.574,-56.641,-54.199
1688815551.737,-14.648,-42.969,-40.039,-51.270,-118.652
1688815551.741,-29.297,-42.969,-39.551,-47.363,-118.652
1688815551.745,-38.574,-40.039,-37.109,-41.504,116.699
1688815551.749,-29.785,-35.156,-36.133,-48.340,67.871
1688815551.752,-7.324,-29.785,-37.598,-31.250,-27.832
1688815551.756,-1.953,-30.273,-35.156,-8.301,-41.992
1688815551.760,-11.719,-36.133,-37.598,-4.395,222.168
1688815551.764,-20.020,-32.227,-35.156,-0.488,403.320
1688815551.768,-21.484,-28.320,-31.250,-14.160,-2.930
1688815551.769,-6.836,-34.180,-32.227,-14.648,-148.926
1688815551.773,-7.812,-35.645,-37.109,-3.906,-88.867
1688815551.777,-23.438,-40.039,-42.969,-11.719,-127.441
1688815551.781,-36.621,-41.992,-40.039,-17.090,-166.992
1688815551.785,-39.062,-36.621,-32.715,-22.949,-151.855
1688815551.789,-22.461,-36.621,-35.645,-29.297,-50.781
1688815551.793,-13.184,-30.762,-38.574,-24.902,-33.691
1688815551.796,-24.414,-26.367,-35.645,-29.785,-127.441
1688815551.800,-43.457,-29.785,-39.551,-30.273,-68.848
1688815551.804,-49.316,-34.180,-41.016,-29.785,173.340
1688815551.808,-30.762,-34.668,-39.062,-48.828,-29.785
1688815551.812,-13.672,-31.250,-36.133,-55.664,-153.809
1688815551.829,-25.879,-29.785,-32.715,-67.383,1.465
1688815551.833,-44.922,-28.809,-36.133,-90.820,-68.359
1688815551.837,-52.734,-36.621,-30.762,-100.098,-199.219
1688815551.841,-32.227,-48.340,-24.902,-72.266,-139.648
1688815551.845,0.977,-47.363,-28.809,-27.832,-59.570
1688815551.849,-16.602,-36.621,-44.922,-40.039,-126.465
1688815551.853,-53.711,-26.855,-53.223,-62.012,-168.457
1688815551.856,-68.848,-23.438,-54.688,-76.660,-56.152
1688815551.860,-56.641,-23.926,-48.340,-72.266,248.535
1688815551.864,-48.828,-18.066,-49.805,-56.152,301.758
1688815551.868,-64.453,-13.184,-64.941,-83.984,-48.828
1688815551.872,-79.590,-10.254,-72.266,-97.656,-137.695
1688815551.860,-93.262,-9.766,-78.125,-102.051,-46.875
1688815551.864,-83.984,-10.254,-79.590,-117.188,-61.523
1688815551.868,-78.125,1.465,-84.473,-114.258,-141.602
1688815551.872,-96.680,2.930,-92.285,-114.746,-45.410
1688815551.876,-109.375,-1.465,-93.750,-121.094,101.562
1688815551.880,-109.375,2.930,-101.562,-120.605,-36.133
1688815551.884,-103.516,3.418,-103.516,-133.301,-72.754
1688815551.887,-100.586,9.766,-101.074,-135.254,-53.223
1688815551.891,-103.516,19.043,-106.445,-129.883,-40.527
1688815551.895,-105.957,18.066,-109.375,-142.578,-79.102
1688815551.899,-115.234,17.578,-115.723,-158.691,-152.832
1688815551.903,-118.164,23.926,-121.582,-162.598,42.480
1688815551.904,-96.191,30.762,-118.164,-142.578,180.664
1688815551.908,-82.520,34.180,-125.977,-137.207,-71.777
1688815551.912,-100.586,37.109,-124.023,-150.879,-143.555
1688815551.916,-118.164,33.691,-122.559,-147.461,-34.180
1688815551.920,-105.469,33.203,-133.789,-145.508,2.930
1688815551.924,-80.078,39.062,-130.859,-137.207,-39.062
1688815551.928,-62.012,42.969,-126.953,-117.188,0.000
1688815551.931,-62.500,38.574,-128.906,-107.910,259.766
1688815551.935,-76.660,35.156,-129.883,-116.211,347.168
1688815551.939,-67.871,40.039,-126.953,-146.484,-16.113
1688815551.943,-36.621,38.086,-123.047,-128.906,-161.621
1688815551.947,-29.297,31.738,-118.164,-92.773,-73.730
1688815551.949,-35.645,31.738,-112.793,-86.426,-115.723
1688815551.953,-38.574,32.715,-105.957,-89.844,-153.320
1688815551.957,-41.016,26.367,-99.609,-88.379,-102.539
1688815551.961,-28.809,17.090,-103.027,-81.543,-91.309
1688815551.965,-10.254,17.578,-95.703,-72.266,-106.445
1688815551.969,-13.672,12.695,-85.938,-60.547,-86.426
1688815551.973,-31.738,13.184,-82.520,-54.688,41.016
1688815551.976,-39.551,13.672,-76.172,-64.453,317.871
1688815551.980,-21.484,5.859,-74.707,-68.848,93.262
1688815551.984,-6.348,0.488,-70.312,-58.594,-209.473
1688815551.988,-19.043,-2.441,-64.453,-53.711,-171.875
1688815551.992,-33.691,-1.953,-71.289,-58.594,-137.207
1688815551.994,-40.039,-4.883,-72.754,-79.590,-188.477
1688815551.998,-30.762,-9.766,-68.359,-87.402,-208.984
1688815552.002,-23.926,-6.348,-69.336,-67.871,-151.855
1688815552.006,-28.320,-8.301,-69.336,-60.059,-109.863
1688815552.010,-38.086,-11.719,-68.359,-68.848,-114.258
1688815552.014,-46.875,-9.277,-61.035,-78.613,-105.469
1688815552.018,-30.762,-10.742,-56.152,-65.430,212.402
1688815552.021,-13.672,-13.184,-53.711,-65.918,224.121
1688815552.025,-5.859,-8.301,-50.781,-73.242,-45.410
1688815552.029,0.000,-4.883,-49.316,-64.941,0.488
1688815552.033,-4.883,-4.395,-46.875,-56.641,160.645
1688815552.037,2.930,-5.371,-46.875,-54.688,65.918
1688815552.041,16.113,-9.277,-49.805,-47.852,-200.684
1688815552.045,19.043,-12.207,-48.828,-37.598,-194.336
1688815552.049,18.066,-11.230,-40.039,-27.344,-121.582
1688815552.053,3.418,-5.859,-37.109,-25.391,-109.375
1688815552.057,-3.418,-10.742,-37.598,-31.738,-170.898
1688815552.061,13.184,-13.672,-35.645,-13.184,-108.398
1688815552.065,14.160,-13.672,-38.086,-1.953,95.703
1688815552.068,-10.254,-18.066,-41.016,-31.738,-23.926
1688815552.072,-29.297,-19.043,-45.898,-42.969,-180.664
1688815552.076,-30.273,-22.949,-47.363,-40.527,-128.418
1688815552.080,-20.508,-24.414,-41.504,-34.668,-44.922
1688815552.084,-19.043,-26.367,-43.457,-21.484,-32.715
1688815552.099,-24.414,-27.344,-46.387,-18.555,-124.023
1688815552.103,-36.621,-25.879,-39.062,-23.438,-69.824
1688815552.107,-36.133,-29.785,-35.645,-29.297,-62.988
1688815552.111,-25.879,-29.297,-35.645,-20.996,-184.570
1688815552.115,-19.531,-23.926,-33.203,-18.555,-162.109
1688815552.119,-26.367,-25.879,-36.621,-25.879,223.145
1688815552.123,-41.504,-26.855,-39.551,-30.273,264.160
1688815552.126,-42.969,-25.879,-39.062,-45.898,-98.633
1688815552.130,-32.715,-30.762,-36.133,-47.363,-71.777
1688815552.134,-19.531,-31.250,-35.645,-27.832,155.273
1688815552.138,-22.461,-28.809,-35.645,-19.043,60.547
1688815552.142,-34.668,-28.809,-34.668,-29.297,-170.410
1688815552.144,-44.922,-33.691,-36.621,-34.668,-101.074
1688815552.148,-29.297,-37.109,-30.273,-20.996,-3.418
1688815552.152,-13.672,-31.738,-27.344,-5.371,-74.707
1688815552.156,-27.344,-32.227,-34.180,-9.277,-139.160
1688815552.160,-38.574,-30.273,-40.527,-7.812,-7.324
1688815552.164,-38.574,-33.691,-39.551,-16.602,94.238
1688815552.168,-35.156,-41.992,-32.227,-29.785,-10.254
1688815552.171,-36.621,-43.945,-37.109,-22.949,-74.219
1688815552.175,-46.387,-44.922,-41.992,-15.625,3.418
1688815552.179,-54.688,-37.598,-37.598,-10.742,232.910
1688815552.183,-48.340,-33.203,-37.598,-26.855,4.395
1688815552.187,-26.367,-35.156,-35.156,-31.250,-194.336
1688815552.189,-13.672,-35.645,-31.250,-31.250,-93.750
1688815552.193,-22.461,-36.621,-32.227,-40.527,-56.641
1688815552.197,-39.551,-30.273,-31.250,-45.898,-83.496
1688815552.201,-55.176,-25.879,-26.855,-42.969,-32.227
1688815552.205,-49.316,-28.809,-32.227,-43.945,34.668
1688815552.209,-32.227,-27.344,-30.762,-31.738,-18.555
1688815552.213,-26.855,-27.832,-26.855,-24.902,-120.605
1688815552.216,-33.691,-26.855,-29.297,-32.227,-98.633
1688815552.220,-44.434,-25.879,-29.297,-31.250,228.516
1688815552.224,-28.809,-27.832,-29.785,-35.645,86.914
1688815552.228,-6.836,-24.902,-31.250,-29.785,-159.180
1688815552.232,-11.230,-27.344,-30.762,-11.719,-86.426
1688815552.234,-23.438,-29.785,-31.250,-14.648,162.598
1688815552.238,-32.227,-31.250,-32.227,-34.180,64.941
1688815552.242,-23.926,-29.297,-30.273,-39.062,-194.336
1688815552.246,-16.602,-28.809,-30.762,-28.320,-65.918
1688815552.250,-13.184,-25.879,-27.832,-11.719,85.938
1688815552.254,-16.113,-26.367,-29.297,-25.879,-30.762
1688815552.258,-35.645,-33.203,-37.598,-46.875,-101.074
1688815552.261,-42.969,-34.668,-35.645,-44.434,-1.953
1688815552.265,-27.344,-33.691,-35.156,-31.250,56.641
1688815552.269,-32.227,-34.180,-33.691,-30.273,-62.988
1688815552.273,-52.246,-32.227,-30.762,-42.969,-201.660
1688815552.277,-62.500,-34.180,-29.785,-46.387,-65.430
1688815552.294,-61.523,-40.527,-32.715,-49.316,143.066
1688815552.298,-49.316,-36.621,-33.691,-49.805,-46.387
1688815552.302,-36.133,-34.180,-30.762,-31.250,-99.121
1688815552.306,-46.875,-32.715,-31.738,-22.949,-26.367
1688815552.310,-66.895,-28.809,-29.785,-29.785,-42.969
1688815552.314,-62.500,-26.855,-26.855,-36.133,-36.133
1688815552.318,-43.945,-29.785,-25.879,-34.668,-58.105
1688815552.321,-45.410,-30.762,-23.438,-20.508,183.594
1688815552.325,-55.176,-30.762,-22.949,-14.648,359.863
1688815552.329,-65.430,-34.180,-27.832,-36.133,-23.926
1688815552.333,-68.359,-33.203,-27.344,-47.363,-146.973
1688815552.337,-46.387,-32.227,-26.367,-35.156,-2.441
1688815552.324,-30.273,-34.180,-27.344,-24.902,-102.051
1688815552.328,-35.645,-34.180,-29.297,-29.785,-146.484
1688815552.332,-43.457,-27.832,-30.273,-32.715,-59.570
1688815552.336,-52.734,-22.461,-24.902,-43.457,-40.039
1688815552.340,-34.668,-24.414,-21.484,-49.805,-123.535
1688815552.344,-18.066,-27.344,-23.438,-31.738,-147.949
1688815552.348,-40.039,-32.227,-29.785,-30.273,-76.172
1688815552.351,-57.617,-31.250,-29.297,-47.363,-77.148
1688815552.355,-58.105,-26.367,-25.391,-43.945,-109.863
1688815552.359,-49.805,-27.832,-27.832,-38.574,-167.969
1688815552.363,-40.527,-32.715,-24.902,-23.926,-10.742
1688815552.367,-40.527,-33.691,-22.949,-11.719,215.820
1688815552.369,-50.781,-31.250,-24.902,-20.020,-58.594
1688815552.373,-62.988,-35.156,-32.227,-33.691,-169.922
1688815552.377,-53.711,-41.504,-33.691,-39.062,-30.273
1688815552.381,-37.109,-35.156,-29.785,-28.809,39.062
1688815552.385,-41.016,-33.691,-31.738,-33.203,-98.633
1688815552.389,-51.270,-33.203,-34.668,-36.133,-18.555
1688815552.393,-56.152,-27.832,-33.203,-35.645,237.305
1688815552.396,-47.852,-24.902,-28.320,-33.203,187.500
1688815552.400,-29.297,-18.555,-24.902,-20.996,-90.332
1688815552.404,-17.578,-16.602,-23.926,-16.113,-91.309
1688815552.408,-26.855,-23.438,-27.344,-24.414,59.570
1688815552.412,-52.734,-26.855,-37.598,-41.992,-79.102
1688815552.415,-44.922,-26.367,-33.691,-47.852,-182.617
1688815552.419,-25.391,-27.344,-28.809,-45.410,-41.504
1688815552.423,-22.461,-24.902,-36.133,-46.387,34.180
1688815552.427,-32.715,-22.949,-34.180,-46.875,-86.426
1688815552.431,-49.316,-24.414,-33.203,-45.410,-225.098
1688815552.435,-42.969,-24.902,-31.250,-50.293,-101.074
1688815552.439,-26.855,-22.461,-23.438,-42.480,105.469
1688815552.442,-22.461,-19.531,-22.949,-30.273,-43.945
1688815552.446,-31.250,-23.926,-26.367,-35.645,-171.875
1688815552.450,-48.828,-28.809,-35.156,-45.898,-107.910
1688815552.454,-55.176,-28.809,-32.227,-45.410,3.906
1688815552.458,-34.180,-30.273,-29.785,-42.969,-75.195
1688815552.461,-29.785,-29.297,-29.785,-32.227,-85.449
1688815552.465,-46.387,-35.645,-24.414,-33.203,-29.297
1688815552.469,-57.129,-33.691,-21.484,-35.645,-104.980
1688815552.473,-60.059,-29.297,-25.879,-38.574,-142.578
1688815552.477,-56.152,-39.551,-31.250,-49.316,-97.656
1688815552.481,-51.270,-41.992,-31.738,-37.109,144.043
1688815552.485,-59.082,-34.668,-33.203,-42.969,157.227
1688815552.488,-76.660,-29.785,-31.250,-54.199,-59.082
1688815552.492,-74.707,-30.273,-29.785,-52.734,-101.562
1688815552.496,-58.105,-29.297,-30.762,-44.922,20.508
1688815552.500,-49.316,-30.273,-26.367,-41.016,0.977
1688815552.504,-46.875,-30.762,-26.367,-44.922,-126.465
1688815552.519,-54.199,-26.367,-25.879,-42.480,-114.746
1688815552.523,-63.965,-23.438,-21.484,-45.410,56.152
1688815552.527,-59.082,-26.855,-27.344,-42.480,-51.758
1688815552.531,-47.363,-30.273,-30.273,-39.062,-239.258
1688815552.535,-47.852,-27.344,-31.250,-40.527,-84.473
1688815552.539,-66.406,-27.832,-35.156,-38.574,173.340
1688815552.543,-85.938,-34.180,-37.109,-48.828,105.957
1688815552.546,-73.242,-32.715,-37.598,-58.105,-83.496
1688815552.550,-62.012,-32.227,-40.527,-43.945,36.133
1688815552.554,-68.359,-32.715,-40.039,-29.297,321.289
1688815552.558,-87.402,-30.762,-34.668,-44.434,1.465
1688815552.562,-107.910,-31.250,-32.227,-57.617,-201.660
1688815552.564,-93.750,-35.156,-35.645,-54.199,-84.473
1688815552.568,-70.801,-32.715,-36.621,-45.410,-108.398
1688815552.572,-70.312,-32.715,-34.668,-33.203,-177.246
1688815552.576,-83.008,-33.203,-31.250,-35.645,-151.367
1688815552.580,-91.309,-26.367,-30.273,-41.504,-43.457
1688815552.584,-89.844,-26.367,-30.273,-48.340,-41.016
1688815552.588,-76.172,-27.832,-34.668,-45.410,-48.340
1688815552.591,-62.988,-24.414,-34.180,-38.574,-2.441
1688815552.595,-71.777,-25.391,-28.809,-35.156,254.395
1688815552.599,-93.750,-26.367,-30.273,-26.855,395.508
1688815552.603,-88.379,-29.297,-28.809,-39.551,16.113
1688815552.607,-68.359,-33.691,-32.227,-37.109,-173.340
1688815552.609,-54.688,-28.809,-29.785,-32.715,-119.629
1688815552.613,-54.199,-23.438,-24.414,-48.828,-162.598
1688815552.617,-71.777,-22.949,-26.855,-53.223,-201.172
1688815552.621,-69.824,-20.996,-20.508,-49.316,-138.672
1688815552.625,-46.875,-20.020,-20.020,-37.598,-46.387
1688815552.629,-37.598,-20.996,-23.926,-25.879,-104.492
1688815552.633,-42.969,-21.484,-20.508,-37.598,-88.867
1688815552.636,-50.293,-21.973,-20.020,-41.504,15.625
1688815552.640,-50.781,-27.344,-21.973,-37.598,124.023
1688815552.644,-35.645,-29.785,-22.461,-33.203,-42.969
1688815552.648,-21.973,-29.785,-20.020,-17.090,-78.613
1688815552.652,-40.039,-33.691,-18.066,-20.508,-13.184
1688815552.655,-56.152,-34.668,-17.090,-32.227,-102.539
1688815552.659,-52.246,-34.668,-18.066,-40.527,-230.469
1688815552.663,-45.410,-35.156,-21.973,-40.039,-179.199
1688815552.667,-35.645,-35.156,-22.461,-23.438,-69.336
1688815552.671,-35.645,-31.250,-20.996,-24.902,-119.629
1688815552.675,-57.617,-32.227,-23.926,-41.504,-91.797
1688815552.679,-70.312,-34.180,-28.809,-57.129,-75.684
1688815552.682,-58.594,-32.227,-29.297,-62.988,190.430
1688815552.686,-49.316,-28.809,-29.785,-50.781,298.828
1688815552.690,-49.316,-28.320,-31.250,-46.387,-44.922
1688815552.694,-63.477,-26.855,-25.391,-44.922,-89.355
1688815552.698,-71.289,-27.832,-20.996,-51.758,109.863
1688815552.701,-50.293,-31.250,-23.438,-62.500,-12.695
1688815552.705,-27.832,-28.809,-24.902,-54.199,-205.566
1688815552.709,-18.555,-27.344,-20.508,-41.504,-113.770
1688815552.713,-28.809,-30.273,-20.020,-54.199,0.000
1688815552.717,-47.852,-33.203,-21.973,-77.637,-136.230
1688815552.721,-36.133,-26.367,-20.508,-80.566,-188.965
1688815552.725,-13.184,-22.461,-20.996,-64.941,39.551
1688815552.728,-14.648,-28.809,-21.973,-62.012,78.125
1688815552.732,-28.809,-29.297,-19.531,-66.406,-108.398
1688815552.736,-33.203,-27.344,-20.996,-68.848,-192.871
1688815552.740,-38.574,-30.762,-24.902,-62.988,-75.195
1688815552.744,-37.598,-32.715,-25.879,-47.852,84.961
1688815552.760,-41.504,-30.273,-21.973,-46.387,-102.051
1688815552.764,-57.617,-28.809,-22.461,-49.316,-202.148
1688815552.768,-70.801,-30.762,-25.391,-56.641,-63.477
1688815552.772,-60.059,-24.414,-20.996,-65.430,-73.730
1688815552.776,-36.133,-22.461,-19.043,-48.340,-125.488
1688815552.780,-33.203,-27.832,-22.949,-32.227,-0.977
1688815552.784,-47.852,-28.320,-20.996,-29.785,249.512
1688815552.787,-60.059,-25.879,-19.043,-37.109,240.234
1688815552.791,-56.152,-27.344,-22.949,-49.316,-86.914
1688815552.795,-41.504,-31.738,-21.973,-53.223,-152.832
1688815552.799,-35.645,-28.320,-15.137,-42.969,129.395
1688815552.803,-48.340,-28.320,-17.090,-45.410,111.816
1688815552.789,-62.988,-30.762,-19.531,-62.988,-143.066
1688815552.793,-54.199,-28.320,-17.090,-66.895,-183.105
1688815552.797,-33.203,-22.461,-14.160,-50.781,-92.285
1688815552.801,-27.832,-22.949,-16.602,-36.621,-128.906
1688815552.805,-31.250,-25.879,-26.367,-41.016,-245.605
1688815552.809,-43.457,-24.902,-29.297,-45.898,-51.270
1688815552.813,-37.598,-21.484,-23.438,-46.387,97.656
1688815552.816,-25.879,-23.438,-21.973,-41.016,-59.082
1688815552.820,-19.043,-26.367,-20.996,-23.926,-214.844
1688815552.824,-28.809,-29.297,-19.043,-20.996,-106.445
1688815552.828,-55.176,-33.203,-22.461,-26.855,245.605
1688815552.832,-61.523,-34.668,-22.461,-39.551,0.488
1688815552.839,-43.457,-35.645,-23.926,-48.828,-244.141
1688815552.843,-27.832,-36.621,-22.461,-33.203,-128.906
1688815552.847,-31.250,-35.645,-20.996,-30.273,-86.914
1688815552.851,-54.688,-35.645,-24.902,-45.898,-171.875
1688815552.855,-61.523,-33.691,-24.902,-56.641,-176.758
1688815552.859,-38.086,-31.738,-21.973,-53.223,0.488
1688815552.863,-31.738,-39.062,-23.926,-56.641,-17.090
1688815552.866,-41.016,-37.598,-27.832,-64.453,-87.402
1688815552.870,-56.152,-31.738,-24.902,-62.012,13.672
1688815552.874,-67.871,-33.203,-20.508,-62.012,188.965
1688815552.878,-60.059,-31.250,-23.926,-62.500,3.906
1688815552.882,-46.875,-27.344,-23.926,-55.176,-156.250
1688815552.895,-47.363,-26.855,-26.367,-57.129,-80.078
1688815552.899,-58.105,-26.367,-31.250,-57.129,-14.160
1688815552.903,-66.406,-27.832,-27.832,-62.012,-56.152
1688815552.907,-48.828,-30.273,-25.879,-68.848,-144.043
1688815552.911,-30.273,-26.367,-20.996,-44.922,-74.707
1688815552.915,-40.527,-23.926,-18.066,-24.902,360.352
1688815552.919,-55.664,-26.367,-22.949,-25.879,434.082
1688815552.922,-63.965,-26.855,-24.414,-44.922,39.062
1688815552.926,-57.129,-22.949,-20.996,-76.660,-180.664
1688815552.930,-37.598,-25.391,-21.973,-68.848,-127.930
1688815552.934,-39.062,-29.297,-23.926,-50.781,-134.766
1688815552.938,-59.082,-25.879,-20.508,-57.129,-166.992
1688815552.939,-69.336,-24.414,-22.949,-63.477,-55.664
1688815552.943,-59.570,-21.973,-25.391,-57.129,-22.461
1688815552.947,-41.504,-24.902,-23.926,-49.316,-94.727
1688815552.951,-30.273,-30.762,-28.320,-53.711,-77.637
1688815552.955,-43.945,-29.785,-27.344,-61.035,-23.438
1688815552.959,-62.012,-25.391,-25.391,-64.941,-6.836
1688815552.963,-60.059,-28.320,-28.809,-69.824,-13.672
1688815552.966,-45.410,-33.203,-30.273,-69.336,-65.430
1688815552.970,-40.039,-34.180,-30.273,-52.734,185.547
1688815552.974,-49.805,-32.227,-28.809,-41.504,361.328
1688815552.978,-69.336,-34.668,-28.320,-60.547,-17.090
1688815552.982,-73.242,-30.273,-29.297,-83.008,-112.305
1688815552.984,-53.711,-28.320,-27.344,-84.473,72.754
1688815552.988,-45.410,-31.250,-28.320,-82.520,-116.699
1688815552.992,-46.875,-24.902,-27.832,-83.984,-213.379
1688815552.996,-62.500,-23.926,-23.438,-93.750,-111.816
1688815553.000,-63.965,-28.809,-24.902,-112.793,-129.395
1688815553.004,-52.246,-35.645,-24.902,-112.793,-164.551
1688815553.008,-42.969,-31.738,-20.996,-82.520,-155.762
1688815553.011,-46.875,-26.855,-23.438,-71.289,-48.340
1688815553.015,-62.500,-30.762,-22.949,-71.289,16.113
1688815553.019,-63.477,-27.832,-22.461,-74.219,-117.188
1688815553.023,-53.711,-28.320,-23.438,-76.660,-140.137
1688815553.027,-44.922,-31.250,-28.320,-63.477,18.555
1688815553.030,-43.457,-26.855,-28.809,-60.059,26.367
1688815553.034,-52.734,-21.484,-19.531,-67.383,-117.188
1688815553.038,-55.664,-26.855,-21.484,-79.590,-27.344
1688815553.042,-41.992,-27.832,-22.949,-79.102,21.973
1688815553.046,-25.879,-23.926,-21.484,-65.430,1.465
1688815553.050,-24.902,-29.785,-21.484,-56.641,-65.430
1688815553.054,-41.016,-31.250,-18.555,-51.758,-125.000
1688815553.057,-40.527,-25.391,-18.066,-50.781,67.871
1688815553.061,-28.320,-24.902,-17.578,-54.199,27.832
1688815553.065,-21.484,-24.902,-18.066,-43.457,-224.609
1688815553.069,-21.973,-25.879,-25.391,-41.992,-170.410
1688815553.073,-36.621,-25.879,-27.344,-57.617,72.754
1688815553.074,-47.852,-26.855,-24.414,-60.547,-44.434
1688815553.078,-44.434,-32.227,-20.996,-73.730,-240.723
1688815553.082,-23.438,-24.902,-23.438,-54.199,-188.477
1688815553.086,-3.906,-22.949,-20.508,-9.766,70.801
1688815553.090,-25.879,-47.363,-12.695,-12.207,48.828
1688815553.094,-65.918,-41.992,-15.625,-41.992,-75.195
1688815553.098,-63.477,-24.414,-16.602,-50.781,82.031
1688815553.101,-38.086,-28.320,-9.277,-27.832,266.113
1688815553.105,-28.320,-33.203,-3.906,-2.441,27.344
1688815553.109,-25.391,-38.086,0.000,18.555,-143.066
1688815553.113,-42.480,-44.922,2.441,13.184,-9.277
1688815553.117,-41.992,-59.082,4.395,5.859,89.355
1688815553.120,-7.812,-68.359,9.766,7.324,-98.145
1688815553.124,-4.395,-68.359,19.531,11.230,-151.855
1688815553.128,-26.367,-71.777,26.367,7.324,-27.344
1688815553.132,-47.363,-75.195,28.320,-5.859,-47.852
1688815553.136,-49.805,-79.590,30.273,-6.836,-108.398
1688815553.140,-37.598,-82.031,29.785,-14.160,-58.105
1688815553.144,-29.785,-83.496,29.785,-8.789,251.953
1688815553.147,-36.621,-90.820,32.715,-8.789,311.523
1688815553.151,-48.340,-90.820,34.180,-8.789,-22.949
1688815553.155,-50.293,-91.309,36.133,-12.695,-121.094
1688815553.159,-31.738,-97.168,39.062,-29.297,-82.031
1688815553.163,-21.973,-94.727,40.039,-17.578,-119.629
1688815553.164,-33.203,-93.262,41.504,-12.695,-208.496
1688815553.168,-46.387,-90.332,44.922,2.441,-105.469
1688815553.172,-51.758,-93.750,46.387,22.461,173.340
1688815553.176,-28.809,-91.797,51.758,14.648,49.316
1688815553.180,-11.719,-83.496,52.246,27.344,-151.367
1688815553.184,-17.090,-85.938,52.246,45.898,-33.203
1688815553.188,-36.621,-85.938,49.316,41.504,150.879
1688815553.191,-49.316,-82.031,40.039,23.438,-21.973
1688815553.195,-31.250,-83.984,41.016,21.973,-200.684
1688815553.199,-9.766,-82.031,44.922,38.086,-21.973
1688815553.203,-5.859,-79.102,46.387,43.945,144.531
1688815553.207,-23.438,-85.938,41.992,47.363,-62.012
1688815553.225,-40.527,-83.496,41.016,44.434,-136.230
1688815553.229,-26.855,-76.172,43.945,38.574,-79.102
1688815553.233,-5.859,-75.195,41.504,40.039,-136.230
1688815553.237,-5.859,-75.684,42.480,32.227,-177.734
1688815553.241,-23.926,-73.730,44.922,30.273,-160.156
1688815553.245,-38.086,-68.848,46.875,36.133,-37.109
1688815553.249,-28.809,-67.383,42.969,26.855,-13.184
1688815553.252,-5.371,-66.895,43.945,28.809,-73.730
1688815553.256,-5.371,-63.477,39.551,24.414,-77.148
1688815553.260,-25.391,-60.059,28.809,19.043,201.172
1688815553.264,-41.016,-56.641,26.855,26.855,247.559
1688815553.268,-32.715,-51.758,25.879,15.137,-47.363
1688815553.270,-12.695,-55.664,23.926,3.418,-65.430
1688815553.274,-7.324,-51.270,23.926,10.742,-2.441
1688815553.278,-12.695,-46.387,21.484,12.207,-122.559
1688815553.282,-30.762,-46.875,18.066,4.395,-183.594
1688815553.286,-24.902,-38.086,19.043,-0.488,-104.004
1688815553.290,-4.883,-39.551,16.113,-10.254,-35.156
1688815553.294,-3.418,-41.992,13.184,-8.789,-38.574
1688815553.297,-18.555,-40.527,9.766,-13.672,-143.066
1688815553.301,-42.969,-43.945,1.465,-12.207,-58.594
1688815553.305,-44.434,-44.434,-1.465,-15.137,169.434
1688815553.309,-22.949,-41.016,1.953,-22.949,-27.344
1688815553.313,-9.277,-38.086,3.906,-12.207,-98.145
1688815553.315,-15.625,-39.551,2.930,-8.789,-42.480
1688815553.319,-39.551,-40.527,1.953,-8.301,-105.957
1688815553.323,-45.898,-37.598,0.000,-10.254,-141.113
1688815553.327,-25.391,-38.574,-2.930,-28.320,-162.109
1688815553.331,-13.672,-39.062,-4.395,-23.438,28.320
1688815553.335,-14.160,-40.527,-5.859,-18.555,81.055
1688815553.339,-41.504,-40.039,-7.324,-24.902,-58.594
1688815553.342,-59.570,-38.574,-12.207,-26.367,-24.902
1688815553.346,-28.320,-37.598,-8.789,-20.996,231.934
1688815553.350,-15.625,-34.180,-3.906,-1.953,270.508
1688815553.354,-25.391,-33.691,-9.277,-10.254,-71.289
1688815553.358,-33.691,-38.574,-12.207,-15.137,-162.598
1688815553.360,-40.527,-36.133,-5.859,-7.812,-90.820
1688815553.364,-20.020,-32.715,-6.348,-24.414,-179.199
1688815553.368,-3.418,-44.922,-11.719,-31.250,-245.605
1688815553.372,-14.648,-46.875,-13.184,-38.086,-193.359
1688815553.376,-36.621,-40.527,-13.672,-36.621,-45.898
1688815553.380,-46.875,-38.574,-14.160,-30.762,20.996
1688815553.384,-20.508,-42.969,-16.113,-53.711,-64.453
1688815553.387,-0.977,-44.434,-21.973,-82.520,-108.398
1688815553.391,-1.953,-41.504,-25.391,-97.168,233.398
1688815553.395,-15.625,-33.691,-27.344,-94.727,196.777
1688815553.399,-29.297,-27.832,-25.879,-71.777,-121.094
1688815553.403,-14.648,-26.367,-24.902,-78.125,-139.648
1688815553.404,11.230,-22.461,-23.926,-93.750,-167.480
1688815553.408,9.277,-26.367,-23.438,-83.984,-180.176
1688815553.412,-21.973,-31.250,-26.367,-63.477,-121.094
1688815553.416,-54.688,-33.203,-27.832,-44.922,-28.320
1688815553.420,-48.340,-34.180,-24.414,-54.688,-78.125
1688815553.424,-19.043,-32.227,-21.484,-47.852,-64.941
1688815553.428,-25.879,-38.574,-21.973,-28.809,-55.664
1688815553.431,-51.758,-46.387,-26.855,-23.438,112.305
1688815553.435,-70.801,-45.898,-24.414,-25.879,368.652
1688815553.439,-63.965,-42.969,-22.461,-51.270,45.898
1688815553.443,-23.438,-42.969,-26.367,-48.340,-180.176
1688815553.447,-6.348,-48.340,-22.949,-13.184,-26.367
1688815553.449,-20.996,-49.805,-23.438,-9.766,-127.930
1688815553.453,-46.387,-43.945,-23.438,-20.508,-166.992
1688815553.457,-51.758,-43.457,-18.555,-30.273,-102.051
1688815553.461,-26.855,-48.828,-16.602,-36.133,-128.418
1688815553.465,-14.648,-48.340,-13.672,-26.855,-165.039
1688815553.469,-30.762,-42.969,-11.230,-30.762,-45.898
1688815553.473,-55.664,-42.480,-7.812,-34.180,158.691
1688815553.476,-61.523,-45.410,-6.348,-36.133,187.988
1688815553.480,-41.504,-48.828,-4.883,-38.574,-2.930
1688815553.484,-29.297,-57.617,-2.930,-28.809,-111.816
1688815553.488,-33.203,-53.711,-5.859,-16.602,-83.496
1688815553.492,-55.176,-47.363,-10.742,3.418,194.824
1688815553.494,-65.918,-51.270,-18.066,-22.461,74.219
1688815553.498,-39.551,-51.758,-21.484,-48.340,-147.949
1688815553.502,-16.113,-48.828,-26.855,-37.109,-49.316
1688815553.506,-32.715,-52.246,-32.715,-47.363,-62.500
1688815553.510,-61.035,-49.316,-31.250,-36.621,-53.223
1688815553.514,-72.266,-43.945,-30.273,-34.180,61.523
1688815553.518,-53.223,-45.410,-31.250,-51.758,203.613
1688815553.521,-34.180,-48.828,-36.133,-35.156,223.633
1688815553.525,-31.250,-48.340,-34.180,-25.391,41.504
1688815553.529,-44.922,-49.805,-29.297,-28.320,-60.547
1688815553.533,-50.781,-52.734,-32.227,-35.645,86.914
1688815553.537,-20.996,-49.805,-35.156,-54.688,22.461
1688815553.540,-0.488,-47.363,-36.621,-46.387,-133.301
1688815553.544,-0.977,-43.457,-38.574,-27.344,-35.156
1688815553.548,-15.625,-44.434,-35.645,-18.066,76.172
1688815553.552,-37.109,-41.992,-39.062,-20.508,-11.719
1688815553.556,-20.508,-35.156,-37.598,-36.621,-112.305
1688815553.560,-0.488,-35.156,-34.180,-36.133,-43.945
1688815553.564,-9.277,-39.062,-36.621,-30.762,110.840
1688815553.567,-29.297,-44.434,-36.133,-30.273,-61.035
1688815553.571,-45.898,-44.434,-39.062,-23.926,-117.188
1688815553.575,-24.902,-41.504,-34.180,-29.297,-38.086
1688815553.579,5.371,-40.039,-28.320,-19.531,-34.180
1688815553.583,2.930,-42.480,-28.320,-8.789,-128.906
1688815553.585,-6.836,-41.992,-25.879,-5.371,-120.117
1688815553.589,-32.227,-37.598,-23.438,3.906,64.941
1688815553.593,-37.109,-40.039,-26.367,-21.973,-70.312
1688815553.597,-4.883,-37.598,-26.367,-21.973,-201.172
1688815553.601,5.859,-34.668,-25.391,-8.789,-145.020
1688815553.605,-20.996,-35.645,-29.785,-5.859,59.082
1688815553.609,-45.898,-37.598,-34.668,8.789,114.258
1688815553.612,-36.133,-40.527,-37.598,-24.414,-65.430
1688815553.616,-6.348,-38.574,-32.715,-41.016,-81.543
1688815553.620,1.465,-35.156,-25.879,-21.973,120.605
1688815553.624,-11.719,-34.668,-33.691,-26.367,83.008
1688815553.628,-40.039,-37.109,-36.133,-34.668,-97.656
1688815553.645,-41.504,-39.551,-34.668,-48.340,-116.699
1688815553.649,-20.020,-45.410,-34.180,-68.359,-147.949
1688815553.653,-15.625,-44.922,-32.715,-64.941,-172.363
1688815553.657,-19.531,-42.480,-34.668,-42.969,-140.625
1688815553.661,-48.340,-43.945,-37.109,-27.832,38.574
1688815553.665,-54.199,-37.598,-36.621,-47.852,143.555
1688815553.669,-19.043,-35.156,-40.039,-55.664,-60.059
1688815553.672,-4.883,-38.086,-42.480,-26.367,-200.195
1688815553.676,-12.207,-36.621,-39.551,-16.113,-42.480
1688815553.680,-35.156,-38.086,-37.109,-11.719,182.129
1688815553.684,-48.828,-39.551,-34.180,-24.414,-23.926
1688815553.688,-27.832,-42.969,-37.598,-45.410,-228.027
1688815553.690,-11.719,-43.945,-37.109,-21.484,-171.875
1688815553.694,-16.113,-40.039,-39.062,-8.301,-142.578
1688815553.698,-47.363,-38.574,-41.016,-1.953,-99.609
1688815553.702,-64.453,-42.480,-44.434,-24.414,-70.312
1688815553.706,-39.551,-39.551,-46.875,-47.363,-40.039
1688815553.710,-20.996,-37.109,-41.504,-29.785,6.348
1688815553.714,-23.438,-39.551,-41.504,-18.066,-77.148
1688815553.717,-47.363,-38.086,-42.480,-14.648,-83.496
1688815553.721,-62.988,-36.621,-41.016,-17.578,175.293
1688815553.725,-34.180,-33.691,-37.598,-22.949,306.152
1688815553.729,-14.160,-38.574,-41.504,-17.578,20.996
1688815553.733,-22.461,-40.527,-47.363,-15.625,-155.273
1688815553.734,-45.410,-41.504,-47.852,-4.395,-70.801
1688815553.738,-68.359,-42.969,-46.875,-6.836,-137.207
1688815553.742,-42.480,-40.039,-46.387,-29.785,-194.336
1688815553.746,-9.277,-40.039,-40.039,-24.902,-159.668
1688815553.750,-12.207,-43.457,-39.062,-10.254,-63.965
1688815553.754,-38.086,-44.434,-41.504,7.324,48.828
1688815553.758,-53.223,-40.039,-38.574,6.348,-8.789
1688815553.761,-34.180,-41.504,-41.016,-23.438,-83.008
1688815553.765,-4.395,-43.945,-41.992,-7.324,239.258
1688815553.769,5.859,-38.086,-36.133,12.207,139.648
1688815553.773,-21.973,-42.969,-37.109,1.953,-186.035
1688815553.777,-53.711,-53.223,-41.504,0.977,13.672
1688815553.779,-38.086,-47.363,-37.598,-12.695,126.465
1688815553.783,-10.254,-45.898,-41.016,-21.484,-117.676
1688815553.787,-8.789,-48.828,-44.434,-18.066,-206.055
1688815553.791,-25.879,-47.363,-42.969,-9.277,-104.004
1688815553.795,-53.711,-47.363,-41.992,-2.930,-69.336
1688815553.799,-51.270,-46.387,-42.480,-27.832,-26.367
1688815553.803,-24.902,-45.410,-40.527,-44.434,-96.680
1688815553.806,-13.184,-44.922,-38.086,-24.902,104.492
1688815553.810,-20.508,-44.922,-37.598,-6.836,375.488
1688815553.814,-45.898,-42.969,-36.621,-6.348,-0.488
1688815553.818,-46.387,-46.387,-36.133,-29.785,-143.555
1688815553.822,-25.391,-45.898,-40.039,-39.551,12.207
1688815553.825,-16.113,-51.270,-39.062,-25.391,-118.164
1688815553.829,-13.184,-60.059,-32.227,-10.742,-176.758
1688815553.833,-32.715,-47.363,-34.668,1.953,-106.445
1688815553.837,-42.480,-32.227,-44.434,-28.809,-134.766
1688815553.841,-26.367,-33.203,-50.293,-62.012,-146.973
1688815553.845,-15.625,-29.297,-51.758,-58.594,-113.770
1688815553.849,-29.297,-24.414,-58.594,-62.988,-17.090
1688815553.852,-44.922,-19.531,-62.500,-62.500,271.973
1688815553.856,-56.152,-12.207,-65.918,-91.309,30.273
1688815553.860,-41.016,-10.254,-72.754,-121.094,-168.945
1688815553.864,-21.973,-14.648,-72.266,-102.539,20.508
1688815553.868,-34.668,-6.836,-76.660,-97.656,-81.055
1688815553.871,-79.102,-4.395,-88.379,-103.027,-178.711
1688815553.875,-99.609,-5.371,-93.262,-119.629,-33.203
1688815553.879,-76.172,1.465,-95.215,-146.484,29.785
1688815553.883,-73.242,-1.465,-104.004,-131.836,-95.703
1688815553.887,-77.637,3.906,-108.398,-127.441,-190.918
1688815553.891,-103.027,12.695,-113.770,-145.508,-84.961
1688815553.895,-116.699,17.578,-118.164,-143.555,202.637
1688815553.898,-90.820,22.461,-119.629,-159.180,211.426
1688815553.902,-67.383,19.531,-124.023,-170.410,-107.910
1688815553.906,-69.824,20.996,-127.930,-165.527,-171.387
1688815553.910,-96.680,26.855,-133.301,-150.879,63.477
1688815553.914,-117.188,29.785,-132.812,-158.691,21.973
1688815553.914,-94.727,29.785,-127.930,-176.270,-132.324
1688815553.918,-59.570,32.715,-127.441,-165.039,-158.203
1688815553.922,-63.965,36.621,-136.230,-163.574,-103.516
1688815553.926,-74.707,40.039,-140.137,-160.156,24.902
1688815553.930,-90.820,40.039,-140.625,-154.785,-67.383
1688815553.934,-78.125,35.645,-139.160,-162.598,-53.711
1688815553.938,-42.969,39.551,-132.324,-152.344,325.195
1688815553.941,-29.785,40.527,-127.441,-131.836,173.340
1688815553.945,-41.504,29.785,-125.977,-122.070,-147.949
1688815553.949,-64.941,27.344,-123.047,-96.680,-82.031
1688815553.953,-53.223,27.344,-117.188,-112.793,-111.328
1688815553.957,-25.879,22.461,-111.816,-120.605,-127.930
1688815553.975,-14.160,17.090,-110.352,-96.191,-121.582
1688815553.979,-22.461,16.113,-105.469,-88.867,-132.812
1688815553.983,-49.805,12.695,-102.539,-73.730,-109.863
1688815553.987,-51.270,10.254,-97.168,-82.520,-175.293
1688815553.991,-24.902,7.812,-93.750,-99.609,-174.316
1688815553.995,-20.996,0.000,-95.215,-83.984,73.730
1688815553.999,-34.668,0.488,-85.449,-75.195,141.602
1688815554.002,-52.246,5.859,-83.008,-71.289,62.012
1688815554.006,-52.734,0.488,-86.914,-74.707,-0.977
1688815554.010,-24.902,-1.465,-84.961,-81.055,169.434
1688815554.014,-20.996,0.488,-80.566,-75.195,351.562
1688815554.018,-39.062,-5.371,-78.613,-83.496,17.578
1688815554.019,-63.477,-11.230,-81.543,-74.707,-108.887
1688815554.023,-72.754,-12.695,-81.543,-66.895,-18.066
1688815554.027,-43.457,-12.695,-76.660,-87.402,-157.227
1688815554.031,-23.926,-13.672,-75.195,-65.918,-213.867
1688815554.035,-37.598,-14.160,-71.289,-50.781,-157.227
1688815554.039,-68.359,-12.207,-69.824,-54.199,-3.906
1688815554.043,-70.312,-12.207,-70.312,-53.223,13.184
1688815554.046,-32.227,-17.578,-65.430,-67.383,-199.219
1688815554.050,-13.672,-20.020,-56.641,-59.570,-67.383
1688815554.054,-17.090,-18.066,-55.664,-45.410,252.930
1688815554.058,-32.715,-14.648,-56.152,-42.480,31.250
1688815554.062,-51.758,-21.484,-56.152,-69.336,-168.457
1688815554.064,-32.227,-23.926,-59.570,-95.703,-149.902
1688815554.068,2.930,-15.625,-63.477,-74.707,-155.762
1688815554.072,2.441,-13.672,-62.988,-63.965,-230.957
1688815554.076,-32.715,-23.438,-59.570,-56.152,-167.969
1688815554.080,-66.895,-23.438,-55.176,-39.062,26.855
1688815554.084,-45.898,-22.949,-53.711,-49.805,18.555
1688815554.088,-16.113,-24.414,-51.758,-36.621,-12.695
1688815554.091,-28.809,-23.438,-46.387,-24.414,28.320
1688815554.095,-64.453,-25.879,-47.363,-22.461,276.855
1688815554.099,-83.984,-22.949,-49.316,-9.766,333.496
1688815554.103,-62.500,-21.484,-46.875,-36.133,-0.488
1688815554.107,-30.762,-25.391,-41.016,-34.180,-138.184
1688815554.110,-25.391,-24.414,-41.504,-23.926,-51.270
1688815554.114,-52.734,-17.578,-43.457,-53.711,-126.953
1688815554.118,-75.195,-17.578,-44.434,-53.223,-132.324
1688815554.122,-65.430,-21.484,-46.387,-55.664,-139.648
1688815554.126,-41.992,-19.531,-43.945,-62.988,-189.941
1688815554.130,-33.203,-20.020,-45.898,-52.734,-137.207
1688815554.134,-42.969,-20.508,-51.758,-50.293,-74.219
1688815554.137,-64.453,-20.508,-53.223,-41.016,48.340
1688815554.141,-60.059,-19.531,-46.387,-45.410,224.121
1688815554.145,-30.762,-20.020,-41.992,-58.594,-55.176
1688815554.149,-19.043,-22.461,-37.598,-51.758,-206.543
1688815554.153,-31.738,-24.902,-41.016,-59.082,-97.168
1688815554.155,-57.617,-24.902,-49.316,-61.035,34.668
1688815554.159,-55.176,-26.855,-43.945,-52.246,-46.387
1688815554.163,-26.367,-31.738,-39.551,-56.641,-208.496
1688815554.167,-17.090,-28.809,-41.504,-45.410,46.387
1688815554.171,-25.879,-24.902,-44.922,-37.109,66.895
1688815554.175,-54.199,-24.414,-44.434,-30.762,-2.441
1688815554.179,-58.105,-23.926,-43.945,-32.227,30.273
1688815554.182,-25.391,-25.879,-44.922,-46.387,217.285
1688815554.186,-20.996,-28.809,-44.434,-37.109,304.688
1688815554.190,-35.645,-29.785,-42.969,-40.527,-41.992
1688815554.194,-56.152,-25.879,-43.945,-41.016,-153.320
1688815554.198,-62.500,-26.855,-44.922,-40.527,-107.910
1688815554.199,-27.344,-27.832,-42.969,-52.246,-172.852
1688815554.203,-10.254,-30.762,-42.480,-42.480,-208.984
1688815554.207,-9.277,-28.809,-38.574,-33.691,-154.297
1688815554.211,-28.809,-24.902,-34.180,-23.438,-51.270
1688815554.215,-48.828,-26.367,-45.898,-28.809,-11.719
1688815554.219,-20.508,-21.484,-47.363,-54.199,-71.289
1688815554.223,0.000,-18.555,-40.527,-39.551,-17.090
1688815554.226,-6.348,-18.555,-39.551,-15.625,272.949
1688815554.230,-21.973,-25.391,-38.574,-11.719,121.094
1688815554.234,-32.227,-30.273,-40.527,-18.066,-113.770
1688815554.238,-19.043,-31.738,-38.086,-44.434,-119.141
1688815554.242,-3.418,-36.621,-38.086,-41.504,-145.996
1688815554.244,-10.254,-39.062,-40.039,-30.762,-163.574
1688815554.248,-25.879,-37.598,-38.086,-27.832,-110.840
1688815554.252,-48.340,-35.156,-37.598,-16.602,-20.996
1688815554.256,-36.621,-35.156,-36.621,-33.203,-109.863
1688815554.260,-8.789,-36.133,-35.645,-34.668,-156.250
1688815554.264,-9.277,-33.691,-38.086,-18.066,-28.320
1688815554.268,-28.809,-31.250,-37.598,-9.766,260.742
1688815554.271,-54.688,-35.156,-39.062,-16.113,279.785
1688815554.275,-39.551,-38.574,-41.504,-48.828,-29.297
1688815554.279,1.465,-30.273,-39.551,-45.898,-119.629
1688815554.283,10.254,-31.250,-33.691,-16.113,85.449
1688815554.287,-7.324,-35.156,-28.809,-6.348,62.988
1688815554.289,-38.086,-34.180,-33.691,-6.836,-111.328
1688815554.293,-37.598,-35.156,-40.039,-25.391,-139.160
1688815554.297,-10.254,-32.715,-35.156,-33.691,-130.371
1688815554.301,-8.789,-27.344,-31.250,-21.973,-140.137
1688815554.305,-24.902,-28.809,-36.133,-18.066,-125.977
1688815554.309,-45.898,-30.762,-34.668,-20.020,31.250
1688815554.313,-32.715,-21.973,-32.227,-42.969,139.648
1688815554.316,-9.277,-23.926,-35.645,-50.781,-54.199
1688815554.320,-10.254,-26.367,-33.691,-32.715,-158.691
1688815554.324,-23.926,-26.367,-36.133,-33.203,-73.242
1688815554.328,-47.852,-29.297,-40.527,-32.227,83.008
1688815554.332,-52.246,-29.297,-39.062,-49.316,-89.355
1688815554.349,-22.461,-31.250,-38.574,-56.152,-246.094
1688815554.353,-0.977,-33.691,-39.062,-40.527,-126.465
1688815554.357,-7.324,-33.203,-36.621,-33.691,-71.289
1688815554.361,-33.691,-31.250,-34.668,-22.461,-106.934
1688815554.365,-37.598,-30.273,-34.180,-32.715,-77.148
1688815554.369,-11.230,-26.367,-32.227,-60.547,13.672
1688815554.373,10.254,-26.855,-34.180,-47.363,-4.883
1688815554.376,0.977,-31.738,-36.621,-28.320,10.254
1688815554.380,-28.320,-33.203,-38.574,-26.367,-11.230
1688815554.384,-36.621,-35.645,-39.551,-39.551,169.922
1688815554.388,-13.672,-37.109,-41.016,-77.637,365.723
1688815554.392,1.953,-36.621,-38.086,-82.031,5.371
1688815554.394,-3.418,-38.086,-32.227,-78.613,-177.734
1688815554.398,-27.832,-39.062,-31.250,-73.242,-95.703
1688815554.402,-41.504,-35.156,-33.691,-79.102,-112.305
1688815554.406,-8.789,-36.133,-35.156,-108.887,-169.922
1688815554.410,11.230,-37.598,-31.738,-112.305,-212.402
1688815554.414,-3.418,-35.645,-33.691,-110.352,-133.301
1688815554.418,-21.973,-35.645,-38.086,-113.281,1.953
1688815554.421,-28.809,-32.227,-36.133,-132.812,-102.539
1688815554.425,-8.301,-32.715,-35.156,-163.086,-159.180
1688815554.429,5.371,-33.203,-33.691,-160.645,133.789
1688815554.433,1.953,-25.879,-32.227,-152.832,-50.781
1688815554.437,-15.137,-27.832,-33.203,-135.742,-227.051
1688815554.439,-29.785,-29.785,-35.156,-122.070,23.438
1688815554.443,-12.207,-27.832,-34.668,-149.414,1.465
1688815554.447,2.930,-29.297,-33.691,-154.785,-183.105
1688815554.451,3.418,-34.180,-30.273,-128.906,-143.066
1688815554.455,-18.066,-37.598,-29.297,-130.371,-67.871
1688815554.459,-43.945,-40.039,-31.738,-164.062,21.484
1688815554.463,-20.508,-38.086,-30.273,-197.754,23.438
1688815554.466,11.719,-32.227,-29.297,-177.734,-34.180
1688815554.470,1.465,-35.156,-28.320,-125.488,206.055
1688815554.474,-19.043,-40.527,-26.367,-91.797,286.621
1688815554.478,-34.180,-39.551,-23.926,-75.195,-25.879
1688815554.482,-29.297,-41.016,-26.367,-72.754,-123.047
1688815554.486,0.488,-43.945,-24.414,-52.734,-100.098
1688815554.490,12.207,-41.016,-20.508,-35.645,-83.008
1688815554.494,0.488,-33.203,-19.043,-39.551,-74.219
1688815554.498,-34.668,-33.691,-18.066,-17.090,-27.832
1688815554.502,-43.945,-36.621,-24.414,-25.879,40.527
1688815554.506,-18.555,-38.086,-29.297,-54.199,-27.344
1688815554.510,-16.113,-39.062,-27.832,-46.387,-60.547
1688815554.513,-28.320,-36.133,-26.855,-36.133,21.973
1688815554.517,-51.270,-40.039,-29.297,-11.719,248.535
1688815554.521,-54.688,-44.922,-32.715,-20.996,63.477
1688815554.525,-16.113,-36.133,-23.438,-33.203,-163.086
1688815554.529,5.371,-32.227,-20.020,-14.160,-157.715
1688815554.530,-13.184,-35.645,-25.391,-19.043,-136.719
1688815554.534,-41.016,-37.109,-25.391,-12.207,-121.582
1688815554.538,-48.828,-38.574,-25.391,-20.508,-87.402
1688815554.542,-23.438,-42.480,-27.832,-39.551,-36.133
1688815554.546,-3.418,-41.992,-29.297,-18.555,-92.773
1688815554.550,-4.883,-34.180,-31.250,-13.184,-50.293
1688815554.554,-25.391,-34.180,-33.691,-4.883,42.480
1688815554.557,-41.504,-36.133,-34.668,4.395,273.438
1688815554.561,-24.902,-31.250,-31.738,-12.207,440.430
1688815554.565,-8.789,-28.809,-30.762,-10.254,15.137
1688815554.569,-7.324,-30.762,-26.367,0.977,-206.543
1688815554.573,-37.598,-37.109,-28.809,3.906,-81.543
1688815554.575,-66.895,-41.992,-32.227,2.930,-88.379
1688815554.579,-36.133,-42.969,-28.320,-12.207,-172.852
1688815554.583,-6.348,-42.480,-29.297,-7.812,-214.355
1688815554.587,-11.230,-39.551,-26.855,-4.395,-196.289
1688815554.591,-32.715,-35.156,-22.949,0.977,-116.211
1688815554.595,-43.945,-28.320,-19.531,13.672,2.441
1688815554.599,-20.996,-25.879,-23.438,-7.812,65.430
1688815554.602,-2.441,-28.809,-27.832,-14.648,326.172
1688815554.606,-6.348,-27.832,-26.855,-20.020,104.492
1688815554.610,-28.809,-28.809,-31.738,-29.785,-231.445
1688815554.614,-62.988,-29.785,-33.691,-24.902,-126.465
1688815554.618,-45.898,-29.785,-27.344,-38.574,-139.648
1688815554.619,-12.695,-29.785,-24.414,-37.109,-212.402
1688815554.623,-21.484,-30.273,-22.461,-18.555,-196.289
1688815554.627,-38.574,-34.668,-25.879,-12.695,-88.867
1688815554.631,-57.617,-35.156,-25.391,-13.184,-26.855
1688815554.635,-60.059,-39.551,-21.484,-30.762,-74.707
1688815554.639,-35.156,-43.457,-27.832,-42.969,-70.312
1688815554.643,-21.484,-41.016,-31.250,-46.387,196.289
1688815554.646,-35.645,-36.621,-26.855,-42.969,267.578
1688815554.650,-76.172,-34.668,-25.391,-37.598,56.641
1688815554.654,-70.312,-30.762,-27.344,-56.641,34.668
1688815554.658,-30.273,-29.785,-23.438,-61.523,136.719
1688815554.662,-27.344,-36.133,-28.809,-61.523,46.875
1688815554.679,-40.527,-32.715,-30.762,-60.059,-157.715
1688815554.683,-63.965,-29.297,-26.855,-46.387,-92.285
1688815554.687,-63.477,-27.344,-26.855,-68.359,-67.871
1688815554.691,-29.297,-24.902,-26.855,-86.426,-176.758
1688815554.695,-16.602,-29.785,-31.250,-76.172,-182.617
1688815554.699,-26.367,-30.273,-30.762,-75.684,-62.500
1688815554.703,-51.270,-25.879,-28.320,-62.012,142.578
1688815554.706,-64.453,-26.855,-28.809,-72.754,-40.039
1688815554.710,-43.945,-29.785,-27.832,-86.426,-244.629
1688815554.714,-30.762,-32.227,-29.297,-63.477,-49.805
