timestamps,TP9,AF7,AF8,TP10,Right AUX
1687767601.077,967.773,-43.945,-16.113,143.555,-12.207
1687767601.081,968.262,-45.410,-20.996,145.020,-98.633
1687767601.085,968.262,-46.387,-25.879,161.133,-1.953
1687767601.089,968.262,-42.969,-23.926,168.457,15.137
1687767601.093,968.262,-45.410,-26.367,174.316,-71.777
1687767601.097,968.262,-44.922,-29.785,168.457,-29.297
1687767601.101,968.262,-44.434,-31.738,164.062,230.957
1687767601.104,968.262,-45.410,-27.344,171.875,271.484
1687767601.108,967.773,-46.875,-19.043,191.895,-76.660
1687767601.112,968.262,-54.199,-15.625,201.660,-41.992
1687767601.116,967.773,-51.270,-19.531,190.918,153.809
1687767601.120,967.773,-47.852,-21.484,187.500,23.438
1687767601.120,967.773,-47.852,-21.484,187.500,23.438
1687767601.121,968.262,-53.223,-30.762,164.551,-137.695
1687767601.125,967.285,-50.293,-31.738,164.551,42.969
1687767601.129,962.891,-53.223,-34.668,170.410,88.379
1687767601.132,975.586,-56.152,-32.227,161.133,2.930
1687767601.136,874.023,-60.059,-34.668,136.719,-112.305
1687767601.140,671.875,-61.035,-30.273,137.207,12.695
1687767601.144,572.754,-61.523,-20.508,156.250,230.469
1687767601.148,547.852,-62.988,-20.996,156.738,2.930
1687767601.165,525.879,-63.477,-20.996,142.578,-149.902
1687767601.169,495.605,-57.129,-16.602,131.836,-128.906
1687767601.173,459.473,-57.617,-19.531,125.488,-155.762
1687767601.177,450.195,-64.453,-25.391,118.652,-218.750
1687767601.181,462.402,-62.500,-24.414,114.258,-160.645
1687767601.185,470.703,-50.781,-19.531,104.004,88.379
1687767601.189,465.820,-43.457,-13.184,81.055,34.668
1687767601.192,436.523,-50.293,-9.766,53.711,-80.566
1687767601.196,437.012,-49.805,-10.742,52.246,-59.570
1687767601.200,472.656,-48.828,-11.719,69.336,170.898
1687767601.204,475.586,-50.293,-14.648,49.805,255.371
1687767601.208,445.312,-45.410,-16.113,16.602,-50.293
1687767601.210,424.805,-48.340,-12.695,28.809,-45.410
1687767601.214,421.875,-52.246,-13.184,39.062,51.758
1687767601.218,428.711,-52.734,-17.090,6.836,-96.191
1687767601.222,424.805,-57.617,-17.090,-27.344,-109.375
1687767601.226,411.133,-55.176,-20.508,-32.227,-74.707
1687767601.230,391.602,-56.152,-33.203,-50.293,-125.977
1687767601.234,382.812,-61.523,-37.109,-65.918,-97.656
1687767601.237,394.531,-61.523,-38.574,-66.895,-124.512
1687767601.241,398.926,-57.129,-43.945,-86.426,20.508
1687767601.245,404.785,-52.734,-42.969,-94.238,130.859
1687767601.249,398.926,-56.152,-39.551,-105.957,-139.648
1687767601.253,400.879,-58.594,-36.133,-109.375,-193.848
1687767601.255,420.898,-57.617,-42.969,-79.102,-42.969
1687767601.259,427.246,-62.012,-49.805,-93.262,19.043
1687767601.263,418.945,-67.383,-51.758,-107.422,-83.984
1687767601.267,387.695,-75.684,-54.688,-99.609,-177.246
1687767601.271,375.000,-81.055,-54.688,-127.441,-198.730
1687767601.275,393.066,-78.125,-52.246,-126.953,-130.859
1687767601.279,413.086,-75.684,-45.898,-96.680,-27.344
1687767601.282,414.062,-70.801,-45.898,-110.840,-31.250
1687767601.286,392.578,-68.848,-47.852,-138.672,75.684
1687767601.290,372.070,-70.312,-43.945,-141.602,13.672
1687767601.294,395.996,-62.988,-34.180,-123.047,-105.469
1687767601.298,418.945,-61.523,-27.344,-111.328,0.977
1687767601.300,418.457,-66.406,-29.785,-96.680,179.688
1687767601.304,413.086,-65.430,-33.203,-86.914,17.578
1687767601.308,403.320,-62.500,-37.109,-108.398,-201.660
1687767601.312,412.598,-56.152,-37.109,-105.469,-112.305
1687767601.316,437.988,-50.781,-29.297,-84.961,-64.453
1687767601.320,446.777,-51.758,-27.344,-96.191,-78.125
1687767601.324,408.203,-53.223,-27.344,-114.746,-111.816
1687767601.327,368.164,-55.664,-32.227,-119.629,50.781
1687767601.331,348.145,-52.246,-36.133,-112.793,182.617
1687767601.335,345.703,-55.664,-37.109,-125.000,-15.137
1687767601.339,373.047,-53.711,-35.645,-123.047,-58.594
1687767601.343,369.629,-52.246,-34.668,-122.559,-69.336
1687767601.346,359.375,-52.246,-31.738,-132.324,-182.617
1687767601.350,369.629,-43.457,-19.531,-141.602,-177.734
1687767601.354,394.531,-42.969,-9.277,-145.508,-5.371
1687767601.358,406.738,-48.340,-16.602,-150.391,91.797
1687767601.362,395.508,-53.223,-22.461,-145.020,-44.434
1687767601.366,387.207,-52.734,-22.461,-140.137,-84.961
1687767601.370,389.648,-55.664,-27.344,-143.066,54.199
1687767601.373,407.715,-52.734,-32.715,-148.438,112.305
1687767601.377,413.086,-48.340,-35.156,-152.832,-3.418
1687767601.381,406.250,-48.340,-36.133,-153.320,-137.207
1687767601.385,387.207,-48.828,-37.598,-157.715,-17.578
1687767601.389,378.906,-45.410,-33.691,-144.043,366.211
1687767601.390,401.855,-42.969,-25.391,-133.301,201.660
1687767601.394,419.434,-32.715,-22.949,-128.418,-163.574
1687767601.398,418.457,-20.996,-23.438,-114.746,-103.027
1687767601.402,396.973,-23.926,-22.949,-124.512,-70.312
1687767601.406,369.141,-41.016,-27.344,-133.789,-86.426
1687767601.410,381.836,-47.363,-32.715,-126.465,-28.320
1687767601.414,400.391,-40.527,-33.691,-116.699,175.293
1687767601.417,375.977,-39.062,-35.156,-125.000,356.934
1687767601.421,345.215,-40.039,-33.203,-147.461,44.922
1687767601.425,343.262,-41.992,-33.691,-162.598,-201.172
1687767601.429,355.957,-47.363,-33.203,-162.109,-126.465
1687767601.433,367.676,-46.387,-30.273,-172.852,-108.887
1687767601.435,356.934,-43.457,-35.645,-194.336,-171.387
1687767601.439,331.055,-42.480,-34.180,-195.801,-192.871
1687767601.443,319.336,-38.086,-32.227,-193.848,-106.934
1687767601.447,324.219,-39.062,-37.109,-196.777,-119.141
1687767601.451,336.914,-40.039,-38.086,-196.289,-195.801
1687767601.455,333.496,-39.062,-36.133,-193.359,-99.121
1687767601.459,308.105,-39.062,-36.621,-184.082,205.078
1687767601.462,293.945,-38.574,-36.133,-191.895,188.477
1687767601.466,312.012,-36.133,-32.227,-201.172,-84.961
1687767601.470,319.824,-33.203,-28.809,-179.199,-98.633
1687767601.474,312.500,-26.855,-27.832,-154.297,165.039
1687767601.478,292.480,-23.438,-32.227,-157.227,115.234
1687767601.480,278.320,-22.461,-31.250,-153.320,-149.414
1687767601.484,288.086,-19.531,-24.902,-123.047,-60.059
1687767601.488,286.133,-20.508,-26.855,-120.117,33.203
1687767601.492,265.625,-23.438,-28.809,-116.211,-124.023
1687767601.496,231.445,-21.484,-21.484,-99.609,-169.434
1687767601.500,184.570,-24.902,-20.020,-96.191,19.531
1687767601.504,248.535,-33.691,-28.809,-91.797,70.312
1687767601.507,-194.824,-35.645,-33.691,-89.355,-90.820
1687767601.511,-920.410,-40.039,-31.250,-75.684,-231.445
1687767601.515,-1000.000,-38.086,-22.949,-75.684,31.738
1687767601.519,-980.469,-32.715,-18.555,-75.195,196.777
1687767601.523,-1000.000,-34.180,-18.066,-64.453,-148.926
1687767601.585,-1000.000,-39.062,-20.508,-63.477,-185.059
1687767601.589,-1000.000,-43.457,-20.508,-65.430,-83.984
1687767601.593,-1000.000,-45.410,-20.508,-62.500,-135.742
1687767601.597,-1000.000,-32.715,-28.809,-70.801,-162.598
1687767601.601,-1000.000,-22.461,-31.250,-82.520,-116.211
1687767601.605,-1000.000,-30.762,-29.785,-84.961,-5.371
1687767601.609,-1000.000,-40.039,-25.391,-85.449,34.180
1687767601.612,-1000.000,-38.574,-24.902,-85.449,-98.633
1687767601.616,-1000.000,-41.016,-28.809,-94.727,-122.559
1687767601.620,-1000.000,-42.969,-27.832,-96.191,18.555
1687767601.624,-1000.000,-34.668,-26.367,-90.820,-26.855
1687767601.628,-1000.000,-36.133,-29.297,-81.055,-84.961
1687767601.603,-1000.000,-49.316,-32.227,-85.938,23.438
1687767601.607,-1000.000,-47.852,-28.809,-107.910,37.109
1687767601.611,-1000.000,-36.621,-25.391,-103.027,-173.828
1687767601.615,-1000.000,-34.180,-24.414,-92.285,-277.832
1687767601.619,-1000.000,-40.527,-22.461,-88.867,-68.848
1687767601.623,-1000.000,-43.945,-18.066,-88.867,29.785
1687767601.627,-1000.000,-40.039,-12.207,-104.004,-134.766
1687767601.630,-1000.000,-34.180,-12.207,-106.934,-208.496
1687767601.634,-1000.000,-33.203,-21.973,-100.586,-57.129
1687767601.638,-1000.000,-35.645,-23.926,-90.332,62.500
1687767601.642,-1000.000,-34.180,-19.531,-94.727,-149.902
1687767601.646,-1000.000,-31.250,-19.531,-98.633,-182.617
1687767601.630,-1000.000,-29.297,-20.996,-85.938,-118.164
1687767601.634,-1000.000,-27.832,-13.672,-75.195,-55.664
1687767601.638,-1000.000,-37.109,-13.184,-77.148,-136.719
1687767601.642,-1000.000,-41.504,-20.020,-84.961,-151.855
1687767601.646,-1000.000,-39.062,-18.066,-85.938,-75.684
1687767601.650,-1000.000,-34.668,-15.137,-87.891,-115.234
1687767601.654,-1000.000,-30.273,-17.090,-93.262,-124.512
1687767601.657,-1000.000,-29.785,-20.020,-94.727,-64.453
1687767601.661,-1000.000,-30.273,-20.508,-89.844,57.617
1687767601.665,-1000.000,-35.645,-21.973,-89.844,-27.344
1687767601.669,-1000.000,-41.992,-20.020,-92.773,-70.801
1687767601.673,-1000.000,-38.086,-19.043,-92.773,37.109
1687767601.675,-1000.000,-31.738,-24.414,-74.219,252.930
1687767601.679,-1000.000,-33.691,-24.414,-64.941,342.285
1687767601.683,-1000.000,-38.574,-23.438,-87.402,4.883
1687767601.687,-1000.000,-41.992,-23.926,-80.078,-39.551
1687767601.691,-1000.000,-40.527,-25.391,-68.848,250.977
1687767601.695,-1000.000,-40.527,-23.926,-77.637,68.359
1687767601.699,-1000.000,-38.086,-24.414,-80.566,-113.281
1687767601.702,-1000.000,-36.133,-20.020,-82.520,47.363
1687767601.706,-1000.000,-40.039,-17.578,-94.238,106.445
1687767601.710,-1000.000,-43.457,-25.391,-106.934,-143.555
1687767601.714,-1000.000,-47.363,-27.832,-99.609,-186.035
1687767601.718,-1000.000,-46.875,-28.320,-83.008,-93.262
1687767601.735,-1000.000,-44.434,-32.715,-87.402,-157.715
1687767601.739,-999.023,-45.898,-31.250,-126.953,-202.637
1687767601.743,-1000.000,-49.805,-27.832,-136.230,-159.668
1687767601.747,-995.605,-44.922,-29.297,-133.301,-126.953
1687767601.751,-955.566,-44.922,-31.250,-140.625,-141.602
1687767601.755,-934.570,-53.711,-35.156,-126.953,-132.324
1687767601.759,-962.402,-54.688,-37.109,-128.418,-111.328
1687767601.762,-958.008,-59.570,-40.527,-138.184,279.785
1687767601.766,-905.762,-65.430,-40.039,-136.719,291.016
1687767601.770,-867.188,-63.477,-39.062,-142.090,-116.211
1687767601.774,-850.098,-62.500,-43.457,-154.297,-32.227
1687767601.778,-862.793,-59.082,-40.039,-167.969,179.688
1687767601.765,-871.094,-62.500,-39.062,-174.805,-25.391
1687767601.769,-838.867,-62.988,-44.434,-174.316,-195.312
1687767601.773,-804.199,-61.523,-44.434,-168.945,-57.617
1687767601.777,-800.781,-67.383,-48.340,-175.293,3.418
1687767601.781,-817.871,-74.219,-49.316,-177.246,-103.027
1687767601.785,-808.105,-72.266,-45.410,-170.898,-166.016
1687767601.789,-773.926,-68.848,-46.875,-166.504,-43.457
1687767601.792,-742.676,-69.824,-49.316,-175.293,-57.129
1687767601.796,-742.676,-68.848,-48.340,-198.242,-131.348
1687767601.800,-792.480,-67.871,-47.852,-203.613,-128.418
1687767601.804,-820.312,-63.965,-41.016,-193.359,46.387
1687767601.808,-796.875,-59.570,-32.227,-180.664,155.762
1687767601.842,-760.254,-56.152,-32.715,-179.199,-98.633
1687767601.846,-751.465,-47.363,-29.785,-159.668,-193.359
1687767601.850,-732.422,-51.758,-31.738,-159.668,-65.430
1687767601.854,-857.422,-60.547,-38.086,-179.688,-55.664
1687767601.858,-1000.000,-54.688,-35.156,-174.316,-133.789
1687767601.862,-998.047,-54.199,-35.156,-160.645,-119.141
1687767601.866,-997.559,-49.805,-40.039,-143.066,92.773
1687767601.869,-1000.000,-48.828,-46.387,-126.465,44.434
1687767601.873,-1000.000,-59.082,-52.246,-163.086,-235.840
1687767601.877,-1000.000,-63.477,-55.664,-177.734,-166.992
1687767601.881,-1000.000,-57.129,-57.129,-155.762,-41.016
1687767601.885,-1000.000,-57.617,-55.664,-152.344,-25.391
1687767601.859,-1000.000,-60.547,-53.223,-160.645,-105.469
1687767601.863,-1000.000,-57.617,-51.758,-187.500,-65.918
1687767601.867,-1000.000,-61.035,-51.270,-191.895,-9.766
1687767601.871,-1000.000,-62.988,-47.363,-165.039,-120.605
1687767601.875,-1000.000,-58.594,-47.363,-150.879,-83.008
1687767601.879,-1000.000,-60.547,-54.688,-175.293,13.184
1687767601.883,-1000.000,-60.059,-55.664,-186.523,-11.719
1687767601.886,-1000.000,-56.641,-53.711,-157.227,-108.887
1687767601.890,-1000.000,-56.152,-51.270,-139.648,-203.613
1687767601.894,-1000.000,-59.570,-46.875,-133.789,61.035
1687767601.898,-1000.000,-66.406,-44.434,-114.258,148.926
1687767601.902,-1000.000,-68.359,-46.387,-123.535,-126.953
1687767601.915,-1000.000,-71.289,-52.246,-121.582,-182.129
1687767601.919,-1000.000,-69.824,-53.223,-111.816,85.938
1687767601.923,-1000.000,-67.871,-51.758,-112.305,221.191
1687767601.927,-1000.000,-67.871,-51.270,-114.258,-108.887
1687767601.931,-1000.000,-61.523,-48.828,-127.930,-157.227
1687767601.935,-1000.000,-58.105,-42.480,-110.352,148.438
1687767601.939,-987.305,-62.012,-41.992,-95.215,330.078
1687767601.942,-1000.000,-66.895,-41.992,-87.402,64.453
1687767601.946,-843.262,-61.523,-37.109,-88.379,-125.977
1687767601.950,-402.344,-58.594,-41.016,-100.586,-149.902
1687767601.954,-83.984,-64.453,-44.434,-83.008,-143.555
1687767601.958,162.109,-57.617,-41.992,-67.871,-117.188
1687767601.960,388.184,-50.293,-41.016,-68.359,-99.609
1687767601.964,533.691,-59.082,-41.504,-65.430,-17.090
1687767601.968,588.379,-62.988,-47.363,-72.754,-169.922
1687767601.972,755.859,-62.500,-48.340,-69.824,-216.797
1687767601.976,965.820,-64.941,-38.574,-43.945,-32.715
1687767601.980,968.750,-64.453,-31.738,-30.273,40.039
1687767601.984,962.402,-56.641,-24.414,-25.391,-91.309
1687767601.987,969.238,-53.223,-20.996,-20.508,-203.125
1687767601.991,968.262,-52.734,-22.949,-7.324,2.441
1687767601.995,967.773,-55.664,-21.973,13.672,171.387
1687767601.999,967.773,-57.617,-21.973,12.207,-136.719
1687767602.003,967.773,-53.711,-20.020,17.578,-222.168
1687767602.005,967.773,-58.105,-20.508,17.578,-82.520
1687767602.009,968.262,-57.129,-24.414,30.273,-64.941
1687767602.013,968.262,-52.734,-26.367,46.875,-140.625
1687767602.017,967.773,-50.293,-25.879,59.082,-88.379
1687767602.021,967.773,-51.270,-22.461,85.938,-96.191
1687767602.025,968.262,-57.617,-16.113,104.980,-85.449
1687767602.029,968.262,-51.758,-9.277,108.887,-65.430
1687767602.032,967.773,-40.527,-17.578,109.863,-0.977
1687767602.036,967.773,-36.621,-25.391,121.582,206.543
1687767602.040,967.773,-37.598,-21.484,125.977,86.914
1687767602.044,968.262,-45.898,-17.578,131.348,-97.656
1687767602.048,967.773,-50.293,-12.695,138.184,-52.734
1687767602.065,967.773,-47.363,-14.160,150.879,205.078
1687767602.069,968.262,-49.316,-21.973,149.902,156.250
1687767602.073,967.773,-41.992,-27.344,144.531,-72.754
1687767602.077,967.773,-38.574,-25.879,170.410,-46.875
1687767602.081,967.773,-46.387,-22.461,186.523,-66.406
1687767602.085,967.773,-51.758,-25.879,183.594,-55.176
1687767602.089,967.773,-57.617,-31.738,195.312,-56.152
1687767602.092,968.262,-63.477,-36.621,218.750,75.684
1687767602.096,968.262,-58.594,-38.086,202.148,131.836
1687767602.100,968.262,-61.035,-38.574,168.457,-57.617
1687767602.104,968.262,-61.035,-37.109,160.645,-224.609
1687767602.108,968.262,-70.312,-39.062,168.457,14.648
1687767602.095,968.262,-80.078,-41.016,179.199,175.293
1687767602.099,967.773,-68.359,-41.504,169.434,-145.020
1687767602.103,967.773,-58.105,-45.410,130.371,-180.176
1687767602.107,968.262,-54.199,-52.734,94.727,-105.957
1687767602.111,968.262,-58.594,-54.688,98.145,-139.160
1687767602.115,968.262,-60.059,-46.387,101.562,-116.211
1687767602.119,968.262,-55.176,-48.340,82.520,-31.250
1687767602.122,968.262,-62.500,-47.363,67.383,1.953
1687767602.126,968.750,-51.758,-47.363,33.691,-90.820
1687767602.130,967.773,-44.922,-49.316,20.996,-123.535
1687767602.134,946.777,-40.527,-43.945,35.645,-15.137
1687767602.138,999.512,-37.598,-40.527,42.969,324.219
1687767602.141,685.547,-31.250,-46.387,26.367,286.133
1687767602.145,54.199,-34.668,-45.898,2.441,-80.078
1687767602.149,-495.605,-43.457,-41.504,0.977,-116.699
1687767602.153,-960.449,-35.645,-48.340,-10.742,-30.273
1687767602.157,-1000.000,-27.832,-49.805,-9.277,-52.734
1687767602.161,-986.816,-22.949,-46.875,-4.395,-58.594
1687767602.165,-1000.000,-21.973,-49.805,-8.301,141.602
1687767602.168,-1000.000,-28.809,-50.293,-3.418,211.914
1687767602.172,-1000.000,-32.715,-48.828,4.883,-37.598
1687767602.176,-1000.000,-34.668,-47.852,-3.418,-162.109
1687767602.180,-1000.000,-32.715,-48.828,-15.625,-68.848
1687767602.184,-1000.000,-26.855,-36.133,-27.344,-95.215
1687767602.186,-1000.000,-28.320,-24.414,-26.855,-175.781
1687767602.190,-1000.000,-32.227,-32.227,-19.531,-72.754
1687767602.194,-1000.000,-32.715,-39.062,-20.020,-1.953
1687767602.198,-1000.000,-32.715,-38.086,-29.297,-100.098
1687767602.202,-1000.000,-36.621,-42.480,-56.152,-238.770
1687767602.206,-1000.000,-35.645,-47.852,-69.824,-171.875
1687767602.210,-1000.000,-41.504,-48.340,-66.895,100.586
1687767602.213,-1000.000,-38.086,-47.363,-74.707,76.660
1687767602.217,-1000.000,-32.715,-44.922,-90.332,-165.527
1687767602.221,-1000.000,-42.480,-43.457,-81.543,-166.504
1687767602.225,-1000.000,-40.527,-39.062,-79.590,-9.766
1687767602.229,-1000.000,-41.992,-37.598,-78.125,-63.477
1687767602.230,-1000.000,-40.039,-37.109,-65.918,-128.906
1687767602.234,-1000.000,-43.457,-28.320,-59.082,11.230
1687767602.238,-1000.000,-46.875,-28.320,-68.359,57.129
1687767602.242,-1000.000,-42.480,-29.297,-80.566,-57.129
1687767602.246,-1000.000,-45.410,-26.367,-66.895,-155.762
1687767602.250,-1000.000,-41.016,-20.996,-44.434,24.414
1687767602.254,-1000.000,-28.320,0.977,-28.320,257.324
1687767602.257,-1000.000,-20.020,17.578,-24.414,-41.992
1687767602.261,-1000.000,-10.742,23.438,-21.484,-199.707
1687767602.265,-1000.000,-14.648,23.926,-11.230,-32.227
1687767602.269,-1000.000,-17.578,20.508,0.977,6.836
1687767602.273,-1000.000,-8.789,21.973,-11.230,-122.559
1687767602.290,-1000.000,-9.277,25.391,-19.043,-157.715
1687767602.294,-1000.000,-13.672,22.461,-1.953,-53.711
1687767602.298,-1000.000,-17.578,23.926,14.648,-11.230
1687767602.302,-1000.000,-18.066,30.273,13.184,-123.535
1687767602.306,-1000.000,-16.602,25.391,13.672,-97.168
1687767602.310,-1000.000,-22.949,21.973,1.953,38.086
1687767602.314,-1000.000,-29.785,22.949,-35.156,-13.184
1687767602.317,-1000.000,-30.273,19.043,-29.785,-57.129
1687767602.321,-1000.000,-32.227,8.301,-31.738,-52.246
1687767602.325,-1000.000,-41.016,3.418,-31.250,140.137
1687767602.329,-1000.000,-43.945,9.277,-16.602,145.020
1687767602.333,-1000.000,-37.109,10.742,-25.879,-95.215
1687767602.335,-1000.000,-30.273,8.789,-41.992,-63.477
1687767602.339,-1000.000,-32.227,10.254,-64.453,64.453
1687767602.343,-1000.000,-39.062,9.766,-75.195,-44.434
1687767602.347,-999.512,-36.621,13.184,-81.543,-207.031
1687767602.351,-1000.000,-30.273,18.066,-89.355,-73.242
1687767602.355,-997.070,-31.738,15.625,-84.961,20.508
1687767602.359,-952.148,-29.785,14.648,-83.008,-105.957
1687767602.362,-898.926,-20.020,14.648,-83.008,-156.738
1687767602.366,-885.742,-20.508,11.230,-77.637,3.906
1687767602.370,-876.953,-19.043,12.207,-74.707,172.363
1687767602.374,-837.402,-8.301,14.648,-81.543,-87.891
1687767602.378,-800.293,-9.766,8.789,-90.332,-199.707
1687767602.380,-781.738,-16.113,5.859,-81.543,-86.914
1687767602.384,-770.508,-10.254,9.277,-81.055,-89.844
1687767602.388,-771.484,-6.836,7.324,-113.281,-172.363
1687767602.392,-758.789,-16.602,5.371,-98.633,-160.156
1687767602.396,-724.609,-12.695,0.000,-70.312,-48.340
1687767602.400,-695.312,-9.277,-5.859,-85.449,-15.625
1687767602.404,-687.988,-10.254,-6.348,-107.910,-42.969
1687767602.407,-689.941,-14.648,0.488,-118.652,-52.246
1687767602.411,-680.176,-20.996,2.930,-105.469,119.629
1687767602.415,-643.066,-24.414,0.000,-86.914,110.840
1687767602.419,-612.793,-22.949,-2.441,-97.656,-82.520
1687767602.423,-606.445,-16.113,-0.977,-103.516,49.316
1687767602.425,-599.609,-11.230,-1.465,-101.562,228.027
1687767602.429,-587.402,-13.672,-3.418,-108.398,-16.113
1687767602.433,-554.688,-18.066,-3.418,-111.816,-193.848
1687767602.437,-528.320,-15.137,-8.301,-116.211,-98.633
1687767602.441,-539.062,-16.113,-12.207,-135.742,-38.574
1687767602.445,-565.430,-18.066,-13.672,-146.484,-56.152
1687767602.449,-562.500,-24.902,-12.695,-131.348,-57.129
1687767602.452,-544.434,-28.320,-15.137,-125.000,116.211
1687767602.456,-528.320,-26.855,-23.438,-125.488,199.707
1687767602.460,-521.484,-30.273,-27.344,-109.863,-70.312
1687767602.464,-529.297,-31.250,-23.926,-121.094,-158.691
1687767602.468,-524.414,-34.180,-27.832,-154.785,-113.281
1687767602.470,-500.977,-38.574,-30.762,-147.949,-12.207
1687767602.474,-479.980,-36.133,-28.809,-133.789,-53.223
1687767602.478,-471.680,-36.621,-29.785,-138.184,-111.816
1687767602.482,-472.656,-33.203,-30.273,-166.992,-19.531
1687767602.486,-500.977,-27.344,-29.785,-194.824,-84.473
1687767602.490,-500.977,-29.785,-25.879,-183.594,-64.941
1687767602.494,-435.547,-34.668,-26.855,-178.711,-5.859
1687767602.497,-417.969,-34.180,-24.902,-165.039,152.344
1687767602.501,-462.891,-29.785,-23.438,-174.316,129.395
1687767602.505,-497.070,-40.527,-17.090,-174.805,-187.500
1687767602.509,-471.191,-39.551,-11.230,-172.363,-105.957
1687767602.513,-434.570,-42.480,-18.555,-171.387,31.738
1687767602.516,-432.129,-49.805,-23.438,-166.992,-111.816
1687767602.520,-437.500,-42.480,-23.926,-181.152,-185.547
1687767602.524,-424.316,-40.039,-25.879,-190.918,-32.227
1687767602.528,-425.781,-41.504,-22.461,-201.172,-30.762
1687767602.532,-442.383,-41.016,-35.645,-203.125,-107.910
1687767602.536,-356.445,-41.504,-46.387,-140.625,-82.520
1687767602.540,-323.730,-36.621,-27.344,-77.148,63.965
1687767602.543,-418.945,-25.879,-13.184,-110.840,198.242
1687767602.547,-441.406,-28.809,-9.766,-130.371,-83.008
1687767602.551,-387.695,-35.156,-22.949,-67.871,-174.316
1687767602.555,-434.082,-27.344,-30.273,-30.273,-124.023
1687767602.559,-484.375,-23.438,-27.832,-29.297,-119.629
1687767602.560,-479.492,-41.504,-30.273,-25.879,-126.953
1687767602.564,-459.473,-42.969,-21.484,15.625,-180.176
1687767602.568,-422.852,-34.180,-14.160,14.648,-137.695
1687767602.572,-386.230,-50.781,-20.508,-9.277,-85.449
1687767602.576,-336.914,-60.059,-27.344,23.438,-112.793
1687767602.580,-365.234,-53.223,-12.207,-8.301,-124.512
1687767602.584,-349.121,-45.898,-20.508,25.391,171.875
1687767602.587,-329.102,-34.180,-31.738,84.473,201.172
1687767602.591,-288.574,-51.758,-25.879,52.734,-100.586
1687767602.595,-228.516,-56.641,-29.297,34.668,-35.645
1687767602.599,-241.211,-42.969,-30.273,44.434,171.387
1687767602.603,-229.004,-54.688,-37.109,-15.137,-0.977
1687767602.605,-195.801,-60.547,-39.062,-40.527,-232.422
1687767602.609,-176.758,-57.617,-22.461,41.504,-91.797
1687767602.613,-149.902,-48.828,-23.438,10.254,24.902
1687767602.617,-14.160,-53.711,-37.109,-16.113,-95.215
1687767602.621,406.738,-56.641,-34.668,-10.254,-212.402
1687767602.625,834.473,-67.383,-20.996,-14.160,76.172
1687767602.629,969.727,-63.965,-25.391,2.930,238.770
1687767602.632,959.961,-60.059,-34.668,-27.832,4.395
1687767602.636,966.797,-64.453,-31.250,-21.973,-162.109
1687767602.640,968.750,-52.246,-38.574,0.000,-22.461
1687767602.644,968.262,-64.941,-39.551,-14.160,170.410
1687767602.648,967.773,-73.242,-21.973,-35.156,-69.824
1687767602.665,967.773,-66.406,-22.461,-20.996,-117.188
1687767602.669,967.773,-58.594,-33.691,-15.137,-59.570
1687767602.673,968.262,-61.523,-23.926,19.043,-109.375
1687767602.677,968.262,-64.941,-17.578,31.250,-144.531
1687767602.681,968.262,-62.500,-21.973,28.320,-65.430
1687767602.685,968.262,-65.430,-21.484,44.434,67.871
1687767602.689,968.262,-71.289,-24.902,20.020,58.105
1687767602.692,968.262,-76.172,-28.809,23.438,-75.195
1687767602.696,968.262,-72.754,-32.715,14.160,-87.891
1687767602.700,968.262,-63.965,-35.645,26.367,171.387
1687767602.704,968.262,-60.547,-36.133,34.180,161.621
1687767602.708,967.773,-62.988,-32.715,27.832,-119.629
1687767602.710,968.262,-58.594,-32.715,29.785,-171.387
1687767602.714,968.262,-49.316,-27.832,41.992,80.566
1687767602.718,968.262,-50.293,-26.855,53.223,-17.090
1687767602.722,968.262,-53.223,-31.250,54.688,-198.242
1687767602.726,968.262,-47.363,-33.691,61.523,-101.074
1687767602.730,968.262,-48.340,-35.645,63.477,-13.184
1687767602.734,968.262,-52.246,-36.621,69.824,8.789
1687767602.737,968.262,-45.410,-34.668,80.078,-39.551
1687767602.741,967.773,-44.922,-34.668,97.656,125.488
1687767602.745,968.262,-43.457,-42.480,96.191,232.422
1687767602.749,968.262,-42.969,-39.062,80.078,-79.102
1687767602.753,967.773,-37.598,-36.133,83.984,-81.543
1687767602.755,967.773,-32.715,-39.551,101.074,96.680
1687767602.759,967.773,-44.922,-39.551,115.723,34.668
1687767602.763,968.262,-35.645,-44.922,104.492,-143.555
1687767602.767,968.262,-26.367,-41.504,96.191,-194.824
1687767602.771,968.262,-43.945,-37.109,101.562,-143.555
1687767602.775,968.262,-41.992,-36.133,120.117,-68.848
1687767602.779,967.773,-35.645,-33.203,144.043,-1.465
1687767602.782,967.773,-33.691,-38.574,135.254,-15.625
1687767602.786,967.773,-34.668,-46.387,131.348,162.598
1687767602.790,967.773,-35.156,-46.875,131.348,149.902
1687767602.794,968.262,-37.598,-45.898,138.184,-107.422
1687767602.798,967.773,-37.109,-46.387,150.391,14.160
1687767602.801,967.773,-26.855,-46.387,157.227,137.695
1687767602.805,967.773,-22.461,-41.504,145.508,-24.902
1687767602.809,967.773,-20.996,-38.086,122.070,-79.102
1687767602.813,968.262,-16.113,-38.574,147.949,38.574
1687767602.817,968.262,-16.602,-39.551,170.898,39.551
1687767602.821,968.262,-21.484,-35.156,138.672,-47.363
1687767602.825,968.262,-20.020,-25.391,115.723,-94.727
1687767602.828,968.262,-17.578,-22.949,111.816,37.109
1687767602.832,967.773,-10.742,-24.414,116.211,144.043
1687767602.836,968.262,-9.277,-26.367,115.723,-121.094
1687767602.840,967.773,-17.090,-33.691,86.426,-189.941
1687767602.844,968.262,-17.090,-40.527,55.176,-119.141
1687767602.845,968.262,-17.578,-36.621,46.875,-185.547
1687767602.849,967.773,-19.043,-31.738,38.086,-260.254
1687767602.853,968.262,-16.113,-37.598,8.301,-221.191
1687767602.857,968.262,-12.695,-34.668,2.441,-106.934
1687767602.861,968.262,-17.090,-31.250,-0.488,-123.535
1687767602.865,967.773,-20.508,-28.809,-2.441,-33.203
1687767602.869,967.773,-24.902,-28.320,-25.879,69.336
1687767602.872,967.773,-29.297,-31.250,-32.227,234.375
1687767602.876,967.773,-34.180,-28.320,2.441,261.230
1687767602.880,968.262,-35.156,-22.461,-24.414,-151.855
1687767602.884,967.285,-27.344,-21.973,-49.805,-163.086
1687767602.888,967.773,-35.645,-21.973,-54.688,-35.156
1687767602.890,964.355,-37.109,-21.484,-49.805,-175.781
1687767602.894,941.895,-31.738,-21.973,-73.242,-212.402
1687767602.898,893.555,-44.434,-26.367,-122.559,-134.766
1687767602.902,854.004,-46.875,-26.367,-146.484,-115.723
1687767602.906,843.750,-43.945,-24.902,-160.645,-149.902
1687767602.910,847.656,-48.828,-29.785,-106.445,-91.309
1687767602.914,850.586,-48.828,-28.320,-96.191,137.695
1687767602.917,829.590,-50.293,-30.273,-162.598,291.016
1687767602.921,818.848,-41.504,-31.250,-195.312,-37.109
1687767602.925,803.711,-36.133,-35.645,-203.125,-256.836
1687767602.929,783.203,-42.480,-37.598,-158.203,-160.156
1687767602.933,785.156,-45.410,-32.715,-154.785,-97.656
1687767602.950,768.066,-48.828,-29.297,-206.055,-160.645
1687767602.954,745.117,-46.387,-23.438,-213.379,-174.316
1687767602.958,745.117,-50.781,-21.484,-211.914,-86.426
1687767602.962,747.559,-55.664,-29.297,-220.215,-76.172
1687767602.966,742.676,-50.293,-30.273,-200.195,-83.008
1687767602.970,747.559,-50.781,-26.855,-203.125,7.324
1687767602.974,743.652,-55.176,-29.297,-209.961,227.051
1687767602.977,732.422,-54.688,-29.785,-205.078,119.629
1687767602.981,747.070,-48.340,-35.156,-203.125,-166.016
1687767602.985,755.859,-49.316,-39.551,-200.684,-12.695
1687767602.989,743.652,-50.293,-35.645,-190.918,173.340
1687767602.993,736.328,-43.945,-36.621,-191.895,18.066
1687767602.980,735.352,-42.480,-36.621,-188.965,-207.031
1687767602.984,737.793,-43.457,-36.133,-175.293,-102.051
1687767602.988,744.629,-44.434,-30.762,-154.785,8.301
1687767602.992,741.211,-45.898,-28.809,-141.113,-56.641
1687767602.996,709.961,-40.527,-33.691,-149.902,-74.219
1687767603.000,698.730,-37.109,-34.180,-154.785,37.598
1687767603.004,706.055,-22.949,-44.434,-152.832,79.590
1687767603.007,666.504,-13.672,-37.598,-166.992,-51.270
1687767603.011,624.512,-50.293,-30.762,-157.715,-125.000
1687767603.015,671.875,-76.172,-36.621,-81.543,72.266
1687767603.019,707.031,-48.340,-31.738,-51.758,228.516
1687767603.023,648.438,-38.574,-20.508,-71.289,32.227
1687767603.040,633.301,-35.156,1.465,-57.617,-73.730
1687767603.044,678.711,-31.250,-6.836,-35.156,-4.883
1687767603.048,682.129,-45.898,-35.156,14.160,-17.578
1687767603.052,646.973,-31.250,-4.395,61.523,-72.754
1687767603.056,605.957,-16.113,5.371,82.031,-91.797
1687767603.060,607.910,-36.133,-25.391,137.207,2.441
1687767603.064,625.977,-41.992,-31.738,177.734,95.215
1687767603.067,633.301,-38.574,-31.250,243.164,-26.855
1687767603.071,570.312,-45.410,-25.879,261.719,-78.613
1687767603.075,599.609,-47.852,-19.043,245.117,41.504
1687767603.079,288.574,-55.176,-18.066,285.645,94.727
1687767603.083,-675.293,-39.551,-17.090,312.500,-39.062
1687767603.085,-1000.000,-39.062,-21.973,288.086,-109.863
1687767603.089,-966.309,-48.828,-27.344,267.578,12.695
1687767603.093,-1000.000,-41.992,-24.414,272.949,-34.180
1687767603.097,-1000.000,-29.297,-27.832,278.320,-161.133
1687767603.101,-1000.000,-28.320,-19.043,280.273,-53.223
1687767603.105,-1000.000,-50.781,-0.977,292.969,316.895
1687767603.109,-1000.000,-37.598,-4.883,265.625,149.414
1687767603.112,-1000.000,-37.598,-6.836,221.191,-188.477
1687767603.116,-1000.000,-51.758,-8.301,216.309,51.758
1687767603.120,-1000.000,-54.199,-5.859,241.699,188.477
1687767603.124,-1000.000,-46.875,-0.977,190.918,-148.926
1687767603.128,-1000.000,-17.090,-12.207,135.254,-209.473
1687767603.131,-1000.000,-14.160,-16.113,130.859,-142.578
1687767603.135,-1000.000,-21.484,-9.277,125.488,-161.621
1687767603.139,-1000.000,-10.742,-16.113,123.535,-223.633
1687767603.143,-1000.000,-39.062,-0.977,110.840,-221.680
1687767603.147,-1000.000,-19.531,-11.719,36.621,-84.473
1687767603.151,-998.535,-0.488,-45.410,28.809,-39.551
1687767603.155,-989.258,-27.344,-36.133,35.645,-17.578
1687767603.158,-1000.000,-14.160,-20.996,7.812,-52.246
1687767603.162,-782.227,-43.945,-6.348,67.383,124.512
1687767603.166,-356.445,-42.480,-16.602,-0.977,94.727
1687767603.170,-44.922,-22.461,-27.344,-60.059,-157.227
1687767603.174,225.586,-5.371,-27.832,-70.312,-33.203
1687767603.176,396.484,9.766,13.672,-114.746,-25.879
1687767603.180,652.832,4.883,18.555,-55.664,-123.047
1687767603.184,901.855,8.789,-30.762,-47.852,-213.867
1687767603.188,963.379,-37.598,38.574,-77.148,-44.434
1687767603.192,964.355,-54.688,28.320,-68.848,67.871
1687767603.196,967.773,-60.059,-27.832,-66.895,-38.086
1687767603.200,968.262,-45.898,-13.184,-79.102,-53.711
1687767603.203,968.262,-38.574,-15.137,-93.750,52.246
1687767603.207,968.262,-78.613,-11.719,-85.938,62.988
1687767603.211,968.262,-74.707,-21.484,-15.625,-157.227
1687767603.215,968.262,-49.805,-22.949,-57.129,-210.449
1687767603.219,968.262,-46.875,-15.137,-100.098,28.809
1687767603.223,967.773,-48.340,-22.461,-17.090,90.332
1687767603.227,967.773,-41.504,-27.344,-63.477,-191.406
1687767603.231,967.773,-44.434,-26.855,-87.891,-139.648
1687767603.235,968.262,-51.270,-21.484,-49.316,-133.301
1687767603.239,967.773,-49.316,-17.578,-29.785,-138.184
1687767603.243,967.773,-45.410,-19.531,-46.387,-34.180
1687767603.247,968.262,-44.922,-17.578,-47.363,-1.953
1687767603.250,968.262,-41.504,-12.207,-20.020,134.277
1687767603.254,967.773,-39.551,-9.277,7.812,107.422
1687767603.258,967.773,-41.992,-3.418,26.855,-129.883
1687767603.262,967.773,-44.434,-3.906,31.738,-87.402
1687767603.266,967.773,-44.434,-9.277,24.414,139.648
1687767603.272,967.773,-41.992,-8.789,23.926,4.883
1687767603.276,968.262,-39.062,-11.230,35.645,-192.871
1687767603.280,968.262,-40.039,-16.113,45.410,-74.219
1687767603.284,968.262,-48.340,-20.508,48.340,-67.383
1687767603.288,968.262,-49.805,-20.996,56.641,-161.621
1687767603.292,968.262,-41.504,-21.484,63.965,-161.133
1687767603.296,967.773,-47.363,-23.926,67.383,105.469
1687767603.299,967.773,-56.152,-31.738,80.566,172.852
1687767603.303,968.262,-51.270,-40.039,86.426,-112.305
1687767603.307,967.773,-50.293,-41.504,83.984,-139.648
1687767603.311,967.773,-51.270,-35.645,104.980,-6.348
1687767603.315,967.773,-48.340,-32.227,116.211,25.391
1687767603.311,968.262,-39.551,-24.902,123.535,-131.836
1687767603.315,968.262,-32.227,-19.043,129.395,-182.129
1687767603.319,968.262,-27.832,-21.484,139.160,84.961
1687767603.323,968.262,-18.555,-24.414,154.785,186.523
1687767603.327,967.773,-22.461,-20.020,143.555,-100.098
1687767603.331,968.262,-26.855,-15.137,159.180,-118.652
1687767603.335,968.262,-28.809,-16.602,169.922,176.270
1687767603.338,968.262,-36.621,-19.043,146.484,68.848
1687767603.342,968.262,-42.480,-22.949,150.391,-239.746
1687767603.346,968.262,-41.504,-20.020,167.480,-126.465
1687767603.350,968.262,-41.992,-14.160,166.992,56.152
1687767603.354,968.262,-40.527,-8.789,170.410,-31.250
1687767603.371,964.844,-38.086,-8.789,156.250,-201.660
1687767603.375,972.656,-39.551,-10.254,139.160,-43.457
1687767603.379,935.547,-39.551,-7.324,131.348,154.785
1687767603.383,852.051,-38.574,-8.789,112.793,-52.734
1687767603.387,808.105,-40.039,-16.113,106.934,-145.996
1687767603.391,772.461,-50.293,-19.531,99.609,134.766
1687767603.395,731.445,-50.293,-10.742,74.219,177.734
1687767603.398,619.629,-47.363,-3.418,53.711,-81.543
1687767603.402,507.812,-47.363,-8.789,84.473,-133.789
1687767603.406,465.332,-48.340,-12.207,85.449,-16.602
1687767603.410,431.152,-52.246,-11.719,38.086,-39.062
1687767603.414,415.527,-53.711,-18.555,13.672,-172.363
1687767603.415,416.016,-51.758,-26.367,-23.926,-158.203
1687767603.419,434.082,-45.898,-29.785,-27.832,-84.473
1687767603.423,446.777,-41.016,-30.762,-27.832,-114.746
1687767603.427,418.945,-43.945,-34.668,-47.363,-139.160
1687767603.431,379.883,-45.898,-43.945,-80.566,-49.316
1687767603.435,339.844,-41.016,-43.945,-102.051,15.137
1687767603.439,327.148,-37.598,-39.062,-85.449,-1.953
1687767603.442,344.238,-42.480,-40.527,-80.078,-59.082
1687767603.446,339.355,-48.828,-41.016,-80.078,-128.906
1687767603.450,320.312,-52.246,-45.410,-95.215,132.324
1687767603.454,314.941,-52.734,-44.922,-127.441,219.727
1687767603.458,333.008,-59.570,-46.387,-147.461,-112.793
1687767603.460,347.168,-63.965,-58.594,-137.695,-94.238
1687767603.464,344.238,-62.500,-60.547,-151.367,25.879
1687767603.468,313.477,-61.523,-61.523,-198.242,-164.551
1687767603.472,291.016,-60.547,-58.105,-209.961,-262.207
1687767603.476,293.457,-63.477,-54.199,-218.750,-91.797
1687767603.480,306.641,-63.965,-57.617,-215.332,-25.879
1687767603.484,315.918,-68.359,-57.617,-232.422,-21.973
1687767603.487,304.688,-75.195,-63.965,-258.789,-99.121
1687767603.491,301.270,-72.266,-65.918,-252.441,-41.016
1687767603.495,314.941,-77.637,-70.312,-234.863,224.609
1687767603.499,325.195,-74.707,-74.219,-241.211,-33.203
1687767603.503,336.426,-69.336,-65.430,-250.000,-192.383
1687767603.505,326.660,-69.336,-63.965,-236.328,-123.047
1687767603.509,296.875,-58.594,-65.430,-247.559,-145.508
1687767603.513,320.312,-55.176,-60.059,-245.117,-117.188
1687767603.517,365.234,-45.410,-46.875,-201.172,-92.285
1687767603.521,377.441,-37.598,-48.828,-178.223,-40.039
1687767603.525,349.121,-47.852,-64.453,-196.777,12.695
1687767603.529,311.523,-41.504,-65.918,-189.453,-49.316
1687767603.532,308.105,-45.410,-62.500,-177.246,-86.426
1687767603.536,325.195,-54.199,-60.059,-183.594,304.688
1687767603.540,320.801,-38.574,-44.434,-172.852,301.758
1687767603.544,286.621,-21.973,-29.785,-177.246,-124.512
1687767603.548,230.469,-23.926,-41.992,-213.379,-89.355
1687767603.550,222.168,-18.555,-39.062,-239.258,38.574
1687767603.554,225.586,-13.184,-27.832,-230.957,-77.148
1687767603.558,201.660,-19.531,-14.648,-241.699,-194.336
1687767603.562,177.734,-14.648,-7.812,-259.766,-122.559
1687767603.566,166.016,-2.930,-9.766,-262.695,-32.227
1687767603.570,147.949,-13.672,-11.230,-261.230,-9.277
1687767603.574,200.195,-16.113,-10.254,-238.770,32.227
1687767603.577,217.773,-6.836,-3.418,-231.934,203.613
1687767603.581,171.875,-10.254,-8.301,-226.562,220.703
1687767603.585,153.809,-9.766,-12.695,-208.984,-80.566
1687767603.589,145.020,-8.301,-12.695,-174.805,-125.488
1687767603.593,182.617,-11.230,-16.602,-122.559,1.953
1687767603.595,194.824,-5.859,-20.996,-93.262,-22.949
1687767603.599,204.102,-15.625,-30.273,-64.453,-106.445
1687767603.603,77.148,-37.109,-29.785,-58.105,-127.930
1687767603.607,-573.242,-35.645,-31.738,-58.594,-85.449
1687767603.611,-1000.000,-37.598,-41.504,-5.371,-63.477
1687767603.615,-986.816,-48.828,-43.457,60.059,19.043
1687767603.619,-993.652,-48.828,-51.270,81.055,49.805
1687767603.622,-1000.000,-51.758,-55.176,83.984,238.281
1687767603.626,-1000.000,-55.176,-56.152,108.398,186.523
1687767603.630,-1000.000,-43.945,-60.547,121.582,-91.309
1687767603.634,-1000.000,-46.875,-58.105,141.113,2.930
1687767603.638,-1000.000,-59.570,-48.340,158.203,60.059
1687767603.641,-1000.000,-58.105,-54.199,147.949,-112.305
1687767603.645,-1000.000,-54.688,-63.477,170.898,-158.691
1687767603.649,-1000.000,-54.688,-58.594,203.613,26.367
1687767603.653,-1000.000,-65.430,-60.547,215.332,230.957
1687767603.657,-1000.000,-59.570,-61.523,209.961,-8.301
1687767603.661,-1000.000,-56.641,-53.223,196.289,-192.871
1687767603.665,-1000.000,-64.453,-41.016,203.125,82.031
1687767603.668,-1000.000,-60.059,-39.551,208.496,254.395
1687767603.672,-1000.000,-50.293,-37.109,186.523,-57.617
1687767603.676,-1000.000,-51.758,-33.203,161.133,-143.555
1687767603.680,-1000.000,-45.898,-39.062,154.785,1.465
1687767603.684,-1000.000,-36.621,-37.109,138.672,-44.434
1687767603.700,-1000.000,-44.434,-37.598,121.582,-110.352
1687767603.704,-1000.000,-55.664,-39.551,140.625,-73.730
1687767603.708,-1000.000,-65.430,-37.109,133.301,-69.336
1687767603.712,-1000.000,-59.570,-33.691,99.609,-25.391
1687767603.716,-1000.000,-59.082,-35.156,106.445,0.000
1687767603.720,-1000.000,-51.270,-35.645,82.031,-109.863
1687767603.724,-1000.000,-58.105,-27.344,64.941,180.176
1687767603.727,-1000.000,-69.336,-26.855,90.820,238.770
1687767603.731,-1000.000,-58.105,-28.320,82.031,-153.809
1687767603.735,-1000.000,-58.105,-20.508,52.734,-113.281
1687767603.739,-1000.000,-56.152,-18.555,33.691,-16.602
1687767603.743,-1000.000,-55.664,-14.160,30.273,-94.238
1687767603.730,-1000.000,-52.246,-15.137,54.199,-180.664
1687767603.734,-1000.000,-35.156,-20.996,43.945,-57.129
1687767603.738,-1000.000,-31.738,-20.508,0.977,65.430
1687767603.742,-1000.000,-47.852,-24.414,-5.371,-137.207
1687767603.746,-990.234,-46.875,-28.809,6.348,-156.738
1687767603.750,-998.535,-38.086,-20.020,26.367,-1.953
1687767603.754,-923.340,-28.320,-16.113,-8.301,-0.488
1687767603.757,-451.172,-38.086,-29.297,-29.297,-51.270
1687767603.761,95.703,-47.852,-15.625,-15.625,-154.297
1687767603.765,463.867,-18.066,-15.625,-35.156,-35.156
1687767603.769,814.941,-16.602,-8.301,-33.203,259.766
1687767603.773,972.656,-54.688,-0.977,-4.395,7.812
1687767603.790,961.426,-46.387,-16.113,-18.555,-189.941
1687767603.794,966.309,-21.484,-20.020,-66.895,-86.426
1687767603.798,968.750,-28.320,-17.578,-45.410,-40.039
1687767603.802,967.773,-27.832,-2.441,-29.297,-111.328
1687767603.806,968.262,-33.691,-9.277,-31.250,-59.570
1687767603.810,968.262,-29.297,-21.484,-45.898,75.684
1687767603.814,968.262,-31.250,-11.230,-59.570,-1.465
1687767603.817,968.262,-55.176,-2.441,-5.859,-75.684
1687767603.821,967.773,-44.922,-8.301,-13.672,-3.418
1687767603.825,967.773,-29.785,-18.066,-58.594,6.348
1687767603.829,968.262,-43.457,-5.371,-81.055,-90.820
1687767603.833,968.262,-58.105,-5.859,-70.312,-135.742
1687767603.835,968.262,-47.363,-17.090,-54.688,-120.117
1687767603.839,967.773,-45.898,-19.043,-65.430,184.082
1687767603.843,968.262,-62.988,-8.789,-25.879,221.191
1687767603.847,968.262,-49.316,7.324,-7.812,-147.949
1687767603.851,968.262,-46.875,0.977,-5.859,-212.402
1687767603.855,967.773,-38.086,3.418,1.465,-62.012
1687767603.859,967.773,-49.805,10.742,-9.766,14.648
1687767603.862,967.773,-44.434,-3.418,-49.316,-167.969
1687767603.866,968.262,-26.367,1.465,-63.477,-75.684
1687767603.870,968.262,-19.043,-1.465,-25.879,94.727
1687767603.874,968.262,-24.414,-20.996,-40.039,-59.082
1687767603.878,968.262,-57.617,-8.789,-34.180,-171.875
1687767603.880,968.262,-50.293,-17.578,-11.230,-87.891
1687767603.884,968.262,-43.457,14.648,-41.016,-36.133
1687767603.888,967.773,-58.105,19.043,-47.363,-144.531
1687767603.892,967.773,-43.945,-15.625,-49.805,-81.543
1687767603.896,967.773,-30.273,-18.555,9.766,-22.461
1687767603.900,967.773,-33.691,-6.348,49.805,6.348
1687767603.904,967.773,-35.645,4.883,3.906,-0.977
1687767603.907,967.773,-35.645,-3.418,-23.438,-121.094
1687767603.911,967.773,-36.133,-9.766,0.000,100.586
1687767603.915,968.262,-26.855,1.953,-4.395,109.863
1687767603.919,967.773,-26.367,-6.348,4.395,-41.992
1687767603.923,967.773,-26.855,-25.879,3.418,45.898
1687767603.925,967.773,-29.297,-17.578,-5.371,64.941
1687767603.929,967.773,-33.203,-14.160,3.418,-24.414
1687767603.933,968.262,-26.367,-20.020,27.344,-115.723
1687767603.937,967.773,-28.809,-12.695,17.578,13.672
1687767603.941,968.262,-26.367,-7.812,-5.371,13.184
1687767603.945,967.773,-26.367,-14.160,8.789,-62.988
1687767603.949,967.773,-23.438,-20.020,14.160,-82.520
1687767603.952,967.773,-20.508,-4.395,15.137,48.340
1687767603.956,967.773,-26.367,-3.418,40.039,169.434
1687767603.960,968.262,-28.320,-10.254,37.109,-111.816
1687767603.964,967.773,-23.438,-4.395,21.484,-228.516
1687767603.968,968.262,-22.949,-8.789,17.578,-151.367
1687767603.971,968.262,-16.602,-12.695,31.738,-121.094
1687767603.975,968.262,-16.113,-7.324,29.297,-192.871
1687767603.979,968.262,-25.391,-13.184,15.137,-140.625
1687767603.983,968.262,-31.738,-17.578,22.461,-8.301
1687767603.987,968.262,-29.297,-12.207,28.809,-105.957
1687767603.991,968.262,-25.879,-12.207,32.227,-94.238
1687767603.995,967.773,-26.367,-15.625,56.641,-21.973
1687767603.998,967.773,-26.855,-15.137,69.824,98.145
1687767604.002,968.262,-30.273,-15.137,66.895,114.258
1687767604.006,968.262,-33.203,-11.230,65.430,-140.137
1687767604.010,967.773,-32.715,-4.395,77.148,21.484
1687767604.014,968.262,-35.156,-5.859,85.449,186.035
1687767604.015,968.262,-35.645,-8.301,89.355,0.977
1687767604.019,967.285,-29.297,-4.395,85.449,-82.031
1687767604.023,968.750,-24.902,-7.324,76.660,-14.648
1687767604.027,964.844,-35.156,-12.207,90.332,8.789
1687767604.031,940.430,-40.039,-11.230,104.492,-62.012
1687767604.035,911.621,-37.598,-13.184,101.562,6.836
1687767604.039,865.234,-38.574,-14.160,103.516,254.395
1687767604.042,831.055,-34.180,-10.254,105.957,184.082
1687767604.046,831.055,-29.785,-9.766,119.629,-138.184
1687767604.050,825.195,-30.273,-3.906,139.648,-92.285
1687767604.054,813.477,-25.879,2.930,150.391,-66.406
1687767604.058,770.020,-24.902,0.000,145.508,-183.594
1687767604.060,691.895,-37.598,-10.742,133.789,-200.684
1687767604.064,664.062,-49.316,-19.043,141.602,-172.852
1687767604.068,655.762,-42.969,-15.625,161.621,-138.184
1687767604.072,629.395,-40.527,-11.719,165.039,-118.652
1687767604.076,590.332,-42.969,-12.695,149.902,-196.289
1687767604.080,544.434,-46.387,-15.625,144.531,-78.613
1687767604.084,541.992,-48.340,-17.578,146.973,121.582
1687767604.087,543.945,-42.969,-11.719,147.461,48.340
1687767604.091,495.605,-44.434,-13.184,141.602,-104.492
1687767604.095,429.199,-44.434,-18.066,124.512,60.547
1687767604.099,368.164,-48.828,-19.043,120.605,362.793
1687767604.103,359.375,-53.223,-20.508,117.188,12.207
1687767604.121,366.699,-46.387,-18.555,122.559,-187.988
1687767604.125,347.168,-44.922,-20.996,128.418,-41.504
1687767604.129,316.406,-49.316,-23.926,109.375,-79.102
1687767604.133,281.250,-50.293,-30.273,82.520,-147.949
1687767604.137,271.973,-55.664,-34.668,79.102,-103.027
1687767604.141,293.945,-62.988,-32.227,83.984,-13.672
1687767604.145,308.105,-58.594,-31.250,77.637,13.184
1687767604.148,295.410,-52.734,-34.668,59.570,-114.258
1687767604.152,260.742,-49.316,-34.180,36.621,-130.859
1687767604.156,242.676,-45.410,-30.273,40.527,226.562
1687767604.160,255.859,-41.992,-30.762,49.316,204.590
1687767604.164,249.512,-41.016,-28.809,47.363,-40.527
1687767604.166,204.102,-41.992,-29.785,34.668,-77.637
1687767604.170,160.645,-37.598,-36.133,8.789,-92.285
1687767604.174,156.250,-29.297,-31.250,6.348,-137.207
1687767604.178,183.105,-32.715,-27.344,24.414,-147.949
1687767604.182,192.871,-38.574,-29.785,23.438,-16.602
1687767604.186,167.480,-40.039,-29.297,-15.625,65.430
1687767604.190,132.324,-43.457,-32.227,-53.711,-35.645
1687767604.193,128.906,-46.875,-36.621,-43.457,-124.023
1687767604.197,161.133,-43.457,-35.645,-21.973,-1.465
1687767604.201,181.152,-42.480,-41.992,-27.344,201.172
1687767604.205,180.664,-46.387,-46.387,-59.570,25.391
1687767604.209,170.898,-48.828,-42.480,-79.102,-141.602
1687767604.211,173.340,-55.664,-41.016,-81.543,69.336
1687767604.215,209.473,-58.105,-38.574,-75.684,130.371
1687767604.219,252.930,-53.711,-39.551,-77.637,-161.621
1687767604.223,249.512,-52.734,-46.875,-87.891,-168.457
1687767604.227,226.074,-54.199,-47.363,-106.445,-96.680
1687767604.231,221.191,-57.129,-43.457,-120.117,-67.871
1687767604.235,250.977,-56.152,-39.551,-114.746,-71.777
1687767604.238,263.184,-54.199,-40.039,-92.773,-102.051
1687767604.242,229.004,-57.617,-40.527,-82.520,134.277
1687767604.246,201.660,-57.617,-45.410,-125.977,24.902
1687767604.250,194.824,-60.547,-44.434,-156.738,-239.258
1687767604.254,236.328,-61.035,-40.527,-147.949,-190.430
1687767604.257,286.621,-53.711,-41.504,-151.367,-35.645
1687767604.261,307.617,-49.316,-41.016,-157.227,-62.012
1687767604.265,313.477,-52.246,-40.039,-168.945,-96.191
1687767604.269,316.895,-54.199,-41.016,-169.922,-111.816
1687767604.273,350.098,-51.270,-40.527,-166.504,-44.434
1687767604.277,394.043,-48.340,-41.016,-171.387,43.457
1687767604.281,424.805,-43.945,-41.992,-159.180,-17.090
1687767604.284,418.945,-46.875,-40.039,-166.016,62.500
1687767604.288,395.996,-53.223,-36.133,-174.805,174.805
1687767604.292,417.480,-51.270,-35.156,-167.480,-49.805
1687767604.296,452.148,-48.828,-41.016,-160.156,-59.570
1687767604.300,458.496,-46.387,-43.945,-162.109,10.254
1687767604.301,441.406,-43.457,-42.969,-173.828,-84.961
1687767604.305,424.805,-40.527,-41.016,-187.012,-213.867
1687767604.309,424.805,-42.480,-42.969,-195.312,-147.461
1687767604.313,438.477,-46.875,-47.852,-172.852,-82.520
1687767604.317,443.359,-48.340,-46.875,-162.109,-109.375
1687767604.321,420.410,-55.664,-44.922,-194.824,-83.008
1687767604.325,395.020,-58.594,-47.363,-218.262,-27.832
1687767604.328,408.691,-50.781,-45.410,-199.707,229.004
1687767604.332,439.941,-47.852,-43.945,-171.387,145.020
1687767604.336,453.125,-48.340,-42.480,-165.039,-190.918
1687767604.340,431.641,-52.734,-40.039,-168.945,-214.355
1687767604.344,393.555,-51.758,-40.527,-191.406,-173.340
1687767604.346,393.066,-44.434,-33.203,-186.523,-192.871
1687767604.350,426.758,-43.457,-29.785,-163.086,-218.750
1687767604.354,443.359,-49.805,-27.832,-143.555,-157.715
1687767604.358,427.734,-52.246,-22.949,-142.578,-139.648
1687767604.362,396.973,-41.016,-23.438,-159.668,-144.531
1687767604.366,392.090,-39.551,-25.391,-169.922,-115.234
1687767604.370,418.457,-40.039,-24.414,-152.832,0.977
1687767604.373,422.363,-35.156,-22.461,-135.742,312.988
1687767604.377,398.438,-42.480,-32.227,-150.879,94.727
1687767604.381,356.934,-47.363,-34.668,-161.621,-160.645
1687767604.385,333.984,-41.992,-28.809,-153.809,46.875
1687767604.389,356.934,-41.504,-31.250,-138.672,100.098
1687767604.390,384.277,-47.363,-30.273,-131.348,-83.496
1687767604.394,378.418,-41.992,-32.227,-147.949,-132.812
1687767604.398,337.402,-42.480,-31.250,-161.133,-82.520
1687767604.402,306.152,-49.316,-26.855,-155.273,-91.797
1687767604.406,316.406,-45.898,-30.273,-149.414,-187.988
1687767604.410,325.684,-43.945,-34.668,-137.695,-107.422
1687767604.414,319.336,-41.504,-37.109,-131.348,238.281
1687767604.417,290.039,-33.203,-34.180,-133.789,110.840
1687767604.421,272.949,-35.156,-30.273,-122.559,-181.152
1687767604.425,321.289,-43.945,-27.832,-108.398,-34.668
1687767604.429,350.098,-41.016,-29.297,-83.984,106.934
1687767604.433,346.680,-38.086,-27.832,-70.312,-46.875
1687767604.435,321.289,-38.574,-24.414,-74.219,-98.145
1687767604.439,287.109,-30.273,-23.438,-75.684,-125.488
1687767604.443,301.270,-30.762,-15.625,-42.969,-163.574
1687767604.447,320.801,-38.574,-26.855,-13.672,-121.094
1687767604.451,304.688,-42.480,-41.992,-10.742,-102.539
1687767604.455,270.020,-47.363,-35.645,-10.742,73.242
1687767604.459,235.840,-42.480,-31.250,-10.254,120.605
1687767604.462,234.375,-54.199,-40.039,1.953,-59.082
1687767604.466,267.578,-57.617,-41.504,24.414,-86.914
1687767604.470,283.691,-44.922,-30.273,36.621,1.465
1687767604.474,269.043,-49.316,-27.832,37.598,-39.551
1687767604.478,253.418,-44.434,-25.391,40.527,-135.742
1687767604.496,246.094,-35.156,-23.926,54.199,-112.305
1687767604.500,245.117,-31.738,-25.391,77.148,76.660
1687767604.504,210.449,-39.551,-20.508,103.027,153.320
1687767604.508,208.496,-39.062,-22.949,96.191,-75.195
1687767604.512,168.945,-33.203,-23.438,83.008,-132.812
1687767604.516,-438.477,-28.320,-19.043,95.215,46.875
1687767604.520,-985.840,-30.273,-13.184,111.328,22.461
1687767604.523,-994.141,-46.387,-17.578,111.328,-185.059
1687767604.527,-989.746,-47.363,-19.531,105.469,-125.977
1687767604.531,-1000.000,-38.574,-16.602,95.215,193.848
1687767604.535,-1000.000,-31.738,-15.137,90.820,25.879
1687767604.539,-1000.000,-25.391,-11.719,103.516,-211.914
1687767604.541,-1000.000,-25.391,-10.254,125.488,-100.586
1687767604.545,-1000.000,-31.250,-14.160,115.723,21.973
1687767604.549,-1000.000,-34.668,-15.137,77.148,-31.738
1687767604.553,-1000.000,-33.203,-8.789,65.918,-194.824
1687767604.557,-1000.000,-29.785,-12.695,83.008,-83.496
1687767604.561,-1000.000,-30.273,-13.184,94.727,-12.695
1687767604.565,-1000.000,-40.039,-13.672,84.961,-94.727
1687767604.568,-1000.000,-45.410,-17.578,53.711,-120.605
1687767604.572,-1000.000,-42.480,-20.020,47.363,-81.055
1687767604.576,-1000.000,-41.992,-21.484,56.152,-20.020
1687767604.580,-1000.000,-40.527,-21.973,54.688,7.812
1687767604.584,-1000.000,-36.133,-23.926,48.828,-95.215
1687767604.585,-1000.000,-36.133,-19.043,32.227,10.254
1687767604.589,-1000.000,-36.133,-11.719,32.227,230.469
1687767604.593,-1000.000,-32.715,-14.160,22.461,-101.074
1687767604.597,-1000.000,-38.574,-17.090,25.879,-222.656
1687767604.601,-1000.000,-33.691,-14.648,28.809,1.953
1687767604.605,-1000.000,-37.109,-11.719,5.371,-57.129
1687767604.609,-1000.000,-50.781,-19.043,-20.020,-165.527
1687767604.612,-1000.000,-51.270,-22.949,-29.297,-153.320
1687767604.616,-1000.000,-49.316,-27.344,-12.695,149.902
1687767604.620,-1000.000,-48.340,-28.809,-6.348,188.965
1687767604.624,-1000.000,-44.922,-27.344,-42.480,-120.117
1687767604.628,-1000.000,-40.527,-27.832,-60.059,-190.918
1687767604.631,-1000.000,-37.598,-24.902,-52.246,-147.461
1687767604.635,-1000.000,-35.645,-19.043,-47.852,-142.090
1687767604.639,-1000.000,-24.902,-14.160,-43.457,-106.934
1687767604.643,-1000.000,-20.996,-14.648,-61.035,-99.121
1687767604.647,-1000.000,-28.320,-15.137,-66.895,-124.512
1687767604.651,-1000.000,-34.668,-17.090,-54.199,-17.090
1687767604.655,-1000.000,-36.621,-20.508,-50.781,23.926
1687767604.658,-1000.000,-38.086,-24.414,-57.617,175.293
1687767604.662,-1000.000,-44.922,-30.273,-64.941,325.684
1687767604.666,-1000.000,-42.969,-31.250,-88.867,-26.855
1687767604.670,-1000.000,-38.086,-33.203,-95.215,-169.434
1687767604.674,-1000.000,-38.574,-30.762,-96.191,43.457
1687767604.676,-1000.000,-42.480,-28.320,-91.309,38.086
1687767604.680,-1000.000,-44.434,-36.133,-93.750,-142.578
1687767604.684,-1000.000,-44.434,-36.621,-108.398,-124.512
1687767604.688,-1000.000,-49.316,-35.645,-113.770,-23.926
1687767604.692,-1000.000,-45.898,-37.598,-102.539,-41.992
1687767604.696,-1000.000,-39.062,-33.691,-92.285,-14.648
1687767604.700,-1000.000,-38.574,-31.250,-97.168,38.574
1687767604.703,-1000.000,-37.109,-32.227,-92.773,188.477
1687767604.707,-1000.000,-31.738,-38.086,-97.168,67.871
1687767604.711,-1000.000,-25.391,-38.086,-93.750,-162.598
1687767604.715,-1000.000,-20.020,-30.273,-80.566,-122.070
1687767604.719,-1000.000,-22.461,-26.367,-76.172,-39.551
1687767604.721,-1000.000,-32.715,-20.508,-82.520,-153.809
1687767604.725,-1000.000,-31.250,-18.066,-86.914,-243.652
1687767604.729,-1000.000,-30.273,-20.508,-73.730,-173.340
1687767604.733,-1000.000,-30.762,-21.973,-66.895,-128.418
1687767604.737,-1000.000,-28.809,-19.531,-67.383,-155.273
1687767604.741,-999.023,-29.297,-11.719,-70.801,-173.828
1687767604.745,-1000.000,-29.297,-10.254,-66.895,-1.953
1687767604.748,-980.957,-27.832,-19.043,-58.594,252.441
1687767604.752,-926.758,-32.715,-25.391,-56.641,1.465
1687767604.756,-892.578,-33.691,-22.949,-69.336,-189.453
1687767604.760,-882.324,-33.691,-21.973,-79.590,33.203
1687767604.764,-869.629,-36.621,-20.996,-82.031,114.746
1687767604.766,-832.520,-37.598,-20.508,-86.426,-166.992
1687767604.770,-799.805,-37.598,-22.949,-81.055,-211.426
1687767604.774,-780.273,-34.180,-18.555,-64.941,-24.414
1687767604.778,-772.461,-32.227,-13.672,-80.078,-56.152
1687767604.782,-771.973,-37.598,-16.113,-94.238,-160.645
1687767604.786,-754.395,-40.527,-16.602,-77.148,-24.414
1687767604.790,-724.609,-39.062,-15.137,-56.152,292.480
1687767604.793,-698.730,-47.852,-21.484,-58.594,119.141
1687767604.797,-685.059,-54.688,-28.809,-72.266,-193.848
1687767604.801,-675.781,-49.316,-27.344,-75.195,-170.898
1687767604.805,-647.461,-47.852,-20.508,-68.848,-84.473
1687767604.809,-610.840,-49.316,-20.508,-58.594,-138.672
1687767604.812,-587.402,-49.805,-20.020,-50.781,-148.438
1687767604.816,-583.496,-49.805,-15.625,-60.059,14.648
1687767604.820,-590.332,-45.410,-17.578,-67.383,17.578
1687767604.824,-573.242,-37.109,-17.090,-63.965,-21.973
1687767604.828,-542.969,-32.715,-21.973,-58.594,-29.297
1687767604.832,-532.227,-36.621,-32.715,-49.316,36.133
1687767604.836,-532.227,-40.039,-31.738,-55.176,155.762
1687767604.839,-545.410,-46.387,-28.320,-76.172,15.137
1687767604.843,-546.387,-42.969,-26.855,-77.148,-149.414
1687767604.847,-514.648,-34.180,-28.320,-54.199,59.570
1687767604.851,-501.953,-39.551,-31.250,-28.320,370.117
1687767604.855,-506.348,-46.875,-24.414,-41.016,-34.180
1687767604.871,-514.160,-47.363,-22.949,-61.523,-214.355
1687767604.875,-517.578,-46.387,-27.344,-60.059,-67.871
1687767604.879,-497.070,-48.828,-29.785,-60.547,-147.949
1687767604.883,-479.492,-47.363,-27.344,-57.129,-137.695
1687767604.887,-474.609,-38.086,-22.949,-52.734,-104.492
1687767604.891,-484.863,-37.109,-23.438,-63.965,106.445
1687767604.895,-474.121,-34.668,-26.855,-74.219,105.957
1687767604.898,-448.730,-33.203,-26.367,-68.848,-121.582
1687767604.902,-445.801,-31.738,-28.809,-60.059,-79.102
1687767604.906,-457.031,-31.738,-29.297,-51.270,123.047
1687767604.910,-477.539,-38.086,-26.855,-72.266,-27.832
1687767604.914,-482.422,-32.227,-25.879,-86.426,-144.043
1687767604.916,-445.312,-34.668,-20.996,-59.570,-138.184
1687767604.920,-412.109,-37.598,-19.531,-45.410,-114.746
1687767604.924,-411.621,-28.320,-20.508,-45.898,-122.559
1687767604.928,-421.875,-25.391,-21.973,-65.918,-188.965
1687767604.932,-419.434,-24.414,-23.926,-64.941,-193.359
1687767604.936,-396.973,-24.414,-23.438,-42.480,-98.145
1687767604.940,-383.301,-27.344,-24.902,-27.344,-18.066
1687767604.943,-376.465,-29.297,-25.879,-23.926,25.879
1687767604.947,-382.812,-24.414,-20.508,-37.598,22.461
1687767604.951,-384.766,-18.555,-13.672,-36.133,290.527
1687767604.955,-358.398,-19.043,-15.137,-45.898,134.277
1687767604.959,-338.379,-21.484,-18.555,-46.387,-132.324
1687767604.960,-342.773,-24.902,-21.484,-29.297,28.809
1687767604.964,-357.910,-28.320,-25.879,-50.293,12.695
1687767604.968,-372.070,-28.809,-31.250,-66.406,-109.375
1687767604.972,-363.770,-29.297,-32.715,-71.777,-89.355
1687767604.976,-343.750,-27.832,-24.902,-60.059,-11.230
1687767604.980,-339.844,-29.785,-20.996,-43.945,61.035
1687767604.984,-356.934,-36.133,-25.391,-66.406,-8.789
1687767604.987,-373.535,-40.039,-22.949,-82.031,-85.449
1687767604.991,-372.070,-36.133,-20.996,-76.660,237.305
1687767604.995,-363.770,-33.203,-26.367,-68.359,244.141
1687767604.999,-317.871,-33.203,-28.320,-67.871,-79.590
1687767605.003,-353.516,-33.203,-30.762,-85.449,-145.996
1687767605.005,-577.148,-36.133,-28.809,-103.027,-158.203
1687767605.009,-704.590,-43.945,-28.320,-101.562,-193.848
1687767605.013,-715.820,-49.316,-35.156,-94.238,-175.781
1687767605.017,-729.004,-44.434,-39.551,-92.773,-87.891
1687767605.021,-733.887,-47.363,-39.551,-100.586,-108.887
1687767605.025,-732.910,-54.688,-36.621,-109.863,-125.488
1687767605.029,-724.609,-52.734,-35.645,-106.934,-95.703
1687767605.032,-694.336,-47.363,-39.062,-87.891,21.484
1687767605.036,-672.363,-45.410,-40.527,-86.914,143.555
1687767605.040,-665.527,-42.480,-38.086,-98.145,-94.238
1687767605.044,-677.246,-39.551,-32.715,-107.910,-166.992
1687767605.048,-661.621,-39.062,-29.785,-103.027,102.051
1687767605.052,-624.512,-39.551,-30.273,-88.379,141.602
1687767605.056,-603.027,-39.551,-28.809,-86.914,-137.207
1687767605.060,-588.867,-39.062,-24.902,-83.984,-166.504
1687767605.064,-587.402,-40.039,-24.414,-86.914,-86.914
1687767605.068,-585.449,-35.156,-27.832,-92.285,-119.629
1687767605.072,-565.430,-34.180,-28.809,-92.773,-27.832
1687767605.076,-550.781,-39.062,-26.855,-86.914,91.309
1687767605.079,-543.945,-39.551,-28.320,-91.797,215.332
1687767605.083,-544.922,-38.574,-28.320,-101.074,34.668
1687767605.087,-542.969,-32.227,-29.297,-107.422,-187.500
1687767605.091,-520.508,-39.062,-30.273,-104.004,-129.883
1687767605.095,-493.164,-44.922,-27.832,-88.379,-119.629
1687767605.097,-478.027,-36.133,-27.344,-87.891,-60.547
1687767605.101,-486.816,-41.504,-30.273,-107.422,-73.242
1687767605.105,-488.770,-40.039,-29.785,-118.652,-128.906
1687767605.109,-464.844,-35.645,-27.344,-106.934,-83.984
1687767605.113,-429.688,-40.527,-25.879,-90.820,-80.078
1687767605.117,-404.785,-35.156,-21.484,-77.637,-71.289
1687767605.121,-386.719,-30.273,-19.531,-73.730,-15.137
1687767605.124,-385.742,-30.273,-16.602,-74.219,338.867
1687767605.128,-388.672,-34.180,-18.066,-89.844,124.023
1687767605.132,-380.371,-38.574,-23.926,-91.797,-148.926
1687767605.136,-363.281,-35.156,-29.785,-90.820,-6.836
1687767605.140,-360.352,-36.133,-36.133,-107.422,-30.273
1687767605.140,-364.746,-37.109,-33.691,-109.863,-141.602
1687767605.144,-339.844,-40.527,-28.809,-113.770,-185.547
1687767605.148,-309.082,-42.480,-27.832,-103.516,74.219
1687767605.152,-289.062,-34.668,-25.879,-84.961,133.301
1687767605.156,-296.875,-31.738,-20.996,-87.402,-97.656
1687767605.160,-303.223,-26.855,-17.578,-83.984,-74.707
1687767605.164,-304.199,-27.344,-19.043,-68.848,182.617
1687767605.167,-291.016,-32.227,-22.461,-67.383,221.680
1687767605.171,-273.926,-21.484,-20.996,-69.824,-79.590
1687767605.175,-279.297,-15.137,-21.484,-77.637,-117.676
1687767605.179,-281.738,-24.902,-15.625,-90.332,-116.699
1687767605.183,-271.484,-19.043,-10.254,-80.566,-219.727
1687767605.185,-254.395,-11.719,-9.766,-69.824,-154.297
1687767605.189,-239.746,-12.695,-5.859,-62.012,-82.031
1687767605.193,-241.211,-13.184,-6.348,-59.570,-103.516
1687767605.197,-240.234,-14.648,-6.348,-65.918,-173.340
1687767605.201,-236.328,-17.578,-7.812,-77.148,-235.840
1687767605.205,-226.562,-10.254,-7.324,-69.824,-68.848
1687767605.209,-220.215,-8.301,-10.742,-61.035,116.211
1687767605.212,-225.098,-16.113,-22.949,-69.336,-58.594
1687767605.216,-243.652,-10.742,-21.973,-94.238,-229.492
1687767605.220,-262.695,-4.395,-20.020,-87.891,-43.457
1687767605.224,-261.230,-10.254,-22.461,-69.824,311.035
1687767605.228,-261.719,-15.625,-23.926,-69.824,42.969
1687767605.246,-269.043,-10.254,-20.020,-70.312,-178.223
1687767605.250,-292.480,-11.719,-18.066,-76.172,-84.473
1687767605.254,-305.176,-17.090,-22.949,-86.914,-116.699
1687767605.258,-284.668,-13.672,-23.438,-91.309,-162.598
1687767605.262,-267.578,-9.766,-22.461,-63.965,-152.344
1687767605.266,-277.832,-16.113,-25.391,-54.199,31.738
1687767605.270,-289.062,-22.949,-27.832,-78.125,-65.430
1687767605.273,-291.992,-21.484,-23.438,-89.844,-82.031
1687767605.277,-276.855,-18.555,-21.973,-81.055,-7.324
1687767605.281,-242.676,-21.973,-28.809,-62.988,127.930
1687767605.285,-226.562,-18.555,-33.203,-65.918,56.152
1687767605.289,-228.516,-12.207,-27.344,-67.871,-204.590
1687767605.291,-233.398,-18.555,-28.320,-67.383,-218.262
1687767605.295,-218.750,-28.809,-33.203,-83.984,-111.816
1687767605.299,-190.430,-23.926,-29.785,-64.941,-67.383
1687767605.303,-179.688,-14.648,-21.973,-47.852,-124.023
1687767605.307,-199.219,-17.578,-22.461,-61.523,-104.980
1687767605.311,-215.820,-21.484,-28.809,-70.312,-23.438
1687767605.315,-192.383,-13.672,-25.879,-62.012,-34.180
1687767605.318,-172.363,-15.625,-25.391,-46.875,-83.496
1687767605.322,-177.734,-22.949,-24.414,-44.434,19.043
1687767605.326,-192.871,-26.367,-24.902,-49.316,190.430
1687767605.330,-204.102,-27.832,-23.926,-58.594,28.809
1687767605.334,-190.918,-19.043,-19.531,-56.152,-79.590
1687767605.336,-172.852,-16.113,-12.695,-41.992,59.082
1687767605.340,-163.574,-16.113,-7.324,-47.363,153.320
1687767605.344,-165.039,-12.207,-8.301,-52.246,-10.254
1687767605.348,-179.199,-17.578,-13.672,-71.777,-83.984
1687767605.352,-176.758,-20.020,-16.113,-83.984,-51.270
1687767605.356,-153.809,-20.996,-16.602,-66.895,57.129
1687767605.360,-142.578,-24.414,-20.996,-71.289,38.086
1687767605.363,-152.832,-29.297,-24.414,-87.402,-74.219
1687767605.367,-176.758,-34.180,-26.367,-97.656,120.117
1687767605.371,-177.246,-33.691,-24.902,-95.215,18.066
1687767605.375,-146.973,-26.855,-20.508,-87.891,-247.559
1687767605.379,-136.230,-22.461,-17.578,-80.566,-107.422
1687767605.380,-154.785,-24.414,-13.672,-78.125,59.082
1687767605.384,-196.289,-26.367,-10.254,-83.496,-46.875
1687767605.388,-214.844,-25.879,-7.812,-88.379,-180.176
1687767605.392,-193.848,-30.273,-10.742,-73.730,-142.090
1687767605.396,-174.316,-40.527,-15.625,-69.824,-16.602
1687767605.400,-170.898,-43.457,-21.484,-91.797,-14.648
1687767605.404,-185.059,-40.039,-19.531,-105.469,-109.375
1687767605.407,-174.316,-37.598,-20.508,-111.816,-0.977
1687767605.411,-147.949,-38.574,-21.973,-106.934,247.070
1687767605.415,-135.742,-34.180,-15.625,-102.051,29.785
1687767605.419,-138.184,-34.668,-10.742,-109.375,-57.617
1687767605.423,-159.180,-43.945,-6.836,-114.258,58.594
1687767605.427,-163.574,-43.457,-9.766,-131.348,-59.570
1687767605.431,-125.000,-39.062,-11.230,-123.047,-141.602
1687767605.435,-94.727,-31.250,-11.230,-109.863,-40.527
1687767605.439,-80.566,-25.879,-11.230,-126.953,69.336
1687767605.443,-83.008,-35.156,-12.695,-138.184,-70.312
1687767605.447,-90.820,-39.062,-15.137,-155.273,-149.902
1687767605.451,-73.730,-35.156,-13.184,-150.879,-51.758
1687767605.454,-56.152,-35.645,-14.160,-125.000,146.484
1687767605.458,-53.711,-35.156,-21.484,-135.742,31.738
1687767605.462,-57.617,-28.320,-18.066,-159.180,-199.707
1687767605.466,-58.594,-27.344,-8.301,-159.180,-213.379
1687767605.470,-61.523,-36.133,-8.789,-140.137,33.691
1687767605.470,-65.430,-40.527,-18.066,-139.648,-1.953
1687767605.474,-51.758,-37.598,-20.508,-133.789,-169.922
1687767605.478,-57.617,-38.574,-14.648,-127.930,-114.746
1687767605.482,-62.988,-41.016,-12.695,-132.812,-114.258
1687767605.486,-51.270,-37.598,-11.230,-126.953,-137.207
1687767605.490,-33.691,-35.156,-13.672,-108.887,-86.914
1687767605.494,-16.602,-35.645,-17.578,-97.168,50.293
1687767605.497,-19.043,-37.109,-20.020,-100.098,342.285
1687767605.501,-44.434,-40.039,-14.160,-105.469,50.293
1687767605.505,-75.684,-44.434,-9.277,-103.027,-159.668
1687767605.509,-76.660,-44.434,-13.184,-80.566,107.910
1687767605.513,-75.195,-36.621,-15.137,-53.711,67.871
1687767605.516,-77.637,-38.086,-10.742,-47.852,-157.715
1687767605.520,-92.285,-39.062,-15.625,-52.246,-204.102
1687767605.524,-98.145,-42.480,-20.020,-48.340,-120.605
1687767605.528,-76.172,-36.133,-13.184,-30.273,-148.926
1687767605.532,-69.824,-26.367,-11.719,-2.930,-248.535
1687767605.536,-94.727,-25.879,-16.602,-0.977,-112.793
1687767605.540,-127.930,-20.996,-13.672,-9.277,237.305
1687767605.543,-144.531,-25.879,-4.395,-1.465,143.555
1687767605.547,-110.352,-34.180,-1.953,21.973,-162.109
1687767605.551,-82.031,-32.715,-9.766,33.691,-126.953
1687767605.555,-87.891,-30.762,-14.648,31.250,11.719
1687767605.559,-101.562,-31.250,-16.113,29.297,-113.281
1687767605.560,-112.305,-31.738,-16.602,21.484,-219.727
1687767605.564,-109.375,-32.227,-17.578,36.133,-133.789
1687767605.568,-104.004,-28.320,-20.508,47.852,-47.852
1687767605.572,-132.812,-25.391,-16.113,44.922,-87.891
1687767605.576,-151.367,-32.227,-10.742,42.480,-111.816
1687767605.580,-144.043,-40.527,-15.137,40.039,-1.953
1687767605.584,-154.297,-43.457,-21.973,51.758,55.176
1687767605.587,-166.992,-37.598,-25.391,63.965,-63.477
1687767605.591,-183.105,-34.668,-29.297,51.758,-184.570
1687767605.595,-213.379,-36.133,-36.133,38.086,3.906
1687767605.599,-207.031,-42.480,-35.645,41.504,332.031
1687767605.603,-183.105,-41.016,-34.668,44.922,19.043
1687767605.620,-181.152,-34.180,-36.621,47.852,-137.695
1687767605.624,-166.016,-34.668,-33.691,72.266,27.344
1687767605.628,-196.289,-34.180,-30.762,66.406,-15.625
1687767605.632,-248.047,-34.180,-33.691,38.574,-125.000
1687767605.636,-229.492,-31.738,-40.039,26.855,-70.801
1687767605.640,-210.449,-26.367,-35.156,39.551,88.867
1687767605.644,-232.910,-30.273,-34.668,53.223,84.473
1687767605.647,-270.996,-36.133,-37.598,26.367,-59.082
1687767605.651,-280.762,-38.086,-36.133,8.301,-107.422
1687767605.655,-261.719,-40.527,-37.109,24.902,125.488
1687767605.659,-238.281,-43.457,-31.250,27.832,31.738
1687767605.663,-228.027,-49.805,-37.109,18.066,-125.488
1687767605.665,-240.234,-47.363,-37.109,26.855,-0.488
1687767605.669,-266.113,-43.945,-27.832,25.391,-29.297
1687767605.673,-263.184,-38.086,-26.367,16.113,-145.508
1687767605.677,-227.051,-34.180,-29.297,19.531,-132.324
1687767605.681,-224.609,-38.086,-29.297,7.812,-73.242
1687767605.685,-230.469,-39.551,-31.738,-7.324,41.992
1687767605.689,-225.586,-29.785,-29.297,-6.836,104.980
1687767605.692,-267.578,-25.391,-23.926,-7.812,-41.992
1687767605.696,-316.406,-28.809,-24.902,-3.418,-40.527
1687767605.700,-339.355,-29.785,-22.949,3.418,205.078
1687767605.704,-356.934,-29.785,-22.949,-1.465,75.684
1687767605.708,-382.812,-29.297,-28.320,-2.441,-162.598
1687767605.711,-378.418,-27.344,-28.320,2.441,-50.781
1687767605.715,-340.820,-23.438,-25.391,11.719,-17.090
1687767605.719,-311.523,-18.066,-24.414,24.414,-160.645
1687767605.723,-300.781,-24.902,-20.508,22.461,-154.785
1687767605.727,-295.410,-36.133,-23.438,4.883,22.461
1687767605.731,-298.340,-32.715,-22.461,4.883,19.531
1687767605.735,-306.152,-26.367,-18.555,28.809,-117.676
1687767605.738,-308.105,-26.367,-16.602,29.785,-62.500
1687767605.742,-316.895,-27.344,-14.160,36.621,193.359
1687767605.746,-327.148,-25.879,-16.113,31.738,106.445
1687767605.750,-327.148,-18.066,-12.207,15.625,-141.602
1687767605.754,-321.777,-17.578,-10.254,11.230,-110.840
1687767605.755,-307.129,-24.414,-14.160,18.555,-90.332
1687767605.759,-296.387,-30.273,-20.020,3.906,-105.469
1687767605.763,-307.617,-28.320,-20.508,-21.973,-133.789
1687767605.767,-306.152,-31.250,-14.160,-18.066,-127.441
1687767605.771,-271.973,-39.062,-15.137,-15.137,-74.219
1687767605.775,-239.258,-33.203,-16.602,-21.484,-42.480
1687767605.779,-246.094,-29.785,-18.066,-37.109,-60.547
1687767605.782,-264.648,-36.133,-21.484,-38.086,11.719
1687767605.786,-267.578,-37.109,-19.043,-25.391,232.910
1687767605.790,-237.305,-37.109,-14.648,-40.039,24.902
1687767605.794,-200.195,-42.480,-20.508,-52.734,-121.094
1687767605.798,-200.684,-44.922,-19.531,-31.250,-3.418
1687767605.801,-222.656,-38.574,-11.719,-33.691,-46.875
1687767605.805,-246.094,-36.133,-17.090,-62.500,-207.031
1687767605.809,-249.512,-42.480,-17.578,-49.805,-203.613
1687767605.813,-230.957,-37.109,-15.625,-21.484,-88.867
1687767605.817,-229.980,-35.645,-13.184,-13.184,-96.191
1687767605.821,-255.859,-41.992,-13.184,-21.484,-182.617
1687767605.825,-286.621,-45.410,-20.020,-41.016,-67.871
1687767605.828,-275.879,-42.969,-15.625,-29.785,231.445
1687767605.832,-252.441,-42.969,-14.648,-24.902,76.172
1687767605.836,-246.094,-41.504,-14.160,-31.250,-159.180
1687767605.840,-258.301,-35.156,-10.254,-32.227,-105.469
1687767605.844,-261.230,-34.180,-9.277,-24.414,163.574
1687767605.845,-247.559,-39.062,-8.789,-39.062,128.418
1687767605.849,-214.355,-34.668,-10.254,-42.969,-80.078
1687767605.853,-184.570,-34.180,-13.672,-26.855,-44.434
1687767605.857,-206.543,-43.457,-12.695,-41.016,-89.844
1687767605.861,-205.078,-35.645,-11.230,-28.809,-126.953
1687767605.865,-193.359,-27.344,-20.996,-34.180,-90.820
1687767605.869,-178.223,-33.203,-20.996,-52.734,55.176
1687767605.872,-170.898,-35.645,-16.602,-49.805,216.797
1687767605.876,-167.480,-32.227,-22.461,-58.594,3.906
1687767605.880,-182.617,-31.250,-25.391,-86.914,-84.473
1687767605.884,-198.242,-33.691,-20.020,-69.336,111.328
1687767605.888,-179.199,-37.598,-26.367,-35.645,211.426
1687767605.891,-142.090,-39.551,-36.133,-31.738,-51.270
1687767605.895,-126.953,-40.527,-20.996,-28.320,-132.324
1687767605.899,-139.160,-36.133,-10.254,-31.738,-95.215
1687767605.903,-140.137,-38.086,-28.809,-57.129,-144.531
1687767605.907,-108.887,-39.551,-39.062,-76.660,-182.617
1687767605.911,-84.473,-33.203,-36.621,-63.965,-54.199
1687767605.915,-75.195,-34.668,-34.668,-41.992,277.344
1687767605.918,-92.773,-37.598,-32.227,-60.059,61.523
1687767605.922,-115.234,-34.668,-15.625,-61.523,-216.309
1687767605.926,-84.473,-20.996,-3.906,-46.387,-123.047
1687767605.930,-55.176,-12.207,-3.906,-40.039,-77.148
1687767605.934,-38.574,-17.090,-3.906,-33.691,-148.926
1687767605.937,-31.250,-20.996,-4.883,-49.805,-195.801
1687767605.941,-45.898,-23.926,-9.766,-67.871,-173.340
1687767605.945,-34.668,-19.043,-13.184,-69.336,-71.777
1687767605.949,-3.906,-23.438,-7.812,-60.059,-111.328
1687767605.953,9.766,-26.367,-3.906,-63.965,-196.777
1687767605.957,-2.930,-22.949,-4.883,-75.195,-7.812
1687767605.961,-7.812,-22.949,-0.488,-85.449,122.559
1687767605.964,23.926,-17.090,8.301,-84.473,-16.602
1687767605.968,48.828,-3.906,16.113,-58.594,-170.410
1687767605.972,63.477,-2.441,26.367,-44.922,52.246
1687767605.976,49.805,-2.930,38.574,-48.340,307.617
1687767605.980,19.043,4.395,30.762,-74.707,-36.133
1687767605.996,43.945,5.371,22.949,-80.078,-184.570
1687767606.000,79.102,-12.695,25.879,-67.871,20.508
1687767606.004,83.984,-24.414,18.066,-57.129,2.441
1687767606.008,70.312,-27.344,11.719,-67.383,-203.125
1687767606.012,51.270,-23.926,6.836,-90.820,-198.242
1687767606.016,40.527,-17.578,-0.488,-83.984,224.121
1687767606.020,41.992,-22.461,-6.348,-81.055,182.617
1687767606.023,47.363,-29.297,-14.160,-82.520,-165.039
1687767606.027,20.020,-27.344,-21.484,-93.750,-129.395
1687767606.031,-35.156,-32.715,-21.484,-94.727,19.043
1687767606.035,-30.762,-42.969,-17.578,-74.219,-105.469
1687767606.039,-0.977,-41.992,-19.043,-59.082,-217.285
1687767606.040,7.324,-52.734,-18.066,-54.199,-132.812
1687767606.044,-10.742,-61.035,-19.531,-48.828,-84.473
1687767606.048,-68.359,-48.340,-15.137,-49.316,-159.668
1687767606.052,-109.375,-38.574,-13.184,-54.199,-211.914
1687767606.056,-123.535,-42.969,-16.602,-39.062,14.648
1687767606.060,-149.414,-45.898,-13.184,-1.465,179.688
1687767606.064,-159.180,-51.270,-10.254,-11.230,74.707
1687767606.067,-179.688,-57.129,-13.672,-47.363,-1.953
1687767606.071,-196.777,-59.082,-5.859,-37.598,-7.812
1687767606.075,-187.500,-59.570,-10.742,-46.387,262.207
1687767606.079,-176.758,-53.223,-19.531,-39.062,115.723
1687767606.083,-173.340,-52.246,-15.137,-30.762,-116.699
1687767606.085,-185.059,-51.270,-19.043,-59.570,51.758
1687767606.089,-191.895,-45.898,-20.996,-84.473,-13.672
1687767606.093,-183.594,-46.387,-25.391,-86.914,-216.797
1687767606.097,-194.336,-41.016,-28.320,-119.141,-180.176
1687767606.101,-214.355,-63.477,-28.809,-109.863,-44.922
1687767606.105,-233.398,-70.312,-34.180,-116.699,38.086
1687767606.109,-237.793,-72.754,-29.297,-115.234,-20.020
1687767606.112,-222.656,-78.613,-33.203,-95.703,10.254
1687767606.116,-213.867,-71.289,-44.922,-107.910,228.027
1687767606.120,-201.660,-72.266,-42.969,-107.910,133.789
1687767606.124,-208.496,-70.312,-42.969,-116.699,-158.691
1687767606.128,-226.562,-71.777,-40.527,-140.137,-157.227
1687767606.128,-226.562,-71.777,-40.527,-140.137,-157.227
1687767606.145,-203.125,-80.566,-44.922,-166.992,-78.613
1687767606.149,-161.133,-78.613,-53.711,-169.434,-92.773
1687767606.153,-156.250,-73.242,-49.316,-165.527,-114.258
1687767606.157,-197.754,-78.613,-45.410,-164.062,-93.262
1687767606.161,-221.191,-80.078,-43.945,-149.414,-122.559
1687767606.165,-220.703,-81.055,-45.898,-140.625,-62.012
1687767606.169,-212.402,-89.355,-54.199,-141.113,-29.785
1687767606.172,-218.262,-83.496,-59.082,-128.418,-37.109
1687767606.176,-235.352,-75.684,-51.270,-112.793,37.598
1687767606.180,-236.328,-76.660,-36.621,-113.770,-147.461
1687767606.184,-229.004,-76.172,-28.320,-98.633,-149.414
1687767606.188,-224.609,-78.125,-37.598,-73.242,99.609
1687767606.175,-226.562,-73.242,-58.105,-75.684,335.938
1687767606.179,-236.328,-63.477,-60.059,-83.984,7.324
1687767606.183,-249.023,-64.453,-50.781,-86.426,-205.566
1687767606.187,-248.535,-59.082,-50.781,-92.285,-62.012
1687767606.191,-255.371,-44.434,-40.039,-86.426,-157.715
1687767606.195,-285.156,-44.922,-37.598,-93.262,-146.484
1687767606.199,-311.523,-30.762,-37.598,-114.746,-2.930
1687767606.202,-356.934,-13.672,-39.551,-151.855,-30.273
1687767606.206,-363.281,-23.926,-27.832,-163.574,-193.359
1687767606.210,-374.512,-33.691,-32.227,-183.105,-228.516
1687767606.214,-442.383,-14.648,-61.035,-217.285,-143.066
1687767606.218,-456.055,-18.555,-36.621,-197.266,208.984
1687767606.225,-452.148,-24.902,-44.434,-215.332,139.648
1687767606.229,-469.238,-17.090,-54.688,-249.023,-193.359
1687767606.233,-467.285,-24.414,-43.457,-240.234,-145.508
1687767606.237,-455.078,-28.320,-47.852,-234.863,-111.328
1687767606.241,-465.332,-23.438,-45.898,-237.305,-97.656
1687767606.245,-473.633,-24.414,-49.316,-250.000,-36.621
1687767606.249,-469.238,-22.461,-44.434,-247.070,13.672
1687767606.252,-448.730,-24.902,-32.715,-224.121,64.453
1687767606.256,-404.297,-23.438,-36.133,-189.453,-74.707
1687767606.260,-381.348,-30.273,-41.016,-169.434,-176.270
1687767606.264,-375.488,-39.551,-39.551,-160.156,103.516
1687767606.268,-363.770,-38.574,-50.781,-132.324,185.059
1687767606.266,-339.844,-48.828,-74.707,-112.793,-101.562
1687767606.270,-311.035,-55.176,-79.590,-71.777,-82.031
1687767606.274,-288.574,-65.430,-72.754,-43.945,89.844
1687767606.278,-281.250,-74.219,-78.613,-35.156,-40.527
1687767606.282,-273.438,-74.707,-89.355,-17.578,-186.035
1687767606.286,-229.004,-76.660,-84.961,23.926,-78.613
1687767606.290,-197.754,-65.430,-79.590,68.848,293.945
1687767606.293,-193.848,-50.293,-83.984,85.938,312.012
1687767606.297,-191.895,-59.082,-87.891,79.590,-118.164
1687767606.301,-184.570,-68.848,-92.773,95.703,-169.922
1687767606.305,-158.691,-69.824,-96.191,115.723,-94.238
1687767606.309,-126.953,-73.242,-97.168,134.277,-130.859
1687767606.325,-120.605,-73.730,-100.098,152.832,-124.512
1687767606.329,-133.301,-72.754,-104.004,146.484,-76.172
1687767606.333,-148.926,-76.172,-105.957,137.695,-22.461
1687767606.337,-139.160,-77.148,-106.934,133.789,32.227
1687767606.341,-116.699,-79.102,-113.281,138.184,-28.320
1687767606.345,-116.699,-83.984,-112.793,153.809,105.957
1687767606.349,-139.160,-87.402,-106.445,153.809,377.441
1687767606.352,-149.414,-91.797,-102.539,132.324,39.551
1687767606.356,-131.836,-86.914,-101.074,130.371,-172.852
1687767606.360,-120.605,-82.031,-104.004,140.137,2.441
1687767606.364,-123.535,-85.938,-108.887,132.812,-15.137
1687767606.368,-128.906,-90.332,-105.469,119.141,-180.176
1687767606.370,-142.578,-94.727,-98.633,98.633,-241.211
1687767606.374,-134.277,-89.844,-93.750,83.984,-72.266
1687767606.378,-114.746,-90.332,-95.703,88.379,-2.441
1687767606.382,-113.770,-93.262,-97.168,95.215,-165.039
1687767606.386,-120.605,-89.844,-95.215,81.055,-175.293
1687767606.390,-131.348,-90.332,-98.633,51.270,-20.508
1687767606.394,-123.535,-94.238,-99.609,40.527,-13.672
1687767606.397,-98.145,-97.656,-93.750,49.316,-41.016
1687767606.401,-85.449,-95.703,-94.238,56.641,-88.379
1687767606.405,-94.238,-96.680,-96.191,41.504,180.664
1687767606.409,-108.398,-97.656,-93.262,19.531,205.078
1687767606.413,-107.422,-93.262,-94.727,0.488,-145.508
1687767606.415,-94.727,-90.820,-93.262,1.465,-164.062
1687767606.419,-86.914,-97.656,-89.355,18.066,-88.379
1687767606.423,-99.121,-102.051,-90.332,19.043,-135.254
1687767606.427,-114.258,-102.051,-87.891,-7.324,-242.676
1687767606.431,-109.375,-96.680,-83.496,-15.137,-145.996
1687767606.435,-94.238,-88.867,-82.520,0.977,-50.781
1687767606.439,-79.102,-92.285,-86.426,7.812,-12.695
1687767606.442,-77.148,-92.285,-89.844,-4.395,-68.848
1687767606.446,-100.586,-89.844,-91.309,-20.996,-21.973
1687767606.450,-118.652,-90.820,-94.727,-17.578,237.793
1687767606.454,-110.352,-91.309,-97.168,-29.297,94.727
1687767606.458,-97.168,-87.891,-91.309,-35.645,-166.992
1687767606.461,-93.262,-85.449,-82.520,-13.672,-59.570
1687767606.465,-100.098,-83.008,-76.172,-20.508,-44.922
1687767606.469,-110.352,-83.008,-74.707,-37.109,-177.246
1687767606.473,-94.727,-80.566,-77.637,-42.480,-140.137
1687767606.477,-77.637,-76.660,-78.125,-45.410,-19.043
1687767606.481,-74.219,-77.148,-71.777,-45.898,78.613
1687767606.485,-78.613,-75.195,-71.777,-57.617,34.668
1687767606.488,-95.215,-67.871,-74.219,-78.613,-100.098
1687767606.492,-101.074,-68.848,-71.777,-68.848,77.637
1687767606.496,-92.285,-75.195,-74.219,-60.547,55.176
1687767606.500,-94.727,-78.613,-78.613,-84.473,-130.859
1687767606.504,-121.094,-82.031,-83.984,-100.098,-27.344
1687767606.507,-133.301,-87.402,-87.402,-105.469,15.625
1687767606.511,-107.910,-91.797,-85.449,-106.445,-134.277
1687767606.515,-70.312,-90.820,-82.031,-99.121,-141.113
1687767606.519,-63.965,-89.844,-80.566,-88.379,-55.176
1687767606.523,-88.379,-90.332,-80.078,-89.355,-59.082
1687767606.527,-108.398,-86.914,-77.148,-112.305,-43.945
1687767606.531,-94.238,-76.660,-75.195,-119.141,-164.062
1687767606.534,-59.570,-72.266,-73.730,-97.168,-39.551
1687767606.538,-49.316,-71.289,-66.406,-83.008,256.348
1687767606.542,-62.988,-74.219,-65.918,-94.727,20.508
1687767606.546,-78.125,-73.242,-69.824,-106.445,-136.719
1687767606.550,-71.777,-70.801,-72.754,-107.910,-1.953
1687767606.551,-48.340,-71.289,-75.684,-90.332,49.316
1687767606.555,-38.574,-69.336,-71.777,-89.844,-50.781
1687767606.559,-45.898,-67.383,-71.289,-105.957,-134.766
1687767606.563,-62.012,-61.523,-72.266,-109.375,-5.859
1687767606.567,-66.895,-61.035,-68.359,-100.586,6.836
1687767606.571,-46.875,-59.570,-63.965,-99.121,-7.812
1687767606.575,-25.391,-55.664,-55.664,-83.984,37.598
1687767606.578,-29.297,-64.453,-57.617,-76.660,136.719
1687767606.582,-41.504,-67.383,-60.059,-101.562,31.738
1687767606.586,-40.527,-59.570,-58.105,-109.375,-132.324
1687767606.590,-26.855,-60.059,-60.547,-103.516,-117.676
1687767606.594,-5.371,-62.012,-62.988,-98.633,-127.930
1687767606.596,7.324,-58.594,-57.617,-87.402,-73.730
1687767606.600,-4.883,-61.523,-56.152,-94.727,-100.586
1687767606.604,-14.648,-66.406,-62.012,-105.469,-158.203
1687767606.608,-1.953,-71.777,-61.035,-90.820,-105.469
1687767606.612,20.996,-73.242,-61.035,-74.219,-111.816
1687767606.616,25.879,-62.012,-60.059,-69.824,-80.566
1687767606.620,20.508,-52.246,-60.547,-73.730,91.797
1687767606.623,9.277,-52.246,-60.059,-79.590,294.922
1687767606.627,2.441,-60.547,-60.059,-76.660,69.336
1687767606.631,18.066,-65.918,-57.129,-61.035,-168.457
1687767606.635,23.926,-65.430,-55.176,-55.176,55.664
1687767606.639,3.906,-66.895,-61.523,-72.266,43.457
1687767606.640,-9.277,-65.918,-65.918,-91.309,-214.355
1687767606.644,-2.441,-60.547,-57.617,-75.684,-239.746
1687767606.648,10.742,-54.688,-55.664,-60.059,-146.484
1687767606.652,11.719,-46.387,-59.082,-66.406,-127.441
1687767606.656,-10.254,-45.410,-61.523,-84.473,-163.086
1687767606.660,-14.648,-41.504,-50.293,-76.660,-158.203
1687767606.664,-5.371,-38.574,-28.320,-66.406,118.652
1687767606.667,5.371,-38.086,-38.086,-64.453,93.262
1687767606.671,20.996,-24.902,-50.293,-51.270,-97.168
1687767606.675,12.207,-27.344,-15.137,-44.922,-95.215
1687767606.679,-29.297,-12.207,-35.156,-61.035,-32.715
1687767606.683,-65.918,-5.859,-57.129,-102.051,-65.430
1687767606.685,-59.082,-21.973,-16.602,-113.281,-131.836
1687767606.689,-71.777,-4.395,-1.953,-118.652,-80.078
1687767606.693,-125.000,14.648,-11.230,-164.551,-81.055
1687767606.697,-184.570,2.930,-17.578,-220.215,-143.555
1687767606.701,-211.426,2.930,-6.836,-247.559,-167.480
1687767606.705,-194.824,11.719,-5.859,-242.676,45.898
1687767606.709,-181.152,12.207,0.977,-225.586,147.461
1687767606.712,-197.266,0.488,14.648,-236.816,-27.832
1687767606.716,-227.051,-15.137,10.254,-264.648,-165.039
1687767606.720,-219.238,-2.930,16.113,-242.676,1.953
1687767606.724,-199.707,2.441,20.996,-216.797,327.148
1687767606.728,-195.801,-5.371,15.625,-217.285,1.465
1687767606.745,-195.801,-3.906,14.648,-216.309,-198.242
1687767606.749,-198.242,-0.977,11.230,-209.473,-63.965
1687767606.753,-199.707,-6.836,4.883,-203.125,-126.953
1687767606.757,-184.082,-16.113,2.930,-181.152,-208.496
1687767606.761,-145.508,-16.602,-1.465,-143.066,-75.195
1687767606.765,-133.301,-15.625,-9.277,-122.559,48.340
1687767606.769,-143.066,-24.902,-18.555,-126.953,-10.742
1687767606.772,-133.789,-38.086,-25.391,-123.047,-124.512
1687767606.776,-103.516,-44.434,-30.762,-112.305,-137.695
1687767606.780,-79.102,-49.316,-37.109,-95.215,114.746
1687767606.784,-75.195,-52.246,-47.852,-81.543,56.641
1687767606.788,-86.914,-51.758,-57.129,-78.125,-159.180
1687767606.790,-97.168,-67.383,-65.430,-81.055,-66.406
1687767606.794,-94.238,-81.543,-77.637,-65.430,161.621
1687767606.798,-68.848,-77.637,-82.520,-56.152,25.879
1687767606.802,-50.293,-78.613,-83.984,-53.223,-208.984
1687767606.806,-66.895,-81.543,-86.914,-50.781,-142.090
1687767606.810,-83.984,-83.008,-87.891,-50.293,107.422
1687767606.814,-66.406,-86.426,-85.449,-31.250,29.785
1687767606.817,-45.410,-89.844,-83.496,-18.066,-139.648
1687767606.821,-39.551,-88.867,-81.055,-8.789,-50.293
1687767606.825,-53.711,-77.148,-82.520,-0.977,197.754
1687767606.829,-66.406,-73.730,-87.402,-6.836,19.531
1687767606.833,-57.129,-80.566,-84.473,-7.812,-196.777
1687767606.850,-37.598,-85.449,-86.426,3.418,15.625
1687767606.854,-26.367,-82.031,-86.426,20.508,113.281
1687767606.858,-42.969,-75.195,-71.777,16.602,-119.629
1687767606.862,-62.500,-74.707,-69.336,-2.930,-62.012
1687767606.866,-56.641,-78.125,-75.684,2.441,-37.598
1687767606.870,-27.832,-82.031,-69.824,20.508,-28.320
1687767606.874,-20.996,-80.078,-65.430,22.461,65.918
1687767606.877,-41.016,-82.031,-68.359,15.137,-9.277
1687767606.881,-55.664,-83.984,-73.730,15.137,152.832
1687767606.885,-64.453,-82.520,-74.219,4.395,108.887
1687767606.889,-41.504,-81.543,-68.848,7.812,-114.258
1687767606.893,-21.484,-78.613,-66.406,29.297,-105.957
1687767606.881,-45.410,-82.031,-70.312,17.090,-72.754
1687767606.885,-78.613,-81.055,-74.707,-4.395,-139.648
1687767606.889,-85.449,-78.613,-78.613,-9.766,-181.641
1687767606.893,-72.754,-79.102,-82.520,-3.418,-43.945
1687767606.897,-74.219,-78.613,-77.148,10.742,23.926
1687767606.901,-68.848,-77.637,-71.289,11.719,-60.547
1687767606.905,-70.312,-76.172,-73.730,-6.836,-42.480
1687767606.908,-83.984,-80.566,-79.590,-16.602,-2.930
1687767606.912,-62.500,-77.148,-75.684,-2.441,-71.777
1687767606.916,-48.340,-72.266,-68.848,3.906,-55.664
1687767606.920,-54.688,-66.406,-66.406,-10.254,-80.078
1687767606.924,-66.895,-60.547,-65.918,-21.973,-62.012
1687767606.925,-79.102,-58.105,-70.801,-22.949,239.746
1687767606.929,-73.242,-54.199,-79.102,-24.902,84.961
1687767606.933,-75.684,-58.105,-76.660,-30.762,-180.664
1687767606.937,-119.629,-54.688,-71.777,-26.367,-101.074
1687767606.941,-160.645,-56.152,-71.289,-27.344,-68.848
1687767606.945,-195.312,-63.477,-69.824,-32.715,-37.598
1687767606.949,-203.125,-73.730,-68.359,-33.691,-8.301
1687767606.952,-191.406,-78.125,-69.824,-23.926,257.812
1687767606.956,-195.312,-78.613,-74.707,-20.508,282.715
1687767606.960,-222.168,-73.242,-76.660,-46.387,-130.859
1687767606.964,-237.793,-63.477,-80.078,-57.617,-203.613
1687767606.968,-221.680,-72.266,-81.055,-38.574,-62.500
1687767606.970,-191.406,-72.754,-72.266,-29.785,-77.637
1687767606.974,-176.758,-56.641,-69.824,-36.621,-150.879
1687767606.978,-190.918,-57.617,-65.918,-41.016,-162.109
1687767606.982,-210.938,-58.594,-60.059,-49.316,-156.250
1687767606.986,-214.844,-58.105,-54.199,-39.062,-125.488
1687767606.990,-206.543,-64.453,-49.805,-29.785,-93.750
1687767606.994,-192.383,-57.129,-49.805,-28.809,28.320
1687767606.997,-191.895,-49.316,-47.363,-22.461,374.512
1687767607.001,-373.047,-46.875,-42.969,-37.109,87.402
1687767607.005,-590.332,-45.898,-43.945,-42.480,-210.938
1687767607.009,-626.953,-42.480,-47.852,-24.902,18.555
1687767607.013,-624.512,-40.039,-50.781,-21.484,85.449
1687767607.015,-624.512,-48.828,-52.734,-34.668,-200.684
1687767607.019,-619.629,-46.875,-53.223,-54.199,-313.965
1687767607.023,-614.746,-49.805,-56.152,-56.152,-166.504
1687767607.027,-586.426,-56.641,-54.199,-38.574,-90.332
1687767607.031,-563.965,-54.688,-50.781,-35.156,-130.371
1687767607.035,-562.012,-51.758,-52.734,-39.551,-111.328
1687767607.039,-568.359,-60.059,-61.523,-51.270,172.852
1687767607.042,-550.781,-65.918,-66.895,-69.824,105.957
1687767607.046,-508.301,-70.312,-71.289,-70.801,-188.477
1687767607.050,-483.887,-74.219,-74.219,-62.012,-111.816
1687767607.054,-488.770,-69.824,-75.195,-68.848,9.766
1687767607.058,-486.816,-66.406,-77.148,-75.195,-82.031
1687767607.060,-478.027,-70.312,-74.219,-76.660,-112.305
1687767607.064,-452.637,-73.730,-76.660,-75.195,-70.312
1687767607.068,-416.016,-84.473,-81.055,-70.312,-23.926
1687767607.072,-412.598,-78.125,-82.520,-72.266,-90.820
1687767607.076,-421.875,-76.660,-76.660,-78.613,-145.020
1687767607.080,-409.180,-86.426,-68.848,-66.895,36.133
1687767607.084,-393.555,-81.543,-70.312,-60.059,146.484
1687767607.087,-371.582,-82.031,-72.266,-56.152,-41.016
1687767607.091,-358.887,-81.055,-75.684,-56.641,-163.086
1687767607.095,-382.812,-80.566,-76.660,-78.613,-50.293
1687767607.099,-389.648,-83.984,-79.590,-75.684,6.836
1687767607.103,-357.422,-83.984,-76.660,-60.547,-37.109
1687767607.120,-325.195,-84.961,-74.219,-51.758,-30.762
1687767607.124,-310.547,-83.496,-76.660,-50.781,-0.977
1687767607.128,-316.406,-74.707,-71.289,-63.477,-11.230
1687767607.132,-311.035,-65.918,-66.895,-73.242,-204.590
1687767607.136,-288.086,-62.012,-67.871,-64.453,-175.293
1687767607.140,-275.391,-71.289,-66.406,-52.734,18.066
1687767607.144,-276.855,-68.848,-61.523,-53.223,-30.762
1687767607.147,-277.344,-67.871,-57.617,-62.988,-143.066
1687767607.151,-287.598,-76.172,-55.664,-68.359,-156.738
1687767607.155,-273.926,-73.242,-60.059,-65.430,-45.410
1687767607.159,-255.371,-69.336,-65.430,-59.570,-87.402
1687767607.163,-248.047,-80.078,-65.918,-56.641,-119.141
1687767607.165,-261.230,-85.938,-66.895,-63.477,-52.734
1687767607.169,-266.113,-77.637,-65.918,-67.871,204.102
1687767607.173,-236.328,-76.172,-65.918,-62.500,172.363
1687767607.177,-206.055,-84.961,-63.477,-46.387,-70.312
1687767607.181,-212.402,-85.449,-63.965,-50.781,-52.246
1687767607.185,-226.074,-87.402,-68.848,-65.918,106.445
1687767607.189,-239.746,-83.984,-68.359,-76.172,-1.953
1687767607.192,-229.492,-85.449,-67.383,-85.938,-201.660
1687767607.196,-191.895,-89.355,-71.289,-68.359,-55.176
1687767607.200,-194.336,-83.008,-71.777,-56.641,230.957
1687767607.204,-209.473,-74.219,-69.824,-67.871,64.941
1687767607.208,-221.680,-72.754,-71.289,-77.637,-166.016
1687767607.210,-205.566,-69.336,-64.941,-72.266,-38.574
1687767607.214,-159.668,-52.246,-58.594,-54.688,108.398
1687767607.218,-145.508,-59.082,-59.082,-55.664,-28.320
1687767607.222,-153.809,-62.988,-62.500,-65.918,-117.676
1687767607.226,-162.598,-52.734,-55.664,-70.801,-73.242
1687767607.230,-165.039,-61.523,-50.781,-80.078,-98.145
1687767607.234,-136.230,-57.129,-55.664,-76.172,-96.680
1687767607.237,-102.539,-48.828,-53.711,-71.289,-116.699
1687767607.241,-83.984,-57.617,-50.293,-66.895,114.746
1687767607.245,-52.246,-55.176,-46.387,-61.035,112.305
1687767607.249,-26.367,-43.457,-47.363,-74.219,-165.039
1687767607.253,-16.113,-42.969,-55.664,-78.125,-175.293
1687767607.255,22.461,-50.781,-49.316,-60.059,-101.562
1687767607.259,28.809,-47.363,-41.016,-59.082,-133.301
1687767607.263,13.184,-46.387,-47.363,-82.520,-174.805
1687767607.267,58.594,-48.340,-50.781,-84.961,-108.398
1687767607.271,144.531,-56.152,-50.293,-75.684,-74.707
1687767607.275,189.941,-57.617,-50.293,-62.988,-54.199
1687767607.279,189.941,-50.781,-48.828,-63.477,-90.332
1687767607.282,192.383,-49.805,-39.062,-65.430,11.230
1687767607.286,210.449,-46.875,-34.668,-46.387,263.184
1687767607.290,219.238,-40.039,-41.016,-58.105,79.102
1687767607.294,246.094,-48.340,-48.828,-60.059,-66.406
1687767607.298,250.000,-55.664,-51.758,-52.734,30.273
1687767607.302,229.980,-54.688,-53.711,-70.312,15.137
1687767607.306,217.773,-64.941,-56.152,-76.660,-107.422
1687767607.310,209.961,-67.871,-55.664,-71.777,-127.441
1687767607.314,227.539,-62.988,-59.082,-68.359,-84.473
1687767607.318,243.164,-65.430,-54.688,-62.988,-114.746
1687767607.322,232.422,-60.059,-48.340,-68.848,-143.066
1687767607.326,213.379,-62.012,-44.922,-76.172,-105.957
1687767607.329,237.305,-65.918,-42.480,-58.594,124.023
1687767607.333,260.742,-57.617,-47.363,-49.316,95.215
1687767607.337,251.953,-59.082,-48.828,-56.152,-84.961
1687767607.341,245.605,-61.035,-49.316,-57.129,-97.168
1687767607.345,232.422,-54.688,-52.246,-63.965,36.133
1687767607.345,230.469,-51.270,-50.781,-68.848,-89.355
1687767607.349,241.699,-52.734,-48.340,-57.129,-191.895
1687767607.353,236.816,-59.570,-41.016,-47.852,-122.070
1687767607.357,215.820,-59.082,-39.551,-44.922,-132.812
1687767607.361,208.008,-55.664,-40.039,-48.340,-134.277
1687767607.365,211.426,-56.152,-41.992,-49.316,-110.840
1687767607.369,235.352,-53.223,-43.945,-39.062,-19.043
1687767607.372,249.023,-52.246,-46.387,-20.020,333.008
1687767607.376,228.516,-54.199,-44.922,-31.250,196.289
1687767607.380,199.219,-41.504,-41.992,-57.129,-148.438
1687767607.384,166.504,-36.133,-43.945,-45.898,34.180
1687767607.388,99.121,-38.574,-44.434,-36.133,170.410
1687767607.390,14.160,-40.039,-44.434,-39.551,-92.773
1687767607.394,-53.711,-52.246,-39.551,-30.273,-203.613
1687767607.398,-110.352,-56.641,-38.086,-33.203,-20.020
1687767607.402,-142.578,-40.039,-39.062,-34.180,-17.578
1687767607.406,-134.277,-38.086,-42.480,-27.344,-211.426
1687767607.410,-123.047,-45.410,-44.922,-25.391,-56.641
1687767607.414,-129.395,-48.340,-44.434,-22.461,350.586
1687767607.417,-136.719,-51.758,-47.852,-34.180,179.688
1687767607.421,-126.953,-47.852,-47.852,-51.270,-166.992
1687767607.425,-106.934,-32.715,-43.945,-44.434,-90.820
1687767607.429,-103.516,-35.645,-37.598,-27.344,54.199
1687767607.433,-119.629,-35.645,-35.645,-29.785,-48.828
1687767607.436,-135.742,-23.438,-39.551,-44.922,-182.617
1687767607.440,-134.766,-40.039,-39.551,-48.340,-142.090
1687767607.444,-103.516,-37.598,-41.504,-40.039,-98.145
1687767607.448,-76.172,-27.344,-43.457,-22.949,-130.371
1687767607.452,-77.148,-32.715,-38.574,-23.438,-138.184
1687767607.456,-78.613,-30.273,-35.645,-29.297,80.078
1687767607.460,-76.660,-24.414,-40.527,-34.668,303.223
1687767607.463,-61.523,-21.973,-34.180,-38.574,9.277
1687767607.467,-54.199,-18.066,-24.902,-17.090,-197.266
1687767607.471,-39.551,-26.367,-29.297,-14.648,-45.410
1687767607.475,-58.594,-36.133,-36.133,-20.020,95.215
1687767607.479,40.527,-31.738,-33.691,-35.645,-111.328
1687767607.495,402.344,-30.273,-32.715,-35.156,-189.453
1687767607.499,708.496,-28.320,-29.297,-10.254,-26.367
1687767607.503,777.344,-16.602,-28.320,-9.766,-46.387
1687767607.507,754.883,-22.949,-27.832,-30.273,-160.156
1687767607.511,762.207,-27.832,-21.484,-35.645,-106.445
1687767607.515,795.898,-26.367,-22.461,-15.137,187.012
1687767607.519,849.121,-27.832,-24.902,-3.906,185.059
1687767607.522,888.184,-22.949,-22.461,-8.301,-103.516
1687767607.526,880.371,-17.578,-21.484,-22.949,-115.234
1687767607.530,859.863,-25.879,-24.414,-19.531,18.555
1687767607.534,855.469,-25.391,-25.391,-5.371,-41.992
1687767607.538,885.254,-23.438,-27.344,-17.578,-79.590
1687767607.540,953.125,-28.809,-26.367,-19.043,-63.477
1687767607.544,972.656,-26.855,-20.020,-16.602,-79.590
1687767607.548,964.355,-19.531,-23.438,-28.320,-108.398
1687767607.552,947.754,-23.926,-25.391,-31.738,-147.949
1687767607.556,958.984,-38.086,-22.461,-21.484,-57.129
1687767607.560,968.750,-34.180,-24.414,-15.137,-2.930
1687767607.564,971.191,-24.902,-25.879,-18.555,-5.859
1687767607.567,941.406,-25.391,-23.926,-26.855,33.691
1687767607.571,887.207,-22.949,-19.043,-30.762,63.965
1687767607.575,915.039,-29.297,-14.160,-8.789,315.918
1687767607.579,959.473,-29.297,-15.137,3.418,250.000
1687767607.583,969.727,-17.578,-18.066,-5.859,-120.605
1687767607.585,965.332,-12.207,-15.625,-26.367,-101.074
1687767607.589,951.172,-19.531,-17.090,-32.227,-103.027
1687767607.593,960.938,-30.762,-21.484,-22.461,-224.121
1687767607.597,969.727,-34.180,-19.043,-22.461,-150.391
1687767607.601,965.820,-30.273,-24.414,-25.391,-18.555
1687767607.605,971.191,-37.109,-38.574,-50.293,75.195
1687767607.609,931.641,-50.293,-44.922,-59.570,-59.082
1687767607.612,905.273,-45.410,-45.898,-53.711,-187.988
1687767607.616,916.504,-40.039,-44.922,-30.273,116.699
1687767607.620,881.836,-36.621,-36.621,-14.160,251.465
1687767607.624,833.496,-33.203,-31.250,-28.320,-94.238
1687767607.628,817.383,-33.691,-35.156,-38.086,-182.617
1687767607.630,822.754,-27.344,-37.598,-32.227,-99.609
1687767607.634,825.195,-28.320,-36.133,-13.184,-100.098
1687767607.638,815.918,-24.414,-38.574,-8.301,-124.512
1687767607.642,782.227,-22.461,-43.945,-14.648,-165.527
1687767607.646,753.906,-20.020,-42.969,-19.043,-208.984
1687767607.650,774.414,-21.973,-35.156,2.441,-117.676
1687767607.654,771.484,-18.555,-32.715,20.508,-51.758
1687767607.657,720.703,-11.719,-27.832,22.461,64.453
1687767607.661,726.074,-11.719,-24.414,23.438,220.215
1687767607.665,747.070,-12.207,-22.461,9.766,0.977
1687767607.669,775.391,-13.184,-22.949,2.441,-130.371
1687767607.673,804.199,-11.230,-23.438,18.066,21.484
1687767607.675,797.852,-13.672,-17.090,27.832,9.277
1687767607.679,776.855,-15.625,-13.184,19.531,-118.164
1687767607.683,741.699,-8.301,-11.719,2.930,-132.812
1687767607.687,706.543,-3.906,-13.672,11.230,97.656
1687767607.691,743.652,-8.789,-12.207,41.016,198.730
1687767607.695,772.461,-11.719,-9.766,35.156,31.738
1687767607.699,769.531,-11.719,-4.395,31.738,58.105
1687767607.702,750.977,-3.906,1.953,38.574,148.438
1687767607.706,734.863,-0.977,-4.395,28.320,3.418
1687767607.710,725.098,-17.090,-12.207,31.250,-129.883
1687767607.714,736.816,-21.484,-14.160,37.109,-47.363
1687767607.718,733.887,-15.625,-15.137,26.855,97.168
1687767607.724,713.867,-17.090,-20.020,4.883,-30.762
1687767607.728,765.137,-23.438,-21.484,4.883,-183.594
1687767607.732,829.102,-23.438,-22.461,16.602,-98.145
1687767607.736,882.324,-15.625,-22.461,18.555,-20.508
1687767607.740,932.617,-24.414,-25.391,11.719,-33.691
1687767607.744,957.031,-33.691,-30.273,-0.977,-41.016
1687767607.748,938.965,-27.344,-26.367,-10.254,76.172
1687767607.751,863.770,-25.391,-29.297,4.883,270.508
1687767607.755,778.809,-23.438,-32.227,18.555,-106.445
1687767607.759,713.867,-20.508,-32.715,16.602,-219.727
1687767607.763,654.785,-22.461,-25.879,4.883,39.551
1687767607.767,611.816,-21.484,-27.832,0.488,-9.277
1687767607.765,598.145,-29.297,-27.832,6.348,-109.375
1687767607.769,578.125,-33.691,-26.367,11.719,-92.285
1687767607.773,541.992,-32.227,-33.203,4.883,-49.805
1687767607.777,502.930,-35.645,-31.738,-0.977,-103.027
1687767607.781,474.121,-31.738,-28.320,-4.883,-207.031
1687767607.785,482.422,-24.414,-30.273,-0.488,-121.582
1687767607.789,521.484,-28.320,-33.203,20.508,203.125
1687767607.792,523.926,-30.273,-32.227,21.973,246.582
1687767607.796,493.164,-26.367,-31.738,-4.395,-127.441
1687767607.800,468.750,-28.320,-30.762,-12.207,-234.375
1687767607.804,476.562,-25.879,-26.367,-4.883,-152.832
1687767607.808,460.449,-23.926,-20.508,10.254,-125.000
1687767607.810,404.785,-25.391,-20.020,11.230,-134.766
1687767607.814,373.535,-24.902,-26.855,-1.953,-95.703
1687767607.818,375.977,-30.273,-25.391,-11.230,-124.512
1687767607.822,445.801,-32.227,-20.996,-2.441,-117.188
1687767607.826,542.480,-28.320,-24.414,5.371,-107.422
1687767607.830,585.938,-22.461,-24.414,8.789,29.785
1687767607.834,569.824,-14.160,-25.391,-5.371,155.273
1687767607.837,527.832,-17.578,-30.273,-17.578,63.965
1687767607.841,510.254,-29.785,-27.832,-19.531,-82.520
1687767607.845,522.461,-34.668,-26.367,-12.695,-6.348
1687767607.849,512.695,-34.668,-35.156,3.418,346.680
1687767607.853,484.863,-30.273,-38.574,-10.742,41.504
1687767607.870,444.824,-32.227,-36.621,-24.902,-205.566
1687767607.874,412.109,-38.574,-36.133,-24.414,-41.016
1687767607.878,420.898,-40.039,-39.551,-19.531,-136.719
1687767607.882,409.668,-40.527,-43.457,-14.648,-163.574
1687767607.886,374.512,-33.203,-41.992,-25.879,-113.770
1687767607.890,388.184,-38.086,-42.969,-31.738,-3.906
1687767607.894,401.855,-47.363,-44.922,-32.715,-23.438
1687767607.897,388.184,-44.434,-45.410,-23.438,-139.160
1687767607.901,379.883,-33.691,-46.387,-12.207,-18.555
1687767607.905,356.445,-31.738,-51.758,-15.137,183.594
1687767607.909,303.711,-40.527,-52.734,-29.297,78.125
1687767607.913,272.461,-43.945,-50.781,-40.527,-128.418
1687767607.915,272.949,-41.504,-51.758,-32.715,-144.043
1687767607.919,287.598,-40.039,-47.852,-29.785,-81.543
1687767607.923,273.926,-42.480,-49.316,-35.645,-104.004
1687767607.927,244.141,-40.039,-55.664,-42.480,-177.246
1687767607.931,226.562,-35.156,-52.734,-50.293,-152.344
1687767607.935,228.516,-40.527,-46.875,-44.922,-43.457
1687767607.939,259.277,-31.250,-44.434,-34.180,-17.578
1687767607.942,285.156,-24.902,-42.969,-34.668,-130.371
1687767607.946,281.250,-37.109,-41.016,-30.762,-36.133
1687767607.950,284.180,-38.086,-41.504,-21.973,204.590
1687767607.954,291.992,-42.480,-43.457,-22.949,77.637
1687767607.958,311.035,-50.293,-44.922,-21.973,-7.324
1687767607.960,343.262,-42.969,-43.945,-24.414,141.602
1687767607.964,306.641,-33.691,-41.504,-27.832,166.504
1687767607.968,266.113,-40.039,-39.062,-33.203,-138.672
1687767607.972,284.180,-45.898,-34.180,-16.113,-182.617
1687767607.976,287.109,-42.969,-30.273,-1.465,-57.129
1687767607.980,262.207,-38.574,-27.344,-10.254,-15.625
1687767607.984,228.027,-32.227,-26.367,-24.414,-2.930
1687767607.987,213.379,-26.367,-27.832,-36.621,-64.453
1687767607.991,216.797,-26.367,-30.273,-21.973,94.727
1687767607.995,254.883,-34.180,-26.855,-5.859,87.402
1687767607.999,280.762,-32.715,-23.438,-8.301,-166.992
1687767608.003,274.414,-29.297,-15.137,-15.625,-197.266
1687767608.005,277.344,-28.320,-17.090,-26.855,-85.449
1687767608.009,279.785,-28.320,-25.879,-33.203,-54.199
1687767608.013,298.340,-41.016,-25.391,-30.273,-132.324
1687767608.017,286.133,-46.387,-31.250,-30.762,-125.977
1687767608.021,241.211,-40.039,-35.645,-33.691,-61.523
1687767608.025,202.148,-38.574,-37.598,-41.504,-61.523
1687767608.029,212.891,-46.387,-35.645,-44.434,-73.242
1687767608.032,261.719,-48.828,-38.574,-32.227,33.203
1687767608.036,262.695,-50.293,-46.387,-22.949,250.977
1687767608.040,214.844,-53.711,-38.574,-33.691,11.719
1687767608.044,174.316,-53.711,-33.691,-54.199,-81.543
1687767608.048,165.039,-53.223,-38.086,-57.129,40.527
1687767608.050,187.988,-55.664,-33.691,-43.945,37.598
1687767608.054,210.449,-50.293,-32.227,-50.293,-111.328
1687767608.058,219.238,-48.828,-29.297,-58.105,-169.434
1687767608.062,204.102,-39.551,-18.066,-65.430,-76.172
1687767608.066,187.500,-38.086,-24.902,-68.359,-98.145
1687767608.070,197.754,-58.105,-27.344,-66.406,-72.266
1687767608.074,219.727,-54.199,-26.855,-83.008,0.000
1687767608.077,242.188,-23.438,-12.695,-54.688,192.871
1687767608.081,197.266,-44.434,-18.066,-69.824,141.113
1687767608.085,139.160,-64.453,-21.973,-136.719,-118.164
1687767608.089,160.645,-22.461,-9.766,-135.254,-148.438
1687767608.093,219.238,-13.184,-20.508,-145.020,-54.199
1687767608.095,199.219,-18.066,-17.578,-187.988,-109.375
1687767608.099,123.047,-4.883,9.277,-218.750,-198.730
1687767608.103,102.539,10.254,9.277,-223.633,-161.133
1687767608.107,92.285,8.789,-8.301,-226.074,-135.742
1687767608.111,94.727,0.000,-8.301,-238.770,-146.973
1687767608.115,109.375,-2.930,1.465,-237.793,-101.074
1687767608.119,96.680,-6.348,-0.488,-236.328,67.871
1687767608.122,82.520,-16.113,-2.441,-222.656,374.512
1687767608.126,90.332,-8.301,3.418,-206.543,125.000
1687767608.130,90.332,2.441,4.395,-191.895,-93.750
1687767608.134,111.328,-11.719,0.977,-167.480,89.844
1687767608.138,141.113,-16.113,-10.742,-151.855,90.820
1687767608.140,151.367,-21.484,-17.578,-165.527,-189.453
1687767608.144,194.824,-26.855,-16.113,-158.203,-275.391
1687767608.148,233.398,-33.691,-20.996,-132.812,-171.875
1687767608.152,200.195,-42.969,-27.832,-124.023,-125.977
1687767608.156,170.898,-52.246,-25.879,-120.117,-140.137
1687767608.160,188.477,-62.988,-21.973,-104.980,-83.984
1687767608.164,215.820,-57.129,-25.391,-76.660,166.992
1687767608.167,247.070,-60.059,-32.227,-67.871,142.090
1687767608.171,275.879,-67.871,-32.227,-71.777,-192.871
1687767608.175,260.254,-61.523,-30.762,-65.918,-185.547
1687767608.179,239.258,-75.195,-32.227,-63.965,-54.688
1687767608.183,243.164,-67.871,-37.109,-60.059,-133.301
1687767608.185,222.168,-58.105,-37.598,-41.992,-123.535
1687767608.189,168.457,-66.895,-37.109,-30.273,-108.887
1687767608.193,84.961,-67.871,-41.504,-42.969,-96.680
1687767608.197,-3.906,-69.336,-44.922,-59.082,-106.934
1687767608.201,-26.367,-61.035,-43.457,-51.758,-153.320
1687767608.205,-26.367,-61.035,-43.457,-35.156,-80.078
1687767608.209,-46.875,-71.777,-47.852,-30.762,66.895
1687767608.212,-42.969,-72.754,-49.316,-30.762,-26.855
1687767608.216,-36.133,-66.406,-43.457,-35.645,-178.711
1687767608.220,12.695,-73.242,-38.086,-23.926,-63.965
1687767608.224,129.883,-72.266,-38.086,-5.371,177.734
1687767608.228,189.453,-65.918,-42.480,-11.230,123.047
1687767608.245,199.707,-72.754,-46.875,-28.320,-120.605
1687767608.249,210.938,-73.242,-49.316,-31.250,-60.547
1687767608.253,250.000,-68.359,-49.805,-29.785,59.570
1687767608.257,306.152,-71.289,-46.387,-24.902,-79.102
1687767608.261,293.457,-71.289,-44.922,-18.066,-49.805
1687767608.265,208.496,-71.289,-47.363,-25.391,125.977
1687767608.269,137.695,-75.195,-47.852,-40.527,69.336
1687767608.272,145.996,-73.242,-48.828,-43.457,-101.074
1687767608.276,181.152,-78.125,-49.316,-30.273,-49.805
1687767608.280,212.402,-81.055,-52.734,-11.719,193.359
1687767608.284,254.883,-80.566,-52.246,-16.602,117.188
1687767608.288,306.152,-82.520,-49.805,-38.574,-79.102
1687767608.290,413.086,-74.219,-49.316,-39.551,-43.945
1687767608.294,539.062,-68.848,-46.875,-29.297,-22.949
1687767608.298,645.996,-69.336,-49.316,-19.043,-96.680
1687767608.302,733.887,-69.824,-46.387,-14.648,-129.883
1687767608.306,737.793,-74.219,-50.781,-28.809,-88.867
1687767608.310,666.992,-83.496,-57.617,-36.621,-30.762
1687767608.314,620.117,-81.543,-58.594,-33.691,-38.574
1687767608.317,568.848,-71.777,-56.641,-37.598,-131.836
1687767608.321,500.977,-71.777,-58.105,-42.969,-83.008
1687767608.325,492.188,-68.359,-53.711,-41.016,162.598
1687767608.329,447.754,-62.988,-46.875,-44.434,6.836
1687767608.333,391.602,-65.918,-40.527,-37.109,-180.176
1687767608.336,375.488,-62.012,-41.016,-20.020,-0.977
1687767608.340,292.969,-62.988,-41.016,-20.508,41.992
1687767608.344,202.637,-65.430,-39.062,-40.527,-92.773
1687767608.348,163.086,-56.641,-41.016,-52.246,-123.047
1687767608.352,157.227,-57.617,-38.574,-46.387,-3.906
1687767608.356,112.305,-67.383,-37.109,-36.621,37.598
1687767608.360,47.363,-63.477,-35.645,-38.086,3.906
1687767608.363,22.461,-61.523,-40.527,-45.410,-19.043
1687767608.367,6.836,-59.082,-43.457,-61.523,40.527
1687767608.371,-3.906,-62.500,-41.504,-66.406,-68.848
1687767608.375,4.883,-64.941,-41.992,-49.805,-198.730
1687767608.379,23.926,-65.918,-37.598,-40.527,-60.059
1687767608.395,26.855,-73.242,-41.992,-40.039,91.797
1687767608.399,-4.395,-75.684,-45.410,-58.594,-53.223
1687767608.403,-14.160,-76.660,-39.062,-62.012,-138.672
1687767608.407,-5.859,-83.496,-41.992,-51.758,-109.863
1687767608.411,-13.672,-74.219,-46.875,-52.246,-116.699
1687767608.415,-11.230,-67.871,-44.434,-61.523,-129.883
1687767608.419,8.301,-79.590,-48.340,-74.219,-69.336
1687767608.422,53.223,-79.590,-49.316,-68.848,106.445
1687767608.426,96.680,-71.289,-48.340,-54.199,324.707
1687767608.430,152.344,-72.266,-47.852,-52.734,152.344
1687767608.434,236.328,-83.008,-43.945,-70.312,-118.652
1687767608.438,275.879,-81.543,-40.527,-87.402,-17.578
1687767608.425,251.953,-73.242,-39.551,-84.473,18.555
1687767608.429,229.004,-66.895,-30.762,-72.266,-187.500
1687767608.433,273.438,-73.242,-24.414,-55.664,-217.285
1687767608.437,298.340,-75.684,-29.297,-58.594,-137.207
1687767608.441,328.125,-66.406,-30.762,-76.172,-131.836
1687767608.445,368.652,-64.941,-34.668,-75.684,-20.508
1687767608.449,365.234,-75.195,-31.250,-68.359,134.766
1687767608.452,371.094,-78.125,-27.832,-62.012,105.957
1687767608.456,372.559,-73.730,-36.133,-61.035,-88.867
1687767608.460,342.285,-71.289,-36.133,-65.430,-169.922
1687767608.464,307.129,-73.242,-35.156,-70.312,-190.918
1687767608.468,310.059,-68.359,-33.691,-61.523,63.965
1687767608.470,355.957,-60.547,-37.109,-61.523,139.648
1687767608.474,400.391,-73.730,-41.992,-69.824,-131.836
1687767608.478,410.156,-72.754,-46.387,-83.496,-207.520
1687767608.482,410.645,-66.895,-41.992,-92.285,-172.363
1687767608.486,440.918,-63.965,-35.645,-78.125,-111.328
1687767608.490,464.355,-58.105,-38.086,-68.359,-95.703
1687767608.494,469.238,-46.875,-38.086,-57.129,21.484
1687767608.497,451.660,-50.781,-40.527,-77.637,193.359
1687767608.501,421.875,-58.594,-43.457,-97.168,-95.215
1687767608.505,449.707,-62.988,-34.180,-74.707,-197.266
1687767608.509,467.773,-53.711,-34.668,-58.594,179.688
1687767608.513,468.750,-55.176,-40.039,-56.152,251.953
1687767608.515,420.898,-72.266,-36.621,-86.426,-101.074
1687767608.519,349.121,-68.359,-37.109,-106.934,-195.312
1687767608.523,333.008,-69.336,-39.551,-99.121,-83.008
1687767608.527,343.262,-71.777,-35.645,-87.891,-133.301
1687767608.531,371.094,-61.035,-31.738,-83.008,-179.688
1687767608.535,386.719,-57.129,-37.109,-95.215,-89.355
1687767608.539,339.844,-62.012,-40.039,-104.004,100.098
1687767608.542,306.641,-58.594,-37.598,-102.539,-53.223
1687767608.546,329.102,-64.453,-37.109,-101.074,-264.648
1687767608.550,310.547,-53.223,-39.062,-104.492,-195.801
1687767608.554,251.953,-32.227,-43.457,-106.445,65.430
1687767608.558,189.941,-56.641,-38.574,-105.957,11.230
1687767608.561,145.508,-70.312,-29.297,-117.676,-116.699
1687767608.565,190.918,-70.801,-26.367,-106.445,-80.078
1687767608.569,219.238,-64.941,-32.715,-92.285,-52.734
1687767608.573,216.309,-53.223,-30.273,-98.145,-76.660
1687767608.577,178.223,-55.664,-30.273,-112.305,-103.027
1687767608.581,67.871,-58.105,-28.809,-114.258,5.371
1687767608.585,-6.836,-59.082,-19.531,-91.309,153.320
1687767608.588,-62.012,-45.898,-24.414,-89.355,36.133
1687767608.592,-112.793,-49.805,-24.902,-103.516,-152.344
1687767608.596,-163.086,-50.781,-20.020,-117.188,-77.637
1687767608.600,-189.941,-51.270,-14.648,-108.398,55.176
1687767608.604,-176.758,-49.805,-11.230,-101.074,-72.266
1687767608.620,-233.398,-32.227,-11.230,-97.656,-174.805
1687767608.624,-332.520,-41.504,-10.742,-89.844,-87.891
1687767608.628,-416.016,-59.570,-8.301,-96.191,-25.391
1687767608.632,-483.398,-52.246,-8.301,-111.328,-182.129
1687767608.636,-516.602,-45.898,-13.672,-97.656,-174.316
1687767608.640,-529.785,-44.434,-18.555,-77.637,175.293
1687767608.644,-551.758,-44.434,-20.020,-67.871,186.035
1687767608.647,-570.801,-44.434,-18.066,-71.289,-178.711
1687767608.651,-577.637,-50.781,-11.719,-80.078,-182.617
1687767608.655,-566.406,-49.316,-13.672,-68.848,67.871
1687767608.659,-537.109,-55.176,-13.184,-61.035,-48.828
1687767608.663,-527.832,-58.594,-10.254,-74.219,-171.875
1687767608.665,-520.508,-57.617,-16.113,-68.848,-123.535
1687767608.669,-507.812,-70.801,-18.066,-72.754,-140.625
1687767608.673,-509.277,-58.105,-20.508,-86.914,-190.430
1687767608.677,-470.703,-52.734,-21.484,-78.125,-160.645
1687767608.681,-443.359,-62.988,-14.648,-59.570,-68.848
1687767608.685,-437.988,-65.918,-15.137,-64.453,49.805
1687767608.689,-439.941,-62.988,-17.090,-76.172,99.121
1687767608.692,-430.176,-58.105,-17.578,-74.219,-46.875
1687767608.696,-411.621,-55.176,-21.973,-76.172,-23.438
1687767608.700,-385.742,-66.895,-20.020,-46.387,312.500
1687767608.704,-392.090,-73.730,-21.973,-63.965,194.824
1687767608.708,-418.457,-74.219,-21.973,-98.633,-79.590
1687767608.710,-403.320,-71.777,-13.184,-79.590,-6.836
1687767608.714,-373.535,-69.336,-20.996,-62.500,87.402
1687767608.718,-347.656,-77.637,-26.367,-63.477,-27.344
1687767608.722,-343.262,-77.637,-19.043,-69.824,-102.051
1687767608.726,-342.285,-61.523,-17.090,-79.102,-75.684
1687767608.730,-311.523,-52.734,-11.719,-68.359,-50.781
1687767608.734,-268.066,-54.688,-8.301,-56.641,-44.434
1687767608.737,-241.699,-63.477,-15.137,-53.711,-71.777
1687767608.741,-239.258,-62.988,-22.949,-50.781,157.715
1687767608.745,-228.516,-62.012,-21.973,-83.496,127.930
1687767608.749,-204.102,-65.430,-16.602,-105.469,-225.098
1687767608.753,-186.523,-62.500,-25.391,-89.844,-150.879
1687767608.755,-160.645,-60.059,-26.367,-83.008,2.930
1687767608.759,-148.926,-62.500,-16.113,-81.543,-86.914
1687767608.763,-162.598,-75.684,-11.230,-74.707,-159.180
1687767608.767,-145.996,-79.102,-18.066,-89.844,-179.688
1687767608.771,-119.629,-60.547,-24.414,-101.562,-136.719
1687767608.775,-119.141,-53.223,-17.090,-63.965,-101.562
1687767608.779,-128.906,-62.500,-11.719,-54.688,-104.492
1687767608.782,-117.676,-74.707,-14.648,-83.984,-13.672
1687767608.786,-98.633,-68.359,-10.742,-80.078,184.570
1687767608.790,-66.895,-66.406,-5.859,-56.152,111.328
1687767608.794,-47.363,-64.941,-9.277,-48.340,-41.016
1687767608.798,-34.668,-51.758,-10.254,-81.543,100.586
1687767608.801,-17.578,-54.199,-13.672,-86.426,198.730
1687767608.805,-44.434,-53.223,-10.254,-85.449,-64.453
1687767608.809,-12.207,-53.711,-5.371,-74.707,-118.164
1687767608.813,57.129,-48.340,-11.719,-89.844,-18.066
1687767608.817,46.875,-42.969,-14.648,-114.258,-44.922
1687767608.821,39.551,-49.316,-4.883,-96.680,-11.719
1687767608.825,55.176,-55.176,4.883,-88.867,-49.316
1687767608.828,67.871,-51.270,-7.812,-74.707,64.453
1687767608.832,80.566,-48.828,-17.090,-60.547,76.660
1687767608.836,91.797,-57.129,-7.812,-62.012,-108.887
1687767608.840,62.988,-46.387,-16.113,-97.656,-117.676
1687767608.844,36.133,-50.781,-15.137,-83.984,-111.816
1687767608.847,44.434,-59.570,-15.137,-33.691,-158.203
1687767608.851,59.082,-56.152,-19.531,-44.434,-196.777
1687767608.855,63.477,-68.359,-10.254,-60.547,-116.211
1687767608.859,41.992,-62.500,-26.855,-52.246,-44.434
1687767608.863,18.066,-60.059,-33.691,-32.715,-134.277
1687767608.867,39.551,-66.895,-22.461,-32.715,-135.742
1687767608.871,81.055,-62.988,-21.973,-27.344,9.766
1687767608.874,85.449,-61.035,-28.320,-20.020,333.008
1687767608.878,97.168,-59.082,-31.738,-33.203,128.418
1687767608.882,101.074,-56.152,-20.508,-27.832,-141.113
1687767608.886,83.496,-63.965,-16.113,-14.160,-7.812
1687767608.890,83.008,-69.336,-25.879,-8.789,-93.750
1687767608.891,83.008,-64.941,-28.320,3.906,-197.266
1687767608.895,62.500,-68.359,-21.973,4.883,-100.586
1687767608.899,32.715,-66.895,-24.414,0.977,97.656
1687767608.903,2.441,-59.570,-27.832,17.090,14.160
1687767608.907,-1.953,-62.012,-24.414,30.273,-146.484
1687767608.911,-17.578,-63.477,-24.414,41.504,-100.098
1687767608.915,-58.105,-64.941,-28.320,48.828,188.477
1687767608.918,-106.445,-64.941,-30.273,45.410,364.258
1687767608.922,-153.320,-64.941,-34.180,31.738,-15.137
1687767608.926,-175.293,-63.965,-34.180,41.016,-198.730
1687767608.930,-205.566,-67.871,-39.062,51.758,-131.836
1687767608.934,-245.117,-70.312,-40.039,40.039,-177.734
1687767608.935,-268.555,-65.918,-29.297,41.504,-197.754
1687767608.939,-291.992,-56.641,-28.809,39.551,-143.555
1687767608.943,-280.762,-64.453,-35.156,50.293,-82.031
1687767608.947,-261.719,-66.895,-35.645,67.383,-85.938
1687767608.951,-265.137,-57.617,-32.715,67.383,-36.133
1687767608.955,-269.531,-55.664,-27.344,65.430,-23.926
1687767608.959,-270.508,-54.688,-27.832,71.289,206.055
1687767608.962,-243.164,-49.805,-35.156,73.730,72.266
1687767608.966,-207.520,-44.922,-30.273,78.125,-145.996
1687767608.970,-200.195,-56.641,-26.855,88.867,-47.852
1687767608.974,-213.867,-60.547,-25.391,82.520,-48.828
1687767608.978,-221.680,-55.176,-28.320,74.219,-126.465
1687767608.995,-204.102,-58.594,-39.062,84.473,-185.059
1687767608.999,-194.824,-50.293,-43.457,91.797,14.160
1687767609.003,-185.059,-64.941,-48.340,97.168,77.148
1687767609.007,-190.918,-74.707,-53.711,83.008,-150.391
1687767609.011,-200.195,-64.453,-53.223,74.219,-157.715
1687767609.015,-184.082,-63.965,-51.270,79.102,22.949
1687767609.019,-156.250,-68.848,-45.410,91.797,73.242
1687767609.022,-150.879,-69.824,-39.551,92.773,23.926
1687767609.026,-168.945,-65.430,-41.992,81.055,9.277
1687767609.030,-195.801,-70.801,-42.969,88.379,134.277
1687767609.034,-185.059,-72.754,-41.504,90.820,131.348
1687767609.038,-153.809,-61.523,-41.016,78.125,-67.871
1687767609.040,-149.902,-55.176,-42.480,75.195,-94.238
1687767609.044,-154.297,-55.664,-44.434,71.777,-94.727
1687767609.048,-160.156,-53.711,-47.363,51.270,-177.246
1687767609.052,-160.645,-59.570,-57.129,38.574,-181.641
1687767609.056,-138.672,-67.383,-60.059,46.387,-104.980
1687767609.060,-126.953,-62.500,-57.617,51.270,-3.906
1687767609.064,-146.484,-67.383,-61.035,38.086,19.043
1687767609.067,-149.902,-70.312,-59.570,17.578,-152.344
1687767609.071,-144.043,-65.918,-58.594,16.113,-62.988
1687767609.075,-135.254,-74.219,-60.547,44.922,267.090
1687767609.079,-111.328,-67.383,-50.293,53.223,129.395
1687767609.083,-117.188,-64.941,-49.316,32.715,-128.418
1687767609.085,-135.254,-66.406,-53.711,24.902,4.883
1687767609.089,-134.766,-51.270,-47.852,33.691,171.875
1687767609.093,-118.652,-45.898,-48.828,33.203,-108.398
1687767609.097,-100.098,-46.875,-50.781,31.250,-254.395
1687767609.101,-98.633,-53.223,-46.875,25.391,-126.465
1687767609.105,-112.305,-48.828,-48.828,7.324,-41.504
1687767609.109,-99.609,-34.668,-46.387,0.000,-102.051
1687767609.112,-74.219,-36.133,-41.504,7.324,-47.852
1687767609.116,-58.594,-40.039,-40.039,22.461,143.066
1687767609.120,-50.781,-41.504,-39.062,12.207,69.336
1687767609.124,-75.684,-55.664,-45.410,-20.508,-142.578
1687767609.128,-90.820,-62.988,-46.875,-24.902,-100.098
1687767609.130,-73.242,-47.363,-45.898,-6.348,120.605
1687767609.134,-52.734,-36.133,-50.293,2.441,5.371
1687767609.138,-53.223,-41.992,-55.664,-2.930,-123.535
1687767609.142,-70.801,-45.898,-51.270,-17.578,-70.801
1687767609.146,-81.055,-46.875,-43.457,-19.043,-146.484
1687767609.150,-62.012,-52.734,-43.457,-16.113,-162.109
1687767609.154,-33.203,-57.129,-46.387,-15.137,-66.895
1687767609.157,-32.227,-56.152,-41.504,-8.789,16.113
1687767609.161,-53.711,-57.129,-40.527,-17.090,177.734
1687767609.165,-66.895,-62.012,-39.062,-36.621,16.602
1687767609.169,-52.246,-61.523,-31.738,-29.785,-159.668
1687767609.173,-31.250,-61.035,-29.785,-5.371,-20.996
1687767609.176,-32.715,-65.430,-28.809,-14.648,11.719
1687767609.180,-49.805,-64.941,-29.297,-28.809,-53.223
1687767609.184,-56.641,-55.664,-24.902,-20.996,-68.848
1687767609.188,-44.434,-52.246,-21.484,-18.555,-55.664
1687767609.192,-25.391,-52.246,-22.461,-13.672,-54.688
1687767609.196,-20.508,-54.688,-26.855,-20.996,-66.895
1687767609.200,-33.203,-60.059,-27.832,-36.133,-85.449
1687767609.203,-48.828,-60.547,-26.855,-46.387,111.816
1687767609.207,-49.316,-58.594,-27.344,-52.246,125.977
1687767609.211,-32.715,-58.594,-32.227,-54.199,-84.473
1687767609.215,-21.973,-61.035,-42.480,-55.176,-90.332
1687767609.219,-21.973,-59.082,-39.062,-50.293,-116.699
1687767609.220,-33.691,-57.617,-35.156,-59.570,-175.293
1687767609.224,-31.250,-59.082,-39.551,-63.965,-159.180
1687767609.228,-5.371,-52.734,-37.598,-56.641,-127.441
1687767609.232,1.953,-49.805,-33.203,-55.664,-71.289
1687767609.236,-30.762,-54.688,-36.621,-62.500,-56.152
1687767609.240,-56.641,-50.293,-40.039,-79.102,-83.984
1687767609.244,-45.898,-49.316,-39.551,-78.125,33.691
1687767609.247,-26.367,-46.387,-38.086,-59.082,287.109
1687767609.251,-13.672,-44.922,-34.668,-66.895,96.680
1687767609.255,-20.996,-47.363,-31.250,-92.285,-156.738
1687767609.259,-44.434,-45.410,-37.109,-101.074,3.906
1687767609.263,-48.340,-46.875,-42.969,-108.887,-13.184
1687767609.265,-28.320,-41.504,-38.574,-104.980,-157.715
1687767609.269,-12.207,-36.621,-38.086,-99.609,-129.883
1687767609.273,-21.484,-41.504,-45.410,-104.004,-60.547
1687767609.277,-33.203,-35.156,-46.387,-106.445,-143.066
1687767609.281,-33.203,-29.297,-45.898,-105.957,-159.180
1687767609.285,-23.926,-33.203,-41.504,-91.797,-59.082
1687767609.289,-14.160,-42.480,-42.969,-90.820,176.270
1687767609.292,-25.879,-44.434,-51.758,-106.934,218.750
1687767609.296,-57.129,-49.316,-48.828,-121.094,-156.250
1687767609.300,-84.961,-50.781,-47.363,-131.348,-221.680
1687767609.304,-68.848,-48.828,-49.805,-122.070,-24.902
1687767609.308,-37.109,-44.434,-45.410,-114.746,-93.262
1687767609.310,-29.785,-45.410,-41.992,-112.793,-164.062
1687767609.314,-49.316,-51.270,-45.410,-119.141,-114.746
1687767609.318,-63.477,-56.641,-53.223,-138.184,-75.684
1687767609.322,-42.480,-55.176,-49.316,-133.301,-114.258
1687767609.326,-23.926,-36.621,-43.945,-114.258,-107.422
1687767609.330,-16.113,-24.414,-46.875,-98.633,77.148
1687767609.334,-33.203,-36.133,-52.734,-102.539,147.949
1687767609.337,-54.199,-32.715,-52.734,-119.141,-39.551
1687767609.341,-44.922,-31.250,-48.828,-119.141,-149.902
1687767609.345,-31.250,-45.898,-47.852,-98.145,44.922
1687767609.349,-27.344,-46.387,-45.410,-90.820,197.754
1687767609.353,-38.574,-42.969,-47.363,-106.445,-104.492
1687767609.370,-55.664,-47.363,-47.363,-116.211,-232.422
1687767609.374,-37.598,-44.922,-41.016,-103.516,16.113
1687767609.378,-2.930,-30.762,-38.574,-80.566,246.094
1687767609.382,0.488,-32.227,-46.387,-87.402,17.090
1687767609.386,-28.320,-45.898,-55.176,-103.027,-129.883
1687767609.390,-50.293,-41.992,-48.340,-104.980,35.156
1687767609.394,-40.039,-31.250,-38.086,-95.215,-12.207
1687767609.397,-9.277,-26.367,-36.621,-80.078,-178.223
1687767609.401,7.812,-36.621,-40.527,-62.988,-146.484
1687767609.405,-3.906,-42.969,-36.133,-62.988,107.422
1687767609.409,-25.879,-41.504,-36.621,-94.727,69.336
1687767609.413,-29.785,-40.039,-36.133,-104.492,-170.410
1687767609.404,-14.648,-34.180,-34.668,-85.938,-79.590
1687767609.408,-2.441,-32.715,-37.109,-74.219,85.938
1687767609.412,-10.254,-38.574,-38.086,-87.402,-23.926
1687767609.416,-31.250,-41.016,-41.016,-104.980,-112.793
1687767609.420,-35.645,-39.551,-45.410,-104.004,-83.008
1687767609.424,-13.184,-43.945,-41.016,-99.121,-29.297
1687767609.428,2.930,-44.922,-39.551,-83.496,1.953
1687767609.431,-3.418,-30.273,-42.969,-80.566,-7.324
1687767609.435,-15.137,-30.762,-40.527,-91.797,-41.992
1687767609.439,-16.602,-38.574,-41.504,-81.055,-19.531
1687767609.443,6.836,-27.344,-38.086,-68.359,0.000
1687767609.447,18.555,-27.344,-40.039,-63.965,-78.125
1687767609.460,10.254,-35.156,-40.527,-53.711,49.805
1687767609.464,-5.371,-31.250,-38.086,-69.336,144.043
1687767609.468,-14.648,-34.668,-41.504,-88.867,-102.051
1687767609.472,-3.418,-42.969,-46.387,-86.426,-163.574
1687767609.476,17.090,-41.504,-47.363,-75.684,73.242
1687767609.480,15.625,-36.133,-46.387,-66.895,363.770
1687767609.484,-5.859,-41.992,-49.805,-88.379,67.383
1687767609.487,-10.254,-41.504,-50.781,-105.469,-251.953
1687767609.491,4.883,-30.762,-49.805,-97.168,-14.160
1687767609.495,22.461,-33.203,-56.641,-90.820,47.852
1687767609.499,18.555,-45.898,-63.477,-93.262,-145.996
1687767609.503,3.906,-45.898,-58.105,-95.215,-135.742
1687767609.505,10.254,-41.504,-52.246,-95.703,-90.820
1687767609.509,23.926,-30.273,-49.805,-87.891,-200.684
1687767609.513,41.504,-33.691,-47.852,-76.172,-230.469
1687767609.517,48.340,-44.922,-46.387,-69.824,-89.355
1687767609.521,22.461,-41.992,-45.410,-61.523,-12.207
