timestamps,TP9,AF7,AF8,TP10,Right AUX
1687767828.850,-6.836,-31.738,-37.598,-39.062,-189.453
1687767828.854,-20.508,-31.738,-40.527,-48.828,-129.395
1687767828.858,-27.344,-28.809,-40.039,-48.828,-113.281
1687767828.862,-20.996,-30.273,-38.574,-41.016,-128.418
1687767828.866,-17.090,-35.156,-32.715,-42.480,-116.699
1687767828.870,-29.297,-26.367,-27.344,-49.805,104.492
1687767828.874,-39.062,-19.531,-24.414,-38.086,383.301
1687767828.877,-34.668,-22.461,-19.531,-32.227,42.969
1687767828.881,-32.715,-14.160,-22.461,-43.457,-222.168
1687767828.885,-37.109,-8.789,-57.129,-58.594,-79.590
1687767828.889,-44.434,2.930,-35.645,-46.875,-45.898
1687767828.893,-80.078,23.926,-19.531,-71.289,-222.168
1687767828.893,-80.078,23.926,-19.531,-71.289,-222.168
1687767828.910,-98.633,6.348,-21.973,-113.770,-228.027
1687767828.914,-89.844,0.000,-11.230,-119.629,-30.762
1687767828.918,-112.305,15.137,-48.828,-139.160,-51.758
1687767828.922,-156.250,36.133,-53.711,-197.266,-182.129
1687767828.926,-137.695,69.336,-40.039,-217.773,-127.441
1687767828.930,-117.188,29.297,-57.129,-209.961,17.578
1687767828.934,-105.957,20.020,-89.355,-232.422,47.363
1687767828.937,-74.219,34.668,-88.379,-237.305,8.789
1687767828.941,-71.289,21.484,-86.426,-236.816,-77.637
1687767828.945,-76.172,25.879,-98.145,-236.328,90.820
1687767828.949,-88.379,21.484,-110.352,-245.117,104.004
1687767828.953,-89.844,13.672,-117.676,-249.023,-102.051
1687767828.955,-68.848,3.418,-136.230,-243.164,-79.102
1687767828.959,-57.129,-13.672,-153.320,-233.398,-94.238
1687767828.963,-83.008,-5.371,-157.227,-241.211,-177.246
1687767828.967,-105.469,15.137,-169.434,-250.000,-224.609
1687767828.971,-76.660,51.758,-157.227,-214.355,-160.156
1687767828.975,-66.406,63.477,-133.789,-200.195,-58.594
1687767828.979,-70.801,52.734,-138.672,-202.148,-75.195
1687767828.982,-91.797,53.223,-146.484,-221.191,-80.566
1687767828.986,-118.652,57.129,-137.695,-232.422,-48.340
1687767828.990,-111.816,60.547,-133.789,-205.566,281.250
1687767828.994,-89.844,63.477,-125.488,-192.871,156.738
1687767828.998,-83.496,59.570,-105.469,-192.383,-85.938
1687767829.000,-84.961,46.387,-90.332,-178.223,71.289
1687767829.004,-80.078,43.457,-71.289,-166.504,81.055
1687767829.008,-63.965,41.992,-52.734,-160.156,-122.070
1687767829.012,-40.039,35.645,-41.016,-131.836,-130.371
1687767829.016,-11.719,38.086,-27.832,-103.516,-64.453
1687767829.020,-10.742,36.621,-17.090,-97.656,-79.102
1687767829.024,-4.395,27.832,-7.324,-87.402,-122.559
1687767829.027,26.855,17.090,-0.488,-76.172,-77.637
1687767829.031,33.203,3.418,8.789,-58.105,172.363
1687767829.035,40.039,-2.441,14.648,-44.922,127.441
1687767829.039,44.922,-9.766,14.648,-41.504,-69.824
1687767829.043,33.203,-13.672,20.508,-35.645,-41.992
1687767829.046,51.270,-9.766,31.250,-27.832,12.695
1687767829.050,77.148,-25.879,38.086,-15.625,-19.531
1687767829.054,86.914,-37.598,37.109,0.000,-45.410
1687767829.058,91.309,-33.203,41.016,-0.977,-51.758
1687767829.062,68.359,-47.363,46.387,-16.113,-36.621
1687767829.066,68.848,-47.363,43.457,-10.742,-10.254
1687767829.070,91.309,-40.039,42.480,3.906,-88.379
1687767829.073,90.332,-44.434,39.551,12.695,30.273
1687767829.077,83.008,-42.480,37.109,19.043,200.195
1687767829.081,73.730,-47.852,40.039,11.230,-44.922
1687767829.085,77.148,-53.223,37.598,12.695,-22.461
1687767829.089,88.867,-57.129,29.785,30.762,121.582
1687767829.091,97.656,-60.059,29.785,44.434,13.672
1687767829.095,98.633,-56.152,33.691,46.875,-67.871
1687767829.099,87.402,-57.129,32.227,40.039,12.695
1687767829.103,88.379,-59.570,29.785,35.645,98.145
1687767829.107,99.609,-58.105,23.926,42.480,56.152
1687767829.111,109.375,-56.152,18.555,54.199,21.484
1687767829.115,103.516,-55.176,16.602,52.246,4.883
1687767829.118,76.172,-60.547,15.137,47.363,174.316
1687767829.122,81.055,-58.594,18.555,52.246,199.219
1687767829.126,97.656,-56.152,15.625,46.387,-85.449
1687767829.130,93.262,-60.547,13.184,43.457,-100.098
1687767829.134,86.426,-54.199,13.184,43.457,-38.086
1687767829.135,72.266,-52.734,11.719,38.086,-44.434
1687767829.139,59.570,-60.547,14.648,32.715,-93.750
1687767829.143,62.500,-63.477,15.137,32.715,-113.770
1687767829.147,71.289,-62.500,12.207,34.668,-93.262
1687767829.151,63.477,-60.059,12.695,32.715,-43.945
1687767829.155,43.457,-55.176,14.160,25.391,18.066
1687767829.159,36.621,-48.340,11.230,27.832,90.820
1687767829.162,39.062,-48.340,7.812,34.180,203.613
1687767829.166,56.152,-49.316,7.324,26.855,3.906
1687767829.170,68.359,-49.316,4.883,19.043,-121.582
1687767829.174,47.852,-49.316,4.395,18.066,42.480
1687767829.178,33.691,-47.363,0.488,7.812,-5.859
1687767829.180,44.922,-46.875,-1.465,0.977,-196.289
1687767829.184,65.918,-44.922,-0.977,5.371,-135.742
1687767829.188,75.684,-43.457,-4.395,12.695,-1.953
1687767829.192,59.570,-43.457,-4.883,7.812,-49.805
1687767829.196,40.527,-42.480,-0.977,0.000,-180.664
1687767829.200,36.621,-42.480,0.000,0.000,-67.871
1687767829.204,41.992,-44.922,-0.488,8.301,286.133
1687767829.207,46.875,-46.387,0.977,6.836,115.723
1687767829.211,34.668,-43.945,-0.488,-12.207,-123.047
1687767829.215,15.625,-43.457,-8.301,-20.996,-70.801
1687767829.219,13.672,-42.969,-9.766,-2.930,115.723
1687767829.223,26.367,-42.480,-4.883,8.301,13.672
1687767829.225,36.133,-43.945,-15.137,0.000,-152.832
1687767829.229,34.180,-41.016,-20.996,-11.719,-175.781
1687767829.233,23.926,-38.086,-19.531,-25.391,-151.367
1687767829.237,24.902,-36.621,-20.996,-29.785,-112.793
1687767829.241,37.598,-34.668,-24.902,-26.367,-108.398
1687767829.245,52.246,-36.133,-26.855,-23.438,51.270
1687767829.249,50.781,-33.203,-22.949,-24.902,196.777
1687767829.252,37.598,-24.902,-21.973,-34.668,-60.547
1687767829.256,35.645,-28.320,-21.484,-36.621,-226.074
1687767829.260,45.898,-33.691,-19.531,-23.926,27.344
1687767829.264,50.781,-29.785,-21.484,-9.766,202.148
1687767829.268,42.480,-35.156,-24.902,-21.484,-171.387
1687767829.286,27.344,-40.527,-26.367,-31.738,-310.059
1687767829.290,26.367,-34.180,-25.879,-24.902,-66.406
1687767829.294,38.574,-26.855,-23.438,-17.090,-46.387
1687767829.298,51.758,-20.996,-21.484,-8.301,-191.895
1687767829.302,57.129,-17.578,-20.996,-11.230,-127.930
1687767829.306,43.945,-20.020,-23.438,-27.344,63.477
1687767829.310,37.598,-20.996,-24.414,-32.715,9.277
1687767829.313,46.387,-22.949,-24.414,-25.879,-139.160
1687767829.317,41.992,-34.180,-28.320,-21.973,-88.867
1687767829.321,25.391,-30.762,-29.297,-17.578,145.508
1687767829.325,14.648,-25.391,-28.320,-22.461,33.691
1687767829.329,16.602,-28.320,-27.344,-27.344,-196.289
1687767829.330,29.785,-23.438,-29.785,-27.832,-64.941
1687767829.334,49.805,-21.973,-26.855,-15.625,149.414
1687767829.338,55.176,-26.367,-19.531,-12.207,-40.527
1687767829.342,38.086,-26.855,-24.902,-31.250,-222.168
1687767829.346,22.461,-25.879,-30.762,-41.016,-119.629
1687767829.350,25.391,-26.855,-30.273,-36.133,14.648
1687767829.354,38.574,-27.832,-27.832,-33.203,21.484
1687767829.357,41.016,-23.926,-27.344,-37.109,-76.172
1687767829.361,27.832,-25.879,-27.344,-41.016,-37.109
1687767829.365,14.160,-30.273,-27.344,-38.086,192.871
1687767829.369,20.020,-28.809,-24.414,-36.621,37.598
1687767829.373,31.250,-28.320,-24.414,-32.715,-128.906
1687767829.376,32.227,-22.949,-30.273,-22.461,32.227
1687767829.380,14.160,-21.973,-29.785,-23.926,29.785
1687767829.384,-5.371,-20.996,-30.762,-39.062,-168.457
1687767829.388,-3.906,-24.414,-30.762,-45.410,-183.594
1687767829.392,5.371,-30.273,-32.227,-39.551,-12.207
1687767829.396,14.648,-33.203,-31.738,-40.527,35.645
1687767829.400,1.465,-35.645,-31.250,-43.945,-79.590
1687767829.403,-18.555,-35.645,-31.250,-51.758,-83.984
1687767829.407,-21.973,-37.598,-35.156,-49.316,164.551
1687767829.411,-22.949,-39.062,-42.480,-43.457,51.758
1687767829.415,-15.137,-34.668,-34.668,-39.551,-136.230
1687767829.419,-28.320,-31.738,-29.785,-39.551,-45.898
1687767829.420,-58.105,-23.926,-34.668,-50.781,-98.145
1687767829.424,-64.453,-22.461,-27.344,-51.758,-175.781
1687767829.428,-53.711,-26.855,-26.367,-48.340,-138.672
1687767829.432,-48.340,-25.391,-25.391,-38.086,-51.270
1687767829.436,-52.734,-22.949,-19.531,-35.156,11.230
1687767829.440,-69.824,-25.391,-20.996,-44.922,73.730
1687767829.444,-82.031,-27.832,-24.414,-53.223,18.066
1687767829.447,-78.613,-22.461,-19.531,-46.875,-40.039
1687767829.451,-64.453,-20.996,-18.066,-28.809,202.148
1687767829.455,-62.988,-21.484,-19.531,-36.621,41.504
1687767829.459,-83.496,-21.484,-20.996,-48.828,-108.887
1687767829.463,-90.332,-21.973,-23.926,-47.363,3.418
1687767829.465,-80.566,-20.020,-22.461,-33.203,-27.344
1687767829.469,-71.289,-26.855,-20.996,-30.762,-152.344
1687767829.473,-70.801,-29.785,-21.484,-35.156,-125.000
1687767829.477,-83.008,-24.902,-27.344,-37.109,-105.469
1687767829.481,-92.285,-29.785,-29.785,-38.086,-109.375
1687767829.485,-77.148,-30.273,-29.785,-36.621,-27.344
1687767829.489,-50.781,-20.996,-29.297,-32.227,49.805
1687767829.492,-39.062,-18.066,-25.879,-20.020,272.461
1687767829.496,-45.898,-23.438,-28.320,-28.320,239.258
1687767829.500,-49.805,-22.461,-25.391,-41.992,-156.250
1687767829.504,-41.992,-18.555,-25.879,-33.203,-267.090
1687767829.508,-33.203,-25.391,-32.227,-26.367,-216.309
1687767829.510,-28.320,-29.785,-31.250,-30.762,-198.730
1687767829.514,-43.945,-24.902,-33.691,-42.969,-207.520
1687767829.518,-54.688,-25.879,-33.691,-49.316,-196.289
1687767829.522,-46.875,-30.273,-28.809,-39.062,-152.344
1687767829.526,-31.250,-24.902,-31.738,-27.832,-143.555
1687767829.530,-39.551,-22.461,-40.039,-38.086,-145.020
1687767829.534,-56.152,-19.043,-39.551,-40.039,40.039
1687767829.537,-60.059,-10.254,-38.574,-40.039,249.512
1687767829.541,-54.688,-11.719,-37.598,-44.922,-0.488
1687767829.545,-37.598,-13.184,-36.621,-40.039,-149.902
1687767829.549,-25.391,-12.207,-38.086,-34.668,46.875
1687767829.553,-33.691,-16.602,-35.156,-35.645,167.969
1687767829.556,-45.410,-22.461,-37.598,-49.316,-99.609
1687767829.560,-41.016,-17.578,-38.574,-51.758,-218.262
1687767829.564,-19.043,-15.625,-35.156,-42.480,-125.000
1687767829.568,-7.324,-20.020,-35.645,-36.133,-142.578
1687767829.572,-12.695,-16.113,-38.086,-42.969,-137.207
1687767829.576,-20.508,-15.137,-35.156,-46.875,-32.715
1687767829.580,-31.738,-20.996,-30.273,-39.062,153.809
1687767829.583,-13.672,-23.438,-34.668,-36.133,24.902
1687767829.587,5.371,-17.090,-34.180,-31.250,-136.230
1687767829.591,-6.348,-20.996,-33.203,-32.227,-141.113
1687767829.595,-31.738,-32.715,-41.504,-44.922,-126.465
1687767829.599,-40.527,-24.414,-42.480,-47.852,-93.750
1687767829.600,-20.996,-13.184,-36.621,-43.945,-199.707
1687767829.604,-7.812,-20.508,-37.109,-35.645,-136.230
1687767829.608,-15.137,-18.066,-35.645,-30.273,27.832
1687767829.612,-36.133,-16.602,-38.574,-47.363,-101.074
1687767829.616,-47.852,-21.973,-38.086,-57.129,-208.496
1687767829.620,-33.691,-20.508,-34.180,-46.875,11.719
1687767829.624,-18.066,-18.555,-36.133,-40.527,226.074
1687767829.627,-26.367,-19.531,-37.109,-49.805,70.312
1687767829.631,-41.016,-23.926,-40.039,-57.129,-135.742
1687767829.635,-50.781,-30.273,-37.109,-55.664,-14.648
1687767829.639,-44.434,-32.227,-34.668,-48.828,164.551
1687767829.643,-25.879,-26.367,-32.227,-46.387,-62.988
1687767829.660,-27.344,-27.832,-37.109,-43.457,-122.559
1687767829.664,-49.805,-30.273,-43.945,-41.016,144.531
1687767829.668,-58.105,-28.320,-40.039,-49.805,96.680
1687767829.672,-41.504,-30.273,-38.574,-55.664,-190.918
1687767829.676,-32.227,-32.715,-40.039,-52.246,-127.441
1687767829.680,-30.762,-27.344,-42.969,-49.316,16.113
1687767829.684,-41.016,-21.973,-42.480,-56.641,-60.547
1687767829.687,-48.828,-22.949,-39.551,-63.477,-164.062
1687767829.691,-29.785,-24.902,-40.039,-55.664,-162.109
1687767829.695,-13.184,-26.855,-42.969,-36.621,110.840
1687767829.699,-4.395,-29.297,-45.898,-35.156,42.480
1687767829.703,-1.465,-32.715,-48.828,-53.711,-145.020
1687767829.706,-19.043,-35.645,-47.363,-65.430,-125.000
1687767829.710,-27.344,-37.598,-41.016,-55.664,-142.090
1687767829.714,-24.414,-35.156,-41.504,-41.992,-100.586
1687767829.718,-14.160,-32.715,-47.363,-39.062,0.000
1687767829.722,-15.625,-37.109,-46.875,-51.270,-20.020
1687767829.726,-31.250,-36.133,-44.922,-56.641,-15.137
1687767829.730,-27.832,-35.645,-46.387,-47.363,27.344
1687767829.733,-17.578,-37.109,-44.922,-44.434,-86.914
1687767829.737,-4.395,-31.738,-42.480,-41.016,-28.809
1687767829.741,-3.418,-32.715,-41.992,-34.668,191.406
1687767829.745,-8.789,-41.016,-41.992,-44.434,34.668
1687767829.749,0.977,-40.039,-41.992,-51.270,-88.867
1687767829.751,20.996,-30.762,-37.598,-36.621,31.738
1687767829.755,30.762,-35.645,-39.062,-30.273,27.832
1687767829.759,12.207,-44.922,-43.457,-42.969,-179.199
1687767829.763,-11.719,-42.480,-48.828,-50.781,-209.473
1687767829.767,-18.066,-43.945,-48.340,-59.570,-79.102
1687767829.771,-5.371,-41.504,-41.504,-53.223,-41.016
1687767829.775,6.348,-31.738,-41.992,-40.527,-46.387
1687767829.778,-0.488,-26.367,-44.434,-41.992,34.668
1687767829.782,-12.207,-25.391,-38.574,-40.039,273.926
1687767829.786,-9.277,-24.902,-36.621,-45.410,239.258
1687767829.790,-3.906,-26.367,-41.992,-52.246,-75.195
1687767829.794,3.418,-38.574,-44.922,-48.828,-137.207
1687767829.796,11.230,-36.621,-44.922,-43.945,-137.695
1687767829.800,1.953,-25.391,-38.086,-46.387,-154.297
1687767829.804,-7.812,-35.645,-37.598,-56.152,-162.109
1687767829.808,5.371,-42.480,-35.156,-49.805,-83.008
1687767829.812,26.367,-31.738,-32.227,-37.598,-68.848
1687767829.816,30.762,-26.367,-35.645,-33.691,19.531
1687767829.820,20.020,-35.645,-37.598,-38.574,52.734
1687767829.823,15.137,-37.598,-37.598,-35.156,69.824
1687767829.827,23.438,-30.762,-42.480,-25.879,386.719
1687767829.831,39.551,-22.949,-44.922,-28.809,109.375
1687767829.835,37.598,-18.066,-41.016,-40.527,-115.234
1687767829.839,21.973,-19.531,-42.480,-46.387,42.969
1687767829.841,10.254,-22.461,-42.969,-49.805,4.395
1687767829.845,12.695,-25.879,-39.062,-50.781,-122.070
1687767829.849,21.973,-28.809,-40.527,-37.598,-139.648
1687767829.853,30.273,-31.738,-40.527,-36.621,-106.445
1687767829.857,21.973,-39.062,-43.457,-48.340,-96.680
1687767829.861,9.277,-42.480,-48.340,-58.594,-59.570
1687767829.865,20.996,-35.156,-43.457,-54.199,-45.410
1687767829.868,45.410,-30.762,-38.574,-36.133,105.957
1687767829.872,49.805,-32.227,-45.898,-28.809,49.805
1687767829.876,36.621,-35.645,-52.246,-33.203,-181.641
1687767829.880,11.719,-34.180,-47.363,-42.480,-153.809
1687767829.884,-6.348,-27.832,-46.387,-41.504,-47.363
1687767829.886,-7.812,-23.926,-50.293,-39.551,-91.309
1687767829.890,-9.766,-21.484,-49.316,-41.016,-133.789
1687767829.894,-33.203,-24.414,-45.898,-47.363,-153.809
1687767829.898,-68.359,-30.273,-47.363,-60.059,-191.895
1687767829.902,-74.707,-29.785,-52.734,-58.105,-211.426
1687767829.906,-55.176,-27.344,-48.340,-44.922,-86.426
1687767829.910,-53.223,-32.227,-48.340,-47.852,125.488
1687767829.913,-68.359,-30.762,-49.805,-50.293,277.344
1687767829.917,-82.520,-31.738,-49.805,-62.012,0.488
1687767829.921,-82.520,-35.156,-51.270,-60.059,-119.141
1687767829.925,-75.684,-33.203,-52.246,-49.805,132.324
1687767829.929,-73.730,-39.062,-54.199,-44.434,67.383
1687767829.932,-80.566,-41.992,-53.223,-47.363,-81.543
1687767829.936,-90.332,-43.457,-47.852,-59.570,-70.801
1687767829.940,-98.633,-45.410,-45.410,-62.988,-6.348
1687767829.944,-82.031,-41.016,-41.992,-51.270,-20.020
1687767829.948,-56.641,-35.156,-43.457,-42.969,-69.336
1687767829.952,-61.035,-37.598,-46.875,-48.340,24.902
1687767829.956,-62.988,-31.738,-50.781,-45.898,170.898
1687767829.959,-55.176,-26.855,-53.711,-51.270,-4.395
1687767829.963,-51.758,-28.320,-48.340,-54.199,-181.641
1687767829.967,-50.293,-32.227,-48.828,-37.598,-86.914
1687767829.971,-53.223,-38.574,-45.410,-39.062,-62.500
1687767829.975,-73.242,-28.320,-35.645,-44.434,-91.797
1687767830.008,-84.473,-21.973,-36.621,-37.598,-90.332
1687767830.012,-79.590,-27.832,-37.598,-34.180,-141.113
1687767830.016,-71.289,-35.645,-36.133,-42.969,-46.875
1687767830.020,-66.895,-35.645,-38.574,-46.875,-42.480
1687767830.024,-79.590,-44.434,-41.016,-54.199,-155.762
1687767830.028,-85.449,-57.129,-43.945,-65.430,37.598
1687767830.032,-68.359,-46.875,-41.016,-52.246,305.176
1687767830.035,-48.340,-37.598,-37.109,-41.504,83.496
1687767830.039,-43.945,-37.598,-39.551,-46.875,-112.793
1687767830.043,-66.895,-40.039,-38.574,-59.570,20.996
1687767830.047,-93.750,-44.434,-40.039,-70.801,92.773
1687767830.051,-95.215,-40.039,-41.992,-66.895,-36.621
1687767830.042,-80.566,-32.715,-38.574,-59.570,-136.230
1687767830.046,-74.707,-33.203,-38.086,-57.129,34.668
1687767830.050,-82.031,-35.645,-42.969,-58.594,90.820
1687767830.054,-85.938,-28.320,-41.016,-63.965,-54.688
1687767830.058,-69.824,-22.461,-34.668,-59.082,-71.777
1687767830.062,-47.852,-25.879,-36.621,-47.852,-3.906
1687767830.066,-51.270,-30.273,-43.457,-48.828,5.371
1687767830.069,-62.012,-34.180,-43.457,-55.664,-51.758
1687767830.073,-70.801,-34.668,-39.551,-55.176,-28.320
1687767830.077,-73.730,-35.156,-35.156,-63.477,-8.789
1687767830.081,-48.828,-28.320,-28.320,-59.082,-103.027
1687767830.085,-40.527,-27.344,-25.879,-53.223,-93.262
1687767830.082,-59.082,-32.715,-29.297,-62.012,-58.594
1687767830.086,-81.543,-28.809,-35.645,-69.336,163.574
1687767830.090,-92.773,-31.250,-34.668,-76.172,119.141
1687767830.094,-73.242,-18.555,-30.273,-69.336,-137.207
1687767830.098,-72.754,-16.113,-30.273,-76.660,-93.750
1687767830.102,-88.867,-18.066,-24.902,-98.633,6.348
1687767830.106,-132.324,3.418,-28.809,-136.719,-55.664
1687767830.109,-159.180,20.508,-25.391,-165.527,-122.070
1687767830.113,-172.852,17.090,-24.902,-182.617,4.883
1687767830.117,-177.246,23.926,-37.598,-178.711,251.953
1687767830.121,-189.941,38.086,-34.180,-198.730,72.266
1687767830.125,-211.426,30.273,-34.668,-225.098,-208.496
1687767830.125,-214.355,27.344,-40.039,-242.676,-105.957
1687767830.129,-217.285,32.715,-48.828,-258.789,-28.809
1687767830.133,-201.660,37.598,-42.969,-255.371,-172.363
1687767830.137,-210.938,27.344,-41.992,-261.230,-145.508
1687767830.141,-223.633,23.926,-42.969,-258.301,-90.332
1687767830.145,-228.516,35.645,-44.434,-252.930,-42.969
1687767830.149,-210.449,29.785,-48.828,-254.883,-29.297
1687767830.152,-192.383,16.113,-51.270,-243.652,-88.379
1687767830.156,-217.773,21.484,-59.570,-234.375,117.188
1687767830.160,-227.051,21.484,-55.664,-244.141,95.215
1687767830.164,-210.449,20.508,-47.363,-241.211,-150.391
1687767830.168,-208.008,22.949,-48.340,-218.262,-163.574
1687767830.173,-208.008,9.277,-64.453,-220.703,16.113
1687767830.177,-185.059,4.395,-70.801,-217.285,-15.625
1687767830.181,-190.918,8.789,-61.523,-221.191,-145.996
1687767830.185,-202.148,8.301,-69.336,-229.492,-168.945
1687767830.189,-197.266,-0.488,-73.730,-217.285,-104.492
1687767830.193,-187.988,-1.953,-68.848,-205.078,8.789
1687767830.197,-191.406,-1.465,-74.707,-208.984,-3.906
1687767830.200,-222.168,-5.371,-74.707,-205.078,-2.930
1687767830.204,-235.352,-4.395,-70.312,-194.336,147.461
1687767830.208,-212.402,-6.348,-80.078,-193.359,-79.590
1687767830.212,-191.406,-10.742,-73.730,-187.500,-187.500
1687767830.216,-184.082,-8.789,-68.848,-170.898,34.668
1687767830.215,-183.105,-1.953,-74.219,-159.180,154.785
1687767830.219,-176.758,-0.488,-75.684,-159.668,-79.102
1687767830.223,-159.180,-9.766,-75.195,-163.086,-162.598
1687767830.227,-133.789,-15.137,-81.543,-158.691,69.824
1687767830.231,-125.488,-8.789,-89.844,-162.598,55.664
1687767830.235,-130.859,-9.277,-76.172,-170.898,-76.172
1687767830.239,-135.254,-13.672,-79.102,-177.734,-0.488
1687767830.242,-134.766,-14.160,-88.867,-161.133,180.176
1687767830.246,-118.652,-19.531,-90.820,-144.531,83.496
1687767830.250,-94.727,-23.926,-83.496,-148.926,-144.531
1687767830.254,-93.262,-22.461,-75.684,-140.137,-196.777
1687767830.258,-118.164,-17.090,-87.402,-152.832,-125.000
1687767830.261,-118.164,-23.926,-85.449,-163.086,-127.930
1687767830.265,-87.891,-24.414,-83.008,-140.137,-164.551
1687767830.269,-71.289,-19.043,-82.031,-125.977,-65.918
1687767830.273,-80.566,-22.461,-85.449,-131.348,-34.668
1687767830.277,-81.543,-22.949,-84.473,-130.371,-101.562
1687767830.281,-74.707,-18.555,-81.055,-131.348,-26.367
1687767830.285,-62.988,-13.672,-75.195,-122.559,91.309
1687767830.288,-59.082,-17.578,-71.777,-108.398,251.953
1687767830.292,-50.781,-22.461,-78.125,-118.164,74.219
1687767830.296,-45.410,-20.020,-76.172,-118.652,-129.395
1687767830.300,-57.617,-14.160,-68.359,-99.121,7.812
1687767830.304,-57.129,-14.160,-66.406,-102.539,25.879
1687767830.305,-59.570,-19.531,-68.359,-108.887,-123.047
1687767830.309,-58.594,-23.926,-60.547,-92.773,-110.840
1687767830.313,-61.523,-24.414,-60.059,-89.844,-45.898
1687767830.317,-81.543,-19.531,-63.965,-105.957,-105.469
1687767830.321,-71.289,-17.090,-60.059,-97.656,-139.648
1687767830.325,-51.270,-18.066,-55.176,-86.914,-62.500
1687767830.329,-67.383,-22.461,-57.617,-88.379,241.699
1687767830.332,-95.703,-23.438,-61.523,-95.215,263.672
1687767830.336,-114.746,-27.344,-56.641,-115.723,-113.770
1687767830.340,-106.934,-31.738,-57.129,-106.934,-163.086
1687767830.344,-98.145,-24.414,-55.176,-94.238,-84.961
1687767830.348,-114.258,-27.832,-55.664,-109.863,-134.766
1687767830.350,-117.188,-27.832,-62.988,-114.258,-157.715
1687767830.354,-113.770,-18.066,-55.664,-115.234,-167.969
1687767830.358,-109.863,-21.484,-49.805,-114.258,-139.160
1687767830.362,-99.609,-30.762,-50.781,-97.168,-162.598
1687767830.366,-82.031,-20.996,-50.781,-93.262,-147.949
1687767830.370,-88.379,-23.926,-52.734,-102.051,-45.410
1687767830.374,-110.352,-37.598,-55.176,-110.352,-12.695
1687767830.377,-86.426,-35.156,-57.129,-101.562,-97.656
1687767830.381,-55.176,-24.902,-57.617,-78.125,-178.711
1687767830.385,-69.336,-23.926,-64.941,-85.449,7.812
1687767830.389,-103.516,-37.598,-58.594,-102.539,388.672
1687767830.393,-117.676,-34.180,-56.641,-118.652,49.316
1687767830.410,-96.680,-24.902,-60.059,-108.398,-237.793
1687767830.414,-61.035,-29.297,-54.199,-84.473,-83.496
1687767830.418,-57.129,-33.691,-52.246,-77.148,-87.891
1687767830.422,-80.566,-35.156,-50.781,-92.773,-125.977
1687767830.426,-86.914,-34.180,-49.316,-91.797,-139.648
1687767830.430,-71.289,-33.203,-55.176,-73.242,-38.086
1687767830.434,-45.410,-37.109,-56.641,-56.641,26.367
1687767830.437,-37.109,-34.668,-54.199,-54.688,-81.543
1687767830.441,-25.879,-28.320,-60.547,-33.203,-107.910
1687767830.445,-0.488,-32.227,-57.129,10.254,262.207
1687767830.449,13.184,-32.715,-47.852,19.043,187.988
1687767830.453,36.621,-30.762,-52.734,18.555,-133.789
1687767830.455,60.059,-39.062,-58.105,39.551,-78.613
1687767830.459,63.477,-47.363,-62.012,58.105,-75.195
1687767830.463,52.734,-52.734,-60.547,64.453,-77.148
1687767830.467,50.293,-62.012,-56.641,66.895,-78.613
1687767830.471,73.730,-67.871,-49.805,80.078,-93.262
1687767830.475,88.867,-72.266,-48.340,99.121,-6.348
1687767830.479,91.309,-83.984,-44.434,106.934,34.668
1687767830.482,85.938,-99.609,-38.086,101.074,-67.383
1687767830.486,75.195,-107.422,-37.109,103.516,-100.098
1687767830.490,87.402,-112.305,-34.180,126.953,106.934
1687767830.494,110.840,-116.211,-33.203,133.789,-49.316
1687767830.498,119.629,-118.652,-33.203,127.441,-166.992
1687767830.501,104.004,-123.047,-30.762,120.605,63.965
1687767830.505,85.449,-127.441,-30.762,125.488,150.391
1687767830.509,97.168,-129.883,-27.832,124.512,-77.637
1687767830.513,119.141,-131.348,-26.367,119.629,-136.230
1687767830.517,113.281,-137.207,-27.344,118.164,-67.383
1687767830.521,92.285,-136.230,-27.832,108.887,-46.387
1687767830.525,91.309,-132.812,-33.203,107.422,-34.180
1687767830.528,96.191,-129.883,-30.762,107.422,-102.539
1687767830.532,100.098,-128.906,-25.879,115.723,85.449
1687767830.536,98.633,-131.348,-28.809,111.328,39.062
1687767830.540,92.285,-129.395,-27.832,97.656,-201.660
1687767830.544,71.777,-120.117,-33.203,96.191,-153.809
1687767830.546,55.176,-113.281,-36.621,89.355,-86.426
1687767830.550,68.848,-110.352,-34.668,99.609,-96.680
1687767830.554,77.637,-106.934,-34.180,100.586,-78.125
1687767830.558,68.359,-101.562,-34.180,85.938,-85.938
1687767830.562,56.641,-91.309,-38.574,79.590,-92.773
1687767830.566,54.688,-92.773,-35.645,81.543,-93.750
1687767830.570,56.641,-93.750,-32.715,83.496,-99.609
1687767830.573,59.082,-89.355,-31.250,77.637,-15.625
1687767830.577,49.316,-87.891,-31.738,69.824,118.164
1687767830.581,23.926,-89.355,-34.180,54.688,-145.996
1687767830.585,10.742,-86.914,-32.715,46.387,-199.219
1687767830.589,22.461,-74.219,-32.227,54.688,25.391
1687767830.590,26.855,-71.289,-33.691,54.688,40.527
1687767830.594,19.531,-77.637,-32.227,40.527,-103.027
1687767830.598,3.418,-78.125,-30.762,28.320,-101.562
1687767830.602,1.953,-72.266,-34.180,24.902,-56.152
1687767830.606,18.066,-74.219,-38.574,33.203,-63.965
1687767830.610,23.926,-74.707,-39.062,36.621,-79.590
1687767830.614,13.184,-71.777,-42.969,20.996,-99.121
1687767830.617,-2.930,-72.266,-39.551,17.090,132.812
1687767830.621,-14.160,-68.359,-31.738,19.531,187.988
1687767830.625,0.000,-62.012,-30.762,20.508,-159.668
1687767830.629,15.137,-54.688,-30.762,20.020,-168.457
1687767830.633,3.418,-54.688,-26.855,6.348,-100.586
1687767830.635,-17.090,-56.641,-30.273,-8.301,-152.344
1687767830.639,-16.602,-52.734,-35.156,-16.113,-123.535
1687767830.643,-1.465,-54.199,-27.832,-14.160,-50.781
1687767830.647,5.371,-50.781,-25.879,-4.395,-36.621
1687767830.651,14.160,-40.527,-27.344,-1.465,-19.043
1687767830.655,2.441,-41.504,-28.320,-8.789,-0.977
1687767830.659,-4.883,-41.992,-28.320,-11.230,14.160
1687767830.662,4.395,-41.504,-23.438,-5.859,293.945
1687767830.666,4.395,-45.898,-23.438,-6.348,124.023
1687767830.670,-12.695,-50.781,-29.785,-8.301,-106.934
1687767830.674,-33.691,-51.758,-32.715,-8.301,172.852
1687767830.678,-39.062,-51.270,-32.227,-16.113,163.086
1687767830.680,-37.109,-56.641,-27.344,-19.531,-151.367
1687767830.684,-21.484,-50.293,-24.902,-11.230,-135.742
1687767830.688,-14.160,-42.969,-22.461,-7.812,-34.668
1687767830.692,-26.855,-39.551,-18.066,-21.484,-109.863
1687767830.696,-40.527,-41.992,-22.949,-31.250,-167.969
1687767830.700,-28.320,-47.852,-29.297,-32.715,-9.766
1687767830.704,-14.648,-49.316,-26.855,-21.484,244.141
1687767830.707,-18.555,-40.527,-23.438,-21.973,174.805
1687767830.711,-28.809,-33.691,-26.367,-41.992,-73.242
1687767830.715,-41.992,-34.180,-27.344,-49.805,-86.914
1687767830.719,-41.016,-26.855,-25.391,-37.109,71.777
1687767830.723,-30.273,-31.738,-26.855,-33.691,-2.441
1687767830.725,-26.855,-34.180,-25.879,-31.250,-143.555
1687767830.729,-31.250,-26.367,-20.020,-25.879,-81.055
1687767830.733,-35.156,-23.926,-20.020,-31.738,-27.832
1687767830.737,-36.621,-26.367,-22.461,-44.922,-117.676
1687767830.741,-27.832,-25.879,-21.973,-53.711,-210.938
1687767830.745,-23.438,-24.902,-23.926,-49.316,21.973
1687767830.749,-28.809,-33.203,-26.855,-41.016,221.680
1687767830.752,-21.484,-36.133,-24.414,-28.809,-77.148
1687767830.756,-21.973,-23.438,-25.391,-30.762,-314.453
1687767830.760,-41.016,-22.461,-32.227,-60.059,-82.031
1687767830.764,-36.133,-29.297,-39.062,-62.500,200.195
1687767830.768,-27.344,-29.785,-42.480,-67.383,-25.391
1687767830.785,-41.504,-32.715,-37.109,-83.008,-205.078
1687767830.789,-46.387,-30.273,-30.762,-75.195,-51.758
1687767830.793,-33.203,-31.250,-30.273,-66.895,-16.602
1687767830.797,-17.578,-30.273,-20.508,-50.293,-224.121
1687767830.801,-26.855,-24.902,-18.066,-43.945,-151.855
1687767830.805,-57.129,-32.227,-25.879,-56.641,96.680
1687767830.809,-68.359,-36.133,-24.414,-63.477,77.637
1687767830.812,-52.734,-35.156,-23.438,-61.035,-121.582
1687767830.816,-42.480,-43.457,-22.949,-51.758,-126.953
1687767830.820,-48.340,-41.992,-20.020,-51.758,179.199
1687767830.824,-57.617,-35.156,-19.531,-65.430,83.496
1687767830.828,-65.918,-33.691,-21.484,-73.242,-182.617
1687767830.830,-57.617,-29.785,-20.020,-58.594,-140.625
1687767830.834,-41.504,-25.879,-18.555,-50.781,-43.457
1687767830.838,-38.086,-21.484,-20.508,-56.152,-45.410
1687767830.842,-46.875,-28.320,-19.531,-56.152,-143.066
1687767830.846,-51.270,-37.109,-19.531,-58.105,-107.910
1687767830.850,-41.504,-22.949,-12.695,-53.223,44.922
1687767830.854,-34.180,-16.602,-11.719,-45.898,55.176
1687767830.857,-41.504,-25.391,-21.973,-49.805,-74.219
1687767830.861,-51.758,-19.531,-22.461,-55.664,-78.125
1687767830.865,-57.129,-13.184,-13.672,-56.152,133.301
1687767830.869,-44.434,-23.926,-11.230,-63.477,31.738
1687767830.873,-31.738,-27.344,-20.508,-66.895,-131.348
1687767830.875,-32.715,-21.484,-24.414,-62.012,13.184
1687767830.879,-38.086,-30.273,-16.602,-66.406,36.133
1687767830.883,-57.617,-27.344,-20.508,-83.496,-126.953
1687767830.887,-59.082,-24.902,-26.367,-85.449,-140.625
1687767830.891,-42.969,-27.832,-21.973,-66.406,73.730
1687767830.895,-31.250,-28.320,-20.020,-62.012,116.699
1687767830.899,-36.133,-27.832,-17.090,-73.242,-11.230
1687767830.902,-48.340,-26.367,-16.113,-76.660,-82.031
1687767830.906,-47.852,-25.879,-17.578,-72.266,105.957
1687767830.910,-36.621,-30.273,-15.137,-60.059,87.402
1687767830.914,-28.320,-31.738,-16.602,-57.617,-74.707
1687767830.918,-49.316,-27.344,-21.973,-69.824,-100.586
1687767830.920,-67.383,-30.762,-20.996,-83.008,-115.723
1687767830.924,-55.176,-31.250,-17.578,-81.055,-144.531
1687767830.928,-33.691,-29.297,-17.090,-69.336,-174.805
1687767830.932,-25.879,-25.879,-19.531,-65.430,-154.785
1687767830.936,-37.598,-24.902,-19.043,-70.312,-108.398
1687767830.940,-49.316,-26.367,-12.207,-68.359,-41.504
1687767830.944,-50.293,-28.320,-13.184,-63.477,-71.777
1687767830.947,-41.016,-27.344,-16.602,-62.012,10.742
1687767830.951,-24.902,-14.160,-9.277,-41.992,270.508
1687767830.955,-22.461,-17.090,-11.719,-45.898,49.805
1687767830.959,-42.969,-18.555,-18.066,-63.477,-99.121
1687767830.963,-42.969,-13.672,-14.160,-62.988,-1.953
1687767830.965,-17.090,-14.160,-12.207,-51.758,-92.285
1687767830.969,-7.812,-20.020,-10.742,-41.992,-90.332
1687767830.973,-25.391,-26.855,-10.742,-45.410,-15.137
1687767830.977,-47.363,-28.809,-10.742,-50.781,66.406
1687767830.981,-57.129,-23.926,-8.301,-54.688,49.316
1687767830.985,-41.992,-13.184,-16.602,-52.734,0.977
1687767830.989,-20.996,-9.277,-20.020,-41.504,-23.438
1687767830.992,-25.879,-9.277,-11.719,-32.227,164.062
1687767830.996,-36.133,-14.160,-6.836,-35.645,187.012
1687767831.000,-36.621,-17.578,-11.230,-52.246,-83.496
1687767831.004,-34.180,-11.719,-18.066,-65.430,-102.539
1687767831.008,-28.809,-14.160,-20.996,-52.246,14.648
1687767831.010,-33.691,-16.113,-21.973,-42.969,-81.055
1687767831.014,-41.504,-14.160,-14.648,-55.176,-218.262
1687767831.018,-45.410,-15.137,-10.742,-60.547,-201.172
1687767831.022,-48.340,-16.602,-15.625,-69.824,-139.160
1687767831.026,-41.992,-20.020,-15.625,-66.406,-110.352
1687767831.030,-40.527,-19.531,-10.254,-57.129,-49.805
1687767831.034,-64.941,-19.043,-11.719,-65.918,103.516
1687767831.037,-85.938,-24.414,-17.578,-67.383,172.363
1687767831.041,-76.172,-27.344,-17.578,-71.289,-103.516
1687767831.045,-53.223,-26.855,-15.137,-68.359,-239.746
1687767831.049,-49.805,-26.855,-12.695,-62.988,63.965
1687767831.053,-60.547,-25.391,-12.695,-61.523,192.871
1687767831.055,-67.383,-21.973,-19.043,-65.430,-111.816
1687767831.059,-59.570,-19.043,-20.996,-65.918,-147.949
1687767831.063,-47.852,-20.020,-22.949,-58.105,24.902
1687767831.067,-48.340,-22.949,-24.902,-56.641,-57.617
1687767831.071,-60.059,-18.066,-19.531,-65.918,-155.273
1687767831.075,-71.289,-14.648,-15.625,-80.078,-88.867
1687767831.079,-69.336,-18.066,-19.043,-67.871,151.367
1687767831.082,-60.547,-23.438,-24.414,-53.711,158.691
1687767831.086,-55.176,-26.855,-24.414,-58.594,-112.305
1687767831.090,-63.477,-21.484,-22.461,-60.059,-193.359
1687767831.094,-71.289,-19.531,-23.438,-61.035,-124.512
1687767831.098,-67.383,-27.344,-23.438,-59.570,-69.824
1687767831.101,-57.617,-30.273,-24.902,-55.664,-115.234
1687767831.105,-39.551,-26.855,-23.438,-48.340,-11.719
1687767831.109,-41.016,-23.926,-19.043,-48.340,54.688
1687767831.113,-55.664,-18.066,-19.043,-64.941,-91.797
1687767831.117,-50.293,-15.137,-18.555,-68.848,-156.250
1687767831.121,-41.992,-17.578,-14.648,-54.688,-77.637
1687767831.125,-51.270,-18.066,-16.602,-49.805,99.609
1687767831.128,-57.617,-17.090,-14.648,-60.547,-21.973
1687767831.132,-70.801,-20.020,-14.648,-73.242,-203.125
1687767831.136,-74.219,-22.461,-17.578,-72.754,-35.156
1687767831.140,-59.082,-23.438,-11.719,-64.453,114.746
1687767831.144,-46.875,-19.531,-11.230,-68.359,-92.773
1687767831.160,-49.805,-20.996,-19.043,-69.824,-145.996
1687767831.164,-63.965,-26.367,-21.973,-72.754,-7.324
1687767831.168,-71.289,-25.391,-20.020,-68.848,-40.039
1687767831.172,-62.500,-19.043,-20.020,-67.383,-120.605
1687767831.176,-54.199,-18.555,-20.996,-61.523,-134.277
1687767831.180,-52.734,-28.809,-22.949,-52.246,166.016
1687767831.184,-64.941,-38.086,-22.949,-71.777,204.590
1687767831.187,-76.660,-43.457,-24.902,-84.473,-125.488
1687767831.191,-66.406,-31.738,-21.973,-77.637,-212.402
1687767831.195,-49.805,-16.113,-16.113,-62.500,-22.949
1687767831.199,-42.480,-18.555,-16.602,-62.988,-37.598
1687767831.203,-52.246,-26.367,-15.137,-75.195,-166.016
1687767831.220,-65.918,-20.020,-13.184,-79.102,-175.781
1687767831.224,-62.500,-11.230,-11.719,-77.148,-150.879
1687767831.228,-46.387,-13.672,-13.184,-68.848,-138.184
1687767831.232,-42.969,-20.996,-18.555,-62.988,-162.598
1687767831.236,-56.152,-22.461,-22.949,-70.801,-138.184
1687767831.240,-68.848,-19.531,-22.461,-76.660,-61.035
1687767831.244,-66.406,-19.531,-21.484,-71.777,-46.875
1687767831.247,-44.922,-25.879,-17.578,-63.965,-10.254
1687767831.251,-40.039,-25.879,-16.602,-65.430,17.578
1687767831.255,-66.406,-24.414,-19.043,-67.871,174.805
1687767831.259,-81.055,-32.227,-19.043,-79.590,61.035
1687767831.263,-67.383,-37.598,-14.160,-85.938,-170.410
1687767831.250,-52.246,-32.715,-7.324,-72.266,-46.387
1687767831.254,-52.734,-26.855,-7.324,-76.660,4.395
1687767831.258,-61.035,-27.344,-9.277,-83.984,-160.645
1687767831.262,-67.871,-27.832,-9.766,-90.820,-155.273
1687767831.266,-70.801,-22.461,-13.672,-89.355,-105.957
1687767831.270,-62.988,-17.090,-15.137,-71.777,27.832
1687767831.274,-57.129,-26.855,-17.090,-64.453,83.984
1687767831.277,-67.871,-23.438,-18.066,-72.754,19.531
1687767831.281,-76.172,-17.090,-21.973,-84.961,68.848
1687767831.285,-74.219,-23.438,-24.414,-86.426,-105.469
1687767831.289,-69.336,-22.461,-24.414,-76.172,-236.328
1687767831.293,-69.824,-20.508,-24.414,-64.941,-147.949
1687767831.295,-71.289,-21.973,-23.926,-57.617,245.605
1687767831.299,-76.660,-24.414,-24.414,-61.523,227.051
1687767831.303,-77.637,-22.949,-20.020,-75.195,-168.457
1687767831.307,-76.172,-19.043,-20.020,-81.543,-103.027
1687767831.311,-74.707,-15.625,-21.973,-75.684,-20.996
1687767831.315,-82.520,-13.184,-24.902,-74.219,-24.902
1687767831.319,-97.656,-19.043,-28.809,-88.867,-17.578
1687767831.322,-97.656,-29.785,-24.902,-88.867,60.059
1687767831.326,-87.402,-32.715,-23.438,-72.754,202.637
1687767831.330,-79.102,-22.949,-22.949,-70.801,34.668
1687767831.334,-78.613,-18.066,-15.625,-80.078,-33.691
1687767831.338,-95.703,-29.297,-15.137,-82.520,76.660
1687767831.340,-100.098,-24.414,-11.230,-74.219,127.930
1687767831.344,-99.121,-10.254,-1.465,-78.125,-83.984
1687767831.348,-86.426,-4.883,-1.465,-69.336,-168.457
1687767831.352,-83.008,-4.395,-8.301,-68.359,-112.305
1687767831.356,-106.934,-13.672,-4.883,-92.773,-112.305
1687767831.360,-108.398,-0.488,-2.930,-100.098,-61.035
1687767831.364,-107.422,8.301,-2.930,-105.469,-84.961
1687767831.367,-103.516,14.648,8.301,-102.539,97.656
1687767831.371,-126.953,26.367,-7.324,-129.883,120.117
1687767831.375,-175.781,32.227,-9.277,-174.316,-115.234
1687767831.379,-207.520,30.762,2.441,-207.031,-146.484
1687767831.383,-213.867,35.156,0.488,-224.121,-124.023
1687767831.386,-209.961,38.086,-6.836,-226.562,-52.246
1687767831.390,-208.008,35.156,-13.184,-231.934,-62.500
1687767831.394,-220.703,34.180,-8.789,-227.539,-70.312
1687767831.398,-233.398,28.809,-15.625,-226.562,-36.133
1687767831.402,-228.516,19.531,-21.973,-229.004,-96.680
1687767831.406,-208.008,27.832,-23.926,-218.750,-74.707
1687767831.410,-191.895,24.902,-23.926,-201.660,8.789
1687767831.413,-190.430,10.254,-17.578,-183.594,205.078
1687767831.417,-192.383,12.695,-16.602,-173.828,-31.738
1687767831.421,-183.594,16.602,-20.020,-168.945,-181.641
1687767831.425,-160.645,15.137,-27.344,-154.297,47.852
1687767831.429,-142.090,15.137,-23.926,-135.254,39.551
1687767831.430,-136.230,10.254,-16.602,-125.488,-132.324
1687767831.434,-136.719,-2.441,-18.066,-118.164,-125.488
1687767831.438,-128.906,-9.766,-17.578,-103.027,-31.738
1687767831.442,-104.492,-16.602,-20.508,-87.402,-61.523
1687767831.446,-78.613,-23.926,-28.320,-84.473,-118.164
1687767831.450,-75.684,-27.832,-28.809,-77.148,0.488
1687767831.454,-90.820,-35.645,-32.715,-62.012,309.082
1687767831.457,-79.590,-34.668,-34.180,-58.105,296.387
1687767831.461,-55.664,-35.645,-24.902,-57.617,-103.027
1687767831.465,-45.410,-42.969,-26.855,-44.434,-118.652
1687767831.469,-45.898,-38.574,-30.762,-45.410,-45.410
1687767831.473,-51.270,-31.738,-22.461,-46.387,-145.020
1687767831.490,-51.270,-36.621,-17.578,-39.551,-204.102
1687767831.494,-37.598,-43.945,-20.508,-37.598,-151.855
1687767831.498,-26.855,-45.898,-25.879,-29.785,-38.086
1687767831.502,-28.320,-51.270,-27.832,-24.414,-69.824
1687767831.506,-42.480,-53.711,-25.879,-28.809,-135.742
1687767831.510,-53.711,-47.852,-19.531,-27.344,-39.551
1687767831.514,-39.551,-56.641,-19.043,-16.602,130.371
1687767831.517,-18.555,-56.152,-20.508,-8.301,74.707
1687767831.521,-4.883,-37.598,-18.066,-9.766,-162.598
1687767831.525,-10.742,-39.062,-17.090,-11.719,-80.078
1687767831.529,-29.297,-48.340,-16.602,-7.812,386.230
1687767831.533,-20.996,-49.805,-16.113,-1.953,170.898
1687767831.535,-2.441,-48.340,-6.348,4.395,-108.887
1687767831.539,-1.465,-41.992,12.695,4.883,-34.180
1687767831.543,-11.719,-41.992,14.648,-2.441,-79.102
1687767831.547,-20.996,-48.340,14.160,-4.395,-173.340
1687767831.551,-20.996,-50.293,14.160,-2.441,-185.547
1687767831.555,-11.719,-45.410,12.695,1.465,16.113
1687767831.559,0.000,-46.875,11.719,0.977,13.184
1687767831.562,-1.953,-54.199,12.207,-5.371,-88.867
1687767831.566,-21.484,-53.711,5.371,-18.066,-76.172
1687767831.570,-13.184,-51.758,-3.906,-16.113,178.711
1687767831.574,18.555,-52.734,0.488,-5.371,208.008
1687767831.578,25.879,-45.410,4.395,-16.113,-104.004
1687767831.580,5.371,-45.898,1.953,-29.297,-157.715
1687767831.584,-18.555,-47.363,-4.395,-33.203,-206.055
1687767831.588,-23.926,-39.062,-11.719,-30.762,-181.641
1687767831.592,-8.789,-41.504,-14.648,-29.785,-144.531
1687767831.596,-4.395,-53.223,-12.207,-29.297,-95.215
1687767831.600,-26.855,-54.199,-14.648,-33.203,33.203
1687767831.604,-41.016,-39.062,-20.020,-34.668,41.016
1687767831.607,-35.645,-35.645,-26.367,-36.133,-154.297
1687767831.611,-23.438,-43.457,-24.414,-34.668,-96.680
1687767831.615,-20.996,-41.992,-19.043,-26.855,181.152
1687767831.619,-32.715,-38.086,-24.414,-39.062,5.859
1687767831.623,-41.016,-40.527,-25.879,-56.641,-139.160
1687767831.625,-35.156,-45.410,-22.949,-54.688,30.762
1687767831.629,-28.320,-45.898,-22.461,-46.387,206.543
1687767831.633,-13.672,-41.016,-22.949,-44.922,-99.121
1687767831.637,-10.742,-40.039,-23.926,-41.992,-205.566
1687767831.641,-28.809,-38.574,-25.391,-53.711,-26.855
1687767831.645,-33.691,-39.062,-20.996,-65.918,8.789
1687767831.649,-20.020,-42.969,-22.949,-66.406,-41.992
1687767831.652,-11.719,-47.852,-26.855,-60.547,-87.891
1687767831.656,-12.207,-39.551,-26.367,-57.129,109.375
1687767831.660,-19.043,-30.273,-21.973,-59.570,58.105
1687767831.664,-28.809,-31.250,-22.949,-62.500,-207.520
1687767831.668,-20.020,-28.809,-25.879,-60.547,-172.363
1687767831.671,-5.371,-22.461,-21.973,-56.641,-24.414
1687767831.675,-3.418,-24.414,-25.391,-64.453,-91.797
1687767831.679,-17.090,-31.250,-25.391,-69.336,-211.914
1687767831.683,-37.109,-34.668,-20.020,-64.941,-160.645
1687767831.687,-35.156,-31.738,-20.508,-54.688,-50.781
1687767831.691,-10.254,-30.273,-23.438,-50.293,37.109
1687767831.695,-3.418,-29.785,-21.484,-48.828,60.547
1687767831.698,-25.391,-26.367,-21.484,-49.805,-8.301
1687767831.702,-35.645,-28.809,-21.973,-54.688,137.207
1687767831.706,-24.414,-29.297,-20.020,-62.012,-22.461
1687767831.710,-13.672,-24.414,-22.949,-52.246,-148.926
1687767831.714,-9.766,-29.785,-21.484,-47.852,9.277
1687767831.716,-5.371,-32.227,-18.555,-56.152,-5.371
1687767831.720,-5.371,-27.344,-27.344,-65.918,-159.668
1687767831.724,-9.277,-26.367,-31.738,-68.359,-145.996
1687767831.728,-10.742,-35.156,-33.203,-66.406,-2.441
1687767831.732,-13.184,-36.621,-33.203,-65.430,-19.043
1687767831.736,-21.484,-25.391,-31.250,-64.453,-136.230
1687767831.740,-33.691,-20.508,-32.715,-70.312,-132.812
1687767831.743,-31.250,-27.344,-31.250,-66.895,113.281
1687767831.747,-19.531,-24.902,-29.297,-51.270,41.504
1687767831.751,-16.602,-27.344,-37.109,-58.594,-176.270
1687767831.755,-23.926,-36.621,-39.062,-62.988,-121.094
1687767831.759,-33.203,-38.086,-29.785,-55.664,-66.895
1687767831.760,-29.297,-36.133,-25.391,-55.664,-103.516
1687767831.764,-19.531,-27.832,-31.738,-57.617,-167.969
1687767831.768,-15.625,-25.879,-41.504,-52.734,-174.316
1687767831.772,-21.484,-29.785,-35.156,-45.410,-128.418
1687767831.776,-40.527,-28.809,-28.809,-51.270,-97.168
1687767831.780,-45.410,-33.691,-32.715,-63.477,-62.988
1687767831.784,-26.855,-42.480,-34.180,-56.641,38.574
1687767831.787,-25.879,-48.340,-35.645,-38.086,326.172
1687767831.791,-30.273,-42.969,-34.180,-44.434,125.977
1687767831.795,-41.992,-36.133,-30.273,-55.664,-136.230
1687767831.799,-51.758,-39.062,-30.762,-48.828,33.691
1687767831.803,-39.551,-38.574,-31.250,-37.598,17.090
1687767831.805,-23.926,-25.879,-29.297,-38.574,-136.719
1687767831.809,-26.367,-25.879,-27.832,-42.480,-131.348
1687767831.813,-40.039,-29.297,-27.832,-50.781,-84.473
1687767831.817,-47.363,-25.391,-33.691,-52.246,-135.742
1687767831.821,-40.527,-23.926,-35.645,-45.898,-174.316
1687767831.825,-25.391,-18.555,-28.809,-35.156,-20.996
1687767831.829,-22.461,-20.020,-22.461,-31.738,332.520
1687767831.832,-28.320,-29.297,-23.438,-44.434,225.098
1687767831.836,-29.785,-34.668,-23.438,-52.246,-123.047
1687767831.840,-22.949,-30.762,-27.344,-40.039,-75.195
1687767831.844,-17.578,-24.902,-37.109,-31.250,9.766
1687767831.848,-25.391,-20.020,-38.086,-44.922,-73.242
1687767831.850,-37.598,-22.949,-32.227,-54.688,-110.352
1687767831.854,-48.340,-20.020,-30.273,-60.547,-89.844
1687767831.858,-41.504,-16.602,-29.297,-62.988,-55.664
1687767831.862,-23.926,-19.043,-24.414,-55.176,-64.453
1687767831.866,-21.973,-16.602,-22.949,-51.270,-78.613
1687767831.870,-38.086,-25.391,-28.320,-52.246,38.086
1687767831.874,-51.270,-32.227,-31.250,-54.688,147.461
1687767831.877,-41.504,-23.926,-32.227,-56.152,-37.109
1687767831.881,-25.391,-28.809,-34.668,-47.852,-182.129
1687767831.885,-24.902,-40.039,-37.598,-44.434,-42.969
1687767831.889,-38.574,-31.250,-35.156,-41.016,177.246
1687767831.893,-48.340,-17.090,-32.227,-45.410,37.598
1687767831.910,-41.016,-21.973,-38.574,-56.641,-166.016
1687767831.914,-17.090,-23.926,-39.062,-49.805,-36.621
1687767831.918,-1.465,-22.461,-31.250,-45.410,57.617
1687767831.922,-4.883,-23.438,-24.902,-54.688,-114.258
1687767831.926,-6.836,-21.484,-20.996,-48.340,-149.902
1687767831.930,-8.789,-30.273,-25.391,-44.434,29.297
1687767831.934,-4.883,-30.762,-27.832,-43.945,105.469
1687767831.937,-4.883,-19.043,-25.879,-40.527,-29.297
1687767831.941,-20.996,-17.578,-26.855,-44.434,-109.375
1687767831.945,-32.227,-23.438,-24.414,-44.922,85.938
1687767831.949,-27.344,-25.391,-26.367,-52.246,23.438
1687767831.953,-10.742,-23.438,-26.855,-56.641,-77.637
1687767831.955,2.930,-29.297,-24.902,-44.922,-18.066
1687767831.959,-6.348,-32.715,-24.902,-33.203,-0.488
1687767831.963,-26.367,-28.809,-22.949,-38.086,-122.559
1687767831.967,-31.738,-30.273,-23.926,-43.945,-229.980
1687767831.971,-14.160,-21.484,-23.438,-34.180,-174.316
1687767831.975,-10.254,-20.508,-25.879,-36.621,-41.504
1687767831.979,-16.602,-26.367,-25.391,-49.805,-36.621
1687767831.982,-14.648,-29.297,-27.832,-62.988,-153.809
1687767831.986,-20.508,-20.996,-27.832,-65.430,-84.473
1687767831.990,-22.461,-17.090,-25.879,-46.387,187.012
1687767831.994,-13.184,-29.297,-33.691,-48.828,84.473
1687767831.998,-10.742,-30.273,-38.574,-62.500,-78.613
1687767832.001,-20.020,-22.949,-34.668,-62.988,-1.465
1687767832.005,-30.762,-27.344,-32.227,-65.430,-16.602
1687767832.009,-19.043,-27.344,-26.855,-60.059,-85.938
1687767832.013,-3.418,-20.508,-24.414,-49.316,-81.055
1687767832.017,-4.883,-28.809,-27.832,-43.457,56.152
1687767832.021,-19.043,-28.320,-27.344,-43.457,28.320
1687767832.025,-41.016,-17.090,-26.855,-55.664,-116.699
1687767832.028,-35.156,-17.578,-25.879,-53.223,-49.805
1687767832.032,-9.766,-20.020,-28.809,-40.039,134.277
1687767832.036,-9.277,-20.996,-31.250,-44.922,108.887
1687767832.040,-23.438,-17.578,-30.273,-57.617,-100.586
1687767832.044,-32.227,-15.137,-32.715,-62.012,-96.191
1687767832.045,-27.344,-18.066,-31.738,-55.664,-61.035
1687767832.049,-9.766,-17.090,-32.715,-44.434,-104.980
1687767832.053,-7.812,-19.043,-38.574,-49.316,-93.262
1687767832.057,-27.832,-21.484,-33.691,-61.523,-67.383
1687767832.061,-49.316,-23.926,-30.762,-76.660,34.668
1687767832.065,-41.504,-23.438,-32.227,-73.242,47.363
1687767832.069,-19.043,-22.949,-29.297,-56.641,-4.395
1687767832.072,-6.836,-28.809,-30.273,-57.129,84.961
1687767832.076,-14.160,-29.297,-32.715,-59.082,275.879
1687767832.080,-26.367,-28.809,-32.227,-60.547,68.848
1687767832.084,-23.926,-34.668,-32.227,-61.035,-174.805
1687767832.088,-13.184,-36.621,-34.668,-52.734,-55.176
1687767832.090,-12.207,-23.438,-33.203,-53.711,9.277
1687767832.094,-29.297,-13.672,-31.250,-60.547,-127.930
1687767832.098,-44.922,-15.625,-29.785,-56.152,-156.250
1687767832.102,-56.641,-26.367,-34.668,-63.477,-85.938
1687767832.106,-49.316,-39.062,-37.109,-62.988,-159.668
1687767832.110,-28.809,-44.434,-32.227,-53.223,-139.160
1687767832.114,-25.879,-43.945,-31.250,-61.035,15.137
1687767832.117,-37.598,-34.180,-30.762,-57.617,255.371
1687767832.121,-40.039,-26.367,-32.227,-54.688,239.746
1687767832.125,-22.949,-30.762,-35.156,-63.477,-151.367
1687767832.129,-0.488,-30.762,-38.086,-57.129,-224.121
1687767832.133,5.859,-22.949,-35.645,-54.688,-145.996
1687767832.135,-4.395,-25.879,-32.715,-55.176,-187.988
1687767832.139,-7.812,-21.973,-30.273,-50.781,-185.059
1687767832.143,4.395,-22.461,-31.250,-46.875,-155.762
1687767832.147,16.113,-23.438,-31.250,-43.945,-146.484
1687767832.151,13.672,-20.996,-29.297,-42.969,-124.512
1687767832.155,6.348,-20.508,-35.156,-48.828,-61.035
1687767832.159,-1.953,-21.484,-35.645,-51.270,43.945
1687767832.162,-2.930,-26.855,-34.180,-42.480,228.516
1687767832.166,1.953,-23.926,-35.156,-39.551,14.160
1687767832.170,2.441,-23.926,-33.203,-50.293,-127.930
1687767832.174,-5.859,-15.137,-32.227,-53.223,80.078
1687767832.178,-14.160,-12.207,-29.297,-45.410,126.953
1687767832.180,-2.441,-16.602,-23.926,-47.852,-149.414
1687767832.184,19.531,-18.555,-26.855,-48.340,-210.449
1687767832.188,15.625,-23.438,-29.785,-44.434,-88.379
1687767832.192,-11.719,-27.344,-32.715,-45.898,-94.238
1687767832.196,-31.738,-25.391,-30.273,-53.223,-103.027
1687767832.200,-24.414,-24.414,-26.367,-52.734,11.230
1687767832.204,-8.301,-27.344,-27.344,-34.180,238.281
1687767832.207,5.859,-24.902,-28.809,-26.855,41.504
1687767832.211,3.906,-19.531,-28.320,-37.109,-267.090
1687767832.215,-10.742,-18.066,-29.297,-48.340,-176.758
1687767832.219,-10.742,-25.391,-24.414,-46.387,-102.051
1687767832.223,6.348,-26.855,-22.461,-37.598,-91.309
1687767832.226,14.160,-20.020,-23.926,-31.738,-141.602
1687767832.230,0.488,-19.531,-22.949,-37.109,-175.781
1687767832.234,-14.160,-9.277,-20.996,-43.945,-62.988
1687767832.238,-14.648,-10.254,-24.414,-38.086,-157.227
1687767832.242,-0.488,-14.160,-31.738,-35.645,-174.316
1687767832.246,10.742,-6.836,-35.156,-41.992,53.711
1687767832.250,-3.906,-9.277,-38.574,-45.898,199.707
1687767832.253,-12.207,-20.508,-43.945,-60.059,-37.598
1687767832.257,-4.883,-20.996,-43.457,-61.035,-176.270
1687767832.261,2.930,-17.090,-41.504,-48.828,-27.344
1687767832.265,3.906,-16.602,-42.969,-46.387,92.285
1687767832.269,-16.113,-14.160,-41.992,-50.781,-85.449
1687767832.271,-41.016,-15.625,-36.621,-60.059,-189.941
1687767832.275,-42.969,-24.414,-33.203,-56.641,25.391
1687767832.279,-24.902,-27.832,-34.180,-46.387,52.246
1687767832.283,-9.766,-20.508,-35.156,-53.711,-108.887
1687767832.287,-6.836,-18.555,-35.156,-52.734,-109.863
1687767832.291,-22.949,-22.949,-38.086,-53.711,70.312
1687767832.295,-29.785,-25.879,-39.062,-64.453,142.090
1687767832.298,-15.625,-28.320,-39.551,-61.035,-67.383
1687767832.302,-5.371,-31.250,-41.504,-53.223,-119.629
1687767832.306,-20.020,-33.203,-41.992,-54.199,84.961
1687767832.310,-35.156,-43.945,-39.062,-64.453,0.000
1687767832.314,-26.367,-47.852,-41.016,-64.453,-141.602
1687767832.330,-14.648,-41.504,-43.457,-48.828,-137.207
1687767832.334,-8.301,-40.039,-40.039,-45.410,-175.781
1687767832.338,-1.953,-29.785,-37.109,-48.828,-108.887
1687767832.342,-5.859,-19.531,-31.738,-53.223,-93.750
1687767832.346,-13.672,-25.391,-31.738,-57.129,-50.781
1687767832.350,-3.418,-31.250,-35.645,-55.176,129.883
1687767832.354,5.859,-31.738,-39.062,-61.523,57.617
1687767832.357,2.930,-30.273,-45.898,-72.266,-98.145
1687767832.361,-7.812,-31.738,-46.875,-67.871,-62.988
1687767832.365,-22.949,-35.645,-49.805,-61.523,122.070
1687767832.369,-13.184,-35.156,-50.781,-62.988,33.203
1687767832.373,5.859,-28.320,-47.852,-55.664,-90.820
1687767832.375,-0.977,-24.414,-51.270,-43.945,29.785
1687767832.379,-24.902,-29.785,-52.734,-55.664,100.098
1687767832.383,-41.016,-33.203,-49.805,-72.266,-101.074
1687767832.387,-43.457,-36.621,-46.387,-72.266,-122.559
1687767832.391,-23.438,-35.156,-40.039,-60.059,-18.555
1687767832.395,-15.137,-32.715,-39.551,-52.734,-40.527
1687767832.399,-27.344,-35.645,-42.969,-58.594,-97.168
1687767832.402,-40.527,-37.598,-44.922,-72.266,-88.867
1687767832.406,-41.992,-39.551,-45.898,-61.523,174.316
1687767832.410,-23.926,-31.250,-45.898,-43.457,246.094
1687767832.414,-14.648,-28.809,-47.852,-54.199,-21.973
1687767832.418,-22.461,-34.180,-46.387,-62.500,-34.180
1687767832.420,-37.109,-33.691,-43.457,-65.918,-42.969
1687767832.424,-36.133,-34.180,-42.969,-67.383,-102.051
1687767832.428,-22.461,-36.133,-45.898,-57.129,-88.379
1687767832.432,-23.438,-37.598,-44.922,-52.246,-120.605
1687767832.436,-29.785,-38.574,-40.527,-56.152,-97.656
1687767832.440,-35.645,-34.180,-40.039,-60.547,-45.898
1687767832.444,-33.691,-29.297,-44.434,-65.918,-125.977
1687767832.447,-22.949,-31.738,-41.504,-49.805,-88.379
1687767832.451,-16.602,-35.645,-38.574,-32.715,294.922
1687767832.455,-21.973,-29.297,-34.668,-45.410,117.676
1687767832.459,-36.133,-25.879,-35.645,-62.988,-125.000
1687767832.463,-39.551,-31.738,-42.480,-62.500,38.086
1687767832.466,-28.320,-35.156,-41.992,-46.875,202.637
1687767832.470,-7.812,-29.297,-36.621,-40.039,22.949
1687767832.474,-11.230,-24.902,-35.645,-43.945,-112.305
1687767832.478,-28.320,-30.762,-38.574,-56.152,-75.684
1687767832.482,-34.180,-43.457,-41.016,-57.617,-96.680
1687767832.486,-18.555,-37.598,-40.527,-45.410,-25.391
1687767832.490,-2.441,-31.250,-37.598,-35.156,31.250
1687767832.493,-12.207,-27.832,-41.504,-30.273,138.184
1687767832.497,-27.832,-27.344,-48.340,-39.062,70.312
1687767832.501,-34.180,-31.250,-44.922,-50.293,-210.449
1687767832.505,-29.785,-39.062,-39.551,-40.527,-156.738
1687767832.509,-20.508,-45.898,-40.039,-40.039,37.109
1687767832.510,-25.391,-42.969,-42.969,-45.410,-63.965
1687767832.514,-33.691,-43.457,-46.387,-47.852,-162.109
1687767832.518,-39.551,-41.016,-44.922,-53.711,-101.562
1687767832.522,-33.691,-32.715,-37.598,-49.805,-47.363
1687767832.526,-17.578,-34.668,-36.133,-40.527,-59.570
1687767832.530,-16.113,-39.062,-38.574,-43.945,-93.750
1687767832.534,-28.320,-34.668,-36.621,-43.945,-75.684
1687767832.537,-37.109,-30.273,-33.691,-33.691,205.078
1687767832.541,-23.926,-34.180,-33.203,-35.645,53.223
1687767832.545,-7.812,-30.273,-35.645,-34.180,-151.367
1687767832.549,-6.836,-23.438,-33.691,-21.973,-32.227
1687767832.553,-15.137,-20.020,-31.250,-22.949,-2.441
1687767832.556,-29.785,-18.555,-30.762,-29.297,-172.363
1687767832.560,-38.086,-27.832,-32.227,-28.809,-126.465
1687767832.564,-29.297,-30.762,-25.879,-11.230,82.031
1687767832.568,-19.043,-17.578,-17.090,-6.348,-9.766
1687767832.572,-30.273,-13.184,-17.578,-27.832,-167.969
1687767832.576,-47.852,-13.672,-21.973,-33.203,-67.383
1687767832.580,-45.410,-17.578,-33.691,-20.996,213.379
1687767832.583,-33.691,-16.113,-34.668,-19.531,175.781
1687767832.587,-32.227,-8.789,-30.762,-35.156,-87.402
1687767832.591,-57.129,-3.418,-25.391,-56.641,-64.941
1687767832.595,-90.820,12.207,-25.879,-83.496,-77.637
1687767832.599,-110.352,16.602,-30.273,-101.562,-174.805
1687767832.600,-115.234,17.090,-24.902,-115.723,-140.137
1687767832.604,-118.652,33.691,-20.020,-128.906,-108.398
1687767832.608,-140.625,32.715,-25.879,-149.902,-88.379
1687767832.612,-159.180,25.879,-27.832,-174.805,-25.879
1687767832.616,-155.762,37.598,-26.855,-177.734,-42.480
1687767832.620,-156.738,34.668,-19.043,-166.016,0.000
1687767832.624,-156.738,27.832,-17.090,-151.367,353.027
1687767832.627,-158.691,29.785,-18.555,-154.785,236.816
1687767832.631,-176.270,24.414,-21.484,-166.992,-139.648
1687767832.635,-178.223,23.926,-21.973,-168.945,-116.211
1687767832.639,-151.367,36.133,-25.391,-158.691,10.742
1687767832.643,-129.883,40.527,-30.273,-140.625,-106.445
1687767832.660,-118.164,23.438,-28.320,-129.395,-167.969
1687767832.664,-122.070,14.648,-32.715,-121.094,-62.500
1687767832.668,-125.977,15.625,-40.039,-112.305,-25.879
1687767832.672,-104.980,6.836,-40.527,-97.656,-127.441
1687767832.676,-79.102,-15.625,-37.109,-75.195,-104.492
1687767832.680,-69.824,-22.461,-40.527,-64.453,23.438
1687767832.684,-77.148,-15.625,-52.734,-72.754,23.438
1687767832.687,-69.824,-26.855,-55.664,-70.801,-28.809
1687767832.691,-49.316,-36.133,-52.734,-52.246,-77.637
1687767832.695,-34.668,-44.922,-58.594,-38.086,163.086
1687767832.699,-25.879,-55.176,-65.918,-38.086,210.938
1687767832.703,-33.203,-48.340,-65.918,-47.852,-95.215
1687767832.705,-45.410,-41.016,-64.453,-43.945,-125.977
1687767832.709,-28.809,-49.316,-60.547,-30.762,-79.102
1687767832.713,-2.441,-56.152,-58.105,-20.996,-151.855
1687767832.717,4.395,-58.105,-56.152,-13.672,-189.453
1687767832.721,5.371,-62.988,-56.152,-6.836,-117.676
1687767832.725,2.930,-59.570,-58.594,-9.766,11.230
1687767832.729,10.742,-50.781,-62.500,-9.766,22.461
1687767832.732,27.832,-52.246,-64.453,3.906,-48.828
1687767832.736,32.715,-54.688,-60.059,10.254,82.031
1687767832.740,20.996,-59.570,-59.570,13.672,405.762
1687767832.744,11.719,-68.848,-58.594,10.254,285.645
1687767832.748,21.973,-62.012,-50.781,8.789,-145.020
1687767832.750,27.832,-57.129,-50.781,15.625,-81.055
1687767832.754,28.320,-66.406,-52.246,21.484,-10.254
1687767832.758,22.461,-69.336,-54.688,9.766,-139.160
1687767832.762,9.766,-64.453,-57.129,-2.441,-130.371
1687767832.766,19.531,-61.523,-45.898,12.207,-85.938
1687767832.770,37.598,-65.430,-45.898,19.043,-104.492
1687767832.774,42.480,-66.895,-51.758,12.207,-41.992
1687767832.777,39.551,-60.547,-44.922,12.695,-10.742
1687767832.781,26.855,-56.641,-39.062,16.113,96.191
1687767832.785,20.996,-61.523,-43.457,7.324,64.453
1687767832.789,36.133,-61.523,-51.270,0.977,-91.797
1687767832.793,47.852,-66.406,-51.758,5.371,-9.766
1687767832.812,32.227,-74.707,-47.852,2.930,96.191
1687767832.816,14.160,-64.941,-41.504,-6.348,-52.246
1687767832.820,19.043,-51.758,-37.598,-10.254,-190.918
1687767832.824,28.320,-54.688,-42.480,-7.812,-214.844
1687767832.828,34.668,-55.176,-43.457,4.883,-142.578
1687767832.832,33.203,-50.781,-43.457,10.254,-25.879
1687767832.836,14.160,-46.875,-44.434,-10.742,-124.512
1687767832.839,9.277,-50.293,-39.551,-17.090,-101.562
1687767832.843,17.090,-58.105,-40.527,-2.930,153.809
1687767832.847,27.832,-51.270,-45.410,-5.859,7.812
1687767832.851,33.203,-45.410,-40.039,-7.812,-52.246
1687767832.855,20.996,-44.434,-41.992,-14.160,4.395
1687767832.857,8.301,-37.109,-45.410,-24.902,-17.578
1687767832.861,14.160,-35.645,-41.504,-23.926,-145.020
1687767832.865,28.809,-43.457,-42.480,-21.484,-162.598
1687767832.869,28.809,-49.316,-43.457,-20.020,-32.715
1687767832.873,5.859,-45.410,-41.016,-27.832,-101.074
1687767832.877,-16.602,-39.062,-40.527,-35.156,-91.309
1687767832.881,-7.324,-43.945,-36.621,-20.020,34.180
1687767832.884,13.184,-50.293,-34.180,-17.578,61.523
1687767832.888,18.555,-49.316,-41.016,-30.273,-127.930
1687767832.892,8.789,-47.852,-45.898,-40.527,-231.445
1687767832.896,-3.418,-41.992,-38.574,-42.969,-161.621
1687767832.900,-9.277,-26.855,-35.645,-29.297,169.922
1687767832.901,-11.719,-24.414,-41.016,-22.949,185.059
1687767832.905,-7.812,-28.320,-40.039,-38.086,-118.164
1687767832.909,-18.066,-36.133,-45.898,-52.734,-145.996
1687767832.913,-32.227,-37.109,-45.898,-46.875,-56.641
1687767832.917,-25.391,-24.902,-40.039,-39.551,-111.816
1687767832.921,-19.043,-29.785,-44.434,-40.527,-93.750
1687767832.925,-20.020,-44.434,-45.898,-36.621,61.523
1687767832.928,-32.227,-48.828,-40.527,-33.203,-43.945
1687767832.932,-41.016,-35.645,-37.598,-34.180,-228.027
1687767832.936,-36.133,-27.832,-41.992,-37.109,-249.023
1687767832.940,-20.508,-38.574,-43.945,-32.227,-15.137
1687767832.944,-14.648,-52.734,-41.016,-14.160,429.688
1687767832.931,-26.855,-47.852,-40.039,-24.414,273.926
1687767832.935,-36.621,-36.133,-41.504,-46.387,-106.445
1687767832.939,-41.016,-35.156,-45.410,-46.875,-46.387
1687767832.943,-31.738,-34.668,-43.945,-35.645,-72.754
1687767832.947,-26.855,-39.551,-42.480,-27.832,-124.023
1687767832.951,-35.645,-37.109,-36.133,-30.273,10.254
1687767832.955,-46.875,-33.691,-40.527,-42.480,120.605
1687767832.958,-43.945,-34.668,-46.387,-52.246,60.059
1687767832.962,-34.180,-30.762,-41.504,-40.527,-121.094
1687767832.966,-24.902,-31.738,-44.434,-37.109,-205.566
1687767832.970,-33.691,-39.062,-41.504,-37.598,148.438
1687767832.974,-50.293,-40.527,-34.668,-32.715,181.641
1687767832.976,-42.480,-38.574,-33.203,-35.645,-218.262
1687767832.980,-20.996,-40.527,-35.156,-31.738,-219.238
1687767832.984,-12.695,-30.762,-38.086,-27.832,-129.395
1687767832.988,-24.902,-33.691,-43.457,-40.039,-146.973
1687767832.992,-46.387,-41.016,-46.387,-45.410,-224.121
1687767832.996,-51.758,-29.297,-46.875,-44.434,8.789
1687767833.000,-37.598,-17.090,-44.434,-35.156,233.398
1687767833.003,-19.531,-19.531,-44.922,-37.598,-6.836
1687767833.007,-13.672,-28.320,-45.898,-49.316,-135.254
1687767833.011,-26.855,-31.250,-42.480,-50.781,-43.457
1687767833.015,-37.109,-30.273,-42.969,-55.664,15.625
1687767833.019,-31.738,-29.785,-46.387,-52.246,-97.656
1687767833.036,-27.344,-33.691,-42.480,-36.621,-201.660
1687767833.040,-35.645,-42.480,-39.062,-31.250,-21.973
1687767833.044,-40.039,-36.133,-41.504,-32.715,281.250
1687767833.048,-45.410,-29.785,-43.457,-48.828,-87.402
1687767833.052,-39.062,-33.691,-47.363,-53.223,-203.125
1687767833.056,-17.578,-34.668,-51.758,-35.156,107.422
1687767833.060,-9.277,-38.086,-53.711,-34.180,84.473
1687767833.063,-22.461,-31.250,-47.852,-46.875,-115.234
1687767833.067,-31.250,-22.949,-41.992,-53.223,-159.668
1687767833.071,-34.668,-37.109,-43.945,-44.922,114.746
1687767833.075,-26.855,-49.805,-49.805,-47.363,79.590
1687767833.079,-20.508,-47.852,-49.316,-60.059,-172.852
1687767833.081,-42.480,-42.969,-46.387,-61.035,-114.258
1687767833.085,-54.199,-31.250,-41.992,-55.664,56.641
1687767833.089,-34.668,-24.902,-41.016,-59.570,-26.367
1687767833.093,-20.996,-35.645,-46.387,-58.594,-165.039
1687767833.097,-27.832,-46.875,-44.434,-55.176,-141.602
1687767833.101,-48.340,-41.504,-44.922,-62.500,-8.789
1687767833.105,-68.848,-33.203,-49.805,-71.777,-79.590
1687767833.108,-65.918,-36.133,-45.898,-70.801,-214.844
1687767833.112,-48.828,-34.668,-45.410,-60.547,-67.871
1687767833.116,-49.316,-35.156,-52.734,-52.734,250.000
1687767833.120,-50.293,-34.668,-53.223,-56.641,86.426
1687767833.124,-53.711,-39.551,-51.270,-70.312,-147.461
1687767833.126,-52.734,-48.340,-43.945,-61.523,47.852
1687767833.130,-41.016,-41.992,-36.621,-41.504,201.172
1687767833.134,-44.434,-41.504,-37.598,-46.387,-34.180
1687767833.138,-61.035,-43.945,-41.504,-51.758,-165.527
1687767833.142,-76.172,-34.180,-43.457,-52.734,-164.551
1687767833.146,-73.730,-33.203,-41.504,-45.898,-70.312
1687767833.150,-54.199,-33.203,-36.621,-39.551,10.742
1687767833.153,-46.387,-30.273,-40.039,-48.340,-64.453
1687767833.157,-50.293,-27.832,-41.016,-41.016,96.680
1687767833.161,-54.688,-21.484,-34.180,-38.086,80.566
1687767833.165,-51.270,-27.832,-39.062,-56.641,-151.367
1687767833.169,-36.133,-33.691,-50.781,-65.918,-117.188
1687767833.172,-25.879,-39.551,-47.852,-55.664,-60.059
1687767833.176,-25.391,-40.039,-39.062,-44.922,-127.441
1687767833.180,-41.504,-30.762,-38.086,-54.688,-71.289
1687767833.184,-53.711,-25.391,-39.062,-58.105,18.555
1687767833.188,-46.875,-26.855,-38.086,-45.898,70.801
1687767833.192,-30.273,-38.574,-44.922,-41.992,48.340
1687767833.196,-27.344,-46.387,-50.293,-43.945,-45.410
1687767833.199,-34.668,-42.969,-44.922,-44.434,-16.113
1687767833.203,-37.109,-42.969,-45.410,-41.992,161.621
1687767833.207,-33.203,-47.852,-47.363,-49.805,2.930
1687767833.211,-23.926,-40.039,-45.410,-50.781,-99.121
1687767833.215,-18.555,-34.668,-42.480,-45.410,-30.273
1687767833.246,-28.809,-41.016,-39.551,-45.898,-2.930
1687767833.250,-39.551,-34.180,-43.457,-63.965,-116.211
1687767833.254,-29.297,-32.715,-44.434,-67.383,-135.742
1687767833.258,-12.207,-40.527,-40.527,-50.293,-67.383
1687767833.262,-11.719,-33.691,-45.898,-53.711,-107.422
1687767833.266,-26.367,-27.832,-49.316,-60.059,-99.609
1687767833.270,-38.574,-39.551,-50.293,-65.430,-1.465
1687767833.273,-41.504,-49.316,-47.363,-63.477,263.184
1687767833.277,-21.973,-42.969,-47.363,-46.387,302.246
1687767833.281,-0.977,-40.039,-51.270,-45.898,-74.707
1687767833.285,-2.441,-41.504,-49.805,-58.594,-126.953
1687767833.289,-20.020,-42.480,-49.805,-74.219,-123.047
1687767833.260,-28.320,-48.828,-52.734,-69.336,-179.199
1687767833.264,-15.625,-44.922,-53.711,-53.223,-115.234
1687767833.268,-6.836,-30.273,-46.387,-49.316,-129.395
1687767833.272,-20.508,-35.645,-47.852,-61.523,-136.719
1687767833.276,-32.715,-34.668,-50.293,-59.082,-192.383
1687767833.280,-27.832,-32.227,-47.852,-49.805,-159.668
1687767833.284,-14.648,-32.227,-51.270,-47.363,-18.066
1687767833.287,-5.859,-30.762,-56.641,-53.711,15.137
1687767833.291,-13.184,-35.645,-55.664,-57.617,-118.164
1687767833.295,-26.367,-35.645,-54.688,-59.082,-188.477
1687767833.299,-23.926,-31.738,-51.758,-56.152,-52.246
1687767833.303,-23.438,-36.621,-49.805,-46.387,-24.902
1687767833.320,-25.391,-45.898,-51.758,-41.992,-77.637
1687767833.324,-24.902,-37.109,-45.898,-45.410,-114.746
1687767833.328,-36.621,-28.809,-41.504,-47.363,-5.371
1687767833.332,-54.199,-28.809,-41.992,-49.316,307.129
1687767833.336,-41.504,-26.855,-36.133,-47.852,173.340
1687767833.340,-27.832,-29.785,-31.250,-42.969,-22.461
1687767833.344,-37.598,-36.621,-36.621,-46.387,245.605
1687767833.347,-45.410,-49.805,-40.039,-51.758,174.316
1687767833.351,-45.410,-46.875,-35.156,-55.664,-182.129
1687767833.355,-38.574,-41.504,-36.621,-51.758,-97.168
1687767833.359,-21.973,-40.527,-36.133,-42.969,61.035
1687767833.363,-18.555,-36.621,-39.062,-49.805,-120.605
1687767833.350,-29.785,-35.156,-42.480,-64.453,-204.590
1687767833.354,-36.133,-34.668,-41.992,-66.895,-179.688
1687767833.358,-36.133,-33.691,-44.922,-55.664,-170.898
1687767833.362,-58.594,-35.645,-45.410,-44.922,-169.922
1687767833.366,-64.941,-34.668,-45.898,-41.016,-179.199
1687767833.370,-70.801,-32.715,-46.875,-45.410,-105.957
1687767833.374,-76.172,-30.762,-48.340,-54.199,-45.898
1687767833.377,-54.688,-30.762,-54.688,-50.293,-106.445
1687767833.381,-43.945,-32.227,-60.059,-49.316,-164.062
1687767833.385,-44.434,-35.645,-59.570,-46.875,-10.742
1687767833.389,-50.293,-37.598,-57.129,-49.316,88.379
1687767833.393,-81.543,-36.133,-54.688,-57.129,-103.516
1687767833.396,-102.539,-43.457,-56.152,-59.570,-146.484
1687767833.400,-92.773,-47.363,-60.547,-53.223,-7.324
1687767833.404,-99.121,-48.828,-58.594,-36.621,252.930
1687767833.408,-123.047,-54.199,-53.223,-47.852,47.852
1687767833.412,-120.117,-44.922,-51.270,-61.035,-202.148
1687767833.416,-92.285,-32.715,-51.270,-54.199,-60.059
1687767833.420,-65.430,-30.762,-52.734,-51.270,-91.797
1687767833.423,-53.223,-33.691,-51.270,-50.293,-168.457
1687767833.427,-57.617,-42.480,-46.875,-49.805,-126.953
1687767833.431,-60.547,-37.109,-47.363,-43.945,59.082
1687767833.435,-55.664,-32.227,-54.688,-51.270,4.883
1687767833.439,-32.715,-42.480,-54.688,-51.270,-142.578
1687767833.471,-19.043,-44.922,-47.363,-40.039,-106.445
1687767833.475,-36.133,-39.551,-41.016,-42.480,-44.922
1687767833.479,-44.434,-38.574,-44.434,-45.898,-22.461
1687767833.483,-42.969,-35.156,-48.340,-50.781,-182.129
1687767833.487,-31.738,-33.203,-48.340,-49.316,-187.988
1687767833.491,-20.020,-34.668,-47.852,-36.621,125.000
1687767833.495,-20.020,-33.691,-44.922,-46.875,48.828
1687767833.498,-34.668,-39.062,-45.410,-59.082,-184.082
1687767833.502,-37.598,-37.598,-41.504,-50.293,-88.867
1687767833.506,-18.555,-30.273,-38.086,-36.621,99.609
1687767833.510,-16.113,-32.227,-42.480,-37.109,62.012
1687767833.514,-27.832,-33.691,-40.527,-42.969,-62.988
1687767833.500,-50.293,-34.180,-41.504,-49.316,-17.090
1687767833.504,-72.754,-39.062,-46.387,-48.340,4.883
1687767833.508,-102.539,-46.387,-44.434,-44.434,-143.555
1687767833.512,-109.863,-44.922,-43.457,-44.434,-119.629
1687767833.516,-90.820,-36.133,-42.969,-39.551,36.621
1687767833.520,-90.332,-37.598,-37.598,-44.434,31.738
1687767833.524,-89.355,-37.598,-37.109,-53.711,26.855
1687767833.527,-74.707,-37.109,-43.457,-55.664,36.621
1687767833.531,-55.664,-41.504,-48.340,-47.852,-1.465
1687767833.535,-39.551,-39.551,-46.387,-40.039,-69.824
1687767833.539,-39.551,-30.762,-42.480,-40.527,-129.395
1687767833.543,-43.457,-34.668,-43.945,-43.457,-109.375
1687767833.545,-25.879,-39.551,-48.340,-35.156,151.855
1687767833.549,-2.930,-31.250,-49.805,-30.273,114.746
1687767833.553,6.348,-35.156,-39.062,-37.598,-136.230
1687767833.557,-2.930,-37.598,-37.109,-40.039,-147.949
1687767833.561,-14.648,-25.879,-42.480,-48.340,-121.094
1687767833.565,-12.207,-19.531,-40.039,-50.293,-61.523
1687767833.569,0.000,-22.461,-40.527,-43.945,-10.254
1687767833.572,6.348,-25.391,-39.062,-40.527,84.961
1687767833.576,-0.488,-25.391,-34.180,-36.621,324.219
1687767833.580,-2.930,-31.738,-32.227,-46.387,134.766
1687767833.584,7.812,-36.133,-31.738,-48.340,-149.902
1687767833.588,10.742,-37.109,-34.180,-42.969,-101.562
1687767833.590,10.254,-29.785,-40.039,-41.504,-16.113
1687767833.594,8.789,-35.645,-41.504,-50.293,-165.039
1687767833.598,-4.883,-40.527,-44.922,-61.523,-231.934
1687767833.602,-7.324,-27.832,-50.781,-60.547,-151.855
1687767833.606,9.766,-24.414,-43.457,-54.688,-132.812
1687767833.610,21.973,-27.832,-41.016,-50.293,-68.359
1687767833.614,20.508,-32.227,-42.969,-49.805,-64.453
1687767833.617,8.301,-34.180,-38.574,-49.805,77.637
1687767833.621,5.859,-28.320,-41.016,-48.340,82.031
1687767833.625,23.926,-25.391,-39.062,-44.434,-101.074
1687767833.629,31.738,-34.180,-33.203,-34.668,-87.891
1687767833.633,26.367,-37.598,-35.645,-36.621,3.906
1687767833.635,3.418,-27.832,-38.086,-44.922,-54.688
1687767833.639,-5.371,-29.297,-40.527,-40.527,-154.785
1687767833.643,6.348,-35.156,-39.062,-28.809,-58.105
1687767833.647,20.020,-35.156,-38.086,-19.043,47.363
1687767833.651,14.648,-29.297,-36.133,-24.414,-90.820
1687767833.655,-6.348,-30.762,-36.621,-32.227,-76.660
1687767833.659,-18.066,-33.203,-41.992,-31.250,45.410
1687767833.662,-10.254,-32.715,-38.574,-22.461,217.285
1687767833.666,9.277,-37.598,-37.109,-25.391,7.324
1687767833.670,15.137,-30.273,-37.109,-32.715,-150.391
1687767833.674,4.883,-26.855,-33.203,-34.668,64.453
1687767833.678,-1.465,-32.715,-33.691,-35.645,103.516
1687767833.681,6.348,-29.785,-31.250,-34.668,-73.730
1687767833.685,18.066,-28.809,-32.715,-34.180,-155.762
1687767833.689,17.090,-40.527,-31.738,-26.367,-65.430
1687767833.693,-1.465,-41.504,-30.762,-31.738,-61.523
1687767833.697,-3.906,-25.879,-36.621,-46.875,-204.102
1687767833.701,17.578,-24.414,-32.227,-42.480,-91.797
1687767833.705,20.508,-36.133,-31.250,-29.785,143.066
1687767833.708,4.395,-35.645,-38.574,-30.273,81.055
1687767833.712,-4.395,-35.156,-38.086,-45.410,-184.082
1687767833.716,-11.719,-41.504,-33.203,-47.852,-185.059
1687767833.720,-16.602,-37.598,-34.668,-42.480,-149.414
1687767833.724,-7.812,-30.762,-32.227,-37.598,-118.164
1687767833.726,-16.113,-27.344,-31.250,-44.922,-80.566
1687767833.730,-42.969,-26.367,-37.598,-54.688,-61.035
1687767833.734,-55.176,-32.715,-39.062,-56.641,14.648
1687767833.738,-47.363,-34.180,-39.062,-57.617,-70.312
1687767833.742,-35.645,-35.156,-39.551,-52.734,-102.539
1687767833.746,-30.762,-30.273,-35.156,-48.340,49.805
1687767833.750,-34.668,-23.926,-33.203,-49.805,272.461
1687767833.753,-40.527,-29.297,-34.180,-61.035,-20.508
1687767833.757,-38.086,-35.156,-37.109,-66.895,-263.672
1687767833.761,-29.785,-37.598,-46.875,-68.359,-25.391
1687767833.765,-31.250,-36.621,-48.828,-58.105,133.789
1687767833.769,-45.898,-23.438,-38.574,-61.523,-49.316
1687767833.785,-54.688,-18.066,-36.621,-67.383,-187.500
1687767833.789,-54.199,-20.996,-30.273,-50.781,-129.883
1687767833.793,-55.176,-21.973,-30.273,-41.992,-83.984
1687767833.797,-59.082,-28.320,-30.762,-50.781,-99.609
1687767833.801,-69.824,-25.879,-29.785,-61.523,-59.570
1687767833.805,-84.961,-9.766,-30.273,-69.336,164.551
1687767833.809,-99.121,1.465,-19.043,-74.219,227.539
1687767833.812,-121.094,-4.883,-22.949,-94.238,-106.934
1687767833.816,-135.742,9.766,-34.668,-107.910,-110.840
1687767833.820,-164.062,23.926,-25.391,-125.000,84.473
1687767833.824,-207.520,19.043,-14.160,-162.109,-65.430
1687767833.828,-241.699,22.949,-30.273,-188.965,-196.777
1687767833.830,-251.953,27.832,-40.039,-198.730,-158.691
1687767833.834,-247.070,27.832,-34.668,-205.566,-124.023
1687767833.838,-261.230,26.367,-29.297,-207.520,-129.395
1687767833.842,-283.203,23.438,-24.902,-208.496,-158.691
1687767833.846,-288.086,23.438,-24.902,-213.379,-132.324
1687767833.850,-270.996,17.578,-36.621,-211.426,-22.461
1687767833.854,-244.141,14.648,-39.062,-204.590,9.277
1687767833.857,-235.840,16.602,-37.109,-204.590,-46.875
1687767833.861,-245.117,14.160,-36.133,-205.078,-29.785
1687767833.865,-245.117,13.672,-35.645,-178.711,252.441
1687767833.869,-228.516,12.695,-37.598,-154.297,134.766
1687767833.873,-198.242,5.371,-38.574,-148.438,-154.297
1687767833.875,-164.062,-3.418,-42.480,-127.441,-12.695
1687767833.879,-142.090,-12.695,-44.922,-117.676,29.785
1687767833.883,-130.859,-19.043,-43.457,-123.047,-168.457
1687767833.887,-105.957,-22.461,-45.898,-106.934,-223.633
1687767833.891,-72.754,-24.902,-46.875,-85.449,-87.402
1687767833.895,-39.062,-29.785,-46.387,-76.660,34.180
1687767833.899,-39.062,-37.109,-45.898,-73.730,64.453
1687767833.902,-46.387,-39.062,-45.898,-68.848,-117.676
1687767833.906,-32.715,-43.457,-49.805,-55.664,135.254
1687767833.910,-11.230,-46.875,-57.129,-37.598,300.781
1687767833.914,10.254,-44.434,-55.176,-32.715,-80.566
1687767833.918,5.371,-50.781,-51.758,-32.227,-168.945
1687767833.918,5.371,-50.781,-51.758,-32.227,-168.945
1687767833.920,-2.930,-61.035,-51.758,-32.227,-160.156
1687767833.924,5.859,-62.988,-49.805,-29.297,-193.848
1687767833.928,17.578,-61.523,-50.781,-12.695,-207.520
1687767833.932,22.461,-57.617,-51.270,-4.395,-192.871
1687767833.936,21.973,-59.082,-53.711,-6.348,-118.164
1687767833.940,20.508,-63.477,-52.246,-4.395,-91.797
1687767833.944,21.973,-63.477,-50.781,-0.488,-109.863
1687767833.947,35.156,-65.918,-49.805,13.184,-13.184
1687767833.951,41.016,-63.965,-47.363,23.926,208.984
1687767833.955,34.668,-62.012,-49.316,8.789,55.664
1687767833.959,23.438,-62.500,-48.828,0.000,-66.895
1687767833.963,19.531,-59.082,-45.898,14.160,36.133
1687767833.965,39.062,-55.176,-42.480,30.273,168.945
1687767833.969,58.105,-52.734,-39.551,34.668,-86.914
1687767833.973,49.805,-54.688,-39.062,32.715,-224.121
1687767833.977,25.879,-55.176,-35.645,27.832,-133.301
1687767833.981,12.207,-59.570,-35.156,22.461,-95.215
1687767833.985,23.926,-65.918,-35.156,23.926,-46.387
1687767833.989,38.086,-64.941,-35.156,31.250,-24.902
1687767833.992,34.180,-59.570,-33.203,34.668,102.539
1687767833.996,28.320,-52.246,-29.785,24.902,69.336
1687767834.000,20.020,-52.246,-30.273,7.812,-187.012
1687767834.004,21.973,-53.711,-33.203,20.508,-166.016
1687767834.008,31.250,-50.781,-36.133,25.391,-59.082
1687767834.011,26.367,-57.617,-35.645,8.301,-98.633
1687767834.015,12.695,-65.430,-34.180,-4.883,-113.281
1687767834.019,3.906,-57.129,-35.645,1.465,-77.637
1687767834.023,18.066,-46.387,-33.691,18.555,8.789
1687767834.027,28.809,-47.852,-31.738,17.578,-16.113
1687767834.031,27.344,-47.852,-35.645,10.254,-101.562
1687767834.035,14.648,-50.293,-36.133,1.465,-24.414
1687767834.038,1.953,-54.688,-37.109,1.465,236.816
1687767834.042,7.324,-52.246,-34.180,-3.906,47.363
1687767834.046,13.672,-48.828,-30.762,-6.836,-160.156
1687767834.050,13.184,-44.434,-35.645,-2.441,97.656
1687767834.054,3.906,-46.387,-36.621,-12.695,224.121
1687767834.055,-1.953,-51.270,-35.645,-18.066,1.953
1687767834.059,11.719,-49.316,-34.180,-9.766,-79.590
1687767834.063,21.484,-46.875,-35.156,-5.859,-5.371
1687767834.067,10.742,-51.270,-37.109,-10.742,-13.672
1687767834.071,-9.277,-51.270,-34.668,-19.043,-85.938
1687767834.075,-15.137,-47.363,-33.691,-22.949,-87.402
1687767834.079,-4.883,-37.598,-35.156,-11.230,209.473
1687767834.082,0.000,-33.203,-37.109,3.418,344.727
1687767834.086,-2.930,-43.945,-39.551,-6.348,-12.695
1687767834.090,-10.742,-39.551,-33.691,-15.137,-117.676
1687767834.094,-19.043,-33.691,-30.273,-21.484,-77.148
1687767834.098,-16.113,-41.016,-33.691,-20.508,-191.406
1687767834.100,-5.859,-43.945,-36.621,-10.254,-187.500
1687767834.104,3.418,-41.504,-38.086,-11.719,-58.594
1687767834.108,1.465,-41.992,-36.621,-19.043,-35.156
1687767834.112,-9.766,-43.945,-38.086,-33.691,-170.410
1687767834.116,-11.719,-47.852,-41.504,-35.156,-166.504
1687767834.120,-1.465,-48.340,-37.598,-21.484,129.395
1687767834.124,0.000,-40.039,-35.156,-19.043,242.188
1687767834.127,-16.113,-37.109,-32.715,-22.949,35.645
1687767834.131,-35.156,-39.062,-26.855,-30.762,-134.766
1687767834.135,-35.156,-36.621,-28.320,-32.715,-108.887
1687767834.139,-19.531,-32.227,-34.668,-24.414,299.316
1687767834.143,-16.602,-37.109,-40.039,-34.668,121.582
1687767834.160,-25.391,-41.992,-34.668,-44.922,-176.270
1687767834.164,-25.391,-36.133,-30.273,-49.316,-93.750
1687767834.168,-23.926,-34.180,-33.203,-61.035,-85.449
1687767834.172,-14.648,-37.109,-33.691,-55.664,-150.879
1687767834.176,0.488,-32.715,-34.668,-41.992,-143.555
1687767834.180,-3.418,-24.902,-35.645,-41.992,-14.648
1687767834.184,-24.902,-28.320,-37.598,-50.781,-83.008
1687767834.187,-37.109,-25.391,-37.109,-58.105,-227.051
1687767834.191,-25.879,-21.484,-31.738,-56.641,-126.953
1687767834.195,-12.207,-30.762,-24.902,-40.039,119.629
1687767834.199,-10.742,-31.738,-30.273,-32.715,116.699
1687767834.203,-24.414,-26.367,-34.668,-54.688,-134.766
1687767834.205,-27.344,-31.250,-31.738,-66.406,-183.105
1687767834.209,-18.066,-32.227,-32.715,-55.664,-112.305
1687767834.213,-11.719,-26.855,-33.691,-46.387,-133.301
1687767834.217,-16.113,-29.785,-33.691,-47.363,-223.633
1687767834.221,-32.227,-35.156,-33.203,-54.199,-186.035
1687767834.225,-33.203,-29.297,-29.297,-56.152,-31.250
1687767834.229,-14.160,-27.832,-21.484,-53.223,-57.617
1687767834.232,-3.906,-30.273,-21.973,-43.457,-121.582
1687767834.236,-6.348,-28.809,-29.297,-39.551,-88.379
1687767834.240,-19.043,-34.180,-34.180,-41.016,174.316
1687767834.244,-20.508,-35.645,-37.109,-49.805,149.414
1687767834.248,-3.906,-33.203,-34.180,-54.688,-84.473
1687767834.250,18.555,-24.414,-28.320,-41.016,46.387
1687767834.254,20.996,-24.902,-26.367,-30.273,269.531
1687767834.258,1.465,-32.715,-19.531,-41.504,-2.930
1687767834.262,-16.602,-26.367,-13.184,-49.316,-162.109
1687767834.266,-20.508,-26.855,-16.602,-52.734,-84.473
1687767834.270,-9.277,-24.414,-17.578,-50.781,-37.598
1687767834.274,-2.930,-19.531,-14.160,-47.852,1.465
1687767834.277,-14.160,-24.902,-17.090,-57.129,-19.043
1687767834.281,-32.715,-26.367,-12.695,-56.641,146.484
1687767834.285,-25.879,-29.297,-7.324,-50.781,117.188
1687767834.289,-0.977,-38.574,-12.695,-49.316,-137.695
1687767834.293,9.766,-37.109,-21.973,-50.293,-126.953
1687767834.295,-7.324,-34.180,-22.461,-52.246,-24.902
1687767834.299,-34.668,-37.109,-22.949,-63.477,-12.695
1687767834.303,-36.133,-32.715,-22.461,-62.500,-125.977
1687767834.307,-13.184,-32.227,-20.508,-45.410,-36.621
1687767834.311,-2.441,-37.598,-20.996,-42.480,119.629
1687767834.315,-8.789,-29.297,-18.066,-49.805,81.055
1687767834.319,-21.484,-35.156,-20.996,-61.035,-43.457
1687767834.322,-23.438,-42.480,-21.484,-61.523,-57.129
1687767834.326,-9.277,-29.297,-20.996,-46.387,190.430
1687767834.330,1.953,-17.578,-18.555,-36.133,67.383
1687767834.334,0.000,-21.973,-16.113,-38.086,-114.746
1687767834.338,-10.254,-30.762,-20.996,-46.875,-9.277
1687767834.340,-24.902,-27.832,-27.832,-45.410,66.406
1687767834.344,-31.250,-20.508,-29.785,-33.691,-62.500
1687767834.348,-51.758,-33.203,-31.250,-33.691,-121.094
1687767834.352,-165.527,-31.250,-34.668,-38.574,98.145
1687767834.356,-334.473,-16.602,-34.668,-43.945,48.340
1687767834.360,-471.680,-20.508,-33.691,-56.152,-104.980
1687767834.364,-565.430,-32.715,-37.598,-58.105,20.996
1687767834.367,-603.027,-27.344,-37.109,-44.922,197.754
1687767834.371,-572.266,-23.438,-36.133,-42.480,178.223
1687767834.375,-486.816,-26.367,-33.691,-54.688,-133.301
1687767834.379,-406.738,-27.832,-31.250,-62.500,-172.852
1687767834.383,-332.520,-33.203,-32.227,-62.988,-79.102
1687767834.385,-253.906,-33.203,-38.574,-58.594,-122.559
1687767834.389,-197.266,-29.297,-43.457,-57.617,-184.082
1687767834.393,-168.945,-28.320,-38.086,-52.246,-173.828
1687767834.397,-163.086,-32.227,-34.668,-52.734,-133.789
1687767834.401,-133.301,-30.273,-32.227,-47.852,-140.625
1687767834.405,-87.402,-25.879,-32.227,-40.527,-86.914
1687767834.409,-68.359,-28.809,-37.109,-39.062,-16.113
1687767834.412,-64.453,-31.250,-35.156,-36.133,283.691
1687767834.416,-49.316,-36.133,-29.785,-46.875,121.582
1687767834.420,-26.367,-43.457,-34.668,-50.293,-237.305
1687767834.424,-1.953,-41.016,-33.691,-41.016,-61.035
1687767834.428,15.625,-31.738,-31.738,-30.273,56.152
1687767834.430,6.836,-31.738,-31.738,-36.621,-140.137
1687767834.434,-2.441,-33.203,-30.762,-49.805,-154.297
1687767834.438,18.555,-30.273,-34.180,-41.504,-66.895
1687767834.442,36.133,-32.227,-36.621,-30.762,-72.266
1687767834.446,41.016,-32.227,-35.156,-32.715,-49.805
1687767834.450,34.180,-28.320,-35.156,-27.832,-6.836
1687767834.454,21.973,-31.250,-39.062,-30.762,220.215
1687767834.457,25.391,-34.180,-43.457,-40.527,221.191
1687767834.461,31.738,-30.762,-41.992,-38.574,-57.129
1687767834.465,32.227,-24.902,-39.551,-32.715,-54.199
1687767834.469,26.855,-29.297,-42.480,-39.551,57.617
1687767834.473,23.926,-30.273,-43.945,-52.734,-64.941
1687767834.475,30.762,-27.344,-38.574,-54.688,-171.875
1687767834.479,40.039,-30.273,-37.109,-53.711,-113.770
1687767834.483,49.316,-32.715,-39.551,-54.199,-78.613
1687767834.487,48.828,-36.133,-45.898,-59.082,-124.512
1687767834.491,36.621,-42.480,-50.781,-67.383,-144.043
1687767834.495,19.043,-41.016,-51.758,-64.941,-53.223
1687767834.499,29.297,-32.715,-49.805,-64.453,130.371
1687767834.502,60.547,-28.809,-44.922,-60.059,65.918
1687767834.506,63.477,-27.832,-41.992,-61.523,-133.789
1687767834.510,41.016,-30.762,-46.875,-70.801,-126.953
1687767834.514,37.598,-28.809,-53.711,-71.289,47.852
1687767834.518,55.664,-26.367,-58.594,-79.590,-55.176
1687767834.535,64.453,-27.832,-59.082,-86.914,-185.547
1687767834.539,58.105,-30.762,-65.430,-83.496,-41.504
1687767834.543,49.316,-36.133,-65.430,-81.543,122.559
1687767834.547,39.062,-33.203,-60.059,-92.773,-89.844
1687767834.551,38.086,-30.762,-58.105,-88.867,-137.695
1687767834.555,46.875,-34.668,-57.617,-80.566,98.633
1687767834.559,39.551,-35.156,-58.594,-77.637,94.727
1687767834.562,19.043,-38.086,-58.594,-83.984,-47.852
1687767834.566,10.742,-39.062,-61.035,-90.332,-141.602
1687767834.570,21.484,-29.785,-61.035,-77.637,34.180
1687767834.574,37.598,-23.926,-57.129,-64.453,69.336
1687767834.578,40.527,-32.227,-60.547,-68.359,-105.957
1687767834.580,31.250,-38.574,-65.430,-83.008,-50.781
1687767834.584,19.531,-33.691,-66.406,-85.938,90.820
1687767834.588,28.320,-30.273,-76.660,-86.426,-75.684
1687767834.592,47.363,-33.691,-84.473,-87.402,-128.906
1687767834.596,52.246,-31.250,-80.566,-89.844,-56.152
1687767834.600,46.387,-33.691,-87.402,-94.727,-34.668
1687767834.604,33.691,-39.062,-94.727,-102.539,-0.488
1687767834.607,40.039,-34.668,-92.773,-98.145,-86.426
1687767834.611,54.688,-33.691,-94.727,-89.844,-16.113
1687767834.615,52.246,-33.691,-99.609,-93.262,198.242
1687767834.619,43.457,-40.527,-106.445,-95.215,92.285
1687767834.623,30.273,-43.945,-111.816,-110.352,-175.781
1687767834.626,34.668,-41.016,-115.723,-104.492,-138.672
1687767834.630,49.805,-38.086,-118.652,-83.496,166.992
1687767834.634,57.129,-39.062,-118.164,-95.703,44.434
1687767834.638,55.664,-34.668,-118.164,-101.562,-56.152
1687767834.642,46.387,-28.320,-119.629,-90.820,51.270
1687767834.646,41.504,-33.691,-129.883,-95.703,6.836
1687767834.650,50.293,-38.086,-138.184,-89.355,-95.703
1687767834.653,50.293,-38.574,-141.602,-81.055,-87.402
1687767834.657,46.387,-33.691,-145.020,-76.660,145.020
1687767834.661,38.574,-28.809,-147.949,-81.055,95.215
1687767834.665,32.227,-33.691,-160.156,-88.379,-156.250
1687767834.669,43.457,-37.598,-171.387,-85.938,-132.812
1687767834.670,44.922,-39.551,-168.945,-83.984,-76.660
1687767834.674,35.156,-39.551,-167.480,-91.797,-112.305
1687767834.678,19.043,-37.109,-172.852,-83.984,-172.363
1687767834.682,15.137,-38.086,-176.758,-64.453,-146.484
1687767834.686,26.855,-40.527,-191.895,-77.637,-128.906
1687767834.690,33.691,-41.016,-200.684,-61.035,-119.629
1687767834.694,36.133,-36.621,-201.660,-34.180,0.488
1687767834.697,23.926,-37.109,-202.637,-40.039,84.473
1687767834.701,10.742,-45.410,-205.078,-54.199,256.836
1687767834.705,29.297,-43.945,-207.520,-53.223,87.891
1687767834.709,62.012,-45.410,-205.566,-44.434,-118.652
1687767834.713,58.594,-41.504,-200.195,-22.949,-12.207
1687767834.715,35.645,-34.668,-192.383,-27.832,25.391
1687767834.719,38.574,-38.086,-191.895,-45.410,-94.727
1687767834.723,53.711,-34.180,-197.754,-54.199,-139.648
1687767834.727,74.219,-27.832,-198.242,-43.945,-48.828
1687767834.731,81.543,-27.344,-193.848,-29.785,-80.566
1687767834.735,58.105,-30.273,-186.035,-24.902,-107.910
1687767834.739,41.504,-33.691,-187.500,-49.805,-100.586
1687767834.742,49.316,-31.250,-191.406,-34.180,114.746
1687767834.746,72.266,-25.879,-188.965,2.441,254.395
1687767834.750,71.777,-30.762,-183.594,-11.719,-112.793
1687767834.754,53.711,-43.457,-184.082,-9.277,-218.750
1687767834.758,50.293,-48.340,-190.918,-20.996,-131.348
1687767834.760,61.523,-40.527,-199.219,-36.133,-211.426
1687767834.764,79.590,-39.551,-197.266,-13.672,-164.551
1687767834.768,85.938,-36.133,-190.918,-12.207,-83.496
1687767834.772,83.984,-31.738,-191.406,-10.742,-60.059
1687767834.776,78.613,-36.621,-187.012,7.812,-71.289
1687767834.780,83.008,-38.574,-182.617,11.230,-19.531
1687767834.784,108.398,-43.945,-184.082,3.418,144.531
1687767834.787,125.488,-41.504,-188.965,3.906,277.832
1687767834.791,116.699,-34.180,-182.129,4.883,-2.441
1687767834.795,101.074,-30.762,-182.617,3.418,-270.996
1687767834.799,108.887,-33.203,-193.359,10.254,-23.926
1687767834.803,127.930,-43.945,-195.801,23.926,225.586
1687767834.805,142.578,-49.805,-194.336,17.090,-34.180
1687767834.809,145.996,-44.434,-187.500,11.719,-184.082
1687767834.813,129.883,-38.086,-178.223,9.766,-88.867
1687767834.817,122.559,-35.156,-161.621,-0.977,-122.559
1687767834.821,150.879,-31.250,-176.270,9.766,-183.594
1687767834.825,152.832,-31.738,-186.035,13.672,-75.195
1687767834.829,136.230,-32.227,-179.688,19.043,126.465
1687767834.832,149.414,-27.832,-187.988,24.902,54.688
1687767834.836,143.555,-38.086,-148.438,0.977,-195.312
1687767834.840,145.508,-42.480,-145.508,3.906,-110.840
1687767834.844,178.711,-35.645,-181.641,34.668,-69.824
1687767834.848,174.805,-45.410,-170.410,20.996,-102.051
1687767834.851,167.480,-40.527,-174.805,13.672,-101.562
1687767834.855,169.434,-33.203,-156.250,42.480,-64.453
1687767834.859,169.922,-29.785,-125.000,51.270,110.352
1687767834.863,190.918,-27.832,-129.395,66.895,4.395
1687767834.867,206.055,-34.180,-120.117,83.984,-158.691
1687767834.871,177.246,-30.273,-113.770,76.172,49.805
1687767834.875,139.648,-27.832,-112.793,72.266,230.957
1687767834.878,147.461,-36.621,-72.754,73.730,-6.836
1687767834.882,173.340,-26.367,-79.590,97.656,-127.930
1687767834.886,156.250,-22.949,-90.820,127.441,-22.461
1687767834.890,123.047,-32.227,-63.477,123.535,105.469
1687767834.894,104.492,-29.785,-46.875,104.980,18.555
1687767834.911,110.352,-37.109,-43.457,123.047,-85.449
1687767834.915,134.277,-41.504,-27.344,138.184,33.203
1687767834.919,127.441,-31.250,-12.695,136.230,82.520
1687767834.923,106.445,-18.066,-26.855,130.859,-90.332
1687767834.927,78.613,-18.066,-20.508,122.559,-136.719
1687767834.931,67.871,-25.391,8.789,136.230,164.062
1687767834.935,69.336,-18.555,9.766,147.949,261.719
1687767834.938,70.801,-13.672,8.301,142.090,-106.445
1687767834.942,39.062,-12.695,21.973,133.301,-188.965
1687767834.946,45.410,-26.367,28.320,137.207,-37.109
1687767834.950,57.617,-35.156,52.246,127.930,-121.094
1687767834.954,62.012,-31.738,43.945,131.836,-178.711
1687767834.955,85.449,-30.273,45.410,137.695,-125.000
1687767834.959,80.078,-28.320,55.664,122.070,-105.957
1687767834.963,57.129,-34.180,59.570,106.934,-65.430
1687767834.967,59.570,-25.391,67.383,110.840,-62.988
1687767834.971,77.148,-26.367,79.102,119.629,-38.086
1687767834.975,77.637,-31.738,87.402,115.234,46.387
1687767834.979,60.547,-29.297,93.750,101.074,41.016
1687767834.982,53.711,-33.203,95.215,82.520,-51.270
1687767834.986,48.340,-35.156,103.516,64.941,-99.609
1687767834.990,32.715,-39.551,120.605,79.102,172.363
1687767834.994,48.340,-32.715,120.117,86.426,125.488
1687767834.998,53.711,-30.762,112.793,66.895,-136.719
1687767835.000,42.480,-35.156,121.582,50.781,-84.961
1687767835.004,62.500,-19.531,124.023,58.105,2.930
1687767835.008,73.242,-10.742,135.254,71.289,-95.703
1687767835.012,73.242,-15.137,150.391,61.523,-159.668
1687767835.016,62.988,-12.207,138.184,36.133,-74.707
1687767835.020,36.133,2.930,154.297,20.020,-11.230
1687767835.024,21.484,9.766,149.414,4.883,4.395
1687767835.027,29.785,9.766,120.117,9.277,24.414
1687767835.031,9.766,14.160,127.930,0.977,165.527
1687767835.035,-23.438,17.578,138.184,-40.527,254.395
1687767835.039,-32.715,30.762,129.395,-76.172,-79.102
1687767835.043,-58.594,43.945,122.559,-81.055,-175.293
1687767835.045,-62.012,36.621,134.766,-93.750,-117.188
1687767835.049,-48.828,34.180,120.117,-104.492,-176.758
1687767835.053,-59.570,35.156,97.168,-112.305,-180.176
1687767835.057,-76.660,37.109,100.586,-125.000,-191.895
1687767835.061,-83.984,38.086,103.027,-116.211,-169.922
1687767835.065,-74.707,28.809,105.469,-114.746,-64.941
1687767835.069,-50.293,25.391,97.656,-121.094,-84.961
1687767835.072,-38.574,26.855,96.680,-114.746,-59.570
1687767835.076,-40.039,30.762,106.934,-102.539,165.039
1687767835.080,-42.969,31.250,83.984,-99.121,82.031
1687767835.084,-47.363,27.344,89.355,-103.516,-146.484
1687767835.088,-26.855,29.297,85.938,-79.590,-48.828
1687767835.090,-1.953,17.578,67.383,-59.570,198.242
1687767835.094,-13.672,8.301,60.059,-73.730,-88.379
1687767835.098,-25.879,4.883,49.805,-76.660,-185.547
1687767835.102,11.230,-13.672,48.340,-56.152,-82.031
1687767835.106,47.852,-21.973,47.852,-27.832,-66.895
1687767835.110,37.109,-18.066,48.340,-21.484,1.465
1687767835.114,32.227,-20.508,41.016,-19.043,-35.645
1687767835.117,28.320,-24.902,40.527,-4.883,106.934
1687767835.121,27.344,-32.715,45.410,-12.695,142.090
1687767835.125,40.527,-44.922,57.129,-30.762,-121.094
1687767835.129,46.387,-44.922,48.340,-9.766,-181.152
1687767835.133,61.035,-39.551,37.109,8.789,-45.898
1687767835.135,78.613,-41.992,42.480,16.602,-65.918
1687767835.139,83.984,-46.875,42.969,22.949,-141.113
1687767835.143,110.840,-49.316,19.531,30.273,-64.453
1687767835.147,115.234,-56.152,19.043,40.527,24.902
1687767835.151,90.820,-57.129,32.227,34.668,-69.336
1687767835.155,86.426,-51.270,13.672,25.391,-111.328
1687767835.159,91.797,-54.688,15.625,22.949,98.145
1687767835.162,99.609,-57.617,14.648,33.203,268.066
1687767835.166,111.816,-68.359,17.578,33.203,45.410
1687767835.170,105.469,-65.918,5.371,35.156,-132.324
1687767835.174,70.801,-53.711,7.324,16.113,-20.508
1687767835.178,57.129,-49.805,8.301,-3.418,-43.945
1687767835.181,79.102,-54.688,3.906,19.043,-185.059
1687767835.185,89.844,-66.406,24.902,17.090,-132.812
1687767835.189,71.289,-64.453,12.207,-2.441,61.035
1687767835.193,62.012,-61.523,-3.906,-9.277,11.230
1687767835.197,80.566,-62.012,0.488,-5.859,-84.961
1687767835.201,95.215,-59.570,5.371,5.859,-15.625
1687767835.205,92.285,-54.688,1.465,16.602,124.512
1687767835.208,82.031,-52.246,-6.836,19.531,123.047
1687767835.212,75.684,-55.664,-7.324,-2.930,-155.273
1687767835.216,70.801,-56.152,-13.184,-4.883,-167.480
1687767835.220,62.988,-62.500,-2.930,1.953,-63.477
1687767835.224,74.219,-63.965,18.066,0.000,-96.191
1687767835.225,82.520,-51.270,-4.883,3.418,-108.887
1687767835.229,59.570,-48.828,-8.301,-3.418,-135.742
1687767835.233,44.922,-48.340,3.906,-15.137,-119.141
1687767835.237,54.199,-41.016,-5.371,-16.113,-102.539
1687767835.241,70.801,-41.016,-8.301,-14.648,-106.445
1687767835.245,79.590,-40.039,-12.695,-6.836,10.742
1687767835.249,63.965,-38.086,-10.742,-8.789,306.152
1687767835.252,37.109,-41.016,1.465,-38.086,149.902
1687767835.256,52.246,-24.902,6.348,-35.645,-176.270
1687767835.260,68.848,-22.461,-2.930,-6.348,-129.395
1687767835.264,49.805,-29.785,-2.930,-17.578,-57.129
1687767835.268,21.484,-17.090,-0.977,-38.574,-130.371
1687767835.285,13.184,-20.020,0.977,-42.969,-148.926
1687767835.289,12.695,-22.949,12.207,-54.688,-5.859
1687767835.293,17.578,-7.812,5.371,-69.336,42.480
1687767835.297,-1.465,4.883,-2.930,-91.309,-165.527
1687767835.301,-53.223,10.254,-1.465,-122.559,-181.152
1687767835.305,-94.238,25.391,-3.906,-152.344,26.855
1687767835.309,-105.957,31.738,-5.371,-168.457,46.875
1687767835.312,-112.793,20.996,2.930,-175.781,54.688
1687767835.316,-113.281,16.602,9.277,-189.453,-33.203
1687767835.320,-121.094,23.926,3.418,-177.734,76.660
1687767835.324,-132.812,20.996,1.953,-166.992,159.668
1687767835.328,-116.699,12.695,-0.488,-192.383,-83.984
1687767835.336,-90.332,21.484,-7.812,-177.734,-91.797
1687767835.340,-86.914,23.438,-12.695,-159.668,-66.406
1687767835.344,-98.145,5.859,3.906,-165.527,-154.297
1687767835.348,-101.562,3.418,21.484,-159.668,-184.082
1687767835.352,-81.543,3.418,-20.508,-131.348,-118.652
1687767835.356,-84.473,-10.742,-24.902,-114.746,-12.695
1687767835.360,-52.734,-12.695,-15.137,-96.680,-20.996
1687767835.363,-28.320,-15.137,-28.809,-87.402,-136.230
1687767835.367,-43.945,-16.602,-32.715,-101.562,-129.395
1687767835.371,-31.250,-30.762,-28.320,-83.008,297.852
1687767835.375,-4.395,-39.062,-27.344,-62.012,233.887
1687767835.379,6.836,-38.574,-23.438,-59.570,-88.867
1687767835.375,6.836,-45.410,-31.250,-51.758,-38.574
1687767835.379,14.648,-40.039,-38.086,-33.691,-25.879
1687767835.383,15.137,-47.363,-25.391,-43.945,-189.941
1687767835.387,29.785,-56.641,-34.668,-41.992,-199.219
1687767835.391,41.016,-55.176,-29.785,-26.855,-51.270
1687767835.395,42.969,-60.059,-15.137,-19.043,-28.320
1687767835.399,33.203,-53.711,-39.062,-15.137,-74.219
1687767835.402,11.719,-51.270,-41.016,-37.598,-76.172
1687767835.406,19.531,-59.082,-29.785,-20.020,134.766
1687767835.410,44.434,-58.594,-21.973,5.859,179.688
1687767835.414,53.223,-53.223,-35.156,-4.883,-83.496
1687767835.418,41.992,-57.617,-44.922,-6.836,-102.539
1687767835.420,27.344,-56.641,-34.180,-5.859,50.293
1687767835.424,30.762,-49.805,-27.344,-20.020,-84.473
1687767835.428,46.387,-58.105,-19.531,-14.160,-203.125
1687767835.432,50.293,-65.430,-19.531,-1.953,-150.879
1687767835.436,38.574,-51.758,-30.273,0.977,-108.887
1687767835.440,16.602,-43.457,-27.832,-9.277,-77.637
1687767835.444,22.461,-53.711,-24.414,-14.648,-144.043
1687767835.447,37.598,-50.293,-29.785,4.395,-96.680
1687767835.451,24.414,-46.875,-18.066,1.953,206.055
1687767835.455,37.598,-52.246,-16.113,-15.625,25.879
1687767835.459,29.785,-52.246,-8.789,-32.715,-183.594
1687767835.463,25.391,-53.711,-2.441,-34.180,-34.180
1687767835.468,43.945,-49.805,-26.367,-17.090,23.438
1687767835.472,48.340,-42.969,-22.949,-4.883,-45.410
1687767835.476,43.457,-45.410,4.883,-17.090,-111.328
1687767835.480,39.062,-49.316,-16.602,-20.508,-86.426
1687767835.484,38.574,-49.805,-29.785,-23.438,-41.992
1687767835.488,32.227,-44.434,-17.090,-30.273,-56.152
1687767835.492,32.227,-37.109,-10.742,-28.320,-90.820
1687767835.495,30.273,-35.645,-11.719,-24.902,34.180
1687767835.499,16.113,-36.133,-14.648,-38.086,111.328
1687767835.503,29.785,-37.109,-26.367,-37.598,-53.223
1687767835.507,53.711,-40.039,-29.785,-26.855,-29.785
1687767835.511,42.969,-43.457,-19.043,-29.785,76.660
1687767835.510,31.738,-51.758,-11.230,-40.527,-19.043
1687767835.514,18.555,-51.270,-8.301,-56.152,-140.625
1687767835.518,26.855,-40.039,-10.742,-41.992,-123.535
1687767835.522,35.156,-42.480,-11.230,-34.180,-54.688
1687767835.526,34.180,-40.039,-27.344,-21.973,-43.945
1687767835.530,44.922,-38.086,-37.598,-16.113,-66.895
1687767835.534,40.527,-37.598,-32.715,-28.809,71.289
1687767835.537,23.926,-37.598,-25.879,-28.809,359.375
1687767835.541,29.297,-39.062,-23.438,-32.715,112.793
1687767835.545,44.922,-35.156,-25.391,-30.762,-230.469
1687767835.549,37.598,-44.434,-21.484,-38.086,-38.574
1687767835.553,23.438,-47.363,-17.090,-59.570,75.684
1687767835.555,18.555,-31.250,-22.461,-58.594,-85.449
1687767835.559,28.320,-32.715,-14.648,-42.480,-174.805
1687767835.563,35.645,-39.062,-0.977,-41.992,-121.094
1687767835.567,30.762,-31.738,-19.531,-38.574,-161.621
1687767835.571,19.043,-24.902,-18.066,-40.039,-216.309
1687767835.575,18.066,-27.832,-10.254,-41.016,-108.887
1687767835.579,20.020,-33.203,-22.949,-30.762,145.020
1687767835.582,8.789,-41.016,-16.113,-24.414,259.277
1687767835.586,20.996,-37.598,-21.484,-18.555,-65.430
1687767835.590,20.508,-35.156,-27.832,-23.438,-230.469
1687767835.594,0.977,-33.691,-6.348,-21.973,-57.617
1687767835.598,7.812,-31.738,-6.348,-22.461,-71.777
1687767835.600,23.926,-35.156,-22.949,-22.949,-144.531
1687767835.604,32.715,-34.668,-24.414,-21.484,-104.980
1687767835.608,11.230,-33.691,-17.090,-30.273,-97.656
1687767835.612,-10.742,-30.273,-0.977,-47.363,-141.602
1687767835.616,-5.859,-33.691,9.766,-57.617,-223.633
1687767835.620,9.277,-33.691,-13.184,-48.828,-100.586
1687767835.624,21.484,-25.391,-35.156,-28.320,134.277
1687767835.627,15.625,-25.879,-20.508,-22.949,23.926
1687767835.631,-0.488,-38.086,-5.371,-44.922,-134.277
1687767835.635,0.977,-37.598,-29.297,-49.316,39.062
1687767835.639,4.395,-35.645,-20.508,-39.062,354.004
1687767835.643,6.348,-37.598,-12.695,-37.109,153.320
1687767835.660,7.324,-31.250,-35.645,-39.551,-168.457
1687767835.664,0.488,-37.109,-31.250,-59.082,-114.746
1687767835.668,1.953,-37.109,-18.066,-63.965,-87.891
1687767835.672,2.930,-34.668,-20.020,-55.176,-104.004
1687767835.676,7.812,-40.039,-19.043,-49.805,-86.426
1687767835.680,13.672,-29.297,-32.715,-34.668,-4.883
1687767835.684,4.883,-30.273,-34.180,-48.828,17.090
1687767835.687,2.930,-44.922,-20.508,-55.664,-105.469
1687767835.691,12.207,-39.062,-15.625,-37.109,-174.805
1687767835.695,24.414,-28.320,-29.785,-30.273,71.289
1687767835.699,23.438,-33.203,-24.902,-23.926,119.629
1687767835.703,5.371,-35.645,-13.184,-24.902,-56.641
1687767835.705,3.418,-32.227,-30.273,-22.949,-43.945
1687767835.709,6.348,-33.691,-14.648,-30.273,46.387
1687767835.713,8.301,-17.578,-10.742,-27.832,-42.969
1687767835.717,13.672,-17.090,-9.766,-26.367,-89.844
1687767835.721,3.906,-14.648,-10.254,-37.598,-52.734
1687767835.725,0.977,-9.766,-21.973,-35.645,57.129
1687767835.729,0.977,-20.996,-24.414,-29.297,97.168
1687767835.732,13.672,-29.297,-33.691,-22.461,-54.688
1687767835.736,15.137,-34.180,-30.762,-21.484,4.395
1687767835.740,-22.949,-40.527,-9.277,-43.945,174.316
1687767835.744,-22.949,-40.527,-14.160,-54.199,69.336
1687767835.748,-0.977,-35.156,-15.625,-51.758,-21.973
1687767835.750,17.090,-29.297,-18.066,-41.016,-0.977
1687767835.754,32.715,-30.762,-35.156,-31.738,153.809
1687767835.758,4.395,-41.992,-25.879,-55.176,-55.664
1687767835.762,-8.789,-41.016,-20.020,-56.152,-168.457
1687767835.766,4.883,-29.785,-30.273,-46.387,-10.254
1687767835.770,7.812,-29.785,-35.645,-60.547,-17.578
1687767835.774,12.695,-38.574,-26.367,-60.547,-60.059
1687767835.777,-7.324,-36.133,-21.973,-71.289,-79.590
1687767835.781,-34.668,-40.039,-24.414,-81.055,47.363
1687767835.785,-16.113,-33.691,-53.223,-42.969,58.105
1687767835.789,11.230,-28.809,-50.293,-26.855,-145.020
1687767835.793,12.207,-37.109,-40.527,-38.574,-103.027
1687767835.795,-3.906,-35.156,-47.852,-42.480,-88.867
1687767835.799,-10.742,-25.879,-48.828,-49.316,-132.324
1687767835.803,-9.766,-33.203,-41.992,-54.199,-105.469
1687767835.807,1.465,-40.039,-9.277,-66.895,24.414
1687767835.811,6.348,-31.250,-23.438,-49.805,119.629
1687767835.815,-5.859,-32.227,-31.250,-46.875,93.262
1687767835.819,-23.926,-34.668,-13.184,-67.871,-36.621
1687767835.822,-34.668,-36.133,-28.809,-69.824,-56.152
1687767835.826,-8.301,-42.969,-36.621,-62.012,172.363
1687767835.830,19.043,-37.109,-34.180,-56.152,25.879
1687767835.834,13.184,-29.785,-32.715,-59.082,-122.559
1687767835.838,-15.625,-30.273,-37.598,-60.547,-47.852
1687767835.840,-21.973,-30.762,-44.434,-59.082,-25.879
1687767835.844,-8.789,-30.762,-38.086,-52.246,-157.227
1687767835.848,6.836,-35.156,-31.250,-35.645,-166.504
1687767835.852,0.000,-34.668,-34.668,-37.109,-80.566
1687767835.856,-29.785,-37.109,-34.180,-57.617,-148.438
1687767835.860,-48.828,-35.645,-18.066,-68.359,-137.695
1687767835.864,-43.457,-36.621,-8.789,-65.918,-86.426
1687767835.867,-17.578,-44.434,-18.066,-61.523,175.781
1687767835.871,0.000,-34.668,-46.387,-29.297,407.715
1687767835.875,-24.414,-23.438,-42.480,-33.691,51.758
1687767835.879,-43.457,-24.414,-27.832,-54.199,-116.699
1687767835.883,-22.949,-31.250,-26.855,-63.965,-90.332
1687767835.885,-17.578,-37.598,-6.348,-67.383,-166.016
1687767835.889,-15.625,-40.039,-23.438,-56.641,-235.352
1687767835.893,-26.367,-43.945,-29.297,-48.828,-158.203
1687767835.897,-43.945,-40.527,-33.203,-53.711,-139.160
1687767835.901,-23.926,-31.250,-29.297,-47.363,-162.109
1687767835.905,-11.719,-33.203,0.488,-52.734,-18.555
1687767835.909,-10.254,-40.527,-10.254,-44.434,0.977
1687767835.912,-13.184,-28.320,-37.109,-33.691,169.922
1687767835.916,-12.207,-26.855,-31.738,-36.621,11.719
1687767835.920,14.160,-29.785,-31.738,-40.039,-230.469
1687767835.924,38.086,-27.344,-37.598,-37.598,-55.664
1687767835.928,33.691,-25.879,-28.320,-21.973,181.152
1687767835.930,24.902,-27.832,-18.555,-27.344,-13.184
1687767835.934,19.531,-23.926,-22.949,-28.809,-213.867
1687767835.938,22.461,-14.648,-28.809,-18.066,-142.090
1687767835.942,27.832,-24.414,3.906,-22.461,-99.121
1687767835.946,23.438,-22.461,-7.812,-26.855,-101.074
1687767835.950,34.668,-17.090,-29.297,-12.207,-96.680
1687767835.954,24.414,-33.691,-7.324,-22.461,185.059
1687767835.957,35.156,-32.715,-34.180,-11.719,239.746
1687767835.961,56.641,-33.691,-25.879,-13.184,-112.793
1687767835.965,52.734,-28.320,-13.184,-24.902,-60.547
1687767835.969,61.523,-17.578,-37.109,-20.996,92.285
1687767835.973,46.387,-20.508,-31.738,-40.527,-41.504
1687767835.975,42.480,-30.762,-8.301,-41.992,-110.352
1687767835.979,72.266,-25.391,-21.973,-22.461,-52.734
1687767835.983,75.684,-26.855,-27.344,-14.648,10.742
1687767835.987,54.688,-31.250,-19.043,-22.461,-54.688
1687767835.991,42.969,-32.227,-17.578,-37.109,-160.645
1687767835.995,36.133,-40.527,-28.320,-22.461,13.672
1687767835.999,25.879,-39.551,-20.508,-16.602,228.027
1687767836.002,48.828,-35.645,-22.461,-21.484,30.273
1687767836.006,55.664,-32.227,-27.344,-25.879,-196.777
1687767836.010,35.156,-28.809,-31.250,-34.668,-78.613
1687767836.014,31.250,-40.527,12.695,-41.504,175.293
1687767836.018,48.828,-28.809,-19.531,-36.133,-4.883
1687767836.021,64.453,-20.508,-39.551,-20.020,-67.383
1687767836.025,62.500,-25.391,-14.160,-17.090,92.285
1687767836.029,38.574,-29.785,-20.020,-27.832,177.246
1687767836.033,34.668,-31.250,-31.250,-39.551,-58.105
1687767836.037,49.805,-36.621,-12.695,-28.809,-150.391
1687767836.041,58.594,-31.250,-14.648,-35.156,-5.859
1687767836.045,74.219,-25.879,-37.598,-33.691,14.160
1687767836.048,62.500,-28.809,-31.738,-26.855,-128.906
1687767836.052,32.715,-28.320,-29.785,-33.691,-199.219
1687767836.056,40.527,-33.203,-21.484,-26.855,57.129
1687767836.060,72.266,-35.156,-21.484,-30.273,38.574
1687767836.064,79.590,-29.297,-30.762,-22.949,-172.363
1687767836.080,64.453,-27.832,-22.949,-23.438,-121.094
1687767836.084,48.340,-27.832,-9.277,-36.133,-128.906
1687767836.088,52.246,-28.320,-25.391,-22.949,-115.723
1687767836.092,60.547,-30.762,-37.109,-8.301,-66.406
1687767836.096,57.129,-30.273,-25.391,-26.367,-53.711
1687767836.100,33.203,-38.086,-2.441,-46.387,139.648
1687767836.104,33.203,-41.504,-6.348,-52.734,71.289
1687767836.107,48.828,-38.086,-5.859,-54.688,-135.254
1687767836.111,63.477,-32.227,-33.691,-25.391,-108.398
1687767836.115,64.941,-30.273,-30.762,-30.762,80.566
1687767836.119,41.016,-31.738,-5.371,-56.152,-40.039
1687767836.123,33.203,-28.809,-19.531,-50.781,-176.758
1687767836.125,58.105,0.000,-8.301,-27.344,-75.195
1687767836.129,49.316,-5.859,-20.996,-35.645,0.000
1687767836.133,16.113,-34.668,-35.645,-65.430,-128.906
1687767836.137,16.113,-2.441,1.953,-74.219,-210.938
1687767836.141,1.465,15.625,-3.906,-84.961,-146.973
1687767836.145,-38.086,1.465,-4.883,-105.957,-113.770
1687767836.149,-33.691,0.000,-0.977,-118.652,-27.832
1687767836.152,-49.805,9.766,-12.207,-146.973,28.809
1687767836.156,-76.660,20.508,4.395,-145.508,141.113
1687767836.160,-115.234,25.879,-2.930,-166.016,219.727
1687767836.164,-119.629,31.738,-26.855,-206.543,-140.137
1687767836.168,-118.164,25.879,-8.789,-214.844,-130.859
1687767836.170,-126.465,28.809,-0.488,-214.355,-61.523
1687767836.174,-117.188,33.203,-21.973,-208.984,-217.773
1687767836.178,-146.484,20.508,-18.066,-225.098,-224.121
1687767836.182,-152.832,19.043,-11.230,-221.191,-167.480
1687767836.186,-131.348,24.902,-26.855,-196.289,-98.633
1687767836.190,-117.676,16.602,-25.391,-184.570,-34.668
1687767836.194,-107.422,17.578,-20.020,-181.152,8.789
1687767836.197,-104.004,15.625,-17.090,-183.594,30.273
1687767836.201,-95.215,1.465,-9.766,-161.621,266.602
1687767836.205,-62.012,0.488,-25.391,-133.789,164.062
1687767836.209,-52.246,-2.441,-32.227,-126.953,-15.137
1687767836.213,-42.969,-4.883,-36.621,-121.582,23.926
1687767836.215,-29.785,-9.277,-43.945,-115.234,13.184
1687767836.219,-22.949,-20.996,-47.363,-92.285,-94.238
1687767836.223,-11.230,-33.203,-32.227,-73.730,-81.055
1687767836.227,12.207,-27.344,-28.320,-64.941,10.742
1687767836.231,14.648,-24.902,-48.340,-54.199,35.156
1687767836.235,-0.977,-39.551,-51.270,-45.410,28.809
1687767836.239,9.766,-37.598,-49.316,-38.574,-12.695
1687767836.242,20.508,-43.945,-41.016,-31.738,111.328
1687767836.246,49.316,-52.246,-47.852,-20.020,111.816
1687767836.250,58.594,-50.781,-51.270,-18.066,-144.531
1687767836.254,32.715,-57.129,-32.715,-20.508,-52.246
1687767836.258,25.391,-58.594,-32.715,-21.484,36.621
1687767836.260,40.527,-52.246,-46.875,-25.879,-106.934
1687767836.264,48.340,-56.152,-30.273,-16.113,-171.387
1687767836.268,53.223,-61.035,-31.250,2.441,-158.691
1687767836.272,63.477,-63.477,-46.387,-3.906,-128.906
1687767836.276,60.547,-63.965,-53.711,0.977,-165.039
1687767836.280,48.340,-61.523,-36.621,-1.953,-44.922
1687767836.284,48.340,-67.383,-4.883,-13.184,91.797
1687767836.287,63.477,-60.547,-56.641,35.156,207.520
1687767836.291,68.848,-56.152,-64.941,38.086,-1.465
1687767836.295,67.871,-56.641,-44.434,5.371,-277.344
1687767836.299,73.730,-56.152,-62.012,26.855,-94.238
1687767836.303,66.895,-61.523,-42.969,35.645,125.000
1687767836.306,70.801,-66.406,-35.645,17.578,-6.348
1687767836.310,66.406,-57.129,-44.434,13.184,-105.957
1687767836.314,58.594,-49.316,-54.688,20.996,-48.828
1687767836.318,64.453,-48.340,-54.688,26.855,-93.262
1687767836.322,62.012,-51.270,-40.039,26.367,-144.043
1687767836.326,58.105,-56.152,-33.203,15.137,-71.289
1687767836.330,55.176,-53.711,-31.250,13.184,121.094
1687767836.333,61.523,-46.875,-40.527,21.484,69.336
1687767836.337,74.219,-50.293,-40.039,30.273,-165.527
1687767836.341,76.660,-58.105,-24.414,27.344,-185.059
1687767836.345,60.547,-52.734,-32.227,14.648,-120.605
1687767836.349,55.664,-44.434,-36.621,16.113,-105.957
1687767836.351,55.664,-45.410,-21.484,-1.953,-155.273
1687767836.355,52.246,-47.852,-34.668,11.719,-145.508
1687767836.359,59.570,-48.340,-44.434,27.832,16.602
1687767836.363,55.176,-54.688,-34.668,10.742,-16.602
1687767836.367,57.129,-55.664,-40.039,-6.348,-176.758
1687767836.371,37.598,-51.270,-38.574,-17.090,-47.852
1687767836.375,5.859,-53.223,-34.668,-16.602,355.469
1687767836.378,38.086,-52.246,-33.691,-14.648,221.191
1687767836.382,65.918,-49.316,-4.395,-11.719,-153.320
1687767836.386,40.039,-45.410,-21.484,-11.230,-44.922
1687767836.390,18.066,-48.828,-37.598,-24.414,53.223
1687767836.394,34.180,-49.316,-25.879,-21.973,-80.078
1687767836.410,41.504,-48.828,-41.016,-8.301,-136.719
1687767836.414,44.434,-51.758,-44.434,-11.230,-64.453
1687767836.418,39.062,-49.316,-0.977,-20.996,-6.348
1687767836.422,7.812,-53.711,-14.648,-26.855,-91.797
1687767836.426,3.418,-62.012,-56.152,-34.180,-190.430
1687767836.430,22.461,-57.617,-22.461,-56.641,19.531
1687767836.434,40.039,-50.781,-23.926,-24.414,132.324
1687767836.437,45.410,-48.340,-50.293,-2.930,-104.980
1687767836.441,16.602,-49.316,-27.344,-16.602,-189.941
1687767836.445,1.465,-50.293,0.977,-29.297,1.953
1687767836.449,19.531,-48.828,4.395,-53.711,-6.836
1687767836.453,39.551,-39.062,-37.109,-34.668,-182.129
1687767836.455,37.598,-38.574,-29.297,-18.555,-91.309
1687767836.459,24.902,-45.410,-4.883,-41.504,-0.488
1687767836.463,18.066,-38.086,-44.922,-40.039,-133.789
1687767836.467,23.926,-35.645,-38.574,-46.875,-209.473
1687767836.471,25.879,-44.922,-10.254,-50.293,-68.359
1687767836.475,32.227,-43.945,-27.344,-41.016,82.520
1687767836.479,34.180,-33.691,-40.039,-41.992,3.418
1687767836.482,8.301,-33.691,-24.902,-51.758,-6.348
1687767836.486,13.672,-34.668,-32.227,-50.781,-13.672
1687767836.490,19.043,-46.387,-10.254,-34.180,281.738
1687767836.494,13.672,-55.176,10.742,-64.453,299.316
1687767836.498,21.484,-37.109,-59.570,-76.660,-134.277
1687767836.500,-4.395,-33.691,-46.387,-51.270,-165.527
1687767836.504,-5.859,-33.691,-17.578,-65.918,-76.172
1687767836.508,8.789,-33.691,-34.180,-90.820,-167.480
1687767836.512,19.531,-30.273,-35.156,-55.176,-193.848
1687767836.516,32.715,-26.855,-30.762,-29.785,-33.691
1687767836.520,22.461,-21.484,-44.434,-38.574,20.020
1687767836.524,-2.441,-24.902,-52.246,-54.199,-65.430
1687767836.527,-46.875,-48.828,8.789,-91.309,-53.711
1687767836.531,-31.250,-38.574,-2.930,-89.844,125.488
1687767836.535,-2.930,-31.250,-36.621,-47.852,107.422
1687767836.539,-23.438,-43.945,-17.578,-70.801,-184.570
1687767836.543,1.465,-29.297,-3.906,-108.398,-197.266
1687767836.545,17.578,-24.414,-27.344,-68.359,-59.082
1687767836.549,-4.395,-38.574,-15.137,-48.828,-109.863
1687767836.553,9.766,-30.273,-25.391,-49.316,-126.465
1687767836.557,-6.348,-24.902,-47.852,-41.992,-165.527
1687767836.561,-42.969,-27.832,-15.625,-108.398,-189.941
1687767836.565,-52.734,-44.922,41.016,-129.395,-51.270
1687767836.569,23.926,-20.996,2.441,-111.816,-25.391
1687767836.572,78.613,-0.977,-45.410,-75.684,-90.332
1687767836.576,45.410,-20.508,-15.625,-23.438,160.645
1687767836.580,16.113,-28.320,-24.902,-45.898,33.691
1687767836.584,6.348,-27.832,-20.508,-43.945,-138.672
1687767836.588,21.484,-24.902,-13.184,-36.133,78.125
1687767836.590,13.672,-27.344,-0.977,-47.363,272.461
1687767836.594,-12.207,-39.062,42.480,-96.191,-38.086
1687767836.598,-14.648,-40.039,39.551,-57.129,-187.988
1687767836.602,14.648,-29.297,39.551,-70.801,-58.105
1687767836.606,37.109,-33.691,34.668,-108.887,-95.215
1687767836.610,9.766,-24.414,-7.324,-41.992,-46.875
1687767836.614,-12.207,-11.230,-10.742,-46.875,30.762
1687767836.617,22.461,-8.301,-18.555,-19.531,121.094
1687767836.621,28.320,-10.254,-17.090,7.812,107.910
1687767836.625,-7.812,-19.531,12.695,-23.438,-136.719
1687767836.629,-59.082,-40.527,69.336,-69.824,-138.672
1687767836.633,-51.758,-47.363,65.430,-134.277,-93.750
1687767836.636,-44.922,-37.598,39.062,-131.348,-165.039
1687767836.640,-28.320,-14.160,5.859,-25.391,-160.156
1687767836.644,-30.273,-13.184,-3.418,11.230,-20.020
1687767836.648,-15.625,-28.809,7.812,-6.348,14.648
1687767836.652,55.176,-33.691,19.531,-35.156,-22.461
1687767836.656,40.039,-38.574,4.883,-22.949,-21.973
1687767836.660,34.668,-27.344,-6.348,6.836,36.621
1687767836.663,35.156,-18.066,28.320,-13.672,254.395
1687767836.667,-6.348,-26.855,41.504,-76.660,51.270
1687767836.671,-6.348,-21.484,22.949,-119.629,-172.852
1687767836.675,-6.348,-27.344,10.254,-56.152,-43.457
1687767836.679,7.812,-36.621,31.738,-19.043,66.406
1687767836.680,33.203,-28.320,29.785,-50.293,-117.676
1687767836.684,35.156,-24.902,45.410,-4.883,-162.598
1687767836.688,43.945,-14.648,24.902,-4.395,-48.828
1687767836.692,52.246,-7.812,8.789,-19.043,-80.566
1687767836.696,19.043,-13.184,37.109,-27.832,-136.719
1687767836.700,39.062,-18.066,48.340,-25.391,-35.156
1687767836.704,22.949,-19.531,56.641,-17.578,216.309
1687767836.707,16.602,-18.066,54.688,-56.152,341.309
1687767836.711,20.508,-13.184,37.109,-47.363,15.137
1687767836.715,-32.715,-33.691,74.219,-28.809,-170.898
1687767836.719,32.227,-19.531,46.875,-6.348,-105.469
1687767836.723,48.340,-10.742,37.109,1.953,-92.285
1687767836.725,39.062,-22.949,48.340,-8.301,-110.840
1687767836.729,44.434,-4.883,22.461,-22.461,-83.984
1687767836.733,90.820,-17.578,38.086,-25.391,-92.285
1687767836.737,89.844,-28.809,51.270,-5.371,-95.215
1687767836.741,48.828,-29.785,45.898,-0.488,-126.465
1687767836.745,35.645,-16.602,38.574,3.906,8.789
1687767836.749,23.438,-20.020,46.387,5.859,240.234
1687767836.752,-6.836,-29.297,51.758,-15.625,101.074
1687767836.756,24.902,-26.855,41.992,-12.695,-83.984
1687767836.760,67.383,-31.738,39.551,15.625,-37.109
1687767836.764,57.129,-33.203,38.574,26.367,255.859
1687767836.768,42.969,-35.156,22.949,-7.324,-36.621
1687767836.785,3.906,-32.715,22.461,-25.879,-227.051
1687767836.789,-7.812,-30.762,23.926,1.953,-123.535
1687767836.793,18.066,-26.367,26.367,8.301,-132.324
1687767836.797,2.930,-29.297,32.227,2.441,-161.621
1687767836.801,5.371,-38.574,14.648,18.066,-135.742
1687767836.805,-13.184,-35.156,9.277,7.812,0.488
1687767836.809,-26.367,-26.367,5.859,11.719,-16.602
1687767836.812,6.836,-43.457,18.066,29.297,-67.871
1687767836.816,22.949,-33.203,14.648,27.344,-82.031
1687767836.820,-40.527,-21.484,-8.789,23.438,225.098
1687767836.824,-42.969,-44.434,-12.207,38.086,254.395
1687767836.828,-20.996,-57.129,-8.301,18.066,-108.887
1687767836.830,-34.180,-53.223,15.137,3.906,-78.125
1687767836.834,-1.953,-32.715,-5.859,14.648,-6.348
1687767836.838,1.465,-40.527,-14.160,7.812,-126.953
1687767836.842,-41.016,-42.480,-17.090,4.883,-162.109
1687767836.846,5.859,-47.363,-29.297,20.020,-86.426
1687767836.850,22.461,-41.504,-37.598,37.598,75.684
1687767836.854,-15.625,-36.133,-30.273,43.457,137.207
1687767836.857,12.207,-42.969,-15.137,18.555,32.227
1687767836.861,-11.230,-38.574,-21.973,-1.465,-33.203
1687767836.865,-31.738,-37.109,-29.785,19.531,243.652
1687767836.869,18.066,-31.250,-36.621,20.508,177.246
1687767836.873,8.301,-31.738,-41.504,11.719,-22.949
1687767836.875,-11.230,-33.691,-11.719,12.695,41.992
1687767836.879,-41.016,-47.363,24.902,-29.785,170.898
1687767836.883,6.836,-41.016,-37.598,-2.930,-33.691
1687767836.887,32.227,-25.391,-63.965,32.227,-171.387
1687767836.891,28.809,-35.156,-35.156,43.457,-63.965
1687767836.895,41.504,-49.316,-32.227,40.039,17.578
1687767836.899,-20.020,-41.504,-17.090,1.465,40.527
1687767836.902,-58.594,-32.227,-7.812,-35.156,-102.539
1687767836.906,-16.113,-32.227,-44.922,15.137,25.391
1687767836.910,5.859,-15.137,-49.316,43.457,91.797
1687767836.914,-11.719,-19.043,-30.762,17.578,-192.871
1687767836.918,1.953,-23.438,-22.949,3.418,-224.121
1687767836.921,-3.418,-21.484,-21.973,5.371,-148.926
1687767836.925,-33.691,-26.855,-7.812,-14.648,-119.629
1687767836.929,-11.719,-21.484,-28.809,-36.133,-103.516
1687767836.933,22.949,-29.297,-50.293,7.812,-67.871
1687767836.937,1.953,-29.297,-36.133,-11.230,-7.324
1687767836.941,-7.812,-24.414,-48.340,-57.617,-37.109
1687767836.945,-20.020,-38.086,-34.180,-54.199,-101.074
1687767836.948,-6.348,-35.156,-25.391,-19.531,-3.906
1687767836.952,15.625,-30.762,-33.203,6.348,189.453
1687767836.956,-5.371,-43.945,-41.992,-8.789,-9.277
1687767836.960,-35.156,-43.945,-43.457,-21.973,-117.188
1687767836.964,4.395,-31.250,-41.504,-17.090,-12.207
1687767836.965,6.836,-16.602,-37.109,3.418,8.301
1687767836.969,-28.320,-25.879,-25.879,-20.508,-97.656
1687767836.973,7.812,-32.227,-42.480,-32.715,-138.184
1687767836.977,6.836,-31.738,-26.855,-52.734,-62.500
1687767836.981,-2.441,-36.133,-28.809,-51.758,-22.949
1687767836.985,-10.742,-24.414,-44.922,-33.203,2.930
1687767836.989,-6.348,-39.551,-24.414,-41.504,-18.555
1687767836.992,-25.391,-37.109,-40.039,-40.039,57.617
1687767836.996,-1.465,-17.090,-46.875,-26.855,165.039
1687767837.000,37.109,-26.367,-16.602,-56.641,-144.043
1687767837.004,30.273,-32.715,-37.109,-47.363,-195.801
1687767837.008,19.531,-25.879,-62.012,-10.742,-102.051
1687767837.010,-11.230,-25.391,-45.898,-40.527,-190.430
1687767837.014,-12.695,-42.969,-30.762,-60.547,-220.703
1687767837.018,-18.066,-44.434,-33.203,-53.711,-201.172
1687767837.022,-9.766,-41.992,-35.156,-34.668,-121.094
1687767837.026,-16.602,-42.480,-42.969,-36.133,-83.496
1687767837.030,-41.992,-33.203,-38.574,-43.457,-40.527
1687767837.034,-56.152,-28.320,-27.344,-58.105,81.543
1687767837.037,-72.266,-40.039,-21.484,-73.730,425.781
1687767837.041,-57.617,-45.898,-21.973,-55.176,203.125
1687767837.045,-45.898,-39.551,-28.320,-40.527,-147.461
1687767837.049,-65.918,-33.691,-43.457,-47.363,4.883
1687767837.053,-93.262,-35.645,-41.992,-48.828,61.035
1687767837.055,-51.758,-40.039,-27.344,-66.406,-132.812
1687767837.059,-42.480,-38.086,-32.715,-82.520,-221.191
1687767837.063,-47.363,-38.574,-40.039,-47.852,-103.027
1687767837.067,-37.109,-33.691,-37.109,-25.391,-78.613
1687767837.071,-61.035,-21.484,-36.621,-56.641,-166.992
1687767837.075,-59.082,-24.902,-31.250,-86.914,-145.508
1687767837.079,-25.879,-35.645,-26.367,-63.965,198.242
1687767837.082,-26.367,-52.246,-43.945,-40.527,186.523
1687767837.086,-41.016,-60.547,-31.738,-60.547,-117.676
1687767837.090,-63.965,-46.387,1.953,-74.219,-129.395
1687767837.094,-76.172,-30.273,-41.504,-55.664,-30.273
1687767837.098,-66.406,-19.043,-57.129,-44.922,-74.219
1687767837.100,-41.992,-35.645,-39.062,-46.875,-148.926
1687767837.104,-21.484,-23.438,-50.293,-48.828,-103.027
1687767837.108,-37.109,-17.090,-46.387,-62.500,-42.480
1687767837.112,-44.434,-30.762,-38.574,-66.895,-115.723
1687767837.116,-35.156,-30.273,-25.879,-61.523,-192.871
1687767837.120,-46.875,-25.391,-34.668,-70.801,30.762
1687767837.124,-40.039,-28.809,-37.109,-65.430,255.859
1687767837.127,-27.832,-28.809,-28.320,-68.848,53.223
1687767837.131,-28.809,-22.461,-41.016,-73.242,-130.371
1687767837.135,-21.973,-22.949,-18.555,-63.477,-87.402
1687767837.139,-41.992,-34.180,-14.160,-57.129,95.703
1687767837.143,-24.902,-30.762,-48.828,-41.016,76.172
1687767837.146,-2.930,-26.855,-36.133,-50.781,-98.633
1687767837.150,-43.945,-33.691,-18.555,-67.871,-45.898
1687767837.154,-53.223,-27.832,-40.527,-47.852,90.820
1687767837.158,-41.992,-25.879,-40.527,-50.781,-84.961
1687767837.162,-25.391,-32.227,-32.227,-72.754,-187.012
1687767837.166,-33.203,-32.227,-36.621,-72.266,-28.809
1687767837.170,-56.641,-35.156,-46.387,-39.551,71.289
1687767837.173,-66.895,-37.109,-43.457,-54.199,-101.562
1687767837.177,-43.945,-34.180,-26.367,-80.078,-170.410
1687767837.181,7.324,-36.621,-31.250,-57.129,66.406
1687767837.185,0.488,-40.039,-29.297,-56.152,39.062
1687767837.189,-39.062,-42.969,-24.902,-63.965,-147.949
1687767837.205,-62.012,-43.945,-39.551,-62.500,-157.715
1687767837.209,-36.133,-44.434,-49.805,-62.500,-46.875
1687767837.213,-30.273,-37.109,-37.109,-60.547,-48.340
1687767837.217,-43.945,-35.156,-31.738,-48.828,-86.914
1687767837.221,-32.715,-45.898,-17.090,-60.547,-11.230
1687767837.225,-29.297,-46.387,-9.766,-56.641,206.055
1687767837.229,-29.297,-32.715,-34.668,-42.480,110.352
1687767837.232,-24.414,-22.949,-48.828,-58.105,-118.164
1687767837.236,-24.902,-28.320,-38.574,-68.359,-88.867
1687767837.240,-40.039,-27.832,-33.203,-69.336,139.160
1687767837.244,-48.340,-20.996,-33.203,-75.684,50.293
1687767837.248,-65.430,-28.320,-20.996,-69.824,-113.770
1687767837.250,-26.855,-27.832,-24.902,-75.684,-49.805
1687767837.254,-10.742,-21.973,-41.504,-71.777,2.930
1687767837.258,-43.945,-29.297,-46.387,-61.035,-150.879
1687767837.262,-58.594,-26.855,-31.250,-64.941,-110.840
1687767837.266,-39.062,0.977,-16.113,-70.312,50.781
1687767837.270,-37.598,-9.277,-17.090,-71.777,98.145
1687767837.274,-44.434,-19.531,-25.879,-79.102,20.020
1687767837.277,-41.504,-10.742,-32.227,-85.449,-104.980
1687767837.281,-60.547,-2.441,-32.227,-85.938,28.320
1687767837.285,-62.500,4.883,-3.418,-98.633,118.652
1687767837.289,-72.266,6.836,-14.648,-123.047,-116.699
1687767837.293,-116.699,11.230,-45.898,-157.227,-126.953
1687767837.295,-139.160,14.648,-41.504,-172.363,-100.098
1687767837.299,-177.246,23.438,-32.227,-205.566,-167.969
1687767837.303,-148.926,31.250,-34.668,-231.445,-166.016
1687767837.307,-124.512,30.762,-41.016,-206.543,-180.176
1687767837.311,-181.152,31.250,-14.160,-224.609,-124.512
1687767837.315,-195.312,36.621,-17.578,-232.422,-35.156
1687767837.319,-168.945,27.344,-23.926,-231.934,-50.293
1687767837.322,-159.668,15.137,-21.484,-208.984,-11.719
1687767837.326,-149.902,15.625,-36.133,-167.480,225.098
1687767837.330,-125.488,12.695,-24.902,-167.480,91.309
1687767837.334,-131.836,4.395,-12.695,-176.758,-122.559
1687767837.338,-148.926,2.930,-29.785,-163.574,-13.184
1687767837.340,-120.117,4.883,-38.574,-166.016,27.832
1687767837.344,-110.352,9.277,-38.086,-172.852,-97.168
1687767837.348,-90.820,0.977,-51.758,-146.484,-91.797
1687767837.352,-74.219,-7.324,-54.688,-126.953,-46.387
1687767837.356,-79.590,-16.602,-46.875,-128.906,-41.992
1687767837.360,-80.566,-29.785,-56.152,-126.465,-26.855
1687767837.364,-48.828,-21.973,-55.176,-111.328,-71.289
1687767837.367,-56.641,-43.457,-27.344,-103.516,89.844
1687767837.371,-47.363,-48.340,-35.645,-77.148,222.656
1687767837.375,-46.387,-38.574,-61.523,-81.543,-106.934
1687767837.379,-55.664,-36.621,-72.266,-84.473,-177.734
1687767837.383,-18.555,-42.480,-54.199,-75.684,-9.766
1687767837.385,3.418,-55.176,-59.570,-61.035,-60.059
1687767837.389,8.789,-52.246,-58.594,-44.922,-141.602
1687767837.393,-28.809,-51.758,-56.152,-37.109,-177.734
1687767837.397,-50.293,-59.082,-65.430,-33.691,-155.273
1687767837.401,-24.414,-57.129,-62.988,-28.809,-76.172
1687767837.405,1.953,-55.176,-63.477,-17.090,-83.496
1687767837.409,-3.418,-49.805,-59.570,-5.859,29.297
1687767837.412,-26.855,-49.316,-53.711,-4.395,244.629
1687767837.416,-11.719,-61.035,-38.574,-19.531,20.508
1687767837.420,20.020,-57.129,-46.875,-26.855,-230.469
1687767837.424,51.758,-42.969,-42.969,-17.578,-39.062
1687767837.428,-3.906,-51.270,-17.578,-28.809,140.625
1687767837.430,1.953,-57.617,-43.457,-30.273,-14.648
1687767837.434,55.664,-53.223,-50.781,-28.320,-121.094
1687767837.438,31.738,-56.152,-39.062,-21.973,-23.926
1687767837.442,50.293,-45.898,-51.758,-18.555,-62.988
1687767837.446,94.238,-43.457,-49.805,-2.441,-165.039
1687767837.450,53.223,-54.199,-31.250,-2.441,-68.848
1687767837.454,24.414,-61.035,-41.016,3.418,105.957
