timestamps,TP9,AF7,AF8,TP10,Right AUX
1687767380.395,-49.316,-25.391,-37.598,-33.203,-171.387
1687767380.399,-38.574,-30.273,-46.387,-33.203,-175.781
1687767380.403,-28.320,-32.715,-49.805,-30.273,-97.168
1687767380.407,-26.367,-24.902,-44.922,-21.973,-108.887
1687767380.411,-31.738,-13.672,-43.457,-35.156,-88.867
1687767380.415,-25.391,-10.742,-39.551,-42.480,-18.066
1687767380.419,-19.531,-3.418,-41.016,-29.297,145.020
1687767380.422,-28.809,-1.465,-50.293,-31.250,298.340
1687767380.426,-31.250,-11.230,-58.594,-54.199,-4.883
1687767380.430,-39.551,-20.996,-58.105,-71.777,-167.969
1687767380.434,-49.805,-22.949,-46.387,-61.523,-9.766
1687767380.438,-39.551,-18.066,-43.945,-49.316,77.637
1687767380.440,-20.020,-14.160,-50.293,-46.875,-44.922
1687767380.444,-19.043,-18.555,-42.480,-40.527,-116.699
1687767380.448,-24.902,-23.926,-43.457,-30.762,35.156
1687767380.452,-20.020,-13.184,-45.898,-34.180,-23.438
1687767380.456,-14.160,-8.789,-37.598,-32.227,-136.230
1687767380.460,-15.625,-12.207,-40.527,-32.227,27.832
1687767380.464,-33.691,-20.508,-48.828,-32.227,298.828
1687767380.467,-40.527,-24.414,-50.781,-26.855,64.453
1687767380.471,-41.504,-20.508,-51.270,-36.621,-213.379
1687767380.475,-40.527,-15.137,-50.293,-33.203,-125.000
1687767380.479,-33.203,-14.648,-49.316,-20.508,-28.809
1687767380.483,-40.039,-19.043,-49.805,-28.320,-103.516
1687767380.500,-45.410,-22.949,-56.152,-41.504,-202.148
1687767380.504,-37.109,-24.902,-67.871,-38.574,-134.277
1687767380.508,-27.344,-16.602,-56.152,-28.809,27.344
1687767380.512,-24.902,-13.184,-48.828,-39.062,-62.500
1687767380.516,-27.344,-17.578,-50.781,-36.621,-157.227
1687767380.520,-24.902,-18.066,-52.246,-18.066,-12.207
1687767380.524,-29.785,-20.996,-57.617,-27.832,192.871
1687767380.527,-27.344,-22.461,-54.199,-41.992,62.500
1687767380.531,-5.859,-18.555,-43.945,-39.062,-122.070
1687767380.535,-19.043,-14.648,-43.945,-29.785,-17.090
1687767380.539,-36.621,-23.438,-52.246,-26.855,66.406
1687767380.543,-22.949,-29.785,-43.457,-32.227,-39.062
1687767380.545,-24.414,-23.438,-39.551,-48.828,-89.844
1687767380.549,-26.855,-20.996,-47.852,-34.180,66.406
1687767380.553,-23.926,-20.508,-51.270,-31.250,108.398
1687767380.557,-20.996,-17.578,-41.992,-44.434,-107.422
1687767380.561,-33.691,-27.832,-42.969,-45.898,-61.523
1687767380.565,-38.574,-34.668,-52.734,-42.480,91.797
1687767380.569,-41.504,-35.645,-49.316,-49.316,84.473
1687767380.572,-42.969,-35.156,-47.363,-52.246,-81.055
1687767380.576,-38.086,-34.180,-55.664,-46.387,-152.344
1687767380.580,-46.875,-35.156,-50.781,-39.551,164.551
1687767380.584,-44.922,-30.762,-44.434,-32.715,126.465
1687767380.588,-35.645,-27.344,-51.270,-29.297,-161.133
1687767380.590,-47.363,-32.227,-58.594,-39.551,-147.461
1687767380.594,-44.434,-24.414,-54.199,-44.922,-96.191
1687767380.598,-31.250,-15.625,-54.688,-41.016,-132.324
1687767380.602,-41.016,-23.926,-57.129,-34.668,-149.414
1687767380.606,-46.387,-32.715,-46.387,-31.738,-98.145
1687767380.610,-41.016,-30.762,-43.945,-38.574,20.020
1687767380.614,-34.180,-25.391,-41.504,-42.969,-88.379
1687767380.617,-34.668,-24.902,-38.574,-44.434,-242.188
1687767380.621,-33.203,-18.066,-34.668,-39.551,-84.473
1687767380.625,-35.156,-18.555,-36.621,-39.551,39.062
1687767380.629,-41.504,-24.414,-47.852,-43.457,-116.211
1687767380.633,-34.180,-25.391,-44.434,-35.156,-105.957
1687767380.635,-34.180,-35.645,-39.062,-33.691,113.281
1687767380.639,-40.039,-39.551,-44.922,-42.969,211.914
1687767380.643,-39.551,-31.738,-45.410,-53.711,-48.340
1687767380.647,-33.691,-24.414,-42.480,-45.410,-182.129
1687767380.651,-34.668,-23.438,-36.133,-29.297,-96.680
1687767380.655,-39.551,-29.297,-29.785,-29.297,-36.133
1687767380.659,-43.457,-27.832,-27.344,-30.273,-23.926
1687767380.662,-39.062,-35.645,-36.133,-33.691,0.977
1687767380.666,-42.480,-47.852,-49.805,-32.227,187.500
1687767380.670,-34.668,-42.480,-57.129,-29.785,163.086
1687767380.674,-29.297,-33.203,-49.316,-40.527,-179.688
1687767380.678,-34.668,-28.809,-32.715,-49.805,-223.633
1687767380.680,-24.414,-23.438,-34.668,-43.457,-92.285
1687767380.684,-20.508,-18.066,-37.598,-49.316,-128.418
1687767380.688,-15.625,-16.113,-36.133,-58.105,-98.633
1687767380.692,-18.066,-20.508,-33.691,-63.965,-38.574
1687767380.696,-25.879,-24.902,-41.504,-58.105,-55.176
1687767380.700,-38.086,-25.879,-46.387,-52.246,-3.906
1687767380.704,-45.898,-24.414,-40.039,-47.363,20.996
1687767380.707,-50.781,-22.949,-42.480,-40.039,79.590
1687767380.711,-40.527,-23.926,-41.016,-31.738,259.277
1687767380.715,-41.992,-24.414,-34.668,-31.250,-30.762
1687767380.719,-54.688,-25.879,-32.227,-42.969,-198.242
1687767380.723,-60.547,-32.715,-35.645,-56.641,103.516
1687767380.725,-66.895,-34.180,-34.180,-67.383,232.910
1687767380.729,-71.777,-43.457,-22.949,-81.543,-126.465
1687767380.733,-79.102,-54.199,-8.789,-91.797,-204.590
1687767380.737,-85.938,-59.570,-2.441,-97.168,-66.895
1687767380.741,-97.168,-71.777,15.137,-103.516,-92.773
1687767380.745,-127.930,-79.102,28.320,-122.070,-81.543
1687767380.749,-154.297,-85.938,48.828,-139.160,-16.602
1687767380.752,-162.598,-89.355,80.078,-160.645,177.734
1687767380.756,-200.195,-92.285,89.355,-199.707,79.102
1687767380.760,-246.582,-112.305,94.727,-236.816,-75.195
1687767380.764,-279.297,-125.000,113.281,-263.672,36.133
1687767380.768,-310.547,-118.164,126.953,-283.691,6.836
1687767380.770,-333.496,-116.699,133.301,-308.594,-81.055
1687767380.774,-351.562,-121.094,127.930,-328.125,-67.871
1687767380.778,-351.074,-120.117,120.117,-333.984,-51.758
1687767380.782,-360.352,-109.375,119.141,-354.492,-72.754
1687767380.786,-378.418,-100.098,114.258,-363.770,-118.164
1687767380.790,-373.047,-99.121,112.305,-375.488,-140.625
1687767380.794,-374.023,-103.027,106.445,-375.000,-3.418
1687767380.797,-372.559,-102.051,102.051,-366.211,246.582
1687767380.801,-358.887,-102.051,104.492,-364.258,-20.996
1687767380.805,-350.098,-107.422,99.609,-345.703,-188.965
1687767380.809,-329.590,-105.469,91.309,-335.938,-68.848
1687767380.813,-299.805,-95.703,94.238,-312.012,-60.059
1687767380.816,-289.062,-96.191,100.586,-286.133,-13.184
1687767380.820,-270.508,-101.074,100.098,-270.996,-41.504
1687767380.824,-246.582,-103.516,96.191,-254.883,124.512
1687767380.828,-221.191,-92.773,90.820,-224.609,189.453
1687767380.832,-197.266,-93.750,80.078,-193.359,-95.703
1687767380.836,-172.852,-107.910,66.895,-177.734,-6.348
1687767380.840,-140.625,-97.168,62.012,-152.832,214.844
1687767380.843,-119.141,-92.285,52.734,-128.906,44.434
1687767380.847,-90.332,-92.773,36.621,-106.934,-168.457
1687767380.851,-60.059,-90.820,29.785,-91.309,-119.141
1687767380.855,-59.082,-98.633,20.996,-72.266,-117.188
1687767380.859,-53.223,-104.004,6.836,-46.387,-117.676
1687767380.875,-30.273,-100.586,5.371,-32.227,-189.453
1687767380.879,-24.414,-94.238,6.836,-31.250,-245.605
1687767380.883,-32.227,-76.660,-15.625,-38.086,-109.863
1687767380.887,-12.695,-56.641,-37.109,-17.090,-89.355
1687767380.891,19.043,-42.969,-29.785,11.719,-178.223
1687767380.895,18.066,-53.711,-35.645,7.812,8.301
1687767380.899,30.273,-51.270,-56.152,17.578,425.293
1687767380.902,44.922,-36.621,-68.848,26.855,117.676
1687767380.906,44.922,-31.250,-79.590,24.902,-132.324
1687767380.910,55.176,-20.020,-85.938,54.199,18.555
1687767380.914,68.359,-17.090,-86.914,73.730,-47.852
1687767380.918,74.707,-23.438,-100.098,66.895,-134.766
1687767380.920,71.289,-19.531,-114.258,73.242,-144.043
1687767380.924,75.684,-14.648,-110.840,85.938,-5.371
1687767380.928,85.938,-8.789,-103.516,89.355,24.414
1687767380.932,77.148,-2.441,-111.328,85.938,-148.926
1687767380.936,82.031,-2.441,-114.258,79.590,-144.043
1687767380.940,93.262,0.977,-116.211,85.449,192.383
1687767380.944,83.008,0.488,-125.977,84.473,176.270
1687767380.947,80.566,1.465,-132.324,81.543,-82.031
1687767380.951,87.891,4.395,-129.883,81.543,-27.344
1687767380.955,93.262,6.348,-122.070,96.680,197.754
1687767380.959,96.191,5.859,-126.953,106.445,36.621
1687767380.963,94.238,1.953,-125.000,75.684,-169.434
1687767380.965,103.516,3.906,-118.652,63.477,-65.430
1687767380.969,103.516,3.418,-120.117,78.125,3.418
1687767380.973,92.773,0.488,-121.582,71.777,-112.793
1687767380.977,81.055,0.000,-117.676,56.152,-222.656
1687767380.981,78.125,-1.953,-114.258,65.918,-152.832
1687767380.985,84.961,1.465,-112.793,78.125,-24.414
1687767380.989,92.285,2.930,-104.980,79.590,-61.523
1687767380.992,89.844,-3.418,-104.004,73.242,-151.855
1687767380.996,83.984,-4.883,-108.398,75.195,-11.719
1687767381.000,78.125,-8.789,-107.910,68.359,243.164
1687767381.004,69.824,-10.742,-98.145,55.664,56.152
1687767381.008,53.223,-17.090,-86.914,49.805,-138.184
1687767381.010,61.035,-17.090,-91.797,59.570,20.020
1687767381.014,66.406,-6.836,-92.285,66.895,9.277
1687767381.018,55.176,0.000,-95.703,49.805,-198.242
1687767381.022,41.504,2.441,-101.562,32.227,-176.758
1687767381.026,37.109,-10.254,-105.469,28.320,-99.609
1687767381.030,38.086,-15.137,-99.121,39.062,-12.207
1687767381.034,45.410,-11.230,-88.867,50.781,-30.273
1687767381.037,55.176,-12.207,-93.262,46.875,-73.730
1687767381.041,61.035,-15.625,-96.680,46.387,151.855
1687767381.045,63.965,-17.090,-89.844,34.180,184.570
1687767381.049,49.805,-17.090,-83.008,11.719,-64.453
1687767381.053,30.273,-24.414,-83.984,13.672,-69.824
1687767381.055,27.832,-25.879,-85.938,18.555,-24.414
1687767381.059,25.879,-24.414,-72.754,0.488,-113.770
1687767381.063,35.156,-18.555,-53.711,7.812,-135.254
1687767381.067,30.762,-15.625,-54.688,3.906,-157.227
1687767381.071,16.602,-15.137,-63.477,-4.395,-152.344
1687767381.075,26.367,-11.230,-75.195,5.859,-111.816
1687767381.079,26.367,-18.066,-79.102,6.836,-110.840
1687767381.082,19.531,-22.949,-62.988,12.207,29.785
1687767381.086,14.648,-21.484,-54.688,18.066,219.727
1687767381.090,9.277,-17.578,-58.594,6.348,1.465
1687767381.094,6.348,-20.508,-62.012,-9.277,-151.855
1687767381.098,0.000,-22.461,-58.594,-2.441,-5.859
1687767381.101,-6.348,-21.484,-63.477,-1.465,24.414
1687767381.105,-1.953,-20.996,-64.453,-5.859,-173.828
1687767381.109,6.348,-16.113,-65.430,-3.418,-171.875
1687767381.113,7.812,-19.531,-63.965,-8.301,73.730
1687767381.117,20.508,-21.484,-52.734,-6.348,74.707
1687767381.121,19.043,-21.973,-52.734,-10.742,-64.941
1687767381.125,4.883,-25.879,-57.129,-19.043,-67.871
1687767381.128,-4.883,-29.785,-62.500,-25.391,146.973
1687767381.132,2.930,-22.949,-56.152,-21.973,92.285
1687767381.136,5.371,-18.555,-54.199,-31.738,-145.996
1687767381.140,-7.324,-25.391,-66.406,-37.109,-69.336
1687767381.144,-12.695,-30.762,-66.895,-27.344,35.156
1687767381.146,-15.625,-27.832,-64.453,-22.949,-86.914
1687767381.150,-11.719,-19.531,-59.570,-14.160,-108.398
1687767381.154,-14.648,-23.438,-60.547,-20.020,-26.367
1687767381.158,-18.555,-24.414,-65.430,-32.227,-14.160
1687767381.162,-32.227,-28.320,-58.594,-32.715,-75.684
1687767381.166,-43.945,-30.273,-51.270,-36.133,-105.957
1687767381.170,-40.527,-24.414,-47.852,-38.086,19.531
1687767381.173,-44.434,-20.020,-44.434,-31.250,306.152
1687767381.177,-48.828,-20.508,-45.898,-27.832,141.602
1687767381.181,-49.805,-19.531,-51.758,-36.621,-73.730
1687767381.185,-47.363,-18.066,-50.781,-37.598,-14.648
1687767381.189,-41.016,-22.949,-50.781,-28.809,34.668
1687767381.190,-39.551,-26.367,-54.199,-37.109,-17.578
1687767381.194,-26.367,-24.414,-57.129,-34.668,-101.562
1687767381.198,-34.180,-26.367,-55.664,-26.855,65.918
1687767381.202,-37.109,-28.809,-54.688,-23.438,44.922
1687767381.206,-29.785,-31.250,-60.547,-17.578,-136.719
1687767381.210,-36.133,-29.785,-53.223,-21.484,-84.473
1687767381.214,-29.785,-30.273,-45.410,-23.438,289.551
1687767381.217,-11.230,-25.879,-45.410,-14.648,395.508
1687767381.221,-4.395,-19.531,-51.758,-14.648,-48.340
1687767381.225,-9.766,-20.508,-57.129,-39.551,-139.160
1687767381.229,-4.395,-15.625,-54.199,-53.223,-57.129
1687767381.233,1.465,-13.672,-51.270,-61.035,-91.309
1687767381.235,-1.953,-20.508,-44.922,-50.781,-68.359
1687767381.239,-11.230,-29.785,-51.270,-30.273,-2.930
1687767381.243,-25.879,-34.180,-56.641,-42.480,-34.180
1687767381.247,-34.668,-28.320,-48.828,-36.621,-105.469
1687767381.251,-52.246,-31.250,-45.898,-35.156,-167.969
1687767381.255,-56.641,-44.922,-43.945,-35.156,57.129
1687767381.259,-50.293,-43.945,-41.504,-25.879,178.223
1687767381.262,-62.012,-38.574,-48.828,-34.668,-46.875
1687767381.266,-65.430,-37.598,-51.270,-41.016,-185.059
1687767381.270,-57.129,-35.156,-54.199,-28.809,-82.031
1687767381.274,-50.781,-30.273,-60.547,-29.297,110.352
1687767381.278,-52.246,-26.855,-56.152,-42.480,-27.832
1687767381.310,-46.387,-26.855,-54.199,-44.922,-224.609
1687767381.314,-29.785,-25.879,-51.270,-29.785,-39.551
1687767381.318,-23.926,-25.391,-46.875,-17.578,56.152
1687767381.322,-20.508,-36.133,-51.758,-22.949,-178.223
1687767381.326,-24.414,-40.039,-53.223,-19.531,-172.852
1687767381.330,-50.781,-38.574,-49.316,-31.738,-17.578
1687767381.334,-54.199,-42.969,-47.363,-60.059,-12.207
1687767381.337,-42.969,-36.133,-41.992,-55.176,-130.859
1687767381.341,-38.086,-31.250,-47.363,-48.340,-153.320
1687767381.345,-36.621,-34.668,-47.852,-42.480,187.988
1687767381.349,-33.203,-27.832,-50.781,-41.504,114.746
1687767381.353,-29.785,-22.461,-54.199,-54.199,-167.480
1687767381.340,-20.996,-26.367,-53.711,-54.688,-165.039
1687767381.344,-24.414,-26.855,-56.152,-47.363,-136.719
1687767381.348,-31.250,-24.414,-55.176,-42.969,-140.137
1687767381.352,-35.645,-28.320,-50.293,-51.758,-204.102
1687767381.356,-48.828,-37.109,-42.969,-54.688,-94.238
1687767381.360,-54.688,-38.086,-44.434,-49.316,77.148
1687767381.364,-50.293,-24.414,-39.551,-45.410,-15.137
1687767381.367,-45.410,-15.137,-37.598,-46.387,-114.258
1687767381.371,-45.898,-20.996,-40.527,-49.805,-38.574
1687767381.375,-52.246,-24.902,-40.527,-61.035,-51.270
1687767381.379,-53.711,-23.926,-42.480,-56.641,-105.469
1687767381.383,-44.922,-27.832,-47.363,-41.992,-107.422
1687767381.385,-43.457,-23.926,-49.805,-34.668,13.184
1687767381.389,-41.016,-22.949,-52.246,-30.273,308.594
1687767381.393,-49.805,-21.973,-59.082,-44.434,105.957
1687767381.397,-63.965,-22.461,-62.012,-60.547,-166.016
1687767381.401,-52.734,-28.809,-55.176,-54.688,-111.816
1687767381.405,-43.457,-28.809,-51.758,-60.059,-62.500
1687767381.409,-46.387,-27.344,-56.152,-74.219,-74.707
1687767381.412,-35.156,-25.879,-49.805,-52.734,-180.664
1687767381.416,-21.973,-20.996,-42.969,-36.621,40.039
1687767381.420,-30.762,-22.461,-51.270,-44.922,48.340
1687767381.424,-31.250,-22.461,-52.734,-45.898,-189.453
1687767381.428,-24.902,-18.066,-44.922,-38.086,-122.070
1687767381.431,-36.133,-16.113,-46.387,-44.922,-92.285
1687767381.435,-41.504,-19.043,-51.270,-49.805,-118.164
1687767381.439,-35.156,-19.531,-51.758,-44.434,-35.645
1687767381.443,-45.410,-18.555,-50.781,-51.270,-50.781
1687767381.447,-52.246,-20.508,-49.805,-50.293,-40.039
1687767381.451,-55.176,-25.879,-52.246,-54.199,-45.898
1687767381.455,-59.570,-28.320,-48.340,-62.988,-91.797
1687767381.458,-50.781,-23.438,-46.875,-51.758,-18.555
1687767381.462,-51.758,-19.531,-46.875,-53.711,186.523
1687767381.466,-46.387,-16.113,-53.711,-56.152,-55.664
1687767381.470,-37.109,-13.184,-50.781,-42.480,-161.621
1687767381.474,-47.852,-17.578,-44.922,-39.551,25.879
1687767381.475,-58.105,-21.484,-43.945,-44.922,-40.527
1687767381.479,-55.176,-25.391,-41.504,-39.551,-154.297
1687767381.483,-59.570,-29.785,-44.434,-42.969,-78.613
1687767381.487,-57.617,-29.297,-48.340,-46.387,-75.195
1687767381.491,-48.340,-28.809,-45.898,-42.969,-136.719
1687767381.495,-52.734,-30.273,-46.387,-31.738,-72.754
1687767381.499,-40.039,-25.879,-46.875,-37.598,-36.133
1687767381.502,-37.109,-25.391,-42.480,-41.016,178.711
1687767381.506,-45.898,-21.484,-40.039,-28.320,241.211
1687767381.510,-46.387,-18.555,-46.875,-54.688,-41.016
1687767381.514,-52.734,-19.531,-50.293,-68.359,-139.160
1687767381.518,-41.016,-19.043,-46.875,-59.082,-109.863
1687767381.520,-44.434,-24.902,-43.945,-51.270,-123.047
1687767381.524,-41.504,-19.531,-41.016,-39.062,-107.910
1687767381.528,-20.996,-13.184,-36.133,-28.320,-98.633
1687767381.532,-29.785,-15.137,-32.715,-25.391,-96.191
1687767381.536,-47.363,-19.043,-35.645,-42.969,-36.133
1687767381.540,-47.363,-20.020,-47.363,-53.711,-32.715
1687767381.544,-43.457,-17.090,-47.363,-47.363,82.031
1687767381.547,-62.500,-20.996,-45.410,-44.434,373.535
1687767381.551,-60.547,-22.949,-54.688,-41.504,69.824
1687767381.555,-41.992,-19.531,-54.199,-37.598,-112.305
1687767381.559,-48.828,-19.531,-45.410,-37.109,30.273
1687767381.563,-40.527,-20.996,-42.969,-47.363,3.418
1687767381.589,-32.715,-21.973,-49.805,-56.641,-79.102
1687767381.593,-51.758,-18.066,-56.152,-58.594,-142.578
1687767381.597,-59.570,-19.531,-55.176,-48.828,16.113
1687767381.601,-48.340,-23.926,-55.664,-36.133,32.715
1687767381.605,-48.828,-27.344,-50.781,-42.480,-82.520
1687767381.609,-62.012,-29.785,-50.293,-49.316,13.184
1687767381.613,-60.059,-27.344,-47.852,-48.828,252.441
1687767381.616,-55.176,-27.832,-42.480,-48.340,143.555
1687767381.620,-55.176,-26.855,-41.016,-51.270,-86.426
1687767381.624,-43.457,-25.391,-50.293,-41.992,-35.645
1687767381.628,-37.598,-24.902,-55.664,-40.039,76.172
1687767381.632,-47.852,-25.879,-53.711,-46.875,-70.312
1687767381.610,-51.270,-30.762,-66.406,-47.363,-197.266
1687767381.614,-48.340,-30.273,-62.500,-47.852,-108.398
1687767381.618,-47.363,-28.809,-52.734,-46.387,-96.191
1687767381.622,-39.551,-24.902,-59.082,-43.945,-169.922
1687767381.626,-50.781,-20.020,-61.523,-41.016,-118.652
1687767381.630,-59.082,-20.020,-60.059,-37.598,-77.148
1687767381.634,-52.734,-19.531,-60.547,-34.180,-42.480
1687767381.637,-38.086,-19.531,-62.500,-24.414,-63.477
1687767381.641,-28.809,-24.902,-66.406,-31.250,-151.367
1687767381.645,-34.180,-23.438,-64.453,-43.945,-14.160
1687767381.649,-37.109,-19.043,-58.594,-34.668,280.762
1687767381.653,-41.504,-22.461,-54.688,-31.250,62.988
1687767381.669,-46.387,-28.809,-54.688,-41.504,-125.488
1687767381.673,-47.363,-26.855,-51.758,-43.945,49.316
1687767381.677,-49.805,-27.344,-53.223,-41.016,62.500
1687767381.681,-47.363,-29.785,-62.012,-40.527,-183.594
1687767381.685,-32.715,-31.250,-60.547,-32.227,-208.008
1687767381.689,-29.785,-26.855,-58.105,-33.203,-42.480
1687767381.693,-36.133,-28.320,-61.035,-29.297,-35.156
1687767381.696,-22.461,-25.391,-52.734,-25.879,-161.133
1687767381.700,-16.602,-12.207,-50.781,-28.320,-129.395
1687767381.704,-24.902,-19.531,-57.617,-33.691,118.652
1687767381.708,-31.738,-34.180,-57.129,-41.992,81.543
1687767381.712,-34.668,-31.250,-60.059,-44.434,-116.699
1687767381.715,-25.391,-26.367,-54.199,-45.410,-67.871
1687767381.719,-21.484,-26.367,-50.781,-49.805,6.836
1687767381.723,-20.508,-25.879,-57.617,-38.574,-97.168
1687767381.727,-24.902,-25.391,-57.129,-40.039,-185.059
1687767381.731,-32.227,-26.367,-59.082,-37.109,-75.684
1687767381.735,-35.645,-29.297,-65.430,-32.715,88.867
1687767381.739,-37.598,-28.809,-64.941,-39.551,19.531
1687767381.742,-42.480,-30.762,-64.453,-34.668,-108.887
1687767381.746,-35.156,-30.273,-56.641,-22.949,-16.113
1687767381.750,-34.180,-25.879,-54.199,-22.949,164.062
1687767381.754,-41.992,-25.879,-56.641,-36.133,-12.695
1687767381.758,-47.852,-24.902,-51.270,-49.316,-35.156
1687767381.759,-43.945,-29.297,-53.223,-46.387,23.438
1687767381.763,-39.551,-37.109,-56.641,-29.297,-8.789
1687767381.767,-34.180,-29.297,-57.617,-27.832,-120.117
1687767381.771,-29.297,-20.020,-55.664,-37.598,-62.012
1687767381.775,-17.578,-19.043,-52.734,-30.762,114.746
1687767381.779,-13.184,-19.043,-55.664,-11.719,86.426
1687767381.783,-5.859,-20.508,-56.641,-20.996,-27.344
1687767381.786,2.441,-20.996,-56.152,-33.203,-76.172
1687767381.790,-2.930,-29.297,-54.199,-32.715,66.895
1687767381.794,0.488,-32.227,-44.922,-40.039,-41.992
1687767381.798,10.254,-26.855,-52.734,-50.781,-161.621
1687767381.802,4.395,-24.414,-60.059,-57.617,-42.969
1687767381.805,-9.277,-20.020,-58.594,-53.223,162.598
1687767381.809,-16.602,-24.902,-57.129,-46.387,113.281
1687767381.813,-25.391,-22.949,-44.434,-30.273,-107.910
1687767381.817,-39.551,-24.414,-41.992,-20.020,-142.578
1687767381.821,-55.176,-29.297,-46.387,-26.855,-82.520
1687767381.825,-62.012,-31.738,-41.992,-20.020,-45.898
1687767381.829,-65.918,-38.574,-41.992,-28.320,-85.938
1687767381.832,-62.988,-48.340,-39.062,-34.180,3.418
1687767381.836,-67.871,-44.434,-44.434,-20.996,296.387
1687767381.840,-65.918,-34.180,-43.945,-35.156,28.809
1687767381.844,-47.363,-28.320,-34.180,-33.203,-154.297
1687767381.848,-37.598,-23.438,-36.133,-25.879,34.180
1687767381.850,-37.109,-27.344,-43.945,-41.016,-47.363
1687767381.854,-26.367,-26.855,-43.945,-33.691,-148.926
1687767381.858,-24.902,-23.926,-43.457,-24.414,-149.414
1687767381.862,-37.598,-22.461,-49.316,-21.973,23.926
1687767381.866,-41.016,-21.484,-53.711,-20.996,3.418
1687767381.870,-48.828,-27.344,-51.758,-43.945,-94.727
1687767381.874,-57.617,-37.598,-49.805,-49.316,-34.180
1687767381.877,-48.340,-38.574,-48.340,-40.527,78.125
1687767381.881,-33.691,-35.156,-42.969,-45.410,68.848
1687767381.885,-31.738,-33.691,-45.410,-42.969,-49.805
1687767381.889,-34.180,-29.785,-51.270,-35.645,-77.637
1687767381.893,-37.598,-28.320,-50.781,-28.809,145.020
1687767381.895,-31.738,-26.367,-48.340,-24.902,84.473
1687767381.899,-25.879,-27.344,-48.340,-30.762,-135.742
1687767381.903,-38.574,-26.367,-53.223,-38.574,-116.699
1687767381.907,-47.363,-26.855,-58.105,-50.293,-131.836
1687767381.911,-44.922,-26.855,-55.176,-45.410,-94.727
1687767381.915,-49.316,-27.832,-47.852,-36.133,-45.410
1687767381.919,-53.711,-32.227,-47.852,-40.039,67.383
1687767381.922,-54.688,-27.832,-52.734,-40.527,215.332
1687767381.926,-57.617,-23.438,-55.664,-56.152,-143.066
1687767381.930,-57.617,-27.344,-49.316,-63.965,-275.879
1687767381.934,-61.035,-27.344,-49.316,-51.758,-19.531
1687767381.938,-58.594,-28.320,-49.805,-44.922,23.926
1687767381.940,-49.805,-27.344,-47.852,-55.176,-47.363
1687767381.944,-54.688,-25.879,-54.199,-50.781,-157.715
1687767381.948,-64.453,-29.785,-57.129,-42.480,-25.879
1687767381.952,-59.570,-28.320,-48.340,-40.039,73.242
1687767381.956,-45.898,-22.461,-48.340,-42.480,-107.910
1687767381.960,-47.363,-19.043,-42.480,-34.180,-126.465
1687767381.964,-42.969,-24.902,-38.086,-39.062,112.793
1687767381.967,-33.203,-27.832,-47.363,-52.734,54.199
1687767381.971,-31.250,-23.438,-50.293,-57.617,-231.934
1687767381.975,-27.344,-23.926,-48.340,-55.664,-190.430
1687767381.979,-21.973,-23.438,-48.828,-48.340,-110.840
1687767381.983,-13.184,-19.043,-51.758,-41.992,-150.391
1687767381.987,-12.695,-19.531,-51.270,-32.715,-119.629
1687767381.991,-18.066,-20.996,-44.434,-34.180,-23.926
1687767381.995,-21.484,-20.020,-38.086,-39.551,-32.227
1687767381.999,-31.250,-26.367,-53.711,-50.293,-93.750
1687767382.003,-41.992,-36.133,-57.617,-49.316,-186.523
1687767382.007,-42.480,-35.645,-50.781,-46.875,-60.059
1687767382.011,-33.691,-33.691,-45.898,-51.270,108.887
1687767382.014,-33.691,-29.297,-41.504,-50.781,-65.430
1687767382.018,-41.504,-29.297,-45.898,-46.875,-171.387
1687767382.022,-43.457,-36.133,-51.270,-44.922,-74.707
1687767382.026,-38.086,-32.227,-44.922,-41.016,68.359
1687767382.030,-32.715,-35.156,-37.598,-42.480,5.371
1687767382.045,-35.156,-43.945,-42.480,-48.340,-160.645
1687767382.049,-41.992,-44.922,-46.875,-56.641,-45.410
1687767382.053,-41.992,-44.434,-52.246,-57.617,6.836
1687767382.057,-44.434,-41.504,-52.246,-50.293,-146.484
1687767382.061,-47.363,-37.598,-55.176,-61.035,-174.805
1687767382.065,-45.410,-42.480,-60.059,-56.152,200.195
1687767382.069,-41.504,-42.480,-52.246,-46.875,275.879
1687767382.072,-47.852,-44.434,-50.781,-58.105,-88.867
1687767382.076,-47.852,-40.039,-46.875,-55.664,-130.371
1687767382.080,-44.922,-32.715,-38.086,-56.641,26.855
1687767382.084,-39.062,-34.668,-34.180,-62.988,-72.266
1687767382.088,-21.973,-31.738,-28.320,-51.758,-117.676
1687767382.090,-30.273,-28.320,-24.414,-42.969,-49.805
1687767382.094,-41.504,-34.180,-32.715,-50.293,-21.973
1687767382.098,-41.992,-39.551,-37.109,-62.500,-103.516
1687767382.102,-36.621,-32.715,-32.227,-53.223,-186.523
1687767382.106,-36.133,-29.785,-31.250,-39.551,-44.922
1687767382.110,-40.527,-31.738,-32.227,-45.410,59.082
1687767382.114,-30.273,-23.438,-29.785,-48.828,106.934
1687767382.117,-31.738,-21.973,-28.320,-49.805,41.016
1687767382.121,-26.367,-27.832,-29.297,-47.852,28.809
1687767382.125,-32.715,-43.945,-25.391,-39.551,227.051
1687767382.129,-58.594,-51.270,-15.137,-48.828,31.738
1687767382.133,-78.613,-57.129,-10.254,-61.523,-119.141
1687767382.135,-81.543,-56.641,-0.977,-71.289,91.309
1687767382.139,-90.332,-53.223,9.766,-91.309,45.898
1687767382.143,-100.586,-61.523,25.879,-104.492,-110.352
1687767382.147,-123.047,-72.754,33.691,-125.977,-70.312
1687767382.151,-154.785,-86.426,44.922,-152.832,0.000
1687767382.155,-178.711,-91.309,66.406,-166.016,80.078
1687767382.159,-208.984,-93.262,77.637,-183.594,59.570
1687767382.162,-230.957,-98.145,83.008,-206.543,-52.246
1687767382.166,-250.488,-90.332,98.145,-216.797,227.051
1687767382.170,-282.227,-80.078,107.422,-247.070,241.699
1687767382.174,-310.547,-81.543,105.957,-292.969,-169.434
1687767382.178,-317.383,-83.496,103.516,-295.898,-177.734
1687767382.180,-333.008,-85.449,98.633,-308.105,-61.523
1687767382.184,-333.496,-88.379,95.215,-327.148,-138.184
1687767382.188,-331.543,-74.707,95.703,-335.449,-121.094
1687767382.192,-339.844,-65.918,88.379,-337.891,-71.777
1687767382.196,-329.102,-63.477,80.078,-339.844,-115.234
1687767382.200,-313.965,-58.594,78.613,-336.426,-86.914
1687767382.204,-308.594,-62.012,80.078,-332.520,-33.691
1687767382.207,-299.805,-64.453,76.172,-320.801,22.461
1687767382.211,-291.016,-54.688,80.078,-302.734,225.586
1687767382.215,-291.992,-43.457,79.102,-291.016,2.930
1687767382.219,-300.781,-48.828,59.570,-287.598,-145.020
1687767382.223,-291.504,-51.758,56.641,-281.250,81.543
1687767382.225,-282.715,-50.781,64.453,-263.672,227.051
1687767382.229,-292.480,-53.711,65.430,-273.926,-25.879
1687767382.233,-290.527,-57.129,52.246,-269.531,-179.199
1687767382.237,-265.625,-53.711,45.898,-250.488,-74.219
1687767382.241,-243.652,-49.805,48.340,-243.652,-72.754
1687767382.245,-244.141,-51.758,51.758,-248.047,-94.238
1687767382.249,-228.516,-43.945,60.547,-224.609,-55.664
1687767382.252,-203.613,-37.109,48.828,-200.684,113.770
1687767382.256,-200.684,-41.504,33.691,-211.914,67.871
1687767382.260,-193.848,-46.387,36.133,-213.867,-151.367
1687767382.264,-183.594,-50.293,47.363,-194.824,-177.734
1687767382.268,-181.641,-43.945,50.781,-177.734,-131.348
1687767382.270,-166.992,-42.969,36.621,-170.410,-66.895
1687767382.274,-141.602,-42.480,39.551,-169.922,-124.512
1687767382.278,-141.602,-41.992,34.180,-158.691,-144.531
1687767382.282,-139.648,-46.875,20.996,-138.672,-26.855
1687767382.286,-120.605,-47.363,28.320,-130.371,-40.039
1687767382.290,-122.559,-36.133,26.855,-117.676,-133.301
1687767382.294,-113.281,-24.414,15.137,-97.168,11.230
1687767382.297,-97.656,-27.832,6.836,-77.148,261.719
1687767382.301,-79.590,-33.203,-1.953,-69.824,8.301
1687767382.305,-72.754,-38.574,-1.465,-58.594,-201.660
1687767382.309,-74.707,-38.574,2.441,-49.805,-52.246
1687767382.313,-51.758,-46.875,-0.488,-36.621,6.836
1687767382.316,-27.832,-45.410,-12.695,-23.438,-103.516
1687767382.320,-15.625,-35.156,-13.184,-14.648,-150.879
1687767382.324,-0.977,-43.945,-20.996,5.371,121.094
1687767382.328,18.066,-35.156,-27.344,15.625,225.586
1687767382.332,26.367,-33.691,-27.832,15.137,-36.621
1687767382.336,37.109,-46.875,-41.992,31.250,55.176
1687767382.340,52.734,-32.227,-41.016,41.992,251.465
1687767382.343,66.895,-17.090,-37.598,39.551,104.492
1687767382.347,89.844,-8.789,-54.688,45.410,-78.125
1687767382.351,117.676,-0.977,-75.684,62.988,-53.223
1687767382.355,133.301,1.465,-91.797,72.266,-49.316
1687767382.359,129.395,4.883,-93.262,78.613,-64.941
1687767382.360,107.910,-0.977,-89.355,87.402,-147.949
1687767382.364,94.727,-6.348,-90.820,100.098,-151.367
1687767382.368,91.797,-1.953,-101.562,112.793,-62.012
1687767382.372,104.492,2.930,-122.559,116.211,-53.711
1687767382.376,99.121,0.000,-128.418,110.840,-93.750
1687767382.380,83.984,-0.977,-117.676,112.305,6.348
1687767382.384,92.773,5.371,-112.305,105.957,203.125
1687767382.387,97.656,7.812,-122.070,114.258,78.125
1687767382.391,108.398,6.348,-129.395,114.258,-110.840
1687767382.395,116.699,4.883,-134.277,107.422,-31.738
1687767382.399,118.164,8.301,-134.766,124.023,118.652
1687767382.403,121.582,11.719,-128.906,119.629,-44.922
1687767382.420,107.422,7.812,-130.859,98.145,-187.988
1687767382.424,108.887,6.348,-131.348,106.445,-21.973
1687767382.428,113.770,7.812,-129.395,125.977,73.730
1687767382.432,120.605,8.301,-123.047,102.051,-89.844
1687767382.436,129.883,14.160,-120.605,99.609,-82.520
1687767382.440,127.930,11.719,-124.512,100.586,50.293
1687767382.444,130.859,-0.977,-129.883,94.238,-1.465
1687767382.447,131.836,0.488,-125.977,101.074,-41.992
1687767382.451,123.047,12.695,-118.652,93.262,-98.633
1687767382.455,99.609,1.953,-119.629,79.102,131.836
1687767382.459,89.844,-6.836,-117.188,67.383,122.070
1687767382.463,97.168,-3.418,-120.117,62.500,-204.590
1687767382.467,93.750,-2.441,-119.629,59.082,-157.227
1687767382.471,85.449,-4.883,-113.770,54.199,-69.336
1687767382.475,74.707,-7.324,-110.352,43.457,-107.422
1687767382.479,62.988,-7.812,-109.375,35.156,-156.738
1687767382.483,60.059,-10.742,-112.793,49.805,-133.301
1687767382.487,62.012,-4.883,-114.258,51.270,3.906
1687767382.491,66.895,-4.883,-112.793,43.945,116.699
1687767382.494,68.848,-11.230,-102.539,44.434,5.859
1687767382.498,64.941,-11.719,-90.332,49.316,-12.695
1687767382.502,53.711,-24.902,-87.402,63.477,274.414
1687767382.506,54.688,-29.785,-81.055,60.059,94.727
1687767382.510,63.477,-21.973,-77.637,45.898,-27.832
1687767382.511,58.105,-18.555,-80.078,45.410,172.363
1687767382.515,48.828,-17.578,-77.148,42.969,165.039
1687767382.519,51.270,-17.090,-76.660,35.156,-143.555
1687767382.523,45.410,-21.973,-82.520,23.926,-178.711
1687767382.527,37.109,-20.996,-73.242,12.695,-81.543
1687767382.531,33.691,-19.531,-59.082,12.695,-107.910
1687767382.535,23.438,-25.391,-73.242,10.254,-107.910
1687767382.538,13.184,-29.297,-81.055,-7.324,-120.605
1687767382.542,13.184,-26.855,-79.590,-2.930,5.859
1687767382.546,20.996,-21.973,-73.242,10.742,-26.367
1687767382.550,19.531,-20.020,-66.895,3.418,-249.023
1687767382.554,11.230,-20.020,-63.965,5.859,-184.082
1687767382.556,13.184,-22.949,-62.012,13.672,-47.363
1687767382.560,14.160,-25.391,-60.547,13.672,-125.977
1687767382.564,8.789,-23.926,-53.223,14.160,-152.832
1687767382.568,6.836,-19.531,-53.223,10.742,-68.848
1687767382.572,-1.953,-20.020,-61.523,0.977,-97.656
1687767382.576,-7.812,-26.855,-64.453,1.465,-32.715
1687767382.580,-7.812,-26.367,-54.688,7.324,40.039
1687767382.583,3.418,-20.508,-40.039,5.859,41.504
1687767382.587,-0.488,-24.902,-43.945,0.488,283.691
1687767382.591,-9.766,-24.414,-49.316,-16.602,38.574
1687767382.595,0.000,-18.555,-51.270,-9.766,-206.055
1687767382.599,-3.418,-18.555,-53.711,-8.789,49.316
1687767382.601,-6.348,-21.973,-54.199,-18.066,77.148
1687767382.605,0.977,-25.391,-56.152,-12.207,-147.949
1687767382.609,-9.766,-25.391,-52.246,-14.648,-79.590
1687767382.613,-24.414,-25.879,-50.781,-20.020,23.438
1687767382.617,-21.484,-24.902,-48.340,-15.625,-88.379
1687767382.621,-13.672,-21.973,-45.898,-19.531,-92.773
1687767382.625,-19.043,-23.926,-53.711,-35.156,3.906
1687767382.628,-28.809,-23.926,-55.664,-25.391,135.742
1687767382.632,-21.973,-22.949,-46.387,-19.043,105.957
1687767382.636,-15.137,-23.926,-40.527,-27.344,-138.672
1687767382.640,-13.672,-17.578,-32.715,-23.926,-171.387
1687767382.644,-15.625,-21.973,-33.691,-34.668,-113.770
1687767382.645,-16.113,-25.879,-38.086,-34.668,-193.848
1687767382.649,-17.090,-19.043,-38.086,-30.273,-197.754
1687767382.653,-23.438,-20.996,-40.527,-24.414,-140.137
1687767382.657,-22.461,-27.344,-41.992,-25.879,-127.441
1687767382.661,-17.090,-25.391,-39.062,-31.738,-76.172
1687767382.665,-19.043,-18.066,-40.527,-30.762,-48.828
1687767382.669,-28.320,-21.484,-39.062,-27.344,80.078
1687767382.672,-31.738,-27.832,-41.992,-23.926,339.844
1687767382.676,-29.297,-25.391,-43.945,-36.133,104.492
1687767382.680,-26.367,-25.879,-38.086,-37.109,-160.156
1687767382.684,-28.320,-30.762,-39.551,-37.598,-127.930
1687767382.688,-23.926,-26.367,-44.434,-43.457,-89.355
1687767382.690,-27.832,-20.508,-40.527,-45.410,-136.719
1687767382.694,-20.508,-13.184,-36.133,-31.250,-190.918
1687767382.698,-11.719,-12.695,-34.180,-35.156,-8.789
1687767382.702,-18.555,-18.555,-41.992,-44.922,26.855
1687767382.706,-20.508,-23.438,-51.758,-52.734,-116.211
1687767382.710,-13.184,-18.066,-42.969,-46.875,-56.641
1687767382.714,-7.324,-18.066,-40.527,-33.203,168.945
1687767382.717,-7.324,-26.367,-44.922,-34.668,196.777
1687767382.721,-17.090,-22.949,-48.340,-36.621,-113.281
1687767382.725,-27.344,-20.996,-46.875,-42.480,-156.250
1687767382.729,-29.785,-24.414,-42.480,-32.227,14.648
1687767382.733,-26.367,-23.926,-45.898,-31.250,-73.730
1687767382.735,-25.879,-22.949,-44.434,-41.016,-214.844
1687767382.739,-30.762,-22.461,-40.039,-40.039,-141.602
1687767382.743,-35.156,-19.043,-47.363,-44.434,-51.758
1687767382.747,-34.180,-15.625,-52.246,-39.551,-118.652
1687767382.751,-34.668,-21.973,-46.387,-35.156,-133.301
1687767382.755,-39.551,-26.855,-37.598,-28.320,18.066
1687767382.759,-40.039,-30.762,-38.574,-30.762,216.309
1687767382.762,-45.898,-34.668,-37.598,-35.645,41.504
1687767382.766,-47.363,-35.156,-40.527,-24.902,-101.074
1687767382.770,-34.668,-36.133,-43.945,-27.832,125.488
1687767382.774,-30.762,-28.809,-41.504,-16.602,214.355
1687767382.778,-35.156,-21.973,-39.551,-18.066,-30.762
1687767382.795,-20.020,-25.879,-36.621,-28.809,-121.582
1687767382.799,-11.230,-26.855,-39.062,-25.391,-21.484
1687767382.803,-15.137,-29.785,-42.969,-27.344,6.836
1687767382.807,-12.207,-32.227,-51.758,-35.645,-160.645
1687767382.811,-2.441,-24.902,-47.852,-40.039,-166.504
1687767382.815,-4.395,-21.973,-38.086,-28.320,71.289
1687767382.819,-12.695,-27.344,-31.250,-41.016,-1.465
1687767382.822,-18.555,-32.227,-36.133,-54.688,-207.520
1687767382.826,-14.648,-29.785,-37.598,-40.039,-154.785
1687767382.830,-20.508,-22.461,-31.250,-29.297,68.359
1687767382.834,-28.809,-32.227,-37.109,-37.598,20.996
1687767382.838,-39.551,-39.551,-42.969,-48.340,-106.934
1687767382.840,-40.039,-36.621,-46.387,-51.270,-60.059
1687767382.844,-34.668,-38.574,-41.992,-47.363,0.000
1687767382.848,-32.715,-42.480,-43.457,-45.898,-37.109
1687767382.852,-36.621,-46.875,-54.688,-53.711,-89.355
1687767382.856,-50.781,-44.922,-45.410,-54.199,-95.215
1687767382.860,-53.711,-48.340,-38.574,-52.246,26.855
1687767382.864,-52.246,-46.387,-40.527,-51.758,89.844
1687767382.867,-45.898,-36.133,-35.645,-46.875,-107.422
1687767382.871,-46.387,-38.086,-49.316,-49.316,-37.598
1687767382.875,-50.781,-38.086,-56.641,-35.645,231.934
1687767382.879,-44.434,-37.598,-44.434,-40.527,-6.836
1687767382.883,-37.109,-39.551,-37.598,-51.270,-117.676
1687767382.886,-49.316,-48.340,-48.828,-47.363,54.199
1687767382.890,-56.152,-52.246,-57.129,-53.223,79.102
1687767382.894,-53.711,-45.410,-50.293,-53.711,-112.305
1687767382.898,-43.457,-40.527,-48.340,-58.594,-189.453
1687767382.902,-29.297,-40.039,-50.781,-52.246,6.348
1687767382.906,-34.668,-35.645,-54.688,-48.340,67.383
1687767382.910,-39.062,-31.738,-50.781,-54.199,-47.852
1687767382.913,-30.762,-24.902,-39.062,-48.340,-83.984
1687767382.917,-33.691,-32.227,-43.945,-56.152,106.445
1687767382.921,-35.645,-41.992,-49.805,-68.848,139.648
1687767382.925,-33.691,-39.062,-50.293,-73.242,-85.449
1687767382.929,-27.344,-31.250,-46.387,-64.941,-128.418
1687767382.930,-11.230,-26.855,-36.133,-58.594,-90.332
1687767382.934,-11.719,-28.809,-39.062,-59.082,-133.789
1687767382.938,-9.766,-29.785,-45.410,-56.641,-120.605
1687767382.942,-11.719,-20.508,-44.434,-42.969,-58.594
1687767382.946,-30.273,-25.879,-37.109,-29.785,36.133
1687767382.950,-45.410,-35.156,-32.715,-34.180,32.715
1687767382.954,-43.945,-39.062,-40.527,-43.457,-38.086
1687767382.957,-46.387,-46.387,-37.598,-44.434,20.020
1687767382.961,-54.688,-47.363,-35.156,-40.527,266.113
1687767382.965,-46.387,-48.828,-40.527,-39.551,55.664
1687767382.969,-36.133,-46.875,-32.227,-46.875,-165.039
1687767382.973,-31.738,-45.898,-26.855,-34.668,10.742
1687767382.975,-22.461,-44.922,-29.785,-29.785,-18.555
1687767382.979,-31.250,-42.480,-31.738,-49.805,-173.828
1687767382.983,-46.387,-38.086,-39.551,-58.105,-144.531
1687767382.987,-41.992,-32.715,-39.062,-50.781,19.531
1687767382.991,-39.551,-33.691,-33.203,-46.875,-87.891
1687767382.995,-34.668,-31.250,-33.691,-26.855,-104.980
1687767382.999,-28.809,-30.762,-38.086,-23.438,-33.691
1687767383.002,-14.648,-34.668,-30.273,-29.785,188.477
1687767383.006,-19.043,-34.668,-31.250,-21.973,240.723
1687767383.010,-35.645,-38.574,-46.387,-34.668,-131.836
1687767383.014,-36.621,-39.551,-41.992,-37.598,-206.055
1687767383.018,-34.180,-35.645,-31.250,-33.691,-112.305
1687767383.020,-36.133,-33.691,-32.715,-36.133,-125.977
1687767383.024,-34.180,-36.621,-33.691,-45.410,-158.691
1687767383.028,-23.438,-31.250,-23.438,-42.480,-101.562
1687767383.032,-26.367,-29.785,-22.461,-36.621,-60.059
1687767383.036,-28.320,-36.621,-37.109,-27.344,-94.238
1687767383.040,-30.762,-41.016,-41.016,-27.832,-77.637
1687767383.044,-37.109,-33.691,-34.668,-40.039,36.621
1687767383.047,-28.809,-27.344,-30.762,-33.691,203.613
1687767383.051,-22.461,-27.832,-36.133,-31.738,10.742
1687767383.055,-26.855,-24.414,-34.180,-32.227,-151.855
1687767383.059,-22.949,-29.297,-27.344,-27.832,-55.176
1687767383.063,-22.949,-33.691,-33.691,-32.227,30.273
1687767383.065,-29.785,-34.180,-37.598,-37.109,-97.168
1687767383.069,-29.785,-35.645,-38.574,-35.156,-176.270
1687767383.073,-30.762,-34.668,-38.086,-37.109,-12.695
1687767383.077,-31.250,-35.156,-38.086,-44.434,-29.785
1687767383.081,-24.414,-28.809,-39.062,-42.480,-181.152
1687767383.085,-20.996,-28.320,-40.039,-37.598,-23.926
1687767383.089,-22.949,-33.691,-39.062,-41.016,275.879
1687767383.092,-26.855,-34.180,-43.457,-46.875,136.719
1687767383.096,-27.832,-28.320,-47.363,-51.270,-143.555
1687767383.100,-19.043,-21.484,-37.109,-51.758,-161.133
1687767383.104,-23.926,-20.020,-32.715,-53.223,-63.477
1687767383.108,-32.715,-20.020,-38.574,-63.965,5.859
1687767383.109,-16.113,-16.113,-40.039,-58.594,-68.359
1687767383.113,-10.254,-12.695,-34.180,-48.340,-61.523
1687767383.117,-20.020,-13.184,-41.016,-45.898,30.273
1687767383.121,-24.902,-16.113,-44.434,-38.086,-116.699
1687767383.125,-35.156,-23.926,-40.527,-32.227,-180.176
1687767383.129,-38.086,-23.438,-42.969,-37.598,92.285
1687767383.133,-34.668,-17.578,-38.086,-40.039,253.906
1687767383.136,-42.480,-18.066,-32.715,-48.340,-72.754
1687767383.140,-43.457,-23.438,-34.668,-60.059,-214.844
1687767383.144,-38.086,-22.949,-31.250,-50.781,-50.293
1687767383.148,-39.551,-21.484,-32.715,-46.387,-9.766
1687767383.152,-42.969,-20.508,-31.738,-54.688,-57.129
1687767383.170,-44.922,-15.137,-23.926,-50.293,-153.809
1687767383.174,-53.711,-22.949,-29.785,-47.363,48.340
1687767383.178,-54.199,-29.785,-31.250,-44.434,137.207
1687767383.182,-45.410,-19.043,-26.855,-41.016,-159.668
1687767383.186,-38.574,-11.230,-24.902,-41.992,-138.184
1687767383.190,-34.180,-19.043,-26.367,-39.551,64.941
1687767383.194,-33.691,-20.996,-28.809,-46.875,15.625
1687767383.197,-42.969,-16.113,-38.086,-50.293,-181.152
1687767383.201,-44.434,-18.555,-34.668,-37.109,-183.105
1687767383.205,-35.645,-26.855,-25.879,-29.297,77.637
1687767383.209,-27.832,-25.391,-26.855,-33.691,-34.180
1687767383.213,-38.086,-15.625,-24.902,-46.875,-214.844
1687767383.215,-42.480,-11.230,-28.320,-51.758,-115.234
1687767383.219,-35.156,-18.555,-32.715,-44.434,-29.785
1687767383.223,-38.086,-26.367,-29.785,-49.805,-36.133
1687767383.227,-42.969,-30.762,-33.203,-57.129,-82.520
1687767383.231,-47.852,-33.203,-39.551,-48.828,-27.832
1687767383.235,-56.641,-33.203,-41.504,-44.922,57.617
1687767383.239,-51.270,-31.738,-36.133,-46.387,-25.391
1687767383.242,-41.016,-31.250,-32.715,-50.293,-169.434
1687767383.246,-39.062,-27.344,-28.320,-43.945,-81.055
1687767383.250,-37.598,-17.090,-21.973,-35.156,140.137
1687767383.254,-42.969,-19.043,-20.996,-45.410,0.000
1687767383.258,-42.969,-29.785,-29.297,-60.059,-78.125
1687767383.260,-37.598,-31.738,-36.133,-55.664,2.441
1687767383.264,-36.621,-34.668,-35.156,-41.504,-31.250
1687767383.268,-43.457,-37.598,-39.062,-42.480,-122.070
1687767383.272,-42.969,-38.574,-45.410,-53.223,-86.426
1687767383.276,-35.645,-40.527,-43.457,-55.176,-52.734
1687767383.280,-36.133,-38.574,-43.457,-49.805,-10.742
1687767383.284,-36.621,-37.598,-46.387,-47.852,-9.766
1687767383.287,-34.180,-36.621,-42.969,-45.410,2.441
1687767383.291,-29.297,-32.227,-41.016,-42.969,204.102
1687767383.295,-25.879,-28.809,-44.922,-41.016,140.137
1687767383.299,-26.367,-30.273,-46.387,-44.922,-162.598
1687767383.303,-22.949,-30.273,-39.062,-41.992,-116.699
1687767383.305,-30.273,-29.297,-34.180,-35.156,118.652
1687767383.309,-44.434,-27.832,-36.133,-44.922,-44.434
1687767383.313,-43.945,-20.020,-30.762,-47.363,-199.707
1687767383.317,-33.203,-14.160,-26.855,-42.969,-109.863
1687767383.321,-29.785,-14.160,-22.949,-46.387,-42.480
1687767383.325,-35.645,-16.602,-20.508,-39.551,-2.930
1687767383.329,-49.316,-19.043,-27.344,-41.016,-50.781
1687767383.332,-52.734,-23.438,-31.250,-48.828,-5.371
1687767383.336,-50.781,-26.855,-28.809,-42.969,326.660
1687767383.340,-49.316,-26.855,-26.855,-43.457,170.898
1687767383.344,-51.758,-24.414,-29.297,-53.223,-89.844
1687767383.348,-63.965,-29.297,-31.738,-53.711,46.875
1687767383.350,-62.012,-39.062,-20.020,-48.340,60.547
1687767383.354,-57.129,-37.598,-10.742,-49.316,-124.512
1687767383.358,-64.453,-45.898,-5.859,-57.617,-154.297
1687767383.362,-67.383,-51.270,8.789,-56.152,-105.469
1687767383.366,-93.262,-48.340,11.230,-87.402,-130.859
1687767383.370,-124.512,-64.941,14.160,-128.418,-154.297
1687767383.374,-141.602,-69.824,33.691,-140.137,-29.297
1687767383.377,-172.852,-76.660,49.805,-166.504,172.363
1687767383.381,-203.613,-91.309,67.871,-190.430,92.773
1687767383.385,-229.004,-97.168,91.309,-223.145,-147.949
1687767383.389,-268.555,-109.863,100.586,-271.973,-86.426
1687767383.393,-277.344,-110.840,113.281,-270.996,57.617
1687767383.395,-278.809,-105.957,115.723,-271.973,-41.016
1687767383.399,-300.293,-100.098,112.793,-307.129,-134.277
1687767383.403,-322.266,-92.773,111.816,-323.730,-150.391
1687767383.407,-330.566,-89.355,108.398,-328.125,-115.234
1687767383.411,-335.938,-88.379,97.656,-342.773,-91.309
1687767383.415,-333.008,-87.402,89.355,-352.051,-89.844
1687767383.419,-330.566,-86.426,99.121,-341.797,-21.484
1687767383.422,-328.125,-85.449,98.633,-322.266,243.652
1687767383.426,-321.777,-83.496,94.727,-328.125,62.988
1687767383.430,-308.594,-75.195,101.074,-315.918,-205.566
1687767383.434,-304.199,-73.730,88.867,-302.246,-95.703
1687767383.438,-312.012,-82.031,80.566,-307.129,17.090
1687767383.441,-298.828,-80.566,87.402,-285.156,1.465
1687767383.445,-278.320,-69.336,82.031,-276.855,3.906
1687767383.449,-266.602,-57.129,69.824,-267.578,71.777
1687767383.453,-267.090,-61.523,63.965,-265.137,126.953
1687767383.457,-268.066,-78.125,59.570,-282.715,-86.914
1687767383.461,-259.766,-89.355,57.129,-267.090,-88.867
1687767383.465,-257.324,-93.262,57.129,-251.953,209.961
1687767383.468,-244.141,-93.262,49.316,-254.883,157.715
1687767383.472,-215.332,-91.797,49.316,-233.398,-121.094
1687767383.476,-191.895,-90.820,50.781,-211.426,-68.848
1687767383.480,-191.895,-98.633,40.527,-213.867,98.633
1687767383.484,-185.547,-100.098,38.086,-218.262,-100.098
1687767383.484,-163.086,-100.586,48.340,-201.660,-190.430
1687767383.488,-165.039,-106.445,44.922,-193.359,-115.234
1687767383.492,-164.551,-108.398,45.898,-169.922,-94.238
1687767383.496,-160.645,-110.352,47.363,-157.715,28.809
1687767383.500,-152.344,-110.352,43.457,-157.227,-39.062
1687767383.504,-147.949,-102.539,44.434,-153.320,-36.133
1687767383.508,-160.645,-100.098,37.109,-152.344,328.613
1687767383.511,-154.297,-101.074,42.480,-136.230,149.414
1687767383.515,-170.898,-104.980,46.387,-152.832,-147.461
1687767383.519,-160.156,-93.750,38.086,-142.578,-56.152
1687767383.523,-134.277,-91.797,40.527,-116.211,-27.344
1687767383.527,-135.742,-104.980,41.992,-122.070,-91.797
1687767383.545,-147.949,-99.121,38.086,-130.371,-166.504
1687767383.549,-138.184,-85.449,41.504,-122.070,-93.750
1687767383.553,-127.930,-86.914,41.504,-106.445,-24.902
1687767383.557,-142.578,-94.238,40.039,-108.887,-109.863
1687767383.561,-130.371,-86.914,42.969,-116.211,-51.758
1687767383.565,-111.328,-84.473,45.410,-92.773,41.504
1687767383.569,-116.699,-88.379,39.062,-85.449,43.457
1687767383.572,-103.516,-79.590,24.414,-111.328,-2.930
1687767383.576,-88.867,-78.613,24.902,-115.234,-99.609
1687767383.580,-110.840,-83.496,30.273,-95.215,148.438
1687767383.584,-103.516,-75.684,31.250,-91.309,164.062
1687767383.588,-81.055,-63.965,38.574,-83.496,-173.828
1687767383.590,-83.008,-61.523,32.227,-68.848,-194.336
1687767383.594,-83.008,-68.359,17.578,-67.383,-85.449
1687767383.598,-64.941,-72.754,18.066,-58.594,-80.078
1687767383.602,-54.688,-65.430,14.160,-51.758,-106.934
1687767383.606,-48.340,-56.641,12.207,-50.293,-48.340
1687767383.610,-37.598,-49.805,22.949,-39.551,72.266
1687767383.614,-33.203,-48.828,24.414,-18.555,58.105
1687767383.617,-20.508,-56.152,14.648,-5.859,-56.641
1687767383.621,6.348,-51.758,13.672,14.648,27.344
1687767383.625,27.344,-37.109,10.742,52.246,281.738
1687767383.629,38.086,-36.621,-13.184,64.941,53.711
1687767383.633,43.945,-35.645,-23.926,57.617,-142.578
1687767383.635,69.336,-20.996,-32.227,69.336,-11.719
1687767383.639,84.473,-15.625,-52.734,69.824,25.391
1687767383.643,83.008,-10.254,-62.012,87.402,-107.422
1687767383.647,96.680,-7.324,-66.406,117.676,-160.645
1687767383.651,111.328,0.488,-76.172,118.652,-103.516
1687767383.655,134.277,6.348,-81.055,121.582,-82.520
1687767383.659,154.297,-8.301,-104.004,143.066,-59.570
1687767383.662,170.410,-11.230,-118.164,149.414,-90.332
1687767383.666,174.805,-0.488,-121.094,154.785,102.051
1687767383.670,176.270,5.859,-126.953,161.133,112.793
1687767383.674,181.152,18.066,-124.023,160.645,-81.055
1687767383.678,182.129,23.438,-125.000,160.645,-78.613
1687767383.680,186.523,21.484,-138.672,168.945,2.441
1687767383.684,185.547,24.414,-157.227,161.621,-77.637
1687767383.688,181.152,24.414,-167.480,157.715,-120.605
1687767383.692,172.363,20.020,-178.223,158.203,-81.543
1687767383.696,178.223,20.996,-188.477,143.066,-18.555
1687767383.700,188.477,27.832,-185.059,148.438,-15.625
1687767383.704,174.316,35.156,-172.852,160.156,-0.488
1687767383.707,158.691,29.785,-178.711,145.508,55.664
1687767383.711,155.273,22.461,-181.641,166.504,218.262
1687767383.715,160.156,18.066,-176.270,162.598,71.289
1687767383.719,158.203,16.113,-174.805,137.695,-112.793
1687767383.723,153.320,20.508,-175.293,138.184,36.621
1687767383.725,156.250,23.438,-180.664,150.391,141.113
1687767383.729,158.691,21.484,-186.523,138.672,-50.781
1687767383.733,152.832,14.648,-180.176,120.117,-127.441
1687767383.737,141.602,9.766,-177.734,115.723,-23.926
1687767383.741,131.836,8.789,-179.688,110.840,-84.473
1687767383.745,127.930,9.277,-179.199,103.516,-120.117
1687767383.749,116.211,8.301,-177.246,87.891,-82.031
1687767383.752,96.680,4.883,-172.363,89.355,131.348
1687767383.756,92.773,0.488,-168.457,91.797,103.027
1687767383.760,102.051,2.930,-164.062,90.332,-155.273
1687767383.764,97.168,1.953,-153.320,84.961,-169.434
1687767383.768,94.238,-2.930,-146.484,81.543,-92.773
1687767383.771,86.426,-0.488,-142.090,88.379,-129.395
1687767383.775,77.148,2.441,-135.254,86.426,-238.281
1687767383.779,76.172,-0.977,-133.301,75.195,-139.160
1687767383.783,71.289,-1.953,-130.371,68.359,5.859
1687767383.787,67.383,-7.324,-129.883,62.500,-96.680
1687767383.791,49.805,-9.277,-131.836,48.340,-122.559
1687767383.795,41.992,-6.836,-122.559,45.898,12.695
1687767383.798,48.340,-9.277,-114.746,57.129,277.832
1687767383.802,42.969,-10.254,-115.234,50.293,64.453
1687767383.806,48.340,-10.742,-107.910,41.016,-169.922
1687767383.810,60.059,-10.742,-102.539,49.316,-42.969
1687767383.814,46.875,-18.066,-106.934,41.504,19.043
1687767383.815,38.086,-29.785,-104.492,33.691,-93.750
1687767383.819,39.062,-32.227,-98.633,34.668,-116.699
1687767383.823,33.691,-35.645,-100.586,22.461,37.598
1687767383.827,27.344,-32.227,-95.703,20.508,36.133
1687767383.831,30.273,-33.203,-94.727,28.809,-156.250
1687767383.835,30.273,-34.668,-89.355,18.066,-41.992
1687767383.839,24.414,-29.785,-84.473,21.484,258.301
1687767383.842,22.949,-36.133,-85.449,26.855,204.590
1687767383.846,19.531,-39.062,-79.102,20.020,-104.980
1687767383.850,23.926,-32.227,-73.242,23.926,-111.816
1687767383.854,17.090,-35.645,-73.242,23.438,29.297
1687767383.858,5.859,-41.992,-75.684,7.812,-98.145
1687767383.860,2.930,-34.668,-74.707,3.418,-154.297
1687767383.864,7.812,-29.297,-77.637,-6.348,-150.879
1687767383.868,1.953,-34.180,-77.637,-14.160,-115.723
1687767383.872,1.465,-33.203,-73.242,-12.207,-112.305
1687767383.876,12.207,-26.367,-72.754,-8.301,-149.414
1687767383.880,15.625,-24.414,-70.801,-0.977,30.273
1687767383.884,17.090,-24.902,-65.918,3.418,158.203
1687767383.887,17.090,-29.785,-69.824,-3.906,32.227
1687767383.891,11.719,-35.156,-77.148,-9.277,-73.730
1687767383.895,12.695,-35.645,-77.148,-5.371,-25.879
1687767383.899,8.789,-37.109,-70.312,-0.977,80.566
1687767383.903,-1.465,-39.062,-69.824,-9.277,-60.547
1687767383.920,1.465,-34.180,-69.824,-10.742,-150.391
1687767383.924,2.930,-35.645,-68.848,0.488,-34.180
1687767383.928,-5.859,-43.457,-72.266,-0.977,-58.105
1687767383.932,-8.301,-39.551,-70.801,-16.602,-199.707
1687767383.936,-4.883,-36.133,-65.918,-23.926,-172.363
1687767383.940,-13.672,-33.691,-55.176,-19.531,74.219
1687767383.944,-21.973,-31.250,-50.781,-24.414,64.941
1687767383.947,-20.020,-34.668,-59.570,-30.273,-176.758
1687767383.951,-24.414,-37.598,-67.383,-36.133,-189.453
1687767383.955,-20.508,-36.621,-64.453,-29.785,135.742
1687767383.959,-17.578,-39.062,-64.453,-18.555,140.137
1687767383.963,-17.578,-39.062,-64.453,-23.438,-82.031
1687767383.965,-13.184,-35.645,-64.453,-29.785,-113.770
1687767383.969,-16.602,-32.715,-65.430,-34.180,-74.219
1687767383.973,-24.414,-32.227,-61.035,-29.297,-130.371
1687767383.977,-18.066,-34.668,-61.523,-24.902,-189.941
1687767383.981,-5.859,-35.645,-62.500,-23.926,-148.926
1687767383.985,-6.348,-37.109,-61.523,-21.973,-74.707
1687767383.989,-10.742,-40.039,-62.012,-23.926,-79.102
1687767383.992,-14.160,-41.504,-60.547,-27.344,-139.648
1687767383.996,-18.066,-42.480,-56.641,-26.855,-53.223
1687767384.000,-21.973,-41.016,-60.547,-21.973,181.641
1687767384.004,-20.508,-39.062,-61.035,-26.855,35.645
1687767384.008,-19.043,-38.086,-51.758,-31.738,-66.895
1687767384.011,-28.809,-40.039,-55.664,-23.438,96.191
1687767384.015,-31.738,-40.039,-62.012,-20.508,168.945
1687767384.019,-21.484,-39.062,-53.711,-27.344,-54.688
1687767384.023,-15.137,-38.574,-48.340,-29.297,-155.762
1687767384.027,-19.531,-43.457,-54.688,-36.133,-99.609
1687767384.031,-20.020,-46.875,-58.105,-48.828,-88.867
1687767384.035,-12.695,-44.434,-60.059,-57.617,-105.469
1687767384.038,-4.395,-40.039,-52.734,-54.199,-104.980
1687767384.042,4.883,-40.039,-52.734,-56.152,102.539
1687767384.046,-6.348,-44.434,-55.664,-60.059,82.031
1687767384.050,-23.926,-48.340,-43.945,-57.617,-147.949
1687767384.054,-35.156,-51.758,-45.898,-56.641,-145.996
1687767384.056,-44.434,-45.898,-44.922,-51.270,-97.168
1687767384.060,-45.898,-46.875,-37.598,-45.898,-88.867
1687767384.064,-51.270,-46.387,-38.574,-42.969,-53.223
1687767384.068,-51.270,-42.969,-41.504,-41.504,-39.062
1687767384.072,-50.293,-40.039,-46.387,-44.434,6.348
1687767384.076,-47.363,-37.109,-44.922,-44.434,-19.043
1687767384.080,-38.574,-39.062,-44.922,-49.316,-117.188
1687767384.083,-44.922,-43.457,-50.293,-44.434,15.137
1687767384.087,-52.246,-45.898,-48.340,-41.992,331.055
1687767384.091,-48.340,-45.898,-40.039,-52.246,74.707
1687767384.095,-43.945,-42.480,-35.645,-47.363,-187.500
1687767384.099,-33.203,-41.016,-43.457,-34.668,63.477
1687767384.100,-29.785,-43.945,-51.758,-33.203,56.152
1687767384.104,-36.621,-40.039,-56.152,-52.734,-169.922
1687767384.108,-46.875,-39.062,-57.617,-71.289,-172.363
1687767384.112,-57.129,-43.457,-54.199,-74.707,-67.871
1687767384.116,-60.059,-38.574,-50.781,-65.430,-103.516
1687767384.120,-45.410,-39.551,-52.246,-50.781,-56.641
1687767384.124,-42.480,-46.875,-52.734,-45.898,-34.180
1687767384.127,-47.363,-46.875,-54.688,-41.016,189.453
1687767384.131,-34.668,-41.992,-51.270,-35.156,317.871
1687767384.135,-22.461,-42.480,-46.387,-38.086,-107.422
1687767384.139,-19.043,-45.410,-48.340,-36.621,-145.508
1687767384.143,-21.973,-46.875,-47.852,-36.621,23.438
1687767384.160,-34.180,-46.875,-46.387,-46.875,-65.430
1687767384.164,-32.227,-39.062,-47.852,-51.758,-141.602
1687767384.168,-25.391,-38.086,-45.410,-48.828,-100.586
1687767384.172,-28.320,-43.457,-41.992,-46.875,-79.102
1687767384.176,-31.738,-47.363,-40.527,-46.875,-54.199
1687767384.180,-36.133,-49.316,-45.410,-38.086,-68.848
1687767384.184,-30.273,-41.992,-52.246,-30.273,9.277
1687767384.187,-35.156,-43.457,-45.898,-34.668,270.996
1687767384.191,-43.457,-47.852,-41.016,-38.086,75.684
1687767384.195,-47.363,-49.316,-50.293,-44.922,-121.094
1687767384.199,-55.176,-45.898,-46.875,-47.852,51.270
1687767384.203,-54.199,-38.086,-45.410,-46.387,64.941
1687767384.205,-50.781,-36.621,-53.223,-49.805,-101.562
1687767384.209,-46.875,-35.645,-52.734,-56.152,-154.785
1687767384.213,-40.039,-32.715,-42.480,-52.246,23.926
1687767384.217,-41.992,-34.668,-41.504,-51.270,65.918
1687767384.221,-45.898,-41.016,-44.434,-56.152,-103.027
1687767384.225,-42.969,-43.945,-47.363,-54.199,15.137
1687767384.229,-40.039,-37.109,-47.363,-56.152,143.555
1687767384.232,-39.062,-38.574,-48.340,-56.152,-3.418
1687767384.236,-44.922,-44.434,-48.828,-59.570,-127.441
1687767384.240,-50.781,-41.504,-46.387,-60.547,-105.957
1687767384.244,-38.086,-39.062,-41.992,-45.898,194.824
1687767384.248,-34.668,-42.480,-42.480,-36.621,185.059
1687767384.250,-35.156,-40.039,-41.016,-35.645,-140.137
1687767384.254,-36.133,-34.180,-41.992,-36.133,-196.289
1687767384.258,-49.805,-34.668,-46.387,-37.598,-152.344
1687767384.262,-54.688,-39.551,-42.969,-39.062,-181.641
1687767384.266,-32.715,-42.969,-37.109,-37.598,-205.078
1687767384.270,-36.133,-44.922,-34.668,-35.645,-10.742
1687767384.274,-54.199,-45.410,-39.062,-39.551,69.824
1687767384.277,-50.781,-47.852,-42.480,-35.645,-15.137
1687767384.281,-40.039,-42.480,-38.574,-31.250,-108.887
1687767384.285,-39.551,-38.574,-37.109,-36.133,-47.363
1687767384.289,-40.039,-38.086,-36.133,-30.273,224.609
1687767384.293,-41.016,-38.086,-32.715,-33.203,35.645
1687767384.295,-44.434,-43.945,-41.016,-48.340,-122.559
1687767384.299,-43.945,-48.828,-47.363,-44.922,75.195
1687767384.303,-50.781,-40.039,-44.922,-38.574,174.805
1687767384.307,-46.875,-34.180,-44.434,-52.246,-84.961
1687767384.311,-45.410,-45.410,-40.039,-60.547,-168.945
1687767384.315,-49.316,-46.875,-28.320,-66.406,75.195
1687767384.319,-36.133,-43.945,-27.344,-58.594,72.754
1687767384.322,-29.297,-41.992,-26.367,-45.898,-43.945
1687767384.326,-37.598,-45.898,-27.344,-41.992,-68.359
1687767384.330,-37.598,-46.875,-27.832,-37.109,120.117
1687767384.334,-41.504,-45.410,-28.320,-27.832,110.352
1687767384.338,-45.410,-47.363,-34.180,-26.855,-177.246
1687767384.340,-35.156,-48.828,-37.598,-32.715,-183.105
1687767384.344,-21.484,-52.246,-35.156,-36.133,-63.477
1687767384.348,-28.320,-46.875,-27.344,-35.156,-62.988
1687767384.352,-52.246,-43.945,-21.973,-39.551,-162.598
1687767384.356,-62.500,-50.293,-18.555,-44.922,-135.254
1687767384.360,-67.871,-55.176,-16.602,-44.922,28.809
1687767384.364,-65.918,-53.711,-18.555,-54.199,65.918
1687767384.367,-39.551,-36.133,-11.719,-51.270,-46.387
1687767384.371,-34.180,-34.668,-8.301,-47.852,-60.547
1687767384.375,-52.734,-54.199,-17.578,-67.871,161.133
1687767384.379,-62.500,-59.082,-10.742,-88.867,-25.391
1687767384.383,-73.730,-70.312,2.930,-97.656,-108.398
1687767384.385,-87.891,-78.613,26.367,-93.750,64.941
1687767384.389,-126.953,-82.520,41.016,-115.234,55.176
1687767384.393,-133.301,-88.379,44.434,-130.859,-143.066
1687767384.397,-149.902,-93.262,56.152,-141.113,-151.367
1687767384.401,-213.379,-92.773,73.242,-203.125,20.996
1687767384.405,-263.184,-84.961,88.867,-249.512,12.207
1687767384.409,-291.992,-86.426,96.680,-281.250,-52.246
1687767384.412,-302.734,-84.473,103.027,-305.664,-107.910
1687767384.416,-314.453,-88.379,96.191,-310.059,76.660
1687767384.420,-323.242,-74.707,101.074,-314.941,156.738
1687767384.424,-341.797,-57.617,113.281,-338.867,-117.676
1687767384.428,-341.309,-60.059,104.492,-350.586,-174.805
1687767384.430,-328.125,-55.664,92.773,-341.797,-92.773
1687767384.434,-323.730,-54.199,83.984,-332.520,-83.496
1687767384.438,-316.895,-56.641,77.148,-325.684,-119.141
1687767384.442,-316.406,-56.641,70.801,-312.988,-52.734
1687767384.446,-302.734,-55.176,65.918,-306.152,-45.898
1687767384.450,-259.277,-49.316,71.289,-282.715,-78.125
1687767384.454,-245.605,-47.363,76.660,-260.254,-19.043
1687767384.457,-259.766,-50.293,70.312,-273.926,34.180
1687767384.461,-263.184,-59.082,62.500,-263.184,288.574
1687767384.465,-244.141,-55.176,59.082,-233.398,127.930
1687767384.469,-210.938,-48.340,51.758,-213.379,-165.039
1687767384.473,-182.129,-46.875,48.340,-191.895,-74.219
1687767384.475,-182.617,-48.828,44.922,-181.152,-43.457
1687767384.479,-182.617,-55.176,37.598,-182.617,-167.969
1687767384.483,-135.254,-51.758,24.902,-151.367,-128.418
1687767384.487,-93.750,-44.434,24.414,-117.188,1.465
1687767384.491,-62.012,-42.480,31.738,-95.703,-12.695
1687767384.495,-68.359,-52.734,22.949,-87.891,28.809
1687767384.499,-85.449,-63.965,20.508,-84.961,41.016
1687767384.502,-67.383,-68.848,13.184,-55.664,127.441
1687767384.506,-34.668,-65.430,-3.906,-17.578,113.770
1687767384.510,-7.812,-55.176,-23.438,-1.465,-92.773
1687767384.514,28.320,-48.340,-34.180,25.391,-121.094
1687767384.518,51.758,-44.922,-42.969,40.527,-20.508
1687767384.520,53.223,-35.645,-62.012,51.270,-116.211
1687767384.524,75.195,-29.297,-67.871,72.266,-179.199
1687767384.528,89.355,-30.273,-79.590,83.008,-162.598
1687767384.532,105.469,-27.344,-92.285,84.961,-94.238
1687767384.536,111.328,-20.996,-97.168,86.426,-107.422
1687767384.540,111.328,-18.066,-104.004,102.051,-105.957
1687767384.544,113.281,-17.578,-108.398,111.816,20.020
1687767384.547,118.164,-14.648,-107.422,110.840,100.586
1687767384.551,125.488,-14.160,-107.422,104.004,-73.242
1687767384.555,125.000,-13.672,-107.422,106.445,-195.312
1687767384.559,125.488,-3.418,-98.633,116.699,-53.223
1687767384.563,128.906,-3.906,-104.004,109.375,168.945
1687767384.565,130.371,-11.719,-113.281,95.703,93.750
1687767384.569,129.395,-14.648,-120.605,95.703,-83.496
1687767384.573,141.113,-13.184,-125.488,92.285,86.914
1687767384.577,146.484,-2.930,-120.605,92.285,317.383
1687767384.581,131.348,-1.953,-121.094,83.984,-21.973
1687767384.585,112.305,-1.953,-125.977,77.148,-97.656
1687767384.589,89.844,-6.348,-119.141,87.402,200.195
1687767384.592,84.473,-15.625,-112.793,94.238,150.391
1687767384.596,96.191,-13.184,-110.840,88.379,-129.883
1687767384.600,88.867,-5.371,-108.398,89.355,-140.625
1687767384.604,71.289,-6.836,-104.004,90.820,-92.285
1687767384.608,80.078,-9.277,-98.145,90.820,-102.539
1687767384.611,82.031,-11.230,-98.633,81.543,-149.902
1687767384.615,72.266,-13.672,-102.539,83.496,-44.922
1687767384.619,68.359,-12.207,-110.352,83.984,4.395
1687767384.623,68.848,-10.742,-105.957,82.031,-157.715
1687767384.627,58.105,-15.625,-103.516,65.918,-166.016
1687767384.631,44.434,-21.484,-104.004,51.270,-17.090
1687767384.635,46.875,-20.020,-93.262,52.246,84.473
1687767384.638,53.223,-30.273,-96.680,39.551,-43.945
1687767384.642,42.480,-37.109,-97.168,23.926,-157.227
1687767384.646,34.180,-33.203,-92.285,23.926,-70.801
1687767384.650,23.438,-35.645,-91.309,23.926,80.078
1687767384.654,17.578,-34.668,-94.238,17.090,9.277
1687767384.670,27.344,-26.367,-92.773,17.090,-112.793
1687767384.674,31.738,-24.902,-87.402,26.855,-17.578
1687767384.678,34.180,-27.344,-85.449,30.273,57.617
1687767384.682,38.574,-24.902,-83.984,25.391,-27.344
1687767384.686,38.086,-28.320,-79.590,15.137,29.297
1687767384.690,29.297,-37.598,-76.172,11.719,238.770
1687767384.694,28.320,-30.762,-72.754,12.695,235.352
1687767384.697,40.527,-18.555,-69.824,11.719,-75.195
1687767384.701,41.504,-22.461,-75.195,10.742,-113.281
1687767384.705,31.738,-29.785,-75.195,6.836,39.551
1687767384.709,26.855,-31.738,-66.895,-3.418,-76.660
1687767384.713,28.320,-34.180,-73.242,-11.719,-218.750
1687767384.715,15.625,-38.086,-82.031,-0.488,-134.766
1687767384.719,6.836,-39.551,-81.055,-3.906,-76.172
1687767384.723,18.555,-33.691,-71.777,-20.996,-112.305
1687767384.727,20.996,-27.344,-65.430,-16.602,-121.094
1687767384.731,10.742,-27.832,-64.453,-5.371,-80.078
1687767384.735,15.137,-27.344,-66.406,-3.418,-8.789
1687767384.739,13.184,-26.855,-72.266,-5.859,-27.344
1687767384.742,11.719,-26.855,-67.383,-17.090,-89.844
1687767384.746,18.066,-25.879,-62.012,-16.113,-31.738
1687767384.750,2.930,-26.855,-62.500,-7.324,199.219
1687767384.754,-9.277,-28.320,-68.848,-13.672,69.336
1687767384.758,-11.719,-37.109,-70.801,-27.344,-62.988
1687767384.760,-15.625,-45.410,-63.965,-32.715,41.992
1687767384.764,-4.883,-41.504,-62.988,-21.484,57.129
1687767384.768,1.953,-36.621,-67.871,-17.578,-67.871
1687767384.772,-11.719,-41.992,-61.523,-24.902,-112.793
1687767384.776,-15.625,-41.016,-56.641,-30.273,-69.336
1687767384.780,-4.883,-37.109,-56.152,-17.090,-13.184
1687767384.784,6.836,-35.645,-56.152,-19.531,-40.527
1687767384.787,10.254,-35.156,-63.477,-34.180,-120.605
1687767384.791,-9.766,-35.645,-64.453,-26.855,154.785
1687767384.795,-26.855,-43.945,-61.035,-16.602,218.262
1687767384.799,-19.531,-45.898,-61.523,-16.113,-135.742
1687767384.803,-3.418,-43.457,-61.035,-28.320,-171.387
1687767384.805,-15.137,-41.504,-61.035,-28.809,-119.629
1687767384.809,-26.855,-41.016,-55.664,-26.855,-112.793
1687767384.813,-16.602,-37.598,-52.246,-28.809,-111.816
1687767384.817,-4.395,-39.062,-48.340,-31.250,-102.539
1687767384.821,-17.090,-44.922,-42.480,-32.715,-106.445
1687767384.825,-25.879,-43.457,-40.039,-26.367,-30.762
1687767384.829,-14.160,-36.621,-39.062,-19.531,49.805
1687767384.832,-17.578,-33.691,-40.527,-25.391,79.102
1687767384.836,-31.738,-39.062,-45.410,-31.250,274.414
1687767384.840,-32.227,-40.527,-47.363,-44.434,27.344
1687767384.844,-26.367,-40.527,-43.457,-55.176,-189.941
1687767384.848,-26.855,-34.668,-41.016,-53.223,79.590
1687767384.850,-25.879,-30.273,-48.828,-48.828,199.219
1687767384.854,-28.809,-29.297,-55.176,-46.387,-96.191
1687767384.858,-45.410,-29.785,-49.805,-42.969,-132.324
1687767384.862,-38.086,-25.879,-44.434,-36.133,-26.367
1687767384.866,-22.461,-22.949,-43.945,-41.992,-152.832
1687767384.870,-23.438,-28.320,-45.410,-49.805,-120.605
1687767384.874,-13.672,-30.762,-39.551,-50.781,5.859
1687767384.877,-11.230,-27.832,-40.527,-42.969,117.676
1687767384.881,-16.602,-24.414,-47.363,-37.109,70.801
1687767384.885,-20.996,-28.809,-46.875,-44.922,-160.645
1687767384.889,-26.367,-40.039,-42.969,-43.945,-138.672
1687767384.893,-24.902,-40.527,-42.969,-32.715,-113.770
1687767384.897,-18.066,-35.645,-47.852,-40.527,-145.020
1687767384.901,-16.602,-31.738,-46.875,-49.316,-99.609
1687767384.905,-24.902,-30.273,-44.922,-39.062,-110.352
1687767384.909,-28.320,-32.227,-40.527,-35.156,-26.855
1687767384.913,-30.273,-36.621,-40.527,-34.668,-60.059
1687767384.917,-41.504,-38.086,-46.875,-37.109,-83.984
1687767384.921,-41.504,-39.551,-46.387,-43.457,78.613
1687767384.924,-38.086,-42.969,-41.016,-30.762,233.398
1687767384.928,-43.945,-44.922,-41.504,-30.273,-9.766
1687767384.932,-36.621,-48.340,-41.992,-34.668,-213.379
1687767384.936,-23.438,-47.363,-44.922,-31.738,-127.441
1687767384.940,-29.785,-44.434,-42.969,-42.480,-43.457
1687767384.940,-41.016,-49.805,-46.875,-42.480,-148.438
1687767384.944,-45.410,-47.852,-51.758,-49.316,-152.344
1687767384.948,-36.621,-48.828,-41.016,-55.664,19.531
1687767384.952,-45.898,-55.176,-35.645,-50.293,117.676
1687767384.956,-57.129,-44.434,-31.738,-46.387,-90.820
1687767384.960,-51.758,-28.809,-22.949,-37.109,-122.559
1687767384.964,-56.152,-40.039,-28.320,-41.504,231.934
1687767384.967,-75.684,-59.570,-30.273,-65.918,295.410
1687767384.971,-73.242,-57.617,-11.719,-78.613,-64.453
1687767384.975,-76.172,-56.641,0.488,-75.684,-140.625
1687767384.979,-112.305,-76.172,5.371,-103.516,-89.844
1687767384.983,-142.090,-88.867,19.043,-133.301,-199.707
1687767384.985,-166.016,-86.426,41.016,-154.785,-266.602
1687767384.989,-199.707,-98.145,64.453,-181.641,-191.895
1687767384.993,-222.168,-104.492,88.379,-204.590,-65.918
1687767384.997,-233.398,-101.562,98.145,-223.633,-66.406
1687767385.001,-252.930,-101.562,99.121,-259.277,-133.789
1687767385.005,-291.016,-98.633,103.516,-301.758,59.570
1687767385.009,-320.312,-91.309,104.004,-327.148,158.691
1687767385.012,-344.727,-89.844,104.492,-343.262,7.812
1687767385.016,-345.215,-86.426,108.398,-346.680,-177.734
1687767385.020,-344.238,-81.543,110.840,-340.332,-105.469
1687767385.024,-343.750,-78.613,102.051,-326.172,139.160
1687767385.028,-322.754,-71.777,101.562,-307.129,-0.977
1687767385.045,-303.711,-65.430,100.098,-285.645,-138.184
1687767385.049,-285.156,-61.035,88.379,-273.926,-20.996
1687767385.053,-272.949,-65.918,89.355,-259.277,116.699
1687767385.057,-251.953,-73.242,78.125,-245.117,-52.246
1687767385.061,-209.473,-65.918,65.918,-212.891,-183.105
1687767385.065,-176.758,-64.941,61.523,-178.711,-34.668
1687767385.069,-152.832,-66.895,49.805,-155.273,25.391
1687767385.072,-118.164,-64.453,34.180,-108.887,-132.324
1687767385.076,-109.863,-63.477,21.484,-106.445,-138.672
1687767385.080,-89.355,-58.594,17.578,-82.031,78.125
1687767385.084,-46.875,-56.641,12.207,-39.062,136.719
1687767385.088,-29.297,-55.664,-8.301,-40.039,-88.867
1687767385.090,-19.043,-53.223,-18.066,-22.949,-127.930
1687767385.094,-12.207,-43.457,-19.043,-7.324,-42.480
1687767385.098,2.441,-38.086,-28.809,-5.859,-83.984
1687767385.102,15.625,-35.156,-42.480,3.418,-122.559
1687767385.106,33.203,-29.785,-60.547,17.578,-76.172
1687767385.110,54.688,-24.414,-65.430,20.508,13.672
1687767385.114,62.988,-20.508,-66.406,23.438,-6.836
1687767385.117,71.289,-20.020,-76.660,25.391,-135.742
1687767385.121,90.332,-14.648,-85.938,28.320,-38.086
1687767385.125,94.727,-7.812,-91.797,39.062,226.074
1687767385.129,73.730,-6.836,-90.820,53.711,99.121
1687767385.133,58.105,-14.160,-92.285,53.711,-89.844
1687767385.135,47.852,-16.602,-91.797,56.641,49.805
1687767385.139,47.363,-13.184,-95.215,62.012,187.500
1687767385.143,62.988,-9.277,-96.680,52.246,-64.453
1687767385.147,62.012,-9.277,-95.703,48.828,-141.113
1687767385.151,44.922,-16.602,-103.027,47.852,-41.992
1687767385.155,41.992,-15.137,-99.121,41.504,-39.062
1687767385.159,46.387,-5.859,-97.656,49.316,-31.250
1687767385.162,42.480,-10.742,-103.516,53.711,-135.254
1687767385.166,49.316,-12.695,-98.145,59.082,55.176
1687767385.170,65.918,-2.930,-97.656,64.453,106.934
1687767385.174,63.477,-8.789,-106.445,54.199,-131.836
1687767385.178,56.641,-14.648,-102.539,45.410,-143.555
1687767385.180,50.781,-15.625,-98.633,32.715,-79.102
1687767385.184,37.598,-18.555,-95.215,20.020,-101.074
1687767385.188,38.574,-18.066,-88.867,22.949,-222.656
1687767385.192,43.945,-23.438,-95.215,24.414,-183.105
1687767385.196,37.598,-21.484,-95.215,17.578,-75.684
1687767385.200,33.203,-17.578,-88.867,16.602,-63.965
1687767385.204,35.156,-21.973,-89.355,15.137,-113.281
1687767385.207,33.203,-21.973,-89.355,16.602,-82.031
1687767385.211,18.555,-23.438,-93.750,17.578,35.156
1687767385.215,8.301,-27.832,-94.727,14.160,-83.008
1687767385.219,4.883,-26.855,-90.332,23.438,-105.469
1687767385.223,6.348,-24.414,-91.797,23.438,99.121
1687767385.225,10.254,-26.367,-81.543,16.602,142.090
1687767385.229,6.836,-27.344,-70.312,19.043,-65.430
1687767385.233,6.348,-26.367,-73.242,13.672,-158.691
1687767385.237,2.441,-27.344,-75.195,2.441,75.684
1687767385.241,3.418,-27.344,-73.242,4.395,280.273
1687767385.245,5.859,-23.438,-71.289,7.812,25.879
1687767385.249,3.906,-22.461,-63.965,11.719,-54.199
1687767385.252,6.836,-29.785,-60.547,15.137,122.559
1687767385.256,7.324,-30.273,-62.988,19.043,116.211
1687767385.260,3.906,-26.855,-65.918,5.859,-131.836
1687767385.264,6.836,-28.320,-72.754,-12.695,-216.797
1687767385.268,3.906,-27.344,-71.289,-11.230,-159.668
1687767385.270,-0.488,-22.949,-66.895,3.418,-148.926
1687767385.274,-4.395,-25.879,-69.336,7.324,-184.570
1687767385.278,-3.906,-34.180,-61.523,-2.441,-137.207
1687767385.282,1.953,-31.250,-59.570,-3.418,-82.031
1687767385.286,3.906,-29.785,-62.500,-6.348,-93.750
1687767385.290,-3.418,-29.297,-54.688,-18.555,-9.277
1687767385.294,-4.883,-25.391,-59.082,-10.254,111.816
1687767385.297,-1.465,-21.484,-71.289,-1.953,354.492
1687767385.301,-8.301,-18.555,-67.871,-14.160,131.348
1687767385.305,-15.137,-20.508,-61.035,-23.926,-182.617
1687767385.309,-14.160,-23.926,-54.199,-18.555,-60.059
1687767385.313,-3.418,-21.973,-55.176,-16.602,111.328
1687767385.315,0.000,-25.391,-56.152,-17.090,-33.203
1687767385.319,-16.113,-28.809,-45.410,-10.254,-146.973
1687767385.323,-21.484,-25.879,-43.945,-5.371,9.766
1687767385.327,-15.137,-28.809,-52.246,-13.672,63.965
1687767385.331,-6.348,-31.738,-55.176,-25.391,-83.984
1687767385.335,-0.488,-25.391,-57.129,-19.043,-12.207
1687767385.339,-6.836,-29.297,-54.688,-9.766,217.773
1687767385.342,-8.789,-30.273,-53.711,-2.930,136.230
1687767385.346,-9.766,-20.996,-46.875,-3.418,-104.980
1687767385.350,-12.695,-27.832,-42.969,-7.324,-63.477
1687767385.354,-8.301,-28.809,-45.410,-11.230,68.848
1687767385.358,-11.230,-23.926,-39.062,-15.625,-44.922
1687767385.360,-20.020,-33.691,-44.434,-25.879,-139.648
1687767385.364,-27.344,-40.039,-58.594,-32.227,-160.645
1687767385.368,-26.367,-41.016,-53.711,-36.133,-115.723
1687767385.372,-13.184,-37.598,-46.875,-41.504,-107.910
1687767385.376,-16.113,-29.297,-45.410,-33.203,-157.227
1687767385.380,-31.250,-36.133,-50.781,-22.949,-31.250
1687767385.384,-33.203,-36.621,-55.176,-24.414,173.340
1687767385.387,-24.414,-18.066,-32.715,-26.367,-32.227
1687767385.391,-16.113,-22.461,-30.273,-20.996,-187.500
1687767385.395,-23.926,-37.109,-44.922,-26.855,-65.918
1687767385.399,-35.156,-38.086,-41.992,-31.738,75.195
1687767385.403,-25.391,-36.133,-40.039,-29.297,9.277
1687767385.420,-25.879,-35.645,-47.363,-30.273,-100.586
1687767385.424,-25.391,-35.645,-52.246,-29.297,28.320
1687767385.428,-25.879,-34.180,-49.316,-25.391,136.719
1687767385.432,-32.715,-38.574,-51.270,-31.250,-76.172
1687767385.436,-32.715,-38.086,-57.617,-39.551,-137.207
1687767385.440,-25.879,-37.109,-57.617,-35.645,-17.090
1687767385.444,-15.625,-38.574,-51.758,-34.668,1.465
1687767385.447,-14.648,-31.738,-46.875,-36.621,-30.762
1687767385.451,-26.367,-33.203,-49.316,-36.621,-83.008
1687767385.455,-27.344,-37.598,-52.734,-35.645,110.352
1687767385.459,-15.137,-28.809,-48.828,-26.855,9.766
1687767385.463,-21.973,-30.762,-41.016,-20.020,-143.066
1687767385.465,-24.414,-40.527,-41.992,-23.926,16.113
1687767385.469,-24.414,-38.574,-39.551,-34.668,46.875
1687767385.473,-38.086,-38.574,-39.062,-41.504,-73.242
1687767385.477,-45.898,-39.062,-47.363,-50.781,-168.945
1687767385.481,-45.410,-37.598,-48.340,-41.992,-155.273
1687767385.485,-43.457,-39.062,-46.875,-37.598,-41.992
1687767385.489,-35.645,-40.039,-50.293,-40.039,67.871
1687767385.492,-26.855,-37.598,-51.270,-37.109,-66.895
1687767385.496,-18.555,-41.504,-51.758,-26.855,-62.500
1687767385.500,-23.438,-45.898,-54.199,-10.742,197.754
1687767385.504,-29.785,-42.480,-50.781,-18.555,53.711
1687767385.508,-21.484,-43.945,-44.434,-31.250,-108.398
1687767385.516,-30.273,-41.016,-41.504,-39.551,-38.086
1687767385.520,-37.598,-34.668,-42.969,-42.969,3.418
1687767385.524,-39.551,-31.738,-48.340,-45.898,-45.898
1687767385.528,-48.828,-30.762,-49.805,-44.922,-97.168
1687767385.532,-42.480,-34.180,-49.316,-39.062,12.695
1687767385.536,-26.367,-27.344,-47.852,-36.133,55.176
1687767385.540,-16.602,-23.438,-41.992,-31.250,-145.020
1687767385.543,-20.508,-35.645,-50.293,-22.949,-183.594
1687767385.547,-23.438,-39.062,-58.105,-31.250,64.941
1687767385.551,-22.949,-32.715,-50.781,-43.457,141.113
1687767385.555,-39.551,-27.832,-47.852,-46.387,-70.312
1687767385.559,-32.715,-24.902,-45.898,-39.062,-151.367
1687767385.555,-21.484,-31.250,-49.316,-22.949,-101.562
1687767385.559,-28.809,-33.691,-51.270,-25.879,-31.250
1687767385.563,-44.434,-31.738,-40.527,-39.062,-56.152
1687767385.567,-46.875,-34.180,-32.227,-38.574,-152.832
1687767385.571,-42.480,-32.715,-33.691,-40.527,-111.816
1687767385.575,-47.363,-31.738,-32.715,-35.156,25.391
1687767385.579,-46.387,-37.109,-44.434,-21.484,29.297
1687767385.582,-37.598,-37.109,-43.945,-21.484,53.223
1687767385.586,-43.945,-35.645,-33.691,-23.438,280.762
1687767385.590,-49.805,-36.621,-36.621,-28.809,141.602
1687767385.594,-55.664,-40.039,-44.922,-35.156,-121.582
1687767385.598,-45.410,-38.086,-49.316,-41.016,25.879
1687767385.600,-38.574,-38.574,-49.316,-49.316,64.453
1687767385.604,-41.504,-35.645,-45.898,-42.969,-187.012
1687767385.608,-29.785,-29.785,-44.434,-39.062,-178.223
1687767385.612,-30.273,-34.668,-46.387,-39.551,-15.137
1687767385.616,-30.273,-39.062,-46.387,-36.133,-45.410
1687767385.620,-25.879,-37.598,-47.852,-37.109,-58.594
1687767385.624,-22.461,-36.133,-53.223,-48.828,-0.977
1687767385.627,-24.414,-38.574,-52.246,-50.781,259.766
1687767385.631,-16.113,-36.621,-47.852,-46.875,364.746
1687767385.635,-9.766,-31.250,-46.387,-57.129,-62.012
1687767385.639,-21.484,-33.203,-47.852,-58.105,-160.645
1687767385.643,-32.227,-39.551,-47.363,-53.223,-83.008
1687767385.645,-43.945,-38.086,-49.316,-41.992,-106.934
1687767385.649,-45.898,-33.203,-49.805,-33.691,-140.137
1687767385.653,-41.504,-38.086,-47.363,-33.203,-103.516
1687767385.657,-49.316,-41.016,-49.805,-36.133,-49.316
1687767385.661,-55.176,-43.457,-57.129,-36.621,-97.168
1687767385.665,-56.152,-47.363,-59.570,-39.551,-81.543
1687767385.669,-49.805,-44.434,-54.199,-37.598,20.020
1687767385.672,-42.969,-41.016,-44.434,-29.785,181.152
1687767385.676,-36.621,-36.133,-47.363,-28.809,14.648
1687767385.680,-34.180,-30.762,-50.293,-38.086,-161.133
1687767385.684,-31.250,-32.715,-42.480,-38.086,-69.336
1687767385.688,-26.367,-34.180,-35.156,-21.973,187.988
1687767385.690,-19.043,-34.180,-43.945,-26.367,-58.105
1687767385.694,-20.020,-41.504,-48.340,-37.109,-279.297
1687767385.698,-31.250,-47.852,-48.340,-31.250,-116.699
1687767385.702,-36.621,-40.527,-48.828,-23.438,-120.605
1687767385.706,-35.156,-36.133,-41.992,-25.879,-167.969
1687767385.710,-31.250,-39.551,-34.668,-26.367,-64.941
1687767385.714,-35.645,-42.480,-29.297,-22.461,178.711
1687767385.717,-41.992,-43.945,-29.785,-25.391,150.391
1687767385.721,-46.875,-52.734,-31.738,-31.738,-169.922
1687767385.725,-48.828,-53.711,-34.180,-37.109,-174.316
1687767385.729,-46.387,-41.992,-41.016,-51.270,-108.398
1687767385.733,-48.828,-42.969,-47.363,-51.270,-47.363
1687767385.735,-40.039,-44.922,-46.387,-40.527,-33.691
1687767385.739,-31.738,-38.574,-45.898,-36.133,-102.051
1687767385.743,-35.156,-37.598,-46.387,-40.527,-2.441
1687767385.747,-32.227,-38.086,-42.480,-43.945,-56.152
1687767385.751,-33.691,-38.574,-40.039,-40.527,-104.492
1687767385.755,-33.691,-37.598,-34.668,-42.480,38.574
1687767385.759,-31.250,-32.715,-34.668,-35.156,125.977
1687767385.762,-30.273,-29.297,-50.293,-32.715,-51.758
1687767385.766,-19.531,-32.715,-56.152,-40.527,-152.344
1687767385.770,-20.996,-33.691,-54.688,-46.875,-60.547
1687767385.774,-28.809,-32.227,-46.387,-38.574,11.719
1687767385.778,-30.762,-34.180,-35.156,-37.109,-11.230
1687767385.795,-33.203,-33.203,-38.086,-37.598,-71.289
1687767385.799,-33.203,-35.645,-44.434,-30.762,40.039
1687767385.803,-27.344,-34.668,-44.434,-29.297,144.043
1687767385.807,-28.809,-35.156,-47.363,-31.250,-129.395
1687767385.811,-33.691,-36.621,-50.293,-27.344,-203.613
1687767385.815,-35.645,-34.668,-53.223,-31.738,61.523
1687767385.819,-38.574,-36.133,-54.199,-38.574,91.797
1687767385.822,-33.691,-35.645,-55.664,-37.109,-119.141
1687767385.826,-30.273,-31.738,-57.129,-33.203,-143.066
1687767385.830,-35.645,-34.668,-51.758,-30.762,6.348
1687767385.834,-40.527,-35.645,-51.758,-42.969,-17.578
1687767385.838,-39.551,-31.738,-46.387,-39.062,-122.070
1687767385.841,-42.969,-31.250,-47.852,-31.738,-73.730
1687767385.845,-40.527,-31.738,-57.617,-37.109,-78.613
1687767385.849,-42.480,-34.668,-59.082,-39.062,-157.227
1687767385.853,-46.387,-43.457,-55.664,-39.062,-199.707
1687767385.857,-36.133,-42.480,-54.199,-34.180,-98.633
1687767385.861,-26.367,-30.762,-41.992,-29.297,138.672
1687767385.865,-31.738,-20.020,-40.039,-30.762,110.352
1687767385.868,-30.762,-22.461,-42.969,-36.133,-132.324
1687767385.872,-41.504,-33.691,-36.621,-41.016,-118.652
1687767385.876,-47.852,-32.715,-30.273,-45.410,221.191
1687767385.880,-51.270,-34.668,-30.273,-53.711,34.180
1687767385.884,-65.918,-45.898,-20.508,-63.477,-56.641
1687767385.885,-68.848,-48.340,-3.418,-65.430,3.418
1687767385.889,-82.520,-60.059,11.230,-82.031,-95.215
1687767385.893,-122.070,-78.125,23.438,-108.887,-147.949
1687767385.897,-147.949,-83.008,39.551,-131.836,-166.504
1687767385.901,-153.809,-87.891,55.176,-146.973,-64.453
1687767385.905,-198.242,-96.680,79.590,-192.383,-46.875
1687767385.909,-246.582,-91.309,97.656,-250.000,-83.984
1687767385.912,-279.785,-92.285,105.957,-280.762,-4.395
1687767385.916,-311.523,-100.586,116.211,-291.504,213.379
1687767385.920,-337.402,-90.820,123.535,-302.246,354.980
1687767385.924,-352.051,-79.590,122.559,-327.637,85.449
1687767385.928,-360.352,-76.660,117.188,-357.910,-137.695
1687767385.930,-375.977,-74.219,114.746,-382.324,-102.539
1687767385.934,-379.395,-68.359,111.328,-388.184,-131.836
1687767385.938,-345.703,-63.477,111.328,-368.164,-228.516
1687767385.942,-330.078,-58.105,115.234,-350.586,-210.449
1687767385.946,-340.332,-56.152,104.492,-346.191,-107.910
1687767385.950,-342.773,-61.035,82.031,-341.309,-29.297
1687767385.954,-332.520,-58.105,74.707,-334.473,-54.199
1687767385.957,-316.895,-54.199,79.590,-323.730,-43.457
1687767385.961,-294.922,-46.875,75.684,-297.852,222.168
1687767385.965,-270.996,-43.457,78.125,-272.949,36.621
1687767385.969,-248.535,-55.664,80.078,-258.789,-212.402
1687767385.973,-218.750,-53.223,67.383,-221.191,-23.926
1687767385.975,-175.293,-46.387,44.922,-172.363,180.664
1687767385.979,-142.578,-45.898,29.297,-148.438,-54.199
1687767385.983,-124.512,-49.805,22.949,-131.348,-198.730
1687767385.987,-102.539,-56.152,19.043,-104.980,-77.148
1687767385.991,-69.824,-50.781,13.672,-80.078,29.297
1687767385.995,-45.898,-45.410,0.488,-48.828,12.207
1687767385.999,-25.391,-47.363,-12.695,-15.625,-30.762
1687767386.002,-11.719,-45.898,-25.391,0.977,153.320
1687767386.006,15.137,-41.016,-47.852,19.531,84.961
1687767386.010,42.480,-40.039,-63.477,42.480,-178.223
1687767386.014,41.016,-34.668,-74.707,37.109,-152.832
1687767386.018,43.945,-26.855,-85.449,46.875,-2.441
1687767386.020,52.734,-22.949,-92.285,64.941,-94.238
1687767386.024,79.590,-14.648,-95.703,68.359,-180.176
1687767386.028,95.215,-13.672,-97.656,83.496,-57.129
1687767386.032,83.984,-20.996,-111.328,86.914,57.129
1687767386.036,90.820,-14.160,-118.652,85.449,-23.926
1687767386.040,95.703,-11.230,-122.559,86.914,-72.754
1687767386.044,94.238,-7.812,-120.117,74.219,89.844
1687767386.047,94.727,-1.953,-117.188,75.195,281.250
1687767386.051,102.051,-2.930,-126.953,86.914,20.508
1687767386.055,102.539,-7.324,-139.160,87.891,-178.711
1687767386.059,100.098,-4.395,-132.812,83.984,5.371
1687767386.063,90.820,0.000,-125.977,80.566,60.059
1687767386.066,96.680,4.395,-124.023,83.984,-97.656
1687767386.070,111.816,5.371,-124.512,88.867,-120.605
1687767386.074,92.285,-1.953,-130.859,80.566,68.848
1687767386.078,72.266,-3.906,-125.000,76.172,101.562
1687767386.082,75.684,-3.418,-119.141,77.637,-113.770
1687767386.086,73.242,-0.977,-115.723,74.219,-115.723
1687767386.090,71.777,-3.906,-119.141,73.730,150.391
1687767386.093,70.312,-0.488,-123.047,73.242,175.781
1687767386.097,56.152,-6.348,-122.559,60.059,-101.562
1687767386.101,54.199,-13.184,-115.723,48.340,-155.762
1687767386.105,49.805,-7.812,-113.770,35.156,-67.871
1687767386.109,40.039,-18.066,-118.652,24.414,-70.801
1687767386.110,39.551,-30.273,-93.750,25.879,-131.836
1687767386.114,24.902,-34.180,-65.430,17.090,-35.645
1687767386.118,-3.418,-38.086,-51.270,-0.488,15.137
1687767386.122,-34.668,-59.082,-43.945,-24.414,-71.289
1687767386.126,-67.383,-78.125,-27.832,-59.570,-98.633
1687767386.130,-87.891,-69.336,7.324,-83.496,6.348
1687767386.134,-109.863,-66.895,31.250,-87.891,359.863
1687767386.137,-157.227,-83.984,37.109,-138.672,121.582
1687767386.141,-183.594,-83.008,55.664,-189.453,-178.223
1687767386.145,-201.660,-86.914,74.219,-224.609,-133.789
1687767386.149,-222.168,-93.750,80.566,-259.766,-102.539
1687767386.153,-228.027,-84.473,88.867,-260.254,-60.547
1687767386.185,-243.652,-84.961,77.637,-272.949,-147.949
1687767386.189,-271.973,-79.590,67.871,-285.645,-67.871
1687767386.193,-297.363,-69.336,75.195,-284.180,9.766
1687767386.197,-293.945,-66.895,72.754,-285.156,-152.832
1687767386.201,-274.414,-66.406,59.082,-272.461,-163.086
1687767386.205,-260.254,-72.754,53.223,-256.836,57.129
1687767386.209,-244.629,-73.730,69.336,-251.465,102.051
1687767386.212,-221.680,-69.824,74.707,-230.957,9.766
1687767386.216,-205.078,-69.336,61.035,-196.777,-58.594
1687767386.220,-180.664,-74.707,55.664,-169.922,153.320
1687767386.224,-148.926,-66.895,40.039,-141.602,168.945
1687767386.228,-123.535,-60.059,25.879,-115.234,-103.516
1687767386.215,-92.773,-57.129,36.133,-89.355,-119.629
1687767386.219,-59.570,-40.527,40.527,-57.617,-58.594
1687767386.223,-45.410,-43.945,24.414,-38.086,-75.684
1687767386.227,-23.926,-56.641,-12.207,-25.391,-144.531
1687767386.231,-1.465,-49.805,-26.367,-11.230,-147.949
1687767386.235,4.395,-41.504,-24.902,-6.836,-2.930
1687767386.239,21.484,-36.621,-45.898,9.766,12.207
1687767386.242,28.809,-34.668,-61.523,33.691,-135.254
1687767386.246,30.273,-30.273,-63.965,41.992,-38.086
1687767386.250,56.152,-22.461,-77.148,57.129,27.344
1687767386.254,82.031,-15.137,-89.355,68.359,-51.758
1687767386.258,83.984,-14.648,-93.262,64.453,-35.156
1687767386.260,77.637,-20.020,-96.191,62.012,18.555
1687767386.264,83.496,-12.207,-104.004,80.566,302.246
1687767386.268,92.773,-3.906,-113.770,81.055,50.781
1687767386.272,103.027,-4.883,-122.070,73.242,-225.586
1687767386.276,106.934,-5.859,-125.000,87.402,86.426
1687767386.280,105.469,-5.371,-124.512,95.703,206.055
1687767386.284,102.051,-4.395,-125.000,86.426,-66.895
1687767386.287,99.609,-0.977,-128.906,84.473,-103.516
1687767386.291,106.445,8.789,-130.859,100.586,104.492
1687767386.295,108.398,4.395,-127.441,105.957,110.840
1687767386.299,106.934,0.488,-126.953,93.750,-42.969
1687767386.303,106.445,2.441,-126.953,84.473,-22.461
1687767386.305,100.586,0.977,-125.977,86.914,-22.949
1687767386.309,83.008,-6.348,-128.906,80.566,-131.836
1687767386.313,77.637,-14.648,-131.348,70.312,-142.578
1687767386.317,74.707,-13.672,-127.441,63.477,-139.648
1687767386.321,67.871,-13.184,-128.418,56.641,-133.301
1687767386.325,63.965,-11.719,-129.883,53.223,-90.332
1687767386.329,58.105,-9.766,-123.047,48.828,-51.758
1687767386.332,50.293,-11.719,-127.930,39.062,-8.301
1687767386.336,54.688,-14.648,-127.930,43.945,193.848
1687767386.340,52.246,-19.043,-119.141,39.551,6.348
1687767386.344,44.434,-20.996,-120.605,30.762,-214.355
1687767386.348,40.039,-22.461,-118.652,37.109,-97.656
1687767386.352,51.270,-17.578,-111.816,56.641,52.246
1687767386.356,48.340,-14.648,-114.258,50.293,23.438
1687767386.360,37.109,-19.043,-116.211,35.156,-109.863
1687767386.364,41.992,-19.531,-112.793,34.668,-32.227
1687767386.368,51.270,-17.090,-117.188,34.668,-27.344
1687767386.372,48.828,-19.531,-112.305,35.156,-124.512
1687767386.376,33.203,-28.809,-106.445,32.227,-101.074
1687767386.379,24.414,-32.227,-104.492,27.344,64.453
1687767386.383,10.742,-31.738,-98.145,30.273,68.848
1687767386.387,6.836,-31.250,-94.727,23.438,-163.574
1687767386.391,4.395,-35.156,-91.797,18.555,-166.016
1687767386.395,2.930,-31.738,-86.914,16.602,-91.309
1687767386.399,5.859,-29.785,-87.891,16.113,-170.898
1687767386.403,-6.836,-40.527,-86.426,15.137,-205.078
1687767386.407,-13.184,-41.016,-83.984,9.277,-132.324
1687767386.411,-13.184,-43.457,-86.914,-0.488,-45.410
1687767386.415,-14.160,-48.340,-89.355,-13.672,-95.215
1687767386.419,-10.254,-45.410,-84.961,-12.695,-141.113
1687767386.423,-11.230,-37.598,-82.520,-5.371,23.926
1687767386.426,-8.301,-37.109,-86.426,6.348,248.535
1687767386.430,2.441,-39.062,-84.473,6.348,114.258
1687767386.434,11.719,-38.574,-65.918,10.254,-127.441
1687767386.438,4.395,-42.480,-52.734,9.277,-78.125
1687767386.442,-9.277,-39.551,-54.199,-0.977,-19.531
1687767386.440,-5.859,-39.062,-60.059,5.371,-137.207
1687767386.444,-3.418,-41.504,-64.941,9.277,-160.645
1687767386.448,4.883,-27.344,-61.523,14.160,2.441
1687767386.452,6.348,-31.738,-64.453,8.789,40.527
1687767386.456,-5.859,-45.898,-63.965,-13.672,-28.320
1687767386.460,-15.137,-41.504,-66.895,-27.832,31.250
1687767386.464,-20.020,-38.086,-69.336,-23.438,285.645
1687767386.467,-11.719,-37.598,-66.895,-23.926,277.344
1687767386.471,-9.766,-40.039,-68.848,-24.414,-118.652
1687767386.475,-9.277,-38.574,-68.848,-22.461,-192.383
1687767386.479,-15.137,-36.133,-60.547,-21.973,32.715
1687767386.483,-17.090,-30.273,-54.688,-13.672,7.812
1687767386.485,-21.484,-33.691,-61.035,-9.766,-96.191
1687767386.489,-21.484,-37.109,-61.035,-15.137,-52.246
1687767386.493,-13.184,-32.227,-57.617,-13.672,-54.688
1687767386.497,-22.949,-32.227,-58.594,-18.555,-95.215
1687767386.501,-23.926,-38.086,-59.082,-20.508,-185.059
1687767386.505,-20.996,-40.527,-62.988,-18.555,-100.586
1687767386.509,-16.602,-35.645,-60.059,-21.484,142.578
1687767386.512,-13.184,-33.691,-56.641,-18.555,-26.855
1687767386.516,-20.508,-38.086,-65.918,-25.879,-164.062
1687767386.520,-23.926,-32.227,-66.895,-22.461,-94.238
1687767386.524,-24.902,-23.926,-54.199,-19.043,6.836
1687767386.528,-27.832,-27.344,-55.176,-28.320,-1.465
1687767386.545,-30.273,-33.203,-56.641,-35.156,-89.844
1687767386.549,-30.762,-30.762,-58.594,-46.875,-46.875
1687767386.553,-23.438,-31.738,-63.477,-38.574,-17.090
1687767386.557,-26.855,-31.738,-59.570,-32.715,-110.352
1687767386.561,-27.344,-32.227,-58.594,-39.551,-76.172
1687767386.565,-23.926,-35.156,-58.105,-34.668,81.055
1687767386.569,-26.855,-33.203,-60.547,-27.832,72.754
1687767386.572,-29.785,-33.203,-63.477,-37.598,-133.301
1687767386.576,-24.902,-35.156,-64.941,-39.551,-164.551
1687767386.580,-26.855,-38.574,-66.895,-28.320,93.750
1687767386.584,-26.855,-40.527,-63.965,-30.273,98.633
1687767386.588,-21.973,-37.109,-59.570,-35.645,-149.902
1687767386.590,-28.320,-29.785,-63.477,-33.691,-101.074
1687767386.594,-28.809,-29.785,-66.895,-33.203,57.129
1687767386.598,-23.438,-31.738,-60.547,-41.016,-60.547
1687767386.602,-20.508,-30.762,-63.477,-43.457,-171.875
1687767386.606,-18.066,-34.668,-66.895,-41.992,-83.984
1687767386.610,-27.832,-43.945,-55.664,-51.270,0.488
1687767386.614,-35.156,-50.293,-52.734,-53.223,-9.277
1687767386.617,-30.273,-48.340,-54.688,-49.805,-94.238
1687767386.621,-33.691,-48.340,-58.105,-44.434,-68.359
1687767386.625,-41.016,-48.828,-65.430,-35.645,198.242
1687767386.629,-41.992,-43.945,-61.523,-32.715,88.379
1687767386.633,-41.016,-39.551,-56.152,-39.062,-112.305
1687767386.635,-43.457,-44.434,-57.617,-46.387,35.645
1687767386.639,-44.434,-41.992,-48.828,-48.828,207.520
1687767386.643,-41.992,-41.016,-47.363,-49.316,-62.012
1687767386.647,-55.176,-48.340,-50.293,-51.758,-165.039
1687767386.651,-63.965,-48.340,-48.340,-55.176,-83.496
1687767386.655,-62.988,-49.316,-50.293,-56.641,-43.945
1687767386.659,-69.336,-52.734,-54.199,-64.453,-48.340
1687767386.662,-68.359,-50.781,-52.246,-78.613,-100.586
1687767386.666,-63.965,-45.410,-35.156,-75.684,103.027
1687767386.670,-68.359,-46.387,-28.809,-64.941,158.203
1687767386.674,-67.871,-47.363,-28.809,-65.918,-112.305
1687767386.678,-50.293,-39.551,-42.969,-59.082,-158.691
1687767386.680,-56.152,-48.828,-52.246,-63.965,-47.363
1687767386.684,-68.848,-56.641,-32.227,-70.312,-69.336
1687767386.688,-64.453,-61.523,-31.250,-73.242,-122.559
1687767386.692,-64.941,-59.570,-31.738,-67.871,14.160
1687767386.696,-60.547,-39.551,-28.320,-58.594,58.594
1687767386.700,-51.270,-35.645,-28.320,-51.270,0.488
1687767386.704,-53.223,-58.105,-23.438,-65.918,20.996
1687767386.707,-58.105,-64.941,-15.625,-77.148,-22.949
1687767386.711,-63.965,-52.734,-7.812,-80.566,163.574
1687767386.715,-79.102,-75.195,2.441,-103.516,-6.836
1687767386.719,-88.379,-83.984,23.926,-116.211,-211.914
1687767386.723,-128.906,-84.473,26.855,-156.250,-7.812
1687767386.725,-183.105,-99.121,41.504,-189.941,-5.859
1687767386.729,-221.191,-107.422,74.219,-212.402,-186.035
1687767386.733,-258.301,-113.281,98.633,-251.953,-154.297
1687767386.737,-282.227,-107.422,110.840,-274.902,-48.828
1687767386.741,-306.152,-105.957,114.258,-300.781,-83.496
1687767386.745,-331.543,-108.887,129.395,-328.125,-74.219
1687767386.749,-344.238,-106.934,129.883,-340.332,-20.020
1687767386.752,-345.215,-99.121,122.070,-336.426,208.008
1687767386.756,-351.562,-98.633,124.023,-329.590,211.426
1687767386.760,-347.656,-97.656,125.488,-327.148,-154.785
1687767386.764,-336.914,-93.262,132.324,-315.918,-137.207
1687767386.768,-311.523,-95.215,133.301,-305.176,110.840
1687767386.770,-285.156,-95.215,126.953,-294.922,-10.742
1687767386.774,-265.137,-96.680,118.652,-272.461,-158.203
1687767386.778,-237.305,-95.215,115.234,-239.746,-109.863
1687767386.782,-207.520,-90.820,95.215,-212.402,-86.914
1687767386.786,-180.176,-84.473,89.844,-181.641,-106.934
1687767386.790,-155.762,-84.961,98.633,-155.762,-76.660
1687767386.794,-139.648,-83.496,76.172,-144.043,59.082
1687767386.797,-119.141,-72.754,54.688,-123.535,336.426
1687767386.801,-92.773,-66.406,45.898,-99.609,117.188
1687767386.805,-66.406,-62.988,31.250,-77.637,-156.738
1687767386.809,-45.410,-56.641,21.484,-54.688,6.836
1687767386.813,-33.203,-48.340,8.301,-37.598,132.812
1687767386.815,-22.461,-41.016,-13.184,-25.391,-51.270
1687767386.819,-3.906,-40.527,-21.973,-16.113,-197.266
1687767386.823,20.020,-34.180,-35.645,-4.395,-93.750
1687767386.827,36.133,-26.855,-71.777,13.184,-59.570
1687767386.831,50.781,-25.391,-79.102,23.926,-149.902
1687767386.835,66.406,-21.484,-64.941,21.973,-29.297
1687767386.839,53.711,-20.020,-77.148,24.414,193.848
1687767386.842,54.199,-20.020,-92.773,33.203,132.812
1687767386.846,65.918,-14.648,-93.750,34.668,-181.641
1687767386.850,67.871,-7.812,-99.609,45.410,-165.039
1687767386.854,76.172,-5.371,-107.422,57.617,59.082
1687767386.858,85.938,-4.395,-104.492,65.918,-72.266
1687767386.860,95.215,-4.883,-98.145,71.289,-146.484
1687767386.864,112.305,-3.906,-98.145,76.172,-53.711
1687767386.868,113.281,-2.441,-96.191,78.125,-70.801
1687767386.872,92.285,-8.301,-103.516,80.078,-125.000
1687767386.876,73.730,-9.766,-108.887,83.984,-141.602
1687767386.880,68.848,-7.324,-107.422,83.496,2.441
1687767386.884,71.289,-8.301,-108.398,91.309,150.879
1687767386.887,72.754,-1.953,-112.793,87.402,-32.715
1687767386.891,62.988,-3.418,-117.676,75.195,-91.309
1687767386.895,53.223,-13.672,-117.676,67.871,-36.621
1687767386.899,65.430,-10.254,-117.676,64.941,-43.457
1687767386.903,83.496,-5.859,-122.559,62.012,-44.922
1687767386.925,83.984,-4.395,-114.258,62.012,-135.742
1687767386.929,85.449,0.977,-103.516,60.547,-25.879
1687767386.933,86.914,-0.977,-107.910,60.547,142.090
1687767386.937,84.961,-5.859,-107.910,45.898,-116.699
1687767386.941,84.473,-8.789,-107.910,35.156,-157.715
1687767386.945,79.590,-12.695,-110.352,35.156,120.605
1687767386.949,72.266,-14.648,-109.863,41.504,85.938
1687767386.952,67.383,-20.020,-103.027,43.945,-80.078
1687767386.956,53.223,-23.438,-100.586,28.809,-88.867
1687767386.960,44.922,-22.461,-99.609,27.832,103.516
1687767386.964,36.133,-26.855,-91.797,37.109,57.617
1687767386.968,22.949,-27.832,-90.820,28.320,-111.328
1687767387.007,19.531,-26.367,-93.750,25.391,-92.285
1687767387.011,20.508,-27.344,-89.355,23.926,-70.312
1687767387.015,20.508,-26.855,-77.637,22.461,-23.438
1687767387.019,14.648,-30.273,-67.871,23.438,-63.965
1687767387.023,3.418,-33.203,-68.848,24.414,-63.477
1687767387.027,-4.883,-31.250,-76.660,24.414,162.109
1687767387.031,-17.090,-34.668,-79.102,8.301,46.875
1687767387.034,-26.855,-40.527,-73.242,-2.930,-242.676
1687767387.038,-30.762,-42.480,-72.754,5.371,-157.715
1687767387.042,-30.273,-40.527,-73.242,6.836,205.078
1687767387.046,-22.949,-41.504,-64.453,-1.953,34.180
1687767387.050,-18.555,-35.156,-60.547,0.000,-119.629
1687767387.010,-4.395,-25.879,-56.641,-1.465,-42.969
1687767387.014,11.719,-22.949,-58.594,-3.906,-48.340
1687767387.018,7.812,-23.926,-62.012,-2.930,-116.699
1687767387.022,-0.977,-30.273,-57.129,-6.836,-144.531
1687767387.026,-8.301,-35.156,-60.059,-25.391,6.836
1687767387.030,-9.277,-38.086,-67.871,-27.832,68.848
1687767387.034,-3.418,-33.203,-63.477,-20.508,-15.625
1687767387.037,-12.207,-31.250,-60.547,-22.461,32.715
1687767387.041,-18.555,-31.250,-55.176,-18.066,84.961
1687767387.045,-19.043,-30.273,-58.594,-21.973,-57.129
1687767387.049,-27.344,-34.180,-55.664,-17.578,-159.180
1687767387.053,-27.832,-36.133,-44.434,-17.090,-122.070
1687767387.069,-25.391,-33.691,-41.992,-14.648,137.695
1687767387.073,-34.180,-35.645,-49.316,-18.066,62.012
1687767387.077,-38.086,-38.086,-58.594,-30.273,-209.961
1687767387.081,-34.668,-35.156,-58.594,-37.598,-172.363
1687767387.085,-34.668,-29.297,-53.223,-25.391,181.152
1687767387.089,-37.598,-29.785,-60.547,-23.438,265.137
1687767387.093,-41.504,-33.691,-62.500,-29.785,-26.367
1687767387.096,-40.527,-35.156,-58.594,-20.996,-26.855
1687767387.100,-41.504,-34.180,-55.176,-21.484,261.230
1687767387.104,-45.898,-36.621,-49.805,-21.484,42.969
1687767387.108,-49.805,-43.457,-51.758,-25.879,-194.336
1687767387.112,-51.758,-43.457,-52.734,-37.109,75.195
1687767387.116,-50.293,-44.434,-52.734,-31.738,108.398
1687767387.120,-42.480,-43.457,-51.758,-27.832,-171.387
1687767387.124,-29.297,-35.645,-47.363,-20.996,-194.336
1687767387.128,-33.203,-39.551,-49.316,-24.902,-75.684
1687767387.132,-36.133,-47.363,-52.246,-30.273,-105.469
1687767387.136,-34.180,-44.434,-54.688,-23.438,-127.441
1687767387.140,-27.832,-42.969,-50.293,-29.785,-53.223
1687767387.143,-17.090,-39.062,-50.781,-23.926,168.945
1687767387.147,-5.371,-34.180,-45.898,-3.906,93.750
1687767387.151,0.000,-36.133,-39.062,-9.277,-147.949
1687767387.155,-3.418,-39.062,-42.969,-22.949,-68.359
1687767387.159,-5.859,-42.969,-46.387,-25.879,26.855
1687767387.152,-4.883,-41.992,-44.922,-26.367,-115.234
1687767387.156,-7.812,-40.039,-55.176,-29.297,-177.246
1687767387.160,-13.184,-43.945,-55.176,-35.156,-118.652
1687767387.164,-12.695,-42.969,-41.992,-34.180,-66.406
1687767387.168,-23.926,-41.992,-44.434,-39.551,-75.684
1687767387.172,-29.297,-44.434,-49.805,-37.598,-20.020
1687767387.176,-12.695,-41.504,-47.852,-28.809,17.090
1687767387.179,-8.301,-40.039,-51.758,-27.344,-27.832
1687767387.183,-13.184,-39.551,-54.688,-25.879,-139.648
1687767387.187,-18.555,-37.109,-50.293,-35.645,-183.105
1687767387.191,-23.926,-37.598,-50.781,-33.203,47.852
1687767387.195,-20.508,-36.133,-51.758,-25.391,264.648
1687767387.190,-23.926,-37.109,-53.223,-31.738,35.645
1687767387.194,-25.879,-44.434,-58.105,-31.738,-132.812
1687767387.198,-27.344,-41.992,-52.246,-34.668,-27.832
1687767387.202,-38.086,-40.527,-39.551,-39.551,-13.672
1687767387.206,-30.762,-42.969,-34.180,-37.598,-99.609
1687767387.210,-27.344,-41.016,-38.086,-39.551,-50.781
1687767387.214,-34.180,-46.387,-43.945,-29.785,174.316
1687767387.217,-30.273,-43.457,-45.898,-20.020,419.434
1687767387.221,-26.855,-40.039,-49.316,-15.625,393.066
1687767387.225,-30.762,-43.457,-50.293,-29.297,105.469
1687767387.229,-29.297,-47.852,-43.457,-45.410,-79.102
1687767387.233,-24.902,-46.875,-38.086,-40.527,-84.473
1687767387.236,-24.902,-47.363,-47.363,-40.039,-171.387
1687767387.240,-21.484,-46.387,-44.434,-35.645,-159.180
1687767387.244,-27.832,-46.387,-40.527,-38.574,-2.441
1687767387.248,-36.621,-50.293,-51.270,-47.852,-86.914
1687767387.252,-39.551,-52.246,-46.387,-44.434,-244.629
1687767387.256,-36.621,-52.734,-41.992,-39.551,-126.465
1687767387.260,-39.062,-53.223,-47.363,-32.715,192.383
1687767387.263,-41.504,-54.688,-49.805,-44.922,11.719
1687767387.267,-36.621,-54.688,-55.176,-56.152,-255.859
1687767387.271,-36.133,-50.293,-56.152,-49.805,-184.082
1687767387.275,-31.738,-48.340,-53.223,-50.293,-95.703
1687767387.279,-30.762,-48.340,-46.387,-48.828,-54.688
1687767387.311,-18.555,-42.969,-43.457,-49.805,-58.105
1687767387.315,-2.441,-41.504,-43.457,-50.293,-13.672
1687767387.319,-0.977,-51.270,-47.363,-52.246,41.504
1687767387.323,2.930,-45.410,-37.109,-52.246,-79.102
1687767387.327,-8.789,-42.969,-37.109,-53.223,-110.352
1687767387.331,-32.227,-54.688,-52.734,-38.574,114.258
1687767387.335,-43.945,-65.918,-44.922,-28.809,185.059
1687767387.338,-41.504,-65.918,-33.691,-34.668,-62.988
1687767387.342,-31.250,-56.152,-37.598,-31.250,-179.688
1687767387.346,-36.621,-50.293,-33.691,-19.043,47.363
1687767387.350,-42.480,-50.293,-35.156,-18.555,22.461
1687767387.354,-25.879,-53.711,-44.922,-14.160,-159.668
1687767387.349,-20.508,-53.711,-39.062,-11.719,-68.848
1687767387.353,-49.805,-50.781,-27.832,-45.410,-87.402
1687767387.357,-65.918,-56.641,-21.484,-62.012,-138.184
1687767387.361,-64.453,-65.430,-20.508,-64.453,-127.441
1687767387.365,-58.105,-61.035,-22.461,-64.453,-112.305
1687767387.369,-62.988,-55.664,-25.391,-65.918,15.137
1687767387.373,-72.754,-53.711,-16.602,-68.848,-1.953
1687767387.376,-61.523,-54.199,-14.160,-64.941,-54.199
1687767387.380,-58.105,-60.547,-22.949,-66.406,-25.879
1687767387.384,-66.406,-58.594,-24.414,-59.082,170.898
1687767387.388,-64.941,-52.246,-28.809,-56.152,67.383
1687767387.392,-63.477,-48.828,-29.785,-53.711,-64.453
1687767387.399,-71.777,-55.664,-33.691,-55.176,-9.277
1687767387.403,-69.336,-55.664,-36.621,-52.246,5.371
1687767387.407,-66.406,-54.199,-34.668,-56.152,-103.027
1687767387.411,-55.176,-50.293,-28.809,-51.270,-176.270
1687767387.415,-50.293,-48.340,-22.461,-53.223,-104.492
1687767387.419,-55.664,-48.828,-24.902,-56.641,-14.648
1687767387.423,-54.199,-46.875,-24.902,-50.293,-50.781
1687767387.426,-59.570,-48.828,-27.832,-54.199,-195.312
1687767387.430,-66.406,-53.711,-35.645,-46.387,38.086
1687767387.434,-69.824,-60.547,-27.344,-48.828,187.012
1687767387.438,-71.777,-57.617,-13.184,-65.430,-167.969
1687767387.442,-60.059,-43.457,-6.348,-62.500,-182.129
1687767387.430,-69.824,-61.523,-16.113,-73.730,31.250
1687767387.434,-85.449,-81.055,-11.230,-85.938,-81.543
1687767387.438,-59.570,-67.383,18.066,-71.289,-216.797
1687767387.442,-72.754,-71.289,23.438,-77.637,-192.383
1687767387.446,-121.094,-90.820,26.367,-99.121,-107.422
1687767387.450,-140.137,-88.867,56.152,-117.676,-31.738
1687767387.454,-158.203,-89.844,75.684,-147.949,-28.320
1687767387.457,-201.660,-104.980,82.520,-193.359,24.902
1687767387.461,-245.605,-122.070,109.375,-225.098,222.168
1687767387.465,-278.809,-124.512,132.812,-252.930,-2.441
1687767387.469,-303.711,-117.188,148.438,-290.039,-196.289
1687767387.473,-318.848,-115.234,153.320,-309.570,-32.227
1687767387.475,-325.195,-113.770,144.531,-311.523,49.805
1687767387.479,-318.359,-102.539,141.602,-312.988,-98.633
1687767387.483,-323.242,-89.355,146.484,-316.895,-217.773
1687767387.487,-325.684,-90.332,131.836,-314.453,22.949
1687767387.491,-299.316,-94.727,122.559,-288.086,196.777
1687767387.495,-271.973,-99.121,135.742,-264.648,5.859
1687767387.499,-250.000,-94.238,140.625,-236.328,-53.711
1687767387.502,-237.305,-87.402,140.137,-205.566,161.133
1687767387.506,-225.586,-87.402,128.418,-187.500,186.523
1687767387.510,-180.664,-70.801,116.211,-163.574,-108.887
1687767387.514,-144.531,-65.430,97.656,-140.137,-156.250
1687767387.518,-133.789,-69.824,74.707,-130.859,-111.328
1687767387.521,-112.305,-69.336,55.176,-114.258,-129.883
1687767387.525,-98.633,-68.359,33.203,-97.168,-154.297
1687767387.529,-78.613,-63.477,10.254,-78.613,-113.770
1687767387.533,-53.223,-50.293,7.324,-55.176,7.324
1687767387.537,-41.992,-42.969,5.859,-41.504,-20.508
1687767387.541,-29.785,-46.387,-12.695,-21.484,-27.344
1687767387.545,-13.672,-39.062,-33.203,-13.672,42.969
1687767387.548,-0.977,-30.762,-44.922,0.000,260.254
1687767387.552,11.719,-25.879,-39.062,16.602,92.773
1687767387.556,22.461,-20.996,-53.711,20.508,-179.199
1687767387.560,35.645,-11.719,-67.871,28.809,-98.633
1687767387.564,50.293,-7.324,-65.918,38.574,5.371
1687767387.565,42.969,-16.602,-76.660,32.227,-84.473
1687767387.569,35.156,-17.578,-84.961,27.832,-176.758
1687767387.573,47.852,-8.301,-83.496,41.992,-59.570
1687767387.577,64.453,-2.930,-80.078,62.012,-2.441
1687767387.581,67.383,-4.395,-85.938,59.570,-32.715
1687767387.585,60.547,-7.812,-94.238,47.852,17.578
1687767387.589,61.035,-13.184,-98.145,44.434,172.363
1687767387.592,65.918,-6.836,-98.145,59.570,255.859
1687767387.596,60.059,-4.883,-100.098,61.523,-88.867
1687767387.600,54.688,-8.301,-104.492,61.035,-223.145
1687767387.604,58.594,-9.766,-97.656,65.430,-102.539
1687767387.608,63.477,-10.742,-95.703,69.336,-102.539
1687767387.610,69.824,-7.324,-101.562,70.801,-181.152
1687767387.614,71.777,-10.254,-97.168,68.359,-176.270
1687767387.618,62.988,-12.695,-97.168,54.688,-90.332
1687767387.622,51.270,-13.184,-106.445,41.016,-51.270
1687767387.626,48.828,-17.090,-107.910,40.039,-118.164
1687767387.630,43.945,-15.137,-104.980,41.992,-41.992
1687767387.634,41.992,-12.207,-108.398,46.387,193.359
1687767387.637,43.945,-12.695,-107.910,36.133,69.824
1687767387.641,44.434,-18.066,-95.215,28.320,-126.465
1687767387.645,57.129,-16.602,-89.844,41.016,-67.871
1687767387.649,54.199,-10.742,-99.609,45.410,142.578
1687767387.653,38.574,-17.578,-105.469,33.203,33.203
1687767387.670,32.227,-22.461,-100.098,29.785,-91.309
1687767387.674,29.785,-18.555,-92.773,31.250,13.184
1687767387.678,31.250,-18.555,-91.309,27.832,31.250
1687767387.682,32.227,-19.043,-91.797,26.855,-76.660
1687767387.686,30.762,-12.207,-83.984,30.273,-91.797
1687767387.690,21.973,-13.184,-81.055,30.762,49.316
1687767387.694,14.648,-20.508,-84.473,20.508,39.062
1687767387.697,14.648,-26.855,-76.660,15.625,-93.750
1687767387.701,18.066,-29.297,-71.777,15.625,-70.801
1687767387.705,23.926,-29.297,-76.660,25.391,188.965
1687767387.709,16.602,-32.715,-72.266,28.809,229.492
1687767387.713,8.789,-33.203,-66.406,5.859,-91.797
1687767387.715,10.254,-32.715,-66.895,4.883,-118.652
1687767387.719,8.301,-34.180,-67.383,14.160,-40.039
1687767387.723,12.695,-32.227,-60.547,2.930,-103.516
1687767387.727,19.531,-30.273,-56.152,2.441,-86.426
1687767387.731,16.113,-31.250,-56.152,0.977,-16.602
1687767387.735,16.113,-39.551,-58.594,-8.789,-4.883
1687767387.739,12.207,-45.898,-55.176,-10.742,-22.949
1687767387.742,9.766,-43.457,-50.781,-7.812,-117.188
1687767387.746,8.301,-44.922,-47.363,-5.371,-48.828
1687767387.750,-6.348,-48.340,-48.828,8.301,171.387
1687767387.754,-13.672,-49.316,-49.805,9.766,-26.855
1687767387.758,-19.043,-54.199,-48.828,-6.836,-96.191
1687767387.760,-19.043,-59.570,-41.992,-3.418,124.512
1687767387.764,-17.578,-59.570,-31.250,7.812,195.312
1687767387.768,-22.949,-52.734,-31.738,-7.812,-98.145
1687767387.772,-19.531,-57.129,-34.668,-20.996,-121.582
1687767387.776,-13.672,-59.082,-36.621,-25.879,-27.832
1687767387.780,-20.020,-54.688,-44.922,-26.855,-67.383
1687767387.784,-18.066,-53.223,-40.039,-30.762,-13.184
1687767387.787,-14.648,-54.688,-32.227,-30.273,-81.055
1687767387.791,-24.902,-57.129,-26.855,-23.438,99.121
1687767387.795,-34.180,-56.641,-26.855,-21.973,189.453
1687767387.799,-34.180,-58.105,-20.996,-20.020,-101.562
1687767387.803,-35.156,-52.734,-22.461,-24.902,-114.746
1687767387.806,-31.738,-42.969,-28.809,-32.715,-62.988
1687767387.810,-30.273,-51.758,-33.691,-34.668,-77.637
1687767387.814,-31.738,-55.664,-39.551,-43.457,-152.344
1687767387.818,-34.180,-49.805,-36.621,-48.340,-150.879
1687767387.822,-28.809,-49.805,-32.715,-49.805,15.137
1687767387.826,-19.043,-45.410,-26.855,-55.664,20.996
1687767387.830,-23.926,-41.016,-27.344,-56.152,-99.121
1687767387.833,-20.996,-41.016,-28.809,-48.340,-42.480
1687767387.837,-4.883,-40.527,-34.668,-36.133,198.730
1687767387.841,0.000,-40.039,-46.875,-38.086,9.277
1687767387.845,-9.277,-47.363,-45.898,-55.176,-222.656
1687767387.849,-15.625,-49.316,-42.480,-62.500,-3.906
1687767387.850,-33.203,-50.293,-41.016,-52.734,60.059
1687767387.854,-47.363,-52.246,-29.297,-48.828,-102.539
1687767387.858,-35.156,-45.410,-24.414,-46.387,-139.160
1687767387.862,-36.133,-43.945,-36.133,-42.969,-48.340
1687767387.866,-43.945,-46.875,-40.527,-42.969,-125.000
1687767387.870,-49.805,-47.363,-32.227,-49.316,-185.059
1687767387.874,-47.363,-42.969,-26.367,-51.758,-137.695
1687767387.877,-52.734,-39.551,-33.691,-45.410,65.430
1687767387.881,-61.523,-42.969,-36.621,-44.922,251.465
1687767387.885,-55.664,-47.363,-31.250,-53.223,-83.496
1687767387.889,-50.781,-55.664,-31.250,-54.688,-165.039
1687767387.893,-54.199,-57.617,-32.715,-47.852,-74.707
1687767387.895,-50.781,-50.781,-35.156,-39.551,-145.020
1687767387.899,-39.062,-44.922,-32.715,-36.621,-186.035
1687767387.903,-41.992,-43.457,-28.809,-39.551,-187.988
1687767387.907,-48.340,-47.852,-31.250,-41.504,-163.086
1687767387.911,-44.922,-49.316,-35.156,-44.922,-164.551
1687767387.915,-45.410,-48.340,-35.645,-43.457,-83.984
1687767387.919,-41.992,-49.805,-36.133,-45.898,18.066
1687767387.922,-41.504,-48.340,-30.762,-44.434,354.004
1687767387.926,-48.340,-43.945,-23.926,-31.738,218.262
1687767387.930,-45.898,-41.016,-30.273,-41.504,-108.398
1687767387.934,-46.387,-40.527,-28.320,-52.246,-59.082
1687767387.938,-42.480,-41.992,-20.508,-45.898,12.695
1687767387.955,-45.410,-42.969,-25.391,-41.016,-62.012
1687767387.959,-52.734,-41.016,-26.855,-44.434,-114.258
1687767387.963,-58.105,-46.875,-15.625,-48.828,-45.410
1687767387.967,-50.293,-49.805,-2.441,-46.875,11.719
1687767387.971,-56.152,-53.223,0.488,-52.734,-73.242
1687767387.975,-82.031,-68.359,11.230,-70.801,-139.648
1687767387.979,-95.703,-79.102,25.879,-90.332,44.922
1687767387.982,-117.188,-83.496,35.645,-106.934,60.059
1687767387.986,-147.461,-87.402,49.805,-130.371,-166.016
1687767387.990,-168.945,-89.355,67.383,-152.344,-221.680
1687767387.994,-202.637,-103.516,90.332,-177.734,47.852
1687767387.998,-243.164,-118.164,105.469,-218.262,27.344
1687767387.985,-264.648,-113.770,123.535,-241.211,-251.953
1687767387.989,-290.039,-123.535,129.883,-277.344,-178.711
1687767387.993,-311.035,-121.094,127.930,-318.359,-101.074
1687767387.997,-349.121,-106.445,136.230,-346.191,-130.371
1687767388.001,-376.953,-108.398,136.719,-366.699,-121.094
1687767388.005,-372.070,-105.469,141.113,-365.234,-70.312
1687767388.009,-369.629,-96.680,145.508,-364.258,-71.289
1687767388.012,-371.094,-97.168,134.766,-364.258,-117.676
1687767388.016,-366.699,-104.004,121.582,-359.375,-163.086
1687767388.020,-353.027,-106.445,120.605,-351.074,-73.242
1687767388.024,-337.891,-99.121,123.047,-342.773,182.129
1687767388.028,-332.520,-100.098,128.418,-341.797,110.840
1687767388.050,-327.148,-102.539,127.441,-335.449,-98.633
1687767388.054,-318.848,-97.656,121.094,-324.219,-20.508
1687767388.058,-307.617,-95.215,109.375,-299.805,306.152
1687767388.062,-292.480,-96.680,103.027,-287.109,106.445
1687767388.066,-273.926,-96.680,92.285,-278.320,-141.113
1687767388.070,-248.047,-96.191,86.426,-243.652,98.145
1687767388.074,-233.887,-94.238,93.750,-222.168,170.898
1687767388.077,-213.379,-89.355,82.520,-201.660,-48.340
1687767388.081,-171.387,-97.656,78.613,-166.504,-104.004
1687767388.085,-145.996,-100.098,80.078,-153.809,99.609
1687767388.089,-136.719,-100.098,69.824,-130.371,80.566
1687767388.093,-105.957,-99.121,62.012,-96.680,-99.121
1687767388.090,-73.242,-92.773,52.246,-73.730,-69.336
1687767388.094,-62.500,-84.961,46.387,-59.082,7.812
1687767388.098,-38.574,-82.031,40.527,-36.133,-96.680
1687767388.102,-10.742,-81.055,19.043,-4.883,-124.512
1687767388.106,-4.883,-80.566,-5.859,3.906,-51.270
1687767388.110,3.418,-81.543,-10.254,13.184,16.113
1687767388.114,27.344,-75.684,-14.160,26.855,70.312
1687767388.117,45.898,-63.477,-27.832,29.297,-84.961
1687767388.121,60.547,-59.082,-42.969,48.828,-60.059
1687767388.125,67.383,-65.918,-56.641,71.777,218.262
1687767388.129,67.383,-59.570,-73.242,68.359,9.766
1687767388.133,94.727,-40.527,-82.520,84.473,-144.043
1687767388.136,117.676,-44.922,-84.961,104.004,16.113
1687767388.140,109.863,-48.340,-97.168,98.145,64.941
1687767388.144,102.051,-34.180,-93.750,92.285,-96.191
1687767388.148,115.234,-24.902,-95.215,103.027,-102.051
1687767388.152,125.977,-23.926,-110.352,108.398,59.082
1687767388.156,115.723,-24.414,-117.676,100.586,74.707
1687767388.160,120.605,-20.508,-122.070,104.004,6.348
1687767388.163,133.301,-15.625,-124.023,112.793,-82.520
1687767388.167,133.301,-15.625,-126.953,113.770,74.707
1687767388.171,131.348,-8.301,-121.582,120.117,80.566
1687767388.175,118.164,-12.695,-123.047,114.258,-170.898
1687767388.179,104.004,-18.066,-128.906,102.539,-110.840
1687767388.180,101.074,-13.184,-125.000,104.492,-58.105
1687767388.184,106.934,-15.625,-118.652,103.516,-143.555
1687767388.188,100.098,-21.484,-121.094,90.820,-165.039
1687767388.192,95.215,-23.438,-121.094,92.285,-104.004
1687767388.196,101.562,-21.973,-117.188,97.168,-67.383
1687767388.200,104.492,-17.578,-121.094,105.469,-96.191
1687767388.204,101.074,-17.090,-123.047,114.258,-50.293
1687767388.207,100.586,-19.531,-121.094,102.051,41.992
1687767388.211,104.492,-14.648,-123.535,94.238,243.652
1687767388.215,103.516,-12.695,-125.000,93.750,106.445
1687767388.219,97.168,-18.066,-120.605,73.242,-62.012
1687767388.223,86.914,-25.879,-122.559,62.012,105.957
1687767388.225,73.730,-25.879,-124.023,54.688,76.660
1687767388.229,61.523,-24.902,-121.094,44.434,-125.000
1687767388.233,63.965,-31.250,-120.117,55.176,-96.680
1687767388.237,57.129,-33.203,-112.793,52.734,-13.672
1687767388.241,46.875,-33.203,-112.793,36.133,-127.441
1687767388.245,44.922,-36.133,-113.281,36.621,-67.383
1687767388.249,42.969,-35.156,-103.027,38.574,-35.645
1687767388.252,38.086,-31.738,-99.609,43.945,141.113
1687767388.256,33.203,-37.109,-107.422,47.363,324.219
1687767388.260,29.297,-40.527,-97.168,45.898,-43.945
1687767388.264,24.902,-32.715,-90.332,45.898,-147.461
1687767388.268,35.645,-27.832,-101.074,43.457,-17.578
1687767388.270,40.039,-30.762,-101.562,41.016,-102.051
1687767388.274,35.645,-36.621,-103.027,28.809,-174.805
1687767388.278,41.504,-38.086,-109.863,25.879,-140.137
1687767388.282,42.480,-36.621,-97.168,21.973,-125.977
1687767388.286,34.668,-40.039,-93.262,12.207,-168.457
1687767388.290,28.809,-38.086,-86.914,17.578,-71.289
1687767388.294,37.598,-35.156,-82.031,21.484,75.684
1687767388.297,39.062,-33.203,-79.102,25.879,181.641
1687767388.301,23.438,-32.715,-79.102,15.625,-61.523
1687767388.305,19.531,-31.738,-78.125,10.742,-226.074
1687767388.309,21.484,-34.668,-80.078,18.555,57.129
1687767388.313,12.207,-38.086,-83.984,19.531,153.809
1687767388.316,3.906,-38.086,-81.543,14.160,-83.008
1687767388.320,0.000,-41.016,-85.449,8.789,-129.395
1687767388.324,-1.465,-41.504,-90.332,6.836,-64.453
1687767388.328,-7.324,-31.738,-84.961,5.859,-49.316
1687767388.332,-14.160,-33.691,-77.148,-2.930,-100.586
1687767388.336,-16.113,-39.551,-79.102,-8.301,-84.473
1687767388.340,-24.902,-47.852,-80.078,3.906,170.898
1687767388.343,-40.039,-50.781,-66.406,4.883,153.809
1687767388.347,-31.250,-44.922,-57.129,-8.301,-167.480
1687767388.351,-22.949,-46.875,-57.129,-18.555,-174.316
1687767388.355,-20.020,-44.922,-58.594,-25.391,-85.938
1687767388.359,-4.883,-39.551,-62.988,-29.785,-104.492
1687767388.376,3.418,-41.504,-67.871,-34.180,-45.898
1687767388.380,10.254,-43.945,-74.219,-32.715,-30.273
1687767388.384,21.973,-43.945,-76.660,-29.785,-43.457
1687767388.388,19.531,-44.922,-78.125,-37.109,-142.090
1687767388.392,1.465,-41.992,-71.777,-34.668,-263.184
1687767388.396,-19.043,-43.457,-64.941,-29.297,-96.680
1687767388.400,-29.785,-46.387,-56.641,-24.414,321.289
1687767388.403,-36.133,-44.922,-54.199,-22.461,206.055
1687767388.407,-33.203,-42.480,-62.012,-31.250,-105.469
1687767388.411,-31.738,-37.598,-55.664,-31.738,-144.043
1687767388.415,-30.273,-34.180,-51.758,-25.391,-127.441
1687767388.419,-27.832,-38.086,-60.547,-20.996,-6.348
1687767388.422,-30.273,-41.016,-60.547,-32.715,-87.891
1687767388.426,-35.156,-40.039,-48.340,-32.715,-99.609
1687767388.430,-36.621,-39.551,-41.016,-22.949,80.078
1687767388.434,-33.691,-35.645,-42.969,-20.508,-46.387
1687767388.438,-25.879,-36.133,-34.668,-4.883,-125.000
1687767388.442,-23.438,-34.180,-33.691,-4.883,146.484
1687767388.446,-18.066,-28.320,-40.527,-20.508,187.988
1687767388.449,-27.344,-27.832,-44.922,-31.250,-43.457
1687767388.453,-42.480,-27.832,-41.504,-26.367,-140.137
1687767388.457,-42.969,-35.156,-37.598,-21.973,73.242
1687767388.461,-44.922,-40.527,-38.574,-26.367,116.699
1687767388.465,-45.410,-40.039,-40.527,-31.250,-82.520
1687767388.466,-42.480,-36.133,-46.387,-26.855,-82.031
1687767388.470,-46.387,-41.016,-49.316,-29.785,-54.688
1687767388.474,-47.363,-45.410,-47.852,-39.551,-114.258
1687767388.478,-36.133,-41.504,-52.246,-36.621,-125.977
1687767388.482,-27.344,-38.086,-54.688,-41.504,-59.082
1687767388.486,-23.926,-38.086,-54.199,-48.828,113.770
1687767388.490,-41.504,-46.387,-58.105,-42.480,95.215
1687767388.493,-41.016,-43.945,-55.664,-34.668,-52.246
1687767388.497,-21.484,-33.203,-48.340,-26.367,-51.270
1687767388.501,-19.043,-27.344,-46.387,-19.043,226.562
1687767388.505,-28.320,-31.738,-56.641,-27.832,94.238
1687767388.509,-30.762,-31.738,-56.641,-34.668,-173.828
1687767388.511,-34.668,-32.227,-52.246,-31.250,-76.660
1687767388.515,-41.016,-33.691,-53.711,-43.945,26.855
1687767388.519,-32.715,-29.785,-57.129,-45.898,-90.332
1687767388.523,-33.691,-36.621,-59.570,-41.016,-147.949
1687767388.527,-34.668,-38.086,-52.734,-51.758,-46.387
1687767388.531,-23.438,-33.203,-50.781,-54.199,39.062
1687767388.535,-30.762,-31.738,-56.152,-49.316,23.926
1687767388.538,-40.039,-30.273,-56.152,-45.898,-70.801
1687767388.542,-42.969,-32.715,-55.176,-38.574,133.789
1687767388.546,-45.898,-31.738,-56.152,-23.926,324.219
1687767388.550,-33.691,-27.344,-57.129,-31.250,-35.156
1687767388.554,-25.391,-26.855,-55.664,-40.039,-137.695
1687767388.570,-24.414,-25.391,-51.758,-31.250,-19.531
1687767388.574,-14.160,-24.902,-55.176,-35.645,-125.000
1687767388.578,-18.066,-29.297,-61.035,-35.156,-186.523
1687767388.582,-28.809,-36.621,-62.988,-31.738,-150.879
1687767388.586,-26.855,-39.551,-56.152,-34.668,-104.980
1687767388.590,-17.578,-37.109,-42.969,-28.320,-75.684
1687767388.594,-10.742,-32.715,-39.551,-15.625,-62.012
1687767388.597,-18.555,-33.203,-45.410,-12.695,-9.766
1687767388.601,-24.902,-36.133,-51.758,-20.508,172.852
1687767388.605,-13.184,-33.203,-54.199,-38.086,66.406
1687767388.609,-0.977,-29.785,-56.152,-39.551,-112.305
1687767388.613,-1.953,-27.344,-52.734,-27.344,-27.832
1687767388.601,-0.488,-23.926,-50.781,-17.578,177.734
1687767388.605,-13.672,-27.344,-54.199,-26.855,-57.129
1687767388.609,-31.250,-31.250,-51.758,-41.504,-156.738
1687767388.613,-36.133,-31.738,-50.293,-39.062,-51.270
1687767388.617,-39.551,-38.086,-52.734,-40.527,-107.422
1687767388.621,-35.645,-36.133,-52.734,-39.551,-143.066
1687767388.625,-40.039,-34.668,-46.387,-36.133,-70.312
1687767388.628,-46.875,-42.480,-41.016,-41.016,43.457
1687767388.632,-37.598,-42.969,-34.180,-42.480,-11.719
1687767388.636,-23.926,-32.227,-32.227,-43.457,-121.582
1687767388.640,-23.438,-26.855,-36.621,-47.852,-178.223
1687767388.644,-28.320,-31.738,-46.875,-39.062,121.094
1687767388.646,-28.320,-30.273,-46.875,-31.738,274.902
1687767388.650,-24.414,-28.320,-43.457,-27.344,-41.016
1687767388.654,-18.066,-31.250,-44.922,-24.414,-92.773
1687767388.658,-18.555,-32.715,-51.270,-37.598,-53.223
1687767388.662,-27.344,-35.156,-48.340,-44.922,-104.004
1687767388.666,-41.992,-40.527,-44.434,-44.922,-92.285
1687767388.670,-38.574,-38.086,-48.828,-49.316,-27.344
1687767388.673,-25.391,-35.645,-53.711,-41.504,213.867
1687767388.677,-25.879,-34.180,-61.523,-39.551,103.027
1687767388.681,-31.250,-34.180,-51.758,-45.410,-142.578
1687767388.685,-34.668,-31.250,-38.574,-48.340,-21.973
1687767388.689,-38.574,-31.738,-42.969,-56.641,120.605
1687767388.691,-33.203,-39.551,-43.945,-54.688,-58.105
1687767388.695,-43.457,-44.434,-46.387,-51.758,-195.801
1687767388.699,-49.316,-46.875,-58.105,-44.434,31.250
1687767388.703,-40.527,-40.039,-62.500,-38.086,229.004
1687767388.707,-44.434,-33.691,-58.594,-49.316,-41.504
1687767388.711,-40.039,-35.645,-55.176,-51.758,-130.371
1687767388.715,-29.785,-34.668,-57.617,-41.992,194.824
1687767388.718,-38.574,-31.250,-57.617,-40.039,209.473
1687767388.722,-48.340,-37.109,-58.105,-45.410,-117.676
1687767388.726,-42.969,-38.574,-57.617,-44.434,-198.242
1687767388.730,-39.551,-41.504,-55.176,-40.039,-105.957
1687767388.734,-38.086,-44.922,-61.523,-37.598,-81.543
1687767388.735,-33.203,-36.133,-67.383,-40.527,-158.203
1687767388.739,-33.691,-29.297,-70.312,-40.527,-138.672
1687767388.743,-33.203,-32.227,-70.801,-31.250,-76.660
1687767388.747,-29.297,-29.785,-68.848,-30.273,-120.605
1687767388.751,-29.297,-24.414,-72.754,-41.504,-128.906
1687767388.755,-25.391,-22.461,-67.871,-39.062,-34.180
1687767388.759,-26.367,-22.461,-59.082,-32.715,228.516
1687767388.762,-32.715,-28.320,-66.895,-29.297,102.539
1687767388.766,-32.227,-31.250,-75.684,-38.574,-177.246
1687767388.770,-36.621,-37.109,-77.148,-52.246,-82.520
1687767388.774,-42.480,-42.480,-83.496,-49.316,79.102
1687767388.778,-41.016,-41.504,-80.566,-53.711,47.852
1687767388.795,-38.574,-38.086,-68.359,-61.523,-155.273
1687767388.799,-22.461,-32.227,-66.895,-54.199,-104.004
1687767388.803,-11.230,-23.926,-68.848,-41.016,100.586
1687767388.807,-19.531,-22.949,-71.289,-45.410,-86.914
1687767388.811,-23.438,-23.438,-75.684,-41.504,-141.113
1687767388.815,-22.949,-20.996,-79.102,-33.691,84.961
1687767388.819,-30.273,-19.531,-69.824,-39.062,96.680
1687767388.822,-47.852,-31.738,-60.059,-44.434,-73.730
1687767388.826,-47.852,-35.645,-61.035,-38.086,-142.578
1687767388.830,-40.527,-32.227,-67.871,-24.902,103.027
1687767388.834,-29.785,-22.949,-67.383,-20.508,144.531
1687767388.838,-40.527,-23.438,-66.895,-37.598,-159.668
1687767388.840,-50.293,-34.180,-80.078,-37.598,-122.070
1687767388.844,-46.875,-35.156,-85.449,-31.250,-46.875
1687767388.848,-49.316,-37.109,-81.055,-55.176,-137.207
1687767388.852,-51.758,-39.062,-83.496,-54.688,-162.109
1687767388.856,-37.598,-30.762,-82.520,-31.250,-148.926
1687767388.860,-24.902,-19.043,-80.078,-31.738,2.441
1687767388.864,-39.062,-27.344,-79.102,-42.480,43.457
1687767388.867,-37.598,-38.086,-77.148,-35.156,-114.746
1687767388.871,-33.691,-31.250,-72.266,-28.809,-96.191
1687767388.875,-28.809,-22.461,-72.266,-17.578,231.445
1687767388.879,-23.926,-27.832,-75.195,-25.879,81.543
1687767388.883,-27.344,-26.367,-77.637,-39.062,-78.125
1687767388.885,-34.668,-32.715,-88.867,-42.480,16.602
1687767388.889,-28.809,-37.598,-97.656,-48.828,144.043
1687767388.893,-25.879,-32.715,-98.633,-57.617,-32.715
1687767388.897,-15.137,-27.344,-92.773,-58.594,-153.809
1687767388.901,-16.602,-20.996,-90.820,-56.152,-99.121
1687767388.905,-33.203,-24.414,-95.703,-50.781,-51.758
1687767388.909,-43.457,-35.156,-98.145,-49.805,-161.621
1687767388.912,-52.734,-38.086,-97.656,-54.199,-278.809
1687767388.916,-45.410,-36.621,-107.422,-47.852,49.805
1687767388.920,-44.922,-34.668,-111.816,-41.992,131.348
1687767388.924,-40.527,-31.738,-103.027,-49.316,-166.016
1687767388.928,-32.227,-30.762,-105.469,-48.340,-114.746
1687767388.930,-38.086,-32.227,-119.141,-45.898,89.355
1687767388.934,-37.598,-38.574,-114.746,-45.410,-26.855
1687767388.938,-35.645,-32.715,-102.539,-44.434,-170.410
1687767388.942,-47.363,-26.855,-105.469,-37.598,-180.176
1687767388.946,-46.875,-23.926,-108.887,-36.133,-146.973
1687767388.950,-44.922,-27.344,-112.305,-48.340,-12.207
1687767388.954,-45.898,-35.156,-110.840,-48.828,23.438
1687767388.957,-31.250,-30.762,-120.605,-35.156,52.734
