timestamps,TP9,AF7,AF8,TP10,Right AUX
1687768889.204,-48.828,-61.035,-21.484,-54.688,-76.660
1687768889.208,-36.621,-49.316,-21.484,-59.082,-95.215
1687768889.212,-53.711,-49.805,-22.461,-53.711,-94.238
1687768889.216,-69.824,-49.316,-24.902,-56.641,-133.301
1687768889.220,-61.035,-47.852,-22.461,-66.895,-109.863
1687768889.224,-56.152,-48.828,-19.043,-64.453,-41.504
1687768889.228,-49.805,-49.805,-22.949,-64.453,107.422
1687768889.231,-66.895,-52.734,-23.438,-71.289,386.230
1687768889.235,-78.613,-53.711,-20.508,-67.871,80.566
1687768889.239,-60.059,-52.246,-19.043,-64.453,-138.184
1687768889.243,-43.945,-49.805,-19.043,-67.383,70.312
1687768889.247,-50.293,-46.387,-20.508,-70.312,15.625
1687768889.248,-52.246,-45.898,-21.973,-65.918,-195.801
1687768889.252,-54.199,-48.340,-19.043,-64.453,-91.309
1687768889.256,-50.781,-48.828,-16.113,-57.617,104.492
1687768889.260,-39.062,-50.781,-22.461,-44.434,-12.695
1687768889.264,-32.227,-47.363,-24.414,-40.527,-169.922
1687768889.268,-31.250,-41.992,-21.973,-51.270,-157.715
1687768889.272,-32.715,-40.527,-19.043,-52.734,229.492
1687768889.275,-22.949,-42.969,-13.672,-40.039,248.047
1687768889.279,-27.832,-41.992,-12.207,-35.156,-89.844
1687768889.283,-35.645,-38.086,-15.625,-31.738,-51.270
1687768889.287,-31.250,-41.992,-17.578,-25.879,97.168
1687768889.291,-33.203,-42.480,-15.625,-21.973,-87.891
1687768889.293,-35.645,-41.992,-13.672,-20.996,-190.430
1687768889.297,-22.461,-42.969,-12.695,-21.973,-115.723
1687768889.301,-19.043,-44.434,-11.230,-26.855,-78.125
1687768889.305,-36.621,-47.363,-19.043,-40.527,-127.930
1687768889.309,-39.062,-43.457,-22.949,-42.969,-136.719
1687768889.313,-37.109,-41.504,-20.996,-37.109,14.160
1687768889.317,-38.574,-38.574,-21.484,-38.086,71.777
1687768889.320,-41.504,-39.551,-22.461,-46.387,-96.191
1687768889.324,-53.223,-44.922,-26.367,-43.457,-154.785
1687768889.328,-51.270,-45.410,-23.438,-41.504,-26.855
1687768889.332,-43.945,-41.992,-22.461,-41.504,9.277
1687768889.336,-42.969,-41.016,-25.391,-38.086,-74.707
1687768889.353,-48.828,-49.316,-30.762,-39.551,-21.484
1687768889.357,-58.594,-53.711,-34.180,-41.504,175.781
1687768889.361,-43.945,-41.016,-23.926,-44.922,155.273
1687768889.365,-34.180,-37.598,-21.973,-46.387,-23.438
1687768889.369,-53.223,-41.504,-24.902,-51.270,-47.363
1687768889.373,-50.781,-40.527,-24.414,-46.387,-12.207
1687768889.377,-57.129,-37.598,-25.391,-41.992,4.883
1687768889.380,-63.477,-37.109,-25.391,-50.781,-111.328
1687768889.384,-55.664,-41.504,-25.879,-49.805,-126.465
1687768889.388,-48.828,-43.945,-27.832,-45.898,99.121
1687768889.392,-53.223,-44.922,-27.832,-59.082,17.090
1687768889.396,-66.406,-42.480,-26.855,-62.012,-147.461
1687768889.398,-70.312,-37.109,-32.715,-53.711,-111.328
1687768889.402,-70.312,-39.062,-37.109,-54.199,-45.410
1687768889.406,-70.312,-43.457,-32.715,-52.246,-85.449
1687768889.410,-53.223,-43.945,-29.785,-46.387,-156.250
1687768889.414,-42.969,-43.945,-33.691,-52.246,-32.715
1687768889.418,-44.434,-39.551,-31.738,-51.758,145.996
1687768889.422,-46.875,-31.738,-28.320,-46.875,83.496
1687768889.425,-46.875,-36.133,-32.227,-47.363,-76.660
1687768889.429,-47.852,-42.969,-36.621,-35.645,68.359
1687768889.433,-49.805,-38.086,-31.250,-22.949,233.887
1687768889.437,-50.781,-31.250,-30.762,-34.668,-55.664
1687768889.441,-57.129,-37.109,-32.227,-41.992,-199.219
1687768889.443,-54.688,-40.039,-31.738,-35.156,-75.195
1687768889.447,-39.551,-33.691,-30.273,-30.762,-15.625
1687768889.451,-41.992,-33.203,-29.785,-35.156,-120.117
1687768889.455,-44.922,-37.109,-30.762,-45.410,-140.625
1687768889.459,-45.898,-41.992,-32.227,-42.969,183.105
1687768889.463,-48.340,-40.039,-29.297,-39.551,180.664
1687768889.467,-51.758,-39.551,-28.809,-38.086,-121.582
1687768889.470,-59.082,-39.551,-32.715,-35.645,-102.051
1687768889.474,-55.176,-39.062,-32.715,-38.574,103.516
1687768889.478,-43.945,-35.156,-34.668,-47.852,-46.875
1687768889.482,-28.809,-32.227,-36.133,-47.363,-210.938
1687768889.486,-23.926,-38.086,-37.109,-51.270,-140.137
1687768889.489,-15.137,-36.133,-34.180,-47.852,-127.930
1687768889.493,-38.574,-32.715,-32.715,-50.293,-191.406
1687768889.497,-64.941,-36.133,-29.297,-54.199,-256.836
1687768889.501,-52.734,-37.109,-23.926,-39.062,-194.824
1687768889.505,-47.363,-40.039,-32.227,-31.738,-119.141
1687768889.509,-49.316,-41.016,-38.574,-28.809,-64.941
1687768889.513,-52.246,-38.086,-41.504,-40.039,-91.797
1687768889.516,-53.711,-41.504,-40.039,-43.945,52.246
1687768889.520,-45.898,-37.109,-39.062,-39.062,306.152
1687768889.524,-31.250,-37.109,-44.434,-43.945,-4.395
1687768889.528,-21.484,-37.598,-49.805,-37.109,-224.609
1687768889.532,-42.480,-37.109,-44.434,-38.574,-103.516
1687768889.533,-64.941,-46.387,-41.504,-55.176,-104.980
1687768889.537,-75.195,-48.340,-35.645,-63.965,-101.074
1687768889.541,-73.730,-47.363,-32.715,-57.129,-72.754
1687768889.545,-63.965,-47.363,-35.645,-45.410,47.363
1687768889.549,-64.453,-42.480,-33.691,-54.199,40.039
1687768889.553,-63.477,-43.945,-35.645,-58.594,-2.441
1687768889.557,-59.082,-46.875,-39.551,-48.828,-27.344
1687768889.560,-65.430,-48.340,-42.480,-45.898,127.441
1687768889.564,-60.059,-44.434,-41.992,-49.805,88.867
1687768889.568,-55.664,-41.016,-44.434,-44.434,-120.117
1687768889.572,-69.336,-45.898,-41.016,-48.340,-109.375
1687768889.576,-68.359,-49.316,-40.039,-62.500,-68.848
1687768889.578,-55.664,-47.363,-42.969,-60.059,-156.250
1687768889.582,-56.641,-50.781,-41.016,-45.898,-153.809
1687768889.586,-61.035,-53.711,-39.551,-42.480,-53.223
1687768889.590,-61.035,-49.805,-38.574,-51.270,-68.359
1687768889.594,-48.828,-50.781,-40.527,-52.246,-148.926
1687768889.598,-48.340,-54.199,-42.480,-61.035,-132.812
1687768889.602,-55.176,-49.805,-37.109,-61.035,109.863
1687768889.605,-69.824,-46.875,-32.715,-43.457,240.723
1687768889.609,-69.824,-52.734,-37.598,-49.805,-78.613
1687768889.613,-57.129,-59.082,-44.434,-61.035,-194.824
1687768889.617,-55.664,-52.734,-40.039,-52.734,-106.934
1687768889.621,-56.641,-46.875,-41.016,-45.410,-37.109
1687768889.624,-54.199,-47.363,-45.898,-43.945,-13.672
1687768889.628,-50.781,-51.758,-41.016,-41.504,-11.230
1687768889.632,-52.734,-48.828,-38.574,-45.410,162.598
1687768889.636,-43.457,-40.527,-38.086,-47.363,198.730
1687768889.640,-27.832,-39.551,-41.016,-41.016,-34.668
1687768889.644,-35.645,-38.574,-40.527,-37.598,-48.828
1687768889.648,-47.852,-40.039,-38.086,-43.457,188.965
1687768889.651,-54.199,-41.992,-41.016,-52.734,114.258
1687768889.655,-50.781,-42.480,-44.922,-52.734,-136.719
1687768889.659,-37.598,-45.410,-42.969,-43.945,-115.723
1687768889.663,-33.691,-43.457,-36.133,-42.480,-53.223
1687768889.667,-38.086,-44.922,-37.109,-48.828,-63.965
1687768889.684,-45.410,-47.852,-40.527,-47.852,-70.312
1687768889.688,-47.852,-47.363,-39.062,-41.016,-44.434
1687768889.692,-47.363,-53.223,-40.527,-38.574,-118.652
1687768889.696,-50.293,-58.594,-39.062,-40.039,-178.711
1687768889.700,-49.805,-51.270,-39.551,-41.992,-228.516
1687768889.704,-47.363,-53.223,-44.922,-41.016,-83.496
1687768889.708,-39.551,-59.570,-41.504,-32.227,184.082
1687768889.711,-27.344,-49.316,-42.480,-29.785,6.836
1687768889.715,-23.438,-41.992,-44.434,-35.156,-179.688
1687768889.719,-27.832,-41.504,-44.434,-41.016,-76.172
1687768889.723,-38.574,-45.410,-46.387,-43.945,-0.488
1687768889.727,-49.805,-43.945,-43.457,-39.062,-134.766
1687768889.729,-42.969,-41.016,-40.039,-35.645,-94.727
1687768889.733,-32.227,-41.504,-39.551,-35.156,177.246
1687768889.737,-29.297,-36.133,-39.551,-34.180,34.180
1687768889.741,-27.344,-39.062,-42.969,-39.551,-178.711
1687768889.745,-28.809,-46.875,-49.805,-39.062,-105.469
1687768889.749,-22.949,-54.688,-48.340,-24.902,119.629
1687768889.753,-17.090,-54.688,-50.293,-21.484,61.035
1687768889.756,-25.391,-41.992,-51.758,-48.828,-155.762
1687768889.760,-40.527,-38.574,-52.734,-58.105,-134.277
1687768889.764,-39.062,-46.387,-58.105,-36.621,170.898
1687768889.768,-32.715,-44.922,-54.688,-22.461,119.629
1687768889.772,-37.598,-38.574,-52.246,-23.438,-150.391
1687768889.774,-52.246,-45.898,-51.270,-29.785,-143.555
1687768889.778,-54.199,-50.781,-48.340,-32.227,-102.539
1687768889.782,-42.480,-45.410,-47.363,-28.809,-123.535
1687768889.786,-47.363,-45.898,-46.875,-28.320,-127.441
1687768889.790,-43.945,-50.293,-46.875,-31.738,-56.641
1687768889.794,-40.039,-52.246,-46.875,-31.738,52.246
1687768889.798,-46.875,-50.781,-48.828,-26.855,39.062
1687768889.801,-44.922,-45.898,-52.246,-32.227,-99.609
1687768889.805,-46.875,-44.922,-45.898,-33.691,69.336
1687768889.809,-35.156,-40.039,-43.457,-16.113,353.516
1687768889.813,-31.738,-40.527,-46.387,-14.160,55.176
1687768889.817,-39.551,-44.434,-47.363,-30.762,-136.230
1687768889.818,-42.969,-44.922,-48.340,-36.621,22.461
1687768889.822,-43.945,-46.387,-45.898,-26.367,15.625
1687768889.826,-42.480,-45.898,-45.898,-22.949,-132.812
1687768889.830,-57.129,-45.410,-47.363,-35.645,-97.168
1687768889.834,-71.777,-44.922,-50.293,-34.668,135.254
1687768889.838,-58.105,-45.410,-51.270,-26.855,83.496
1687768889.842,-49.316,-41.992,-42.969,-28.809,1.953
1687768889.845,-63.477,-44.922,-44.922,-39.551,-65.918
1687768889.849,-62.988,-48.828,-50.781,-38.086,178.711
1687768889.853,-59.082,-42.480,-45.410,-39.551,157.715
1687768889.857,-52.734,-45.410,-41.016,-54.199,-199.707
1687768889.861,-45.410,-48.828,-45.410,-44.922,-138.672
1687768889.863,-39.551,-44.922,-46.875,-32.227,-95.703
1687768889.867,-41.992,-44.922,-43.457,-36.133,-175.293
1687768889.871,-50.293,-48.340,-48.340,-45.410,-202.148
1687768889.875,-54.199,-54.199,-52.734,-55.664,-172.852
1687768889.879,-49.316,-50.781,-48.828,-52.734,-135.742
1687768889.883,-40.527,-45.410,-44.434,-45.410,-16.602
1687768889.887,-33.691,-47.852,-43.945,-48.828,-29.297
1687768889.890,-50.781,-48.828,-49.316,-56.641,12.695
1687768889.894,-56.641,-47.363,-52.734,-48.340,171.387
1687768889.898,-40.039,-45.898,-50.781,-45.410,-74.219
1687768889.902,-41.016,-50.781,-50.293,-42.969,-123.535
1687768889.906,-53.711,-54.199,-52.246,-46.387,114.258
1687768889.910,-60.059,-53.711,-49.805,-54.688,2.441
1687768889.914,-68.359,-52.734,-52.734,-59.570,-143.066
1687768889.918,-62.012,-54.199,-56.152,-57.617,-122.070
1687768889.922,-50.293,-52.246,-52.734,-42.969,24.414
1687768889.926,-46.875,-51.270,-44.434,-53.223,-49.805
1687768889.930,-46.387,-51.758,-42.969,-67.871,-60.547
1687768889.934,-53.223,-56.641,-49.316,-61.035,44.434
1687768889.937,-54.688,-66.406,-51.270,-47.852,166.504
1687768889.941,-43.945,-61.035,-50.293,-43.945,94.727
1687768889.945,-37.598,-52.246,-47.852,-44.922,-133.789
1687768889.949,-39.551,-55.176,-48.340,-40.527,-194.824
1687768889.953,-39.062,-53.711,-48.828,-40.039,-123.535
1687768889.968,-47.363,-45.410,-45.410,-40.527,-44.434
1687768889.972,-46.875,-48.340,-44.434,-39.062,-44.434
1687768889.976,-53.223,-51.270,-50.293,-41.992,-72.266
1687768889.980,-62.988,-48.828,-54.688,-45.898,-85.938
1687768889.984,-62.988,-49.316,-54.688,-47.363,-137.207
1687768889.988,-67.871,-44.922,-55.176,-55.176,-200.684
1687768889.992,-57.617,-46.387,-57.617,-55.664,-42.969
1687768889.995,-57.129,-50.293,-61.523,-49.316,229.980
1687768889.999,-61.523,-44.434,-56.152,-52.246,-26.855
1687768890.003,-54.199,-43.457,-50.293,-47.852,-220.215
1687768890.007,-62.500,-41.992,-49.805,-44.922,-87.891
1687768890.011,-59.082,-41.992,-49.316,-51.758,-88.379
1687768889.998,-39.551,-47.852,-45.898,-47.852,-126.953
1687768890.002,-42.480,-51.758,-54.688,-41.504,-78.125
1687768890.006,-55.664,-51.270,-65.430,-36.621,93.262
1687768890.010,-54.199,-50.781,-61.523,-45.410,32.715
1687768890.014,-58.594,-50.781,-58.105,-52.734,-174.805
1687768890.018,-58.105,-51.758,-58.594,-38.086,-32.715
1687768890.022,-51.758,-53.223,-56.641,-26.855,250.977
1687768890.025,-63.965,-47.852,-53.711,-40.527,78.613
1687768890.029,-77.637,-47.852,-53.223,-60.059,-139.160
1687768890.033,-74.219,-55.176,-59.082,-53.711,-73.242
1687768890.037,-64.453,-50.781,-60.547,-44.434,160.645
1687768890.041,-57.129,-42.969,-55.176,-51.758,63.477
1687768890.043,-60.547,-47.363,-55.664,-56.641,-139.160
1687768890.047,-60.547,-48.828,-57.129,-47.363,-163.086
1687768890.051,-52.246,-43.945,-55.176,-35.156,-128.906
1687768890.055,-40.039,-42.480,-51.758,-34.180,-76.660
1687768890.059,-46.875,-42.969,-49.805,-43.457,-182.617
1687768890.063,-60.059,-44.434,-47.363,-50.293,-102.051
1687768890.067,-62.500,-41.016,-50.293,-53.711,118.164
1687768890.070,-61.035,-41.504,-52.734,-60.547,-45.898
1687768890.074,-56.152,-44.922,-53.223,-55.176,-172.363
1687768890.078,-53.711,-47.852,-54.199,-48.340,-7.324
1687768890.082,-61.035,-45.410,-51.758,-50.293,-46.387
1687768890.086,-65.918,-39.062,-49.805,-47.852,-237.793
1687768890.103,-59.082,-42.969,-49.316,-49.316,-207.520
1687768890.107,-57.617,-44.434,-48.340,-41.016,145.508
1687768890.111,-54.688,-41.992,-45.410,-35.156,345.215
1687768890.115,-48.828,-41.016,-46.875,-45.410,-29.297
1687768890.119,-58.594,-35.156,-47.363,-47.363,-172.363
1687768890.123,-61.035,-35.645,-47.363,-41.016,-5.859
1687768890.127,-42.480,-37.598,-53.223,-45.898,-64.453
1687768890.130,-41.504,-35.645,-51.758,-41.016,-112.793
1687768890.134,-58.594,-40.527,-48.340,-37.598,-3.906
1687768890.138,-65.430,-43.945,-53.711,-40.039,225.586
1687768890.142,-55.176,-40.039,-56.152,-48.340,135.254
1687768890.146,-30.273,-39.062,-49.805,-48.340,-180.664
1687768890.148,-33.691,-39.062,-48.828,-35.156,-147.461
1687768890.152,-55.176,-35.156,-51.758,-37.598,-85.449
1687768890.156,-57.617,-38.574,-54.688,-46.387,-110.840
1687768890.160,-53.711,-36.621,-53.223,-52.246,-168.945
1687768890.164,-54.688,-37.109,-51.270,-45.898,-114.258
1687768890.168,-52.734,-36.621,-48.828,-40.039,4.395
1687768890.172,-53.711,-36.621,-48.340,-48.828,-51.270
1687768890.175,-56.152,-42.480,-57.129,-56.641,-125.488
1687768890.179,-53.711,-41.016,-58.594,-47.852,43.457
1687768890.183,-51.270,-42.969,-55.664,-37.598,155.762
1687768890.187,-44.922,-41.992,-56.641,-39.551,-97.168
1687768890.191,-45.410,-37.598,-56.152,-48.828,-149.414
1687768890.193,-47.852,-45.898,-53.711,-60.547,78.613
1687768890.197,-37.598,-48.340,-48.828,-56.641,82.520
1687768890.201,-30.762,-36.133,-43.457,-48.340,-133.301
1687768890.205,-39.551,-32.227,-43.945,-45.410,-137.695
1687768890.209,-52.246,-38.086,-50.293,-37.598,39.551
1687768890.213,-52.246,-39.062,-47.363,-41.992,60.547
1687768890.217,-52.246,-38.574,-45.898,-50.781,-43.945
1687768890.220,-61.035,-39.551,-52.246,-51.270,-67.383
1687768890.224,-54.688,-42.969,-51.270,-40.527,147.949
1687768890.228,-47.852,-42.480,-47.363,-32.227,82.031
1687768890.232,-45.898,-37.598,-52.734,-41.504,-166.504
1687768890.236,-44.922,-32.715,-52.734,-45.410,-171.387
1687768890.239,-41.016,-30.762,-46.875,-34.180,-36.133
1687768890.243,-36.133,-32.715,-48.828,-23.438,22.461
1687768890.247,-37.598,-32.715,-50.293,-22.461,-135.254
1687768890.251,-50.293,-35.645,-51.270,-24.902,-146.973
1687768890.255,-55.176,-36.133,-53.711,-25.391,12.695
1687768890.259,-42.969,-32.715,-51.758,-29.785,41.992
1687768890.263,-38.086,-32.715,-50.293,-34.180,12.695
1687768890.266,-50.293,-34.180,-52.246,-24.414,142.578
1687768890.270,-56.152,-34.668,-53.223,-24.414,244.629
1687768890.274,-59.082,-41.992,-55.664,-39.551,18.555
1687768890.278,-55.176,-44.434,-56.152,-36.133,-46.387
1687768890.282,-41.016,-38.086,-53.711,-24.902,32.227
1687768890.284,-44.922,-40.039,-54.199,-31.250,-61.035
1687768890.288,-58.594,-46.875,-57.617,-40.039,-53.711
1687768890.292,-62.012,-45.898,-54.199,-40.039,-103.027
1687768890.296,-53.711,-42.969,-50.293,-33.203,70.801
1687768890.300,-47.363,-36.133,-49.316,-31.250,137.207
1687768890.304,-62.012,-40.527,-51.758,-41.504,-62.500
1687768890.308,-62.500,-47.852,-56.152,-51.270,-89.844
1687768890.311,-53.223,-41.504,-54.199,-43.457,145.020
1687768890.315,-51.758,-38.574,-47.363,-37.109,49.805
1687768890.319,-49.805,-41.992,-48.340,-50.781,-143.555
1687768890.323,-48.340,-44.434,-52.734,-54.199,-104.980
1687768890.327,-59.570,-41.992,-57.617,-48.828,-92.285
1687768890.331,-69.824,-41.504,-59.570,-46.875,-95.215
1687768890.335,-53.223,-44.922,-58.105,-50.293,-145.020
1687768890.339,-52.246,-43.457,-61.523,-60.059,-118.164
1687768890.343,-54.199,-39.062,-58.105,-50.781,-83.496
1687768890.347,-41.504,-34.668,-55.176,-42.480,-110.840
1687768890.351,-43.945,-38.574,-60.059,-52.734,-196.289
1687768890.355,-36.621,-41.016,-57.617,-49.316,-46.387
1687768890.358,-27.832,-39.062,-54.199,-36.621,325.684
1687768890.362,-25.391,-34.668,-55.176,-40.039,-2.930
1687768890.366,-33.691,-36.621,-56.641,-54.199,-272.461
1687768890.370,-49.805,-42.969,-58.105,-63.477,-98.145
1687768890.374,-58.594,-44.434,-59.570,-59.570,-123.047
1687768890.376,-52.734,-42.969,-53.711,-55.176,-164.062
1687768890.380,-41.504,-36.621,-43.945,-52.246,-33.203
1687768890.384,-48.340,-33.691,-44.922,-47.852,77.148
1687768890.388,-56.152,-37.109,-44.434,-45.898,5.371
1687768890.392,-55.176,-37.598,-44.922,-50.781,-169.434
1687768890.396,-47.852,-39.551,-47.363,-52.734,-120.605
1687768890.400,-42.969,-41.992,-50.293,-49.316,184.082
1687768890.403,-49.805,-40.039,-53.711,-53.223,164.062
1687768890.407,-60.547,-41.992,-56.152,-64.941,-114.258
1687768890.411,-73.730,-41.992,-57.129,-66.406,-150.391
1687768890.415,-66.895,-39.551,-55.176,-53.223,22.461
1687768890.419,-48.828,-35.156,-49.316,-45.410,-7.812
1687768890.418,-55.176,-33.203,-45.898,-49.805,-101.562
1687768890.422,-57.129,-36.621,-46.387,-55.176,-31.738
1687768890.426,-58.594,-32.227,-44.922,-63.477,-80.078
1687768890.430,-66.406,-32.227,-41.992,-68.848,-205.078
1687768890.434,-61.035,-33.691,-44.922,-56.641,-186.523
1687768890.438,-53.711,-33.203,-46.875,-50.293,11.719
1687768890.442,-53.711,-35.156,-44.922,-43.457,57.129
1687768890.445,-51.758,-34.180,-40.527,-37.598,-95.215
1687768890.449,-52.734,-33.203,-44.434,-46.875,-104.492
1687768890.453,-52.246,-36.621,-51.758,-54.199,5.371
1687768890.457,-46.387,-40.039,-48.340,-55.664,95.215
1687768890.461,-55.176,-41.992,-47.363,-55.664,-86.426
1687768890.478,-63.477,-42.480,-46.875,-54.199,-142.578
1687768890.482,-65.430,-40.527,-43.457,-47.363,113.281
1687768890.486,-60.059,-38.086,-42.969,-38.086,59.570
1687768890.490,-49.316,-42.480,-44.434,-37.598,-152.344
1687768890.494,-42.480,-36.133,-43.457,-38.574,-86.914
1687768890.498,-56.152,-37.598,-43.457,-41.016,82.031
1687768890.502,-64.453,-43.945,-44.434,-46.387,70.312
1687768890.505,-60.547,-37.598,-42.969,-46.387,-55.176
1687768890.509,-59.082,-40.039,-43.457,-43.457,-20.508
1687768890.513,-70.801,-44.922,-44.434,-45.410,194.336
1687768890.517,-77.637,-41.016,-45.410,-55.176,-0.977
1687768890.521,-63.965,-39.062,-48.828,-58.594,-187.988
1687768890.523,-40.039,-41.992,-42.480,-47.363,-20.996
1687768890.527,-35.645,-39.062,-37.598,-43.945,25.391
1687768890.531,-49.316,-38.086,-36.621,-52.246,-137.207
1687768890.535,-62.988,-41.992,-40.527,-55.664,-226.562
1687768890.539,-66.406,-38.574,-43.457,-52.734,-104.004
1687768890.543,-60.059,-35.156,-37.598,-45.898,-44.922
1687768890.547,-55.176,-32.715,-32.715,-37.598,-41.016
1687768890.550,-56.152,-32.227,-33.203,-42.480,-104.004
1687768890.554,-60.059,-34.668,-34.180,-45.898,-1.465
1687768890.558,-60.547,-33.691,-33.203,-40.039,146.973
1687768890.562,-48.828,-32.715,-34.668,-41.504,-86.426
1687768890.566,-47.363,-33.691,-36.621,-41.504,-150.879
1687768890.569,-50.293,-30.273,-40.039,-49.805,-46.875
1687768890.573,-47.363,-32.227,-41.016,-47.363,-32.715
1687768890.577,-56.152,-39.551,-44.434,-43.457,-54.199
1687768890.581,-65.430,-34.180,-43.945,-41.992,-59.082
1687768890.585,-50.293,-34.668,-41.992,-41.992,149.902
1687768890.589,-44.922,-43.457,-36.133,-43.945,234.863
1687768890.593,-43.945,-36.621,-30.762,-43.945,45.410
1687768890.596,-39.062,-31.738,-33.203,-55.176,-32.227
1687768890.600,-47.363,-35.645,-34.180,-52.734,156.250
1687768890.604,-44.922,-31.250,-33.203,-42.480,57.617
1687768890.608,-38.574,-28.809,-37.109,-40.527,-176.758
1687768890.612,-47.363,-32.227,-35.645,-36.621,-53.223
1687768890.612,-50.293,-31.250,-32.227,-37.109,-22.461
1687768890.616,-47.363,-28.809,-34.668,-42.480,-131.348
1687768890.620,-51.758,-27.344,-31.738,-40.527,-132.812
1687768890.624,-47.852,-28.809,-30.762,-45.410,-76.172
1687768890.628,-51.758,-30.762,-32.715,-52.246,-39.062
1687768890.632,-47.363,-28.320,-29.297,-43.457,-1.953
1687768890.636,-33.203,-23.926,-30.273,-47.852,0.977
1687768890.639,-32.715,-29.297,-30.273,-43.457,102.539
1687768890.643,-43.457,-30.762,-26.855,-27.832,254.883
1687768890.647,-66.406,-32.227,-28.320,-35.156,52.246
1687768890.651,-64.453,-36.133,-35.156,-50.293,-131.836
1687768890.655,-46.875,-32.227,-36.133,-52.246,-98.633
1687768890.658,-46.387,-28.809,-31.250,-40.039,-73.730
1687768890.662,-43.945,-27.832,-27.832,-30.273,-115.723
1687768890.666,-55.176,-23.926,-24.414,-34.180,-131.348
1687768890.670,-68.848,-25.391,-29.297,-44.434,33.203
1687768890.674,-64.941,-27.832,-31.250,-53.223,14.160
1687768890.678,-60.547,-32.227,-26.367,-56.641,-60.547
1687768890.682,-53.223,-31.738,-23.438,-51.270,-6.348
1687768890.685,-43.945,-25.879,-23.926,-45.898,326.660
1687768890.689,-58.105,-29.785,-23.926,-54.199,225.098
1687768890.693,-56.152,-28.320,-20.996,-62.012,-174.316
1687768890.697,-47.852,-26.367,-18.066,-56.152,-168.945
1687768890.701,-44.434,-30.762,-15.625,-42.969,-87.402
1687768890.703,-39.551,-18.066,-17.090,-38.086,-83.984
1687768890.707,-63.965,-13.184,-20.508,-65.430,-169.922
1687768890.711,-77.148,-21.484,-12.695,-83.008,-145.996
1687768890.715,-82.520,-22.461,0.977,-84.961,-120.117
1687768890.719,-96.191,-24.414,9.766,-96.680,-124.512
1687768890.723,-115.234,-25.391,-0.977,-120.605,-106.934
1687768890.727,-134.766,-15.137,1.465,-133.789,79.102
1687768890.730,-154.297,-13.184,9.766,-146.484,232.910
1687768890.734,-168.457,-18.555,18.555,-162.598,-41.016
1687768890.738,-173.828,-14.648,34.668,-166.016,-126.953
1687768890.742,-197.754,-19.043,24.414,-188.965,-20.508
1687768890.746,-218.750,-20.996,19.531,-215.820,-54.199
1687768890.748,-229.980,-4.395,26.855,-237.305,-125.977
1687768890.752,-250.000,-1.465,23.438,-256.836,-57.617
1687768890.756,-262.207,-13.672,18.555,-260.254,112.305
1687768890.760,-257.324,-7.324,25.391,-255.859,-11.230
1687768890.764,-274.902,1.465,24.414,-275.879,-175.293
1687768890.768,-312.988,-4.395,19.043,-301.758,-100.586
1687768890.772,-316.895,-11.230,17.090,-295.898,153.809
1687768890.775,-294.922,-5.859,19.043,-291.992,76.172
1687768890.779,-289.062,-2.930,14.648,-295.410,-168.457
1687768890.783,-300.781,-12.695,3.906,-294.922,-150.879
1687768890.787,-294.922,-15.625,5.371,-291.992,-84.961
1687768890.791,-281.738,-10.742,5.859,-279.785,-81.055
1687768890.809,-280.273,-19.531,1.465,-267.090,-151.367
1687768890.813,-273.926,-20.020,-0.977,-253.418,-102.539
1687768890.817,-270.508,-20.996,-4.395,-246.094,1.953
1687768890.821,-263.672,-30.762,-9.766,-240.234,-74.707
1687768890.825,-255.371,-27.832,-18.066,-242.188,-152.344
1687768890.829,-241.699,-26.367,-29.297,-243.164,19.043
1687768890.833,-228.027,-25.391,-36.133,-222.656,94.238
1687768890.836,-228.516,-27.832,-38.086,-216.797,-117.676
1687768890.840,-230.957,-35.645,-41.016,-209.961,-138.184
1687768890.844,-227.051,-37.109,-48.828,-196.289,13.672
1687768890.848,-225.098,-41.992,-52.246,-196.777,40.527
1687768890.852,-213.867,-45.410,-55.176,-190.918,-75.684
1687768890.853,-196.289,-49.805,-62.012,-182.617,-98.633
1687768890.857,-186.035,-49.316,-64.453,-173.340,46.387
1687768890.861,-168.945,-43.457,-69.336,-176.270,94.727
1687768890.865,-171.875,-46.875,-81.055,-184.082,-80.566
1687768890.869,-180.176,-50.781,-87.891,-176.758,-135.254
1687768890.873,-161.133,-51.270,-97.168,-158.203,166.016
1687768890.877,-156.250,-52.734,-94.238,-156.250,131.836
1687768890.880,-168.945,-55.664,-94.727,-156.738,-127.930
1687768890.884,-156.738,-59.082,-95.215,-144.043,-128.418
1687768890.888,-137.695,-60.547,-91.797,-127.441,227.051
1687768890.892,-139.160,-62.988,-95.703,-124.023,116.211
1687768890.896,-138.184,-64.453,-97.168,-125.488,-275.879
1687768890.898,-125.977,-69.824,-96.191,-125.977,-170.410
1687768890.902,-121.094,-66.895,-99.609,-126.953,-74.219
1687768890.906,-122.559,-64.941,-104.004,-119.141,-191.895
1687768890.910,-122.070,-65.918,-114.258,-106.934,-175.293
1687768890.914,-124.023,-66.895,-118.164,-99.609,-69.824
1687768890.918,-124.512,-66.895,-118.652,-100.586,2.930
1687768890.922,-107.422,-68.848,-126.465,-101.074,32.227
1687768890.925,-91.309,-69.336,-128.906,-107.422,-90.332
1687768890.929,-92.285,-71.777,-124.023,-100.586,-17.090
1687768890.933,-98.633,-73.730,-122.559,-88.867,244.629
1687768890.937,-110.840,-71.777,-124.512,-91.309,-18.066
1687768890.941,-114.258,-75.684,-122.559,-88.379,-147.949
1687768890.944,-104.980,-80.566,-129.395,-83.008,41.016
1687768890.948,-104.492,-75.195,-140.625,-89.355,74.707
1687768890.952,-113.770,-70.801,-134.766,-94.238,-104.980
1687768890.956,-101.562,-72.266,-129.883,-93.750,-172.852
1687768890.960,-92.285,-71.777,-126.465,-83.984,81.055
1687768890.964,-96.191,-70.312,-121.094,-73.242,121.582
1687768890.968,-80.078,-67.871,-125.977,-68.359,-37.109
1687768890.971,-77.637,-74.219,-129.883,-77.637,26.855
1687768890.975,-92.285,-78.125,-128.906,-86.914,294.434
1687768890.979,-102.051,-70.312,-123.535,-83.008,201.660
1687768890.983,-78.613,-68.359,-124.512,-69.336,-140.137
1687768890.987,-64.453,-65.430,-123.047,-60.547,-137.695
1687768890.990,-74.707,-64.453,-117.188,-53.223,-97.168
1687768890.994,-82.031,-64.941,-116.699,-63.477,-115.234
1687768890.998,-74.707,-64.453,-118.652,-69.824,-117.188
1687768891.002,-53.711,-63.477,-117.676,-43.457,-108.887
1687768891.006,-43.457,-59.082,-115.723,-42.480,-61.035
1687768891.010,-52.246,-55.176,-115.723,-61.035,-44.922
1687768891.014,-66.895,-57.129,-114.258,-64.941,-83.008
1687768891.017,-72.266,-56.641,-109.863,-59.082,24.902
1687768891.021,-72.266,-57.129,-114.258,-43.945,196.777
1687768891.025,-53.223,-54.688,-111.816,-43.945,30.273
1687768891.029,-37.598,-51.758,-108.887,-50.781,-62.500
1687768891.033,-60.059,-49.316,-114.258,-51.758,64.453
1687768891.036,-68.359,-42.480,-112.793,-68.359,15.625
1687768891.040,-49.805,-38.086,-113.281,-74.219,-48.340
1687768891.044,-42.480,-41.016,-114.258,-60.059,12.695
1687768891.048,-52.734,-49.805,-110.840,-58.594,127.930
1687768891.052,-63.965,-50.781,-108.398,-59.082,-4.395
1687768891.056,-56.641,-45.898,-105.469,-38.086,-87.891
1687768891.060,-49.805,-34.668,-106.934,-32.715,14.160
1687768891.063,-43.457,-31.738,-106.445,-41.992,230.957
1687768891.067,-37.109,-34.668,-98.633,-41.504,183.105
1687768891.071,-36.621,-33.691,-96.191,-45.410,-176.270
1687768891.075,-38.574,-30.273,-94.238,-49.316,-193.359
1687768891.079,-42.480,-34.668,-87.891,-43.457,-66.895
1687768891.078,-41.992,-43.945,-87.891,-39.062,-123.047
1687768891.082,-27.344,-42.969,-90.820,-34.668,-247.070
1687768891.086,-25.391,-36.133,-96.680,-36.621,-137.207
1687768891.090,-47.363,-33.691,-95.215,-39.551,6.836
1687768891.094,-47.852,-33.203,-84.961,-45.410,-80.078
1687768891.098,-29.785,-37.598,-87.402,-46.387,-80.078
1687768891.102,-34.180,-41.504,-91.797,-41.992,107.422
1687768891.105,-43.457,-43.945,-81.055,-38.574,209.961
1687768891.109,-35.645,-40.039,-71.289,-38.574,-80.566
1687768891.113,-41.016,-42.969,-76.660,-44.434,-180.664
1687768891.117,-42.480,-51.758,-77.637,-32.227,-43.457
1687768891.121,-39.551,-46.387,-70.312,-20.508,-40.527
1687768891.124,-50.781,-46.875,-70.801,-44.434,-74.219
1687768891.128,-49.805,-54.199,-74.219,-56.152,14.648
1687768891.132,-46.875,-52.734,-68.359,-44.434,192.383
1687768891.136,-41.992,-42.969,-57.617,-35.156,176.270
1687768891.140,-34.180,-41.992,-55.176,-35.156,-119.629
1687768891.144,-33.691,-38.574,-60.059,-34.668,-130.371
1687768891.148,-48.828,-35.645,-55.176,-42.969,172.363
1687768891.151,-52.734,-45.410,-47.852,-45.410,-12.695
1687768891.155,-38.086,-46.387,-52.246,-26.855,-248.535
1687768891.159,-28.809,-41.992,-61.035,-31.738,-112.793
1687768891.163,-19.531,-41.016,-63.965,-42.480,-58.594
1687768891.167,-13.184,-41.016,-60.059,-38.086,-125.977
1687768891.169,-18.555,-45.898,-50.781,-31.250,-147.461
1687768891.173,-25.879,-48.828,-41.992,-30.273,-116.699
1687768891.177,-26.855,-47.852,-38.086,-40.039,-114.258
1687768891.181,-31.738,-48.828,-33.203,-36.133,-170.410
1687768891.185,-47.852,-49.316,-29.297,-29.785,-167.969
1687768891.189,-52.246,-52.734,-35.645,-32.715,25.391
1687768891.193,-27.832,-55.664,-37.109,-12.695,262.207
1687768891.196,-14.648,-47.363,-29.297,-3.418,-26.367
1687768891.200,-34.180,-45.410,-23.438,-29.785,-209.473
1687768891.204,-46.875,-47.852,-24.414,-42.969,-95.703
1687768891.208,-38.086,-54.688,-25.391,-43.945,-60.059
1687768891.212,-32.715,-53.711,-15.137,-32.227,-104.980
1687768891.228,-32.715,-44.434,-17.090,-30.762,-68.848
1687768891.232,-29.785,-37.598,-25.391,-35.645,124.512
1687768891.236,-27.344,-43.945,-29.297,-34.180,38.086
1687768891.240,-32.715,-52.246,-27.344,-41.016,-199.219
1687768891.244,-41.016,-66.406,-18.066,-53.711,-132.812
1687768891.248,-44.922,-90.820,-15.625,-59.082,259.766
1687768891.252,-43.945,-106.445,-12.207,-43.457,259.277
1687768891.255,-42.969,-102.539,-9.766,-25.879,-33.203
1687768891.259,-44.434,-96.191,-20.020,-28.809,-152.344
1687768891.263,-48.828,-107.422,-23.926,-30.762,48.828
1687768891.267,-42.969,-108.398,-18.066,-28.320,16.602
1687768891.271,-29.297,-101.074,-18.066,-39.551,-133.789
1687768891.273,-29.297,-99.121,-17.578,-43.945,-103.516
1687768891.277,-34.668,-90.332,-17.090,-41.016,-139.160
1687768891.281,-36.133,-90.820,-8.301,-53.711,-125.000
1687768891.285,-33.203,-92.285,0.977,-54.688,-100.586
1687768891.289,-38.086,-90.332,-1.465,-49.805,-50.781
1687768891.293,-42.480,-90.820,-4.883,-51.758,77.637
1687768891.297,-33.203,-81.543,0.488,-45.898,13.672
1687768891.300,-31.738,-77.637,6.348,-39.551,-117.676
1687768891.304,-44.434,-83.008,6.836,-40.039,-12.695
1687768891.308,-40.039,-84.473,7.812,-31.250,265.137
1687768891.312,-30.273,-82.031,11.719,-33.691,47.852
1687768891.316,-35.156,-74.707,11.230,-48.828,-171.387
1687768891.318,-47.852,-71.289,6.836,-42.969,-59.570
1687768891.322,-50.293,-66.406,2.930,-29.785,67.383
1687768891.326,-41.504,-62.012,3.906,-30.273,-48.828
1687768891.330,-56.641,-67.871,4.883,-53.711,-157.715
1687768891.334,-66.895,-70.312,5.371,-48.340,21.484
1687768891.338,-54.688,-64.941,8.789,-29.297,35.645
1687768891.342,-39.062,-53.711,15.625,-32.227,-38.574
1687768891.345,-35.156,-46.875,12.695,-39.551,6.836
1687768891.349,-36.133,-48.340,5.859,-49.316,107.910
1687768891.353,-33.691,-48.828,12.207,-44.922,-49.316
1687768891.357,-47.363,-55.176,18.555,-46.875,-201.660
1687768891.361,-56.641,-61.035,16.113,-53.223,-75.195
1687768891.363,-52.734,-64.453,11.230,-42.969,-22.949
1687768891.367,-42.480,-56.641,13.184,-34.180,-108.398
1687768891.371,-41.504,-42.480,13.184,-36.621,-127.930
1687768891.375,-48.340,-43.945,6.348,-52.246,-111.328
1687768891.379,-35.645,-45.410,5.859,-46.387,-139.648
1687768891.383,-28.320,-41.504,12.207,-40.527,-12.207
1687768891.387,-40.527,-34.668,19.531,-54.199,31.250
1687768891.390,-53.711,-31.738,17.090,-62.988,42.969
1687768891.394,-57.617,-28.809,17.578,-55.176,183.105
1687768891.398,-51.270,-25.879,17.090,-57.129,-48.340
1687768891.402,-41.504,-33.691,13.184,-62.500,-227.539
1687768891.406,-41.992,-36.133,9.277,-59.082,-147.461
1687768891.409,-51.270,-35.156,7.812,-55.664,-145.508
1687768891.413,-61.523,-42.480,7.324,-51.758,-108.887
1687768891.417,-60.059,-39.551,7.812,-47.852,-26.855
1687768891.421,-42.480,-31.738,3.906,-40.527,137.695
1687768891.425,-28.320,-29.785,-1.465,-31.738,145.508
1687768891.429,-35.645,-27.832,-8.301,-36.621,37.109
1687768891.433,-40.527,-34.180,-17.090,-38.086,36.621
1687768891.436,-20.996,-31.738,-19.531,-13.184,141.113
1687768891.440,0.977,-23.926,-23.926,-1.465,33.691
1687768891.444,21.484,-33.691,-36.133,-5.859,-187.988
1687768891.448,28.320,-41.992,-34.180,4.395,-214.355
1687768891.452,34.180,-31.738,-30.762,16.602,-187.500
1687768891.453,41.504,-28.809,-39.062,26.855,-172.852
1687768891.457,41.992,-38.574,-45.898,34.668,-198.242
1687768891.461,62.988,-36.621,-51.270,52.246,-146.973
1687768891.465,77.637,-32.227,-50.293,55.664,-41.504
1687768891.469,83.496,-43.945,-52.734,55.176,-40.039
1687768891.473,99.609,-41.504,-55.176,67.871,-88.867
1687768891.477,97.656,-37.598,-55.176,80.566,35.645
1687768891.480,97.656,-44.434,-54.199,96.680,253.906
1687768891.484,96.191,-46.387,-51.270,96.191,46.875
1687768891.488,90.820,-52.246,-52.246,87.402,-167.969
1687768891.492,104.004,-52.734,-49.316,96.191,-86.426
1687768891.496,105.957,-49.316,-46.875,101.074,-104.980
1687768891.498,93.750,-53.223,-43.457,98.633,-117.188
1687768891.502,84.473,-56.152,-41.504,101.562,-35.156
1687768891.506,83.008,-60.059,-43.945,105.469,54.199
1687768891.510,78.613,-62.988,-39.551,95.215,-37.109
1687768891.514,93.262,-64.941,-41.016,88.867,-162.109
1687768891.518,101.074,-64.941,-40.527,93.750,-59.082
1687768891.522,81.055,-62.988,-41.992,90.820,277.832
1687768891.525,67.871,-59.082,-43.457,86.914,170.410
1687768891.529,75.684,-52.246,-37.598,79.102,-129.883
1687768891.533,80.566,-51.758,-35.156,83.008,-92.285
1687768891.537,74.219,-57.129,-32.715,91.309,62.012
1687768891.541,73.730,-56.152,-31.738,82.520,-83.496
1687768891.543,61.523,-55.664,-37.598,70.801,-254.395
1687768891.547,52.734,-53.223,-39.551,73.242,-208.496
1687768891.551,54.199,-46.387,-29.785,80.078,-101.074
1687768891.555,52.246,-43.457,-21.973,86.914,-90.820
1687768891.559,59.082,-45.898,-21.973,88.379,-150.391
1687768891.563,61.523,-48.340,-16.113,83.496,-9.277
1687768891.567,63.477,-44.922,-18.066,80.078,104.004
1687768891.570,66.406,-36.621,-17.578,83.008,-34.668
1687768891.574,67.871,-37.598,-14.648,92.773,-111.328
1687768891.578,53.711,-43.945,-12.207,88.867,-9.766
1687768891.582,41.016,-51.270,-8.301,78.613,140.625
1687768891.586,57.617,-49.805,-7.324,69.336,-59.082
1687768891.603,62.988,-38.086,-9.277,67.383,-201.660
1687768891.607,50.293,-42.480,-15.625,64.453,0.000
1687768891.611,48.340,-44.922,-17.090,56.641,10.254
1687768891.615,51.270,-40.527,-15.137,54.199,-122.070
1687768891.619,38.574,-38.574,-20.020,56.152,-110.840
1687768891.623,26.855,-38.086,-24.902,48.828,183.594
1687768891.627,32.227,-36.133,-18.066,42.480,108.887
1687768891.630,21.973,-43.945,-14.648,43.945,-169.434
1687768891.634,3.906,-51.758,-18.555,40.039,-143.066
1687768891.638,1.953,-48.828,-19.043,31.738,41.992
1687768891.642,7.324,-49.805,-16.602,24.414,-10.742
1687768891.646,13.184,-43.457,-18.066,19.043,-148.438
1687768891.650,3.418,-36.621,-17.090,15.625,-133.789
1687768891.654,1.953,-37.109,-14.648,15.625,-71.777
1687768891.658,8.789,-35.156,-13.672,21.973,-184.082
1687768891.662,2.930,-35.645,-13.184,26.367,-236.816
1687768891.666,4.883,-40.039,-5.371,22.461,-116.699
1687768891.670,0.488,-45.898,-3.418,16.602,6.836
1687768891.674,-1.465,-44.922,-7.812,5.859,-33.203
1687768891.677,2.441,-44.922,-10.254,-6.836,-145.020
1687768891.681,-6.836,-45.898,-13.184,0.000,0.000
1687768891.685,-9.766,-40.039,-9.766,11.230,159.668
1687768891.689,-15.137,-33.203,-4.395,5.859,-56.641
1687768891.693,-20.020,-30.273,-7.324,-1.465,-101.074
1687768891.693,-17.578,-30.273,-10.254,-3.418,3.418
1687768891.697,-23.926,-31.250,-7.324,0.000,62.012
1687768891.701,-28.320,-31.738,-6.836,-4.395,-27.832
1687768891.705,-17.090,-29.297,-12.695,0.000,-125.000
1687768891.709,-18.066,-36.133,-17.090,-0.488,19.043
1687768891.713,-23.438,-34.668,-14.648,-12.695,29.297
1687768891.717,-21.973,-30.762,-13.184,-11.719,-49.805
1687768891.720,-15.625,-30.273,-12.207,-10.254,-47.852
1687768891.724,-13.184,-24.902,-12.695,-2.930,220.703
1687768891.728,-17.578,-24.414,-11.719,0.000,338.379
1687768891.732,-27.832,-28.320,-14.648,-18.066,-19.531
1687768891.736,-31.250,-33.203,-18.555,-21.973,-110.840
1687768891.738,-17.090,-38.086,-12.207,10.742,-70.312
1687768891.742,6.348,-32.227,-7.812,28.320,-81.055
1687768891.746,-2.441,-21.484,-12.695,-8.301,-85.938
1687768891.750,-5.859,-23.438,-16.602,-28.809,-11.230
1687768891.754,15.625,-27.832,-21.484,-2.441,30.762
1687768891.758,22.461,-30.762,-28.809,10.742,-8.301
1687768891.762,21.973,-26.367,-34.668,10.254,-63.477
1687768891.765,34.180,-23.438,-41.016,27.344,-56.641
1687768891.769,41.016,-28.809,-36.133,42.480,142.090
1687768891.773,28.809,-30.273,-30.273,26.367,-50.293
1687768891.777,32.715,-32.227,-35.645,18.066,-159.180
1687768891.781,45.898,-35.156,-33.203,21.973,-25.879
1687768891.783,39.551,-36.133,-30.762,19.043,-35.645
1687768891.787,23.926,-36.621,-32.715,14.648,-12.695
1687768891.791,19.043,-37.109,-30.762,7.324,-47.852
1687768891.795,19.043,-32.715,-22.461,10.254,38.574
1687768891.799,23.438,-31.250,-18.066,9.277,-29.785
1687768891.803,26.855,-34.180,-20.508,3.418,-124.023
1687768891.807,21.484,-41.016,-19.531,0.977,-112.305
1687768891.810,17.090,-42.969,-19.043,-3.418,200.684
1687768891.814,12.207,-30.762,-21.484,-6.348,244.629
1687768891.818,-5.371,-26.367,-24.414,-15.137,-128.418
1687768891.822,-8.301,-32.715,-26.367,-18.555,-89.355
1687768891.826,2.441,-31.250,-26.855,-18.066,-37.598
1687768891.828,-0.977,-28.809,-23.438,-17.090,-148.926
1687768891.832,-5.371,-39.062,-28.809,-13.672,-122.559
1687768891.836,-11.230,-45.898,-33.203,-13.184,-98.633
1687768891.840,-7.812,-38.086,-26.367,-18.066,-71.777
1687768891.844,-4.883,-34.180,-26.367,-24.414,-79.590
1687768891.848,-18.066,-37.598,-27.344,-30.762,-57.617
1687768891.852,-15.137,-39.062,-22.949,-29.297,88.379
1687768891.855,-5.371,-33.691,-18.066,-20.996,222.168
1687768891.859,-5.859,-31.738,-14.648,-28.320,-23.438
1687768891.863,-1.953,-33.203,-19.043,-30.762,-171.387
1687768891.867,-1.953,-33.691,-18.066,-29.297,-46.875
1687768891.871,-1.465,-34.668,-13.184,-28.809,-89.844
1687768891.873,-1.465,-35.645,-15.137,-24.902,-163.574
1687768891.877,0.488,-40.039,-16.113,-27.832,-72.266
1687768891.881,-6.348,-45.410,-18.555,-27.344,81.543
1687768891.885,-26.367,-39.551,-16.113,-29.785,-31.250
1687768891.889,-21.973,-36.133,-8.789,-33.203,-179.688
1687768891.893,-8.301,-38.086,-8.301,-28.809,2.441
1687768891.897,-8.301,-34.668,-9.766,-27.832,261.719
1687768891.900,-14.160,-29.297,-6.348,-21.973,79.590
1687768891.904,-31.250,-31.738,-7.812,-20.020,-173.340
1687768891.908,-28.809,-33.691,-9.277,-24.414,-79.590
1687768891.912,-17.090,-33.203,-9.277,-24.414,78.613
1687768891.916,-13.672,-36.133,-7.324,-29.297,-62.988
1687768891.919,-15.137,-38.574,-5.371,-26.855,-121.094
1687768891.923,-9.277,-39.551,-5.371,-24.414,-64.453
1687768891.927,-9.766,-36.621,-7.324,-41.504,-62.500
1687768891.931,-25.879,-33.203,-5.859,-51.270,-87.402
1687768891.935,-40.039,-36.621,-5.371,-44.922,-91.797
1687768891.939,-55.176,-41.016,-10.742,-50.293,9.766
1687768891.943,-62.988,-35.645,-12.695,-56.641,31.250
1687768891.946,-54.199,-33.691,-9.277,-61.523,-95.215
1687768891.950,-47.363,-41.504,-9.766,-66.406,-162.598
1687768891.954,-32.227,-40.039,-7.812,-60.547,28.809
1687768891.958,-34.180,-38.574,-4.883,-57.617,93.262
1687768891.962,-52.734,-36.621,-4.395,-62.988,-74.219
1687768891.978,-56.641,-38.086,-2.930,-55.664,-103.027
1687768891.982,-50.293,-39.551,3.906,-42.480,116.211
1687768891.986,-49.805,-34.180,8.789,-46.387,126.953
1687768891.990,-41.992,-31.738,5.859,-49.316,-136.230
1687768891.994,-41.992,-34.668,2.441,-52.734,-106.934
1687768891.998,-46.387,-36.133,3.906,-52.246,277.344
1687768892.002,-42.480,-34.180,8.301,-47.852,199.219
1687768892.005,-41.016,-35.645,8.789,-53.711,-184.570
1687768892.009,-36.621,-38.574,6.348,-49.316,-116.699
1687768892.013,-38.574,-39.062,6.348,-48.340,79.590
1687768892.017,-38.086,-40.039,6.348,-49.805,-7.324
1687768892.021,-34.668,-43.457,10.742,-41.016,-78.125
1687768892.024,-42.969,-39.062,16.113,-39.062,-53.711
1687768892.028,-41.992,-38.086,11.719,-40.527,-46.875
1687768892.032,-43.457,-39.551,7.324,-46.875,-24.902
1687768892.036,-52.246,-35.645,9.277,-54.688,-84.473
1687768892.040,-57.617,-36.133,12.695,-59.082,-94.238
1687768892.044,-50.293,-37.109,9.277,-53.711,71.777
1687768892.048,-36.133,-35.645,8.789,-47.363,80.566
1687768892.051,-40.039,-39.551,11.719,-50.293,-121.094
1687768892.055,-62.012,-41.992,15.625,-46.875,-56.152
1687768892.059,-66.895,-40.527,12.695,-39.062,90.820
1687768892.063,-61.523,-41.992,4.883,-38.574,-114.258
1687768892.067,-54.199,-42.480,1.953,-32.715,-187.500
1687768892.068,-43.457,-41.992,2.441,-33.691,-66.406
1687768892.072,-57.129,-41.504,3.906,-51.270,-69.336
1687768892.076,-64.941,-40.039,6.348,-63.477,-222.656
1687768892.080,-58.105,-37.109,3.418,-54.688,-262.207
1687768892.084,-62.012,-34.668,-3.906,-40.039,-41.992
1687768892.088,-69.336,-28.809,-1.953,-35.156,27.832
1687768892.092,-67.383,-25.879,1.953,-41.016,-12.695
1687768892.095,-67.871,-27.344,0.977,-49.805,-53.223
1687768892.099,-67.383,-29.785,0.000,-40.527,176.758
1687768892.103,-61.523,-29.785,0.488,-38.086,205.566
1687768892.107,-60.059,-28.320,3.418,-48.340,-118.164
1687768892.111,-66.406,-30.762,2.441,-55.664,-128.418
1687768892.113,-78.613,-33.691,-2.930,-62.012,-78.613
1687768892.117,-73.730,-31.250,-2.930,-57.617,-111.816
1687768892.121,-68.848,-29.785,2.930,-57.617,-96.680
1687768892.125,-69.824,-34.180,4.883,-56.641,-82.031
1687768892.129,-71.289,-38.086,2.441,-56.641,-132.324
1687768892.133,-73.730,-41.504,0.488,-57.617,-107.422
1687768892.137,-70.801,-34.180,-2.930,-52.734,-42.969
1687768892.140,-75.684,-36.621,-5.859,-58.105,66.406
1687768892.144,-80.078,-37.598,-8.789,-64.453,266.602
1687768892.148,-81.543,-30.273,-10.254,-60.547,-23.926
1687768892.152,-79.590,-30.762,-13.672,-54.688,-237.793
1687768892.156,-64.453,-28.809,-14.648,-47.852,-74.707
1687768892.159,-58.594,-31.250,-12.207,-44.922,-68.359
1687768892.163,-66.406,-34.668,-10.254,-47.852,-121.582
1687768892.167,-76.660,-32.715,-8.789,-52.246,-98.633
1687768892.171,-98.145,-32.715,-12.207,-49.805,60.059
1687768892.175,-103.027,-34.180,-7.812,-44.434,67.871
1687768892.179,-87.402,-31.250,-5.859,-35.645,-61.523
1687768892.183,-83.496,-25.879,-8.301,-36.621,42.969
1687768892.186,-84.473,-30.273,-9.277,-43.945,254.883
1687768892.190,-79.102,-28.809,-9.766,-49.805,71.777
1687768892.194,-64.941,-22.461,-10.254,-49.805,-160.156
1687768892.198,-62.012,-21.484,-8.301,-49.316,-80.078
1687768892.202,-55.176,-22.949,-4.883,-52.734,-5.371
1687768892.204,-42.480,-23.438,-2.441,-56.641,-92.773
1687768892.208,-61.035,-29.297,-4.395,-59.082,-135.254
1687768892.212,-70.312,-31.250,-7.324,-48.828,-94.238
1687768892.216,-53.223,-26.367,-5.371,-41.504,-95.215
1687768892.220,-48.340,-29.785,-9.766,-44.922,-92.773
1687768892.224,-53.711,-34.668,-16.113,-50.781,-63.965
1687768892.228,-55.664,-31.738,-15.137,-48.340,92.773
1687768892.231,-50.293,-23.926,-13.184,-44.434,263.672
1687768892.235,-42.480,-27.344,-14.648,-47.852,-12.207
1687768892.239,-42.480,-38.574,-16.602,-45.410,-173.340
1687768892.243,-42.969,-36.133,-11.719,-51.270,-72.754
1687768892.247,-57.129,-37.598,-9.766,-62.988,-38.574
1687768892.250,-56.641,-39.551,-16.602,-61.523,-53.711
1687768892.254,-43.945,-29.297,-16.602,-57.129,-80.566
1687768892.258,-44.922,-23.926,-14.160,-51.270,88.379
1687768892.262,-38.086,-23.438,-14.160,-53.711,157.227
1687768892.266,-33.691,-22.461,-12.695,-63.477,-50.781
1687768892.270,-35.645,-24.902,-10.254,-61.035,-28.809
1687768892.274,-36.621,-27.832,-8.301,-46.387,257.324
1687768892.277,-41.992,-28.320,-6.836,-45.410,127.930
1687768892.281,-45.410,-24.902,-5.371,-52.246,-130.859
1687768892.285,-44.922,-24.902,-5.371,-58.594,-77.148
1687768892.289,-47.852,-28.320,-3.418,-62.500,-114.746
1687768892.293,-37.109,-27.832,-6.348,-61.035,-238.770
1687768892.295,-17.090,-24.414,-8.301,-54.688,-203.613
1687768892.299,-24.414,-21.484,-8.301,-58.105,-64.453
1687768892.303,-46.875,-26.367,-7.812,-57.617,-1.953
1687768892.307,-39.551,-26.855,3.906,-50.293,-73.730
1687768892.311,-26.367,-24.414,4.395,-45.410,-166.504
1687768892.315,-30.762,-31.250,-7.324,-41.016,28.320
1687768892.319,-30.273,-31.250,-9.277,-41.992,270.508
1687768892.322,-30.273,-23.926,-3.418,-47.363,33.691
1687768892.326,-35.156,-24.414,-0.488,-55.664,-135.742
1687768892.330,-23.926,-29.785,-3.906,-52.734,-60.059
1687768892.334,-26.855,-26.855,-4.883,-45.410,-14.648
1687768892.338,-37.598,-25.879,-4.395,-52.734,-181.641
1687768892.369,-37.598,-29.785,-3.418,-51.758,-220.215
1687768892.373,-37.109,-30.273,-10.254,-48.340,87.891
1687768892.377,-38.086,-27.344,-11.719,-56.641,68.848
1687768892.381,-29.297,-26.367,-7.812,-56.641,-139.648
1687768892.385,-27.832,-29.297,-12.695,-57.129,-137.207
1687768892.389,-42.480,-31.250,-15.625,-54.688,203.125
1687768892.393,-55.176,-30.762,-14.160,-58.105,278.320
1687768892.396,-49.805,-25.879,-13.672,-72.266,-154.297
1687768892.400,-40.039,-22.949,-13.672,-62.012,-186.035
1687768892.404,-33.691,-25.879,-11.230,-50.781,66.406
1687768892.408,-31.250,-35.156,-4.395,-53.711,-86.914
1687768892.412,-36.133,-32.227,-1.953,-59.570,-233.398
1687768892.398,-33.203,-25.879,-5.859,-66.406,-130.859
1687768892.402,-25.879,-27.832,-4.883,-64.453,-95.215
1687768892.406,-25.391,-30.273,-4.395,-62.988,-142.090
1687768892.410,-25.391,-29.297,-6.836,-58.594,-156.738
1687768892.414,-26.855,-28.809,-8.301,-58.594,-107.422
1687768892.418,-30.273,-30.273,-8.789,-65.430,-60.547
1687768892.422,-34.668,-35.645,-10.254,-63.477,-93.262
1687768892.425,-32.715,-37.109,-18.555,-63.477,-37.109
1687768892.429,-36.133,-30.762,-19.531,-58.594,37.109
1687768892.433,-45.898,-33.203,-16.602,-51.270,-84.473
1687768892.437,-40.039,-34.668,-17.090,-51.270,-82.520
1687768892.441,-31.250,-30.273,-12.695,-48.828,-72.754
1687768892.444,-25.879,-30.762,-14.648,-45.410,83.008
1687768892.448,-18.555,-29.297,-14.648,-38.574,476.562
1687768892.452,-24.902,-27.344,-5.371,-44.434,183.105
1687768892.456,-45.410,-27.344,-3.418,-52.246,-168.457
1687768892.460,-47.363,-33.203,-8.301,-39.551,-101.074
1687768892.464,-43.945,-42.969,-8.301,-35.156,-119.629
1687768892.468,-44.922,-39.062,-9.766,-49.316,-67.871
1687768892.471,-54.199,-35.156,-15.137,-58.594,-41.504
1687768892.475,-62.500,-37.109,-15.137,-54.688,192.383
1687768892.479,-48.828,-34.180,-15.625,-54.199,178.711
1687768892.483,-41.504,-33.203,-12.207,-61.523,-138.184
1687768892.487,-34.180,-34.180,-4.883,-56.152,-81.055
1687768892.489,-48.340,-33.691,-6.348,-50.781,-4.395
1687768892.493,-65.430,-37.109,-9.766,-57.617,-132.324
1687768892.497,-54.688,-38.574,-7.324,-53.711,-144.043
1687768892.501,-43.945,-33.203,-7.812,-53.711,-126.953
1687768892.505,-41.992,-29.297,-5.859,-50.781,-114.258
1687768892.509,-40.039,-28.320,-3.418,-49.805,5.371
1687768892.513,-37.598,-30.762,-2.930,-61.523,-42.480
1687768892.516,-36.621,-35.645,-10.254,-54.199,-12.695
1687768892.520,-38.086,-34.180,-7.812,-45.898,234.863
1687768892.524,-39.551,-31.250,-2.441,-53.711,12.695
1687768892.528,-43.457,-31.738,-7.812,-54.199,-119.141
1687768892.532,-49.316,-30.273,-13.672,-57.129,16.113
1687768892.534,-50.781,-27.344,-14.648,-56.152,-26.367
1687768892.538,-43.945,-28.320,-10.254,-47.363,-83.984
1687768892.542,-36.133,-32.227,-15.137,-48.828,-125.488
1687768892.546,-48.340,-41.504,-22.949,-51.758,38.086
1687768892.550,-56.152,-40.527,-15.625,-54.688,24.414
1687768892.554,-48.828,-34.180,-11.719,-48.828,-134.277
1687768892.558,-43.945,-34.668,-13.672,-44.922,-64.453
1687768892.561,-33.691,-33.691,-10.742,-44.434,199.219
1687768892.565,-33.203,-32.227,-6.836,-43.457,78.613
1687768892.569,-37.109,-34.180,-8.789,-47.363,-182.617
1687768892.573,-43.945,-33.691,-8.301,-51.758,-198.242
1687768892.577,-39.551,-30.273,-4.395,-50.781,-113.281
1687768892.579,-36.133,-26.855,-8.789,-40.039,-126.465
1687768892.583,-46.387,-29.785,-7.324,-46.387,-128.906
1687768892.587,-52.246,-29.785,-2.930,-49.316,10.742
1687768892.591,-53.223,-30.762,-7.812,-44.922,26.855
1687768892.595,-38.574,-37.109,-7.812,-41.016,-25.879
1687768892.599,-20.508,-36.621,-5.859,-36.621,42.480
1687768892.603,-31.738,-36.621,-9.277,-41.504,138.184
1687768892.606,-61.523,-36.133,-11.230,-37.109,237.793
1687768892.610,-58.594,-33.691,-8.789,-33.203,-7.812
1687768892.614,-49.316,-34.668,-7.324,-37.598,-192.383
1687768892.618,-47.363,-37.109,-8.301,-36.621,-96.680
1687768892.622,-38.574,-28.809,-8.789,-33.691,-55.664
1687768892.624,-51.758,-23.926,-10.254,-41.016,-83.984
1687768892.628,-57.129,-36.133,-8.789,-47.852,-49.805
1687768892.632,-53.711,-36.621,-10.742,-43.945,38.574
1687768892.636,-52.246,-33.691,-9.277,-38.086,31.250
1687768892.640,-41.504,-36.621,-8.789,-41.992,47.852
1687768892.644,-44.922,-36.621,-11.230,-49.805,35.645
1687768892.648,-55.664,-36.621,-13.672,-35.156,219.238
1687768892.651,-53.223,-38.574,-16.113,-31.738,277.832
1687768892.655,-48.340,-40.527,-12.207,-47.852,-73.242
1687768892.659,-45.898,-37.598,-9.766,-49.805,-163.086
1687768892.663,-41.016,-31.738,-9.277,-45.898,-96.680
1687768892.667,-47.852,-27.344,-6.348,-46.875,-149.414
1687768892.683,-48.828,-28.320,-2.930,-42.969,-139.648
1687768892.687,-47.852,-34.668,-6.836,-40.039,-116.211
1687768892.691,-52.246,-32.227,-14.648,-44.922,-92.773
1687768892.695,-56.152,-32.227,-21.484,-56.152,-95.215
1687768892.699,-60.059,-33.203,-18.066,-71.289,-125.000
1687768892.703,-59.082,-32.715,-16.602,-69.336,13.672
1687768892.707,-51.758,-31.738,-18.066,-56.641,136.719
1687768892.710,-53.711,-33.691,-15.625,-55.176,-11.230
1687768892.714,-63.965,-36.621,-16.113,-62.988,-180.176
1687768892.718,-71.289,-34.668,-14.648,-63.965,-28.320
1687768892.722,-64.941,-32.715,-12.695,-58.594,81.543
1687768892.726,-54.199,-34.180,-17.578,-62.988,-127.930
1687768892.729,-62.012,-37.109,-15.137,-63.477,-112.793
1687768892.733,-69.824,-35.645,-12.695,-62.988,108.398
1687768892.737,-70.312,-34.180,-5.859,-69.824,90.820
1687768892.741,-69.336,-32.715,-9.277,-71.289,-89.844
1687768892.745,-72.266,-34.668,-14.648,-77.637,-75.684
1687768892.749,-65.430,-39.551,-4.395,-75.195,148.438
1687768892.753,-80.078,-37.109,-5.859,-74.707,85.449
1687768892.756,-90.332,-32.715,-7.812,-69.824,-162.109
1687768892.760,-81.543,-35.156,-5.371,-66.406,-87.402
1687768892.764,-82.520,-25.879,4.883,-69.336,167.969
1687768892.768,-99.609,-24.902,16.113,-90.820,-57.617
1687768892.772,-124.023,-29.785,15.137,-122.559,-256.836
1687768892.775,-152.344,-22.949,4.883,-138.184,-112.305
1687768892.779,-166.504,-13.184,8.789,-151.367,170.898
1687768892.783,-171.875,-19.531,26.367,-184.570,51.270
1687768892.787,-189.453,-22.949,25.879,-204.590,-180.664
1687768892.791,-219.238,-11.719,19.043,-218.262,-105.957
1687768892.795,-230.469,-5.859,23.438,-237.305,11.719
1687768892.799,-235.352,-2.930,18.555,-255.371,-69.824
1687768892.802,-239.258,6.348,18.555,-261.230,-174.805
1687768892.806,-246.582,6.836,28.809,-260.254,-20.996
1687768892.810,-252.930,8.301,20.996,-271.973,160.645
1687768892.814,-257.812,20.996,13.672,-287.109,-31.738
1687768892.818,-256.836,16.602,13.184,-288.574,-78.125
1687768892.821,-252.930,12.695,7.812,-281.738,87.402
1687768892.825,-259.766,18.555,0.977,-281.738,94.238
1687768892.829,-260.742,13.672,-11.719,-280.273,-76.172
1687768892.833,-258.789,13.672,-14.648,-267.090,-164.551
1687768892.837,-253.906,19.531,-13.184,-253.418,20.996
1687768892.841,-239.258,22.461,-17.578,-256.836,59.570
1687768892.845,-229.980,20.020,-13.672,-258.301,-107.422
1687768892.848,-228.027,14.160,-16.113,-252.930,-95.703
1687768892.852,-220.703,17.578,-14.648,-234.375,172.363
1687768892.856,-217.773,14.160,-2.441,-226.562,123.047
1687768892.860,-208.008,11.230,-2.930,-227.539,-148.438
1687768892.864,-199.707,17.578,-5.859,-234.863,-108.398
1687768892.864,-189.453,15.625,-4.883,-224.609,-21.484
1687768892.868,-182.617,7.324,-3.418,-209.473,6.348
1687768892.872,-176.270,11.719,-7.324,-218.262,-81.055
1687768892.876,-162.109,12.207,-8.789,-208.984,-83.984
1687768892.880,-153.320,1.465,-5.371,-186.523,-6.348
1687768892.884,-151.855,3.418,-2.441,-178.223,15.625
1687768892.888,-161.133,0.977,-10.254,-188.477,-36.621
1687768892.891,-161.133,-12.695,-14.648,-190.430,-10.254
1687768892.895,-154.297,-5.859,-7.812,-185.059,239.746
1687768892.899,-149.902,0.000,-13.672,-181.641,6.836
1687768892.903,-131.348,-4.395,-18.066,-164.062,-156.250
1687768892.907,-125.488,-6.348,-20.508,-151.855,-86.426
1687768892.908,-133.301,-1.465,-24.902,-155.273,-115.723
1687768892.912,-126.465,0.000,-21.973,-157.715,-73.242
1687768892.916,-119.629,0.488,-20.996,-148.926,-154.297
1687768892.920,-125.488,-3.906,-20.020,-137.695,13.672
1687768892.924,-112.305,-7.324,-19.531,-126.465,108.887
1687768892.928,-98.633,-1.465,-26.855,-124.512,14.160
1687768892.932,-98.633,-0.977,-33.691,-125.977,80.566
1687768892.935,-86.914,-3.418,-28.320,-114.258,254.395
1687768892.939,-62.500,3.418,-22.461,-95.215,118.164
1687768892.943,-54.688,9.766,-21.973,-95.215,-159.668
1687768892.947,-77.637,6.348,-20.020,-104.004,-172.852
1687768892.951,-85.449,6.348,-28.320,-93.750,-157.227
1687768892.953,-71.289,11.719,-35.645,-79.590,-170.410
1687768892.957,-65.430,9.277,-37.109,-86.914,-169.922
1687768892.961,-54.199,1.465,-43.945,-89.844,-106.934
1687768892.965,-42.480,0.488,-50.293,-83.984,6.836
1687768892.969,-48.828,-1.465,-48.828,-81.543,-78.125
1687768892.973,-55.176,-13.672,-52.246,-79.590,-153.320
1687768892.977,-44.434,-16.113,-54.688,-67.383,87.891
1687768892.980,-52.246,-15.625,-48.828,-62.012,306.641
1687768892.984,-41.504,-18.555,-49.316,-60.547,23.438
1687768892.988,-4.395,-11.719,-54.688,-40.039,-121.094
1687768892.992,5.859,-7.324,-58.594,-20.508,-61.035
1687768892.996,-3.418,-19.531,-63.477,-13.672,-67.383
1687768892.998,2.930,-30.273,-64.453,-10.254,-98.145
1687768893.002,11.230,-35.156,-68.359,-9.277,-54.688
1687768893.006,10.742,-45.898,-64.941,6.836,-2.441
1687768893.010,13.184,-55.664,-57.617,18.066,-74.219
1687768893.014,18.555,-59.570,-60.547,21.484,-118.652
1687768893.018,29.785,-65.430,-54.688,34.180,-72.754
1687768893.022,22.461,-74.219,-50.781,42.480,166.016
1687768893.025,22.949,-80.078,-49.316,43.457,77.637
1687768893.029,42.969,-83.496,-43.945,46.387,-210.449
1687768893.033,53.223,-90.820,-41.992,44.922,-149.902
1687768893.037,50.781,-94.727,-41.504,55.664,-45.898
1687768893.041,58.594,-95.215,-42.480,69.336,-99.121
1687768893.043,75.684,-94.727,-37.598,81.543,-133.301
1687768893.047,80.078,-93.750,-29.297,92.773,-111.328
1687768893.051,81.543,-95.215,-30.762,109.863,-89.844
1687768893.055,75.195,-97.168,-36.621,126.953,-120.605
1687768893.059,64.941,-105.957,-39.062,126.953,-127.441
1687768893.063,80.566,-106.934,-39.062,126.953,-4.395
1687768893.067,95.703,-105.957,-35.645,134.277,128.906
1687768893.070,102.051,-105.957,-33.203,143.066,-24.414
1687768893.074,110.840,-102.051,-35.645,139.648,-164.062
1687768893.078,101.074,-105.957,-41.016,136.230,-42.969
1687768893.082,96.191,-108.398,-41.016,137.695,124.512
1687768893.086,104.004,-101.562,-41.016,130.371,5.859
1687768893.118,108.398,-97.656,-41.992,118.652,-119.141
1687768893.122,108.398,-99.609,-41.992,122.070,202.637
1687768893.126,91.309,-97.656,-43.457,120.605,242.188
1687768893.130,66.406,-95.215,-38.086,105.957,-178.711
1687768893.134,68.359,-90.332,-35.645,100.098,-207.520
1687768893.138,84.473,-82.031,-38.574,106.445,-3.418
1687768893.142,88.379,-81.055,-40.527,103.516,-51.270
1687768893.145,81.543,-76.660,-42.480,93.750,-172.363
1687768893.149,70.801,-75.684,-47.852,84.473,-154.297
1687768893.153,65.430,-76.660,-41.992,83.984,87.402
1687768893.157,73.730,-67.383,-33.691,81.543,23.438
1687768893.161,70.312,-64.941,-36.621,81.543,-143.555
1687768893.149,61.523,-64.941,-36.133,76.172,-52.734
1687768893.153,58.594,-64.941,-35.645,65.430,-23.926
1687768893.157,52.734,-62.012,-36.133,62.988,-100.098
1687768893.161,43.457,-61.035,-39.551,58.105,-204.102
1687768893.165,53.711,-61.035,-40.039,51.758,-128.418
1687768893.169,68.848,-59.570,-33.203,51.270,57.617
1687768893.173,58.594,-56.152,-33.203,44.434,6.836
1687768893.176,39.551,-54.688,-34.180,35.645,-153.809
1687768893.180,30.273,-58.594,-31.250,41.504,-104.980
1687768893.184,32.715,-59.082,-30.762,44.922,-37.109
1687768893.188,32.715,-55.664,-29.297,36.621,-86.426
1687768893.192,20.508,-57.617,-30.762,19.531,-160.156
1687768893.194,5.859,-61.035,-39.551,14.160,25.391
1687768893.198,2.441,-52.246,-33.203,23.926,326.172
1687768893.202,2.930,-44.434,-29.297,9.766,15.625
1687768893.206,-6.348,-45.898,-25.391,-12.207,-131.836
1687768893.210,-23.926,-50.293,-12.695,-26.855,57.129
1687768893.214,-41.504,-48.828,-18.066,-44.434,43.945
1687768893.218,-64.941,-57.617,-26.367,-75.195,-95.215
1687768893.221,-62.500,-59.082,-15.137,-84.473,-96.191
1687768893.225,-71.777,-49.316,-14.648,-86.914,143.555
1687768893.229,-97.656,-44.434,-13.184,-110.352,20.020
1687768893.233,-106.934,-40.527,-9.766,-132.812,-243.652
1687768893.237,-127.441,-31.738,-26.855,-143.066,-158.203
1687768893.240,-146.973,-16.602,-32.715,-145.508,-148.926
1687768893.244,-160.645,-29.785,-29.297,-165.527,-233.887
1687768893.248,-203.613,-47.363,-30.762,-205.566,-180.176
1687768893.252,-219.727,-41.504,-22.949,-216.309,-174.805
1687768893.256,-217.285,-28.809,-20.508,-208.984,-177.246
1687768893.260,-210.938,-17.578,-8.301,-213.867,-44.434
1687768893.264,-215.820,-14.160,12.207,-230.469,31.250
1687768893.267,-219.238,-17.578,22.461,-239.258,104.492
1687768893.271,-204.102,-9.766,34.668,-216.309,383.789
1687768893.275,-199.219,0.977,40.039,-208.008,107.422
1687768893.279,-187.988,2.441,43.457,-205.566,-184.570
1687768893.283,-179.688,7.812,48.828,-201.172,-66.406
1687768893.283,-188.965,7.324,53.223,-214.844,-35.645
1687768893.287,-181.152,2.930,63.965,-213.379,9.766
1687768893.291,-180.664,-0.488,61.035,-215.820,-9.766
1687768893.295,-170.898,2.441,54.199,-196.289,35.645
1687768893.299,-158.691,0.977,66.406,-176.270,-47.363
1687768893.303,-170.410,4.395,74.219,-184.082,-106.445
1687768893.307,-184.082,9.277,80.566,-183.594,-80.566
1687768893.310,-178.711,7.324,85.449,-172.363,160.645
1687768893.314,-155.762,8.789,90.332,-145.020,410.156
1687768893.318,-156.738,10.254,84.961,-147.949,20.020
1687768893.322,-158.203,7.812,82.031,-161.621,-200.195
1687768893.326,-147.461,7.812,90.820,-163.574,-114.258
1687768893.328,-137.695,8.301,88.379,-158.203,-163.574
1687768893.332,-132.812,6.348,97.168,-149.902,-150.879
1687768893.336,-124.023,5.371,105.957,-132.324,-127.930
1687768893.340,-121.094,5.371,99.121,-129.395,-162.109
1687768893.344,-131.836,1.953,91.309,-129.883,-154.297
1687768893.348,-125.488,0.000,91.309,-113.770,-88.379
1687768893.352,-122.070,-4.395,89.355,-111.816,-20.020
1687768893.355,-116.699,-4.395,97.168,-109.375,157.227
1687768893.359,-113.770,-4.883,99.609,-112.305,16.602
1687768893.363,-111.328,-5.371,98.633,-103.516,-148.926
1687768893.367,-95.703,-6.836,108.887,-83.008,2.930
1687768893.371,-85.449,-10.254,113.281,-79.590,-30.762
1687768893.373,-73.242,-14.160,113.281,-71.777,-142.578
1687768893.377,-48.340,-17.578,118.164,-54.688,-45.898
1687768893.381,-27.832,-20.508,121.582,-30.762,55.176
1687768893.385,-16.602,-18.066,126.465,-13.184,15.625
1687768893.389,-1.953,-26.367,131.348,-6.836,-162.598
1687768893.393,11.719,-41.504,133.301,4.395,-65.430
1687768893.397,17.578,-38.574,132.324,22.461,267.090
1687768893.400,29.297,-29.785,133.789,45.410,153.320
1687768893.404,45.898,-40.527,132.812,49.805,-150.391
1687768893.408,53.223,-48.340,129.883,48.340,-133.301
1687768893.412,69.824,-43.945,126.953,66.895,-53.711
1687768893.416,84.961,-46.387,115.234,80.566,-79.590
1687768893.419,76.660,-52.246,104.980,77.637,-88.867
1687768893.423,70.801,-58.594,97.168,71.289,-11.719
1687768893.427,81.543,-60.547,84.473,73.242,-47.852
1687768893.431,90.332,-60.547,73.242,87.402,-165.527
1687768893.435,89.844,-60.059,59.082,90.820,-168.945
1687768893.439,91.797,-63.965,36.133,85.938,-55.664
1687768893.443,98.633,-64.453,21.484,82.031,63.965
1687768893.446,87.402,-62.500,14.160,74.707,-22.949
1687768893.450,84.473,-65.918,-0.488,73.242,-119.141
1687768893.454,97.168,-64.941,-17.090,75.195,-48.340
1687768893.458,98.633,-58.594,-25.879,82.031,-15.625
1687768893.462,93.262,-57.617,-34.668,78.125,-107.910
1687768893.479,85.938,-56.152,-45.410,72.266,-110.840
1687768893.483,81.055,-64.453,-55.176,77.148,127.930
1687768893.487,83.496,-71.777,-68.848,83.984,280.273
1687768893.491,92.773,-64.453,-79.590,84.961,-22.949
1687768893.495,88.867,-62.988,-90.332,76.172,-155.273
1687768893.499,75.684,-59.570,-98.145,69.336,188.965
1687768893.503,72.266,-51.270,-108.398,71.289,216.309
1687768893.506,75.684,-49.805,-124.023,75.195,-41.992
1687768893.510,73.242,-51.270,-128.906,61.523,-63.965
1687768893.514,69.336,-54.199,-136.230,53.223,64.941
1687768893.518,66.406,-55.176,-147.461,45.898,-82.031
1687768893.522,75.195,-55.664,-152.832,47.852,-155.273
1687768893.523,77.637,-55.176,-153.320,59.082,-69.824
1687768893.527,71.777,-56.152,-151.855,52.734,-57.129
1687768893.531,68.359,-56.152,-153.320,45.898,-111.328
1687768893.535,56.152,-58.594,-156.250,46.387,-232.422
1687768893.539,56.641,-58.105,-161.621,44.434,-194.824
1687768893.543,65.918,-53.223,-164.551,38.574,-132.812
1687768893.547,55.664,-52.246,-165.527,43.945,-78.613
1687768893.550,40.527,-48.340,-164.062,54.688,-113.770
1687768893.554,41.504,-47.852,-163.574,50.781,-16.602
1687768893.558,37.598,-51.270,-159.180,41.992,334.473
1687768893.562,42.480,-51.270,-157.715,28.809,143.555
1687768893.566,49.316,-51.758,-159.180,28.809,-92.285
1687768893.568,38.574,-54.688,-156.738,36.621,5.859
1687768893.572,30.273,-53.223,-155.762,28.320,16.602
1687768893.576,35.156,-48.828,-150.879,32.715,-134.766
1687768893.580,45.898,-52.246,-151.855,34.668,-136.719
1687768893.584,36.621,-54.688,-157.715,37.109,116.699
1687768893.588,25.391,-51.270,-157.715,30.273,126.953
1687768893.592,27.344,-48.828,-156.250,12.207,-57.617
1687768893.595,37.598,-47.363,-153.320,9.277,-57.129
1687768893.599,32.715,-54.688,-150.879,17.578,225.586
1687768893.603,20.508,-50.781,-146.973,16.602,193.359
1687768893.607,15.137,-44.922,-140.137,8.301,-129.883
1687768893.611,3.418,-47.363,-136.719,3.906,-141.113
1687768893.614,2.930,-45.898,-139.648,-5.859,-94.238
1687768893.618,10.742,-49.316,-137.207,-9.277,-116.211
1687768893.622,13.184,-51.758,-138.672,-5.859,-103.516
1687768893.626,11.719,-47.363,-134.766,-6.348,-88.379
1687768893.630,6.836,-48.340,-129.883,-11.230,-81.055
1687768893.634,-6.348,-53.223,-131.348,-16.113,-69.336
1687768893.638,-12.207,-56.152,-131.348,-13.672,-63.965
1687768893.641,-4.395,-58.594,-129.883,-8.301,1.465
1687768893.645,1.465,-56.641,-125.488,-7.324,133.789
1687768893.649,-3.906,-50.781,-125.000,-10.254,-59.082
1687768893.653,-1.465,-52.734,-120.605,-7.812,-149.902
1687768893.657,4.883,-56.641,-114.258,-2.930,17.090
1687768893.658,-1.953,-53.223,-114.258,1.465,118.652
1687768893.662,-7.812,-50.293,-110.352,2.930,56.152
1687768893.666,-4.883,-51.758,-108.887,-3.418,-81.543
1687768893.670,-13.672,-56.641,-104.980,-6.836,-27.344
1687768893.674,-16.602,-51.758,-97.168,-14.160,-9.766
1687768893.678,-12.207,-50.293,-96.680,-22.949,-97.656
1687768893.682,-16.602,-53.711,-99.121,-21.484,-104.004
1687768893.685,-15.137,-52.246,-99.609,-22.949,99.121
1687768893.689,-20.020,-50.293,-97.656,-21.484,76.660
1687768893.693,-23.438,-45.410,-93.750,-20.996,-166.016
1687768893.697,-23.926,-42.480,-88.379,-21.973,-114.258
1687768893.701,-29.297,-43.945,-88.867,-25.879,-17.090
1687768893.703,-29.297,-48.828,-91.309,-28.809,-48.340
1687768893.707,-24.902,-47.363,-89.355,-26.855,-145.996
1687768893.711,-21.484,-43.457,-85.449,-31.250,-79.102
1687768893.715,-9.277,-46.875,-84.473,-33.691,-79.102
1687768893.719,-14.648,-53.711,-86.914,-28.809,-152.832
1687768893.723,-34.668,-51.758,-79.590,-28.320,-124.512
1687768893.727,-29.297,-46.875,-75.195,-28.320,23.438
1687768893.730,-14.648,-50.293,-79.102,-27.344,194.824
1687768893.734,-9.277,-51.758,-73.730,-30.762,-5.371
1687768893.738,-13.184,-49.805,-73.242,-30.273,-130.859
1687768893.742,-16.113,-45.410,-75.195,-31.738,-67.383
1687768893.746,-18.066,-36.133,-73.242,-39.062,-110.352
1687768893.749,-23.926,-35.156,-70.801,-38.086,-97.656
1687768893.753,-21.484,-43.457,-71.777,-32.715,1.465
1687768893.757,-24.902,-43.945,-69.824,-29.785,170.898
1687768893.761,-27.344,-35.156,-66.895,-26.855,205.078
1687768893.765,-30.273,-35.156,-67.871,-33.203,-81.055
1687768893.769,-30.762,-37.109,-69.824,-39.062,-82.031
1687768893.773,-25.879,-36.133,-68.359,-33.203,102.539
1687768893.776,-28.320,-33.691,-66.895,-42.480,-84.961
1687768893.780,-29.297,-30.762,-69.336,-53.223,-242.676
1687768893.784,-35.156,-37.598,-68.359,-55.664,-114.258
1687768893.788,-35.645,-37.109,-67.383,-59.570,94.727
1687768893.792,-34.668,-35.645,-63.965,-55.664,-32.227
1687768893.793,-39.062,-39.551,-59.082,-51.758,-130.859
1687768893.797,-47.363,-41.504,-62.500,-49.316,-84.961
1687768893.801,-47.852,-40.039,-65.918,-48.828,-101.562
1687768893.805,-34.668,-33.203,-62.988,-55.664,-134.766
1687768893.809,-32.715,-29.785,-62.012,-52.246,-160.645
1687768893.813,-41.016,-34.668,-60.547,-39.551,-16.602
1687768893.817,-41.016,-37.598,-55.664,-25.391,338.867
1687768893.820,-49.805,-37.598,-57.129,-32.227,77.148
1687768893.824,-52.246,-38.086,-59.082,-39.062,-191.406
1687768893.828,-46.875,-35.645,-55.176,-31.738,-92.285
1687768893.832,-40.039,-33.691,-54.688,-33.691,-87.402
1687768893.836,-32.715,-40.527,-55.664,-39.551,-105.957
1687768893.868,-33.691,-43.945,-57.129,-39.551,-126.465
1687768893.872,-45.898,-42.969,-57.617,-44.922,12.695
1687768893.876,-37.109,-37.109,-60.059,-41.992,66.406
1687768893.880,-24.414,-32.227,-57.617,-32.227,-122.559
1687768893.884,-33.203,-30.273,-55.664,-33.203,-149.414
1687768893.888,-39.551,-29.785,-62.012,-37.598,12.207
1687768893.892,-44.922,-29.297,-61.035,-37.109,60.059
1687768893.895,-41.504,-30.762,-53.711,-36.133,8.301
1687768893.899,-31.250,-33.691,-53.711,-34.180,-47.363
1687768893.903,-37.109,-36.133,-56.641,-22.461,180.176
1687768893.907,-53.223,-33.691,-50.781,-23.438,91.309
1687768893.911,-49.316,-29.297,-47.363,-31.738,-201.172
1687768893.899,-33.691,-24.414,-50.293,-25.391,-157.227
1687768893.903,-20.508,-23.926,-53.223,-19.043,-111.328
1687768893.907,-20.996,-32.227,-46.875,-12.207,-158.203
1687768893.911,-24.414,-26.367,-43.945,-10.254,-229.004
1687768893.915,-23.926,-18.066,-53.223,-20.508,-96.680
1687768893.919,-32.715,-18.066,-50.293,-29.297,34.180
1687768893.923,-36.621,-17.090,-49.316,-29.297,7.324
1687768893.926,-31.738,-19.531,-53.223,-20.508,-36.133
1687768893.930,-35.156,-27.832,-55.664,-30.273,-42.480
1687768893.934,-39.551,-28.320,-59.082,-41.992,6.348
1687768893.938,-36.621,-29.297,-60.547,-40.527,-118.652
1687768893.942,-23.926,-35.156,-64.453,-42.969,-185.059
1687768893.944,-10.254,-36.621,-67.871,-41.504,98.145
1687768893.948,-7.812,-33.691,-62.988,-42.480,259.766
1687768893.952,-23.438,-33.691,-60.547,-45.898,-39.551
1687768893.956,-32.715,-35.156,-60.547,-46.387,-259.277
1687768893.960,-21.484,-37.109,-59.082,-41.016,31.250
1687768893.964,-20.020,-33.691,-57.617,-30.273,381.348
1687768893.968,-31.738,-33.203,-55.664,-28.809,55.176
1687768893.971,-34.668,-32.715,-50.781,-32.227,-86.426
1687768893.975,-32.227,-28.809,-49.316,-24.414,145.508
1687768893.979,-36.133,-31.738,-51.270,-31.738,104.980
1687768893.983,-37.598,-35.156,-43.945,-35.156,-157.227
1687768893.987,-41.504,-33.691,-41.016,-32.715,-156.250
1687768893.989,-56.152,-34.668,-49.316,-53.223,-56.641
1687768893.993,-63.477,-37.598,-51.270,-60.059,-79.590
1687768893.997,-58.594,-37.598,-51.270,-46.387,-87.402
1687768894.001,-57.617,-38.574,-50.781,-45.898,-78.613
1687768894.005,-59.082,-38.574,-49.805,-48.828,-26.367
1687768894.009,-50.781,-39.551,-49.316,-45.898,18.555
1687768894.013,-54.688,-40.039,-49.316,-55.176,10.254
1687768894.016,-57.617,-40.039,-48.340,-59.082,20.508
1687768894.020,-56.152,-41.504,-48.828,-57.617,118.164
1687768894.024,-58.594,-43.457,-52.734,-67.383,-73.242
1687768894.028,-58.594,-50.781,-58.594,-74.707,-173.828
1687768894.032,-61.035,-48.828,-60.547,-70.312,-83.496
1687768894.034,-51.758,-36.133,-57.129,-59.082,-104.980
1687768894.038,-38.086,-32.227,-48.828,-52.246,-96.680
1687768894.042,-37.598,-34.180,-45.898,-51.270,-86.914
1687768894.046,-56.152,-35.645,-52.734,-50.293,94.238
1687768894.050,-65.430,-37.109,-52.246,-51.758,91.797
1687768894.054,-54.688,-35.645,-53.711,-59.082,-52.734
1687768894.058,-45.410,-31.250,-53.711,-54.688,35.645
1687768894.061,-42.480,-29.785,-51.758,-43.457,154.297
1687768894.065,-52.734,-31.250,-52.246,-43.945,36.621
1687768894.069,-71.289,-33.203,-51.758,-53.223,-192.383
1687768894.073,-71.777,-39.062,-49.316,-58.105,-158.203
1687768894.077,-55.176,-37.598,-51.270,-53.223,-129.883
1687768894.080,-48.340,-29.785,-52.734,-47.363,-158.691
1687768894.084,-46.875,-31.738,-54.199,-57.129,-152.344
1687768894.088,-49.805,-34.668,-49.316,-63.477,-127.930
1687768894.092,-44.922,-30.762,-45.898,-60.547,-81.543
1687768894.096,-36.621,-26.855,-52.734,-53.223,-45.898
1687768894.100,-34.668,-26.855,-49.316,-53.711,2.441
1687768894.104,-39.062,-31.250,-53.711,-54.199,88.867
1687768894.107,-50.293,-32.227,-55.664,-53.223,287.109
1687768894.111,-49.316,-23.926,-48.828,-62.500,70.312
1687768894.115,-42.969,-24.902,-47.363,-56.641,-197.266
1687768894.119,-44.434,-34.668,-47.363,-52.734,-120.605
1687768894.123,-38.574,-38.086,-47.852,-59.082,-87.402
1687768894.123,-49.805,-35.156,-47.363,-62.500,-124.512
1687768894.127,-62.988,-36.621,-51.758,-64.941,-53.223
1687768894.131,-56.641,-41.504,-50.781,-67.871,2.930
1687768894.135,-49.805,-33.691,-47.852,-56.152,-76.172
1687768894.139,-53.711,-31.250,-52.246,-51.758,-77.637
1687768894.143,-61.523,-34.180,-53.711,-72.754,-3.906
1687768894.147,-55.664,-31.250,-51.758,-73.730,239.746
1687768894.150,-43.457,-27.344,-43.945,-50.781,436.035
1687768894.154,-35.645,-21.973,-42.480,-44.434,61.523
1687768894.158,-38.574,-18.555,-40.527,-50.781,-177.734
1687768894.162,-42.480,-15.137,-37.598,-51.758,-119.141
1687768894.166,-48.828,-18.555,-45.410,-52.246,-173.828
1687768894.169,-47.852,-23.926,-46.875,-51.758,-117.188
1687768894.173,-28.809,-19.531,-41.016,-44.434,-105.469
1687768894.177,-26.367,-20.508,-44.434,-46.387,-87.402
1687768894.181,-35.645,-27.344,-46.387,-49.316,-104.492
1687768894.185,-36.133,-25.391,-42.480,-39.551,-174.805
1687768894.189,-45.898,-22.949,-44.922,-29.785,60.547
1687768894.193,-57.129,-26.855,-44.922,-28.320,126.953
1687768894.196,-47.363,-24.902,-46.387,-34.668,-113.281
1687768894.200,-52.734,-26.367,-46.875,-47.852,-193.359
1687768894.204,-58.105,-30.762,-47.852,-57.617,-16.113
1687768894.208,-41.016,-28.320,-48.340,-49.316,109.375
1687768894.212,-37.598,-25.879,-45.410,-43.457,-51.270
1687768894.228,-36.133,-23.438,-43.457,-44.922,-64.941
1687768894.232,-39.062,-22.949,-46.387,-42.969,63.477
1687768894.236,-50.781,-26.367,-44.922,-42.480,-65.918
1687768894.240,-37.598,-26.855,-38.574,-41.016,-259.766
1687768894.244,-31.250,-29.297,-39.551,-38.574,-242.188
1687768894.248,-46.875,-30.762,-40.527,-38.086,91.797
1687768894.252,-57.617,-29.785,-41.016,-41.016,116.211
1687768894.255,-57.617,-31.250,-45.410,-42.969,-171.387
1687768894.259,-48.340,-36.133,-46.875,-46.387,-190.918
1687768894.263,-55.176,-32.715,-41.504,-42.969,56.641
1687768894.267,-62.988,-32.227,-38.574,-35.156,24.414
1687768894.271,-56.641,-42.480,-37.109,-38.086,-101.074
1687768894.289,-69.824,-40.039,-34.668,-39.062,-42.969
1687768894.293,-66.406,-34.668,-38.574,-41.016,42.480
1687768894.297,-46.387,-32.227,-37.598,-46.875,-66.406
1687768894.301,-41.016,-34.180,-40.039,-51.270,-128.906
1687768894.305,-45.410,-33.691,-49.805,-51.758,-83.008
1687768894.309,-50.293,-31.738,-45.410,-49.805,-84.473
1687768894.313,-51.270,-29.297,-41.016,-49.805,-79.102
1687768894.316,-44.434,-26.855,-39.062,-42.969,-152.344
1687768894.320,-38.574,-36.133,-38.086,-33.691,7.812
1687768894.324,-50.293,-41.504,-41.992,-32.715,249.023
1687768894.328,-56.641,-38.574,-41.016,-37.109,-77.637
1687768894.332,-60.547,-36.133,-41.016,-43.457,-203.613
1687768894.319,-56.152,-35.156,-41.504,-35.156,-34.668
1687768894.323,-43.457,-37.598,-41.992,-31.738,27.832
1687768894.327,-38.574,-35.156,-40.039,-36.133,-53.711
1687768894.331,-48.340,-31.250,-38.086,-30.273,-183.105
1687768894.335,-54.688,-33.203,-44.922,-19.043,41.992
1687768894.339,-46.387,-41.016,-44.922,-8.789,221.191
1687768894.343,-40.039,-37.109,-38.086,-5.859,-21.973
1687768894.346,-41.992,-33.691,-36.621,-13.672,-57.129
1687768894.350,-39.062,-34.668,-38.086,-22.949,18.555
1687768894.354,-34.180,-33.203,-39.551,-29.785,-70.312
1687768894.358,-37.598,-34.180,-40.527,-30.273,-174.316
1687768894.362,-40.039,-31.738,-39.062,-22.949,-92.285
1687768894.363,-41.016,-34.668,-39.062,-15.137,202.637
1687768894.367,-39.551,-37.109,-37.109,-18.066,82.031
1687768894.371,-32.715,-28.809,-38.086,-22.461,-147.461
1687768894.375,-25.879,-28.320,-37.598,-27.344,-73.730
1687768894.379,-31.738,-28.320,-37.598,-24.414,-24.902
1687768894.383,-36.133,-23.438,-42.969,-17.578,9.766
1687768894.387,-31.250,-20.020,-43.457,-28.809,11.230
1687768894.390,-35.156,-20.020,-44.434,-36.133,61.035
1687768894.394,-39.551,-26.855,-43.945,-20.020,278.320
1687768894.398,-27.344,-28.809,-41.504,-20.020,38.086
1687768894.402,-32.227,-25.391,-43.945,-28.320,-195.312
1687768894.406,-36.133,-24.902,-43.457,-27.344,-116.699
1687768894.408,-40.039,-27.832,-41.016,-32.227,-102.051
1687768894.412,-50.781,-34.180,-40.039,-37.598,-80.566
1687768894.416,-40.039,-32.715,-35.645,-35.156,-154.785
1687768894.420,-34.180,-36.621,-38.574,-32.715,47.363
1687768894.424,-51.270,-41.992,-43.945,-38.086,62.988
1687768894.428,-59.082,-35.645,-38.086,-41.016,-34.668
1687768894.432,-50.781,-30.762,-33.691,-42.480,68.359
1687768894.435,-50.781,-33.691,-37.598,-36.133,294.922
1687768894.439,-50.293,-34.180,-38.086,-39.551,320.801
1687768894.443,-44.922,-30.273,-37.109,-50.781,-8.789
1687768894.447,-43.457,-26.855,-30.762,-53.223,-155.762
1687768894.451,-49.316,-30.273,-27.344,-56.152,-115.234
1687768894.453,-50.293,-32.227,-29.785,-57.129,-64.453
1687768894.457,-40.039,-31.250,-30.762,-60.547,-75.195
1687768894.461,-42.969,-34.180,-32.715,-56.152,-90.332
1687768894.465,-56.641,-37.109,-31.738,-59.570,-103.027
1687768894.469,-49.805,-36.133,-35.645,-61.035,-123.047
1687768894.473,-48.340,-30.273,-40.527,-54.199,-67.383
1687768894.477,-47.852,-30.762,-34.180,-52.734,85.938
1687768894.480,-31.738,-28.809,-31.738,-45.410,238.281
1687768894.484,-38.574,-28.320,-36.621,-46.387,-38.574
1687768894.488,-61.523,-31.738,-37.109,-47.852,-171.387
1687768894.492,-55.664,-33.691,-39.062,-42.480,-40.527
1687768894.496,-36.133,-34.668,-40.039,-41.992,-20.996
1687768894.498,-46.387,-33.203,-35.645,-45.410,-142.090
1687768894.502,-58.594,-30.762,-33.691,-46.387,-72.754
1687768894.506,-56.641,-26.855,-33.203,-45.410,108.887
1687768894.510,-42.480,-25.391,-26.367,-42.480,40.527
1687768894.514,-29.785,-30.273,-26.855,-43.457,-208.496
1687768894.518,-38.574,-31.738,-27.344,-42.969,-155.273
1687768894.522,-52.246,-34.668,-25.879,-41.504,172.363
1687768894.525,-56.152,-34.668,-25.879,-41.016,70.312
1687768894.529,-43.457,-32.715,-24.902,-41.016,-177.246
1687768894.533,-39.062,-37.109,-27.344,-38.574,-147.461
1687768894.537,-56.152,-42.969,-27.344,-42.480,11.230
1687768894.541,-61.035,-44.434,-26.855,-52.246,31.738
1687768894.545,-54.688,-41.016,-23.926,-54.199,-142.090
1687768894.549,-47.363,-42.480,-23.438,-51.758,-79.590
1687768894.553,-36.621,-40.527,-24.414,-46.387,23.438
1687768894.557,-41.504,-39.062,-26.367,-43.945,-85.449
1687768894.561,-53.223,-41.992,-23.926,-41.504,-121.094
1687768894.565,-53.711,-39.062,-20.996,-39.551,124.023
1687768894.569,-47.852,-32.715,-19.043,-40.527,243.652
1687768894.572,-57.129,-29.297,-19.043,-40.039,26.855
1687768894.576,-52.246,-28.809,-20.996,-37.109,-98.633
1687768894.580,-45.898,-31.250,-21.973,-44.434,-96.191
1687768894.584,-54.688,-31.738,-23.438,-49.805,-124.023
1687768894.588,-52.246,-30.762,-25.879,-51.758,-173.828
1687768894.603,-40.039,-35.156,-23.926,-48.828,-186.523
1687768894.607,-42.969,-35.156,-18.066,-40.039,35.156
1687768894.611,-53.223,-31.250,-20.508,-40.039,104.492
1687768894.615,-53.223,-29.785,-24.902,-48.828,-120.605
1687768894.619,-60.547,-35.645,-29.297,-47.852,-242.676
1687768894.623,-60.547,-38.086,-27.344,-37.109,86.426
1687768894.627,-52.246,-30.762,-21.484,-27.344,245.117
1687768894.630,-55.664,-27.344,-19.043,-28.809,-96.680
1687768894.634,-57.129,-33.203,-24.414,-34.180,-176.270
1687768894.638,-50.293,-33.691,-23.926,-33.691,56.152
1687768894.642,-45.898,-31.738,-18.066,-25.879,-41.504
1687768894.646,-41.504,-31.250,-20.508,-26.855,-154.297
1687768894.649,-43.945,-26.855,-22.461,-40.039,-53.223
1687768894.653,-46.387,-24.902,-21.484,-44.434,-64.941
1687768894.657,-43.457,-28.320,-21.973,-39.551,-87.402
1687768894.661,-32.227,-27.832,-25.391,-38.086,-72.266
1687768894.665,-22.949,-26.855,-24.414,-41.992,-56.641
1687768894.669,-25.879,-24.902,-21.973,-49.316,46.387
1687768894.673,-33.203,-22.949,-18.066,-43.457,23.438
1687768894.676,-43.945,-29.785,-15.625,-47.852,-99.121
1687768894.680,-51.758,-31.250,-18.066,-45.898,-3.418
1687768894.684,-49.805,-32.227,-19.043,-31.738,208.496
1687768894.688,-40.039,-34.668,-17.578,-41.504,4.883
1687768894.692,-48.340,-31.738,-20.020,-45.898,-173.340
1687768894.693,-54.688,-32.715,-23.926,-52.246,-118.652
1687768894.697,-48.828,-33.203,-20.020,-54.199,-60.059
1687768894.701,-47.363,-34.668,-20.020,-44.922,-159.180
1687768894.705,-46.387,-31.250,-21.484,-42.480,-162.598
1687768894.709,-48.828,-29.297,-20.020,-46.875,28.320
1687768894.713,-42.480,-34.668,-19.531,-45.410,50.293
1687768894.717,-34.180,-38.574,-21.484,-41.992,10.254
1687768894.720,-33.691,-41.992,-20.996,-47.852,43.457
1687768894.724,-33.203,-45.410,-19.043,-41.992,272.461
1687768894.728,-40.527,-38.574,-22.461,-39.062,201.172
1687768894.732,-46.875,-31.738,-29.785,-49.316,-145.020
1687768894.736,-39.062,-32.227,-26.367,-47.852,-157.715
1687768894.739,-37.109,-34.180,-23.926,-48.340,-88.379
1687768894.743,-36.621,-36.621,-27.344,-49.805,-113.281
1687768894.747,-40.039,-30.273,-24.902,-44.922,-163.574
1687768894.751,-54.688,-28.320,-20.996,-41.992,-190.430
1687768894.755,-41.992,-28.809,-11.719,-42.480,-204.102
1687768894.759,-28.809,-24.902,-7.812,-42.969,-135.742
1687768894.763,-40.527,-25.391,-15.625,-46.875,-113.281
1687768894.766,-60.547,-33.691,-18.066,-48.340,-43.945
1687768894.770,-69.336,-36.621,-15.625,-36.621,214.355
1687768894.774,-56.641,-33.203,-16.113,-41.016,41.992
1687768894.778,-41.992,-34.668,-15.625,-46.875,-121.094
1687768894.782,-42.969,-38.086,-16.602,-49.316,-59.082
1687768894.783,-44.922,-33.691,-14.160,-47.363,-41.016
1687768894.787,-50.781,-35.156,-16.113,-45.410,-45.410
1687768894.791,-45.898,-37.109,-19.531,-44.922,-125.977
1687768894.795,-41.016,-41.992,-18.555,-42.969,6.836
1687768894.799,-43.457,-44.922,-17.578,-42.969,21.973
1687768894.803,-47.363,-46.875,-18.555,-48.340,-134.277
1687768894.807,-49.316,-50.781,-21.484,-52.734,-86.914
1687768894.810,-48.340,-51.270,-20.996,-51.758,163.574
1687768894.814,-47.363,-41.504,-20.508,-63.965,58.105
1687768894.818,-47.363,-39.062,-22.949,-67.383,-184.570
1687768894.822,-51.758,-49.316,-25.391,-57.617,-99.121
1687768894.826,-62.012,-47.852,-25.879,-53.711,-1.953
1687768894.828,-61.523,-44.434,-21.484,-48.828,-120.117
1687768894.832,-49.316,-40.527,-17.578,-49.316,-136.719
1687768894.836,-39.551,-39.551,-15.625,-51.270,-55.664
1687768894.840,-53.711,-39.062,-14.648,-53.711,-65.918
1687768894.844,-76.660,-43.945,-15.625,-57.129,-108.398
1687768894.848,-71.289,-42.969,-11.719,-52.246,-61.035
1687768894.852,-59.082,-35.156,-11.230,-52.734,75.684
1687768894.855,-59.570,-38.086,-11.719,-55.176,229.492
1687768894.859,-53.223,-36.621,-10.742,-62.012,18.555
1687768894.863,-51.270,-36.621,-12.695,-66.895,-153.320
1687768894.867,-63.477,-40.039,-10.742,-81.055,-62.988
1687768894.871,-75.684,-36.133,-7.324,-97.168,-72.266
1687768894.890,-76.172,-33.691,-5.859,-107.422,-98.633
1687768894.894,-86.426,-36.621,0.000,-118.164,-34.180
1687768894.898,-114.258,-36.133,4.395,-128.906,173.828
1687768894.902,-140.137,-29.785,-4.395,-136.719,177.246
1687768894.906,-152.344,-17.578,-2.441,-151.367,-86.914
1687768894.910,-175.293,-23.438,5.371,-176.758,31.738
1687768894.914,-188.477,-26.855,5.859,-182.129,322.266
1687768894.917,-192.871,-21.484,11.230,-193.848,140.137
1687768894.921,-213.867,-17.090,20.020,-232.910,-168.945
1687768894.925,-230.469,-15.137,19.043,-256.836,-115.723
1687768894.929,-233.398,-10.254,27.832,-254.395,-71.777
1687768894.933,-253.906,-6.348,38.574,-258.789,-190.918
1687768894.919,-272.461,0.000,44.434,-275.391,-216.309
1687768894.923,-291.504,4.883,46.875,-298.828,-206.055
1687768894.927,-301.270,9.277,42.969,-312.500,-190.430
1687768894.931,-290.039,12.207,45.898,-311.523,-165.527
1687768894.935,-293.945,9.766,47.852,-313.477,-181.152
1687768894.939,-311.035,15.137,47.852,-322.754,25.391
1687768894.943,-321.777,22.461,54.688,-328.125,174.805
1687768894.946,-316.406,16.602,55.176,-332.520,-28.809
1687768894.950,-302.246,12.207,54.199,-318.359,-130.859
1687768894.954,-292.480,10.254,56.152,-305.176,38.086
1687768894.958,-294.434,0.977,56.641,-306.641,270.508
1687768894.962,-305.664,2.930,54.688,-308.594,-45.898
1687768894.979,-295.410,0.977,51.758,-299.805,-212.891
1687768894.983,-270.508,-1.953,50.293,-284.668,52.246
1687768894.987,-264.160,4.395,57.129,-273.438,37.598
1687768894.991,-267.090,1.953,58.105,-262.695,-127.441
1687768894.995,-268.066,-0.977,57.617,-247.070,-80.078
1687768894.999,-262.695,-11.719,49.316,-235.840,21.484
1687768895.003,-227.539,-14.160,48.340,-212.891,-50.781
1687768895.006,-214.355,-1.465,45.898,-218.262,-114.258
1687768895.010,-212.402,3.906,35.645,-226.074,-88.867
1687768895.014,-201.660,0.488,41.992,-207.031,134.766
1687768895.018,-199.707,0.000,46.387,-205.078,136.230
1687768895.022,-207.031,-8.301,49.805,-210.449,-186.523
1687768895.023,-205.078,-11.719,50.293,-202.637,-209.961
1687768895.027,-186.523,-16.602,49.316,-184.570,-105.469
1687768895.031,-171.875,-14.648,49.805,-169.434,-101.562
1687768895.035,-168.457,-9.277,42.480,-163.574,-129.395
1687768895.039,-161.621,-13.184,41.504,-162.109,-80.078
1687768895.043,-151.855,-13.672,44.922,-155.273,-15.625
1687768895.047,-155.273,-16.113,30.762,-148.438,-7.324
1687768895.050,-156.250,-16.602,25.879,-140.625,-6.836
1687768895.054,-138.672,-12.695,33.691,-128.906,62.500
1687768895.058,-130.371,-12.207,26.367,-130.371,302.734
1687768895.062,-126.953,-10.742,17.578,-130.859,106.445
1687768895.066,-117.676,-16.113,16.602,-113.281,-144.531
1687768895.069,-132.812,-22.461,17.578,-119.629,41.992
1687768895.073,-124.512,-14.160,23.926,-114.258,138.184
1687768895.077,-102.051,-15.137,22.949,-109.375,-92.773
1687768895.081,-105.469,-17.090,21.484,-115.723,-151.855
1687768895.085,-117.676,-16.602,20.508,-110.352,4.395
1687768895.089,-125.000,-13.672,19.531,-110.840,-25.879
1687768895.093,-112.305,-16.113,17.578,-101.562,-90.332
1687768895.096,-91.309,-25.391,19.531,-87.402,-109.375
1687768895.100,-82.031,-25.879,19.531,-71.289,76.172
1687768895.104,-76.172,-18.555,16.113,-74.707,88.867
1687768895.108,-66.406,-14.160,13.184,-84.473,-109.863
1687768895.112,-77.637,-22.949,10.254,-78.125,-165.039
1687768895.113,-94.238,-30.762,13.184,-78.125,-83.496
1687768895.117,-83.008,-23.926,3.906,-80.566,-112.305
1687768895.121,-63.965,-19.043,-0.977,-73.242,-155.273
1687768895.125,-66.406,-19.531,0.000,-68.359,-95.703
1687768895.129,-73.242,-20.508,5.371,-74.707,-42.480
1687768895.133,-75.684,-32.715,4.883,-70.801,13.672
1687768895.137,-74.707,-34.180,1.953,-70.801,25.879
1687768895.140,-71.289,-32.715,0.488,-71.777,33.203
1687768895.144,-61.035,-34.180,-0.977,-63.477,187.988
1687768895.148,-66.895,-29.785,1.465,-67.871,5.859
1687768895.152,-80.566,-38.574,1.953,-68.359,-147.461
1687768895.156,-61.523,-35.645,2.930,-60.547,-99.121
1687768895.159,-48.828,-28.809,1.953,-62.500,24.902
1687768895.163,-54.199,-35.645,1.465,-68.359,9.766
1687768895.167,-61.035,-36.133,1.465,-65.918,-142.578
1687768895.171,-61.523,-31.738,-1.953,-52.734,42.480
1687768895.175,-50.293,-28.320,-4.883,-42.969,78.613
1687768895.179,-53.223,-30.762,1.953,-43.457,-126.953
1687768895.183,-67.871,-32.227,9.277,-47.852,-30.273
1687768895.186,-69.824,-30.762,6.836,-48.828,111.816
1687768895.190,-62.500,-31.738,3.906,-48.828,-23.926
1687768895.194,-42.480,-32.715,3.418,-46.875,-197.266
1687768895.198,-39.062,-30.762,5.371,-41.016,-192.871
1687768895.202,-57.129,-20.508,3.418,-42.969,-110.352
1687768895.205,-58.105,-14.648,0.000,-54.688,-37.109
1687768895.209,-44.922,-10.742,4.395,-54.688,-72.266
1687768895.213,-39.062,-18.066,1.465,-38.574,-34.180
1687768895.217,-45.410,-23.926,0.977,-33.203,102.539
1687768895.221,-46.387,-19.043,6.836,-40.527,-13.184
1687768895.225,-40.039,-22.461,11.719,-42.969,-105.469
1687768895.229,-49.805,-20.996,7.812,-39.551,81.543
1687768895.232,-52.734,-16.602,-1.953,-41.992,296.875
1687768895.236,-46.875,-18.066,-2.441,-56.152,-4.883
1687768895.240,-52.734,-25.391,1.953,-48.340,-179.199
1687768895.244,-69.336,-26.855,0.000,-38.086,-65.430
1687768895.248,-69.336,-25.391,-1.465,-43.945,-100.098
1687768895.248,-57.129,-24.414,6.348,-52.734,-101.074
1687768895.252,-50.781,-26.855,11.230,-58.594,-13.672
1687768895.256,-43.457,-30.273,0.488,-55.176,93.750
1687768895.260,-41.016,-26.367,-1.953,-50.293,6.836
1687768895.264,-47.363,-23.926,8.301,-49.316,-174.805
1687768895.268,-42.480,-23.926,-1.953,-45.410,-99.121
1687768895.272,-32.715,-23.926,-4.883,-34.668,206.543
1687768895.275,-40.527,-29.785,7.812,-25.879,261.230
1687768895.279,-35.156,-29.297,3.906,-24.902,-66.406
1687768895.283,-37.109,-20.996,-11.719,-37.598,-121.094
1687768895.287,-28.320,-16.113,-15.137,-40.039,-104.492
1687768895.291,-11.719,-19.043,-7.812,-32.227,-174.805
1687768895.293,-11.230,-22.461,-5.859,-34.180,-161.133
1687768895.297,-7.812,-23.438,-11.719,-40.039,-149.414
1687768895.301,-16.113,-20.508,-11.230,-40.039,-169.434
1687768895.305,-23.926,-21.973,-7.324,-34.668,-133.301
1687768895.309,-28.320,-22.461,-6.348,-35.156,-135.254
1687768895.313,-25.391,-24.902,-4.395,-33.203,-41.992
1687768895.317,-36.621,-34.180,-7.324,-38.574,136.230
1687768895.320,-47.852,-36.621,-9.766,-50.781,22.461
1687768895.324,-30.273,-32.227,-4.395,-39.551,-129.883
1687768895.328,-24.902,-27.344,-1.465,-37.109,1.953
1687768895.332,-31.738,-30.762,-0.488,-43.945,156.250
1687768895.336,-35.645,-34.668,-0.488,-38.574,-103.516
1687768895.353,-41.504,-32.227,-2.441,-36.133,-136.719
1687768895.357,-33.203,-32.227,-2.441,-36.133,139.160
1687768895.361,-35.645,-31.250,-3.418,-36.133,91.797
1687768895.365,-46.387,-27.832,-7.812,-46.387,-84.473
1687768895.369,-42.969,-21.484,-9.277,-48.828,-48.828
1687768895.373,-41.016,-21.484,-10.742,-51.758,128.906
1687768895.377,-43.945,-23.926,-1.953,-51.758,96.680
1687768895.380,-41.016,-25.391,5.859,-49.805,-68.848
1687768895.384,-35.156,-31.738,-1.953,-50.293,-72.266
1687768895.388,-26.367,-33.203,-7.324,-30.273,163.086
1687768895.392,-39.551,-34.668,2.441,-28.320,107.422
1687768895.396,-48.340,-42.969,0.977,-33.691,-157.227
1687768895.400,-32.715,-37.109,-8.789,-24.902,-164.551
1687768895.404,-28.320,-29.785,-8.301,-27.832,-118.652
1687768895.408,-17.090,-28.320,-9.766,-35.156,-126.953
1687768895.412,-8.301,-29.297,-9.766,-35.156,-175.293
1687768895.416,-14.648,-32.227,-14.160,-29.297,-130.371
1687768895.420,-17.578,-31.250,-14.160,-24.902,-57.617
1687768895.424,-15.137,-33.203,-11.230,-17.578,-30.762
1687768895.427,-0.488,-34.180,-14.648,-7.324,-104.004
1687768895.431,-3.418,-30.762,-23.926,-10.742,-51.270
1687768895.435,-18.555,-28.320,-23.926,-17.090,169.922
1687768895.439,-25.391,-30.762,-20.996,-20.508,-41.504
1687768895.443,-6.836,-37.109,-24.414,-5.859,-197.266
1687768895.444,8.301,-34.668,-21.973,9.277,63.965
1687768895.448,-9.277,-29.297,-26.855,-1.953,167.480
1687768895.452,-18.066,-30.762,-33.203,-2.930,-97.168
1687768895.456,-2.930,-31.738,-34.180,13.672,-149.414
1687768895.460,15.625,-27.832,-38.086,18.066,11.230
1687768895.464,19.531,-32.227,-46.387,8.789,-9.766
1687768895.468,22.461,-41.992,-52.246,12.207,-60.547
1687768895.471,39.062,-47.852,-56.641,22.949,-92.285
1687768895.475,45.898,-44.922,-64.453,38.086,223.145
1687768895.479,45.410,-44.922,-67.871,57.129,277.344
1687768895.483,69.336,-45.898,-74.219,65.918,-131.348
1687768895.487,90.820,-45.898,-77.148,71.777,-117.188
1687768895.489,105.957,-46.875,-73.730,90.332,-13.184
1687768895.493,114.746,-41.016,-71.289,102.539,-55.664
1687768895.497,119.141,-42.480,-73.242,102.539,-51.270
1687768895.501,127.930,-46.387,-78.613,116.211,-68.359
1687768895.505,137.207,-47.852,-78.613,123.047,6.836
1687768895.509,145.996,-50.781,-80.566,118.164,0.977
1687768895.513,152.344,-42.480,-79.102,121.094,-88.379
1687768895.516,149.414,-43.457,-77.637,136.230,31.738
1687768895.520,146.484,-50.293,-77.637,152.832,170.898
1687768895.524,138.184,-43.457,-70.801,134.766,-53.711
1687768895.528,133.301,-42.480,-71.777,116.699,-141.113
1687768895.532,129.883,-46.875,-75.195,120.605,-96.680
1687768895.534,127.930,-45.410,-77.637,119.141,-105.957
1687768895.538,134.766,-43.945,-76.660,112.793,-108.887
1687768895.542,133.301,-43.945,-74.707,109.863,-122.559
1687768895.546,115.234,-49.316,-69.336,104.004,-12.695
1687768895.550,99.609,-52.734,-62.500,97.168,16.602
1687768895.554,108.398,-52.734,-58.594,101.074,-29.297
1687768895.558,115.723,-48.340,-60.547,104.980,-64.941
1687768895.561,100.098,-47.852,-62.500,107.422,103.027
1687768895.565,85.449,-54.688,-59.082,100.586,207.031
1687768895.569,71.289,-50.293,-57.617,84.473,-114.746
1687768895.573,72.266,-46.875,-55.176,83.008,-165.039
1687768895.577,87.402,-47.363,-52.246,87.891,-31.250
1687768895.578,96.680,-45.898,-57.129,84.961,-59.082
1687768895.582,91.309,-51.758,-59.082,76.660,-132.324
1687768895.586,82.520,-49.316,-50.781,79.590,-131.836
1687768895.590,80.566,-46.875,-49.316,83.008,-79.590
1687768895.594,74.707,-54.199,-52.734,75.684,-105.957
1687768895.598,82.520,-53.711,-47.852,77.148,-106.445
1687768895.602,86.914,-48.828,-38.574,76.660,44.922
1687768895.605,82.031,-47.852,-34.180,79.590,250.977
1687768895.609,90.332,-47.363,-31.738,84.961,40.527
1687768895.613,95.215,-47.852,-29.297,80.566,-146.484
1687768895.617,93.262,-48.828,-28.320,79.102,-37.598
1687768895.621,83.496,-50.293,-28.320,73.242,-43.457
1687768895.623,72.266,-53.711,-29.785,64.453,-133.301
1687768895.627,77.148,-52.734,-28.809,61.035,-51.758
1687768895.631,88.867,-55.664,-31.250,62.012,44.434
1687768895.635,94.727,-56.152,-34.180,53.711,13.184
1687768895.639,75.684,-55.176,-33.691,41.016,-124.023
1687768895.643,60.059,-60.059,-35.645,35.156,-96.191
1687768895.647,55.664,-54.199,-34.668,39.062,225.586
1687768895.650,31.738,-45.410,-32.715,35.645,120.117
1687768895.654,36.621,-42.480,-35.156,18.555,-115.723
1687768895.658,51.270,-43.945,-38.574,8.789,0.977
1687768895.662,39.062,-47.363,-37.598,14.648,20.996
1687768895.666,29.785,-44.922,-33.691,20.020,-136.719
1687768895.668,30.762,-44.434,-30.273,17.090,-165.039
1687768895.672,29.785,-47.852,-29.297,14.160,-140.625
1687768895.676,19.531,-53.223,-31.738,10.254,-153.809
1687768895.680,9.277,-46.875,-31.738,7.324,-92.285
1687768895.684,4.883,-48.828,-37.109,10.254,-82.520
1687768895.688,0.000,-57.129,-35.645,8.301,34.180
1687768895.692,0.000,-53.711,-33.203,-2.441,67.383
1687768895.695,4.395,-41.504,-41.016,1.953,-94.238
1687768895.699,-4.883,-38.574,-41.992,2.930,-93.750
1687768895.703,-13.672,-47.363,-39.062,-7.324,-19.531
1687768895.707,-12.207,-45.898,-41.016,-9.766,51.758
1687768895.711,-0.488,-36.621,-41.016,-2.930,-41.992
1687768895.715,-13.184,-41.504,-35.645,-3.418,-149.414
1687768895.719,-29.297,-46.875,-32.227,-7.324,88.379
1687768895.723,-21.973,-43.457,-33.691,-7.812,205.078
1687768895.727,-15.137,-44.434,-33.691,-8.789,-90.332
1687768895.731,-13.184,-49.805,-35.156,-5.859,-131.348
1687768895.735,-20.996,-45.898,-43.945,-9.766,83.008
1687768895.739,-22.461,-34.180,-42.480,-16.113,69.824
1687768895.742,-18.066,-35.156,-41.504,-22.461,-179.199
1687768895.746,-11.719,-41.016,-46.875,-22.461,-207.031
1687768895.750,-12.207,-45.410,-49.316,-14.160,41.992
1687768895.754,-20.996,-41.016,-41.992,-15.137,-4.883
1687768895.758,-14.648,-35.156,-37.109,-21.484,-229.004
1687768895.778,-6.836,-36.621,-44.434,-16.602,-177.246
1687768895.782,-20.508,-34.180,-47.363,-13.184,-73.730
1687768895.786,-31.738,-34.180,-44.434,-12.207,-87.402
1687768895.790,-24.902,-34.668,-49.316,-11.719,-190.430
1687768895.794,-26.367,-34.180,-46.875,-21.484,-134.766
1687768895.798,-34.668,-36.621,-42.969,-24.414,170.410
1687768895.802,-31.250,-41.992,-42.480,-23.926,42.969
1687768895.805,-20.020,-42.480,-40.039,-27.344,-131.348
1687768895.809,-24.414,-33.691,-43.945,-24.414,-19.043
1687768895.813,-31.738,-30.273,-48.340,-27.344,6.836
1687768895.817,-28.320,-35.645,-40.527,-45.410,-127.930
1687768895.821,-19.531,-38.574,-44.922,-59.082,-152.832
1687768895.821,-17.578,-34.180,-48.828,-43.945,59.570
1687768895.825,-27.344,-33.203,-42.969,-41.992,145.996
1687768895.829,-32.227,-36.621,-43.457,-43.945,-52.246
1687768895.833,-34.180,-38.086,-46.875,-30.762,-155.762
1687768895.837,-35.645,-33.203,-46.875,-21.484,150.879
1687768895.841,-40.527,-25.879,-39.551,-12.207,322.754
1687768895.845,-40.039,-24.902,-33.203,-12.207,66.895
1687768895.848,-38.574,-28.320,-39.062,-19.043,-123.535
1687768895.852,-41.504,-30.762,-43.945,-18.555,38.574
1687768895.856,-39.062,-27.344,-42.480,-17.578,210.449
1687768895.860,-33.691,-22.461,-36.133,-26.367,-33.203
1687768895.864,-30.762,-27.344,-38.574,-29.785,-155.762
1687768895.863,-39.551,-33.691,-48.828,-33.203,-106.445
1687768895.867,-55.176,-34.180,-51.270,-40.039,-119.629
1687768895.871,-59.570,-34.668,-49.805,-43.457,-155.762
1687768895.875,-48.828,-28.320,-48.828,-43.945,-141.113
1687768895.879,-36.133,-21.973,-48.828,-33.691,-80.078
1687768895.883,-36.621,-23.438,-46.875,-32.227,-14.160
1687768895.887,-37.109,-22.949,-43.945,-32.715,-91.797
1687768895.890,-38.574,-23.926,-37.598,-28.809,-91.797
1687768895.894,-39.551,-24.414,-37.109,-24.414,217.773
1687768895.898,-32.227,-25.391,-42.480,-23.438,127.441
1687768895.902,-36.621,-24.414,-40.039,-26.367,-171.875
1687768895.906,-44.434,-20.508,-40.039,-33.203,-121.094
1687768895.923,-37.109,-31.250,-41.504,-20.020,-58.594
1687768895.927,-30.762,-33.203,-42.480,-11.230,-54.688
1687768895.931,-34.668,-27.832,-49.316,-33.203,-169.922
1687768895.935,-32.227,-30.273,-50.293,-29.785,-6.348
1687768895.939,-32.715,-27.832,-50.293,-13.184,26.367
1687768895.943,-30.762,-27.344,-48.340,-24.902,-135.742
1687768895.947,-9.277,-28.320,-45.410,-14.160,-81.055
1687768895.950,-0.977,-27.832,-42.480,5.371,110.840
1687768895.954,-18.066,-28.809,-35.645,-4.395,114.746
1687768895.958,-31.738,-28.320,-46.387,-13.184,-182.129
1687768895.962,-34.668,-26.367,-47.363,-13.672,-180.664
1687768895.966,-33.203,-32.715,-37.109,-9.277,-43.457
1687768895.952,-17.090,-34.668,-42.969,-10.254,-117.676
1687768895.956,-15.625,-35.645,-44.922,-16.113,-127.441
1687768895.960,-27.344,-37.598,-39.551,-16.602,-92.285
1687768895.964,-25.879,-36.133,-37.598,-19.043,-142.578
1687768895.968,-23.438,-36.133,-32.227,-24.414,-184.082
1687768895.972,-26.367,-34.180,-34.180,-25.391,-155.762
1687768895.976,-22.461,-31.738,-35.645,-21.484,6.348
1687768895.979,-24.414,-32.227,-34.180,-31.250,19.043
1687768895.983,-35.156,-28.320,-35.645,-39.551,-139.160
1687768895.987,-35.645,-25.879,-34.180,-35.156,-195.801
1687768895.991,-32.227,-32.227,-31.250,-31.738,-56.641
1687768895.995,-32.715,-31.738,-32.715,-34.180,241.699
1687768895.998,-26.367,-23.438,-30.762,-41.992,42.480
1687768896.002,-28.809,-22.461,-28.320,-45.410,-58.105
1687768896.006,-42.969,-29.785,-26.367,-36.133,49.316
1687768896.010,-47.852,-32.227,-23.926,-26.367,-77.148
1687768896.014,-37.109,-33.203,-29.785,-27.832,-215.820
1687768896.018,-29.297,-37.598,-37.109,-37.109,-103.516
1687768896.022,-32.227,-35.156,-34.180,-41.504,132.324
1687768896.025,-36.133,-31.738,-33.691,-39.062,-4.883
1687768896.029,-33.203,-31.738,-37.598,-40.039,-179.199
1687768896.033,-20.996,-31.250,-39.062,-34.668,-109.863
1687768896.037,-15.625,-27.832,-35.645,-27.832,78.613
1687768896.041,-22.461,-26.367,-31.250,-30.762,-27.344
1687768896.045,-16.602,-27.832,-34.180,-34.180,-169.922
1687768896.049,-19.531,-29.297,-33.691,-38.086,-26.367
1687768896.053,-20.996,-29.297,-29.297,-38.086,36.621
1687768896.057,-20.508,-26.855,-27.344,-34.180,-60.547
1687768896.061,-21.973,-26.855,-27.344,-33.203,-115.723
1687768896.065,-20.508,-27.344,-29.297,-32.715,26.855
1687768896.069,-21.973,-27.832,-32.715,-37.598,142.578
1687768896.072,-19.043,-29.785,-38.086,-36.621,-47.363
1687768896.076,-20.508,-25.879,-38.574,-36.621,-166.992
1687768896.080,-33.203,-23.438,-35.645,-43.457,-21.973
1687768896.084,-48.340,-30.762,-36.621,-43.945,76.660
1687768896.088,-54.199,-30.762,-40.039,-43.457,-25.879
1687768896.103,-53.711,-33.691,-41.992,-44.922,-84.473
1687768896.107,-56.641,-40.039,-41.504,-36.621,152.832
1687768896.111,-55.664,-37.109,-38.086,-39.062,69.824
1687768896.115,-52.734,-31.738,-37.598,-47.852,-72.754
1687768896.119,-50.781,-36.133,-40.527,-43.457,-49.805
1687768896.123,-46.387,-46.387,-39.551,-30.762,187.500
1687768896.127,-37.598,-38.574,-33.203,-28.809,355.957
1687768896.130,-41.016,-30.273,-36.621,-40.527,-86.426
1687768896.134,-51.270,-28.320,-35.645,-44.922,-174.805
1687768896.138,-53.711,-27.344,-36.621,-41.992,12.207
1687768896.142,-47.852,-31.250,-39.551,-41.504,-87.891
1687768896.146,-38.574,-31.738,-37.109,-38.086,-171.875
1687768896.148,-30.762,-29.297,-33.691,-37.598,-176.270
1687768896.152,-27.832,-23.926,-27.344,-38.086,-145.020
1687768896.156,-29.785,-20.020,-29.785,-33.203,-111.816
1687768896.160,-28.809,-22.949,-30.273,-36.621,-125.977
1687768896.164,-27.344,-28.809,-29.785,-39.551,-92.285
1687768896.168,-27.832,-29.297,-34.180,-41.992,-6.348
1687768896.172,-42.480,-32.227,-35.645,-42.480,18.555
1687768896.175,-52.246,-39.551,-37.109,-46.387,-67.383
1687768896.179,-41.016,-40.527,-40.039,-40.527,4.395
1687768896.183,-39.062,-37.598,-34.180,-27.832,287.109
1687768896.187,-42.480,-32.227,-31.738,-36.621,75.684
1687768896.191,-43.945,-29.785,-31.250,-52.246,-224.121
1687768896.193,-40.039,-26.367,-25.391,-47.363,-43.457
1687768896.197,-34.180,-28.320,-29.297,-38.574,28.320
1687768896.201,-31.738,-32.227,-35.156,-36.621,-115.234
1687768896.205,-26.367,-32.715,-32.227,-34.668,-187.012
1687768896.209,-31.250,-33.203,-34.668,-32.715,26.855
1687768896.213,-31.738,-30.273,-32.715,-32.227,113.770
1687768896.217,-24.414,-24.902,-31.250,-32.715,-58.105
1687768896.220,-23.438,-25.391,-30.273,-33.203,-86.426
1687768896.224,-27.344,-29.785,-31.250,-35.645,233.398
1687768896.228,-24.902,-24.414,-29.785,-30.762,307.129
1687768896.232,-19.531,-21.484,-30.273,-44.434,-149.414
1687768896.236,-21.973,-28.320,-31.250,-52.246,-135.254
1687768896.238,-35.645,-33.203,-30.273,-39.551,-35.645
1687768896.242,-46.875,-25.879,-28.809,-40.527,-218.750
1687768896.246,-44.434,-24.902,-29.785,-48.828,-250.488
1687768896.250,-39.551,-27.344,-33.691,-44.922,-109.863
1687768896.254,-45.410,-28.809,-32.227,-43.945,-8.301
1687768896.258,-49.805,-32.715,-29.297,-43.457,-4.883
1687768896.262,-43.945,-27.344,-28.809,-42.480,-31.738
1687768896.265,-42.969,-26.367,-34.180,-43.457,28.320
1687768896.269,-57.129,-29.297,-32.227,-36.621,208.496
1687768896.273,-53.711,-25.879,-26.367,-37.109,-9.277
1687768896.277,-32.227,-20.996,-27.832,-32.715,-135.742
1687768896.281,-35.156,-20.996,-33.203,-25.879,12.695
1687768896.283,-49.316,-24.902,-36.133,-31.250,-1.953
1687768896.287,-46.875,-28.320,-33.203,-35.156,-41.992
1687768896.291,-35.645,-26.855,-25.879,-36.133,-117.676
1687768896.295,-32.715,-30.273,-31.250,-26.367,-19.043
1687768896.299,-35.156,-30.762,-31.250,-20.508,44.434
1687768896.303,-35.156,-22.949,-28.809,-31.250,-80.566
1687768896.307,-45.410,-23.926,-34.180,-35.156,-82.520
1687768896.310,-51.758,-27.832,-31.250,-37.109,122.559
1687768896.314,-40.039,-23.438,-24.414,-39.551,117.188
1687768896.318,-43.457,-25.391,-20.996,-37.109,-108.398
1687768896.322,-47.852,-27.344,-22.461,-33.691,-93.262
1687768896.326,-45.898,-25.391,-25.879,-43.945,-15.137
1687768896.330,-49.316,-31.250,-26.367,-41.992,-41.016
1687768896.334,-39.551,-29.297,-27.832,-33.691,-110.840
1687768896.338,-35.645,-30.273,-27.344,-39.551,-103.027
1687768896.342,-41.504,-32.715,-28.809,-46.875,7.812
1687768896.346,-39.551,-28.809,-28.809,-44.434,-77.637
1687768896.350,-48.828,-28.320,-25.879,-43.945,-167.480
1687768896.354,-46.875,-33.691,-26.855,-44.434,-7.812
1687768896.357,-40.039,-31.250,-28.809,-40.039,241.699
1687768896.361,-42.480,-26.367,-26.855,-40.039,5.371
1687768896.365,-50.293,-27.832,-28.809,-52.734,-177.734
1687768896.369,-55.176,-31.250,-32.715,-55.176,-43.945
1687768896.373,-52.734,-34.180,-31.738,-46.875,-24.902
1687768896.373,-48.340,-31.250,-32.715,-42.969,-22.949
1687768896.377,-46.875,-25.879,-37.598,-49.316,-67.383
1687768896.381,-44.434,-30.762,-36.621,-53.223,-11.230
1687768896.385,-44.434,-27.344,-32.227,-46.387,70.312
1687768896.389,-48.828,-25.879,-27.832,-43.457,-57.617
1687768896.393,-46.387,-31.738,-28.809,-46.875,-0.977
1687768896.397,-44.922,-27.832,-25.879,-42.480,252.441
1687768896.400,-42.969,-26.855,-20.020,-36.133,300.781
1687768896.404,-37.109,-27.344,-18.066,-40.039,-111.816
1687768896.408,-33.203,-35.156,-22.949,-39.062,-154.785
1687768896.412,-25.879,-37.598,-23.438,-32.715,-73.242
1687768896.416,-28.809,-30.273,-23.438,-37.109,-127.441
1687768896.419,-35.645,-29.785,-25.879,-41.992,-118.164
1687768896.423,-32.227,-29.785,-24.902,-40.527,-141.113
1687768896.427,-25.879,-28.809,-26.367,-44.922,-96.680
1687768896.431,-28.809,-35.156,-30.273,-48.828,-94.727
1687768896.435,-37.109,-38.086,-30.762,-43.945,-154.785
1687768896.439,-41.504,-37.109,-28.809,-42.480,-66.895
1687768896.443,-43.457,-35.156,-26.855,-42.969,86.426
1687768896.446,-37.598,-35.645,-21.973,-39.551,18.066
1687768896.450,-40.039,-34.180,-18.555,-34.668,-109.863
1687768896.454,-40.527,-31.738,-18.555,-35.645,-31.250
1687768896.458,-40.527,-29.785,-20.996,-35.645,111.816
1687768896.462,-42.969,-29.785,-24.414,-34.180,-63.965
1687768896.478,-36.621,-29.785,-25.879,-36.621,-100.098
1687768896.482,-35.156,-28.320,-22.461,-28.809,98.633
1687768896.486,-37.109,-24.414,-18.555,-23.926,59.082
1687768896.490,-46.387,-29.785,-15.625,-35.156,-142.578
1687768896.494,-44.434,-38.574,-17.578,-48.340,-146.484
1687768896.498,-38.574,-36.621,-16.602,-41.016,99.121
1687768896.502,-44.434,-34.668,-14.648,-38.086,65.430
1687768896.505,-41.992,-36.133,-21.484,-42.969,-133.301
1687768896.509,-41.992,-35.156,-21.973,-40.527,-47.852
1687768896.513,-49.316,-32.227,-19.043,-42.480,155.273
1687768896.517,-51.270,-26.855,-15.625,-40.039,101.562
1687768896.521,-49.805,-29.297,-12.695,-37.598,-79.590
1687768896.525,-37.109,-36.621,-14.160,-41.016,-113.281
1687768896.529,-34.180,-35.156,-15.625,-42.969,-127.441
1687768896.533,-49.316,-32.715,-20.020,-45.410,-169.434
1687768896.537,-46.875,-26.855,-20.020,-45.410,-166.504
1687768896.541,-28.809,-23.926,-17.090,-44.922,-77.148
1687768896.545,-29.297,-22.461,-18.066,-44.434,-10.254
1687768896.549,-39.551,-21.484,-18.555,-40.527,-17.090
1687768896.552,-48.828,-30.273,-21.973,-43.945,-138.672
1687768896.556,-52.734,-34.668,-19.531,-41.504,-93.262
1687768896.560,-49.805,-32.715,-19.531,-40.039,166.504
1687768896.564,-35.156,-31.738,-19.531,-47.363,29.297
1687768896.568,-34.180,-34.668,-19.043,-59.570,-142.578
1687768896.568,-49.316,-35.645,-23.438,-58.594,14.648
1687768896.572,-47.852,-29.785,-23.438,-53.223,184.082
1687768896.576,-47.363,-25.391,-20.020,-49.805,-44.434
1687768896.580,-52.246,-27.832,-17.090,-42.969,-112.793
1687768896.584,-51.270,-35.156,-19.531,-45.410,28.809
1687768896.588,-58.105,-33.691,-17.578,-52.246,86.426
1687768896.592,-61.035,-32.227,-15.625,-54.199,68.848
1687768896.595,-48.340,-35.156,-20.996,-52.734,-17.090
1687768896.599,-41.992,-38.574,-21.973,-48.340,158.691
1687768896.603,-38.574,-30.762,-15.137,-42.480,103.516
1687768896.607,-35.156,-24.902,-15.137,-44.434,-125.000
1687768896.611,-39.551,-26.367,-20.020,-42.480,-124.023
1687768896.615,-55.176,-29.785,-21.973,-47.852,-115.234
1687768896.619,-55.176,-32.715,-24.902,-47.363,-84.473
1687768896.623,-39.551,-29.785,-22.949,-41.504,-74.707
1687768896.627,-37.598,-29.785,-18.066,-40.039,-82.520
1687768896.631,-39.062,-29.785,-19.043,-39.551,-58.594
1687768896.635,-35.156,-29.785,-23.926,-41.504,-14.160
1687768896.639,-36.621,-30.762,-20.996,-36.621,-89.844
1687768896.642,-37.598,-31.738,-13.184,-31.250,-83.984
1687768896.646,-37.109,-32.227,-12.695,-23.438,194.824
1687768896.650,-34.668,-32.227,-17.578,-28.809,-40.527
1687768896.654,-20.508,-33.691,-20.020,-36.621,-180.176
1687768896.658,-19.043,-30.273,-22.461,-26.367,-71.777
1687768896.659,-41.016,-24.902,-23.926,-28.809,-75.195
1687768896.663,-49.805,-24.414,-22.949,-41.016,-132.812
1687768896.667,-49.805,-25.391,-18.555,-45.898,-193.848
1687768896.671,-48.340,-26.367,-15.625,-38.574,19.043
1687768896.675,-48.340,-26.367,-20.508,-37.109,-4.395
1687768896.679,-41.016,-26.367,-23.438,-46.387,-141.113
1687768896.683,-49.316,-26.367,-23.926,-55.664,-61.523
1687768896.686,-69.336,-23.438,-27.344,-54.688,104.004
1687768896.690,-56.641,-19.043,-24.414,-45.898,208.496
1687768896.694,-44.922,-19.043,-20.508,-47.852,-70.801
1687768896.698,-52.734,-23.926,-26.855,-50.781,-145.508
1687768896.702,-53.223,-25.391,-26.367,-59.082,-16.113
1687768896.703,-49.316,-23.438,-18.555,-66.895,-123.047
1687768896.707,-44.434,-20.996,-17.578,-56.152,-197.266
1687768896.711,-32.715,-17.090,-12.695,-53.223,-205.566
1687768896.715,-37.109,-16.602,-5.371,-62.012,-140.625
1687768896.719,-66.406,-22.949,-10.742,-82.520,-86.426
1687768896.723,-75.684,-24.414,-18.066,-80.078,-149.414
1687768896.727,-80.566,-21.973,-7.324,-72.266,34.180
1687768896.730,-94.238,-19.531,6.836,-88.379,342.773
1687768896.734,-108.887,-15.137,13.184,-118.652,58.105
1687768896.738,-130.371,-20.996,22.461,-144.531,-177.734
1687768896.742,-165.527,-26.855,23.926,-162.109,-82.031
1687768896.746,-190.430,-23.438,19.043,-179.199,-104.004
1687768896.748,-196.777,-20.508,29.785,-198.730,-108.887
1687768896.752,-195.801,-14.160,26.855,-220.215,-19.043
1687768896.756,-221.680,-12.207,33.203,-240.723,91.309
1687768896.760,-266.113,-13.184,51.758,-259.766,25.879
1687768896.764,-279.297,-8.301,50.781,-265.137,-145.020
1687768896.768,-280.273,-9.766,50.781,-274.902,-28.320
1687768896.772,-291.992,-13.184,55.664,-288.574,273.438
1687768896.775,-314.941,-11.719,67.383,-299.316,267.090
1687768896.779,-321.777,-7.324,79.102,-308.594,-62.012
1687768896.783,-319.336,8.301,84.961,-312.988,-96.191
1687768896.787,-308.105,13.672,87.402,-305.664,86.426
1687768896.791,-291.992,17.090,89.355,-293.945,-44.922
1687768896.794,-293.945,23.438,101.074,-292.969,-171.387
1687768896.798,-294.922,20.020,102.051,-302.734,-112.305
1687768896.802,-283.203,13.184,100.586,-292.969,-81.543
1687768896.806,-263.184,5.859,105.957,-282.715,-159.668
1687768896.810,-264.160,12.695,111.816,-273.926,-197.266
1687768896.814,-272.461,15.137,104.492,-260.254,-4.395
1687768896.818,-262.207,8.789,101.562,-250.977,114.258
1687768896.821,-240.234,14.160,110.840,-246.582,-96.191
1687768896.825,-218.262,15.137,107.422,-246.094,-167.969
1687768896.829,-217.773,9.766,109.863,-229.980,85.449
1687768896.833,-242.676,5.371,116.211,-219.238,187.500
1687768896.837,-238.770,-0.488,115.234,-223.633,-90.332
1687768896.854,-224.121,-7.324,116.699,-220.703,-91.309
1687768896.858,-215.332,-10.742,107.910,-203.613,76.172
1687768896.862,-212.402,-9.277,104.492,-202.148,38.574
1687768896.866,-213.379,-9.277,111.328,-202.637,-146.484
1687768896.870,-201.172,-12.695,108.398,-195.312,-178.223
1687768896.874,-189.453,-20.508,99.121,-181.641,68.848
1687768896.878,-178.223,-17.578,88.867,-176.758,131.348
1687768896.881,-170.898,-11.719,81.543,-176.758,-85.938
1687768896.885,-149.902,-11.719,79.102,-165.039,-86.914
1687768896.889,-136.719,-11.719,77.148,-157.227,92.285
1687768896.893,-142.090,-12.695,80.566,-155.762,-41.016
1687768896.897,-146.973,-22.949,73.242,-163.574,-152.344
1687768896.886,-127.441,-21.973,60.547,-152.832,-79.102
1687768896.890,-126.465,-25.391,64.941,-129.395,164.551
1687768896.894,-126.953,-28.320,68.848,-114.258,75.684
1687768896.898,-106.934,-24.414,64.941,-102.539,-205.566
1687768896.902,-96.191,-24.414,59.082,-113.281,-160.156
1687768896.906,-86.914,-20.508,55.664,-115.723,-22.949
1687768896.910,-95.703,-24.414,60.059,-104.004,64.941
1687768896.913,-91.309,-22.949,60.547,-97.168,-58.594
1687768896.917,-89.355,-12.695,44.434,-101.074,-30.762
1687768896.921,-95.215,-11.230,41.016,-99.121,192.383
1687768896.925,-80.078,-10.742,39.551,-89.355,-0.488
1687768896.929,-71.777,-14.160,41.992,-82.520,-165.039
1687768896.944,-80.078,-19.531,43.945,-93.750,-67.871
1687768896.948,-56.641,-17.578,38.086,-93.262,-15.625
1687768896.952,-45.410,-13.672,37.598,-84.473,23.438
1687768896.956,-62.988,-12.207,38.086,-79.590,-112.793
1687768896.960,-80.566,-25.391,32.715,-74.707,46.875
1687768896.964,-80.566,-30.762,32.227,-83.008,326.660
1687768896.968,-74.219,-29.297,36.621,-86.426,26.367
1687768896.971,-78.125,-35.645,32.715,-85.938,-187.988
1687768896.975,-70.312,-39.551,30.762,-66.406,48.340
1687768896.979,-43.945,-26.855,37.598,-52.246,-50.781
1687768896.983,-40.039,-16.113,42.480,-58.105,-216.309
1687768896.987,-79.590,-24.414,36.133,-64.941,-123.047
1687768896.988,-92.285,-28.320,33.691,-66.895,-143.066
1687768896.992,-77.637,-23.438,33.203,-68.359,-209.473
1687768896.996,-60.547,-23.926,29.297,-58.594,-183.594
1687768897.000,-54.199,-29.785,35.156,-55.176,-117.676
1687768897.004,-63.477,-31.250,32.227,-59.570,-90.820
1687768897.008,-63.477,-28.320,27.832,-65.430,-28.809
1687768897.012,-62.012,-28.320,37.109,-61.523,6.836
1687768897.015,-61.523,-28.320,41.992,-41.992,9.766
1687768897.019,-54.199,-29.785,38.086,-34.668,268.066
1687768897.023,-61.035,-32.227,35.645,-50.781,132.324
1687768897.027,-68.359,-41.016,31.738,-60.059,-87.402
1687768897.031,-47.852,-43.945,29.297,-51.270,-83.984
1687768897.033,-39.551,-36.133,30.762,-48.340,-85.449
1687768897.037,-52.246,-29.785,31.738,-53.711,-65.918
1687768897.041,-50.293,-24.902,35.645,-48.828,-109.863
1687768897.045,-60.547,-27.344,34.668,-45.410,21.484
1687768897.049,-77.637,-29.297,29.297,-47.852,74.219
1687768897.053,-78.125,-34.668,31.738,-46.387,-53.223
1687768897.057,-79.102,-41.992,30.762,-48.340,-98.633
1687768897.060,-69.336,-42.480,25.879,-48.340,153.320
1687768897.064,-55.176,-39.062,32.715,-43.457,260.254
1687768897.068,-49.316,-32.227,27.832,-42.480,-48.828
1687768897.072,-46.875,-31.250,21.973,-42.480,-121.582
1687768897.076,-47.852,-34.668,32.227,-53.223,-17.090
1687768897.078,-54.199,-40.039,28.809,-58.594,-87.402
1687768897.082,-66.406,-40.039,26.855,-50.781,-208.496
1687768897.086,-68.359,-42.969,25.879,-53.711,-160.645
1687768897.090,-50.781,-48.340,25.879,-47.852,-71.289
1687768897.094,-42.969,-39.551,28.320,-40.527,-49.316
1687768897.098,-49.805,-29.785,19.043,-41.992,-43.945
1687768897.102,-63.477,-39.551,16.602,-50.781,130.371
1687768897.105,-65.430,-42.969,20.508,-43.457,311.035
1687768897.109,-41.016,-38.086,25.879,-32.227,41.016
1687768897.113,-20.508,-41.016,20.020,-32.227,-48.340
1687768897.117,-12.207,-40.039,14.160,-19.043,-8.789
1687768897.121,-29.785,-28.809,11.719,-25.391,-20.508
1687768897.124,-56.641,-34.180,17.578,-45.410,-109.863
1687768897.128,-54.199,-43.457,18.066,-49.316,-122.559
1687768897.132,-50.781,-43.457,7.812,-41.016,35.156
1687768897.136,-47.363,-35.645,13.672,-35.645,-14.160
1687768897.140,-46.875,-38.086,15.625,-36.133,-144.531
1687768897.144,-33.691,-34.668,15.137,-24.414,-2.441
1687768897.148,-20.996,-25.391,19.531,-25.391,268.066
1687768897.151,-37.109,-30.273,22.461,-44.434,81.543
1687768897.155,-44.922,-33.203,23.438,-44.434,-182.129
1687768897.159,-40.039,-26.855,21.973,-39.551,-107.422
1687768897.163,-50.781,-29.297,21.973,-44.922,69.336
1687768897.167,-67.383,-30.273,24.902,-46.387,62.012
1687768897.170,-51.270,-24.414,24.414,-28.320,-59.570
1687768897.174,-41.504,-32.227,23.926,-24.902,-102.539
1687768897.178,-48.340,-37.598,25.879,-30.762,-48.340
1687768897.182,-34.668,-32.227,22.949,-26.367,-48.340
1687768897.186,-15.137,-29.785,16.602,-22.949,-90.332
1687768897.190,-20.020,-31.738,17.090,-20.020,52.246
1687768897.194,-28.320,-31.738,17.578,-19.043,126.953
1687768897.197,-35.645,-33.691,15.625,-33.691,-85.938
1687768897.201,-39.062,-33.691,11.719,-29.297,-152.344
1687768897.205,-34.180,-31.738,8.789,-23.438,-98.633
1687768897.209,-39.062,-35.156,14.648,-30.762,-84.961
1687768897.213,-43.945,-40.527,15.137,-32.715,-126.465
1687768897.214,-41.992,-36.621,12.207,-32.227,-164.551
1687768897.218,-42.480,-40.527,18.555,-37.598,32.715
1687768897.222,-42.480,-41.992,18.066,-49.805,90.820
1687768897.226,-43.457,-38.574,9.277,-41.504,-161.133
1687768897.230,-50.293,-41.992,4.883,-35.645,-199.707
1687768897.234,-57.129,-46.875,3.418,-33.691,121.094
1687768897.238,-50.293,-45.410,8.789,-14.648,262.695
1687768897.241,-38.574,-32.715,13.672,-22.949,-98.145
1687768897.245,-30.273,-29.785,11.719,-40.039,-217.285
1687768897.249,-28.809,-35.156,11.719,-37.109,-46.875
1687768897.253,-41.504,-34.668,12.207,-39.551,-116.211
1687768897.257,-54.688,-36.621,11.230,-40.527,-250.977
1687768897.273,-50.781,-39.551,8.789,-33.691,-213.867
1687768897.277,-41.016,-39.551,12.695,-33.203,-100.586
1687768897.281,-26.367,-37.598,17.578,-31.250,-117.188
1687768897.285,-24.414,-39.551,10.742,-40.039,-150.879
1687768897.289,-21.973,-36.621,2.930,-30.273,39.551
1687768897.293,-8.789,-35.645,-2.441,-10.254,186.523
1687768897.297,-2.441,-37.109,-0.488,-13.672,51.758
1687768897.300,-24.414,-41.016,1.953,-29.785,-97.168
1687768897.304,-41.992,-39.551,3.906,-36.621,-18.555
1687768897.308,-32.715,-35.645,10.742,-21.484,75.195
1687768897.312,-36.133,-45.898,8.301,-30.273,-137.207
1687768897.316,-27.832,-50.781,0.977,-40.039,-229.004
1687768897.318,-11.719,-39.062,4.395,-24.902,-43.945
1687768897.322,-30.273,-38.574,0.488,-35.645,76.172
1687768897.326,-50.781,-45.898,4.883,-58.105,-61.523
1687768897.330,-54.199,-47.852,9.766,-60.059,-142.090
1687768897.334,-47.852,-45.410,11.230,-52.734,54.199
1687768897.338,-41.992,-44.434,17.090,-50.293,67.383
1687768897.342,-65.918,-48.828,20.020,-52.246,-68.848
1687768897.345,-79.590,-45.898,18.555,-46.875,-35.156
1687768897.349,-65.918,-42.480,7.324,-38.086,105.957
1687768897.353,-59.082,-44.922,3.418,-31.738,182.617
1687768897.357,-45.410,-51.270,7.812,-31.250,-143.066
1687768897.361,-32.227,-46.875,4.883,-32.715,-163.086
1687768897.363,-33.691,-37.109,1.953,-34.180,-97.168
1687768897.367,-50.781,-43.457,5.371,-42.969,-200.684
1687768897.371,-55.664,-48.340,5.859,-49.805,-203.125
1687768897.375,-44.434,-50.781,4.883,-47.363,-176.270
1687768897.379,-28.320,-51.758,3.418,-29.785,-121.094
1687768897.383,-15.625,-45.898,1.953,-17.578,-41.504
1687768897.387,-19.531,-49.316,4.883,-25.391,-53.223
1687768897.390,-24.902,-51.758,6.348,-27.832,-10.254
1687768897.394,-20.996,-48.340,8.789,-18.555,351.562
1687768897.398,-23.438,-45.898,1.953,-31.250,131.836
1687768897.402,-23.438,-52.734,7.324,-34.668,-203.613
1687768897.406,-24.414,-46.387,13.672,-15.137,-81.543
1687768897.409,-25.391,-34.668,6.348,-18.555,-43.457
1687768897.413,-25.879,-37.598,8.301,-37.109,-78.613
1687768897.417,-28.320,-35.156,9.277,-42.480,-75.195
1687768897.421,-35.156,-38.086,7.812,-45.898,5.859
1687768897.425,-47.363,-36.621,13.672,-47.363,-68.359
1687768897.429,-39.062,-24.902,13.184,-30.762,-129.883
1687768897.433,-27.832,-24.902,9.277,-25.879,-27.344
1687768897.436,-37.109,-34.668,10.742,-34.668,155.762
1687768897.440,-51.758,-34.668,7.812,-45.410,131.836
1687768897.444,-57.129,-35.645,9.766,-50.293,-134.766
1687768897.448,-53.223,-38.574,15.625,-44.922,-144.531
1687768897.452,-43.945,-31.250,9.277,-42.969,-22.949
1687768897.454,-33.203,-24.414,0.977,-50.293,-124.023
1687768897.458,-37.598,-24.902,-0.977,-49.805,-156.738
1687768897.462,-48.340,-24.414,-0.977,-49.805,-112.305
1687768897.466,-47.852,-27.832,1.953,-43.457,-101.074
1687768897.470,-39.551,-26.855,-3.906,-39.062,-97.656
1687768897.474,-32.227,-20.996,-0.977,-41.992,-111.328
1687768897.478,-40.527,-28.809,1.953,-43.945,0.488
1687768897.481,-64.941,-42.480,-2.930,-48.828,187.500
1687768897.485,-62.012,-40.527,-3.418,-43.457,-53.711
1687768897.489,-38.086,-39.551,3.906,-35.645,-209.961
1687768897.493,-24.902,-34.668,0.977,-31.250,-59.570
1687768897.497,-30.273,-27.832,-7.812,-33.691,-66.406
1687768897.499,-36.133,-26.367,-1.953,-41.504,-143.555
1687768897.503,-40.039,-30.273,1.953,-48.340,-66.406
1687768897.507,-30.762,-38.574,-5.859,-38.574,151.367
1687768897.511,-28.809,-31.250,-11.719,-33.203,161.133
1687768897.515,-26.855,-22.949,-7.812,-35.156,-118.164
1687768897.519,-25.391,-23.926,-7.324,-39.551,-122.070
1687768897.523,-41.992,-33.691,-4.395,-37.598,142.090
1687768897.526,-46.387,-40.039,6.836,-47.852,82.520
1687768897.530,-28.320,-34.668,8.301,-53.223,-209.961
1687768897.534,-18.555,-33.691,1.465,-40.039,-158.691
1687768897.538,-36.133,-42.969,-2.930,-46.387,-67.871
1687768897.542,-47.363,-43.945,0.488,-46.875,-123.535
1687768897.545,-38.086,-38.086,1.465,-49.805,-217.773
1687768897.549,-41.016,-36.621,4.395,-39.551,-157.227
1687768897.553,-48.340,-37.109,3.906,-31.738,-29.297
1687768897.557,-52.246,-35.645,-6.348,-40.527,-66.895
1687768897.561,-53.223,-30.273,-5.371,-39.551,-111.328
1687768897.565,-51.270,-35.156,-4.883,-42.969,38.574
1687768897.569,-32.715,-42.480,-5.859,-43.457,383.789
1687768897.572,-22.461,-38.574,-1.953,-31.738,181.152
1687768897.576,-34.180,-37.109,-2.441,-36.621,-197.266
1687768897.580,-45.410,-40.039,-4.883,-54.199,-157.227
1687768897.584,-50.781,-40.039,-4.883,-52.734,-78.125
1687768897.588,-63.477,-42.969,-5.859,-42.969,-123.047
1687768897.606,-55.176,-40.039,-4.395,-37.109,-124.023
1687768897.610,-40.527,-39.551,-3.906,-39.551,34.180
1687768897.614,-52.246,-41.016,-3.418,-50.293,-11.719
1687768897.618,-48.340,-38.086,-2.441,-48.340,-151.855
1687768897.622,-31.250,-27.344,-5.371,-40.527,-137.695
1687768897.626,-25.879,-23.926,-10.742,-33.691,133.789
1687768897.630,-25.391,-32.227,-8.789,-25.391,298.828
1687768897.633,-29.785,-32.715,-13.672,-29.785,-12.695
1687768897.637,-26.855,-30.273,-26.367,-32.715,-89.355
1687768897.641,-4.883,-33.203,-27.832,-24.414,24.902
1687768897.645,20.508,-33.203,-31.250,-9.277,-61.035
1687768897.649,33.203,-24.902,-41.504,-5.859,-100.586
1687768897.650,14.160,-26.367,-46.387,-29.785,-93.262
1687768897.654,26.367,-30.762,-47.363,-15.625,-59.570
1687768897.658,63.477,-30.762,-54.199,12.695,-106.934
1687768897.662,70.312,-37.598,-61.035,16.113,-107.422
1687768897.666,74.219,-36.621,-62.012,24.414,-40.039
1687768897.670,70.312,-32.715,-61.035,28.809,88.379
1687768897.674,48.828,-37.109,-61.523,41.504,47.852
1687768897.677,48.340,-43.457,-66.406,55.176,-107.422
1687768897.681,72.266,-45.410,-73.242,62.988,-44.922
1687768897.685,74.219,-48.828,-79.102,69.824,328.613
1687768897.689,60.059,-45.898,-79.102,70.312,345.703
1687768897.693,62.500,-37.109,-72.754,70.312,-76.172
1687768897.693,72.754,-41.504,-72.266,71.777,-49.805
1687768897.697,79.590,-45.410,-72.266,74.707,67.383
1687768897.701,86.426,-48.340,-75.684,82.520,-121.582
1687768897.705,76.172,-58.105,-80.078,87.402,-196.777
1687768897.709,75.195,-59.570,-78.125,81.055,38.574
1687768897.713,87.402,-53.711,-79.590,77.148,16.113
1687768897.717,103.516,-53.711,-78.125,82.520,-117.676
1687768897.720,111.328,-57.617,-76.172,92.773,-42.969
1687768897.724,115.234,-57.617,-82.031,99.121,138.184
1687768897.728,125.000,-49.316,-80.566,104.492,250.000
1687768897.732,129.395,-48.340,-74.707,100.098,-18.066
1687768897.736,120.117,-52.246,-75.195,102.539,-104.004
1687768897.738,119.629,-47.363,-71.777,111.816,32.715
1687768897.742,119.141,-45.898,-70.801,101.074,-126.953
1687768897.746,116.699,-47.363,-74.707,90.332,-211.914
1687768897.750,114.746,-46.875,-73.730,90.332,-144.531
1687768897.754,112.793,-52.246,-71.289,89.844,-137.207
1687768897.758,106.445,-59.082,-66.895,93.262,-119.629
1687768897.762,92.285,-55.664,-61.035,83.984,-22.461
1687768897.765,84.473,-54.199,-61.035,73.242,-30.273
1687768897.769,86.914,-57.617,-62.500,75.684,145.508
1687768897.773,78.125,-55.664,-60.547,68.359,20.508
1687768897.777,69.336,-56.152,-55.176,68.848,-180.176
1687768897.781,71.289,-58.594,-55.664,68.359,-31.738
