timestamps,TP9,AF7,AF8,TP10,Right AUX
1687769918.239,-53.711,-29.785,-19.043,-32.227,99.609
1687769918.243,-62.500,-46.387,-32.715,-44.434,45.898
1687769918.247,-62.012,-41.504,-35.645,-47.363,-113.281
1687769918.251,-61.035,-12.207,-44.434,-22.949,-99.609
1687769918.255,-86.426,-10.254,-41.016,-45.410,-108.398
1687769918.259,-97.168,-9.766,-32.715,-61.523,-88.867
1687769918.263,-95.703,-21.973,-40.527,-39.062,-66.406
1687769918.266,-103.516,-29.297,-49.316,-25.879,49.316
1687769918.270,-122.070,-13.184,-23.438,-19.531,289.551
1687769918.274,-139.648,-8.789,-9.766,-18.555,42.480
1687769918.278,-146.484,-38.574,-32.227,-43.945,-214.844
1687769918.282,-140.137,-51.270,-42.969,-47.852,-82.031
1687769918.286,-138.184,-44.922,-32.715,-31.250,-21.484
1687769918.290,-147.461,-41.504,-25.879,-37.109,-84.961
1687769918.294,-146.973,-43.457,-41.016,-51.758,-136.230
1687769918.298,-145.020,-42.480,-55.176,-56.152,-98.633
1687769918.302,-137.207,-43.945,-51.758,-47.363,-140.625
1687769918.306,-124.512,-36.133,-50.293,-23.926,-141.113
1687769918.310,-121.582,-37.109,-44.434,-17.578,18.555
1687769918.313,-124.512,-48.828,-33.203,-31.250,190.430
1687769918.317,-123.535,-66.406,-43.457,-32.715,89.844
1687769918.321,-118.652,-35.156,-53.711,-35.156,-126.465
1687769918.325,-121.094,-7.812,-51.270,-37.598,-42.480
1687769918.329,-121.094,-17.578,-38.574,-30.762,186.035
1687769918.328,-130.371,-28.320,-47.363,-44.434,6.836
1687769918.332,-139.648,-32.227,-56.152,-62.988,-232.910
1687769918.336,-122.559,-44.922,-39.062,-52.734,-61.035
1687769918.340,-95.703,-34.668,-52.246,-38.086,48.340
1687769918.344,-96.191,-21.484,-64.453,-37.109,-22.949
1687769918.348,-104.980,-35.645,-36.133,-40.527,-36.621
1687769918.352,-106.445,-26.855,-41.504,-43.457,-38.574
1687769918.355,-105.469,-26.855,-58.105,-39.551,144.531
1687769918.359,-106.445,-34.180,-65.430,-48.828,2.930
1687769918.363,-113.281,-25.879,-54.688,-48.340,-229.980
1687769918.367,-123.535,-28.320,-33.203,-43.945,-102.051
1687769918.371,-114.258,-26.855,-23.926,-42.480,-71.777
1687769918.372,-109.375,-19.043,-34.668,-58.105,-145.508
1687769918.376,-125.488,-54.199,-42.480,-61.035,-143.066
1687769918.380,-123.047,-53.711,-39.551,-39.551,-40.527
1687769918.384,-123.047,-19.531,-41.504,-47.852,-3.906
1687769918.388,-139.160,-19.531,-40.527,-62.500,-84.961
1687769918.392,-147.461,-28.809,-37.598,-65.430,-83.008
1687769918.396,-140.137,-25.391,-31.738,-56.152,213.379
1687769918.399,-148.438,-34.180,-28.809,-45.410,405.273
1687769918.403,-163.086,-51.270,-51.758,-62.500,57.617
1687769918.407,-170.898,-44.922,-68.359,-79.102,-78.125
1687769918.411,-164.551,-41.016,-51.758,-76.172,59.570
1687769918.415,-146.484,-43.457,-40.039,-55.176,-15.137
1687769918.417,-144.043,-43.457,-36.621,-49.805,-133.789
1687769918.421,-150.391,-52.734,-26.855,-38.574,-73.730
1687769918.425,-149.902,-48.340,-40.039,-40.039,29.297
1687769918.429,-147.461,-42.480,-56.641,-62.500,-71.777
1687769918.433,-135.254,-42.969,-56.641,-58.105,-166.504
1687769918.437,-117.188,-42.480,-36.621,-34.668,-30.273
1687769918.441,-111.816,-55.664,-48.828,-20.508,221.191
1687769918.444,-121.582,-55.664,-58.105,-47.363,145.996
1687769918.448,-125.977,-44.922,-26.855,-67.871,-125.977
1687769918.452,-109.375,-48.828,-28.320,-44.434,-75.684
1687769918.456,-101.562,-68.359,-37.598,-24.414,104.004
1687769918.460,-99.121,-46.387,-21.484,-43.457,-30.273
1687769918.477,-105.957,-25.391,-26.367,-58.105,-109.863
1687769918.481,-110.352,-45.898,-28.320,-72.266,-109.375
1687769918.485,-92.285,-50.781,-24.902,-62.012,-134.766
1687769918.489,-95.215,-42.480,-44.922,-50.293,-106.445
1687769918.493,-97.656,-38.574,-51.270,-51.758,-83.008
1687769918.497,-83.984,-42.969,-51.758,-45.410,55.664
1687769918.501,-85.938,-56.152,-67.383,-57.617,99.121
1687769918.504,-100.586,-54.199,-66.895,-76.172,-69.824
1687769918.508,-91.797,-41.016,-59.570,-65.430,-80.566
1687769918.512,-73.242,-34.668,-43.945,-44.434,201.172
1687769918.516,-76.660,-40.527,-43.457,-41.992,381.836
1687769918.520,-78.125,-36.621,-46.387,-60.059,-56.641
1687769918.522,-75.195,-37.109,-36.621,-64.941,-224.609
1687769918.526,-67.383,-29.297,-32.227,-45.898,-12.207
1687769918.530,-74.219,-17.578,-28.809,-42.480,-58.594
1687769918.534,-89.355,-9.766,-30.762,-66.895,-116.211
1687769918.538,-110.352,-9.277,-15.137,-104.492,-116.211
1687769918.542,-146.973,-13.184,6.836,-145.996,-11.719
1687769918.546,-166.992,1.465,24.902,-157.715,28.320
1687769918.549,-186.523,3.906,44.922,-168.457,-90.820
1687769918.553,-221.680,3.906,54.199,-210.938,-82.520
1687769918.557,-259.766,9.277,62.500,-247.559,144.043
1687769918.561,-285.156,5.371,64.941,-276.855,-36.133
1687769918.565,-296.875,6.348,69.336,-284.180,-164.062
1687769918.567,-301.758,13.184,72.754,-279.297,3.418
1687769918.571,-315.918,16.602,57.617,-289.551,70.801
1687769918.575,-324.707,20.508,59.082,-298.828,-70.312
1687769918.579,-316.895,27.344,62.988,-300.293,-179.688
1687769918.583,-315.430,14.648,49.805,-295.410,-60.547
1687769918.587,-309.570,8.789,51.758,-265.625,44.922
1687769918.591,-293.457,26.367,44.434,-256.348,1.953
1687769918.594,-279.297,2.930,30.762,-271.973,-115.723
1687769918.598,-255.859,-17.578,28.320,-266.602,15.625
1687769918.602,-219.238,6.348,24.902,-244.629,122.070
1687769918.606,-187.012,13.184,4.883,-217.773,15.625
1687769918.610,-167.969,13.184,2.441,-201.660,14.648
1687769918.613,-146.973,8.789,7.812,-188.477,124.023
1687769918.617,-118.164,7.324,-23.926,-173.340,0.488
1687769918.621,-98.145,5.859,-21.973,-162.109,-141.113
1687769918.625,-78.613,-5.859,-8.301,-134.766,-48.340
1687769918.629,-50.781,-27.344,-31.250,-89.844,106.934
1687769918.633,-20.020,-51.270,-23.926,-77.148,94.238
1687769918.637,-0.977,-65.430,-27.344,-76.172,8.301
1687769918.640,20.996,-71.289,-83.008,-54.688,-25.879
1687769918.644,32.715,-56.641,-96.680,-24.414,278.320
1687769918.648,48.828,-61.035,-53.711,-6.836,150.391
1687769918.652,66.406,-61.523,-40.039,-6.836,-145.020
1687769918.656,57.129,-54.688,-62.500,-30.273,-69.824
1687769918.657,77.637,-57.129,-68.359,-12.207,-74.219
1687769918.661,98.633,-71.289,-77.148,24.902,-97.168
1687769918.665,102.051,-85.449,-75.684,39.551,-32.715
1687769918.669,116.699,-56.152,-80.078,44.922,88.379
1687769918.673,113.281,-52.734,-102.539,32.715,14.648
1687769918.677,97.168,-69.824,-103.027,23.926,-53.711
1687769918.681,94.238,-75.195,-104.492,45.410,22.949
1687769918.684,102.539,-82.031,-100.586,68.848,187.012
1687769918.688,101.562,-82.520,-97.168,54.199,193.359
1687769918.692,99.121,-69.824,-108.887,41.992,-149.902
1687769918.696,102.051,-72.754,-105.957,55.664,-131.836
1687769918.700,118.164,-71.777,-79.102,81.055,157.715
1687769918.702,112.305,-71.777,-62.500,79.590,3.418
1687769918.706,93.750,-86.426,-79.102,53.223,-172.363
1687769918.710,111.328,-67.871,-89.355,54.688,-146.484
1687769918.714,113.281,-57.129,-87.402,57.617,-126.465
1687769918.718,102.539,-65.430,-99.121,66.406,-126.953
1687769918.722,108.398,-64.453,-102.051,90.332,-150.391
1687769918.726,104.492,-62.500,-83.496,84.473,-15.625
1687769918.729,101.074,-66.406,-69.336,69.336,359.375
1687769918.733,105.469,-67.871,-74.707,65.430,185.547
1687769918.737,93.262,-55.664,-75.195,62.500,-150.879
1687769918.741,87.402,-52.734,-74.707,57.129,-78.125
1687769918.745,90.332,-63.477,-75.195,48.828,-76.172
1687769918.747,83.008,-61.523,-89.844,38.086,-147.949
1687769918.751,92.285,-57.129,-82.520,48.340,-186.523
1687769918.755,101.074,-51.270,-45.898,59.570,-151.367
1687769918.759,83.496,-47.852,-61.035,50.781,-69.336
1687769918.763,69.336,-43.945,-75.684,41.016,-48.340
1687769918.767,68.359,-53.711,-62.988,27.832,-88.379
1687769918.771,65.430,-67.871,-79.590,19.531,35.156
1687769918.774,63.477,-41.992,-64.941,27.832,119.141
1687769918.778,72.754,-54.199,-39.551,29.785,-12.207
1687769918.782,73.730,-70.801,-51.270,17.090,-117.188
1687769918.786,51.270,-40.527,-64.941,24.414,109.375
1687769918.790,46.875,-27.832,-71.777,20.020,115.723
1687769918.794,60.547,-48.340,-77.637,12.207,-203.125
1687769918.798,67.383,-31.738,-74.707,34.668,-150.391
1687769918.802,68.359,-18.066,-79.590,38.086,-31.738
1687769918.806,67.871,-25.879,-59.570,25.879,-106.934
1687769918.810,58.105,-30.762,-40.039,8.789,-201.660
1687769918.814,43.945,-39.551,-41.992,-1.465,-38.086
1687769918.818,47.363,-54.688,-41.016,11.719,208.496
1687769918.821,45.898,-41.504,-56.641,4.883,-13.184
1687769918.825,41.504,-30.273,-57.617,-3.906,-229.980
1687769918.829,34.668,-40.527,-50.781,0.000,-173.340
1687769918.833,35.156,-32.715,-64.453,-5.859,-44.434
1687769918.837,36.133,-24.902,-57.129,5.371,-13.184
1687769918.852,15.625,-40.039,-41.504,7.812,-61.523
1687769918.856,8.789,-46.387,-61.035,-2.930,5.859
1687769918.860,22.461,-49.805,-50.293,-2.930,-60.547
1687769918.864,17.578,-39.062,-46.387,-7.812,-250.977
1687769918.868,7.812,-20.508,-56.152,-12.207,-271.484
1687769918.872,7.324,-32.715,-55.664,-7.324,89.844
1687769918.876,8.301,-42.480,-62.988,-10.254,447.266
1687769918.879,17.578,-33.691,-45.898,-25.879,55.664
1687769918.883,18.555,-35.645,-41.992,-22.461,-192.383
1687769918.887,0.000,-49.316,-64.453,-15.137,-28.320
1687769918.891,-0.488,-36.621,-66.406,-21.973,-3.418
1687769918.895,5.371,-30.762,-51.270,-20.508,-98.145
1687769918.897,-23.926,-70.801,-48.340,-38.086,-144.043
1687769918.901,-40.039,-55.176,-41.992,-44.922,130.859
1687769918.905,-24.902,-22.461,-51.270,-28.809,57.129
1687769918.909,-19.043,-12.695,-66.895,-20.020,-173.340
1687769918.913,-41.504,-34.668,-57.617,-32.715,-151.855
1687769918.917,-34.180,-50.293,-50.293,-33.691,-57.129
1687769918.921,-22.461,-37.598,-49.316,-29.297,46.875
1687769918.924,-32.227,-51.270,-62.012,-43.457,-85.449
1687769918.928,-29.297,-28.809,-68.848,-32.715,-88.867
1687769918.932,-37.109,4.395,-64.941,-21.973,192.871
1687769918.936,-54.199,-21.973,-54.199,-42.480,-36.621
1687769918.940,-56.152,-46.387,-46.875,-59.570,-239.258
1687769918.942,-65.430,-51.270,-56.152,-53.711,-82.031
1687769918.946,-72.754,-53.711,-46.387,-48.340,-40.527
1687769918.950,-74.707,-45.410,-48.340,-52.246,-78.613
1687769918.954,-68.848,-32.227,-54.688,-57.617,-31.738
1687769918.958,-67.383,-45.410,-40.039,-47.852,-17.090
1687769918.962,-74.707,-60.547,-40.527,-29.297,10.254
1687769918.966,-65.918,-38.086,-46.387,-16.602,-10.742
1687769918.969,-65.430,-23.438,-43.945,-16.113,-122.559
1687769918.973,-76.172,-21.973,-39.551,-25.879,10.742
1687769918.977,-79.102,-29.297,-44.922,-41.992,51.758
1687769918.981,-82.520,-42.480,-75.195,-36.133,-92.773
1687769918.985,-95.703,-31.250,-74.219,-19.043,-101.562
1687769918.987,-105.469,-19.531,-43.457,-22.949,76.660
1687769918.991,-117.676,-36.621,-39.062,-43.457,-34.668
1687769918.995,-116.699,-41.504,-40.527,-54.688,-117.676
1687769918.999,-115.234,-49.805,-49.316,-46.387,-74.707
1687769919.003,-113.770,-57.129,-59.570,-27.832,-30.273
1687769919.007,-104.492,-43.457,-52.246,-23.438,1.465
1687769919.011,-110.352,-39.062,-34.180,-28.809,-62.988
1687769919.014,-111.816,-54.199,-29.297,-38.086,-0.488
1687769919.018,-99.121,-30.762,-54.688,-37.109,217.285
1687769919.022,-93.750,-26.855,-62.500,-25.879,46.387
1687769919.026,-99.609,-42.969,-46.387,-20.020,-183.594
1687769919.030,-89.844,-43.457,-52.246,-34.180,-82.031
1687769919.032,-82.520,-41.016,-32.715,-50.781,-60.547
1687769919.036,-89.844,-24.902,-37.109,-50.781,-124.512
1687769919.040,-98.145,-41.016,-60.547,-39.062,-114.746
1687769919.044,-108.398,-57.617,-40.039,-28.809,-57.617
1687769919.048,-99.121,-36.621,-31.250,-32.715,-49.316
1687769919.052,-98.145,-42.480,-40.527,-54.688,-3.906
1687769919.056,-104.980,-49.805,-45.898,-62.012,-27.344
1687769919.059,-96.680,-36.133,-43.457,-40.039,142.090
1687769919.063,-105.957,-38.086,-42.480,-20.508,384.277
1687769919.067,-113.770,-58.105,-56.641,-31.738,9.766
1687769919.071,-103.516,-39.551,-52.734,-46.875,-161.133
1687769919.075,-115.234,-31.250,-42.480,-54.688,70.312
1687769919.077,-112.793,-31.250,-57.129,-62.012,-58.594
1687769919.081,-100.098,-19.043,-42.969,-45.410,-206.055
1687769919.085,-104.980,-29.297,-41.504,-55.176,-129.883
1687769919.089,-104.980,-32.227,-38.574,-77.637,-97.168
1687769919.093,-96.191,-58.594,-46.387,-71.289,-115.723
1687769919.097,-87.891,-63.477,-46.387,-51.270,-115.723
1687769919.101,-93.262,-34.180,-26.855,-45.898,-9.277
1687769919.104,-105.469,-34.668,-37.109,-44.922,221.191
1687769919.108,-96.191,-40.527,-55.176,-62.500,55.664
1687769919.112,-94.238,-27.344,-48.828,-75.684,-145.508
1687769919.116,-93.262,-32.715,-35.645,-58.105,0.977
1687769919.120,-74.707,-51.270,-44.434,-37.109,52.246
1687769919.122,-71.777,-42.480,-35.645,-30.762,-47.852
1687769919.126,-77.148,-41.992,-21.484,-39.551,-102.051
1687769919.130,-75.684,-53.223,-40.527,-52.246,-66.406
1687769919.134,-78.613,-31.250,-51.758,-44.922,-72.754
1687769919.138,-77.637,-14.648,-45.898,-24.414,-165.039
1687769919.142,-56.152,-34.180,-59.570,-12.695,-64.453
1687769919.146,-43.945,-33.203,-75.195,-30.762,233.887
1687769919.149,-41.992,-25.879,-67.383,-50.293,212.891
1687769919.153,-30.762,-37.109,-31.738,-48.828,-136.719
1687769919.157,-24.902,-31.738,-30.273,-42.480,-145.020
1687769919.161,-11.719,-34.668,-35.156,-31.250,89.355
1687769919.165,-6.348,-37.598,-38.086,-45.898,25.391
1687769919.183,-18.066,-28.320,-45.410,-67.383,-87.891
1687769919.187,-1.953,-18.555,-23.926,-59.570,-137.207
1687769919.191,7.324,-11.230,-19.043,-27.344,152.344
1687769919.195,10.254,-30.273,-31.738,-20.508,132.812
1687769919.199,19.043,-35.645,-30.762,-37.598,-139.648
1687769919.203,4.883,-18.555,-45.898,-50.293,-72.754
1687769919.207,-5.859,-23.438,-45.898,-50.293,163.086
1687769919.210,1.465,-32.227,-44.434,-41.992,-20.020
1687769919.214,0.488,-22.461,-64.453,-35.645,-176.270
1687769919.218,-9.766,-32.227,-53.711,-46.387,-57.617
1687769919.222,-10.254,-46.875,-35.645,-55.176,-51.270
1687769919.226,-5.859,-41.504,-44.434,-50.293,-170.898
1687769919.228,-6.836,-45.898,-39.062,-45.898,-177.734
1687769919.232,-3.418,-37.598,-33.203,-32.227,-125.977
1687769919.236,-17.578,-31.250,-50.781,-42.480,-73.730
1687769919.240,-33.691,-52.734,-51.758,-66.895,-85.449
1687769919.244,-29.297,-60.547,-40.527,-58.594,-162.109
1687769919.248,-23.926,-41.504,-49.316,-37.598,143.066
1687769919.252,-27.832,-34.180,-41.504,-42.480,245.605
1687769919.255,-30.273,-42.480,-45.410,-60.059,-16.602
1687769919.259,-20.996,-31.250,-50.781,-60.059,-124.023
1687769919.263,-26.855,-35.645,-44.434,-65.430,85.938
1687769919.267,-28.809,-41.504,-43.457,-53.223,394.043
1687769919.271,-25.391,-27.344,-46.387,-55.664,100.098
1687769919.272,-14.160,-20.020,-41.992,-52.734,-51.758
1687769919.276,-5.859,-17.578,-27.832,-53.223,45.898
1687769919.280,-28.809,-11.230,-29.297,-89.355,-95.703
1687769919.284,-42.969,-11.230,-22.461,-94.727,-200.195
1687769919.288,-58.105,-3.906,-11.230,-95.703,-74.219
1687769919.292,-83.984,7.812,-8.301,-118.652,105.957
1687769919.296,-117.188,9.277,10.742,-159.180,-9.766
1687769919.299,-140.137,24.902,37.598,-188.477,-99.609
1687769919.303,-175.293,28.320,41.016,-221.680,-55.176
1687769919.307,-214.844,31.738,43.457,-244.141,216.309
1687769919.311,-237.305,47.852,53.711,-266.113,103.516
1687769919.315,-253.418,41.504,56.641,-305.176,-137.207
1687769919.317,-243.652,42.480,63.477,-313.965,-131.348
1687769919.321,-247.070,47.363,68.359,-317.383,-128.906
1687769919.325,-261.230,41.504,75.195,-316.895,-102.539
1687769919.329,-261.230,43.945,69.824,-318.359,-84.961
1687769919.333,-252.441,44.922,59.082,-326.172,-63.965
1687769919.337,-242.676,41.504,59.570,-326.660,-38.086
1687769919.341,-239.746,22.461,49.805,-313.477,39.551
1687769919.344,-228.516,15.137,49.805,-287.109,5.371
1687769919.348,-214.355,3.418,60.547,-252.930,135.254
1687769919.352,-207.031,-8.789,49.805,-248.535,304.688
1687769919.356,-217.285,0.000,26.367,-272.461,-10.742
1687769919.360,-216.797,-9.277,10.742,-266.113,-134.766
1687769919.362,-199.219,-23.926,12.695,-231.445,82.031
1687769919.366,-193.359,-7.324,23.438,-210.938,17.578
1687769919.370,-175.293,-6.348,12.207,-202.637,-94.727
1687769919.374,-162.598,-9.766,-14.160,-207.520,-122.559
1687769919.378,-154.785,-1.953,6.836,-197.754,-124.023
1687769919.382,-113.770,7.324,17.578,-151.367,-45.898
1687769919.386,-76.172,-4.883,-1.465,-107.422,13.184
1687769919.389,-75.195,-35.156,-27.832,-101.562,-13.184
1687769919.393,-63.477,-41.504,-55.176,-93.750,100.586
1687769919.397,-41.504,-48.340,-66.406,-79.102,34.180
1687769919.401,-41.504,-52.734,-69.336,-56.152,-78.125
1687769919.405,-26.855,-43.945,-50.293,-41.504,7.812
1687769919.412,2.441,-45.898,-39.062,-32.715,36.621
1687769919.416,18.066,-49.805,-51.270,-21.973,-78.613
1687769919.420,33.203,-57.129,-67.383,-4.395,-109.863
1687769919.424,57.617,-67.383,-85.449,31.738,-3.906
1687769919.428,78.613,-75.195,-87.891,61.523,58.594
1687769919.432,85.449,-81.055,-83.984,65.430,66.406
1687769919.436,89.355,-84.473,-82.520,65.918,-72.754
1687769919.439,97.168,-65.430,-95.703,74.219,44.434
1687769919.443,97.168,-67.871,-132.324,66.895,176.758
1687769919.447,89.355,-86.914,-119.141,63.965,-87.891
1687769919.451,95.703,-90.332,-94.727,77.637,-51.758
1687769919.455,102.539,-79.102,-104.004,77.637,152.832
1687769919.454,96.680,-82.520,-118.164,73.242,20.020
1687769919.458,112.305,-80.566,-103.027,89.355,-179.688
1687769919.462,128.906,-70.312,-92.285,107.910,-56.152
1687769919.466,119.141,-56.152,-103.516,112.305,46.387
1687769919.470,102.051,-56.152,-112.305,103.516,-72.754
1687769919.474,102.051,-56.641,-111.328,88.867,-119.629
1687769919.478,117.188,-48.828,-103.516,107.422,-66.895
1687769919.481,110.840,-61.035,-93.262,121.582,183.594
1687769919.485,83.008,-73.242,-80.566,84.961,39.062
1687769919.489,77.148,-63.965,-87.891,62.012,-182.617
1687769919.493,82.031,-76.172,-81.055,53.223,-138.672
1687769919.497,76.172,-91.309,-77.637,51.270,-83.008
1687769919.505,63.965,-83.008,-93.750,58.594,-57.617
1687769919.509,66.895,-81.055,-89.844,60.547,-77.148
1687769919.513,67.871,-76.172,-83.008,63.965,30.273
1687769919.517,65.918,-67.871,-96.191,46.387,-26.855
1687769919.521,67.383,-85.938,-104.004,30.273,-118.652
1687769919.525,65.430,-92.773,-104.004,50.293,-20.020
1687769919.529,58.594,-53.223,-105.957,72.754,261.719
1687769919.532,48.828,-54.199,-82.031,64.453,301.270
1687769919.536,44.434,-59.082,-49.805,38.574,-63.477
1687769919.540,21.484,-61.035,-66.406,18.066,-138.184
1687769919.544,11.230,-66.895,-95.215,16.113,7.324
1687769919.548,19.043,-62.988,-86.914,24.902,-16.602
1687769919.543,21.484,-61.035,-62.500,20.508,-108.887
1687769919.547,34.180,-45.898,-56.152,15.625,-95.215
1687769919.551,44.434,-59.082,-71.777,28.809,0.977
1687769919.555,31.738,-78.613,-86.914,35.156,-43.945
1687769919.559,23.438,-62.012,-85.449,26.855,-69.336
1687769919.563,11.719,-56.641,-75.195,10.254,87.402
1687769919.567,5.371,-65.430,-72.754,9.277,315.918
1687769919.570,5.371,-42.969,-72.266,6.348,111.328
1687769919.574,11.719,-28.809,-59.082,2.441,-152.344
1687769919.578,15.625,-38.086,-51.758,14.160,-62.988
1687769919.582,6.836,-43.457,-53.223,13.672,-63.477
1687769919.586,5.371,-62.988,-56.641,-5.371,-183.594
1687769919.602,-1.953,-50.781,-60.059,-16.602,-152.832
1687769919.606,-17.090,-30.762,-62.500,-5.859,-65.430
1687769919.610,-18.066,-28.809,-72.266,5.371,-54.688
1687769919.614,-19.043,-25.879,-80.078,4.395,-118.164
1687769919.618,-35.156,-48.340,-77.148,-13.184,-93.262
1687769919.622,-41.504,-50.781,-56.641,-21.973,51.270
1687769919.626,-32.227,-20.508,-46.875,-4.395,71.777
1687769919.629,-24.414,-25.391,-69.336,12.207,-1.465
1687769919.633,-10.742,-63.477,-67.871,0.000,-87.402
1687769919.637,-12.207,-59.570,-34.180,-10.742,90.820
1687769919.641,-20.508,-30.273,-45.898,-16.113,374.023
1687769919.645,-29.785,-14.648,-70.801,-24.902,-5.859
1687769919.647,-37.109,-33.691,-61.523,-20.020,-174.316
1687769919.651,-33.691,-45.898,-51.270,-21.484,-31.250
1687769919.655,-35.645,-31.250,-56.641,-26.855,-151.855
1687769919.659,-39.062,-26.855,-47.852,-25.879,-270.996
1687769919.663,-40.039,-27.832,-50.781,-25.879,-192.383
1687769919.667,-43.457,-34.180,-54.688,-12.207,-41.504
1687769919.671,-42.969,-51.758,-51.270,1.953,-35.156
1687769919.674,-41.504,-58.105,-51.758,-14.160,-140.625
1687769919.678,-45.410,-36.621,-45.898,-43.457,-167.969
1687769919.682,-45.410,-33.691,-38.574,-22.949,161.621
1687769919.686,-36.621,-53.711,-52.734,-0.977,104.980
1687769919.690,-38.574,-50.781,-61.035,-16.113,-67.871
1687769919.692,-37.109,-29.785,-45.410,-23.438,1.465
1687769919.696,-34.180,-29.785,-48.340,-33.203,-72.754
1687769919.700,-41.992,-35.645,-49.316,-42.480,-179.688
1687769919.704,-42.480,-38.574,-55.176,-33.691,-148.926
1687769919.708,-29.297,-24.414,-49.316,-8.789,-8.789
1687769919.712,-33.691,-27.832,-35.156,-17.578,40.527
1687769919.716,-35.156,-42.969,-42.969,-35.645,-7.812
1687769919.719,-23.438,-48.828,-58.105,-19.043,-73.242
1687769919.723,-16.602,-47.852,-58.594,-2.441,65.918
1687769919.727,-28.320,-20.996,-55.176,-14.160,210.938
1687769919.731,-42.480,-22.949,-55.664,-39.062,41.992
1687769919.735,-38.574,-40.527,-60.547,-40.527,-111.816
1687769919.737,-31.738,-42.480,-64.941,-34.180,81.055
1687769919.741,-22.461,-54.688,-53.711,-26.367,9.277
1687769919.745,-9.277,-47.363,-33.691,-17.090,-172.852
1687769919.749,-26.855,-22.461,-45.410,-22.461,-101.562
1687769919.753,-41.992,-9.766,-67.871,-28.809,-95.703
1687769919.757,-43.945,-24.414,-56.152,-33.203,-43.945
1687769919.761,-43.457,-39.551,-41.992,-32.227,-9.277
1687769919.764,-35.156,-33.691,-46.875,-20.020,17.578
1687769919.768,-40.527,-23.438,-49.316,-15.625,198.242
1687769919.772,-43.945,-4.395,-54.199,-25.879,21.973
1687769919.776,-32.227,-13.672,-55.664,-39.551,-167.480
1687769919.780,-31.250,-41.016,-65.918,-26.367,-68.848
1687769919.783,-29.297,-26.855,-67.383,-17.578,14.648
1687769919.787,-20.996,-10.254,-42.969,-22.949,-20.996
1687769919.791,-16.602,-37.109,-43.457,-23.926,-32.227
1687769919.795,-26.367,-49.805,-53.223,-55.176,13.184
1687769919.799,-35.645,-32.715,-48.340,-57.617,38.574
1687769919.803,-37.598,-29.297,-60.547,-28.809,-26.367
1687769919.807,-36.621,-38.086,-52.734,-33.203,-31.738
1687769919.810,-29.297,-21.973,-35.645,-29.785,183.105
1687769919.814,-36.621,-14.648,-45.410,-28.320,135.254
1687769919.818,-44.434,-38.086,-52.246,-38.574,-70.801
1687769919.822,-32.715,-41.016,-65.430,-12.207,-13.672
1687769919.826,-24.902,-38.574,-56.152,0.977,104.004
1687769919.828,-29.297,-36.133,-34.180,-27.832,-66.895
1687769919.832,-34.668,-28.320,-34.180,-41.992,-203.613
1687769919.836,-34.180,-25.391,-34.180,-31.250,-120.117
1687769919.840,-21.973,-25.391,-46.875,-8.301,-69.824
1687769919.844,-15.625,-32.227,-59.082,-16.113,-1.465
1687769919.848,-38.574,-52.734,-48.828,-44.434,-32.715
1687769919.852,-45.898,-36.133,-31.738,-46.875,61.523
1687769919.855,-28.809,-0.488,-39.551,-22.949,235.352
1687769919.859,-41.504,-27.832,-68.359,-27.832,71.777
1687769919.863,-54.688,-34.180,-67.383,-39.551,-192.383
1687769919.867,-53.711,-27.832,-53.711,-42.480,-156.738
1687769919.871,-58.594,-50.781,-41.016,-61.523,-101.074
1687769919.876,-52.246,-51.758,-23.926,-50.781,-192.383
1687769919.880,-35.645,-44.922,-27.832,-25.391,-168.457
1687769919.884,-29.785,-63.477,-28.320,-21.973,0.488
1687769919.888,-44.922,-54.199,-26.855,-48.828,-34.180
1687769919.892,-55.664,-36.133,-34.668,-67.383,-144.043
1687769919.896,-48.828,-37.109,-57.617,-54.688,-52.246
1687769919.900,-49.805,-33.691,-57.129,-29.297,153.809
1687769919.903,-51.270,-42.480,-39.062,-24.414,137.695
1687769919.907,-52.734,-45.410,-41.992,-51.758,-128.906
1687769919.911,-48.340,-37.598,-50.781,-58.594,-174.316
1687769919.915,-38.086,-42.969,-45.898,-40.039,127.441
1687769919.919,-30.273,-40.039,-43.457,-29.785,127.441
1687769919.918,-22.461,-16.602,-47.852,-19.531,-131.348
1687769919.922,-28.809,-8.789,-25.391,-22.949,-134.277
1687769919.926,-42.480,-28.809,-23.438,-54.199,-71.777
1687769919.930,-41.504,-41.504,-44.434,-60.547,-142.578
1687769919.934,-50.293,-39.062,-51.758,-40.039,-182.617
1687769919.938,-53.223,-38.086,-26.367,-35.156,15.625
1687769919.942,-41.016,-48.828,-25.879,-34.180,241.211
1687769919.945,-41.992,-49.805,-41.504,-40.527,45.898
1687769919.949,-34.668,-45.898,-41.504,-43.457,-81.055
1687769919.953,-25.879,-47.852,-28.809,-38.086,12.207
1687769919.957,-40.527,-56.152,-29.297,-38.086,105.469
1687769919.961,-51.270,-50.781,-46.875,-42.480,-9.766
1687769919.978,-57.617,-39.551,-40.527,-57.129,-156.738
1687769919.982,-54.199,-35.156,-31.738,-52.734,-181.152
1687769919.986,-39.062,-35.645,-37.598,-25.879,-118.652
1687769919.990,-52.734,-45.410,-32.227,-23.926,-31.250
1687769919.994,-63.477,-50.781,-38.574,-31.250,-88.379
1687769919.998,-57.617,-44.434,-40.039,-50.781,-0.977
1687769920.002,-58.594,-38.086,-40.039,-71.289,26.367
1687769920.005,-63.477,-50.781,-44.922,-66.406,-75.195
1687769920.009,-59.570,-50.293,-35.645,-38.086,-48.340
1687769920.013,-64.941,-42.480,-30.273,-28.809,103.027
1687769920.017,-69.824,-41.016,-42.480,-46.875,169.434
1687769920.021,-59.570,-48.828,-62.988,-50.293,-63.477
1687769920.024,-51.270,-49.316,-50.781,-30.762,-133.789
1687769920.028,-64.941,-33.691,-22.949,-25.391,80.566
1687769920.032,-69.336,-30.273,-12.207,-30.273,17.090
1687769920.036,-61.035,-41.016,-27.832,-47.852,-124.512
1687769920.040,-68.359,-50.781,-64.453,-65.430,-145.020
1687769920.044,-71.289,-58.105,-71.289,-56.152,-32.715
1687769920.048,-71.777,-67.383,-43.945,-56.641,12.695
1687769920.051,-73.242,-47.852,-35.156,-50.293,-107.422
1687769920.055,-69.824,-33.203,-35.156,-49.805,-56.152
1687769920.059,-75.684,-52.246,-34.668,-53.711,150.391
1687769920.063,-88.379,-50.293,-35.645,-58.594,-29.297
1687769920.067,-99.609,-26.855,-37.598,-54.199,-176.270
1687769920.069,-110.840,-29.785,-39.551,-37.109,-106.934
1687769920.073,-141.113,-43.457,-42.969,-53.223,-18.555
1687769920.077,-168.945,-40.039,-38.574,-65.430,-95.215
1687769920.081,-171.387,-45.898,-35.645,-56.152,-201.660
1687769920.085,-176.758,-48.340,-54.199,-50.781,3.906
1687769920.089,-192.383,-41.016,-51.270,-55.664,125.977
1687769920.093,-187.988,-34.180,-45.898,-50.781,31.738
1687769920.096,-184.570,-25.391,-42.480,-51.758,-86.914
1687769920.100,-204.102,-25.879,-55.664,-55.664,62.500
1687769920.104,-200.684,-29.785,-74.219,-50.293,178.223
1687769920.108,-192.383,-16.113,-36.621,-44.434,-46.387
1687769920.112,-197.266,-9.766,-8.789,-38.574,-101.562
1687769920.113,-208.008,-29.297,-28.809,-41.504,29.785
1687769920.117,-208.984,-48.340,-42.969,-50.781,-45.410
1687769920.121,-196.289,-55.664,-31.738,-47.363,-172.852
1687769920.125,-209.961,-40.039,-39.062,-50.781,-82.031
1687769920.129,-218.262,-20.996,-54.199,-53.223,2.441
1687769920.133,-213.867,-37.598,-47.852,-69.824,24.414
1687769920.137,-207.520,-41.504,-38.574,-67.871,-37.109
1687769920.140,-184.570,-16.602,-44.922,-46.387,-39.551
1687769920.144,-162.109,-12.695,-38.574,-30.273,234.863
1687769920.148,-147.949,-4.395,-26.855,-20.508,111.328
1687769920.152,-173.828,-5.371,-40.039,-55.664,-153.320
1687769920.156,-175.781,0.977,-25.879,-74.219,-83.008
1687769920.158,-169.922,19.043,-4.395,-71.777,-59.570
1687769920.162,-217.773,16.113,-19.043,-91.309,-117.676
1687769920.166,-274.902,9.766,-13.672,-142.578,-86.914
1687769920.170,-297.852,28.809,17.578,-187.012,-81.543
1687769920.174,-320.801,21.484,33.691,-218.750,-117.676
1687769920.178,-347.168,13.184,45.898,-247.559,-102.051
1687769920.182,-355.469,40.527,61.523,-264.648,-37.598
1687769920.185,-379.883,53.223,57.617,-288.574,201.660
1687769920.189,-405.273,44.434,56.641,-313.477,289.551
1687769920.193,-392.578,45.898,60.547,-323.242,-71.289
1687769920.197,-360.352,54.688,61.035,-303.223,-56.641
1687769920.201,-345.703,58.594,66.406,-286.621,203.125
1687769920.203,-337.402,48.828,65.918,-291.504,39.551
1687769920.207,-329.590,40.527,54.688,-300.293,-179.688
1687769920.211,-326.172,36.133,50.293,-297.363,-143.066
1687769920.215,-322.266,29.297,48.828,-280.762,-94.727
1687769920.219,-311.523,18.066,39.062,-241.211,-81.055
1687769920.223,-312.988,-0.977,31.738,-215.332,39.551
1687769920.227,-303.223,3.418,26.367,-215.820,55.664
1687769920.230,-285.156,25.391,12.207,-225.586,172.363
1687769920.234,-270.996,37.598,14.648,-220.703,149.902
1687769920.238,-264.160,18.555,17.578,-197.754,-75.195
1687769920.242,-264.648,-2.930,9.766,-189.941,-69.336
1687769920.246,-257.324,6.348,-6.348,-177.734,17.578
1687769920.299,-259.277,4.395,-24.902,-183.105,-182.129
1687769920.303,-259.277,-15.137,-19.531,-176.270,-202.637
1687769920.307,-260.742,-21.484,-22.461,-144.043,-22.949
1687769920.311,-254.395,-41.504,-44.434,-125.488,-61.523
1687769920.315,-224.609,-69.336,-56.641,-95.215,-163.574
1687769920.319,-207.520,-55.176,-52.246,-77.637,-122.559
1687769920.323,-189.453,-60.547,-60.547,-52.246,177.246
1687769920.326,-171.875,-53.711,-87.891,-16.113,218.262
1687769920.330,-167.480,-33.203,-76.660,-9.766,-56.152
1687769920.334,-152.832,-48.828,-61.035,-8.301,-129.395
1687769920.338,-139.160,-65.430,-76.660,-11.230,-43.945
1687769920.342,-132.324,-78.613,-88.379,0.000,-20.020
1687769920.305,-109.375,-80.566,-95.703,27.832,-111.328
1687769920.309,-93.750,-94.727,-98.145,42.480,-95.703
1687769920.313,-83.008,-109.375,-98.145,48.828,151.367
1687769920.317,-76.660,-80.566,-111.816,35.645,-20.996
1687769920.321,-65.430,-79.102,-96.680,47.852,-223.633
1687769920.325,-51.758,-97.168,-83.008,80.566,9.766
1687769920.329,-39.551,-98.633,-100.098,81.055,278.320
1687769920.332,-36.133,-95.703,-109.863,66.895,84.473
1687769920.336,-20.996,-83.008,-117.188,71.289,-150.391
1687769920.340,-10.254,-63.477,-111.816,72.754,-157.715
1687769920.344,-0.488,-68.359,-98.145,82.520,-78.613
1687769920.348,8.789,-71.777,-103.027,97.656,-65.430
1687769920.360,-16.113,-73.730,-105.469,86.426,-71.289
1687769920.364,-26.367,-83.984,-101.562,71.289,6.348
1687769920.368,-20.020,-85.449,-109.375,64.453,-7.812
1687769920.372,-29.297,-78.125,-95.215,65.918,-125.000
1687769920.376,-23.926,-70.801,-88.379,65.918,-133.301
1687769920.380,-11.230,-65.430,-108.887,70.312,39.551
1687769920.384,-13.672,-72.754,-91.309,81.543,136.230
1687769920.387,-25.391,-99.609,-83.008,72.266,-19.531
1687769920.391,-23.926,-91.797,-93.750,60.059,-153.809
1687769920.395,-8.301,-69.336,-81.055,73.242,153.809
1687769920.399,-1.953,-64.453,-88.867,76.172,325.684
1687769920.403,-11.719,-75.684,-111.816,43.457,4.883
1687769920.412,-11.230,-79.102,-92.773,37.598,-105.469
1687769920.416,-16.602,-50.781,-64.941,59.570,47.363
1687769920.420,-29.297,-46.387,-72.266,55.176,69.824
1687769920.424,-23.926,-64.453,-82.031,51.270,-49.316
1687769920.428,-20.996,-57.617,-72.754,49.805,-9.766
1687769920.432,-21.973,-48.340,-81.543,51.270,190.918
1687769920.436,-8.789,-49.805,-97.168,57.617,68.848
1687769920.439,0.000,-60.059,-92.285,40.527,-122.559
1687769920.443,6.836,-65.918,-68.359,27.344,-74.707
1687769920.447,11.230,-71.777,-52.246,30.273,106.934
1687769920.451,8.789,-84.473,-63.965,15.137,-74.219
1687769920.455,17.578,-79.102,-76.660,3.906,-205.566
1687769920.442,21.973,-65.918,-70.312,27.832,-83.496
1687769920.446,-9.766,-52.246,-59.082,35.645,-90.332
1687769920.450,-23.926,-43.457,-60.059,27.344,-186.523
1687769920.454,-19.043,-64.453,-61.523,25.879,-215.332
1687769920.458,-34.180,-68.359,-48.828,12.695,-126.953
1687769920.462,-48.340,-34.668,-44.922,12.695,-17.578
1687769920.466,-55.176,-33.691,-45.898,23.438,-88.867
1687769920.469,-60.547,-40.039,-65.430,10.254,-44.434
1687769920.473,-60.059,-36.133,-70.801,-4.883,58.594
1687769920.477,-53.711,-52.246,-61.523,-2.930,-16.113
1687769920.481,-55.176,-60.547,-62.988,3.906,-33.691
1687769920.485,-62.500,-47.363,-38.574,18.555,-42.480
1687769920.487,-65.430,-29.785,-51.270,20.508,160.645
1687769920.491,-73.242,-40.039,-65.430,-3.906,345.703
1687769920.495,-60.547,-47.852,-43.457,-21.973,22.949
1687769920.499,-51.758,-43.945,-53.711,-3.418,-174.805
1687769920.503,-76.172,-43.945,-69.336,12.207,-103.027
1687769920.507,-71.777,-39.062,-60.059,-0.488,4.883
1687769920.511,-66.895,-27.832,-55.176,-9.766,33.691
1687769920.514,-83.008,-35.645,-63.477,-31.250,-51.758
1687769920.518,-90.332,-54.688,-65.430,-18.066,214.355
1687769920.522,-92.773,-50.293,-60.547,4.883,158.203
1687769920.526,-87.891,-28.320,-50.781,-4.395,-72.266
1687769920.530,-75.195,-11.719,-44.922,-5.371,-56.152
1687769920.532,-66.895,-40.527,-57.617,-9.277,-63.965
1687769920.536,-75.195,-49.316,-63.965,-7.812,-153.320
1687769920.540,-94.727,-17.578,-49.805,-7.812,-189.453
1687769920.544,-111.816,-13.184,-48.340,-29.785,-85.449
1687769920.548,-120.605,-17.578,-56.152,-48.340,-24.902
1687769920.552,-117.676,-20.508,-46.875,-48.828,-86.914
1687769920.556,-116.211,-21.973,-39.062,-51.758,-105.469
1687769920.559,-122.559,-28.320,-55.176,-33.691,185.059
1687769920.563,-120.605,-39.062,-64.941,-29.785,244.141
1687769920.567,-108.398,-29.297,-36.621,-41.016,-9.277
1687769920.571,-114.258,-43.457,-34.180,-39.062,18.066
1687769920.575,-115.234,-54.199,-48.340,-36.133,192.871
1687769920.578,-115.723,-37.598,-42.480,-37.109,134.766
1687769920.582,-119.629,-25.879,-52.734,-37.109,-110.840
1687769920.586,-112.793,-12.207,-52.734,-41.016,-47.852
1687769920.590,-106.934,-14.648,-35.645,-49.316,-27.832
1687769920.594,-110.840,-35.645,-37.109,-45.410,-182.129
1687769920.598,-107.422,-39.062,-37.109,-27.832,-125.977
1687769920.602,-104.492,-23.438,-44.434,-18.555,101.562
1687769920.605,-112.305,-16.113,-28.809,-22.461,309.570
1687769920.609,-110.352,-21.484,-20.508,-33.691,29.297
1687769920.613,-98.633,-32.227,-55.664,-32.227,-214.844
1687769920.617,-96.680,-38.574,-57.617,-26.367,-114.258
1687769920.621,-100.098,-25.879,-24.414,-24.414,-65.430
1687769920.625,-102.051,-22.461,-31.250,-23.926,-106.934
1687769920.629,-101.074,-28.809,-56.152,-36.621,-155.273
1687769920.633,-93.262,-23.438,-31.738,-45.898,-101.074
1687769920.637,-81.055,-12.695,-10.254,-28.320,-92.285
1687769920.641,-86.426,-16.602,-36.133,-24.414,-115.723
1687769920.645,-90.332,-36.133,-43.945,-35.645,-99.121
1687769920.649,-82.520,-32.227,-33.203,-37.598,145.996
1687769920.652,-84.473,-24.902,-42.480,-42.480,201.660
1687769920.656,-86.914,-23.438,-43.457,-42.480,-131.836
1687769920.660,-87.402,-19.531,-51.758,-35.156,-97.656
1687769920.664,-87.402,-32.715,-49.805,-24.414,94.238
1687769920.668,-77.637,-29.785,-45.898,-36.133,-11.230
1687769920.683,-64.941,-26.367,-53.711,-57.617,-104.492
1687769920.687,-62.500,-23.926,-45.410,-53.223,-49.316
1687769920.691,-67.871,-7.812,-47.363,-39.551,101.074
1687769920.695,-59.570,-5.371,-65.918,-37.598,103.027
1687769920.699,-33.203,-10.254,-60.059,-23.926,-66.895
1687769920.703,-36.133,-24.902,-32.715,-7.812,-104.980
1687769920.707,-94.727,-43.945,-29.297,-23.438,264.160
1687769920.710,-139.160,-54.199,-24.902,-54.199,201.660
1687769920.714,-154.785,-67.871,-28.320,-65.430,-131.836
1687769920.718,-172.852,-67.871,-30.762,-79.590,-146.484
1687769920.722,-171.387,-70.801,-32.715,-111.328,-171.387
1687769920.726,-149.902,-62.500,-50.781,-109.863,-155.273
1687769920.728,-138.672,-50.781,-50.293,-87.891,-107.422
1687769920.732,-146.973,-51.270,-39.551,-87.402,-85.938
1687769920.736,-153.320,-52.246,-46.387,-110.840,-64.453
1687769920.740,-144.043,-62.988,-29.785,-111.328,-111.328
1687769920.744,-130.859,-60.059,-22.461,-95.215,-91.797
1687769920.748,-125.000,-46.875,-41.016,-79.102,115.234
1687769920.752,-139.160,-59.570,-52.246,-65.918,164.062
1687769920.755,-156.738,-83.496,-53.223,-76.660,14.160
1687769920.759,-166.504,-82.031,-63.477,-86.426,-157.715
1687769920.763,-161.621,-63.477,-73.242,-62.988,61.035
1687769920.767,-164.551,-60.059,-59.082,-39.062,417.480
1687769920.771,-160.645,-80.078,-37.109,-44.434,90.332
1687769920.773,-156.738,-66.895,-56.152,-51.270,-104.492
1687769920.777,-165.039,-50.781,-62.988,-56.641,3.418
1687769920.781,-169.922,-54.199,-47.363,-61.035,-61.035
1687769920.785,-165.527,-43.457,-51.758,-57.129,-106.445
1687769920.789,-155.273,-55.664,-60.547,-45.410,-61.523
1687769920.793,-149.902,-47.363,-50.293,-56.152,-51.270
1687769920.797,-142.090,-43.945,-20.996,-62.988,-102.539
1687769920.800,-129.395,-52.246,-21.973,-57.617,-102.051
1687769920.804,-87.891,-39.551,-33.691,-36.621,10.254
1687769920.808,-49.805,-30.762,-63.477,-9.766,295.410
1687769920.812,-49.316,-39.551,-56.641,-17.578,167.480
1687769920.816,-45.898,-44.922,-23.438,-40.039,-140.137
1687769920.819,-29.785,-38.086,-21.484,-44.922,-129.395
1687769920.823,-40.527,-52.734,-26.367,-28.809,-67.871
1687769920.827,-52.734,-58.105,-25.391,-31.250,-80.078
1687769920.831,-44.434,-47.363,-29.785,-31.250,-69.824
1687769920.835,-60.547,-58.105,-44.434,-39.062,-73.242
1687769920.839,-64.941,-46.875,-35.156,-45.898,-102.539
1687769920.843,-62.012,-38.086,-32.227,-26.855,-46.387
1687769920.846,-69.336,-43.457,-38.574,-18.066,-57.617
1687769920.850,-71.289,-44.922,-45.898,-19.531,85.449
1687769920.854,-75.684,-54.688,-52.246,-35.645,198.242
1687769920.858,-83.984,-49.805,-46.875,-44.922,19.531
1687769920.862,-81.055,-33.691,-38.086,-29.297,26.367
1687769920.863,-56.152,-25.879,-35.156,-11.719,260.254
1687769920.867,-39.551,-28.320,-44.922,-18.555,187.012
1687769920.871,-22.461,-25.391,-42.480,-31.738,-140.137
1687769920.875,-4.395,-22.461,-36.621,-41.992,-165.039
1687769920.879,-3.906,-20.020,-36.621,-47.852,-56.152
1687769920.883,1.953,-5.371,-30.762,-30.762,-22.949
1687769920.887,-16.113,-12.207,-34.668,-45.898,-23.926
1687769920.890,-57.129,-32.227,-37.598,-84.961,-52.246
1687769920.894,-79.102,-21.484,-31.738,-99.609,131.836
1687769920.898,-123.047,14.648,-26.855,-125.488,-53.223
1687769920.902,-174.805,18.066,-25.391,-147.461,-201.660
1687769920.906,-203.125,6.836,-18.066,-176.270,-65.430
1687769920.909,-225.098,14.160,-0.488,-213.867,-47.852
1687769920.913,-252.441,20.020,15.625,-237.305,-124.023
1687769920.917,-301.270,30.762,31.250,-289.062,-189.453
1687769920.921,-350.098,39.551,52.734,-323.242,-5.859
1687769920.925,-371.582,23.926,66.406,-320.312,39.062
1687769920.929,-367.676,12.207,70.312,-329.590,-42.969
1687769920.933,-366.211,16.113,63.477,-356.445,-94.238
1687769920.936,-374.512,21.484,56.152,-355.469,2.441
1687769920.940,-352.539,25.879,61.523,-324.219,146.973
1687769920.944,-322.754,20.996,53.711,-302.246,-43.457
1687769920.948,-310.547,19.531,54.688,-306.641,-41.504
1687769920.952,-312.988,25.879,41.016,-312.500,80.078
1687769920.954,-298.340,13.184,12.207,-296.387,-28.320
1687769920.958,-276.367,-10.254,25.879,-268.555,-100.586
1687769920.962,-266.602,-15.137,38.574,-250.488,6.836
1687769920.966,-254.883,-4.883,41.992,-244.629,50.781
1687769920.970,-256.348,10.254,42.969,-246.094,-89.844
1687769920.974,-237.305,-21.484,29.785,-236.816,-172.852
1687769920.978,-209.961,-51.270,7.812,-219.238,-6.836
1687769920.981,-204.590,-13.184,9.277,-180.664,281.250
1687769920.985,-193.848,8.789,-0.488,-169.922,69.824
1687769920.989,-176.758,-16.113,-25.391,-192.383,-171.387
1687769920.993,-149.414,-35.156,-13.672,-168.457,-67.871
1687769920.997,-125.977,-34.180,-26.855,-129.883,-19.043
1687769920.998,-104.492,-32.227,-31.738,-97.656,-57.617
1687769921.002,-77.148,-61.523,-45.410,-72.266,-73.730
1687769921.006,-51.270,-68.848,-73.242,-69.824,22.461
1687769921.010,-48.828,-54.688,-57.129,-67.383,-13.672
1687769921.014,-34.180,-75.195,-50.293,-37.109,-96.191
1687769921.018,4.883,-87.891,-58.105,-13.672,-14.160
1687769921.022,2.930,-84.961,-62.500,-1.953,195.312
1687769921.025,5.859,-61.035,-78.125,19.043,362.305
1687769921.029,35.156,-57.617,-79.102,6.836,-11.230
1687769921.033,48.828,-91.309,-69.336,12.695,-117.188
1687769921.037,67.871,-73.242,-79.590,60.547,175.293
1687769921.041,87.891,-56.152,-83.008,73.242,-1.465
1687769921.043,82.031,-70.312,-71.777,55.176,-186.035
1687769921.047,90.332,-77.148,-80.566,54.199,-126.465
1687769921.051,116.699,-77.148,-82.031,75.684,-66.406
1687769921.055,129.395,-68.359,-85.449,97.656,-63.965
1687769921.059,142.578,-77.148,-108.887,97.168,-139.160
1687769921.063,160.156,-91.309,-120.117,80.566,-46.875
1687769921.067,173.828,-80.566,-85.449,88.379,252.930
1687769921.070,178.711,-82.520,-70.312,90.332,133.301
1687769921.074,186.035,-93.750,-84.473,96.191,-121.582
1687769921.078,197.266,-98.633,-72.754,101.562,-31.738
1687769921.082,205.078,-70.312,-70.801,99.609,70.312
1687769921.086,202.637,-54.199,-84.473,95.703,-99.121
1687769921.103,200.684,-72.266,-100.098,86.426,-124.512
1687769921.107,202.148,-81.055,-104.004,77.148,-41.992
1687769921.111,190.430,-79.590,-91.797,83.008,-51.270
1687769921.115,174.316,-72.266,-87.891,83.008,-65.918
1687769921.119,168.457,-65.918,-87.891,66.895,-153.809
1687769921.123,172.363,-73.730,-89.355,72.266,42.480
1687769921.127,179.688,-73.730,-75.684,83.008,145.996
1687769921.130,182.617,-75.684,-75.195,75.684,-10.254
1687769921.134,177.734,-63.965,-85.938,55.664,-135.742
1687769921.138,180.176,-48.340,-74.707,46.875,86.426
1687769921.142,178.223,-52.734,-68.848,59.570,383.301
1687769921.146,175.293,-60.059,-72.266,73.242,50.781
1687769921.148,178.711,-60.547,-81.055,72.266,-171.875
1687769921.152,166.504,-72.266,-85.938,59.570,-104.980
1687769921.156,161.621,-81.055,-77.637,45.410,-206.543
1687769921.160,171.387,-52.734,-74.219,48.340,-183.105
1687769921.164,156.738,-28.320,-61.523,42.480,-64.453
1687769921.168,138.672,-35.156,-47.363,42.480,-5.371
1687769921.172,141.602,-49.316,-47.852,44.922,23.438
1687769921.175,140.137,-46.387,-55.664,9.766,-100.586
1687769921.179,144.531,-41.016,-74.219,4.883,-160.645
1687769921.183,150.879,-48.828,-70.312,41.992,119.629
1687769921.187,152.832,-46.875,-73.242,50.781,40.039
1687769921.191,135.254,-38.086,-85.938,27.832,-141.113
1687769921.193,125.488,-40.039,-57.129,0.488,13.672
1687769921.197,134.277,-41.016,-76.172,7.324,-42.480
1687769921.201,121.582,-46.875,-79.590,25.879,-93.750
1687769921.205,115.723,-52.734,-45.410,25.879,-57.617
1687769921.209,123.535,-50.293,-40.527,33.691,-36.621
1687769921.213,101.562,-51.270,-52.734,23.926,-18.066
1687769921.217,71.777,-51.270,-51.758,3.906,-20.996
1687769921.220,36.133,-39.551,-54.688,4.395,-17.090
1687769921.224,-5.371,-57.617,-73.242,12.207,71.289
1687769921.228,-40.527,-55.664,-82.031,13.184,184.570
1687769921.232,-80.078,-21.484,-75.684,-5.371,2.441
1687769921.236,-104.004,-42.480,-70.312,-11.719,-123.535
1687769921.239,-104.980,-55.176,-41.504,7.324,90.332
1687769921.243,-117.676,-45.410,-22.949,14.160,67.871
1687769921.247,-128.418,-66.895,-34.668,1.465,-81.055
1687769921.251,-128.418,-61.035,-39.551,1.465,-76.172
1687769921.255,-130.859,-42.969,-45.410,-3.418,43.457
1687769921.259,-126.465,-21.973,-62.500,-5.859,49.316
1687769921.263,-124.023,-28.809,-52.734,2.441,75.195
1687769921.266,-135.742,-42.969,-48.340,-4.395,125.488
1687769921.270,-137.207,-25.391,-55.664,-6.836,225.098
1687769921.274,-123.535,-23.438,-37.598,-20.508,-51.270
1687769921.278,-115.234,-44.922,-36.133,-20.508,-174.805
1687769921.282,-116.211,-45.898,-45.898,1.953,37.109
1687769921.283,-114.258,-17.578,-49.805,8.789,-30.762
1687769921.287,-114.258,-18.555,-53.711,-4.395,-151.367
1687769921.291,-106.445,-25.879,-63.477,-22.949,-126.953
1687769921.295,-104.980,-14.648,-56.152,-25.879,-94.238
1687769921.299,-100.098,-8.301,-25.879,-5.371,-19.043
1687769921.303,-78.613,-13.184,-17.578,2.930,20.996
1687769921.307,-81.543,-16.602,-35.156,-7.324,-81.543
1687769921.310,-84.961,-31.250,-39.062,-8.789,18.555
1687769921.314,-69.336,-37.109,-31.250,-13.184,214.844
1687769921.318,-65.430,-29.297,-44.434,-20.996,-10.254
1687769921.322,-60.547,-25.391,-43.457,-19.043,-15.137
1687769921.326,-56.152,-26.855,-39.062,-28.320,150.879
1687769921.328,-56.641,-12.695,-54.688,-37.598,17.090
1687769921.332,-58.594,-30.762,-74.707,-55.176,-161.133
1687769921.336,-53.711,-46.875,-79.590,-53.711,-195.312
1687769921.340,-35.156,-23.438,-55.176,-27.832,-92.285
1687769921.344,-41.504,-39.551,-45.410,-40.527,-41.992
1687769921.348,-59.082,-57.617,-50.781,-62.500,-136.719
1687769921.352,-64.453,-36.621,-29.785,-61.523,-44.922
1687769921.355,-60.547,-33.203,-43.457,-37.598,396.973
1687769921.359,-53.223,-34.180,-56.152,-22.949,300.293
1687769921.363,-51.758,-28.320,-54.199,-29.785,-90.820
1687769921.367,-49.805,-40.527,-53.711,-52.246,-59.082
1687769921.371,-33.203,-40.039,-35.645,-51.758,-45.410
1687769921.373,-26.367,-42.480,-35.645,-37.598,-140.625
1687769921.377,-26.367,-48.828,-51.758,-8.301,-105.469
1687769921.381,-28.809,-33.691,-58.594,1.953,-35.156
1687769921.385,-31.738,-30.762,-46.387,-31.738,-49.805
1687769921.389,-24.902,-45.898,-28.320,-30.273,-161.621
1687769921.393,-15.625,-45.410,-22.949,-6.348,-96.680
1687769921.397,-22.949,-52.734,-38.574,-8.301,184.570
1687769921.400,-16.602,-58.594,-45.898,-0.977,194.336
1687769921.404,-20.996,-38.574,-67.383,-14.160,-84.473
1687769921.408,-31.738,-32.715,-68.359,-37.109,-132.812
1687769921.412,-11.719,-25.879,-47.363,-15.137,64.453
1687769921.416,-3.906,-24.902,-59.082,9.277,103.027
1687769921.418,-9.766,-31.250,-64.453,4.883,-102.051
1687769921.422,-9.766,-44.434,-49.805,-2.930,-168.457
1687769921.426,-17.090,-45.410,-43.457,-20.020,-104.004
1687769921.430,-14.648,-41.504,-63.965,-16.113,-132.812
1687769921.434,-11.719,-29.785,-56.641,-6.348,-157.227
1687769921.438,-10.254,-21.973,-31.250,-0.488,41.992
1687769921.442,-14.648,-32.715,-33.691,-4.883,266.602
1687769921.445,-21.484,-33.691,-44.922,-33.691,3.418
1687769921.449,-18.555,-29.297,-60.547,-38.574,-205.078
1687769921.453,-22.461,-23.438,-50.293,-27.832,-56.152
1687769921.457,-21.973,-24.414,-41.504,-6.836,56.152
1687769921.461,-11.719,-28.809,-38.574,-9.766,3.906
1687769921.463,-17.578,-39.062,-39.062,-36.621,-146.973
1687769921.467,-36.621,-35.156,-40.039,-44.434,-95.703
1687769921.471,-36.133,-37.109,-28.320,-34.180,22.461
1687769921.475,-16.113,-42.969,-16.602,-20.508,-19.531
1687769921.479,-17.090,-39.062,-31.250,-28.320,-65.918
1687769921.483,-14.160,-30.762,-47.363,-38.086,84.961
1687769921.487,-11.230,-42.969,-50.781,-31.738,175.293
1687769921.490,-12.695,-39.062,-44.922,-30.762,5.371
1687769921.494,-14.648,-23.438,-36.133,-32.715,-34.668
1687769921.498,-26.855,-32.227,-41.016,-25.391,190.918
1687769921.502,-43.945,-38.086,-58.105,-44.434,172.363
1687769921.506,-42.969,-42.480,-78.613,-64.941,-103.027
1687769921.523,-29.785,-44.434,-46.387,-49.316,-30.762
1687769921.527,-23.926,-52.246,-20.996,-28.809,194.824
1687769921.531,-22.949,-52.246,-36.133,-31.250,24.902
1687769921.535,-17.090,-30.273,-39.062,-39.062,-205.566
1687769921.539,-18.555,-31.250,-42.480,-44.922,-72.266
1687769921.543,-19.531,-36.621,-35.156,-35.156,139.648
1687769921.547,-3.418,-18.555,-41.016,-16.602,99.121
1687769921.550,-9.277,-27.832,-87.891,-41.504,-60.547
1687769921.554,-16.113,-52.734,-60.547,-54.199,-107.422
1687769921.558,-14.160,-69.824,-29.785,-48.340,116.211
1687769921.562,0.977,-43.945,-30.273,-43.945,-36.621
1687769921.566,3.418,-15.625,-16.113,-26.855,-181.641
1687769921.568,-12.207,-38.574,-20.020,-28.320,-58.594
1687769921.572,-18.066,-45.410,-39.551,-55.176,-46.875
1687769921.576,-27.832,-49.316,-57.617,-74.707,-164.551
1687769921.580,-20.508,-53.711,-55.664,-69.824,-140.625
1687769921.584,-4.395,-30.762,-39.551,-50.293,75.195
1687769921.588,-8.789,-30.273,-38.086,-41.504,164.551
1687769921.592,-19.043,-36.133,-60.059,-60.547,12.207
1687769921.595,-20.508,-44.922,-42.969,-76.660,-139.648
1687769921.599,0.977,-45.898,-23.926,-46.387,74.707
1687769921.603,11.230,-19.043,-44.434,-27.832,227.051
1687769921.607,-5.371,-49.805,-41.992,-47.363,37.598
1687769921.611,-19.043,-78.125,-32.227,-51.758,-137.207
1687769921.612,-28.809,-49.316,-42.969,-48.340,23.926
1687769921.616,-21.973,-28.320,-51.270,-48.828,-41.504
1687769921.620,-0.488,-45.898,-54.199,-35.645,-175.781
1687769921.624,-0.977,-53.711,-49.316,-27.344,-118.164
1687769921.628,-4.883,-41.504,-29.785,-41.016,-109.375
1687769921.632,-7.324,-52.246,-24.414,-60.547,-67.871
1687769921.636,-8.301,-52.246,-31.250,-53.711,-15.137
1687769921.639,0.000,-39.551,-38.086,-25.391,115.723
1687769921.643,-4.395,-50.781,-47.363,-14.160,332.031
1687769921.647,-15.625,-44.922,-67.383,-39.551,127.441
1687769921.651,-21.484,-48.340,-50.293,-52.246,-186.523
1687769921.655,-9.766,-54.688,-29.785,-42.480,-179.688
1687769921.657,7.812,-38.086,-40.527,-18.555,-129.395
1687769921.661,-2.441,-41.992,-21.973,-33.203,-138.672
1687769921.665,-26.855,-48.340,-20.996,-50.293,-151.855
1687769921.669,-23.926,-49.805,-29.785,-45.410,-136.719
1687769921.673,-17.578,-60.059,-11.230,-34.668,-128.418
1687769921.677,-28.320,-49.805,-21.484,-22.949,-44.922
1687769921.681,-33.691,-55.664,-28.320,-22.461,-46.387
1687769921.684,-44.434,-47.852,-33.691,-35.156,105.957
1687769921.688,-61.523,-36.133,-44.922,-37.598,229.004
1687769921.692,-67.871,-41.992,-36.621,-46.875,-35.645
1687769921.696,-62.988,-38.574,-33.203,-51.270,-48.828
1687769921.700,-60.059,-36.621,-31.738,-23.438,186.523
1687769921.702,-73.730,-38.086,-26.367,-28.320,141.113
1687769921.706,-90.332,-34.180,-22.461,-71.289,-125.000
1687769921.710,-78.125,-34.668,-15.625,-74.707,-170.898
1687769921.714,-80.566,-30.762,-16.602,-66.406,-149.902
1687769921.718,-113.281,-34.668,-20.020,-83.984,-120.605
1687769921.722,-125.977,-22.461,-10.254,-103.516,-42.969
1687769921.726,-139.648,-9.277,5.371,-125.488,39.551
1687769921.729,-162.109,-11.230,29.297,-150.879,217.773
1687769921.733,-179.199,-3.906,40.039,-174.316,28.809
1687769921.737,-189.941,-7.324,41.504,-179.688,-182.617
1687769921.741,-222.168,-12.207,57.617,-206.055,-34.668
1687769921.745,-270.996,0.000,79.590,-264.648,19.531
1687769921.747,-301.270,1.465,94.727,-302.246,-108.887
1687769921.751,-318.359,3.906,102.051,-309.570,-149.414
1687769921.755,-353.027,0.488,100.586,-334.961,-82.031
1687769921.759,-379.395,-3.418,97.168,-357.422,-24.902
1687769921.763,-376.465,9.277,94.727,-362.305,-111.328
1687769921.767,-386.719,10.742,90.820,-377.930,-94.238
1687769921.771,-385.742,6.348,85.938,-366.699,101.074
1687769921.774,-381.836,12.695,71.777,-352.051,166.504
1687769921.778,-383.789,17.578,59.082,-357.422,-46.387
1687769921.782,-379.395,16.602,60.547,-355.957,-85.449
1687769921.786,-382.324,20.996,64.453,-346.680,99.609
1687769921.790,-376.465,31.738,50.781,-336.426,-27.832
1687769921.794,-368.164,31.738,59.570,-316.895,-156.250
1687769921.798,-378.906,15.625,57.617,-298.828,7.324
1687769921.802,-385.254,5.859,38.086,-291.504,155.762
1687769921.806,-380.859,2.930,43.457,-302.734,-32.715
1687769921.810,-375.000,-0.977,54.688,-308.594,-214.355
1687769921.814,-361.328,-0.977,50.293,-280.273,-23.438
1687769921.818,-355.469,-0.977,43.945,-261.719,302.246
1687769921.821,-354.980,-4.883,40.039,-269.531,55.176
1687769921.825,-350.586,-2.930,36.133,-287.598,-212.891
1687769921.829,-321.289,9.277,30.762,-287.598,-171.875
1687769921.833,-299.316,-2.441,28.320,-255.371,-48.828
1687769921.837,-302.734,-13.672,27.344,-238.281,-64.941
1687769921.837,-314.453,-9.277,31.738,-226.562,-157.715
1687769921.841,-339.844,-19.531,15.625,-225.098,-96.191
1687769921.845,-355.469,-20.508,7.324,-236.816,-122.070
1687769921.849,-357.422,-17.090,21.484,-222.168,-125.977
1687769921.853,-361.328,-22.461,27.832,-208.984,-98.633
1687769921.857,-354.004,-20.996,22.461,-202.637,72.754
1687769921.861,-354.980,-24.902,8.789,-195.312,273.438
1687769921.864,-356.445,-28.809,14.160,-195.312,-15.137
1687769921.868,-379.883,-23.926,19.043,-182.617,-125.488
1687769921.872,-407.715,-23.438,17.090,-161.133,139.648
1687769921.876,-430.664,-37.109,14.648,-153.809,129.395
1687769921.880,-435.547,-29.785,14.160,-165.039,-70.312
1687769921.897,-407.715,-8.789,2.930,-168.945,-86.914
1687769921.901,-394.043,-26.855,-4.395,-150.391,71.777
1687769921.905,-375.977,-43.457,0.000,-122.559,45.898
1687769921.909,-349.609,-48.340,-18.555,-125.000,-71.777
1687769921.913,-353.027,-44.922,-20.996,-145.996,-67.871
1687769921.917,-361.328,-43.457,1.465,-145.020,28.809
1687769921.921,-363.770,-41.504,-3.906,-137.207,46.387
1687769921.924,-356.445,-31.738,-4.883,-114.258,3.418
1687769921.928,-357.422,-37.598,1.465,-98.145,4.395
1687769921.932,-354.004,-52.734,-15.625,-120.117,179.199
1687769921.936,-335.449,-39.062,-23.438,-130.371,28.809
1687769921.940,-328.613,-22.461,-11.230,-112.305,-135.742
1687769921.942,-318.848,-29.297,-10.742,-101.074,-8.301
1687769921.946,-310.059,-38.574,-21.973,-95.703,-56.152
1687769921.950,-269.043,-36.133,-38.086,-90.820,-137.695
1687769921.954,-234.375,-29.297,-28.320,-108.398,-115.234
1687769921.958,-210.938,-35.156,-6.348,-109.863,-55.176
1687769921.962,-183.594,-28.809,-4.883,-93.262,22.949
1687769921.966,-157.227,-10.254,-18.066,-82.031,98.145
1687769921.969,-207.520,-22.949,-19.531,-75.684,-50.293
1687769921.973,-279.297,-39.062,-11.719,-85.449,29.297
1687769921.977,-270.508,-23.926,-26.367,-69.336,301.270
1687769921.981,-250.000,-51.270,-23.926,-58.594,46.387
1687769921.985,-208.008,-55.176,1.465,-64.941,-85.938
1687769921.987,-169.922,-20.020,-7.812,-52.734,146.973
1687769921.991,-170.898,-16.113,-34.668,-57.129,-37.598
1687769921.995,-154.785,-34.668,-51.270,-44.922,-212.402
1687769921.999,-117.676,-43.945,-50.293,-20.020,-122.559
1687769922.003,-80.078,-20.996,-38.086,-11.230,-34.180
1687769922.007,-58.105,-17.090,-41.504,-5.371,55.176
1687769922.011,-39.062,-39.551,-63.477,-5.859,25.879
1687769922.014,-8.789,-60.547,-66.406,16.113,-4.883
1687769922.018,24.414,-48.828,-61.035,62.988,201.660
1687769922.022,43.457,-62.500,-92.285,82.520,92.285
1687769922.026,70.801,-88.867,-99.121,78.613,-69.336
1687769922.030,91.309,-79.102,-84.961,83.984,-34.180
1687769922.032,97.656,-63.965,-83.984,83.008,-30.762
1687769922.036,132.324,-66.406,-66.406,110.352,-116.699
1687769922.040,149.902,-86.914,-75.684,140.137,-91.797
1687769922.044,151.367,-104.980,-103.516,136.719,48.828
1687769922.048,170.410,-109.863,-113.281,137.695,-62.988
1687769922.052,204.590,-113.281,-111.816,161.621,-71.289
1687769922.056,250.000,-102.539,-116.211,193.848,-25.391
1687769922.059,288.574,-90.820,-117.676,224.121,139.648
1687769922.063,315.430,-96.680,-113.281,237.793,238.281
1687769922.067,324.707,-93.262,-118.652,220.703,-55.176
1687769922.071,327.148,-106.445,-130.859,215.820,-116.699
1687769922.075,349.609,-102.539,-128.906,235.840,95.215
1687769922.078,363.770,-94.238,-134.766,248.535,118.652
1687769922.082,356.934,-92.773,-159.668,240.234,-14.648
1687769922.086,352.051,-62.500,-145.508,217.773,-103.516
1687769922.090,352.051,-56.152,-113.770,210.938,33.203
1687769922.094,336.914,-80.566,-105.469,217.773,-23.926
1687769922.098,324.219,-83.984,-126.953,224.609,-105.469
1687769922.102,326.172,-81.055,-147.949,219.727,-19.043
1687769922.105,285.645,-83.984,-125.000,205.566,239.746
1687769922.109,217.773,-85.938,-96.680,180.664,46.875
1687769922.113,218.750,-86.914,-101.562,177.734,-203.125
1687769922.117,237.793,-73.242,-114.258,195.801,-98.633
1687769922.121,213.867,-53.223,-118.164,197.754,-66.406
1687769922.122,192.383,-48.340,-112.305,172.363,-152.832
1687769922.126,176.758,-82.520,-114.258,151.367,-145.996
1687769922.130,184.082,-121.094,-124.023,136.230,-87.402
1687769922.134,206.055,-79.590,-96.191,137.207,-90.332
1687769922.138,208.984,-44.434,-83.496,124.512,-71.289
1687769922.142,211.914,-51.758,-92.773,99.609,-21.973
1687769922.146,229.004,-52.734,-100.586,84.961,125.488
1687769922.149,248.535,-48.828,-96.191,91.797,331.543
1687769922.153,259.277,-54.199,-90.820,101.562,14.648
1687769922.157,244.141,-59.570,-108.398,97.656,-148.438
1687769922.161,220.215,-53.711,-106.445,89.844,76.172
1687769922.165,213.379,-54.199,-95.703,78.613,-36.621
1687769922.167,224.121,-72.266,-104.004,66.895,-212.402
1687769922.171,225.098,-62.988,-106.445,78.613,-99.609
1687769922.175,219.238,-45.898,-103.027,83.496,8.301
1687769922.179,209.473,-63.965,-80.566,57.617,-60.547
1687769922.183,197.266,-80.078,-67.383,39.551,-152.832
1687769922.187,202.637,-54.688,-50.293,29.785,-3.906
1687769922.191,199.707,-45.898,-41.504,34.180,319.824
1687769922.194,198.730,-65.430,-55.664,38.574,126.465
1687769922.198,206.543,-47.363,-47.363,32.227,-175.293
1687769922.202,206.543,-47.852,-74.707,25.391,-86.914
1687769922.206,204.590,-45.410,-97.168,37.598,118.164
1687769922.210,181.152,-28.320,-56.152,37.109,-45.410
1687769922.227,147.949,-42.480,-51.270,12.695,-85.938
1687769922.231,159.180,-42.969,-61.035,6.836,-24.902
1687769922.235,157.715,-57.129,-68.848,6.348,-133.301
1687769922.239,142.578,-55.176,-79.590,-5.859,-179.199
1687769922.243,145.508,-28.320,-57.617,1.953,-94.727
1687769922.247,141.602,-25.391,-45.410,32.715,83.496
1687769922.251,130.371,-32.227,-57.617,31.738,77.148
1687769922.254,116.699,-52.734,-47.363,2.441,-2.930
1687769922.258,118.164,-49.316,-41.504,-11.230,-53.223
1687769922.262,120.117,-46.875,-52.246,2.930,149.902
1687769922.266,120.605,-49.316,-52.734,15.625,405.762
1687769922.270,115.723,-27.832,-45.410,11.719,55.176
1687769922.272,96.191,-33.691,-42.969,-10.254,-120.605
1687769922.276,84.473,-44.434,-58.105,-21.484,-36.621
1687769922.280,97.168,-36.133,-62.500,-1.953,-98.633
1687769922.284,113.770,-29.297,-35.156,18.066,-116.211
1687769922.288,101.074,-30.273,-50.781,19.043,-82.031
1687769922.292,83.008,-51.270,-78.613,-0.488,10.742
1687769922.296,78.125,-52.246,-44.434,-14.160,49.316
1687769922.299,83.496,-53.223,-17.578,-10.742,-105.957
1687769922.303,81.543,-57.617,-19.531,12.695,-93.262
1687769922.307,67.383,-34.668,-27.344,17.578,145.996
1687769922.311,58.105,-32.227,-41.504,-18.066,2.441
1687769922.315,59.570,-36.621,-53.711,-29.785,-147.949
1687769922.317,60.547,-37.598,-42.480,-11.230,-38.574
1687769922.321,59.082,-39.062,-39.062,3.906,6.836
1687769922.325,51.270,-33.691,-40.039,0.977,-66.406
1687769922.329,47.852,-53.711,-37.109,-13.184,-89.844
1687769922.333,55.176,-55.176,-37.598,-19.531,-104.004
1687769922.337,55.176,-28.320,-27.344,-19.531,-61.035
1687769922.341,41.992,-35.156,-43.945,-18.066,-1.953
1687769922.344,28.809,-43.457,-53.711,-11.230,-43.457
1687769922.348,30.273,-31.250,-41.992,-6.348,73.242
1687769922.352,20.996,-29.785,-52.246,-30.273,181.641
1687769922.356,10.742,-32.227,-64.941,-56.641,-40.039
1687769922.360,24.414,-34.180,-44.434,-35.156,-123.535
1687769922.362,27.344,-36.133,-29.785,-20.996,159.668
1687769922.366,20.508,-28.809,-36.133,-25.391,115.723
1687769922.370,24.414,-32.715,-18.555,-32.227,-170.410
1687769922.374,8.301,-40.039,-20.508,-49.805,-183.594
1687769922.378,-19.043,-29.297,-42.480,-46.387,-125.000
1687769922.382,-41.504,-35.156,-35.645,-37.109,-24.902
1687769922.386,-43.457,-41.016,-29.297,-39.551,10.254
1687769922.389,-25.879,-43.457,-36.133,-48.828,-57.129
1687769922.393,-4.395,-42.480,-53.223,-38.086,126.465
1687769922.397,8.301,-44.922,-60.547,-36.621,-14.160
1687769922.401,8.789,-52.734,-42.480,-33.203,-153.809
1687769922.405,12.207,-53.223,-13.672,-31.250,-17.090
1687769922.408,2.930,-52.734,-19.531,-52.246,-85.938
1687769922.412,-11.719,-49.316,-46.875,-74.219,-177.246
1687769922.416,-2.441,-54.199,-41.504,-58.594,-180.664
1687769922.420,-10.742,-56.641,-16.602,-30.273,29.297
1687769922.424,-29.297,-53.223,-19.043,-37.598,58.105
1687769922.428,-18.066,-28.320,-34.668,-43.457,-106.445
1687769922.432,1.953,-21.973,-35.645,-34.668,-94.727
1687769922.435,2.930,-34.180,-49.805,-38.574,90.820
1687769922.439,1.953,-32.227,-34.668,-26.855,178.711
1687769922.443,13.672,-47.363,-31.738,-31.250,-35.645
1687769922.447,26.855,-39.062,-53.223,-52.246,-62.012
1687769922.451,24.902,-38.574,-37.109,-57.617,48.828
1687769922.452,19.531,-64.453,-18.066,-55.176,-23.926
1687769922.456,31.250,-54.688,-31.250,-50.781,-164.062
1687769922.460,32.227,-38.086,-33.203,-51.758,-104.492
1687769922.464,25.879,-57.129,-51.270,-61.035,-76.172
1687769922.468,37.598,-51.758,-63.965,-49.316,-159.668
1687769922.472,40.527,-38.574,-58.105,-42.969,-127.930
1687769922.476,44.434,-42.969,-41.504,-41.992,-39.062
1687769922.479,45.898,-46.875,-26.367,-27.832,253.906
1687769922.483,33.691,-41.992,-32.227,-38.574,186.523
1687769922.487,41.016,-27.344,-35.645,-56.641,-147.949
1687769922.491,51.270,-26.367,-41.992,-50.293,-169.922
1687769922.495,37.598,-29.785,-51.270,-47.363,-165.527
1687769922.497,49.805,-22.461,-39.551,-27.344,-158.203
1687769922.501,37.598,-30.762,-37.598,-36.133,-118.652
1687769922.505,6.836,-32.227,-48.828,-79.102,-103.027
1687769922.509,5.859,-35.645,-41.016,-96.680,-144.043
1687769922.513,-0.977,-17.090,-14.648,-84.961,-83.496
1687769922.517,-43.457,-15.137,-7.812,-113.770,36.133
1687769922.521,-96.680,-17.578,-14.160,-166.504,257.324
1687769922.524,-128.418,-21.484,-0.977,-200.195,355.957
1687769922.528,-153.809,-24.902,37.598,-232.422,-31.738
1687769922.532,-173.340,-9.766,62.988,-240.234,-93.262
1687769922.536,-199.219,2.930,65.430,-266.113,258.789
1687769922.540,-246.582,21.973,69.336,-333.008,145.996
1687769922.542,-282.227,7.812,66.406,-381.836,-202.148
1687769922.546,-270.996,8.301,74.707,-375.000,-151.855
1687769922.550,-253.906,21.973,71.777,-342.773,-74.707
1687769922.554,-262.695,21.973,56.152,-342.773,-64.453
1687769922.558,-264.160,32.227,59.082,-357.422,-101.562
1687769922.562,-250.977,32.227,50.781,-355.957,-36.133
1687769922.566,-248.535,15.137,41.504,-345.215,247.070
1687769922.569,-241.211,10.254,36.621,-330.078,34.668
1687769922.573,-226.074,18.555,36.621,-304.688,-193.359
1687769922.577,-217.773,15.137,37.598,-296.875,29.297
1687769922.581,-212.891,19.043,29.297,-300.781,166.504
1687769922.585,-208.008,29.297,38.574,-301.270,-81.543
1687769922.587,-194.336,23.438,43.457,-295.410,-130.859
1687769922.591,-184.570,21.973,21.484,-278.320,-40.039
1687769922.595,-183.594,20.508,24.902,-270.020,-78.125
1687769922.599,-175.293,21.973,37.109,-268.555,-135.254
1687769922.603,-167.480,25.879,26.367,-265.137,-143.066
1687769922.607,-152.832,30.273,35.156,-253.906,4.395
1687769922.611,-131.836,29.297,34.668,-231.445,110.840
1687769922.614,-129.883,25.391,18.066,-224.609,-1.953
1687769922.618,-131.836,29.297,11.719,-221.191,-179.199
1687769922.622,-124.023,20.020,4.883,-207.031,3.906
1687769922.626,-117.676,-0.488,-7.812,-200.195,136.230
1687769922.630,-102.051,8.301,-4.395,-177.734,-48.340
1687769922.647,-83.496,31.250,0.977,-155.273,-56.641
1687769922.651,-74.219,23.926,19.531,-147.461,146.484
1687769922.655,-80.078,5.371,2.441,-166.504,48.340
1687769922.659,-70.801,6.836,-18.555,-175.781,-177.734
1687769922.663,-77.637,-8.789,-2.930,-156.250,-58.594
1687769922.667,-85.449,-11.719,-3.418,-142.578,86.426
1687769922.671,-73.242,3.418,-24.414,-137.695,66.895
1687769922.674,-68.848,6.836,-47.852,-127.930,-92.773
1687769922.678,-46.875,-6.836,-64.453,-98.145,-85.938
1687769922.682,-18.066,-20.996,-56.641,-55.664,126.953
1687769922.686,-14.160,-24.902,-45.898,-41.016,-13.184
1687769922.690,-3.418,-56.641,-61.523,-43.457,-131.348
1687769922.693,26.855,-65.918,-72.754,-28.320,-100.098
1687769922.697,34.180,-45.410,-81.055,-0.488,-110.840
1687769922.701,30.762,-58.594,-69.336,15.137,3.906
1687769922.705,36.621,-87.402,-31.738,28.809,-8.789
1687769922.709,56.152,-83.984,-58.594,46.875,29.785
1687769922.713,80.566,-64.453,-75.195,55.664,90.332
1687769922.717,93.262,-82.520,-77.148,58.594,-21.484
1687769922.720,100.586,-98.633,-87.402,83.008,-122.559
1687769922.724,119.141,-93.262,-100.586,123.535,20.508
1687769922.728,123.047,-86.426,-131.348,114.258,153.320
1687769922.732,111.816,-86.426,-117.676,97.168,-20.508
1687769922.736,109.863,-96.191,-103.027,108.398,-158.203
1687769922.737,117.676,-104.492,-109.863,137.695,-31.250
1687769922.741,111.328,-95.215,-94.238,160.645,-30.762
1687769922.745,94.238,-90.820,-93.262,148.926,-177.246
1687769922.749,109.375,-95.215,-119.629,129.395,-129.883
1687769922.753,122.559,-95.215,-118.652,133.789,-21.484
1687769922.757,136.230,-90.332,-113.770,159.668,-27.832
1687769922.761,160.156,-73.730,-129.883,173.828,52.734
1687769922.764,158.203,-90.332,-134.277,153.809,13.184
1687769922.768,148.438,-95.703,-133.789,134.277,183.594
1687769922.772,146.484,-73.242,-125.488,142.578,154.785
1687769922.776,147.461,-73.730,-122.559,153.809,-126.465
1687769922.780,155.762,-76.660,-118.164,170.410,-85.449
1687769922.782,147.949,-87.891,-105.957,176.270,-60.059
1687769922.786,119.141,-100.098,-116.699,129.883,-156.250
1687769922.790,109.863,-87.891,-107.910,103.027,-127.930
1687769922.794,119.141,-62.012,-97.168,125.000,-15.137
1687769922.798,120.605,-53.711,-100.586,138.184,-1.465
1687769922.802,102.539,-58.594,-79.590,125.488,45.898
1687769922.806,91.797,-70.801,-79.102,110.352,48.828
1687769922.809,93.262,-84.961,-93.262,101.074,135.254
1687769922.813,94.727,-74.219,-96.191,98.145,330.078
1687769922.817,87.402,-57.617,-83.984,105.469,64.453
1687769922.821,66.406,-52.734,-58.594,111.816,-110.352
1687769922.825,41.504,-59.082,-75.195,97.168,46.875
1687769922.827,22.949,-69.336,-93.750,64.941,-23.926
1687769922.831,22.949,-62.988,-81.055,54.199,-151.367
1687769922.835,29.297,-56.641,-90.820,71.777,-131.836
1687769922.839,34.668,-74.219,-88.867,76.660,-80.078
1687769922.843,41.016,-67.871,-72.266,53.223,-83.496
1687769922.847,43.945,-49.805,-81.543,35.156,-121.094
1687769922.851,45.898,-48.340,-80.566,46.875,-54.199
1687769922.854,55.176,-43.945,-67.383,71.289,207.031
1687769922.858,54.688,-48.828,-63.477,68.359,77.637
1687769922.862,48.828,-68.848,-45.898,49.316,-137.207
1687769922.866,63.965,-64.453,-43.457,43.945,-64.453
1687769922.870,79.102,-42.969,-67.383,48.828,12.695
1687769922.872,87.891,-35.645,-67.871,48.828,-53.223
1687769922.876,80.078,-54.688,-60.547,40.527,-62.012
1687769922.880,69.336,-70.312,-59.570,31.738,-20.508
1687769922.884,78.613,-30.762,-58.594,27.344,-70.312
1687769922.888,85.449,-18.555,-56.641,11.719,-90.820
1687769922.892,82.031,-37.109,-51.758,14.648,-94.238
1687769922.896,81.543,-53.223,-51.758,23.926,164.062
1687769922.899,73.730,-37.598,-41.016,27.832,316.895
1687769922.903,69.336,-36.133,-49.316,10.742,-82.520
1687769922.907,71.777,-56.152,-73.242,-1.953,-188.477
1687769922.911,75.684,-46.875,-65.430,19.043,179.199
1687769922.915,71.777,-54.199,-48.340,26.367,146.484
1687769922.918,60.547,-64.453,-67.871,4.883,-137.207
1687769922.922,68.848,-55.176,-95.703,-7.324,-139.648
1687769922.926,67.871,-65.918,-72.754,0.488,61.035
1687769922.930,53.711,-47.852,-34.180,-0.977,-18.555
1687769922.934,49.316,-38.086,-32.227,-9.277,-142.090
1687769922.938,59.570,-40.039,-47.363,2.441,-0.488
1687769922.942,53.223,-28.320,-66.895,-4.883,225.586
1687769922.945,37.109,-33.203,-56.641,-34.668,-37.598
1687769922.949,39.551,-50.293,-48.828,-29.785,-225.098
1687769922.953,56.152,-57.617,-33.691,-9.766,-134.766
1687769922.957,62.012,-36.621,-45.898,-7.324,12.695
1687769922.961,49.805,-32.715,-65.430,-18.066,11.230
1687769922.963,41.504,-44.434,-39.062,-26.855,-135.254
1687769922.967,45.410,-42.480,-41.992,-20.020,-65.430
1687769922.971,55.664,-31.250,-62.012,-6.348,19.531
1687769922.975,42.969,-50.293,-60.059,-14.160,-39.551
1687769922.979,28.809,-57.617,-43.457,-35.156,-38.086
1687769922.983,43.457,-50.781,-33.203,-38.086,64.453
1687769922.987,48.828,-51.758,-22.949,-23.926,136.719
1687769922.990,57.129,-14.160,-34.668,1.465,52.246
1687769922.994,51.758,-27.832,-58.105,-4.883,-75.684
1687769922.998,33.203,-54.199,-53.711,-24.902,61.035
1687769923.002,37.598,-40.039,-43.945,-20.996,185.547
1687769923.006,47.363,-24.414,-52.246,-23.926,-75.684
1687769923.022,46.875,-17.578,-41.992,-12.207,-154.785
1687769923.026,34.668,-30.762,-46.875,-8.789,8.789
1687769923.030,20.020,-40.039,-63.965,-27.832,-36.621
1687769923.034,29.785,-37.598,-37.598,-40.039,-182.129
1687769923.038,27.344,-29.297,-41.016,-37.109,-100.586
1687769923.042,9.766,-46.875,-65.430,-27.832,214.355
1687769923.046,8.301,-74.707,-51.758,-32.227,156.250
1687769923.049,14.160,-56.641,-69.336,-33.691,-124.512
1687769923.053,12.695,-31.250,-77.637,-37.109,-106.934
1687769923.057,2.930,-28.320,-40.527,-38.086,28.809
1687769923.061,-4.395,-25.391,-31.738,-34.180,-41.992
1687769923.065,-7.324,-28.320,-31.250,-26.367,-141.602
1687769923.067,-11.719,-36.621,-41.992,-34.668,-190.918
1687769923.071,-14.160,-47.363,-33.203,-46.875,-185.059
1687769923.075,-20.020,-52.246,-44.434,-51.758,-214.844
1687769923.079,-20.508,-41.016,-48.340,-42.969,-218.750
1687769923.083,-19.043,-37.109,-26.855,-34.668,-55.176
1687769923.087,-22.461,-40.527,-35.156,-33.203,-28.320
1687769923.091,-25.879,-46.387,-48.340,-41.504,-85.938
1687769923.094,-30.273,-41.504,-57.129,-58.594,-52.734
1687769923.098,-27.344,-47.852,-53.223,-44.922,116.699
1687769923.102,-26.855,-55.664,-54.199,-31.738,322.754
1687769923.106,-33.691,-37.598,-57.129,-44.434,112.305
1687769923.110,-41.504,-28.320,-49.805,-62.500,-55.664
1687769923.112,-44.434,-35.645,-53.711,-53.711,63.965
1687769923.116,-34.668,-46.875,-41.992,-34.668,-51.270
1687769923.120,-25.879,-36.133,-42.969,-36.621,-148.926
1687769923.124,-41.016,-36.621,-50.293,-41.504,-101.562
1687769923.128,-36.133,-38.574,-58.594,-35.645,-158.691
1687769923.132,-19.043,-29.785,-66.895,-30.273,-136.719
1687769923.136,-48.828,-50.293,-32.715,-43.945,-104.980
1687769923.139,-71.777,-46.387,-38.086,-41.992,-50.293
1687769923.143,-73.730,-43.945,-36.133,-31.250,302.734
1687769923.147,-96.191,-71.777,-10.742,-73.730,203.125
1687769923.151,-83.008,-62.500,-23.926,-84.473,-183.105
1687769923.155,-79.590,-54.688,-36.133,-76.172,-208.008
1687769923.157,-96.680,-52.246,-33.691,-83.984,-132.324
1687769923.161,-92.773,-44.922,-27.344,-80.078,-54.688
1687769923.165,-101.562,-43.457,-47.852,-80.566,-98.145
1687769923.169,-97.168,-43.945,-48.828,-77.148,-108.887
1687769923.173,-76.172,-43.945,-40.039,-67.383,-35.156
1687769923.177,-63.965,-34.180,-38.574,-44.434,20.020
1687769923.181,-65.918,-37.109,-42.480,-48.828,89.844
1687769923.184,-65.430,-55.664,-61.035,-58.105,134.766
1687769923.188,-59.570,-57.617,-47.852,-53.223,91.797
1687769923.192,-45.898,-55.664,-40.527,-53.223,-149.414
1687769923.196,-35.156,-58.594,-41.016,-42.969,-139.648
1687769923.200,-45.410,-80.566,-30.273,-41.504,175.781
1687769923.202,-54.688,-72.266,-36.133,-48.340,193.359
1687769923.206,-78.125,-47.852,-53.711,-63.965,-108.398
1687769923.210,-83.496,-52.246,-53.223,-51.758,-136.719
1687769923.214,-85.449,-55.176,-39.551,-33.691,-89.355
1687769923.218,-120.605,-41.016,-42.969,-40.039,-65.918
1687769923.222,-147.949,-37.109,-53.711,-50.293,-17.090
1687769923.226,-139.648,-37.109,-37.598,-54.199,66.406
1687769923.229,-128.906,-33.691,-28.809,-33.203,254.395
1687769923.233,-131.348,-41.016,-42.969,-23.926,23.926
1687769923.237,-128.418,-42.969,-54.199,-29.785,-182.617
1687769923.241,-127.930,-36.621,-46.387,-41.992,-51.758
1687769923.245,-113.281,-32.715,-31.738,-51.758,-81.543
1687769923.248,-83.984,-48.828,-38.086,-51.758,-178.223
1687769923.252,-69.824,-50.781,-49.316,-52.734,-126.953
1687769923.256,-64.941,-30.762,-46.387,-45.410,21.484
1687769923.260,-60.059,-31.738,-38.574,-30.273,38.574
1687769923.264,-73.730,-40.527,-32.227,-49.316,-27.344
1687769923.268,-98.145,-42.969,-21.484,-66.895,-46.875
1687769923.272,-127.930,-26.855,-14.648,-65.430,185.547
1687769923.275,-185.547,-29.297,-0.977,-77.637,337.891
1687769923.279,-245.605,-30.762,-5.371,-114.258,-21.973
1687769923.283,-298.828,-12.207,3.418,-160.156,-125.000
1687769923.287,-367.676,-15.137,31.250,-183.594,82.031
1687769923.291,-432.617,1.465,57.617,-208.008,-26.855
1687769923.292,-481.934,0.977,65.918,-255.371,-83.008
1687769923.296,-501.953,3.906,79.590,-288.086,-20.996
1687769923.300,-555.176,27.832,91.797,-311.035,-70.312
1687769923.304,-588.867,25.391,85.938,-321.289,-70.801
1687769923.308,-579.590,-0.488,65.430,-342.773,-82.031
1687769923.312,-577.637,-16.113,65.918,-347.656,-111.328
1687769923.316,-555.176,-1.465,68.848,-314.453,296.387
1687769923.319,-508.301,17.578,60.547,-314.941,262.207
1687769923.323,-466.309,13.672,64.941,-339.844,-166.992
1687769923.327,-410.645,8.789,70.312,-313.965,-173.828
1687769923.331,-359.863,9.766,69.336,-283.203,-81.055
1687769923.335,-329.590,8.789,58.105,-286.621,-107.422
1687769923.337,-349.121,11.719,49.805,-283.203,-149.902
1687769923.341,-387.695,20.020,46.387,-286.133,-91.309
1687769923.345,-426.758,9.277,36.621,-280.273,-80.078
1687769923.349,-456.543,-17.090,49.316,-243.164,-81.055
1687769923.353,-488.770,-11.719,45.410,-227.051,-71.289
1687769923.357,-525.391,17.090,16.602,-234.863,37.109
1687769923.361,-553.223,11.230,26.367,-240.723,27.832
1687769923.364,-552.246,-3.906,38.086,-222.168,-5.371
1687769923.368,-550.781,11.719,31.738,-202.148,-1.465
1687769923.372,-562.988,5.859,29.785,-190.918,175.781
1687769923.376,-564.941,-7.812,20.996,-175.293,477.051
1687769923.380,-538.086,33.691,23.438,-178.223,124.512
1687769923.397,-499.512,34.668,21.484,-180.176,-167.480
1687769923.401,-458.496,8.789,-10.254,-159.668,-79.590
1687769923.405,-433.105,-0.977,-25.879,-135.742,-52.734
1687769923.409,-439.941,-16.113,-10.254,-128.418,-123.047
1687769923.413,-457.031,-18.066,-21.484,-132.812,-141.602
1687769923.417,-455.566,-14.160,-34.180,-106.445,49.316
1687769923.421,-454.590,-10.254,-17.578,-66.895,111.816
1687769923.424,-478.027,-6.836,-1.465,-54.199,-11.719
1687769923.428,-485.840,-19.043,-26.855,-60.547,-17.578
1687769923.432,-450.195,-30.762,-48.340,-40.039,233.398
1687769923.436,-413.086,-36.133,-51.270,-34.180,76.172
1687769923.440,-380.859,-42.480,-53.711,-20.508,-200.195
1687769923.442,-341.797,-60.547,-47.363,13.672,-126.953
1687769923.446,-318.848,-81.055,-49.316,15.625,-106.934
1687769923.450,-291.504,-68.359,-72.754,17.578,-147.461
1687769923.454,-245.117,-62.012,-95.215,38.574,-130.371
1687769923.458,-202.148,-66.895,-84.473,59.082,-85.938
1687769923.462,-155.762,-67.871,-69.824,81.543,-9.766
1687769923.466,-130.859,-83.008,-78.125,83.496,31.738
1687769923.469,-114.258,-93.262,-75.684,71.777,-83.984
1687769923.473,-86.426,-77.148,-109.863,90.820,3.418
1687769923.477,-76.172,-70.801,-129.395,103.027,132.324
1687769923.481,-80.566,-89.355,-78.613,103.027,-19.531
1687769923.485,-90.820,-77.148,-65.430,117.676,-22.461
1687769923.487,-100.098,-73.730,-83.496,122.070,172.363
1687769923.491,-83.984,-83.008,-101.074,107.910,100.098
1687769923.495,-44.922,-87.402,-110.840,112.305,-150.879
1687769923.499,-30.273,-93.262,-112.793,117.676,-26.367
1687769923.503,-21.484,-89.355,-103.516,122.070,55.664
1687769923.507,-15.625,-81.543,-110.840,119.141,-77.637
1687769923.511,-12.207,-86.914,-108.398,112.305,-191.895
1687769923.514,23.926,-78.125,-97.168,128.906,-117.676
1687769923.518,47.363,-94.238,-109.863,142.090,206.055
1687769923.522,48.828,-116.211,-134.766,113.770,126.953
1687769923.526,95.215,-61.035,-129.395,101.074,-107.422
1687769923.530,142.090,-21.973,-83.008,106.934,-175.781
1687769923.533,151.855,-48.828,-67.383,99.121,-135.254
1687769923.537,165.039,-82.031,-94.238,96.191,-1.465
1687769923.541,190.918,-72.266,-84.961,94.238,-83.496
1687769923.545,214.844,-49.805,-76.172,78.125,-72.754
1687769923.549,218.750,-51.270,-95.703,66.895,-34.180
1687769923.553,217.773,-59.570,-99.609,69.336,-69.824
1687769923.557,224.121,-57.129,-86.914,92.773,-24.414
1687769923.560,197.266,-56.152,-87.891,104.492,107.422
1687769923.564,144.531,-47.852,-81.055,94.727,146.484
1687769923.568,110.352,-64.453,-66.406,58.105,-110.352
1687769923.572,104.980,-81.055,-74.707,44.922,-82.031
1687769923.576,81.543,-71.289,-65.430,77.148,122.070
1687769923.577,85.449,-49.316,-42.969,86.914,8.301
1687769923.581,125.977,-37.109,-51.758,62.988,-157.715
1687769923.585,145.020,-39.062,-57.129,36.621,-104.004
1687769923.589,170.898,-43.945,-55.176,41.504,-2.930
1687769923.593,187.988,-66.895,-51.758,55.664,-31.738
1687769923.597,195.312,-49.805,-39.551,53.223,-37.109
1687769923.601,196.289,-40.527,-41.504,45.410,0.977
1687769923.604,186.035,-49.805,-59.570,39.551,234.375
1687769923.608,181.641,-58.105,-66.406,25.879,126.953
1687769923.612,197.754,-50.781,-50.781,33.203,-100.586
1687769923.616,206.055,-59.082,-42.969,45.898,-47.363
1687769923.620,210.938,-62.012,-74.219,33.203,-46.875
1687769923.622,212.891,-54.199,-100.098,15.625,-129.395
1687769923.626,212.891,-69.824,-38.086,16.602,-187.988
1687769923.630,222.656,-51.270,-7.812,29.785,-93.750
1687769923.634,207.031,-31.738,-38.086,41.504,-36.621
1687769923.638,212.891,-25.391,-54.688,37.109,-91.797
1687769923.642,223.145,-24.414,-54.688,15.625,-144.043
1687769923.646,215.820,-24.902,-36.621,15.137,34.668
1687769923.649,217.773,-41.504,-23.438,21.973,257.324
1687769923.653,218.262,-41.016,-29.785,17.578,33.691
1687769923.657,217.285,-40.527,-40.527,30.273,-89.844
1687769923.661,212.891,-60.547,-60.059,28.809,127.930
1687769923.665,212.402,-58.105,-44.922,13.672,84.961
1687769923.667,209.473,-40.527,-24.902,-0.488,-131.836
1687769923.671,197.754,-52.734,-33.203,-0.488,-73.730
1687769923.675,193.848,-54.688,-38.574,13.672,-13.672
1687769923.679,219.727,-29.785,-41.992,42.480,-37.598
1687769923.683,221.680,-24.902,-50.781,29.785,-117.676
1687769923.687,197.266,-27.344,-45.898,0.977,-64.453
1687769923.691,169.922,-30.762,-43.945,8.789,244.629
1687769923.694,152.832,-28.320,-51.270,8.301,158.203
1687769923.698,145.508,-27.344,-48.828,-2.441,-79.102
1687769923.702,141.602,-30.762,-54.688,-13.184,-67.383
1687769923.706,155.273,-13.672,-58.594,0.488,74.707
1687769923.710,161.133,-12.695,-56.641,9.766,2.441
1687769923.712,164.551,-22.949,-58.105,15.625,-117.676
1687769923.716,183.105,-6.836,-56.641,26.367,-158.691
1687769923.720,183.105,-4.883,-56.641,8.789,-125.977
1687769923.724,180.664,-15.137,-56.641,1.465,-74.219
1687769923.728,187.012,-20.996,-64.453,21.484,-108.887
1687769923.732,179.688,-27.832,-52.246,29.297,14.160
1687769923.736,167.480,-41.992,-43.945,23.926,101.562
1687769923.739,158.203,-23.926,-62.012,9.277,-16.602
1687769923.743,153.809,-14.160,-50.293,8.301,-143.555
1687769923.747,151.367,-8.301,-25.879,22.461,99.609
1687769923.751,146.973,-8.301,-51.270,20.020,306.152
1687769923.755,140.625,-17.090,-44.434,6.348,62.988
1687769923.772,135.742,-14.648,-25.879,0.488,-63.965
1687769923.776,145.508,-28.320,-34.668,8.789,68.848
1687769923.780,134.766,-39.062,-45.898,15.625,12.695
1687769923.784,121.582,-30.762,-67.383,6.836,-182.617
1687769923.788,125.000,-31.250,-64.453,-0.977,-123.535
1687769923.792,117.676,-23.438,-34.180,-11.230,59.570
1687769923.796,121.582,-19.531,-14.160,-7.812,-39.062
1687769923.799,121.094,-21.484,-25.879,-0.488,-158.203
1687769923.803,94.238,-37.109,-37.598,-6.348,-55.176
1687769923.807,95.215,-40.039,-32.227,-5.859,154.297
1687769923.811,94.727,-29.297,-56.152,-26.367,-66.895
1687769923.815,83.496,-31.738,-63.477,-27.832,-223.633
1687769923.817,73.242,-30.273,-27.344,-3.906,24.414
1687769923.821,53.223,-24.902,-20.996,15.625,126.465
1687769923.825,38.574,-20.508,-50.293,9.277,-12.207
1687769923.829,43.457,-14.648,-55.176,-10.742,-121.094
1687769923.833,58.105,-13.672,-43.945,-19.531,-155.273
1687769923.837,74.707,-31.250,-36.133,-3.418,-63.965
1687769923.841,88.379,-34.180,-16.602,14.160,28.320
1687769923.844,59.082,-7.812,-25.879,-15.137,-53.223
1687769923.848,41.016,-4.395,-38.086,-42.480,34.668
1687769923.852,53.711,-22.461,-26.367,-48.340,110.840
1687769923.856,61.035,-28.809,-29.297,-42.480,-109.375
1687769923.860,67.871,-27.344,-38.574,-21.973,-45.898
1687769923.863,75.684,-25.391,-41.992,-8.301,125.977
1687769923.867,68.359,-27.832,-50.781,-21.973,36.133
1687769923.871,60.547,-37.109,-41.504,-49.316,-161.621
1687769923.875,63.477,-26.367,-28.809,-48.828,-89.844
1687769923.879,64.453,-14.160,-36.621,-30.762,92.285
1687769923.883,64.453,-27.344,-45.410,-21.973,67.871
1687769923.887,59.082,-50.781,-54.199,-31.250,-69.336
1687769923.890,54.199,-51.758,-45.410,-34.668,-101.074
1687769923.894,48.828,-17.090,-34.668,-27.344,132.812
1687769923.898,40.527,-14.648,-57.617,-35.156,16.113
1687769923.902,49.316,-13.672,-51.270,-20.996,-107.910
1687769923.906,43.945,-28.320,-30.273,-27.344,-35.645
1687769923.907,30.762,-48.828,-37.109,-60.547,-119.629
1687769923.911,46.387,-26.367,-39.062,-52.246,-195.801
1687769923.915,55.176,-32.715,-37.598,-27.832,-145.508
1687769923.919,42.480,-35.156,-44.922,-25.391,-41.504
1687769923.923,28.320,-15.137,-50.781,-38.086,-48.828
1687769923.927,11.230,-22.461,-45.410,-44.434,-58.105
1687769923.931,5.371,-41.992,-27.832,-43.457,-82.031
1687769923.934,13.184,-46.387,-33.691,-23.438,141.602
1687769923.938,18.555,-31.738,-46.875,2.441,327.148
1687769923.942,20.996,-38.574,-36.133,-14.160,48.340
1687769923.946,25.391,-36.133,-28.320,-39.062,-62.012
1687769923.950,20.996,-30.273,-11.230,-27.344,95.703
1687769923.952,19.043,-34.180,-25.391,-25.879,38.574
1687769923.956,29.297,-14.160,-48.340,-24.414,-121.582
1687769923.960,23.438,-15.625,-27.344,-25.879,-107.910
1687769923.964,20.020,-39.062,-30.762,-43.945,-70.801
1687769923.968,37.598,-40.527,-44.434,-34.668,-116.699
1687769923.972,35.156,-38.086,-45.898,-27.832,-56.152
1687769923.976,24.414,-16.113,-33.203,-20.996,49.805
1687769923.979,23.926,-20.020,-20.508,-19.043,333.496
1687769923.983,15.137,-44.922,-30.762,-34.180,240.234
1687769923.987,2.441,-53.711,-35.645,-55.176,-112.305
1687769923.991,1.465,-48.828,-22.461,-58.594,-121.094
1687769923.995,7.324,-29.785,-15.625,-38.574,-69.824
1687769923.998,6.348,-31.250,-43.945,-28.809,-117.188
1687769924.002,-1.465,-32.715,-37.598,-49.805,-200.684
1687769924.006,-10.742,-41.016,-36.133,-67.383,-160.645
1687769924.010,-4.883,-26.855,-37.598,-59.082,-114.258
1687769924.014,7.324,-16.113,-17.090,-42.480,-38.574
1687769924.018,-3.418,-37.109,-30.273,-41.016,15.137
1687769924.022,-8.789,-54.199,-43.457,-51.270,192.383
1687769924.025,1.465,-56.641,-27.832,-36.133,275.391
1687769924.029,3.418,-41.016,-29.297,-35.156,-56.641
1687769924.033,5.859,-23.926,-51.270,-37.109,-91.797
1687769924.037,8.789,-24.902,-57.129,-23.438,231.445
1687769924.041,4.395,-19.531,-43.457,-41.504,217.773
1687769924.042,-11.719,-21.484,-37.109,-74.707,-121.094
1687769924.046,-19.043,-41.016,-29.785,-67.383,-141.113
1687769924.050,-9.766,-44.434,-19.043,-45.898,4.395
1687769924.054,-21.484,-28.320,-41.016,-44.434,-35.645
1687769924.058,-30.762,-30.762,-35.645,-50.293,-129.395
1687769924.062,-19.531,-40.527,-21.973,-62.012,-43.457
1687769924.066,-14.648,-43.945,-30.273,-46.875,275.391
1687769924.069,-20.508,-44.434,-26.855,-29.297,173.340
1687769924.073,-3.906,-29.785,-25.879,-23.438,-147.949
1687769924.077,-9.277,-30.762,-22.461,-32.715,-137.695
1687769924.081,-23.926,-40.527,-29.297,-44.434,-168.945
1687769924.085,-2.930,-16.113,-22.949,-26.367,-142.578
1687769924.089,-11.719,2.441,0.000,-29.785,-17.090
1687769924.093,-39.551,-14.648,-20.020,-55.176,10.742
1687769924.097,-54.199,-5.371,-32.715,-79.102,2.441
1687769924.101,-89.355,4.395,-18.066,-116.211,-111.816
1687769924.105,-114.258,7.812,5.859,-133.301,-179.688
1687769924.109,-142.578,12.207,25.879,-147.949,23.438
1687769924.113,-193.359,2.441,22.949,-190.918,144.043
1687769924.116,-232.422,5.371,37.598,-227.539,-40.039
1687769924.120,-252.930,31.738,70.312,-255.371,-206.543
1687769924.124,-289.062,34.668,73.242,-298.828,-30.762
1687769924.128,-315.430,37.598,79.102,-308.594,212.891
1687769924.132,-311.523,46.387,80.078,-304.688,-68.848
1687769924.148,-342.773,26.855,64.453,-336.426,-192.383
1687769924.152,-374.512,10.254,61.523,-353.027,-15.137
1687769924.156,-355.957,24.902,53.711,-335.938,-8.789
1687769924.160,-320.312,36.133,40.527,-316.406,-136.719
1687769924.164,-286.621,23.926,50.293,-293.457,-106.934
1687769924.168,-288.574,20.508,47.363,-294.922,234.863
1687769924.172,-297.852,24.902,33.691,-299.316,187.988
1687769924.175,-271.484,18.555,42.969,-294.434,-61.523
1687769924.179,-260.254,17.578,44.434,-286.133,-63.477
1687769924.183,-258.789,20.508,25.879,-266.602,-7.812
1687769924.187,-243.164,2.441,10.742,-249.023,-68.359
1687769924.191,-232.910,7.324,0.977,-245.605,-125.977
1687769924.192,-210.449,20.020,14.648,-241.211,-136.719
1687769924.196,-180.176,30.273,33.203,-213.379,-89.355
1687769924.200,-168.457,33.203,39.062,-189.941,-106.934
1687769924.204,-165.527,3.906,37.109,-183.105,-85.449
1687769924.208,-145.996,13.184,16.602,-167.480,-5.859
1687769924.212,-131.348,25.391,-4.883,-149.414,-19.531
1687769924.216,-110.352,-6.836,-20.508,-124.023,-9.766
1687769924.219,-84.961,-16.602,-23.438,-103.516,-15.137
1687769924.223,-67.383,-6.836,-25.391,-78.613,99.609
1687769924.227,-40.527,-26.855,-43.457,-51.758,299.805
1687769924.231,-16.602,-49.316,-28.320,-54.199,53.223
1687769924.235,-3.906,-42.969,-26.855,-40.527,-93.750
1687769924.237,11.230,-51.758,-50.293,1.953,91.797
1687769924.241,25.391,-47.363,-50.781,15.137,33.203
1687769924.245,39.062,-53.223,-48.828,12.207,-164.062
1687769924.249,44.922,-73.730,-68.848,13.184,-190.430
1687769924.253,53.711,-83.984,-89.355,20.996,-106.934
1687769924.257,64.941,-89.844,-89.844,49.805,6.348
1687769924.261,69.824,-73.242,-76.660,66.895,-28.320
1687769924.264,65.918,-67.383,-81.055,58.594,-20.020
1687769924.268,77.637,-66.895,-100.586,69.824,229.004
1687769924.272,102.539,-94.238,-83.008,97.656,132.324
1687769924.276,121.582,-101.562,-51.758,107.422,-80.078
1687769924.280,116.699,-43.945,-50.293,100.586,0.000
1687769924.282,108.887,-36.621,-60.547,96.680,-54.688
1687769924.286,102.051,-70.801,-91.797,76.660,-171.875
1687769924.290,107.910,-61.035,-101.562,81.543,-109.863
1687769924.294,129.883,-45.410,-64.453,115.234,-106.934
1687769924.298,131.348,-66.406,-52.246,114.258,-140.137
1687769924.302,111.328,-87.891,-63.477,92.285,-13.672
1687769924.306,100.098,-83.984,-64.941,79.102,-36.133
1687769924.309,114.746,-55.176,-65.430,88.867,-5.859
1687769924.313,113.281,-55.176,-76.660,106.445,175.293
1687769924.317,113.281,-62.500,-75.195,100.586,0.977
1687769924.321,111.816,-62.500,-60.547,83.496,-49.805
1687769924.325,104.004,-81.543,-40.527,79.102,120.605
1687769924.327,101.074,-63.965,-51.758,64.453,83.496
1687769924.331,103.516,-45.898,-59.082,59.570,-133.301
1687769924.335,108.398,-51.758,-53.711,88.379,-139.160
1687769924.339,102.051,-60.547,-62.988,86.426,-35.645
1687769924.343,96.191,-63.965,-54.688,55.176,-49.805
1687769924.347,83.496,-59.082,-40.527,41.992,-82.520
1687769924.351,66.895,-75.684,-32.715,52.734,85.449
1687769924.354,78.613,-77.148,-42.969,75.684,295.898
1687769924.358,78.613,-52.246,-52.734,58.594,101.562
1687769924.362,59.082,-40.039,-41.016,33.203,-125.000
1687769924.366,55.664,-35.645,-35.645,30.762,-124.512
1687769924.370,63.477,-45.410,-41.504,35.645,-43.457
1687769924.372,71.777,-44.922,-49.316,45.898,-37.109
1687769924.376,72.754,-39.062,-50.781,58.105,-124.512
1687769924.380,58.105,-44.922,-48.340,29.785,-44.922
1687769924.384,52.246,-50.781,-40.039,4.883,-9.277
1687769924.388,41.016,-52.734,-21.973,-2.441,-146.484
1687769924.392,35.645,-57.129,-20.996,-0.977,-103.516
1687769924.396,37.109,-52.246,-27.344,16.602,143.066
1687769924.399,29.785,-44.434,-32.227,28.320,232.422
1687769924.403,35.156,-40.527,-35.156,11.719,-83.496
1687769924.407,39.551,-41.504,-22.949,12.695,-216.309
1687769924.411,24.414,-54.688,-32.227,19.043,43.945
1687769924.415,13.184,-66.895,-55.664,11.230,34.180
1687769924.418,21.484,-62.988,-38.086,-4.883,-141.113
1687769924.422,29.785,-34.668,-26.367,-12.207,-75.195
1687769924.426,36.621,-23.926,-41.504,-0.488,95.703
1687769924.430,20.508,-71.289,-49.316,0.977,-17.090
1687769924.434,10.254,-83.008,-30.273,0.000,-93.750
1687769924.438,13.672,-55.176,-5.371,-0.977,22.461
1687769924.442,12.207,-31.250,-8.789,-14.648,218.750
1687769924.445,8.301,-20.996,-38.574,-32.715,13.672
1687769924.449,7.812,-32.715,-53.711,-25.391,-214.355
1687769924.453,-0.488,-38.086,-37.109,-18.555,-153.809
1687769924.457,-10.742,-47.852,-34.668,-17.090,-121.582
1687769924.461,2.441,-41.992,-27.344,-24.414,-182.617
1687769924.462,1.953,-55.664,-35.156,-28.809,-203.125
1687769924.466,-3.418,-88.379,-40.039,-28.320,-118.652
1687769924.470,0.488,-57.617,-32.227,-10.254,-65.918
1687769924.474,-2.441,-45.410,-48.340,-21.484,-28.320
1687769924.478,-9.277,-49.316,-45.898,-59.570,-56.641
1687769924.482,-9.277,-33.691,-39.551,-44.434,44.434
1687769924.486,-18.555,-40.527,-55.664,-27.344,303.711
1687769924.489,-32.227,-46.387,-54.199,-36.133,64.941
1687769924.493,-66.895,-45.898,-42.969,-36.621,-103.516
1687769924.497,-135.254,-56.641,-45.898,-59.570,-5.859
1687769924.501,-175.293,-44.922,-55.664,-73.242,-47.363
1687769924.505,-193.359,-36.133,-49.805,-40.039,-104.980
1687769924.522,-195.312,-60.547,-36.133,-30.273,-67.383
1687769924.526,-163.086,-57.129,-29.785,-30.762,112.305
1687769924.530,-128.418,-45.898,-37.598,-37.598,33.691
1687769924.534,-102.539,-58.105,-41.992,-63.477,-168.457
1687769924.538,-76.172,-41.504,-22.461,-44.434,-103.027
1687769924.542,-61.035,-26.855,-20.508,-18.555,50.293
1687769924.546,-52.734,-36.621,-38.086,-20.996,50.293
1687769924.549,-43.945,-37.598,-35.156,-28.809,-28.320
1687769924.553,-44.922,-29.785,-21.484,-34.180,-73.242
1687769924.557,-34.180,-29.785,-25.879,-13.672,190.430
1687769924.561,-7.324,-45.410,-23.438,-9.766,177.734
1687769924.565,-1.465,-41.504,-31.250,-22.461,-43.457
1687769924.567,-18.066,-28.320,-34.180,-26.855,-36.133
1687769924.571,-25.879,-30.273,-42.969,-34.180,-55.176
1687769924.575,-7.324,-26.367,-32.227,-24.902,-142.090
1687769924.579,8.301,-28.809,0.000,-7.324,-117.676
1687769924.583,7.812,-44.434,-7.324,-12.207,-42.480
1687769924.587,3.906,-47.852,-19.531,-23.926,-51.758
1687769924.591,-4.395,-44.922,-33.691,-42.480,-23.926
1687769924.594,4.395,-29.297,-49.316,-50.781,-68.359
1687769924.598,21.484,-17.090,-32.715,-26.367,100.586
1687769924.602,11.230,-40.039,-34.668,-18.066,434.082
1687769924.606,-3.418,-54.199,-60.059,-36.133,166.016
1687769924.610,-8.301,-46.387,-68.359,-53.223,-152.832
1687769924.612,6.348,-47.363,-56.152,-41.504,22.949
1687769924.616,4.883,-40.527,-54.199,-16.113,57.617
1687769924.620,-6.348,-36.621,-30.762,-24.414,-74.707
1687769924.624,-7.812,-42.969,-33.203,-55.664,-84.473
1687769924.628,-7.324,-40.039,-62.500,-59.570,-36.621
1687769924.632,-2.441,-35.645,-56.152,-55.176,45.898
1687769924.636,6.348,-44.434,-59.570,-38.574,42.969
1687769924.639,13.672,-59.570,-53.711,-22.461,61.035
1687769924.643,3.418,-58.594,-33.203,-29.785,267.578
1687769924.647,-3.418,-35.156,-30.762,-49.316,101.562
1687769924.651,3.418,-12.207,-43.457,-60.059,-151.367
1687769924.655,-0.488,-20.996,-43.457,-47.852,-47.363
1687769924.657,1.465,-32.227,-30.762,-30.762,48.340
1687769924.661,6.836,-34.180,-23.926,-28.809,-64.453
1687769924.665,1.465,-36.621,-58.594,-36.133,-190.918
1687769924.669,8.301,-30.273,-69.824,-29.785,-104.492
1687769924.673,6.836,-32.227,-43.457,-27.344,-74.219
1687769924.677,1.953,-51.758,-20.508,-25.391,-3.906
1687769924.681,12.207,-46.387,-11.719,-15.137,92.285
1687769924.684,7.324,-36.133,-33.691,-38.086,112.305
1687769924.688,1.953,-40.527,-35.645,-42.969,73.242
1687769924.692,11.230,-43.457,-31.738,-32.715,-151.367
1687769924.696,17.578,-41.504,-43.457,-23.438,-112.793
1687769924.700,9.766,-41.992,-35.645,-17.090,73.242
1687769924.704,-4.395,-52.734,-35.156,-37.598,-12.207
1687769924.708,-5.371,-41.016,-46.875,-47.363,-74.219
1687769924.712,7.812,-26.367,-33.691,-23.438,-40.527
1687769924.716,9.766,-23.926,-38.086,-4.883,50.293
1687769924.720,5.371,-26.367,-48.828,-19.531,-68.359
1687769924.724,7.812,-24.902,-36.133,-29.297,-239.258
1687769924.728,14.648,-22.461,-35.645,-28.809,-144.043
1687769924.731,15.137,-39.551,-36.133,-24.414,146.484
1687769924.735,4.883,-37.109,-45.898,-26.855,40.039
1687769924.739,-3.906,-39.062,-39.551,-28.809,-140.137
1687769924.743,-0.977,-48.340,-21.484,-36.621,-70.312
1687769924.747,-12.695,-51.758,-27.832,-44.922,-58.594
1687769924.747,-14.648,-37.598,-37.598,-43.945,-135.742
1687769924.751,-5.859,-32.227,-28.809,-37.109,-93.262
1687769924.755,-8.789,-59.082,-11.230,-20.020,26.367
1687769924.759,-7.324,-58.594,-12.207,-16.113,62.988
1687769924.763,-4.395,-50.293,-25.391,-44.434,-25.879
1687769924.767,0.977,-56.152,-43.457,-57.129,-108.398
1687769924.771,4.395,-65.430,-41.016,-29.297,93.750
1687769924.774,-4.883,-54.688,-41.504,-16.602,353.516
1687769924.778,-14.160,-27.832,-67.383,-31.738,77.148
1687769924.782,-11.230,-30.273,-60.547,-48.340,-183.594
1687769924.786,-5.859,-37.598,-49.805,-39.062,41.504
1687769924.790,2.930,-34.668,-37.598,-23.438,35.645
1687769924.792,-0.977,-54.688,-15.625,-28.809,-161.621
1687769924.796,4.395,-37.109,-13.672,-20.020,-145.996
1687769924.800,3.418,-33.203,-27.832,-42.480,-82.031
1687769924.804,-11.230,-51.758,-38.086,-56.152,-98.145
1687769924.808,-17.578,-42.480,-28.320,-33.691,-125.977
1687769924.812,-1.465,-51.270,-41.016,-24.902,69.824
1687769924.816,31.250,-42.969,-51.758,-3.418,315.430
1687769924.819,33.691,-24.902,-30.762,11.230,73.242
1687769924.823,-17.090,-37.109,-24.902,-36.133,-221.680
1687769924.827,-53.223,-50.293,-24.414,-63.477,-148.926
1687769924.831,-42.969,-59.082,-27.832,-30.273,52.734
1687769924.835,-34.668,-47.852,-12.207,-26.855,-80.566
1687769924.852,-42.480,-39.551,-2.930,-58.594,-189.453
1687769924.856,-60.547,-63.965,-7.812,-84.961,-158.691
1687769924.860,-65.430,-66.895,-12.695,-82.520,-150.391
1687769924.864,-58.594,-55.176,-27.344,-57.129,-94.727
1687769924.868,-65.918,-81.055,-51.758,-52.246,-54.199
1687769924.872,-63.965,-97.168,-35.156,-69.336,100.098
1687769924.876,-55.664,-77.637,-28.809,-68.848,105.957
1687769924.879,-49.316,-52.246,-33.203,-48.828,-31.738
1687769924.883,-50.293,-41.504,-17.578,-34.668,-7.812
1687769924.887,-50.293,-51.270,-8.301,-33.691,148.926
1687769924.891,-55.664,-63.965,-16.602,-49.316,323.730
1687769924.895,-60.059,-51.270,-37.109,-71.777,3.418
1687769924.897,-50.293,-40.527,-41.504,-70.312,-118.164
1687769924.901,-41.992,-52.734,-32.715,-43.457,4.395
1687769924.905,-47.852,-47.852,-38.086,-38.086,-52.246
1687769924.909,-56.641,-40.039,-42.480,-54.688,-134.766
1687769924.913,-44.922,-41.992,-39.551,-53.223,-90.820
1687769924.917,-27.832,-31.250,-30.273,-31.250,94.727
1687769924.921,-38.574,-60.547,-12.207,-32.715,133.789
1687769924.924,-43.457,-76.660,-7.812,-34.668,3.418
1687769924.928,-39.062,-37.598,-21.484,-34.668,-73.730
1687769924.932,-26.855,-25.391,-15.137,-30.273,158.691
1687769924.936,-29.297,-45.898,-14.160,-25.879,155.762
1687769924.940,-30.762,-64.453,-41.504,-21.973,-44.922
1687769924.942,-33.691,-70.312,-48.828,-35.645,-62.012
1687769924.946,-45.410,-54.688,-39.551,-49.805,-22.461
1687769924.950,-34.668,-43.457,-37.598,-56.641,-122.559
1687769924.954,-23.438,-51.270,-17.578,-57.617,-142.578
1687769924.958,-15.137,-56.152,-2.930,-28.809,-57.617
1687769924.962,-9.277,-34.668,-6.348,-12.695,82.031
1687769924.966,-27.832,-37.109,-27.832,-41.016,40.527
1687769924.969,-39.551,-42.969,-21.973,-50.293,-125.000
1687769924.973,-50.293,-40.039,-23.438,-30.762,-9.766
1687769924.977,-69.336,-55.176,-46.387,-26.367,208.496
1687769924.981,-91.309,-58.594,-29.785,-26.855,80.566
1687769924.985,-111.816,-45.898,-21.484,-30.273,-54.688
1687769924.987,-128.418,-41.504,-31.738,-43.457,57.129
1687769924.991,-140.137,-37.109,-29.785,-44.434,64.941
1687769924.995,-133.301,-49.805,-15.137,-28.320,-172.852
1687769924.999,-146.973,-47.852,-26.367,-28.320,-157.227
1687769925.003,-174.805,-25.879,-44.434,-41.504,50.293
1687769925.007,-181.152,-29.297,-37.109,-58.594,-7.324
1687769925.011,-185.547,-40.039,-18.066,-65.918,-39.551
1687769925.014,-218.262,-53.223,-25.879,-72.266,-64.453
1687769925.018,-221.191,-56.641,-37.109,-59.570,162.109
1687769925.022,-202.637,-45.898,-27.832,-51.758,90.820
1687769925.026,-200.195,-39.551,-30.273,-68.848,-188.477
1687769925.030,-193.848,-28.320,-25.391,-75.684,-166.016
1687769925.032,-194.824,-17.578,-14.160,-64.453,-141.113
1687769925.036,-212.402,-26.367,-10.742,-69.824,-109.863
1687769925.040,-237.305,-31.738,-3.906,-92.773,-65.918
1687769925.044,-258.301,-19.043,0.977,-122.070,37.109
1687769925.048,-305.176,-14.160,15.137,-167.969,6.836
1687769925.052,-337.402,-6.836,29.785,-198.242,18.066
1687769925.056,-358.887,-4.883,39.551,-226.562,-17.578
1687769925.059,-385.254,-6.348,49.805,-242.676,11.230
1687769925.063,-394.531,2.930,73.730,-262.207,189.453
1687769925.067,-411.133,4.883,76.172,-305.176,-94.727
1687769925.071,-429.688,5.859,74.707,-311.523,-174.805
1687769925.075,-429.199,10.254,74.219,-301.758,54.688
1687769925.077,-425.781,10.742,65.430,-305.176,36.621
1687769925.081,-424.316,11.719,73.730,-312.012,-118.652
1687769925.085,-432.129,4.883,76.660,-321.289,-129.395
1687769925.089,-432.129,-3.906,75.684,-318.848,-96.191
1687769925.093,-413.086,21.973,50.781,-297.852,-117.188
1687769925.097,-394.531,35.645,50.293,-289.551,-116.211
1687769925.101,-384.766,20.996,61.035,-307.617,-29.297
1687769925.104,-377.441,8.789,55.664,-292.969,237.793
1687769925.108,-355.957,6.348,78.125,-252.441,220.215
1687769925.112,-329.102,22.461,76.660,-248.535,-19.043
1687769925.116,-311.035,11.230,31.738,-241.211,41.992
1687769925.120,-292.969,17.090,4.395,-219.238,0.488
1687769925.122,-275.391,17.578,14.648,-225.098,-133.789
1687769925.126,-251.953,1.953,28.320,-215.332,-128.418
1687769925.130,-224.121,24.414,14.648,-172.363,-67.383
1687769925.134,-198.242,23.438,-3.906,-152.832,-100.586
1687769925.138,-157.227,10.254,-6.836,-137.207,-121.094
1687769925.142,-147.461,-9.766,-28.320,-127.441,-87.402
1687769925.146,-167.969,-19.531,-42.969,-117.676,112.305
1687769925.149,-151.855,-13.184,-33.691,-96.191,265.625
1687769925.153,-123.535,-7.324,-22.461,-80.078,-3.418
1687769925.157,-104.492,-19.043,-23.438,-66.895,-149.902
1687769925.161,-67.383,-45.898,-41.504,-61.523,90.332
1687769925.165,-20.508,-30.762,-51.270,-45.898,140.625
1687769925.167,11.230,-23.926,-47.852,-11.719,-103.027
1687769925.171,34.180,-28.809,-56.152,12.695,-58.594
1687769925.175,63.477,-54.199,-67.383,17.578,-52.246
1687769925.179,74.707,-58.594,-92.285,20.020,-119.141
1687769925.183,59.082,-34.180,-94.238,18.066,-138.672
1687769925.187,63.477,-44.922,-77.148,41.504,-15.625
1687769925.191,75.684,-60.547,-74.219,65.918,264.648
1687769925.194,84.473,-57.617,-80.078,68.359,99.121
1687769925.198,75.684,-53.711,-108.887,61.523,-150.879
1687769925.202,76.660,-54.688,-121.094,62.500,-100.098
1687769925.206,83.496,-67.383,-92.773,72.754,65.430
1687769925.210,89.844,-71.289,-66.406,81.055,71.777
1687769925.212,101.074,-71.777,-76.660,95.703,-58.105
1687769925.216,101.074,-86.426,-106.445,83.984,-123.535
1687769925.220,88.379,-75.684,-113.281,80.566,-19.043
1687769925.224,94.727,-62.012,-93.750,95.215,-67.871
1687769925.228,116.211,-75.195,-93.262,102.539,-79.102
1687769925.232,122.070,-83.496,-84.961,104.004,121.582
1687769925.236,113.281,-59.570,-89.844,74.219,150.879
1687769925.239,123.047,-49.316,-103.027,60.059,-74.219
1687769925.243,135.742,-69.824,-67.383,90.332,-173.340
1687769925.247,126.465,-83.496,-61.035,104.004,53.223
1687769925.251,122.070,-78.613,-81.543,96.191,198.242
1687769925.255,129.395,-93.750,-75.684,81.543,-45.410
1687769925.272,112.305,-91.309,-78.125,62.012,-150.879
1687769925.276,103.027,-81.055,-87.402,71.777,75.195
1687769925.280,96.191,-74.219,-92.773,77.637,47.363
1687769925.284,75.195,-59.570,-75.684,80.078,-161.133
1687769925.288,68.848,-34.180,-57.129,78.613,-74.219
1687769925.292,38.574,-43.457,-73.242,37.598,110.840
1687769925.296,34.668,-55.176,-57.129,41.016,33.691
1687769925.299,40.039,-62.500,-41.016,56.152,-111.816
1687769925.303,35.156,-66.406,-51.758,51.270,-53.223
1687769925.307,55.176,-59.082,-52.246,55.176,154.785
1687769925.311,76.660,-66.406,-55.176,47.852,-47.852
1687769925.315,89.844,-67.871,-62.988,49.805,-176.758
1687769925.319,97.656,-54.688,-65.430,64.453,-81.543
1687769925.323,95.215,-46.875,-61.035,68.848,-88.379
1687769925.327,92.285,-52.246,-58.594,59.570,-89.355
1687769925.331,101.074,-57.129,-62.500,39.062,-95.215
1687769925.335,91.797,-59.570,-63.477,30.762,-13.184
1687769925.339,84.961,-35.156,-62.012,36.621,132.324
1687769925.343,85.449,-35.156,-64.941,44.434,50.781
1687769925.346,73.242,-63.477,-66.406,33.691,-104.980
1687769925.350,80.566,-57.617,-50.781,22.461,-11.230
1687769925.354,85.938,-51.758,-27.832,19.531,135.742
1687769925.358,80.078,-57.129,-36.133,19.531,1.465
1687769925.362,86.426,-61.035,-42.969,26.855,-116.211
1687769925.363,93.750,-66.406,-38.574,28.809,84.473
1687769925.367,85.938,-58.594,-46.387,9.277,17.090
1687769925.371,78.613,-49.805,-55.176,-1.953,-207.031
1687769925.375,76.660,-40.039,-53.223,12.207,-133.301
1687769925.379,82.031,-37.598,-54.688,17.578,-2.930
1687769925.383,66.895,-35.156,-57.617,5.859,46.875
1687769925.387,54.688,-32.715,-66.406,-0.488,3.418
1687769925.390,61.523,-42.969,-64.453,-8.789,59.570
1687769925.394,59.570,-61.035,-60.547,-4.395,262.695
1687769925.398,53.711,-56.641,-44.922,3.906,208.984
1687769925.402,49.316,-39.551,-25.391,0.000,-124.023
1687769925.406,50.781,-35.156,-37.109,-17.090,-143.066
1687769925.408,69.336,-30.762,-57.129,-21.484,-85.449
1687769925.412,71.289,-47.363,-59.570,-11.230,-210.449
1687769925.416,60.059,-51.270,-49.316,-9.277,-158.203
1687769925.420,53.223,-36.133,-50.293,-11.719,-35.645
1687769925.424,37.109,-26.855,-52.246,-26.367,-49.316
1687769925.428,34.668,-26.855,-49.316,-32.227,-57.617
1687769925.432,54.199,-35.645,-38.086,-15.625,-90.332
1687769925.435,63.965,-38.086,-31.738,12.695,186.523
1687769925.439,49.316,-32.227,-41.016,12.695,435.547
1687769925.443,27.344,-39.551,-35.645,-41.504,54.688
1687769925.447,16.602,-39.062,-36.621,-62.988,-64.941
1687769925.451,28.320,-37.598,-51.270,-39.551,59.082
1687769925.453,32.227,-45.898,-55.176,-30.273,8.789
1687769925.457,24.414,-57.617,-50.293,-24.414,-91.797
1687769925.461,31.250,-56.152,-46.875,-28.809,-111.816
1687769925.465,39.551,-36.621,-51.758,-38.086,-101.562
1687769925.469,45.898,-33.691,-52.734,-27.344,-124.512
1687769925.473,38.086,-26.855,-53.223,-18.555,-129.395
1687769925.477,32.227,-42.969,-58.105,-8.789,0.977
1687769925.480,40.527,-33.203,-47.852,0.977,245.117
1687769925.484,27.344,-6.836,-47.852,-37.109,-2.441
1687769925.488,19.043,-34.668,-39.551,-41.016,-195.801
1687769925.492,16.113,-42.480,-11.719,-24.902,-16.602
1687769925.496,10.254,-20.996,-28.809,-29.297,31.250
1687769925.498,12.207,-31.250,-55.176,-44.434,-105.957
1687769925.502,14.648,-45.410,-62.500,-56.641,-201.660
1687769925.506,19.043,-25.391,-56.641,-46.875,-166.504
1687769925.510,13.184,-21.973,-41.992,-32.715,-92.285
1687769925.514,6.836,-44.922,-39.062,-22.461,-74.219
1687769925.518,15.625,-46.387,-30.762,-28.809,-59.082
1687769925.522,4.395,-13.184,-45.898,-39.062,122.070
1687769925.525,0.977,-2.441,-44.922,-24.414,208.496
1687769925.529,9.277,-24.902,-31.738,-21.484,-78.125
1687769925.533,7.812,-48.340,-35.156,-18.066,-120.605
1687769925.537,15.625,-47.852,-42.480,-20.508,176.270
1687769925.541,12.695,-36.621,-46.875,-37.598,142.578
1687769925.544,9.277,-36.621,-37.598,-38.574,-80.566
1687769925.548,10.254,-52.246,-26.855,-27.344,-62.988
1687769925.552,3.418,-39.062,-32.715,-17.090,52.734
1687769925.556,-0.488,-15.137,-36.621,-20.020,-81.055
1687769925.560,-6.836,-41.992,-56.641,-41.992,-200.684
1687769925.564,-7.812,-57.617,-58.594,-47.363,-70.801
1687769925.568,-3.418,-44.434,-41.992,-26.855,191.406
1687769925.571,-9.277,-36.621,-39.062,-27.344,80.566
1687769925.575,-15.137,-34.668,-40.527,-45.898,-68.848
1687769925.579,-8.789,-37.109,-60.547,-51.758,-104.492
1687769925.583,3.906,-45.410,-51.758,-48.340,-156.738
1687769925.587,7.324,-41.016,-27.832,-31.250,-153.320
1687769925.603,-3.906,-43.945,-25.879,-29.785,-94.727
1687769925.607,-17.090,-55.176,-38.574,-40.039,-98.145
1687769925.611,-14.648,-40.039,-36.133,-46.875,-46.875
1687769925.615,-11.719,-28.809,-18.066,-47.363,-38.086
1687769925.619,-5.859,-34.668,-11.719,-40.039,-175.293
1687769925.623,-1.465,-33.203,-37.109,-33.203,61.035
1687769925.627,-7.812,-44.922,-46.387,-14.648,421.387
1687769925.630,-13.184,-41.504,-47.363,-43.457,45.410
1687769925.634,-7.812,-21.484,-57.617,-71.777,-164.062
1687769925.638,3.418,-29.297,-26.367,-50.781,-9.766
1687769925.642,-6.836,-48.340,-8.301,-39.551,39.551
1687769925.646,-20.996,-49.316,-25.879,-47.852,-4.883
1687769925.648,-19.531,-55.664,-33.691,-58.105,-101.562
1687769925.652,-11.230,-52.246,-25.391,-44.434,60.547
1687769925.656,-17.578,-30.273,-43.945,-46.387,83.496
1687769925.660,-26.855,-27.344,-62.988,-45.898,-125.488
1687769925.664,-19.043,-33.203,-50.781,-22.461,-54.688
1687769925.668,-1.953,-35.156,-60.059,-27.344,148.926
1687769925.672,0.000,-36.133,-65.918,-53.223,117.188
1687769925.675,2.441,-22.949,-45.410,-52.734,-103.027
1687769925.679,1.953,-26.855,-21.973,-35.156,-135.254
1687769925.683,-15.137,-33.691,-23.926,-21.484,168.945
1687769925.687,-14.160,-32.227,-46.387,-35.645,38.574
1687769925.691,-13.672,-32.227,-44.922,-60.547,-143.555
1687769925.693,-17.578,-28.320,-30.273,-54.688,-7.812
1687769925.697,-11.230,-30.273,-30.273,-40.039,52.246
1687769925.701,-6.836,-17.578,-52.246,-40.039,-34.180
1687769925.705,-17.578,-28.809,-59.570,-49.805,-95.215
1687769925.709,-30.273,-50.781,-34.668,-66.406,-60.059
1687769925.713,-34.668,-33.691,-17.090,-66.895,34.180
1687769925.717,-28.809,-27.344,-23.438,-60.059,22.461
1687769925.720,-29.297,-45.410,-29.297,-57.129,2.441
1687769925.724,-43.945,-31.738,-31.250,-54.199,171.875
1687769925.728,-38.574,-17.578,-32.715,-51.270,339.355
1687769925.732,-36.133,-32.227,-33.203,-60.059,-11.230
1687769925.736,-39.062,-38.574,-27.832,-66.895,-204.102
1687769925.738,-36.621,-29.297,-33.203,-53.223,31.250
1687769925.742,-42.480,-23.438,-42.480,-44.434,-44.922
1687769925.746,-49.316,-20.020,-19.043,-69.336,-195.801
1687769925.750,-52.734,-19.531,-14.160,-83.008,-139.160
1687769925.754,-63.477,-21.973,-8.301,-84.961,-71.777
1687769925.758,-82.031,-6.836,5.371,-103.027,8.789
1687769925.762,-118.164,1.465,10.254,-141.113,45.898
1687769925.765,-133.789,-3.906,30.273,-166.992,12.695
1687769925.769,-163.574,-2.930,41.016,-194.824,149.414
1687769925.773,-193.359,15.625,46.875,-218.750,84.473
1687769925.777,-216.797,16.602,58.594,-236.816,-135.254
1687769925.781,-254.883,-9.277,69.336,-268.555,-117.676
1687769925.783,-275.879,6.836,56.152,-307.129,-63.477
1687769925.787,-292.969,41.016,55.664,-325.684,-127.441
1687769925.791,-295.898,51.758,65.918,-313.965,-104.492
1687769925.795,-285.156,51.758,57.129,-294.434,-31.738
1687769925.799,-290.039,41.016,70.801,-287.109,-7.812
1687769925.803,-302.734,33.203,70.801,-314.941,-76.172
1687769925.807,-291.504,28.809,46.875,-326.660,-166.992
1687769925.810,-277.832,24.902,41.992,-297.363,-11.719
1687769925.814,-268.066,21.484,57.129,-267.090,118.164
1687769925.818,-247.559,-5.859,67.383,-249.023,-69.336
1687769925.822,-235.840,-21.973,59.082,-260.254,-111.816
1687769925.826,-237.793,15.137,56.641,-263.184,89.355
1687769925.828,-211.914,15.137,36.133,-223.145,107.422
1687769925.832,-180.176,15.137,8.301,-186.035,-136.230
1687769925.836,-160.645,14.160,-11.230,-171.387,-113.770
1687769925.840,-137.207,-9.277,-14.648,-165.527,-66.895
1687769925.844,-107.422,-11.719,-5.859,-147.461,-83.008
1687769925.848,-78.613,-20.020,-18.555,-109.375,-53.711
1687769925.852,-65.430,-18.555,-5.371,-83.008,84.961
1687769925.855,-43.457,-23.926,-20.996,-51.270,359.375
1687769925.859,-28.320,-37.109,-45.898,-45.410,175.293
1687769925.863,-23.438,-36.133,-37.109,-48.340,-105.957
1687769925.867,0.000,-59.082,-41.016,-13.672,-102.539
1687769925.871,32.227,-67.871,-61.035,25.879,-29.785
1687769925.874,40.039,-69.336,-83.496,33.691,-37.598
1687769925.878,33.691,-77.637,-81.055,32.227,-56.152
1687769925.882,56.152,-90.820,-84.961,36.133,51.270
1687769925.886,80.078,-103.516,-97.168,47.363,37.598
1687769925.890,92.773,-110.352,-92.773,69.824,-34.668
1687769925.894,100.098,-85.938,-87.891,93.262,-4.395
1687769925.898,91.797,-59.082,-90.820,89.844,118.652
1687769925.901,87.402,-67.383,-87.891,72.754,236.816
1687769925.905,95.215,-80.566,-80.078,69.824,-62.988
1687769925.909,105.957,-73.242,-78.125,89.355,-174.316
1687769925.913,111.328,-62.988,-93.262,105.957,111.816
1687769925.917,104.492,-70.312,-92.773,96.680,82.031
1687769925.933,98.633,-65.430,-78.613,73.242,-161.621
1687769925.937,102.539,-63.477,-93.750,62.500,-190.430
1687769925.941,99.609,-61.035,-95.215,69.824,-138.184
1687769925.945,98.633,-67.383,-90.332,78.613,-126.465
1687769925.949,92.773,-69.336,-88.867,78.613,-103.516
1687769925.953,84.473,-57.129,-77.637,71.777,-125.488
1687769925.957,77.148,-78.613,-89.355,57.129,148.926
1687769925.960,64.941,-82.031,-83.496,52.734,224.609
1687769925.964,57.129,-74.219,-76.172,55.176,-75.195
1687769925.968,53.223,-82.520,-50.781,59.570,-114.258
1687769925.972,56.641,-67.871,-60.059,45.410,-36.621
1687769925.976,54.199,-50.293,-83.496,31.738,-81.543
1687769925.963,56.641,-60.059,-67.383,32.227,-125.000
1687769925.967,59.570,-63.477,-54.688,42.480,-44.434
1687769925.971,47.363,-56.152,-62.500,47.852,-24.414
1687769925.975,48.340,-56.152,-74.707,37.598,-135.254
1687769925.979,42.969,-47.852,-70.801,21.973,-180.664
1687769925.983,43.457,-42.969,-59.570,16.113,19.531
1687769925.987,42.480,-41.992,-51.758,22.949,158.691
1687769925.990,36.133,-44.922,-47.852,37.109,86.426
1687769925.994,37.598,-55.176,-55.176,31.250,-73.242
1687769925.998,34.668,-55.664,-47.852,12.207,-13.184
1687769926.002,32.227,-65.430,-28.809,23.438,402.344
1687769926.006,30.762,-55.664,-39.551,34.180,259.277
1687769926.023,23.926,-49.316,-59.570,33.691,-50.293
1687769926.027,26.855,-50.293,-67.871,19.531,-77.637
1687769926.031,23.438,-46.875,-71.289,-3.418,-166.016
1687769926.035,20.996,-39.062,-52.734,2.930,-206.055
1687769926.039,21.484,-23.926,-40.527,11.719,-123.047
1687769926.043,17.090,-23.438,-43.945,10.742,49.805
1687769926.047,12.695,-38.574,-41.504,-8.789,9.766
1687769926.050,4.395,-49.316,-47.852,-31.738,-108.887
1687769926.054,4.883,-34.180,-55.664,-42.480,-84.473
1687769926.058,11.719,-49.805,-47.852,-27.832,260.254
1687769926.062,18.555,-54.199,-43.945,-18.066,208.008
1687769926.066,11.230,-38.086,-66.406,-31.250,-94.727
1687769926.068,-7.324,-43.457,-59.570,-42.969,-171.387
1687769926.072,-8.789,-45.898,-45.410,-44.434,-166.992
1687769926.076,3.906,-30.273,-59.082,-41.992,-158.691
1687769926.080,11.719,-15.625,-41.016,-38.086,-146.973
1687769926.084,10.742,-24.902,-29.785,-31.738,-54.688
1687769926.088,4.883,-28.320,-35.156,-40.527,5.859
1687769926.092,-3.906,-36.133,-30.273,-54.199,-78.125
1687769926.095,-6.836,-34.668,-41.016,-59.082,-174.805
1687769926.099,-2.930,-12.695,-45.898,-32.227,67.871
1687769926.103,-1.465,-20.996,-34.668,-4.883,231.445
1687769926.107,-9.277,-37.109,-60.547,-33.691,35.156
1687769926.111,-26.855,-42.480,-65.918,-65.430,-114.746
1687769926.113,-26.855,-44.922,-37.109,-48.828,20.996
1687769926.117,-19.043,-48.340,-54.199,-27.832,112.793
1687769926.121,-16.602,-46.875,-83.008,-36.621,-72.754
1687769926.125,-9.766,-33.203,-57.129,-61.035,-126.953
1687769926.129,-1.465,-20.996,-26.367,-52.246,-146.973
1687769926.133,-12.695,-34.180,-25.391,-46.387,-57.617
1687769926.137,-25.391,-33.691,-46.875,-56.641,21.973
1687769926.140,-25.391,-28.320,-37.598,-51.270,-11.230
1687769926.144,-17.578,-30.762,-23.438,-41.992,190.430
1687769926.148,-16.113,-36.621,-19.531,-42.480,75.195
1687769926.152,-25.391,-35.156,-40.039,-55.664,-171.387
1687769926.156,-17.578,-25.391,-41.992,-35.156,-73.242
1687769926.159,-14.648,-31.738,-33.691,-25.879,-83.496
1687769926.163,-23.926,-34.180,-37.598,-39.062,-108.887
1687769926.167,-31.250,-32.227,-40.039,-44.434,-136.719
1687769926.171,-13.184,-38.086,-44.434,-41.504,-73.242
1687769926.175,-13.184,-59.570,-40.039,-25.879,23.438
1687769926.179,-30.762,-51.758,-34.180,-26.855,-62.500
1687769926.183,-27.832,-27.344,-42.969,-40.527,-135.254
1687769926.186,-30.273,-25.391,-41.016,-46.387,-15.137
1687769926.190,-22.949,-26.855,-24.902,-37.598,135.742
1687769926.194,-13.672,-20.996,-15.625,-25.391,-78.125
1687769926.198,-18.066,-32.227,-25.879,-10.254,-52.734
1687769926.202,-20.996,-54.199,-35.156,-18.066,98.145
1687769926.203,-20.508,-44.434,-29.297,-40.527,25.879
1687769926.207,-16.602,-47.363,-24.414,-41.992,-113.281
1687769926.211,-25.879,-40.527,-26.367,-27.832,-103.027
1687769926.215,-40.527,-32.715,-26.367,-22.949,47.363
1687769926.219,-41.504,-54.688,-23.926,-42.480,-35.645
1687769926.223,-35.156,-51.270,-46.387,-51.758,-47.852
1687769926.227,-27.344,-41.992,-52.246,-47.852,56.641
1687769926.230,-33.691,-56.152,-25.879,-35.645,243.164
1687769926.234,-33.691,-37.598,-26.855,-21.484,226.074
1687769926.238,-28.320,-20.996,-22.461,-31.250,-62.500
1687769926.242,-29.297,-26.367,-27.344,-48.828,-170.898
1687769926.246,-27.832,-46.387,-38.086,-45.410,-105.957
1687769926.248,-32.715,-51.270,-34.180,-40.039,-104.980
1687769926.252,-26.367,-32.715,-32.227,-37.109,-153.320
1687769926.256,-31.738,-21.484,-46.387,-35.645,-80.566
1687769926.260,-44.922,-25.391,-49.316,-46.387,-82.520
1687769926.264,-38.574,-41.992,-37.598,-50.781,-88.867
1687769926.268,-21.484,-42.969,-29.297,-49.805,-29.297
1687769926.272,-31.250,-40.527,-37.598,-39.062,159.180
1687769926.275,-42.969,-44.434,-55.664,-34.180,354.980
1687769926.279,-34.668,-44.434,-28.809,-42.480,25.879
1687769926.283,-34.180,-37.598,-12.695,-55.664,-229.980
1687769926.287,-37.598,-35.645,-31.250,-56.152,97.168
1687769926.291,-39.551,-42.480,-41.504,-33.203,192.383
1687769926.293,-35.156,-42.969,-36.133,-32.715,-132.324
1687769926.297,-23.926,-48.828,-34.668,-46.387,-184.570
1687769926.301,-28.320,-54.688,-49.316,-50.781,-79.590
1687769926.305,-41.504,-75.195,-58.594,-46.875,-76.172
1687769926.309,-47.363,-59.570,-60.547,-43.945,-129.883
1687769926.313,-52.734,-22.949,-50.293,-40.039,-22.461
1687769926.317,-46.875,-28.320,-37.598,-39.551,219.238
1687769926.320,-44.922,-42.969,-33.203,-57.129,31.250
1687769926.324,-49.316,-49.805,-52.246,-57.617,-153.809
1687769926.328,-40.039,-42.480,-60.059,-31.738,-10.254
1687769926.332,-40.527,-46.875,-25.879,-17.090,169.922
1687769926.336,-63.477,-55.176,-18.066,-39.062,-24.414
1687769926.338,-68.848,-46.387,-44.922,-61.035,-151.367
1687769926.342,-55.664,-38.574,-47.363,-50.293,-102.539
1687769926.346,-40.527,-29.297,-32.227,-25.879,-84.961
1687769926.350,-48.340,-29.297,-41.504,-15.137,-83.984
1687769926.354,-78.125,-41.992,-54.688,-44.922,-150.391
1687769926.358,-90.820,-65.918,-54.199,-60.547,-32.715
1687769926.362,-87.891,-60.059,-62.500,-51.758,93.262
1687769926.365,-95.215,-34.668,-64.453,-54.688,-27.344
1687769926.369,-98.145,-39.062,-59.570,-49.805,-122.070
1687769926.373,-92.285,-52.246,-42.969,-55.664,75.684
1687769926.377,-80.566,-34.668,-33.203,-57.129,182.617
1687769926.381,-67.871,-25.391,-45.898,-45.410,-65.430
1687769926.398,-57.617,-35.156,-44.922,-32.715,-116.699
1687769926.402,-71.777,-47.852,-49.805,-23.926,74.219
1687769926.406,-90.820,-50.781,-33.691,-36.133,73.242
1687769926.410,-86.426,-44.434,-17.578,-47.363,-140.625
1687769926.414,-77.637,-45.410,-29.785,-47.363,-164.062
1687769926.418,-71.777,-52.246,-45.898,-43.945,48.828
1687769926.422,-59.082,-42.480,-46.387,-26.855,52.734
1687769926.425,-54.688,-27.832,-35.156,-24.902,-86.426
1687769926.429,-65.918,-36.621,-29.785,-41.016,-97.656
1687769926.433,-73.242,-50.781,-32.715,-40.039,134.766
1687769926.437,-66.895,-34.180,-33.203,-30.273,37.598
1687769926.441,-47.852,-33.691,-35.156,-28.320,-129.883
1687769926.443,-51.758,-56.641,-37.109,-38.574,-46.875
1687769926.447,-81.055,-55.176,-28.809,-45.410,-5.371
1687769926.451,-80.566,-31.738,-19.043,-47.852,-136.230
1687769926.455,-61.523,-23.926,-27.832,-41.016,-221.680
1687769926.459,-58.105,-29.297,-34.180,-25.391,-3.906
1687769926.463,-55.664,-38.086,-38.086,-29.785,151.367
1687769926.467,-53.711,-35.645,-36.133,-53.711,37.109
1687769926.470,-52.246,-30.762,-41.016,-59.082,-118.164
1687769926.474,-52.246,-41.992,-56.641,-52.734,24.414
1687769926.478,-70.801,-35.645,-27.344,-34.180,217.773
1687769926.482,-78.613,-31.738,-11.230,-26.855,6.836
1687769926.486,-92.285,-50.781,-31.250,-56.152,-63.965
1687769926.488,-94.238,-43.945,-36.621,-70.801,99.121
1687769926.492,-67.383,-19.531,-22.949,-49.805,22.461
1687769926.496,-58.105,-20.020,-20.996,-48.340,-76.660
1687769926.500,-52.246,-21.973,-20.508,-47.852,43.457
1687769926.504,-64.941,-26.855,-6.836,-62.012,97.168
1687769926.508,-112.793,-27.344,10.254,-112.305,4.395
1687769926.512,-170.410,-22.949,25.391,-146.484,-35.156
1687769926.515,-222.656,-16.602,44.922,-161.133,-30.762
1687769926.519,-257.812,-19.043,58.105,-193.359,147.949
1687769926.523,-309.570,-23.438,67.383,-230.957,90.820
1687769926.527,-429.688,-20.996,77.637,-274.902,-147.461
1687769926.531,-534.180,-10.742,93.262,-303.711,-182.617
1687769926.533,-581.055,-6.836,108.398,-314.941,-113.281
1687769926.537,-580.566,-4.883,85.938,-344.727,-78.613
1687769926.541,-526.367,1.953,92.285,-342.773,-155.762
1687769926.545,-465.820,-8.301,89.355,-336.426,-144.043
1687769926.549,-423.828,-0.977,67.871,-334.961,-83.008
1687769926.553,-387.207,7.812,78.613,-306.152,-30.273
1687769926.557,-358.887,13.184,77.637,-295.898,22.461
1687769926.560,-352.051,22.949,72.754,-304.199,162.109
1687769926.564,-329.102,20.996,63.477,-278.809,349.609
1687769926.568,-300.293,14.160,41.016,-278.809,29.785
1687769926.572,-273.438,-8.789,50.781,-286.133,-88.379
1687769926.576,-243.652,-18.066,51.758,-265.137,82.031
1687769926.578,-235.352,20.020,13.672,-261.230,-10.742
1687769926.582,-231.445,33.203,15.137,-271.973,-168.945
1687769926.586,-208.984,5.371,40.039,-247.559,-160.156
1687769926.590,-167.480,-12.695,44.922,-194.824,-55.664
1687769926.594,-128.906,-29.785,41.016,-169.434,-62.500
1687769926.598,-119.141,-8.789,19.531,-173.828,-2.930
1687769926.602,-117.676,10.742,-0.977,-167.969,26.367
1687769926.605,-85.938,2.441,-9.766,-137.207,145.020
1687769926.609,-56.641,-9.766,-20.508,-111.816,176.270
1687769926.613,-37.109,-22.461,-18.066,-90.332,-74.219
1687769926.617,-19.043,-48.828,-29.785,-61.035,-56.152
1687769926.621,-18.555,-79.102,-55.664,-53.711,-11.230
1687769926.623,-10.742,-54.688,-68.359,-60.059,-127.441
1687769926.627,24.414,-47.363,-78.613,-24.414,-139.160
1687769926.631,42.480,-58.105,-73.242,7.324,-84.473
1687769926.635,44.434,-59.570,-61.523,9.766,-82.031
1687769926.639,59.570,-82.520,-55.664,14.160,-157.715
1687769926.643,69.824,-86.426,-66.406,12.695,-180.176
1687769926.647,84.473,-62.012,-82.520,44.922,66.895
1687769926.650,103.516,-69.336,-82.520,78.125,322.754
1687769926.654,110.840,-68.848,-93.262,77.148,-4.883
1687769926.658,110.840,-70.312,-80.566,72.266,-103.516
1687769926.662,113.281,-70.312,-64.453,69.336,89.844
1687769926.666,126.465,-69.824,-71.777,77.637,95.215
1687769926.668,119.629,-85.449,-87.402,96.191,-38.086
1687769926.672,127.930,-85.449,-74.707,98.145,-98.633
1687769926.676,135.742,-95.703,-78.125,90.332,43.945
1687769926.680,113.281,-80.566,-91.309,89.355,-2.441
1687769926.684,104.980,-59.082,-85.938,97.168,-134.766
1687769926.688,96.191,-79.102,-86.426,108.398,106.445
1687769926.692,103.516,-89.844,-82.031,105.469,409.180
1687769926.695,121.094,-76.172,-84.473,95.703,133.301
1687769926.699,116.699,-82.520,-86.914,85.449,-244.629
1687769926.703,102.051,-92.285,-80.078,74.707,-179.199
1687769926.707,102.051,-63.965,-88.867,86.914,-51.758
1687769926.711,109.863,-55.176,-79.102,103.027,-102.051
1687769926.714,114.258,-65.918,-71.777,100.586,-46.387
1687769926.718,114.258,-64.941,-84.473,77.148,45.898
1687769926.722,117.676,-56.152,-78.125,75.195,-11.719
1687769926.726,105.469,-62.500,-97.168,75.684,-54.199
1687769926.730,86.914,-56.641,-86.914,77.637,-27.344
1687769926.734,83.984,-50.293,-68.359,82.031,55.176
1687769926.738,78.613,-67.383,-80.566,55.664,109.863
1687769926.741,75.195,-54.688,-74.219,40.527,-59.082
1687769926.745,77.148,-54.688,-74.219,55.664,-180.176
1687769926.749,61.035,-74.219,-74.219,76.660,-1.465
1687769926.753,27.344,-65.430,-75.684,72.266,163.574
1687769926.757,3.906,-53.223,-77.637,34.668,-69.824
1687769926.773,-9.766,-35.156,-56.152,25.391,-188.965
1687769926.777,5.859,-34.180,-49.316,51.758,18.066
1687769926.781,34.180,-67.871,-70.801,69.824,33.203
1687769926.785,39.062,-53.711,-72.754,58.594,-53.711
1687769926.789,27.344,-37.598,-61.523,32.715,-126.953
1687769926.793,33.203,-50.293,-63.965,37.109,95.215
1687769926.797,39.551,-47.363,-62.500,50.781,147.949
1687769926.800,31.738,-54.688,-66.895,40.527,-84.473
1687769926.804,33.691,-50.293,-55.664,26.367,-95.703
1687769926.808,34.180,-46.387,-47.363,18.555,54.199
1687769926.812,40.527,-47.852,-51.270,5.371,-61.035
1687769926.816,41.016,-58.594,-73.242,13.184,-180.664
1687769926.818,32.715,-70.801,-66.406,31.250,-59.082
1687769926.822,27.832,-63.965,-47.852,23.438,-3.418
1687769926.826,26.367,-56.641,-64.941,12.207,-65.430
1687769926.830,34.180,-41.504,-60.547,3.906,-136.230
1687769926.834,32.715,-51.270,-39.062,9.277,-145.996
