timestamps,TP9,AF7,AF8,TP10,Right AUX
1687769637.318,-11.719,2.441,-19.043,-29.297,-104.492
1687769637.322,-1.953,8.301,-14.648,-28.320,-131.836
1687769637.326,-0.977,-1.953,-21.973,-7.324,-45.410
1687769637.330,-2.930,3.418,-27.344,-14.648,-23.926
1687769637.334,-9.766,9.766,-20.508,-10.742,-20.508
1687769637.338,-20.508,0.488,-20.996,-15.625,27.344
1687769637.342,-27.832,-4.883,-31.738,-31.250,57.617
1687769637.345,-42.480,-16.602,-36.133,-33.691,59.570
1687769637.349,-40.527,-28.320,-33.691,-32.715,-14.160
1687769637.353,-31.738,-15.625,-33.203,-22.949,137.207
1687769637.357,-37.598,7.324,-28.809,-32.715,182.129
1687769637.361,-45.410,13.184,-27.344,-40.527,10.254
1687769637.376,-36.621,-5.371,-31.250,-29.785,-21.973
1687769637.380,-29.785,-11.230,-33.203,-23.926,87.402
1687769637.384,-44.922,-14.648,-44.434,-30.762,99.609
1687769637.388,-36.133,-18.066,-43.457,-54.688,21.484
1687769637.392,-25.391,-20.020,-32.715,-66.406,13.184
1687769637.396,-54.688,-24.414,-32.227,-44.434,325.195
1687769637.400,-45.898,-20.020,-25.391,-28.809,395.020
1687769637.403,-30.762,-6.348,-10.254,-43.457,6.836
1687769637.407,-28.809,-3.418,-1.953,-43.945,-24.414
1687769637.411,-18.555,-14.648,0.000,-30.273,62.988
1687769637.415,-16.113,-23.438,-6.348,-32.715,-56.152
1687769637.419,-1.465,-22.461,-0.488,-20.996,-135.742
1687769637.421,-2.441,-10.742,3.418,-9.277,-68.848
1687769637.425,-17.090,-14.160,-7.324,-31.738,34.180
1687769637.429,-15.137,-20.996,-9.277,-37.109,40.039
1687769637.433,-3.418,-19.531,-8.789,-19.531,-58.594
1687769637.437,2.930,-24.414,-16.113,-12.207,56.641
1687769637.441,-21.973,-28.320,-15.625,-10.742,220.703
1687769637.445,-24.414,-26.367,-24.414,-14.160,145.508
1687769637.448,-21.484,-30.762,-31.738,-36.133,-64.941
1687769637.452,-17.090,-37.109,-27.832,-32.227,5.859
1687769637.456,-12.695,-39.062,-35.156,-13.184,129.395
1687769637.460,-12.695,-44.434,-29.785,-22.461,-27.344
1687769637.464,-10.254,-53.711,-14.648,-35.645,-53.711
1687769637.466,-22.461,-37.598,-12.207,-37.598,-37.109
1687769637.470,-17.090,-17.090,-10.254,-23.926,53.711
1687769637.474,-9.766,-16.602,-11.230,-11.230,108.398
1687769637.478,-15.137,-18.066,-19.043,-15.137,121.094
1687769637.482,-13.672,-19.531,-15.137,-26.855,250.977
1687769637.486,-17.578,-13.672,-8.301,-32.715,265.625
1687769637.490,-5.371,-3.906,-3.906,-38.574,32.715
1687769637.493,-3.906,3.906,-6.348,-21.484,-53.711
1687769637.497,-8.301,4.883,-13.672,0.000,167.480
1687769637.501,-4.395,-12.695,-14.160,-7.324,133.301
1687769637.505,-8.789,-22.949,-13.184,-30.762,-114.258
1687769637.509,-5.859,-10.254,-22.461,-37.109,-45.898
1687769637.511,7.812,-14.160,-31.250,-11.230,48.828
1687769637.515,-8.789,-22.461,-30.273,-18.555,42.969
1687769637.519,-15.625,-20.020,-44.434,-34.668,73.242
1687769637.523,-0.977,-33.203,-45.410,-33.691,60.059
1687769637.527,-5.371,-40.527,-27.832,-31.250,-48.340
1687769637.531,-11.719,-27.344,-28.320,-7.812,-8.789
1687769637.535,5.371,-21.973,-27.344,0.977,77.637
1687769637.538,-8.301,-21.973,-25.391,-6.348,258.789
1687769637.542,-25.391,-25.391,-27.832,-5.859,404.785
1687769637.546,7.324,-26.367,-19.043,-13.184,78.613
1687769637.550,4.395,-19.531,-14.160,-18.555,-68.359
1687769637.554,-9.277,-25.879,-21.484,-23.438,50.781
1687769637.556,-10.742,-28.320,-23.926,-26.367,4.395
1687769637.560,10.742,-20.508,-29.297,-19.043,-16.113
1687769637.564,1.465,-28.809,-42.969,-23.926,41.016
1687769637.568,-23.926,-28.320,-41.504,-29.785,145.020
1687769637.572,-14.648,-25.879,-26.367,-16.602,48.828
1687769637.576,-15.137,-21.484,-15.625,-4.883,-51.270
1687769637.580,-22.949,-4.883,-12.695,-15.625,75.195
1687769637.583,-18.555,-5.859,-14.160,-13.184,222.656
1687769637.587,-10.742,-14.160,-22.949,-7.324,110.840
1687769637.591,1.953,-11.719,-19.531,-2.930,-70.312
1687769637.595,14.160,-10.254,-17.090,1.465,59.570
1687769637.599,-9.277,-17.090,-24.414,-6.348,110.352
1687769637.601,-0.977,-0.977,-23.438,1.465,-48.828
1687769637.605,-1.953,-11.230,-22.949,4.395,-78.125
1687769637.609,-8.301,-24.902,-39.062,-0.977,0.000
1687769637.613,-4.883,-7.812,-34.668,-6.348,14.648
1687769637.617,-17.578,-11.230,-14.160,-23.438,55.664
1687769637.621,-15.625,-20.020,-15.625,-21.484,73.730
1687769637.625,8.301,-17.578,-24.414,3.906,276.367
1687769637.628,0.000,-20.020,-31.738,4.395,419.434
1687769637.632,-3.418,-21.973,-31.250,-8.789,99.609
1687769637.636,-8.301,-21.973,-32.715,-19.043,-43.945
1687769637.640,-9.277,-31.250,-48.340,-28.320,8.301
1687769637.644,-4.883,-39.551,-56.641,-36.621,73.242
1687769637.646,-32.715,-54.688,-52.246,-27.344,10.254
1687769637.650,-29.297,-49.805,-56.152,-17.090,-49.805
1687769637.654,-23.438,-41.504,-66.895,-33.203,156.250
1687769637.658,-31.250,-47.363,-69.824,-42.969,156.250
1687769637.662,-14.648,-50.293,-67.383,-49.805,0.000
1687769637.666,-17.578,-52.734,-62.988,-46.875,65.430
1687769637.670,-37.109,-46.875,-51.758,-22.461,312.500
1687769637.673,-40.039,-43.945,-40.527,-28.320,281.738
1687769637.677,-34.668,-55.176,-46.875,-38.574,-60.547
1687769637.681,-11.230,-55.176,-52.734,-32.227,-44.434
1687769637.685,-20.508,-51.758,-50.293,-35.645,-14.648
1687769637.689,-31.738,-47.363,-42.969,-25.879,-71.289
1687769637.695,-19.043,-39.062,-37.598,-24.414,-63.965
1687769637.699,-24.414,-35.156,-42.969,-35.645,72.754
1687769637.703,-22.949,-33.203,-40.527,-41.504,136.230
1687769637.707,-22.949,-46.387,-33.203,-20.996,15.137
1687769637.711,-5.859,-51.270,-28.809,-14.160,-50.781
1687769637.715,-5.859,-50.293,-27.344,-34.668,36.621
1687769637.719,-41.992,-48.828,-31.250,-58.105,67.383
1687769637.722,-57.129,-46.875,-45.410,-71.777,-32.227
1687769637.726,-36.133,-54.688,-49.805,-67.871,-64.453
1687769637.730,-35.645,-59.082,-30.273,-48.340,133.301
1687769637.734,-27.832,-48.340,-14.648,-32.715,159.668
1687769637.738,-10.254,-41.992,-10.742,-48.828,-81.055
1687769637.752,-29.785,-39.062,-16.113,-44.922,-51.758
1687769637.756,-23.438,-33.691,-17.090,-35.645,7.324
1687769637.760,-3.418,-37.598,-10.254,-24.902,1.953
1687769637.764,2.441,-42.969,-18.066,-10.254,39.551
1687769637.768,-18.555,-31.738,-28.320,-24.902,13.672
1687769637.772,-26.855,-37.598,-26.855,-41.504,284.180
1687769637.776,0.977,-41.016,-24.902,-26.367,445.801
1687769637.779,8.789,-36.133,-26.367,-30.762,44.434
1687769637.783,-12.207,-42.969,-33.691,-24.414,-27.344
1687769637.787,-30.273,-41.504,-36.621,-27.344,100.098
1687769637.791,-27.832,-38.574,-24.902,-26.855,-58.594
1687769637.795,-18.066,-39.551,-25.879,-12.695,-111.816
1687769637.797,-20.996,-41.504,-38.574,-29.297,65.918
1687769637.801,-13.184,-32.227,-30.273,-28.320,88.379
1687769637.805,0.000,-22.461,-22.461,-27.832,27.832
1687769637.809,1.953,-25.879,-19.043,-32.227,32.715
1687769637.813,2.930,-28.809,-7.812,-28.809,49.805
1687769637.817,22.461,-24.414,2.930,-21.973,125.488
1687769637.821,21.484,-36.133,9.766,-19.531,248.535
1687769637.824,9.277,-39.551,7.812,-20.020,163.574
1687769637.828,15.625,-30.273,0.488,-16.602,207.520
1687769637.832,12.207,-32.227,10.742,14.160,360.352
1687769637.836,-1.465,-17.578,25.879,13.184,118.164
1687769637.840,-4.395,-6.836,28.320,-0.488,-16.602
1687769637.842,1.953,-11.719,20.508,3.418,30.273
1687769637.846,1.465,-18.555,10.254,-15.625,-9.766
1687769637.850,15.625,-18.555,14.648,-17.578,-32.715
1687769637.854,19.043,-22.461,22.949,-8.301,-27.344
1687769637.858,8.789,-27.832,14.648,13.672,106.934
1687769637.862,6.836,-20.508,4.883,8.789,193.848
1687769637.866,0.000,-20.508,9.766,-31.738,35.645
1687769637.869,4.395,-19.531,6.348,-25.391,-22.461
1687769637.873,9.277,-19.531,12.207,-12.695,267.578
1687769637.877,12.207,-20.508,18.555,-20.020,251.953
1687769637.881,15.137,-22.949,18.555,-13.672,-84.961
1687769637.885,1.953,-31.738,15.625,-23.926,-72.266
1687769637.887,4.395,-31.738,7.812,-26.855,-32.715
1687769637.891,24.902,-32.227,10.742,-9.766,-47.852
1687769637.895,11.230,-33.691,9.766,-13.184,-84.473
1687769637.899,-7.324,-29.297,5.859,-18.555,-16.602
1687769637.903,-0.977,-39.062,7.324,-29.297,35.645
1687769637.907,-11.230,-46.387,8.301,-31.738,12.207
1687769637.911,-7.812,-38.086,4.395,-33.203,35.645
1687769637.914,4.395,-35.156,-16.113,-33.203,197.266
1687769637.918,2.441,-45.898,-33.691,-26.855,214.844
1687769637.922,-7.812,-54.199,-23.926,-28.320,7.812
1687769637.926,-4.883,-60.059,-7.324,-31.250,-30.273
1687769637.930,15.137,-53.711,-8.789,-20.020,222.656
1687769637.932,23.438,-38.574,-12.207,-12.207,257.324
1687769637.936,14.648,-39.551,-19.043,-37.109,8.789
1687769637.940,13.672,-39.551,-22.949,-51.270,6.836
1687769637.944,-16.602,-35.645,-23.926,-51.270,111.816
1687769637.948,-18.066,-33.691,-23.438,-61.035,33.691
1687769637.952,14.160,-34.668,-23.926,-54.199,32.715
1687769637.956,-0.488,-31.738,-20.508,-35.645,103.027
1687769637.959,-2.441,-23.438,-12.695,-28.809,248.535
1687769637.963,-0.488,-27.344,-24.414,-50.781,184.082
1687769637.967,6.836,-30.273,-40.039,-66.895,-81.543
1687769637.971,12.207,-30.762,-44.434,-47.363,-52.246
1687769637.975,21.973,-39.551,-42.480,-44.922,-4.395
1687769637.979,23.926,-32.715,-32.227,-43.457,13.672
1687769637.983,8.301,-37.109,-23.926,-55.176,-60.547
1687769637.987,16.113,-51.758,-13.672,-56.152,-9.766
1687769637.991,15.137,-36.133,-16.113,-45.410,92.285
1687769637.995,1.465,-30.273,-29.297,-41.016,-0.977
1687769637.999,17.578,-32.227,-20.996,-42.969,-36.133
1687769638.003,18.066,-27.832,-13.184,-50.781,228.516
1687769638.006,-3.418,-25.391,-16.113,-47.363,411.133
1687769638.010,4.883,-36.621,-23.926,-50.293,75.684
1687769638.014,8.301,-51.270,-31.738,-39.062,-86.426
1687769638.018,3.418,-55.176,-33.691,-49.805,33.203
1687769638.022,19.043,-53.711,-31.250,-50.781,19.043
1687769638.023,12.695,-59.570,-27.832,-36.133,-111.816
1687769638.027,-5.371,-57.129,-30.273,-45.410,-99.121
1687769638.031,3.418,-50.293,-40.039,-37.598,25.879
1687769638.035,16.602,-58.594,-40.039,-26.367,63.965
1687769638.039,17.090,-55.176,-41.016,-48.828,-30.273
1687769638.043,-3.418,-41.016,-42.969,-58.594,-79.590
1687769638.047,4.883,-35.156,-28.320,-23.438,269.531
1687769638.050,9.277,-28.809,-27.344,-13.672,447.266
1687769638.054,-13.184,-34.180,-37.109,-45.898,40.039
1687769638.058,-18.066,-44.434,-40.527,-48.340,-85.449
1687769638.062,-10.742,-28.809,-40.039,-35.156,-46.875
1687769638.066,3.418,-17.578,-35.156,-30.273,-103.516
1687769638.068,7.812,-28.809,-39.551,-29.785,-93.750
1687769638.072,-22.949,-27.344,-44.922,-38.574,-68.848
1687769638.076,-33.691,-31.250,-42.480,-56.152,-21.973
1687769638.080,-11.719,-35.645,-42.480,-66.406,-56.641
1687769638.084,-4.883,-34.668,-37.598,-63.477,-48.340
1687769638.088,-4.883,-36.133,-35.156,-31.250,172.852
1687769638.092,-15.137,-38.086,-46.875,-27.344,280.762
1687769638.095,-35.645,-54.688,-47.852,-60.547,108.398
1687769638.099,-26.855,-59.570,-42.480,-63.477,-96.191
1687769638.103,-24.902,-45.898,-43.457,-49.805,107.910
1687769638.107,-0.977,-43.945,-36.621,-41.016,248.047
1687769638.111,-4.395,-38.086,-32.227,-44.922,-15.137
1687769638.126,-38.086,-41.504,-40.039,-53.223,-73.242
1687769638.130,-14.648,-44.922,-46.875,-62.988,-35.645
1687769638.134,-8.789,-36.621,-48.828,-63.477,42.480
1687769638.138,-19.531,-36.133,-46.875,-63.965,38.574
1687769638.142,-21.484,-44.434,-47.852,-70.801,-64.941
1687769638.146,-21.484,-48.340,-46.387,-66.895,231.445
1687769638.150,-4.883,-46.875,-39.062,-63.965,333.008
1687769638.153,15.137,-28.809,-39.551,-50.293,4.883
1687769638.157,5.859,-28.809,-46.387,-45.898,-23.438
1687769638.161,11.230,-35.645,-44.922,-53.711,167.480
1687769638.165,6.836,-19.043,-48.828,-68.848,128.418
1687769638.169,-4.395,-12.207,-55.176,-83.984,-47.852
1687769638.171,4.883,-21.973,-56.152,-72.754,-46.875
1687769638.175,-5.371,-33.203,-53.223,-65.918,-2.441
1687769638.179,-14.160,-37.109,-48.828,-64.941,7.324
1687769638.183,-20.020,-34.668,-52.246,-78.125,-29.785
1687769638.187,-24.414,-29.785,-52.246,-99.121,3.418
1687769638.191,-10.254,-29.785,-54.199,-93.262,154.785
1687769638.195,-2.441,-32.715,-66.406,-98.633,116.699
1687769638.198,-14.160,-30.762,-71.777,-96.191,-17.090
1687769638.202,-19.531,-21.973,-64.453,-66.406,170.898
1687769638.206,-9.277,-21.973,-60.547,-66.895,333.008
1687769638.210,12.695,-22.949,-67.871,-71.289,43.457
1687769638.214,12.207,-27.344,-72.754,-57.129,-107.910
1687769638.217,8.789,-35.156,-67.383,-51.758,41.016
1687769638.221,1.465,-28.320,-59.082,-53.223,74.219
1687769638.225,-15.625,-18.555,-55.664,-64.453,48.828
1687769638.229,-9.766,-11.230,-55.176,-83.496,108.887
1687769638.233,-4.883,-10.742,-58.594,-70.801,155.762
1687769638.237,-16.113,-12.207,-56.641,-54.688,253.418
1687769638.241,1.465,-10.742,-57.129,-56.152,198.242
1687769638.244,20.020,-13.184,-50.781,-49.316,46.875
1687769638.248,4.395,-10.254,-36.133,-33.203,166.504
1687769638.252,15.137,2.441,-32.715,-19.531,177.246
1687769638.256,20.508,-7.324,-41.504,-20.996,9.277
1687769638.260,3.418,-21.484,-41.992,-33.203,100.098
1687769638.261,0.488,-5.859,-34.180,-39.062,92.285
1687769638.265,13.184,-0.488,-38.574,-42.480,-51.758
1687769638.269,9.277,-6.836,-37.109,-43.457,-119.141
1687769638.273,10.742,-0.977,-26.855,-35.645,5.371
1687769638.277,20.996,11.230,-41.992,-32.715,111.328
1687769638.281,12.695,-0.977,-49.316,-41.992,68.359
1687769638.285,4.395,-22.949,-37.598,-52.246,62.012
1687769638.288,4.395,-22.949,-47.363,-51.270,182.617
1687769638.292,3.906,-25.879,-52.734,-45.410,214.844
1687769638.296,5.859,-24.414,-46.875,-45.898,-33.691
1687769638.300,10.742,-28.809,-52.734,-49.805,-65.918
1687769638.304,2.441,-44.922,-36.133,-46.387,137.207
1687769638.307,-1.465,-40.039,-16.602,-54.199,169.434
1687769638.311,-5.371,-26.855,-32.227,-55.664,25.879
1687769638.315,-15.625,-22.461,-44.922,-57.617,129.883
1687769638.319,-0.977,-22.949,-49.805,-53.711,285.156
1687769638.323,6.348,-26.855,-47.363,-52.734,163.086
1687769638.327,-1.465,-31.738,-42.969,-47.852,3.906
1687769638.331,2.441,-38.574,-46.875,-48.340,-6.836
1687769638.334,-3.418,-38.574,-50.781,-35.156,174.316
1687769638.338,-9.277,-34.180,-44.434,-30.273,177.734
1687769638.342,2.441,-26.855,-31.738,-49.805,-109.863
1687769638.346,11.719,-16.113,-33.691,-29.785,-65.918
1687769638.350,-7.812,-16.602,-35.645,-15.625,39.551
1687769638.352,-15.625,-23.926,-24.902,-32.227,-53.223
1687769638.356,-0.977,-26.855,-21.484,-35.645,-65.430
1687769638.360,-0.977,-24.414,-17.090,-33.203,19.043
1687769638.364,12.207,-24.414,-18.066,-36.621,47.363
1687769638.368,39.062,-26.855,-15.137,-25.879,20.508
1687769638.372,20.508,-25.879,-19.043,-26.367,62.012
1687769638.376,-5.371,-16.602,-30.762,-15.625,218.262
1687769638.379,0.000,-17.090,-30.273,-15.137,329.590
1687769638.383,8.301,-18.555,-28.320,-30.762,62.012
1687769638.387,16.113,-9.277,-31.738,-41.016,-51.270
1687769638.391,20.508,-12.207,-32.715,-41.504,1.465
1687769638.395,-0.977,-19.531,-35.645,-36.133,-34.180
1687769638.396,-7.812,-9.277,-34.180,-47.852,-28.809
1687769638.400,8.301,-3.418,-29.297,-49.805,-3.906
1687769638.404,16.602,-8.301,-25.391,-20.508,98.633
1687769638.408,4.883,-7.324,-23.926,-22.949,58.105
1687769638.412,-22.949,-5.371,-35.156,-39.551,-26.855
1687769638.416,-25.879,0.488,-35.156,-53.223,-19.531
1687769638.420,-22.461,-9.277,-17.578,-54.199,204.102
1687769638.423,-27.832,-28.809,-7.812,-53.711,287.598
1687769638.427,-30.762,-29.297,-12.207,-55.176,-24.414
1687769638.431,7.324,-11.230,-7.812,-55.176,-9.277
1687769638.435,17.578,-2.441,3.418,-49.316,117.188
1687769638.439,-2.930,-10.742,-2.441,-35.156,20.020
1687769638.443,8.301,-16.602,-8.789,-40.039,-22.461
1687769638.447,20.020,-19.531,-4.395,-26.855,12.695
1687769638.451,23.926,-24.414,-4.883,-32.227,41.992
1687769638.455,8.301,-22.461,-16.602,-56.641,-14.160
1687769638.459,-8.789,-22.949,-25.391,-51.270,-87.891
1687769638.463,-4.883,-33.203,-22.461,-35.645,99.609
1687769638.467,-2.441,-38.574,-19.043,-38.574,199.707
1687769638.470,15.625,-41.016,-20.508,-53.223,9.766
1687769638.474,-5.371,-51.758,-29.785,-56.641,-139.160
1687769638.478,-23.926,-60.059,-35.645,-29.785,11.719
1687769638.482,27.832,-49.316,-32.227,-0.977,186.523
1687769638.486,-0.977,-41.992,-34.668,-8.789,15.137
1687769638.507,-19.043,-41.016,-29.297,-18.555,4.395
1687769638.511,-2.930,-36.133,-29.297,-27.344,3.906
1687769638.515,-5.859,-36.133,-41.992,-20.508,37.109
1687769638.519,5.371,-46.875,-44.434,-6.836,61.035
1687769638.523,-1.953,-46.875,-42.480,-12.207,-29.297
1687769638.527,11.719,-40.527,-42.480,14.648,285.645
1687769638.531,13.184,-36.133,-57.617,20.020,375.000
1687769638.534,-6.348,-27.832,-68.359,-3.418,-14.648
1687769638.538,17.090,-32.227,-61.523,7.812,15.137
1687769638.542,20.996,-39.062,-51.758,13.184,149.414
1687769638.546,3.906,-51.270,-59.570,-0.488,86.914
1687769638.550,-0.488,-45.898,-76.660,-5.859,37.109
1687769638.551,2.930,-29.785,-60.547,-0.977,83.008
1687769638.555,18.555,-27.344,-38.574,16.602,54.688
1687769638.559,21.973,-31.738,-39.062,13.672,-64.453
1687769638.563,1.953,-36.133,-30.273,14.648,-8.301
1687769638.567,15.625,-38.086,-20.996,36.133,27.344
1687769638.571,9.277,-38.574,-25.879,14.648,38.574
1687769638.575,13.672,-33.203,-24.902,-3.418,48.828
1687769638.578,17.578,-37.598,-18.555,12.207,-33.691
1687769638.582,19.043,-30.273,-7.812,31.738,125.977
1687769638.586,19.531,-9.277,-15.137,28.809,348.633
1687769638.590,-13.184,-17.578,-19.043,9.277,80.078
1687769638.594,-17.090,-24.414,-11.719,7.324,-40.527
1687769638.593,-4.395,-23.926,-18.066,14.160,30.273
1687769638.597,-4.395,-29.297,-23.438,19.043,61.035
1687769638.601,-6.836,-33.203,-10.742,20.020,41.504
1687769638.605,4.883,-27.832,4.395,3.418,21.973
1687769638.609,2.441,-21.484,0.488,-1.465,229.004
1687769638.613,2.441,-22.461,-12.207,8.789,238.770
1687769638.617,3.906,-20.996,-20.996,-13.672,5.859
1687769638.620,-17.090,-18.555,-18.066,-11.230,7.324
1687769638.624,-1.465,-11.230,-15.137,0.488,188.965
1687769638.628,9.766,-17.578,-14.648,-21.973,136.230
1687769638.632,-8.789,-11.230,-3.906,-18.066,-57.129
1687769638.636,-9.766,-5.859,0.977,0.000,22.461
1687769638.644,-7.812,-16.113,-4.883,-10.254,39.551
1687769638.648,-13.672,-16.113,-15.625,-18.555,-15.137
1687769638.652,-16.602,-21.484,-22.461,-38.086,-89.355
1687769638.656,-18.555,-26.855,-25.879,-49.805,-38.574
1687769638.660,0.488,-17.578,-26.855,-21.484,90.820
1687769638.664,8.301,-9.277,-31.250,-17.090,58.105
1687769638.668,-15.625,-11.719,-45.898,-31.250,22.461
1687769638.671,-17.090,-8.789,-44.434,-26.855,155.762
1687769638.675,-13.672,-9.277,-35.645,-3.906,333.984
1687769638.679,-20.020,-20.020,-33.203,-0.977,104.980
1687769638.683,-12.695,-20.996,-33.691,4.395,-17.578
1687769638.687,-13.672,-14.648,-26.855,3.906,64.453
1687769638.681,-3.906,-12.695,-26.367,-17.578,-24.414
1687769638.685,21.484,-10.742,-27.832,7.812,-71.777
1687769638.689,-5.371,-27.344,-29.297,26.855,20.020
1687769638.693,-25.879,-33.203,-32.227,15.137,176.270
1687769638.697,-11.719,-22.949,-36.621,16.602,139.648
1687769638.701,-8.789,-14.160,-45.410,0.977,35.156
1687769638.705,18.066,-10.742,-46.875,-1.953,-34.180
1687769638.708,26.855,-20.508,-41.504,26.367,229.980
1687769638.712,-0.488,-27.832,-31.250,22.461,298.340
1687769638.716,-9.277,-20.996,-29.297,4.883,-60.547
1687769638.720,-11.230,-26.855,-36.621,-0.977,-70.312
1687769638.724,1.953,-36.621,-31.738,0.000,-35.645
1687769638.728,-11.719,-36.621,-25.879,10.742,-78.125
1687769638.732,-34.180,-29.785,-26.367,15.137,-69.824
1687769638.736,-25.391,-30.762,-26.367,3.418,9.766
1687769638.740,-4.395,-47.852,-32.715,-9.277,-10.254
1687769638.744,-3.906,-47.363,-22.949,0.488,-77.637
1687769638.748,-15.625,-42.480,-18.555,-1.953,-74.707
1687769638.752,0.488,-38.574,-21.973,6.836,193.359
1687769638.755,-20.020,-39.062,-17.090,8.789,294.434
1687769638.759,-29.785,-56.152,-20.508,-0.488,39.062
1687769638.763,5.371,-50.781,-20.996,-2.441,11.719
1687769638.767,4.883,-31.738,-21.973,2.930,64.941
1687769638.771,-14.648,-44.434,-25.391,9.277,61.523
1687769638.771,-6.836,-55.176,-11.719,4.395,-31.250
1687769638.775,-10.254,-41.992,-0.488,-3.906,-67.383
1687769638.779,-7.324,-31.250,-5.371,-1.465,8.301
1687769638.783,13.184,-29.297,-14.648,13.184,17.090
1687769638.787,13.184,-36.133,-14.648,14.160,-10.254
1687769638.791,-0.977,-37.598,-15.625,8.301,20.020
1687769638.795,7.812,-38.086,-24.902,10.254,318.848
1687769638.798,10.742,-37.109,-34.668,2.930,360.352
1687769638.802,-11.719,-31.738,-32.227,-23.926,25.391
1687769638.806,-10.742,-31.738,-23.926,-11.230,11.719
1687769638.810,-4.883,-31.738,-20.020,-5.371,61.035
1687769638.814,-2.930,-26.367,-24.902,-22.949,3.906
1687769638.818,9.766,-19.531,-20.020,-16.602,-87.402
1687769638.822,5.859,-25.879,4.883,-19.531,33.203
1687769638.826,-17.578,-29.785,-8.301,-25.879,131.348
1687769638.830,0.000,-14.648,-4.883,-15.625,25.879
1687769638.834,-19.531,-14.160,-3.418,-33.203,12.207
1687769638.838,-32.715,34.668,31.738,-40.527,213.379
1687769638.842,-49.805,50.293,57.129,-83.496,231.445
1687769638.845,-95.215,-12.207,20.996,-134.766,26.855
1687769638.849,-128.906,-32.227,31.250,-152.832,1.465
1687769638.853,-164.551,-31.738,46.387,-190.430,94.238
1687769638.857,-179.688,-11.719,62.988,-224.121,79.102
1687769638.861,-208.984,-0.977,71.777,-245.117,-51.270
1687769638.891,-226.562,-5.859,82.520,-250.488,-0.488
1687769638.895,-224.121,-3.418,77.148,-255.859,50.781
1687769638.899,-230.469,-0.488,75.684,-270.996,87.891
1687769638.903,-242.676,1.953,76.172,-281.738,24.414
1687769638.907,-242.188,-1.953,64.941,-280.762,-78.125
1687769638.911,-245.605,-12.207,62.500,-273.926,233.398
1687769638.915,-259.766,-15.137,40.527,-255.371,331.055
1687769638.918,-236.328,-0.488,21.973,-255.859,-37.109
1687769638.922,-225.586,7.812,29.297,-247.559,-37.598
1687769638.926,-227.539,8.789,16.113,-220.703,67.871
1687769638.930,-184.570,5.371,7.812,-200.195,-30.273
1687769638.934,-152.832,-0.977,8.301,-166.992,-93.262
1687769638.921,-141.602,-10.742,-1.953,-139.648,-40.527
1687769638.925,-142.578,-12.207,-17.090,-150.879,-25.879
1687769638.929,-145.020,-10.742,-31.738,-137.695,-62.012
1687769638.933,-129.395,-19.531,-32.715,-87.891,-48.828
1687769638.937,-101.074,-9.766,-29.785,-78.125,127.930
1687769638.941,-94.238,-16.602,-32.227,-87.402,223.145
1687769638.945,-69.824,-22.461,-38.086,-66.406,55.176
1687769638.948,-25.879,-20.508,-43.457,-42.969,-30.762
1687769638.952,-16.113,-31.738,-48.828,-22.461,174.316
1687769638.956,-19.043,-31.250,-64.453,-5.859,181.641
1687769638.960,-0.977,-21.973,-73.730,5.371,-14.648
1687769638.964,27.344,-34.180,-66.895,6.348,-36.621
1687769638.966,29.785,-56.641,-71.289,16.113,131.836
1687769638.970,40.039,-56.641,-81.055,28.809,209.473
1687769638.974,46.387,-43.945,-79.590,40.039,16.113
1687769638.978,53.223,-38.086,-71.777,49.805,5.859
1687769638.982,62.012,-43.945,-70.801,43.945,129.395
1687769638.986,64.941,-50.781,-79.590,41.504,176.270
1687769638.990,72.754,-54.688,-77.148,52.246,88.867
1687769638.993,91.309,-74.707,-82.031,52.734,86.426
1687769638.997,79.590,-74.707,-94.727,59.570,298.828
1687769639.001,57.129,-63.965,-95.215,69.336,193.359
1687769639.005,62.500,-68.359,-101.074,54.199,-103.027
1687769639.009,78.125,-66.406,-110.352,62.988,-74.219
1687769639.011,88.867,-68.359,-107.910,74.707,-43.457
1687769639.015,95.703,-70.312,-95.703,80.078,-22.461
1687769639.019,94.238,-63.477,-84.473,78.613,-46.875
1687769639.023,113.770,-62.012,-83.496,64.453,-33.691
1687769639.027,124.023,-60.059,-91.309,64.941,18.555
1687769639.031,97.168,-65.918,-98.145,72.266,102.051
1687769639.035,97.168,-85.938,-99.609,76.172,48.340
1687769639.038,95.703,-77.148,-109.375,59.082,141.113
1687769639.042,90.820,-59.082,-104.980,52.246,377.930
1687769639.046,100.586,-55.664,-92.773,46.875,155.273
1687769639.050,84.961,-58.105,-94.238,33.691,5.371
1687769639.054,62.988,-58.594,-89.355,49.805,159.668
1687769639.056,66.406,-53.223,-83.496,61.035,161.621
1687769639.060,53.223,-54.199,-87.891,42.969,-26.855
1687769639.064,52.734,-65.918,-82.520,40.039,-39.062
1687769639.068,68.848,-73.730,-77.148,48.828,106.445
1687769639.072,65.918,-69.336,-90.332,33.203,88.867
1687769639.076,72.754,-62.988,-84.473,24.414,45.410
1687769639.080,80.566,-61.035,-72.754,30.273,73.730
1687769639.083,81.543,-57.617,-76.172,36.133,208.984
1687769639.087,79.102,-62.500,-68.848,36.133,124.512
1687769639.091,69.336,-64.941,-69.824,30.273,-75.684
1687769639.095,72.266,-51.270,-80.566,22.461,62.988
1687769639.099,63.965,-55.176,-91.797,10.254,117.188
1687769639.102,45.898,-62.988,-96.191,-8.789,-11.230
1687769639.106,50.781,-63.965,-84.961,2.441,-76.172
1687769639.110,57.617,-58.594,-87.402,40.039,-20.020
1687769639.114,47.852,-49.805,-97.168,21.973,11.230
1687769639.118,43.945,-46.875,-97.656,-6.348,-121.094
1687769639.122,60.059,-42.480,-93.750,2.441,-63.477
1687769639.126,67.383,-36.133,-92.773,10.742,201.660
1687769639.129,64.453,-35.645,-104.492,19.043,237.793
1687769639.133,47.363,-31.738,-100.098,14.160,-30.273
1687769639.137,42.969,-23.926,-86.914,-3.906,-119.141
1687769639.141,48.340,-26.855,-92.285,-5.859,-5.371
1687769639.145,45.410,-23.926,-101.562,-0.488,13.184
1687769639.147,48.340,-32.715,-104.980,-6.348,-2.441
1687769639.151,47.852,-37.598,-107.910,-23.926,20.996
1687769639.155,40.039,-27.832,-108.887,-21.973,164.551
1687769639.159,41.016,-29.297,-97.656,-21.973,140.137
1687769639.163,62.500,-20.508,-79.590,-43.457,-54.688
1687769639.167,65.918,-15.137,-71.777,-29.297,-55.176
1687769639.171,62.988,-20.508,-74.219,-6.836,348.633
1687769639.174,61.035,-20.508,-70.312,-34.180,398.438
1687769639.178,47.363,-16.602,-75.684,-57.129,-14.648
1687769639.182,55.176,-21.484,-74.707,-47.363,25.391
1687769639.186,57.617,-32.715,-63.965,-42.480,121.582
1687769639.190,48.828,-37.109,-61.523,-34.668,39.551
1687769639.193,41.016,-37.598,-61.523,-46.875,-23.926
1687769639.197,39.062,-37.598,-57.129,-64.453,-36.133
1687769639.201,66.406,-34.180,-40.527,-59.570,-30.273
1687769639.205,74.707,-22.949,-34.180,-48.828,-24.902
1687769639.209,56.152,-20.996,-35.645,-39.551,-54.199
1687769639.213,36.133,-26.367,-37.109,-42.969,95.215
1687769639.217,31.738,-27.832,-41.016,-64.453,268.066
1687769639.220,50.293,-20.508,-38.086,-58.594,84.961
1687769639.224,60.547,-17.090,-25.391,-32.227,-34.180
1687769639.228,60.547,-19.043,-19.043,-44.922,77.637
1687769639.232,47.852,-20.020,-24.414,-58.105,60.547
1687769639.236,35.156,-20.508,-23.926,-65.918,-13.672
1687769639.251,27.832,-22.949,-29.297,-64.941,-6.836
1687769639.255,39.551,-20.508,-50.293,-56.152,132.812
1687769639.259,40.527,-18.066,-52.734,-50.781,165.039
1687769639.263,35.156,-19.043,-29.785,-52.246,6.836
1687769639.267,39.551,-13.672,-19.531,-65.430,-93.262
1687769639.271,39.062,-13.672,-22.949,-62.012,209.473
1687769639.275,34.668,-11.230,-26.367,-57.129,313.477
1687769639.278,20.020,-11.230,-27.344,-50.293,112.305
1687769639.282,22.949,-11.230,-35.645,-46.387,125.000
1687769639.286,26.855,-13.184,-48.828,-62.012,156.250
1687769639.290,23.926,-23.438,-48.828,-54.688,48.828
1687769639.294,17.578,-28.320,-41.504,-39.062,-78.125
1687769639.296,25.391,-30.273,-42.969,-37.109,-43.945
1687769639.300,24.414,-31.250,-51.270,-41.016,11.230
1687769639.304,11.719,-24.902,-55.664,-55.176,-22.949
1687769639.308,32.227,-19.043,-53.711,-70.312,-96.680
1687769639.312,58.105,-20.508,-50.781,-51.758,-22.949
1687769639.316,46.387,-23.438,-49.316,-35.645,89.355
1687769639.320,48.340,-20.020,-44.922,-48.828,28.809
1687769639.323,52.246,-23.438,-24.414,-45.410,-88.867
1687769639.327,44.434,-28.809,-15.137,-34.668,86.426
1687769639.331,44.922,-37.598,-22.461,-19.531,129.395
1687769639.335,36.133,-37.109,-20.020,-12.207,-49.805
1687769639.339,37.598,-30.273,-7.324,-31.738,-39.062
1687769639.341,46.387,-32.715,1.953,-28.809,124.023
1687769639.345,47.852,-35.156,1.465,-25.391,215.820
1687769639.349,35.156,-36.133,-2.930,-47.363,82.031
1687769639.353,33.691,-44.922,-15.137,-40.527,38.574
1687769639.357,34.180,-59.570,-31.738,-31.738,114.746
1687769639.361,35.645,-49.805,-39.551,-34.180,156.738
1687769639.365,33.691,-41.504,-39.062,-41.016,-4.395
1687769639.368,39.062,-42.969,-34.180,-24.414,-26.855
1687769639.372,50.293,-29.785,-37.109,-16.602,79.590
1687769639.376,42.480,-19.531,-44.922,-23.438,38.086
1687769639.380,36.133,-22.949,-44.922,-22.949,1.953
1687769639.384,46.875,-23.926,-43.457,-27.832,10.742
1687769639.401,55.664,-22.461,-40.527,-14.648,212.891
1687769639.405,43.945,-28.809,-39.062,-8.301,144.531
1687769639.409,32.715,-27.344,-39.551,-7.324,-12.695
1687769639.413,58.105,-24.902,-42.480,-2.441,22.949
1687769639.417,58.105,-29.297,-48.340,-24.902,39.062
1687769639.421,19.531,-30.273,-40.527,-17.578,90.332
1687769639.425,31.738,-30.762,-25.879,3.418,42.480
1687769639.428,39.062,-28.809,-22.461,17.578,246.582
1687769639.432,39.551,-17.090,-22.461,18.066,325.195
1687769639.436,58.594,-19.043,-11.719,-6.836,1.465
1687769639.440,66.406,-26.367,-9.277,1.465,-67.383
1687769639.444,73.730,-28.320,-13.672,20.020,-6.836
1687769639.431,59.082,-33.203,-20.020,0.000,70.801
1687769639.435,49.805,-27.344,-17.090,-18.555,24.414
1687769639.439,35.645,-26.855,-16.113,-13.672,-25.879
1687769639.443,34.180,-25.879,-22.949,-1.465,271.973
1687769639.447,50.293,-24.902,-30.762,4.395,250.000
1687769639.451,43.457,-31.250,-32.227,11.230,49.316
1687769639.455,46.387,-31.738,-26.367,13.672,106.445
1687769639.458,42.969,-25.391,-30.273,-1.465,49.805
1687769639.462,51.758,-21.973,-41.992,-10.742,-101.074
1687769639.466,54.688,-19.531,-44.922,0.488,-145.508
1687769639.470,48.340,-20.020,-44.434,9.766,4.883
1687769639.474,48.828,-21.973,-50.293,-2.930,259.277
1687769639.478,52.246,-13.672,-62.988,-9.766,113.770
1687769639.482,48.340,-14.648,-64.453,-1.465,-121.094
1687769639.486,48.340,-12.695,-48.340,6.348,30.273
1687769639.490,34.668,-19.043,-49.805,0.000,132.812
1687769639.494,12.207,-30.273,-58.105,-23.438,20.996
1687769639.498,20.020,-26.855,-60.059,-20.508,17.578
1687769639.502,34.180,-30.273,-56.152,-9.277,207.520
1687769639.505,27.832,-36.133,-56.641,-0.488,364.746
1687769639.509,22.461,-32.715,-61.523,0.977,137.207
1687769639.513,24.414,-26.855,-52.246,0.000,-106.934
1687769639.517,17.578,-30.273,-42.969,1.465,-73.730
1687769639.521,10.742,-24.414,-43.945,-18.066,-1.953
1687769639.521,15.625,-19.531,-38.574,-26.367,-67.871
1687769639.525,29.297,-27.344,-38.574,-8.789,-79.102
1687769639.529,21.484,-41.016,-41.992,-0.488,109.375
1687769639.533,-5.371,-39.551,-51.270,-19.531,88.867
1687769639.537,1.465,-39.551,-53.223,-23.926,-94.238
1687769639.541,22.949,-39.551,-48.340,-16.602,-17.090
1687769639.545,14.648,-29.785,-40.039,-4.395,323.730
1687769639.548,10.254,-36.621,-39.551,11.230,370.605
1687769639.552,1.953,-41.992,-44.434,-3.418,-18.555
1687769639.556,-13.184,-39.062,-52.734,-17.090,-9.766
1687769639.560,-7.324,-38.574,-54.688,-7.812,132.812
1687769639.564,18.555,-42.969,-29.297,3.418,-9.277
1687769639.568,29.297,-38.086,-12.695,0.488,-85.449
1687769639.572,26.855,-31.250,-17.090,-2.930,-65.918
1687769639.576,38.086,-31.250,-15.137,-20.508,-47.363
1687769639.580,26.855,-33.203,-11.719,-29.297,-53.711
1687769639.584,26.855,-37.109,3.418,10.254,-89.355
1687769639.588,31.250,-46.387,16.113,19.531,199.219
1687769639.592,17.578,-53.711,8.301,8.789,307.129
1687769639.595,29.297,-45.410,6.348,4.883,61.523
1687769639.599,37.598,-40.527,3.906,3.418,-26.855
1687769639.603,28.320,-49.316,2.930,6.836,40.527
1687769639.607,32.715,-46.387,-1.953,15.137,95.703
1687769639.611,31.250,-41.992,-14.648,6.836,-11.230
1687769639.626,32.715,-50.293,-18.066,-2.930,12.695
1687769639.630,42.969,-46.875,-20.996,3.418,211.426
1687769639.634,34.180,-45.898,-23.926,8.301,253.418
1687769639.638,24.902,-45.410,-26.367,-1.953,128.906
1687769639.642,40.039,-36.621,-21.484,4.883,12.695
1687769639.646,36.621,-32.227,-16.113,-0.488,230.469
1687769639.650,24.414,-42.969,-20.996,-9.277,367.676
1687769639.653,31.250,-50.781,-24.902,-8.301,13.672
1687769639.657,49.805,-42.480,-25.879,-9.277,-51.270
1687769639.661,20.020,-42.969,-35.156,-7.324,111.816
1687769639.665,-0.977,-42.480,-33.203,-27.832,90.332
1687769639.669,35.645,-37.109,-20.996,-20.508,-75.195
1687769639.671,43.457,-40.527,-15.137,11.230,-46.875
1687769639.675,18.555,-51.758,-10.254,9.277,107.422
1687769639.679,16.113,-47.363,-8.301,13.184,-25.391
1687769639.683,18.555,-32.715,-18.066,5.859,-58.105
1687769639.687,10.742,-40.039,-32.715,-9.277,26.855
1687769639.691,3.418,-46.875,-42.969,0.488,89.844
1687769639.695,-14.648,-51.270,-41.016,0.000,66.895
1687769639.698,-20.508,-50.293,-41.504,-14.160,-42.969
1687769639.702,-5.859,-50.781,-44.922,-10.254,83.496
1687769639.706,-1.465,-51.758,-46.387,-2.441,203.125
1687769639.710,-7.812,-54.199,-47.363,-10.254,30.273
1687769639.714,-6.348,-64.941,-35.156,-13.184,16.113
1687769639.716,-26.367,-69.824,-34.180,-18.066,130.371
1687769639.720,-54.199,-61.035,-30.762,-14.160,52.246
1687769639.724,-31.738,-41.992,-20.508,-22.461,2.930
1687769639.728,-16.113,-28.809,-20.996,-24.414,-7.324
1687769639.732,-4.395,-24.902,-21.484,9.766,175.781
1687769639.736,-5.859,-18.066,-22.949,6.348,275.879
1687769639.740,-18.555,-20.020,-34.180,-30.273,68.359
1687769639.743,-14.648,-36.133,-42.480,-43.457,-8.789
1687769639.747,-9.277,-40.527,-41.504,-22.949,207.520
1687769639.751,-2.441,-22.949,-47.363,-23.438,189.941
1687769639.755,-1.465,-20.508,-43.945,-19.531,-23.926
1687769639.759,2.441,-22.461,-35.645,-3.418,29.785
1687769639.764,20.996,-18.066,-32.715,-16.113,45.898
1687769639.768,44.922,-12.695,-35.645,-20.508,-63.477
1687769639.772,49.316,-8.301,-40.039,1.953,-46.875
1687769639.776,28.809,-11.230,-28.320,1.953,143.555
1687769639.780,16.113,-5.371,-27.344,-25.879,147.949
1687769639.784,11.230,0.977,-34.180,-40.039,78.613
1687769639.788,15.137,-8.301,-31.738,-37.109,117.188
1687769639.791,32.227,-15.625,-32.227,-23.438,200.195
1687769639.795,21.973,-7.812,-35.156,-34.180,184.570
1687769639.799,1.465,-6.836,-21.484,-55.176,-29.297
1687769639.803,12.695,-6.836,-5.859,-63.965,-106.445
1687769639.807,34.668,-12.695,-0.977,-55.664,-67.383
1687769639.806,57.129,-15.625,7.812,-47.363,-22.949
1687769639.810,60.547,7.812,16.113,-46.387,-49.316
1687769639.814,43.457,3.906,11.719,-49.316,-4.395
1687769639.818,58.105,-11.719,7.324,-52.246,16.113
1687769639.822,52.734,1.465,6.836,-72.266,-4.395
1687769639.826,56.152,9.277,6.348,-76.172,35.156
1687769639.830,67.383,-3.906,12.207,-68.359,32.227
1687769639.833,45.898,-11.719,18.066,-70.801,284.668
1687769639.837,30.273,-13.672,5.859,-72.754,416.504
1687769639.841,35.156,-16.602,-10.742,-98.145,44.434
1687769639.845,39.551,-16.602,-10.742,-98.145,-59.082
1687769639.849,46.875,-15.137,-12.695,-93.262,-8.789
1687769639.852,54.199,-15.137,-11.230,-94.727,-17.578
1687769639.856,34.668,-17.090,0.977,-114.746,-16.113
1687769639.860,24.414,-24.414,15.625,-115.723,-24.414
1687769639.864,23.926,-32.227,19.043,-104.492,-21.973
1687769639.868,28.320,-29.297,18.555,-104.492,-86.914
1687769639.872,35.156,-34.668,2.930,-106.445,-87.891
1687769639.876,30.762,-44.434,-4.395,-118.652,42.969
1687769639.879,28.320,-47.363,4.395,-117.676,227.051
1687769639.883,43.945,-42.969,1.953,-124.512,41.992
1687769639.887,38.086,-40.039,-3.906,-125.488,-123.535
1687769639.891,23.926,-47.363,1.465,-121.582,-29.785
1687769639.895,11.230,-56.152,7.324,-136.719,18.066
1687769639.896,2.441,-72.754,-2.441,-141.113,-71.289
1687769639.900,0.488,-76.660,-5.371,-118.164,-89.355
1687769639.904,8.301,-49.316,-5.371,-101.074,12.695
1687769639.908,16.602,-35.156,-7.324,-103.027,26.367
1687769639.912,21.973,-28.320,0.977,-103.516,-31.738
1687769639.916,34.668,-27.344,-3.418,-106.934,-2.441
1687769639.920,40.039,-35.156,-5.859,-93.262,332.031
1687769639.923,46.875,-44.922,-11.230,-90.332,359.863
1687769639.927,21.973,-41.504,-17.578,-107.910,-16.113
1687769639.931,10.742,-36.133,-10.742,-109.863,50.293
1687769639.935,23.438,-41.504,-16.113,-120.605,77.637
1687769639.939,19.531,-52.734,-11.230,-103.027,-99.121
1687769639.943,41.504,-45.898,-0.488,-73.242,-69.336
1687769639.947,59.082,-18.066,2.930,-73.730,57.129
1687769639.951,39.062,-11.719,1.953,-76.172,89.355
1687769639.955,10.742,-27.832,-9.766,-93.750,67.871
1687769639.959,17.090,-37.598,-22.949,-90.820,-5.371
1687769639.963,37.598,-36.133,-29.297,-71.289,119.141
1687769639.967,18.066,-38.086,-37.109,-83.984,230.957
1687769639.970,20.996,-31.738,-45.898,-105.957,-8.789
1687769639.974,26.367,-35.645,-37.109,-105.957,-131.348
1687769639.978,21.484,-51.758,-24.414,-101.562,-19.531
1687769639.982,37.109,-48.340,-31.738,-90.820,-14.160
1687769639.986,41.992,-38.086,-35.645,-93.750,-38.574
1687769640.001,45.898,-41.992,-34.180,-120.117,42.480
1687769640.005,43.457,-48.340,-27.344,-111.816,84.961
1687769640.009,38.574,-53.711,-28.809,-105.957,94.238
1687769640.013,52.246,-48.828,-33.203,-112.305,68.359
1687769640.017,52.734,-47.852,-29.297,-103.516,7.324
1687769640.021,51.758,-57.617,-26.367,-95.703,216.309
1687769640.025,48.340,-38.574,-22.949,-95.215,357.422
1687769640.028,34.668,-26.855,-23.438,-101.074,-1.953
1687769640.032,49.805,-35.645,-25.879,-94.727,-39.551
1687769640.036,55.664,-41.992,-23.926,-79.590,125.977
1687769640.040,44.922,-42.480,-24.902,-80.078,50.293
1687769640.044,43.457,-39.551,-25.391,-78.613,-1.465
1687769640.046,41.504,-54.199,-19.531,-81.543,37.109
1687769640.050,41.504,-61.035,-20.996,-81.055,58.594
1687769640.054,43.945,-47.852,-24.902,-61.523,45.410
1687769640.058,47.852,-38.086,-24.414,-64.453,-50.293
1687769640.062,47.363,-34.668,-19.531,-72.266,73.730
1687769640.066,53.711,-37.109,-13.672,-66.406,218.750
1687769640.070,60.059,-30.762,-13.672,-57.129,107.910
1687769640.073,73.242,-27.832,-6.836,-41.992,20.996
1687769640.077,61.523,-37.109,-10.742,-39.062,168.945
1687769640.081,48.340,-37.109,-24.902,-65.918,232.910
1687769640.085,52.246,-40.527,-10.742,-73.242,-34.180
1687769640.089,61.523,-36.133,2.930,-46.387,-68.848
1687769640.091,67.871,-27.344,-6.348,-47.363,-33.691
1687769640.095,50.781,-32.227,-9.766,-53.711,1.465
1687769640.099,34.668,-46.387,-16.113,-73.730,118.652
1687769640.103,23.926,-49.805,-23.438,-99.121,74.707
1687769640.107,32.227,-44.434,-11.719,-85.938,337.402
1687769640.111,25.391,-33.691,-17.578,-82.520,421.875
1687769640.115,-13.672,-27.832,-17.090,-118.652,77.148
1687769640.118,-22.461,-33.203,-4.395,-127.930,32.715
1687769640.122,-45.410,5.859,-11.719,-135.254,252.930
1687769640.126,-89.844,19.043,6.836,-160.156,171.875
1687769640.130,-105.469,-4.395,36.621,-183.105,-53.711
1687769640.134,-134.766,-24.414,36.133,-211.426,59.570
1687769640.138,-166.504,-17.090,53.223,-239.258,64.453
1687769640.142,-194.336,-14.648,69.824,-260.254,-25.879
1687769640.146,-200.684,-14.648,59.082,-292.480,-62.988
1687769640.150,-220.215,-10.254,70.312,-318.359,-3.418
1687769640.154,-238.770,-7.812,71.289,-315.918,31.250
1687769640.158,-231.934,-3.906,64.453,-307.617,23.438
1687769640.162,-229.492,-0.488,53.711,-318.359,-66.406
1687769640.165,-235.352,2.930,37.598,-321.289,108.398
1687769640.169,-243.164,-17.090,23.438,-303.223,388.672
1687769640.173,-245.605,-24.414,11.719,-290.527,123.535
1687769640.177,-222.168,-1.953,3.418,-284.180,-91.309
1687769640.181,-212.891,7.324,-14.648,-289.551,-15.137
1687769640.181,-210.938,18.066,-7.812,-269.043,12.207
1687769640.185,-176.758,24.414,10.254,-229.492,6.348
1687769640.189,-158.691,13.672,9.766,-199.219,8.789
1687769640.193,-152.832,6.836,-1.465,-189.941,19.043
1687769640.197,-141.113,-12.207,-20.020,-189.453,-12.207
1687769640.201,-110.840,-22.461,-25.879,-165.527,-33.691
1687769640.205,-92.285,-19.531,-29.297,-130.859,12.207
1687769640.208,-69.336,-30.273,-44.434,-104.492,268.555
1687769640.212,-40.039,-30.273,-55.176,-95.703,368.164
1687769640.216,-48.828,-3.418,-48.828,-103.027,20.508
1687769640.220,-33.691,6.348,-41.016,-86.426,8.301
1687769640.224,-9.277,-12.207,-53.223,-59.082,125.000
1687769640.241,11.230,-16.113,-69.824,-46.387,-7.324
1687769640.245,24.414,-16.602,-86.426,-37.598,-36.133
1687769640.249,12.207,-27.344,-88.379,-31.250,36.133
1687769640.253,33.203,-29.297,-80.566,-27.344,23.438
1687769640.257,72.754,-29.297,-81.055,-1.953,-32.227
1687769640.261,83.008,-24.414,-69.824,17.578,104.492
1687769640.265,83.496,-20.020,-70.312,19.043,343.750
1687769640.268,91.797,-34.668,-87.402,26.367,301.758
1687769640.272,92.285,-44.434,-87.891,14.160,10.742
1687769640.276,105.957,-33.691,-82.520,12.207,-60.059
1687769640.280,103.516,-34.180,-82.031,33.203,-32.715
1687769640.284,106.934,-41.504,-74.219,40.039,40.039
1687769640.271,118.164,-35.645,-84.473,40.039,0.000
1687769640.275,117.188,-40.039,-87.891,26.367,-79.102
1687769640.279,104.980,-50.781,-70.312,9.277,149.902
1687769640.283,110.352,-41.016,-78.613,34.180,212.891
1687769640.287,129.883,-40.039,-83.008,46.875,-45.898
1687769640.291,134.277,-44.922,-77.637,15.137,-7.324
1687769640.295,113.281,-46.387,-73.242,15.137,153.320
1687769640.298,109.863,-46.387,-70.801,20.020,45.898
1687769640.302,133.301,-36.621,-77.148,19.531,-84.961
1687769640.306,133.789,-39.062,-78.125,24.414,-9.766
1687769640.310,130.859,-50.781,-67.383,22.949,317.383
1687769640.314,127.930,-43.457,-61.523,22.949,256.836
1687769640.319,131.348,-41.016,-58.594,7.812,-64.453
1687769640.323,148.926,-51.758,-53.223,13.184,30.273
1687769640.327,137.695,-56.641,-49.316,27.832,93.262
1687769640.331,119.141,-69.824,-52.246,-8.301,26.855
1687769640.335,133.301,-75.195,-57.617,-24.414,-39.551
1687769640.339,144.043,-61.523,-49.805,-11.719,105.957
1687769640.343,153.809,-51.270,-39.062,13.184,265.137
1687769640.346,158.203,-52.734,-34.180,13.672,66.895
1687769640.350,152.344,-54.199,-45.410,3.906,-62.012
1687769640.354,146.484,-55.664,-47.363,-2.930,58.594
1687769640.358,132.812,-56.152,-40.527,-2.930,44.922
1687769640.362,125.000,-50.781,-47.852,7.324,-100.586
1687769640.376,123.047,-49.805,-48.828,25.391,-37.109
1687769640.380,135.254,-43.945,-41.992,35.645,7.324
1687769640.384,128.906,-39.551,-40.527,1.953,-23.438
1687769640.388,108.887,-41.992,-37.109,-8.789,3.906
1687769640.392,109.863,-31.738,-40.039,13.184,35.156
1687769640.396,123.047,-28.320,-37.109,31.250,240.234
1687769640.400,130.371,-30.273,-24.414,28.809,446.289
1687769640.403,107.910,-28.809,-22.949,-1.465,126.465
1687769640.407,102.051,-24.902,-19.043,-0.977,-36.133
1687769640.411,105.469,-17.090,-11.719,16.602,72.266
1687769640.415,100.098,-20.508,-18.066,11.719,-6.836
1687769640.419,96.680,-22.949,-25.879,3.906,-95.703
1687769640.421,99.609,-2.930,-12.695,-1.953,-73.242
1687769640.425,91.309,2.930,-13.672,-11.719,-68.359
1687769640.429,93.750,-5.859,-16.113,-9.277,-99.121
1687769640.433,111.816,-7.324,2.930,13.184,-65.918
1687769640.437,104.980,-15.137,11.719,8.301,-62.012
1687769640.441,90.332,-16.113,7.812,-15.137,2.930
1687769640.445,70.312,-9.277,-14.160,-23.438,34.180
1687769640.448,45.410,-15.625,-25.391,-22.461,63.965
1687769640.452,61.035,-10.254,-23.438,-16.113,152.344
1687769640.456,64.941,-10.254,-36.133,-2.930,304.199
1687769640.460,61.035,-24.414,-47.852,-26.855,122.070
1687769640.464,62.012,-28.320,-45.410,-53.711,-62.500
1687769640.466,58.105,-28.320,-46.387,-45.898,4.395
1687769640.470,60.547,-28.320,-47.363,-39.551,-25.879
1687769640.474,67.383,-27.344,-43.945,-37.109,22.949
1687769640.478,69.336,-24.414,-33.691,-46.387,66.895
1687769640.482,68.359,-22.461,-24.414,-42.969,62.500
1687769640.486,83.984,-11.230,-22.949,-36.621,189.453
1687769640.490,88.867,-14.160,-23.438,-31.738,130.371
1687769640.493,83.496,-34.180,-24.414,-42.480,-23.438
1687769640.497,83.496,-18.066,-29.297,-30.273,316.406
1687769640.501,91.309,-5.371,-27.832,-39.551,349.609
1687769640.505,84.473,-6.348,-13.672,-73.242,-32.715
1687769640.509,78.613,0.977,-6.348,-51.758,17.090
1687769640.511,80.566,-5.371,-17.578,-29.785,61.035
1687769640.515,56.641,-8.789,-31.738,-35.645,-2.441
1687769640.519,59.082,5.859,-43.457,-38.086,15.625
1687769640.523,76.172,7.324,-42.969,-32.715,44.434
1687769640.527,72.754,7.812,-41.504,-24.902,83.984
1687769640.531,70.312,18.555,-35.156,-18.066,170.898
1687769640.535,61.035,14.648,-41.504,-23.926,125.488
1687769640.538,54.199,6.836,-46.387,-37.598,172.363
1687769640.542,56.152,4.395,-37.109,-42.480,229.492
1687769640.546,60.547,7.324,-31.250,-36.133,0.977
1687769640.550,62.012,7.812,-30.762,-16.602,-5.859
1687769640.554,63.477,-3.906,-34.180,-6.348,104.492
1687769640.556,60.547,-15.625,-35.645,-12.207,18.555
1687769640.560,65.918,-9.766,-37.109,-41.016,-35.645
1687769640.564,58.105,-8.301,-34.180,-58.594,0.977
1687769640.568,45.898,-2.930,-22.949,-25.391,153.809
1687769640.572,69.824,27.344,-2.930,-2.441,173.828
1687769640.576,92.285,51.270,13.184,-9.277,83.984
1687769640.580,92.773,52.734,28.809,0.000,99.121
1687769640.583,105.957,44.434,35.645,19.043,244.141
1687769640.587,102.539,35.645,22.461,13.184,205.566
1687769640.591,91.309,29.297,18.066,7.324,-50.781
1687769640.595,84.961,33.691,19.043,9.766,-4.395
1687769640.599,83.496,28.320,15.137,-5.371,47.852
1687769640.603,90.820,20.020,12.207,-8.789,-6.836
1687769640.607,77.148,18.066,9.277,15.137,1.465
1687769640.611,76.660,15.137,8.789,9.277,121.094
1687769640.615,83.496,14.648,4.395,-7.324,139.648
1687769640.619,69.336,12.695,9.766,-6.836,30.762
1687769640.623,71.777,0.488,12.207,-16.602,31.250
1687769640.627,83.984,-11.230,15.137,2.930,203.613
1687769640.630,95.703,-5.859,20.020,18.555,270.508
1687769640.634,85.938,-0.488,6.348,-1.953,46.387
1687769640.638,69.336,0.488,-9.766,0.977,-41.992
1687769640.642,83.496,5.371,-11.719,8.789,16.602
1687769640.646,76.172,5.859,-7.324,-9.277,5.859
1687769640.646,63.477,1.465,-13.672,-12.207,-68.359
1687769640.650,64.453,-3.906,-30.762,-7.812,-69.336
1687769640.654,61.035,-9.277,-21.973,-19.531,15.137
1687769640.658,72.754,-17.090,-10.742,-33.691,126.953
1687769640.662,67.383,-25.879,-19.531,-20.996,111.328
1687769640.666,55.176,-33.691,-22.461,-10.742,49.316
1687769640.670,60.547,-34.180,-28.320,-3.418,261.719
1687769640.673,69.824,-31.250,-36.621,1.953,369.141
1687769640.677,73.730,-35.645,-50.293,-18.066,3.418
1687769640.681,78.613,-40.039,-54.688,-21.973,-42.480
1687769640.685,82.031,-39.062,-47.363,-12.695,43.457
1687769640.689,69.824,-45.410,-47.363,-7.324,-62.500
1687769640.693,58.594,-43.945,-43.945,-17.090,-111.328
1687769640.697,55.664,-29.297,-41.504,-18.555,-21.484
1687769640.701,70.312,-34.180,-48.340,-12.695,43.945
1687769640.705,63.477,-42.480,-40.527,-20.020,12.695
1687769640.709,44.922,-43.457,-24.902,-26.367,-30.762
1687769640.713,43.457,-41.504,-25.879,-29.785,40.527
1687769640.717,52.734,-40.039,-28.320,-30.762,101.562
1687769640.720,58.105,-38.086,-34.180,-18.066,0.488
1687769640.724,57.617,-30.762,-30.273,-14.160,-95.215
1687769640.728,42.969,-34.668,-26.367,-8.301,46.387
1687769640.732,49.805,-38.574,-23.438,4.883,255.371
1687769640.736,58.105,-30.762,-27.344,-34.180,-21.973
1687769640.751,40.039,-32.227,-28.809,-46.875,-114.258
1687769640.755,25.879,-42.969,-23.926,-12.207,-27.832
1687769640.759,32.715,-46.875,-26.367,-9.277,10.742
1687769640.763,35.156,-43.945,-23.438,-17.090,31.738
1687769640.767,30.762,-44.922,-18.555,-5.859,-82.031
1687769640.771,29.297,-41.504,-18.066,12.207,229.980
1687769640.775,7.812,-39.062,-27.832,18.555,416.016
1687769640.778,4.395,-47.363,-30.762,11.230,58.105
1687769640.782,5.859,-45.410,-32.715,0.488,22.461
1687769640.786,2.930,-35.645,-43.945,-11.230,161.133
1687769640.790,18.555,-34.180,-53.223,-10.742,97.656
1687769640.794,36.133,-43.945,-57.617,18.555,-16.113
1687769640.796,31.250,-54.688,-56.152,17.090,46.387
1687769640.800,24.414,-45.898,-59.082,-18.066,48.340
1687769640.804,18.066,-34.180,-61.035,-16.113,-34.180
1687769640.808,23.926,-38.574,-47.363,-1.953,-58.105
1687769640.812,35.645,-35.156,-40.039,10.254,3.418
1687769640.816,4.883,-20.996,-35.645,8.789,41.504
1687769640.820,-0.488,-22.949,-26.855,-7.812,67.871
1687769640.823,4.395,-26.367,-37.109,-17.578,34.668
1687769640.827,9.766,-21.973,-42.969,-3.906,111.816
1687769640.831,29.297,-29.297,-37.598,5.859,261.230
1687769640.835,39.062,-32.227,-42.480,-8.789,111.328
1687769640.839,29.297,-21.484,-43.945,6.348,59.082
1687769640.841,19.043,-18.066,-33.203,-6.836,77.148
1687769640.845,9.766,-30.273,-22.949,-30.762,17.090
1687769640.849,-3.418,-41.992,-25.391,-19.043,-21.484
1687769640.853,14.160,-33.691,-33.203,-15.137,-18.066
1687769640.857,20.508,-33.203,-28.809,-4.395,122.070
1687769640.861,0.977,-32.715,-33.691,-20.996,92.773
1687769640.865,22.461,-22.949,-46.875,-29.785,-89.355
1687769640.868,31.738,-26.367,-54.199,-27.344,-23.926
1687769640.872,17.578,-31.250,-51.758,-18.555,183.105
1687769640.876,25.391,-26.367,-55.176,-5.371,180.664
1687769640.880,25.879,-30.762,-63.965,-27.344,-35.156
1687769640.884,34.668,-29.785,-50.781,-24.414,-17.090
1687769640.886,46.875,-23.438,-36.133,-3.906,51.758
1687769640.890,42.969,-20.996,-36.133,-5.859,13.184
1687769640.894,34.180,-20.996,-48.340,-19.531,-77.148
1687769640.898,27.344,-26.367,-51.758,-33.691,-38.574
1687769640.902,28.320,-31.738,-43.457,-31.250,47.363
1687769640.906,28.809,-44.434,-43.945,-21.484,43.945
1687769640.910,33.203,-59.570,-48.828,-20.996,117.676
1687769640.913,36.621,-56.152,-39.062,4.395,259.766
1687769640.917,27.344,-33.203,-34.668,0.000,222.168
1687769640.921,8.301,-15.625,-35.156,-37.598,-26.855
1687769640.925,3.418,-19.531,-27.832,-27.344,-104.980
1687769640.929,3.906,-30.762,-23.438,0.000,-6.348
1687769640.931,8.789,-25.391,-27.832,-5.859,83.496
1687769640.935,16.602,-19.043,-36.621,-15.625,-13.672
1687769640.939,18.555,-27.832,-39.551,-12.207,12.695
1687769640.943,17.090,-28.320,-39.062,4.395,339.844
1687769640.947,23.438,-22.949,-35.156,13.672,299.805
1687769640.951,40.527,-19.043,-32.227,5.371,31.738
1687769640.955,48.828,-8.789,-36.621,12.207,17.090
1687769640.958,57.617,3.906,-37.598,13.672,220.703
1687769640.962,47.852,-0.977,-40.527,-1.465,248.535
1687769640.966,34.180,-8.301,-54.199,2.441,-15.137
1687769640.970,45.898,-11.230,-47.852,27.832,46.875
1687769640.974,57.617,-2.930,-31.738,24.414,81.543
1687769640.978,43.945,-13.672,-34.180,3.906,-32.715
1687769640.982,51.758,-21.484,-45.410,7.812,-55.176
1687769640.986,62.988,-6.836,-52.246,9.277,40.527
1687769640.990,45.898,-16.113,-42.969,20.996,56.152
1687769640.994,41.992,-23.438,-39.062,11.230,2.930
1687769640.998,31.738,-22.461,-36.133,-6.836,15.625
1687769641.002,36.133,-24.902,-30.762,-9.277,201.172
1687769641.005,56.152,-21.973,-33.203,-9.277,434.082
1687769641.009,43.457,-20.020,-29.785,-10.742,192.871
1687769641.013,44.922,-21.973,-24.414,-20.508,-59.082
1687769641.017,52.246,-25.879,-32.227,-34.180,-61.523
1687769641.021,40.039,-20.996,-38.574,-39.062,-164.551
1687769641.022,33.691,-22.461,-35.156,-43.457,-131.836
1687769641.026,24.414,-29.297,-31.738,-34.668,0.488
1687769641.030,16.113,-40.527,-41.992,-21.484,45.898
1687769641.034,16.113,-42.969,-48.828,-41.992,80.566
1687769641.038,23.438,-34.668,-45.410,-58.105,-22.949
1687769641.042,31.250,-36.621,-42.969,-38.574,-26.367
1687769641.046,15.625,-37.109,-37.109,-14.160,331.543
1687769641.049,14.160,-28.809,-29.297,-14.648,455.566
1687769641.053,14.160,-34.180,-32.715,-39.551,48.340
1687769641.057,19.531,-41.992,-39.062,-42.480,-25.879
1687769641.061,19.043,-34.668,-39.551,-28.320,104.492
1687769641.065,23.438,-23.926,-37.598,-17.578,-26.367
1687769641.069,27.832,-29.785,-37.109,-5.859,-90.820
1687769641.073,22.949,-43.945,-36.133,-19.531,1.465
1687769641.077,27.344,-44.922,-42.480,-37.598,16.113
1687769641.081,36.621,-43.945,-52.246,-33.691,-21.484
1687769641.085,40.039,-46.387,-47.363,-29.297,-27.344
1687769641.089,29.785,-41.016,-35.645,-15.137,167.480
1687769641.093,8.789,-30.762,-33.203,-13.672,218.262
1687769641.096,-0.977,-36.621,-33.691,-38.086,-10.742
1687769641.100,7.812,-40.527,-32.715,-42.969,-124.023
1687769641.104,20.020,-32.715,-22.461,-20.996,142.090
1687769641.108,30.273,-30.762,-17.090,-16.113,261.719
1687769641.112,35.156,-26.367,-20.020,-17.578,-61.035
1687769641.126,21.484,-24.414,-21.973,-32.715,-111.816
1687769641.130,28.320,-23.438,-21.484,-32.227,-99.121
1687769641.134,34.180,-10.254,-17.090,-5.371,-30.273
1687769641.138,4.395,-10.254,-20.996,-25.391,54.199
1687769641.142,1.953,-18.066,-22.461,-51.270,-42.969
1687769641.146,11.230,-8.789,-18.555,-41.016,172.852
1687769641.150,-12.695,-1.465,-20.508,-53.223,342.285
1687769641.153,-40.527,-11.719,-13.672,-74.219,37.109
1687769641.157,-73.730,-24.414,-10.742,-104.492,-43.457
1687769641.161,-103.516,-15.625,2.930,-138.184,62.988
1687769641.165,-130.371,-16.602,19.043,-172.363,4.395
1687769641.169,-165.527,-26.367,29.297,-213.867,-81.543
1687769641.172,-169.922,-20.020,53.711,-216.309,69.336
1687769641.176,-171.387,-12.207,54.199,-217.285,156.738
1687769641.180,-221.680,-18.066,44.434,-264.160,62.012
1687769641.184,-230.469,-8.789,58.594,-302.246,20.996
1687769641.188,-223.633,1.953,62.500,-300.781,63.965
1687769641.192,-241.699,8.789,57.129,-289.062,104.980
1687769641.196,-225.098,14.648,58.105,-287.109,65.430
1687769641.199,-213.379,10.254,44.922,-291.016,-37.598
1687769641.203,-210.449,9.277,41.016,-275.879,49.805
1687769641.207,-207.520,14.648,49.316,-243.164,209.473
1687769641.211,-195.312,23.438,44.922,-233.887,-27.344
1687769641.215,-167.480,20.508,50.781,-231.934,-112.793
1687769641.221,-153.320,25.391,45.898,-222.168,-45.410
1687769641.225,-154.297,25.879,19.531,-214.844,-18.555
1687769641.229,-161.133,2.441,9.766,-196.777,-23.926
1687769641.233,-120.605,-6.348,8.789,-178.223,-40.527
1687769641.237,-83.008,-20.508,-4.395,-144.531,186.035
1687769641.241,-88.867,-21.973,-21.484,-114.258,364.258
1687769641.245,-73.242,-21.973,-26.367,-107.422,86.914
1687769641.248,-47.363,-46.875,-29.785,-88.867,-22.949
1687769641.252,-35.156,-48.828,-42.480,-61.523,99.609
1687769641.256,-10.254,-53.711,-51.270,-37.109,93.262
1687769641.260,8.301,-59.570,-45.898,-14.648,1.465
1687769641.264,18.066,-48.340,-34.668,-16.113,72.266
1687769641.261,28.809,-45.410,-32.227,-21.484,166.016
1687769641.265,46.387,-55.176,-36.621,-0.977,57.129
1687769641.269,80.566,-53.223,-42.969,33.203,1.953
1687769641.273,77.637,-44.922,-63.477,47.852,69.824
1687769641.277,59.082,-50.293,-69.336,47.363,62.500
1687769641.281,62.012,-59.570,-61.035,29.785,50.293
1687769641.285,80.566,-60.059,-74.219,31.250,129.395
1687769641.288,93.750,-60.059,-85.938,75.195,250.488
1687769641.292,92.285,-61.035,-93.262,86.914,415.527
1687769641.296,99.121,-58.105,-96.680,77.637,163.574
1687769641.300,100.098,-56.152,-94.727,70.312,-69.824
1687769641.304,94.727,-63.965,-86.914,71.289,33.203
1687769641.306,109.375,-69.336,-87.402,96.680,13.672
1687769641.310,123.535,-73.242,-91.309,114.746,-99.121
1687769641.314,119.629,-71.777,-83.008,109.863,-41.992
1687769641.318,112.793,-73.242,-88.867,103.027,118.652
1687769641.322,106.934,-67.383,-92.285,101.074,39.551
1687769641.326,100.098,-60.547,-77.637,87.891,-46.387
1687769641.330,105.957,-59.570,-69.824,90.820,-20.508
1687769641.333,117.676,-60.059,-62.988,115.723,300.293
1687769641.337,110.352,-62.012,-65.918,107.422,387.207
1687769641.341,116.699,-63.477,-68.848,92.773,-18.555
1687769641.345,125.977,-69.336,-63.965,104.492,-87.891
1687769641.349,120.117,-58.594,-61.523,108.398,43.457
1687769641.352,115.723,-47.363,-66.895,105.469,39.062
1687769641.356,87.891,-54.688,-69.336,91.309,-47.852
1687769641.360,73.242,-65.918,-68.359,84.961,24.902
1687769641.364,73.730,-65.430,-68.359,83.984,0.977
1687769641.368,60.547,-58.105,-59.082,98.145,-36.621
1687769641.372,45.410,-53.223,-56.641,111.328,58.594
1687769641.376,46.387,-49.805,-54.688,104.004,247.559
1687769641.379,49.316,-44.922,-47.852,95.215,284.180
1687769641.383,51.270,-42.969,-55.176,99.121,22.461
1687769641.387,35.645,-48.340,-53.711,105.469,-0.488
1687769641.391,27.832,-43.457,-53.711,95.215,141.602
1687769641.395,45.898,-29.297,-60.547,85.938,30.273
1687769641.396,60.547,-32.227,-58.105,90.332,-100.098
1687769641.400,71.289,-34.180,-54.199,76.660,-32.715
1687769641.404,62.988,-30.762,-59.082,78.613,32.227
1687769641.408,62.988,-37.598,-59.570,88.867,19.531
1687769641.412,73.242,-41.016,-54.199,78.125,-7.812
1687769641.416,68.848,-46.387,-55.176,52.246,-11.230
1687769641.420,83.496,-47.363,-56.152,55.176,250.488
1687769641.423,99.609,-35.645,-47.363,83.008,349.609
1687769641.427,98.145,-39.062,-36.621,81.055,10.742
1687769641.431,74.707,-44.434,-41.992,66.406,-47.852
1687769641.435,49.316,-32.715,-41.016,56.641,-25.391
1687769641.439,59.570,-35.645,-30.273,58.105,-30.762
1687769641.444,65.918,-39.551,-28.320,66.895,0.977
1687769641.448,69.824,-30.273,-26.367,75.684,75.684
1687769641.452,73.242,-32.227,-17.090,74.219,102.051
1687769641.456,67.383,-37.109,-21.484,44.434,-53.223
1687769641.460,74.219,-35.645,-29.785,31.738,-97.168
1687769641.464,72.266,-30.273,-27.832,43.945,146.973
1687769641.468,49.316,-36.621,-39.062,44.922,273.438
1687769641.471,48.828,-45.410,-46.875,48.340,39.551
1687769641.475,58.105,-33.691,-32.715,36.621,-59.082
1687769641.479,49.316,-33.203,-24.902,29.785,57.617
1687769641.483,56.152,-31.738,-37.598,37.109,59.082
1687769641.487,59.570,-23.926,-38.086,28.320,-14.160
1687769641.502,47.852,-21.484,-21.484,26.855,-10.254
1687769641.506,49.316,-31.738,-14.648,32.715,-35.645
1687769641.510,55.176,-51.758,-19.531,20.508,-20.508
1687769641.514,42.969,-59.570,-24.902,27.832,60.059
1687769641.518,34.180,-62.012,-37.109,40.039,38.574
1687769641.522,31.250,-57.129,-33.203,27.344,152.344
1687769641.526,36.133,-53.711,-27.344,21.484,427.246
1687769641.529,46.387,-53.711,-37.598,12.695,146.973
1687769641.533,52.246,-59.570,-36.621,10.742,-97.168
1687769641.537,50.781,-59.570,-34.180,22.461,9.766
1687769641.541,27.832,-44.434,-43.945,17.090,-15.625
1687769641.545,36.621,-37.109,-43.457,8.301,-86.914
1687769641.547,50.781,-35.645,-33.203,17.578,-54.688
1687769641.551,42.969,-25.879,-34.180,25.879,-33.203
1687769641.555,41.992,-24.902,-50.781,41.016,-58.594
1687769641.559,40.039,-29.297,-48.340,34.180,-77.637
1687769641.563,28.320,-29.297,-35.645,2.930,119.629
1687769641.567,13.184,-33.691,-40.039,8.789,262.695
1687769641.571,12.695,-44.434,-59.570,8.789,96.191
1687769641.574,17.090,-55.176,-64.453,5.859,5.371
1687769641.578,20.996,-61.523,-62.500,23.438,131.348
1687769641.582,25.879,-61.523,-66.895,20.020,185.547
1687769641.586,42.480,-44.922,-68.359,2.441,-50.781
1687769641.590,58.594,-42.969,-61.523,6.348,-132.324
1687769641.592,54.688,-54.688,-55.664,20.996,-76.660
1687769641.596,42.969,-47.363,-51.758,15.625,-20.020
1687769641.600,45.410,-37.598,-46.387,-2.930,4.395
1687769641.604,49.316,-32.715,-49.316,-0.488,3.906
1687769641.608,45.410,-26.855,-54.688,17.090,115.234
1687769641.612,51.270,-28.320,-59.082,25.391,154.297
1687769641.616,54.199,-44.434,-65.918,19.043,41.504
1687769641.619,58.594,-40.039,-64.453,1.465,-1.953
1687769641.623,48.828,-28.809,-54.688,4.883,144.531
1687769641.627,49.316,-37.598,-46.875,23.926,208.984
1687769641.631,58.594,-38.574,-53.223,20.020,-43.945
1687769641.635,58.594,-39.551,-66.895,5.859,-50.781
1687769641.637,52.734,-34.180,-57.617,-0.488,-16.113
1687769641.641,57.617,-22.949,-39.062,-7.324,-87.891
1687769641.645,70.312,-24.902,-43.945,-7.324,-103.027
1687769641.649,60.059,-31.738,-48.340,-1.953,-4.395
1687769641.653,40.039,-32.715,-52.246,1.465,90.820
1687769641.657,52.734,-21.484,-52.246,-4.395,57.129
1687769641.661,71.777,-15.625,-39.062,-12.695,22.949
1687769641.664,57.617,-20.996,-42.969,-7.812,168.457
1687769641.668,58.594,-29.297,-50.781,-7.812,332.031
1687769641.672,54.199,-38.574,-51.758,-11.230,84.961
1687769641.676,41.504,-41.504,-57.617,-9.766,-1.465
1687769641.680,41.504,-44.434,-60.059,-22.461,150.391
1687769641.681,40.527,-57.617,-52.246,-25.391,64.941
1687769641.685,52.246,-58.105,-57.617,-18.555,-88.379
1687769641.689,55.664,-42.969,-54.688,-22.461,4.883
1687769641.693,29.297,-50.781,-38.574,-27.344,206.543
1687769641.697,17.090,-66.895,-36.621,-33.691,112.793
1687769641.701,24.414,-52.734,-33.203,-41.504,33.203
1687769641.705,26.855,-44.922,-39.551,-49.805,74.219
1687769641.708,26.855,-53.711,-42.969,-31.250,277.344
1687769641.712,27.832,-49.316,-29.785,-12.695,304.688
1687769641.716,25.879,-41.992,-16.602,-36.621,-74.219
1687769641.720,31.250,-23.438,-16.113,-34.180,-56.641
1687769641.724,48.340,-7.324,-15.137,-10.742,126.465
1687769641.727,48.828,-16.113,-4.883,-19.043,30.762
1687769641.731,31.738,-25.391,-7.812,-21.973,-135.742
1687769641.735,28.809,-20.508,-1.953,-29.297,10.254
1687769641.739,43.457,-17.090,8.301,-39.551,107.422
1687769641.743,47.363,-17.090,0.977,-30.273,-50.293
1687769641.747,39.062,-17.090,-17.090,-24.414,-2.441
1687769641.751,32.715,-22.949,-17.090,-16.113,252.930
1687769641.754,22.461,-21.484,-5.859,-22.461,308.594
1687769641.758,10.254,-22.461,0.977,-37.598,24.414
1687769641.762,30.762,-16.602,6.348,-22.949,-98.145
1687769641.766,49.316,-15.625,10.742,-23.926,49.805
1687769641.770,33.203,-17.090,6.348,-36.133,76.660
1687769641.801,31.738,-7.812,-0.488,-48.828,-16.602
1687769641.805,45.898,-7.324,6.348,-47.852,-38.574
1687769641.809,38.574,-15.137,1.953,-30.273,171.387
1687769641.813,37.598,-18.555,-5.371,-19.531,189.941
1687769641.817,33.691,-19.043,-11.230,-25.879,-88.379
1687769641.821,15.137,-16.113,-20.508,-38.574,-132.324
1687769641.825,19.531,-23.438,-14.648,-41.504,260.254
1687769641.828,27.832,-29.297,-19.531,-33.203,316.406
1687769641.832,34.668,-11.719,-19.531,-34.180,-86.426
1687769641.836,50.781,-13.184,-30.762,-24.414,-15.137
1687769641.840,47.363,-25.391,-45.410,-18.066,70.801
1687769641.844,33.691,-16.602,-24.902,-38.086,-41.504
1687769641.832,31.250,-20.508,-1.465,-31.250,-65.918
1687769641.836,39.062,-32.227,-0.488,-13.184,12.207
1687769641.840,35.156,-20.020,-5.371,-10.742,0.488
1687769641.844,37.109,-11.719,2.441,-25.879,-10.742
1687769641.848,22.461,-17.090,4.883,-43.945,22.461
1687769641.852,20.996,-15.625,1.953,-15.137,250.000
1687769641.856,25.879,-15.625,-9.277,-10.742,373.535
1687769641.859,6.348,-29.785,-20.996,-43.945,90.820
1687769641.863,5.859,-33.203,-17.578,-34.180,-54.199
1687769641.867,10.254,-29.785,-17.578,-37.109,-18.066
1687769641.871,0.977,-28.809,-22.949,-52.734,15.137
1687769641.875,1.465,-28.809,-23.926,-41.016,-47.363
1687769641.876,-2.441,-36.133,-15.625,-34.668,-78.613
1687769641.880,5.371,-41.992,-20.996,-33.691,143.066
1687769641.884,7.324,-45.898,-34.668,-51.758,265.137
1687769641.888,-9.277,-46.387,-42.480,-60.059,35.645
1687769641.892,-11.230,-44.434,-52.246,-41.504,-41.992
1687769641.896,-17.090,-41.016,-61.523,-43.457,220.215
1687769641.900,-22.949,-47.852,-70.312,-55.176,278.809
1687769641.903,-10.254,-56.641,-70.801,-67.383,110.352
1687769641.907,-17.578,-39.062,-70.312,-81.543,0.000
1687769641.911,-34.668,-25.879,-68.848,-65.918,203.613
1687769641.915,-33.691,-34.180,-70.801,-46.875,349.609
1687769641.919,-30.762,-48.828,-66.895,-45.410,2.930
1687769641.921,-26.855,-43.945,-68.848,-48.340,-73.242
1687769641.925,-31.738,-33.691,-78.613,-51.758,-59.570
1687769641.929,-22.949,-28.809,-78.125,-43.945,-81.543
1687769641.933,-22.949,-28.320,-83.008,-38.086,-60.059
1687769641.937,-25.879,-32.227,-68.848,-38.086,34.668
1687769641.941,-14.648,-35.156,-57.129,-62.012,152.344
1687769641.945,-18.555,-38.574,-60.059,-67.383,53.223
1687769641.948,-16.113,-44.922,-57.617,-48.340,-83.008
1687769641.952,4.883,-41.992,-56.152,-31.250,100.586
1687769641.956,6.348,-27.344,-54.688,-27.832,367.676
1687769641.960,-8.301,-28.320,-56.152,-48.340,91.797
1687769641.964,0.488,-36.133,-56.641,-58.594,-107.422
1687769641.967,6.348,-33.203,-54.199,-36.621,-65.918
1687769641.971,4.395,-29.297,-55.176,-25.879,-53.711
1687769641.975,-2.441,-21.973,-62.012,-42.480,0.977
1687769641.979,-6.348,-17.578,-61.523,-58.105,12.207
1687769641.983,4.395,-27.832,-52.246,-45.410,75.684
1687769641.987,5.371,-32.715,-48.340,-38.574,112.305
1687769641.991,6.348,-18.555,-49.805,-52.734,-11.230
1687769641.994,-4.883,-27.344,-55.176,-47.852,-71.289
1687769641.998,2.930,-31.738,-46.875,-40.527,133.789
1687769642.002,6.348,-23.438,-31.738,-50.293,91.309
1687769642.006,5.371,-28.320,-27.344,-56.641,-53.711
1687769642.010,4.883,-22.949,-27.832,-41.016,133.301
1687769642.012,-12.207,-27.832,-27.344,-33.203,165.039
1687769642.016,-20.508,-39.062,-31.738,-56.641,-3.906
1687769642.020,-18.555,-36.621,-35.645,-70.801,-85.449
1687769642.024,-3.906,-31.738,-41.504,-61.035,-25.879
1687769642.028,-10.254,-36.621,-48.828,-56.152,0.977
1687769642.032,-20.508,-43.457,-46.387,-56.641,30.762
1687769642.036,-17.090,-44.922,-45.898,-66.895,74.707
1687769642.039,-22.461,-42.480,-42.969,-77.637,190.430
1687769642.043,-26.855,-39.062,-43.945,-73.242,213.867
1687769642.047,-12.695,-31.738,-50.781,-64.453,-28.809
1687769642.051,-9.277,-27.832,-46.387,-62.988,-44.434
1687769642.055,-31.738,-45.410,-49.316,-74.219,7.812
1687769642.057,-36.621,-68.359,-61.035,-77.148,-80.566
1687769642.061,-24.902,-63.965,-62.500,-74.707,2.441
1687769642.065,-23.438,-62.500,-58.594,-79.590,106.934
1687769642.069,-22.461,-63.965,-58.594,-63.477,233.887
1687769642.073,-20.996,-54.199,-59.082,-62.500,181.152
1687769642.077,-31.250,-64.453,-59.082,-91.309,-62.500
1687769642.081,-34.668,-63.965,-55.664,-87.402,-25.391
1687769642.084,-25.391,-54.199,-63.477,-63.965,187.012
1687769642.088,-4.883,-58.594,-67.871,-58.594,147.949
1687769642.092,-12.207,-53.223,-64.941,-68.359,-77.637
1687769642.096,-16.602,-53.223,-58.105,-68.848,-70.312
1687769642.100,-10.742,-54.199,-45.898,-60.547,-59.082
1687769642.117,-13.184,-62.012,-51.270,-61.035,-139.648
1687769642.121,-10.254,-62.012,-62.988,-60.547,-104.980
1687769642.125,-3.906,-46.387,-53.223,-50.293,-1.465
1687769642.129,-2.441,-43.945,-46.387,-60.547,21.973
1687769642.133,6.836,-41.504,-44.922,-67.383,39.062
1687769642.137,26.367,-41.504,-35.156,-49.316,43.457
1687769642.141,20.508,-45.898,-28.320,-40.039,249.512
1687769642.144,7.324,-48.340,-23.926,-35.645,457.031
1687769642.148,16.113,-41.504,-26.855,-52.246,159.180
1687769642.152,35.156,-44.922,-28.320,-59.570,-84.473
1687769642.156,44.922,-59.082,-33.691,-41.504,42.480
1687769642.160,35.645,-50.293,-44.922,-37.598,83.008
1687769642.146,16.602,-36.621,-53.223,-50.781,19.043
1687769642.150,9.766,-42.480,-41.504,-64.941,-19.043
1687769642.154,12.695,-41.992,-21.484,-56.641,32.227
1687769642.158,25.879,-33.203,-17.090,-46.387,13.184
1687769642.162,31.738,-38.086,-16.113,-32.715,-41.504
1687769642.166,25.391,-32.715,-16.602,-17.578,54.688
1687769642.170,22.949,-32.715,-19.531,-21.484,199.707
1687769642.173,10.254,-41.992,-22.949,-38.574,134.277
1687769642.177,26.855,-36.133,-23.438,-59.570,-51.270
1687769642.181,26.855,-36.621,-37.109,-51.270,-47.363
1687769642.185,1.465,-39.551,-43.945,-35.645,187.988
1687769642.189,2.441,-36.621,-26.855,-51.758,116.699
1687769642.193,14.160,-34.180,-26.367,-56.641,-151.855
1687769642.197,14.648,-29.297,-34.668,-38.086,-18.555
1687769642.201,15.137,-26.367,-35.645,-20.996,275.391
1687769642.205,18.555,-35.156,-31.250,-14.648,141.602
1687769642.209,30.273,-38.086,-35.156,-6.836,-35.156
1687769642.213,29.785,-20.996,-36.621,-4.883,166.504
1687769642.217,17.578,-18.555,-38.086,-27.344,322.266
1687769642.220,12.207,-28.809,-44.434,-27.344,69.336
1687769642.224,6.836,-40.039,-45.898,-20.508,-46.875
1687769642.228,20.508,-45.898,-39.551,-18.555,115.723
1687769642.232,20.996,-41.016,-36.133,-28.809,173.340
1687769642.236,11.230,-44.922,-44.922,-49.316,-57.129
1687769642.252,18.555,-51.270,-48.340,-38.086,-102.051
1687769642.256,15.137,-56.152,-47.363,-32.227,12.207
1687769642.260,14.160,-55.176,-48.340,-52.734,62.988
1687769642.264,20.020,-52.734,-39.551,-53.223,74.219
1687769642.268,4.395,-59.570,-39.062,-57.129,-1.953
1687769642.272,4.883,-46.875,-52.734,-50.293,266.113
1687769642.276,-3.418,-43.457,-59.082,-55.176,406.250
1687769642.279,-27.832,-59.082,-52.246,-79.102,54.199
1687769642.283,-42.480,-56.641,-41.504,-83.984,-33.203
1687769642.287,-46.875,-43.945,-39.062,-96.680,48.340
1687769642.291,-62.012,-28.809,-35.156,-134.277,-19.043
1687769642.295,-95.703,-32.715,-19.043,-160.156,-63.477
1687769642.296,-103.516,-32.715,-3.418,-152.344,14.160
1687769642.300,-124.023,-23.926,9.277,-179.688,44.434
1687769642.304,-162.598,-21.484,11.230,-233.887,-76.660
1687769642.308,-179.688,-23.926,17.090,-241.211,-95.215
1687769642.312,-193.359,-17.090,30.762,-230.469,-3.906
1687769642.316,-207.520,-7.812,41.016,-258.789,61.523
1687769642.320,-227.051,-3.906,53.711,-285.156,47.852
1687769642.323,-252.441,2.930,59.082,-291.504,-16.602
1687769642.327,-242.676,-0.977,53.223,-284.180,119.629
1687769642.331,-239.746,4.395,51.758,-268.555,219.727
1687769642.335,-251.465,14.160,50.293,-279.297,-29.785
1687769642.339,-233.398,-1.465,41.016,-275.391,-125.977
1687769642.341,-223.145,-3.418,30.273,-255.859,-13.672
1687769642.345,-215.820,5.371,22.461,-251.465,29.785
1687769642.349,-201.172,3.418,13.184,-227.051,11.719
1687769642.353,-199.707,9.277,6.348,-204.102,58.105
1687769642.357,-185.547,18.066,-9.766,-209.961,194.824
1687769642.361,-158.691,5.371,-21.484,-186.523,223.145
1687769642.365,-133.789,-7.324,-15.625,-155.762,0.977
1687769642.368,-119.141,-11.230,-17.090,-143.066,-47.363
1687769642.372,-107.422,-27.832,-23.926,-122.559,221.191
1687769642.376,-84.961,-32.715,-33.691,-94.727,194.336
1687769642.380,-67.383,-33.203,-48.340,-72.754,-93.262
1687769642.384,-41.504,-34.180,-55.664,-57.617,-43.945
1687769642.387,3.418,-38.574,-55.664,-23.926,-1.465
1687769642.391,18.555,-48.340,-64.941,-13.184,35.156
1687769642.395,17.578,-47.363,-77.637,-18.555,18.066
1687769642.399,28.809,-51.270,-74.707,7.812,151.855
1687769642.403,42.480,-52.246,-64.941,29.785,227.539
1687769642.407,57.129,-36.621,-63.965,45.898,96.191
1687769642.411,58.594,-39.551,-76.660,45.410,45.410
1687769642.414,50.293,-50.781,-91.309,39.551,100.586
1687769642.418,56.152,-62.012,-85.938,42.969,239.746
1687769642.422,64.453,-70.312,-91.797,36.133,77.637
1687769642.426,72.266,-64.941,-102.051,62.500,-17.578
1687769642.430,74.219,-61.035,-86.914,91.309,70.801
1687769642.432,50.781,-69.336,-81.543,92.773,33.691
1687769642.436,64.941,-80.078,-101.562,77.148,-50.293
1687769642.440,76.660,-83.008,-109.863,64.453,-3.906
1687769642.444,74.219,-82.031,-109.375,86.426,146.973
1687769642.448,86.426,-78.613,-107.910,113.281,148.438
1687769642.452,80.566,-76.660,-105.469,104.004,53.223
1687769642.456,78.613,-63.965,-101.562,97.656,63.965
1687769642.459,74.707,-48.828,-94.238,93.750,338.867
1687769642.463,85.938,-49.805,-90.820,86.426,368.652
1687769642.467,95.703,-64.941,-78.613,104.980,27.832
1687769642.471,79.102,-68.359,-71.777,104.492,31.738
1687769642.475,75.195,-50.781,-71.777,85.449,26.855
1687769642.477,89.844,-40.039,-73.242,82.031,-70.801
1687769642.481,100.098,-41.504,-68.359,79.102,-61.035
1687769642.485,99.121,-35.156,-42.969,90.820,79.590
1687769642.489,86.914,-26.855,-28.809,93.750,78.125
1687769642.493,87.402,-30.273,-24.902,83.496,48.828
1687769642.497,99.609,-29.297,-27.344,83.984,120.117
1687769642.501,96.191,-21.973,-29.297,93.262,243.164
1687769642.504,84.473,-21.484,-20.508,105.957,375.488
1687769642.508,72.754,-25.391,-15.625,110.840,183.105
1687769642.512,68.848,-28.320,-22.461,86.426,-29.785
1687769642.516,62.988,-26.367,-31.250,67.383,12.207
1687769642.520,65.430,-30.273,-20.020,86.914,86.914
1687769642.522,62.500,-41.992,-11.230,88.867,60.059
1687769642.526,55.176,-45.410,-15.137,74.219,34.180
1687769642.530,48.828,-48.340,-14.160,59.570,114.746
1687769642.534,42.480,-51.270,-11.230,60.059,70.312
1687769642.538,49.805,-57.617,-19.043,52.246,-65.918
1687769642.542,40.039,-55.664,-27.344,49.805,-52.734
1687769642.546,38.574,-47.852,-19.531,67.871,232.422
1687769642.549,31.738,-53.711,-21.484,59.082,205.078
1687769642.553,16.113,-70.312,-29.785,61.523,-125.488
1687769642.557,13.672,-86.914,-33.691,47.852,-51.270
1687769642.561,22.461,-83.496,-45.898,42.480,280.762
1687769642.565,41.992,-76.172,-44.434,65.430,204.102
1687769642.582,41.504,-68.359,-25.391,71.777,-110.352
1687769642.586,36.621,-59.570,-23.438,57.129,-64.453
1687769642.590,39.062,-59.570,-25.879,47.363,-11.230
1687769642.594,39.551,-54.688,-21.973,69.336,-49.316
1687769642.598,33.691,-41.016,-22.949,80.078,-84.961
1687769642.602,31.738,-28.809,-22.949,71.777,109.863
1687769642.606,36.133,-28.320,-33.691,55.664,211.914
1687769642.609,25.391,-43.945,-37.109,63.965,-18.066
1687769642.613,35.156,-56.641,-25.879,71.289,-33.691
1687769642.617,36.621,-45.898,-34.180,71.289,66.895
1687769642.621,24.902,-32.227,-34.180,77.148,87.402
1687769642.625,30.273,-27.344,-21.484,77.637,-46.875
1687769642.615,28.809,-31.738,-18.066,83.984,3.906
1687769642.619,33.691,-31.250,-19.531,76.660,149.902
1687769642.623,40.039,-26.855,-24.902,75.684,122.559
1687769642.627,29.297,-28.320,-28.320,64.941,13.184
1687769642.631,30.273,-28.320,-30.762,53.711,-13.184
1687769642.635,52.734,-31.738,-28.809,61.035,82.520
1687769642.639,45.410,-40.039,-29.297,45.898,58.105
1687769642.642,24.414,-36.133,-25.879,44.434,-39.551
1687769642.646,24.902,-22.949,-22.461,60.547,-42.969
1687769642.650,35.156,-16.602,-25.879,53.711,132.324
1687769642.654,32.227,-22.949,-20.020,38.086,146.973
1687769642.658,45.898,-20.996,-18.555,28.320,-44.922
1687769642.687,67.871,-11.230,-20.020,36.621,8.789
1687769642.691,53.711,-14.160,-22.949,40.039,90.820
1687769642.695,43.945,-23.438,-21.973,30.762,56.152
1687769642.699,42.480,-26.367,-16.113,21.973,23.438
1687769642.703,33.691,-11.719,-12.695,18.555,24.414
1687769642.707,41.016,2.441,-12.695,32.227,336.914
1687769642.711,46.387,3.906,-17.090,37.598,366.699
1687769642.714,48.340,11.719,-20.508,12.695,8.789
1687769642.718,43.945,7.812,-16.113,-18.066,69.336
1687769642.722,37.109,-4.883,-14.648,-31.250,103.516
1687769642.726,45.898,-4.883,-27.344,-35.156,-90.332
1687769642.730,41.992,0.977,-22.949,-26.367,-80.566
1687769642.717,31.250,-11.719,-7.812,-33.691,-20.996
1687769642.721,29.785,-23.438,-7.812,-48.340,-96.680
1687769642.725,35.645,-13.672,-14.160,-58.594,-23.926
1687769642.729,40.039,-10.254,-6.836,-53.711,14.648
1687769642.733,38.574,-14.160,-5.371,-35.645,168.457
1687769642.737,39.551,-24.414,-19.531,-40.527,260.742
1687769642.741,36.621,-30.273,-33.203,-62.500,16.113
1687769642.744,30.762,-31.250,-31.738,-59.082,-4.395
1687769642.748,46.875,-27.832,-18.066,-38.574,117.676
1687769642.752,50.781,-26.855,-19.531,-33.691,31.250
1687769642.756,47.852,-17.090,-12.695,-41.504,-107.910
1687769642.760,56.641,-3.418,-9.766,-46.387,-54.688
1687769642.761,44.434,-3.906,-27.344,-51.758,102.051
1687769642.765,20.020,3.906,-35.645,-62.988,70.312
1687769642.769,11.230,7.812,-36.133,-53.223,-19.043
1687769642.773,1.465,-8.301,-29.785,-41.016,63.477
1687769642.777,-0.977,-12.207,-32.227,-51.758,161.621
1687769642.781,16.602,-4.395,-33.691,-62.988,114.258
1687769642.785,27.344,-11.230,-23.926,-54.688,107.422
1687769642.788,20.996,-19.531,-26.367,-45.410,263.184
1687769642.792,5.371,-14.648,-26.855,-37.109,421.387
1687769642.796,16.113,-2.930,-23.438,-56.152,148.438
1687769642.800,27.832,-7.324,-21.484,-69.336,-41.992
1687769642.804,19.043,-14.648,-23.926,-64.453,-47.852
1687769642.806,14.160,-31.738,-29.785,-52.246,-88.867
1687769642.810,-10.742,-44.434,-33.691,-53.711,-105.957
1687769642.814,-28.809,-37.598,-39.062,-73.242,-89.355
1687769642.818,-14.648,-37.598,-51.758,-69.824,118.652
1687769642.822,-10.254,-42.480,-56.152,-72.754,92.285
1687769642.826,-15.625,-44.922,-42.480,-65.918,23.438
1687769642.830,-0.488,-37.598,-31.250,-48.828,100.586
1687769642.833,-4.395,-37.109,-30.762,-62.012,187.500
1687769642.837,-15.137,-44.922,-47.852,-64.941,168.945
1687769642.841,2.930,-43.457,-68.848,-47.363,-4.883
1687769642.845,17.578,-36.133,-62.012,-50.781,124.512
1687769642.849,0.977,-32.227,-52.246,-60.547,213.867
1687769642.852,-19.531,-31.250,-46.875,-56.152,21.973
1687769642.856,-12.695,-36.133,-44.434,-63.477,-118.652
1687769642.860,9.277,-35.645,-56.152,-62.988,-19.531
1687769642.864,9.766,-22.949,-48.828,-45.898,10.254
1687769642.868,1.465,-18.066,-36.133,-49.805,-78.613
1687769642.872,1.465,-17.578,-36.621,-56.152,-78.125
1687769642.876,7.812,-17.090,-35.645,-50.781,92.285
1687769642.879,4.395,-29.297,-41.504,-38.086,163.574
1687769642.883,-2.441,-21.484,-39.551,-46.387,-27.832
1687769642.887,1.953,-16.602,-33.691,-50.781,-48.340
1687769642.891,4.395,-35.156,-25.391,-50.293,-59.570
1687769642.895,-5.371,-37.598,-19.043,-67.871,7.324
1687769642.897,7.324,-22.461,-18.066,-64.453,65.430
1687769642.901,20.508,-11.230,-9.766,-41.016,-64.941
1687769642.905,-5.859,-6.836,-14.648,-18.066,307.129
1687769642.909,-4.883,1.465,-6.348,-17.090,399.902
1687769642.913,10.742,-5.859,-8.301,-42.480,-23.438
1687769642.917,2.441,-15.137,-22.949,-50.781,19.531
1687769642.921,-0.488,-10.254,-12.695,-30.762,309.570
1687769642.924,-3.906,-10.742,-6.348,-28.809,217.285
1687769642.928,-8.789,-19.531,-13.184,-52.246,-97.656
1687769642.932,2.441,-20.508,-16.602,-55.176,-37.598
1687769642.936,-0.977,-16.113,-7.812,-45.410,-0.488
1687769642.940,-12.207,-26.855,-19.043,-44.922,-51.758
1687769642.945,-16.602,-38.086,-27.344,-24.902,-64.453
1687769642.949,-3.906,-38.574,-14.160,-16.602,-20.996
1687769642.953,3.418,-24.414,-17.578,-30.762,9.766
1687769642.957,-2.930,-22.949,-21.973,-29.785,-14.160
1687769642.961,0.488,-21.973,-19.531,-14.160,-43.945
1687769642.965,5.371,-12.207,-22.949,-7.324,78.125
1687769642.969,7.812,-30.273,-28.320,-8.301,375.488
1687769642.972,0.000,-31.250,-42.480,-21.973,175.781
1687769642.976,-2.930,-19.531,-39.062,-34.180,-81.055
1687769642.980,-2.930,-33.203,-39.551,-36.621,-3.418
1687769642.984,-1.953,-42.480,-55.664,-35.156,44.434
1687769642.988,-9.277,-41.504,-56.152,-21.484,0.977
1687769643.001,-33.203,-51.758,-39.551,-28.320,-65.918
1687769643.005,-27.832,-55.176,-28.809,-36.621,-52.246
1687769643.009,-7.812,-48.828,-20.508,-13.672,41.992
1687769643.013,-2.441,-41.016,-13.184,-0.977,101.074
1687769643.017,-3.418,-38.574,-19.043,-6.836,119.141
1687769643.021,-4.883,-38.574,-31.250,-4.395,406.250
1687769643.025,-0.977,-28.809,-30.273,-11.230,526.855
1687769643.028,13.184,-33.203,-31.738,-28.320,91.797
1687769643.032,19.531,-37.598,-39.551,-13.184,-64.453
1687769643.036,9.277,-45.410,-41.992,1.953,50.781
1687769643.040,-4.395,-52.246,-40.039,-14.648,15.137
1687769643.044,-6.348,-50.781,-39.551,-36.621,-71.777
1687769643.047,16.602,-53.711,-50.781,-19.043,7.324
1687769643.051,26.855,-60.547,-54.199,0.000,76.172
1687769643.055,22.949,-48.340,-40.527,3.418,18.555
1687769643.059,26.367,-35.156,-34.180,14.648,-13.184
1687769643.063,11.719,-38.574,-31.250,-0.977,45.898
1687769643.067,8.301,-37.109,-29.785,-5.859,161.133
1687769643.071,20.996,-46.875,-32.227,8.301,173.828
1687769643.074,16.602,-56.152,-35.645,-3.418,129.395
1687769643.078,8.301,-45.410,-31.738,-14.160,151.855
1687769643.082,2.930,-39.062,-27.344,-20.508,126.953
1687769643.086,0.977,-45.410,-23.926,-24.414,-40.527
1687769643.090,7.812,-47.852,-8.789,-11.230,-143.555
1687769643.091,9.277,-35.645,-9.766,11.719,107.422
1687769643.095,-3.418,-33.691,-21.484,0.977,209.473
1687769643.099,-4.883,-40.527,-18.555,-20.508,-19.043
1687769643.103,-0.488,-30.762,-12.695,-24.902,-23.926
1687769643.107,6.348,-24.902,-8.301,-24.414,82.520
1687769643.111,2.930,-17.578,-3.906,-13.672,101.074
1687769643.115,-5.371,-13.184,-11.719,-19.531,-51.270
1687769643.118,-0.488,-15.625,-20.996,-34.180,-96.680
1687769643.122,15.625,-15.625,-17.090,-37.598,156.738
1687769643.126,12.207,-7.324,-15.137,-26.367,289.551
1687769643.130,4.883,-11.719,-11.230,-10.742,20.996
1687769643.134,15.625,-21.484,-20.996,-22.461,-9.766
1687769643.136,20.996,-23.438,-32.227,-30.762,36.621
1687769643.140,13.184,-31.738,-26.367,-29.297,-49.316
1687769643.144,10.742,-26.367,-24.902,-34.668,-83.984
1687769643.148,12.207,-10.254,-23.926,-20.020,31.738
1687769643.152,-3.906,-6.836,-26.855,-21.484,77.148
1687769643.156,-14.648,-20.996,-38.086,-23.438,38.574
1687769643.160,-12.695,-32.715,-41.504,-24.902,-70.801
1687769643.163,-8.301,-30.762,-36.621,-28.320,54.199
1687769643.167,-20.996,-37.109,-30.273,-9.277,248.535
1687769643.171,-35.645,-45.898,-35.156,-19.531,48.340
1687769643.175,-29.297,-35.156,-45.410,-34.668,-89.844
1687769643.179,-25.879,-28.809,-46.387,-39.062,-17.578
1687769643.196,-28.320,-30.762,-42.969,-49.805,0.488
1687769643.200,-23.438,-28.809,-42.969,-42.480,-76.172
1687769643.204,-19.043,-29.785,-41.992,-27.344,-50.781
1687769643.208,-26.367,-33.203,-35.645,-31.250,118.164
1687769643.212,-31.250,-36.621,-36.133,-47.852,87.891
1687769643.216,-36.133,-40.039,-41.016,-54.688,-32.715
1687769643.220,-45.410,-50.293,-41.992,-48.828,68.359
1687769643.223,-47.363,-47.363,-41.016,-42.480,269.043
1687769643.227,-57.617,-46.875,-44.434,-72.754,241.211
1687769643.231,-43.457,-38.086,-41.504,-77.637,-10.742
1687769643.235,-49.805,-21.484,-39.551,-70.801,19.043
1687769643.239,-72.754,-15.137,-41.016,-99.609,32.715
1687769643.228,-99.121,-24.902,-42.480,-132.812,-4.395
1687769643.232,-131.348,-31.250,-46.387,-162.598,-28.809
1687769643.236,-141.602,-12.695,-30.762,-183.105,83.984
1687769643.240,-156.738,-20.996,-17.578,-211.426,72.754
1687769643.244,-154.297,-22.949,-13.184,-212.891,-115.234
1687769643.248,-171.387,-8.301,20.020,-214.355,-96.191
1687769643.252,-222.656,-19.531,50.293,-267.578,112.793
1687769643.255,-252.441,-20.996,53.711,-299.805,86.914
1687769643.259,-256.836,-12.207,49.805,-307.617,-101.562
1687769643.263,-258.789,-10.254,51.758,-327.148,-165.527
1687769643.267,-273.438,-16.113,61.035,-311.523,34.668
1687769643.271,-293.457,-23.926,55.664,-314.941,215.820
1687769643.271,-294.434,-23.438,55.664,-357.422,-48.828
1687769643.275,-273.438,-15.625,66.895,-353.027,-142.090
1687769643.279,-263.672,-12.695,68.359,-322.266,32.715
1687769643.283,-259.277,-18.066,63.477,-318.359,42.969
1687769643.287,-244.629,-18.066,43.945,-302.734,1.953
1687769643.291,-217.285,-26.855,40.527,-279.785,86.914
1687769643.295,-196.289,-1.465,50.293,-273.438,271.973
1687769643.298,-181.152,34.180,41.992,-236.328,385.742
1687769643.302,-169.922,18.066,26.855,-216.797,108.887
1687769643.306,-157.227,5.371,22.949,-211.426,-28.809
1687769643.310,-137.207,-9.766,18.066,-200.195,-33.203
1687769643.314,-112.793,-30.762,5.859,-196.289,-56.152
1687769643.317,-80.078,-35.156,-8.301,-157.227,-53.711
1687769643.321,-61.523,-36.133,-17.578,-115.234,-26.367
1687769643.325,-55.176,-31.738,-17.090,-109.375,26.855
1687769643.329,-49.316,-45.410,-28.809,-111.328,-19.043
1687769643.333,-24.902,-59.082,-46.387,-107.910,-118.164
1687769643.337,1.465,-52.734,-52.246,-84.473,95.703
1687769643.341,11.230,-52.734,-56.152,-46.387,324.707
1687769643.344,22.461,-64.453,-66.406,-26.855,142.578
1687769643.348,38.086,-72.266,-71.289,-34.180,-43.457
1687769643.352,52.734,-64.453,-69.336,-27.832,77.637
1687769643.356,74.219,-63.477,-73.242,-6.836,196.777
1687769643.360,81.055,-62.500,-72.754,0.000,-22.461
1687769643.376,78.125,-61.523,-75.195,15.137,-48.828
1687769643.380,100.586,-54.688,-80.078,37.109,26.367
1687769643.384,124.512,-48.828,-83.008,24.902,-9.766
1687769643.388,133.301,-41.016,-84.961,23.926,-33.203
1687769643.392,133.301,-35.156,-78.613,45.898,-62.500
1687769643.396,125.977,-35.156,-77.148,62.988,210.449
1687769643.400,125.977,-30.273,-96.191,75.684,327.637
1687769643.403,137.207,-29.785,-102.051,53.711,-35.645
1687769643.407,138.672,-42.969,-75.684,43.457,-57.617
1687769643.411,139.160,-48.340,-57.129,76.172,172.363
1687769643.415,146.973,-29.785,-51.758,89.844,111.328
1687769643.419,133.789,-34.180,-59.570,70.801,-87.891
1687769643.421,125.488,-52.246,-63.965,47.363,-41.016
1687769643.425,123.535,-49.316,-55.664,53.711,32.715
1687769643.429,134.277,-41.504,-60.547,70.801,-24.902
1687769643.433,127.441,-36.133,-69.824,70.312,-51.270
1687769643.437,93.262,-45.898,-74.219,63.965,59.570
1687769643.441,86.426,-53.711,-67.871,50.781,74.707
1687769643.445,77.148,-34.180,-69.824,50.293,-7.324
1687769643.448,68.359,-21.973,-77.637,60.059,-29.785
1687769643.452,66.406,-28.320,-83.984,62.500,109.863
1687769643.456,51.270,-39.062,-90.332,49.805,141.602
1687769643.460,49.805,-38.086,-72.266,32.715,43.945
1687769643.464,63.477,-32.227,-66.895,33.691,88.379
1687769643.467,64.453,-41.992,-76.172,51.758,215.820
1687769643.471,57.129,-45.898,-68.848,47.852,306.641
1687769643.475,51.270,-52.246,-64.941,28.320,110.352
1687769643.479,48.828,-56.641,-75.684,18.066,45.410
1687769643.483,38.086,-40.527,-82.031,8.789,120.605
1687769643.487,48.828,-31.738,-72.754,24.902,150.391
1687769643.491,66.406,-34.668,-69.336,25.391,95.215
1687769643.494,69.824,-31.738,-77.637,16.602,19.531
1687769643.498,66.406,-31.738,-69.336,11.230,127.930
1687769643.502,59.082,-35.156,-64.941,0.488,122.559
1687769643.506,64.453,-35.645,-65.430,-7.812,-105.957
1687769643.510,85.938,-37.598,-44.922,5.859,-65.430
1687769643.511,79.590,-29.785,-42.480,18.066,51.758
1687769643.515,61.035,-16.113,-65.918,3.906,54.199
1687769643.519,82.031,-5.859,-65.918,10.742,-6.348
1687769643.523,83.984,3.418,-52.246,15.625,85.449
1687769643.527,71.289,-0.977,-51.270,8.789,127.930
1687769643.531,68.848,-16.602,-59.570,8.301,12.207
1687769643.535,54.688,-24.414,-63.965,-8.789,22.461
1687769643.538,55.176,-20.996,-62.988,-20.508,106.445
1687769643.542,69.336,-27.832,-60.059,-1.953,317.383
1687769643.546,65.430,-43.945,-55.664,0.000,104.492
1687769643.550,59.570,-35.156,-61.035,-17.578,-123.535
1687769643.554,64.453,-21.973,-55.664,-18.555,4.883
1687769643.556,62.500,-21.484,-49.805,-18.555,-7.812
1687769643.560,70.312,-27.832,-44.922,-14.648,-100.098
1687769643.564,83.984,-35.645,-39.551,-4.395,-29.785
1687769643.568,74.219,-46.387,-47.852,6.348,326.660
1687769643.572,52.734,-50.781,-56.641,-1.953,344.727
1687769643.576,49.316,-43.945,-61.523,-28.809,-25.391
1687769643.580,55.664,-39.062,-50.293,-33.691,-64.941
1687769643.583,59.082,-24.414,-34.180,-21.973,229.492
1687769643.587,62.988,-17.578,-46.875,-20.996,239.746
1687769643.591,50.293,-23.438,-54.199,-41.504,-68.848
1687769643.595,74.707,-29.785,-53.711,-34.668,-63.477
1687769643.599,102.051,-30.273,-50.293,-14.648,-50.293
1687769643.602,51.758,-43.457,-26.855,-27.832,-104.492
1687769643.606,25.391,-50.293,-29.785,-40.039,-76.660
1687769643.610,38.086,-53.223,-47.852,-57.129,-26.855
1687769643.614,37.109,-50.293,-54.688,-72.754,-15.137
1687769643.618,24.414,-39.062,-43.457,-68.359,-86.426
1687769643.622,8.301,-41.504,-38.574,-74.707,-77.637
1687769643.626,10.254,-42.969,-35.156,-71.289,193.848
1687769643.629,-5.371,-40.039,-35.645,-77.637,339.355
1687769643.633,-27.832,-38.086,-47.852,-100.586,27.832
1687769643.637,-21.484,-40.527,-49.805,-108.887,-169.922
1687769643.641,11.719,-26.855,-52.734,-81.055,83.496
1687769643.645,6.836,-24.414,-58.105,-56.641,239.746
1687769643.646,-15.625,-32.715,-62.500,-64.453,27.832
1687769643.650,-9.766,-29.297,-62.012,-69.824,-72.754
1687769643.654,-1.465,-25.879,-58.594,-70.801,9.277
1687769643.658,16.602,-23.926,-60.547,-65.918,23.438
1687769643.662,13.672,-30.762,-63.965,-53.223,-60.547
1687769643.666,-8.301,-32.227,-59.570,-51.758,-21.484
1687769643.670,-23.926,-20.996,-55.664,-60.059,222.656
1687769643.673,-32.715,-23.438,-57.617,-65.430,289.551
1687769643.677,-28.320,-32.227,-62.500,-50.781,25.391
1687769643.681,-14.160,-22.949,-51.758,-34.668,18.555
1687769643.685,-7.324,-20.020,-47.363,-38.086,98.633
1687769643.689,-6.348,-25.391,-55.664,-53.223,8.301
1687769643.706,-19.531,-30.762,-59.082,-64.453,-80.078
1687769643.710,-4.395,-22.949,-52.246,-55.176,-31.250
1687769643.714,7.812,-17.578,-52.246,-38.574,50.293
1687769643.718,-6.348,-28.809,-62.988,-39.551,15.625
1687769643.722,2.930,-31.250,-68.359,-47.852,-50.293
1687769643.726,-1.465,-38.574,-54.688,-51.270,118.164
1687769643.730,0.488,-37.598,-32.715,-41.504,206.543
1687769643.733,6.836,-28.809,-27.832,-32.715,79.102
1687769643.737,-1.465,-29.297,-35.645,-24.902,6.836
1687769643.741,8.301,-30.762,-43.457,-12.207,118.652
1687769643.745,16.602,-39.062,-45.898,-18.555,156.738
1687769643.749,25.391,-37.109,-36.133,-17.578,5.859
1687769643.751,20.020,-41.504,-39.551,-18.066,3.418
1687769643.755,9.277,-41.992,-48.340,-10.742,144.531
1687769643.759,17.578,-34.668,-42.969,-9.277,226.074
1687769643.763,8.789,-51.270,-43.457,-39.062,50.293
1687769643.767,3.906,-50.293,-45.898,-45.898,-78.613
1687769643.771,15.625,-38.086,-59.570,-21.973,172.852
1687769643.775,19.043,-38.574,-72.754,-26.367,186.035
1687769643.778,9.277,-35.156,-55.176,-42.969,-47.852
1687769643.782,-2.441,-39.062,-46.387,-43.945,-128.906
1687769643.786,-1.465,-53.223,-47.363,-37.598,184.570
1687769643.790,4.883,-45.898,-43.945,-21.973,260.254
1687769643.794,9.277,-29.785,-46.875,-23.926,-13.672
1687769643.796,6.836,-34.180,-51.270,-25.391,110.352
1687769643.800,-7.324,-42.969,-47.363,-34.180,104.980
1687769643.804,-1.953,-31.250,-38.574,-41.504,-57.129
1687769643.808,8.301,-18.555,-45.898,-29.785,-105.957
1687769643.812,12.207,-20.996,-48.828,-13.184,45.898
1687769643.816,9.277,-28.809,-34.180,-16.113,196.289
1687769643.820,-3.418,-37.598,-46.387,-41.016,119.629
1687769643.823,5.859,-33.203,-58.105,-47.363,-13.672
1687769643.827,33.691,-29.297,-36.621,-22.949,143.555
1687769643.831,24.414,-31.738,-22.949,2.441,284.668
1687769643.835,13.672,-44.434,-32.715,-11.719,23.926
1687769643.839,24.414,-53.223,-36.621,-37.598,-64.941
1687769643.841,32.227,-39.551,-35.156,-28.809,-44.434
1687769643.845,24.902,-44.922,-41.992,-29.785,-44.922
1687769643.849,10.742,-61.035,-46.875,-34.180,54.199
1687769643.853,8.301,-51.758,-49.805,-39.551,118.164
1687769643.857,16.113,-38.086,-52.246,-40.039,309.082
1687769643.861,14.160,-32.227,-54.688,-42.969,379.883
1687769643.865,22.461,-29.785,-48.828,-44.922,80.078
1687769643.868,30.762,-34.668,-26.367,-30.762,-33.691
1687769643.872,38.086,-32.227,-14.648,-24.414,107.910
1687769643.876,33.203,-27.832,-14.648,-19.531,129.883
1687769643.880,16.602,-24.902,-10.254,-53.223,-49.316
1687769643.884,17.578,-33.691,-18.066,-62.988,-37.109
1687769643.887,22.461,-39.062,-26.367,-24.902,26.855
1687769643.891,19.531,-28.320,-20.020,-29.297,-10.742
1687769643.895,9.766,-35.645,-23.438,-62.012,-93.750
1687769643.899,17.578,-44.922,-24.902,-53.711,-21.973
1687769643.903,20.508,-31.250,-22.949,-30.273,21.484
1687769643.907,22.949,-31.738,-26.367,-20.020,74.707
1687769643.911,18.066,-35.645,-27.832,-24.414,104.980
1687769643.914,-4.395,-27.832,-30.762,-29.785,101.074
1687769643.918,-9.277,-32.715,-30.762,-45.898,281.738
1687769643.922,-3.906,-38.574,-37.598,-68.359,129.883
1687769643.926,4.395,-26.855,-47.852,-68.359,-119.141
1687769643.930,-4.395,-26.367,-47.363,-67.871,-27.832
1687769643.932,-27.832,-41.504,-41.992,-67.383,42.480
1687769643.936,-15.625,-44.922,-37.109,-72.266,-17.090
1687769643.940,0.977,-35.156,-34.668,-67.383,22.949
1687769643.944,-6.836,-37.109,-28.320,-55.176,178.223
1687769643.948,6.348,-36.621,-21.973,-44.434,96.191
1687769643.952,9.277,-34.668,-23.438,-40.527,12.207
1687769643.956,10.742,-41.504,-17.578,-57.129,22.461
1687769643.959,17.090,-47.363,-13.184,-61.035,238.281
1687769643.963,22.461,-46.387,-27.832,-55.664,311.523
1687769643.967,21.973,-45.410,-38.574,-71.289,-15.625
1687769643.971,0.977,-45.410,-39.062,-78.125,12.695
1687769643.975,-14.160,-49.805,-41.504,-71.289,47.852
1687769643.986,-8.301,-47.852,-32.227,-60.059,-19.531
1687769643.990,-0.977,-42.969,-30.273,-53.223,16.602
1687769643.994,0.000,-45.410,-36.621,-41.016,58.105
1687769643.998,4.883,-35.156,-46.387,-39.062,18.066
1687769644.002,10.742,-32.227,-44.434,-52.246,22.949
1687769644.006,15.625,-33.691,-34.180,-49.805,40.039
1687769644.010,24.414,-42.969,-33.203,-26.367,229.980
1687769644.013,16.113,-52.734,-42.480,-9.277,345.215
1687769644.017,-12.695,-46.387,-39.062,-27.832,35.156
1687769644.021,-12.207,-38.086,-40.527,-51.758,-110.352
1687769644.025,-2.441,-51.270,-51.758,-39.062,-20.508
1687769644.029,11.719,-62.012,-37.598,-32.715,-11.230
1687769644.021,13.672,-56.152,-30.762,-35.156,-38.086
1687769644.025,2.930,-59.082,-32.227,-33.203,-63.965
1687769644.029,-0.488,-72.754,-28.320,-36.621,92.773
1687769644.033,1.465,-79.102,-40.527,-39.062,190.430
1687769644.037,3.906,-70.801,-46.387,-38.574,-26.367
1687769644.041,-12.695,-59.570,-41.992,-34.668,-34.180
1687769644.045,-21.484,-56.152,-32.715,-26.367,300.293
1687769644.048,-11.230,-56.641,-24.414,-25.879,349.121
1687769644.052,4.395,-47.852,-12.695,-37.598,-8.789
1687769644.056,17.578,-39.062,6.348,-37.109,-83.008
1687769644.060,13.184,-42.969,3.418,-31.738,-32.227
1687769644.064,4.395,-41.016,-1.465,-27.344,-24.414
1687769644.069,9.766,-43.945,-6.348,-40.527,-25.391
1687769644.073,17.090,-37.598,-16.602,-38.086,94.238
1687769644.077,23.926,-27.832,-14.648,-34.668,133.301
1687769644.081,15.137,-23.438,-21.484,-49.316,-49.805
1687769644.085,-1.465,-7.324,-38.086,-35.156,-148.438
1687769644.089,3.418,-14.648,-23.926,-22.949,62.012
1687769644.093,1.465,-25.879,-1.465,-36.133,172.852
1687769644.096,7.324,-23.438,-7.324,-35.645,-30.762
1687769644.100,18.066,-23.926,-2.441,-25.391,-76.172
1687769644.104,19.531,-30.273,-2.930,-14.160,114.258
1687769644.108,8.301,-26.367,-10.254,-22.949,158.203
1687769644.112,4.883,-9.277,-9.277,-49.805,-86.426
1687769644.127,13.184,-18.555,-16.113,-30.273,-53.711
1687769644.131,13.184,-43.945,-14.648,-14.648,39.551
1687769644.135,14.160,-31.738,-8.301,-28.320,64.941
1687769644.139,17.090,-21.973,-11.230,-30.273,98.633
1687769644.143,5.859,-33.203,-25.879,-41.992,-41.016
1687769644.147,-5.371,-11.230,-20.996,-34.180,129.883
1687769644.151,-16.113,-1.953,-15.137,-15.137,572.266
1687769644.154,-12.695,-21.484,-22.949,-30.762,309.570
1687769644.158,0.977,-23.438,-23.926,-40.527,-43.457
1687769644.162,-4.395,-28.809,-24.414,-41.504,-35.156
1687769644.166,-12.207,-49.805,-15.625,-40.527,-58.594
1687769644.170,-19.043,-43.945,-6.348,-28.320,-75.684
1687769644.171,-15.625,-33.203,-4.883,-29.785,-33.691
1687769644.175,-0.977,-26.367,-11.719,-47.852,41.992
1687769644.179,6.348,-20.996,-12.207,-60.059,13.184
1687769644.183,4.395,-23.438,-13.672,-41.016,-55.176
1687769644.187,19.043,-18.066,-16.602,-17.090,-5.859
1687769644.191,24.902,-16.602,-8.301,-17.578,51.270
1687769644.195,-6.836,-17.578,-6.348,-30.273,44.922
1687769644.198,-18.555,-14.648,-14.648,-44.922,85.449
1687769644.202,-11.719,-13.184,-16.113,-53.223,162.109
1687769644.206,-9.277,-10.742,-9.766,-40.527,314.453
1687769644.210,4.395,-8.789,-5.371,-24.902,127.930
1687769644.214,17.578,0.488,9.766,-20.996,-42.969
1687769644.216,28.320,-2.930,23.438,-10.742,-17.578
1687769644.220,27.832,-6.348,13.184,-24.414,-26.855
1687769644.224,2.441,-21.484,-1.953,-52.734,16.602
1687769644.228,-4.395,-36.621,-1.953,-43.457,20.996
1687769644.232,4.883,-18.066,1.953,-29.297,161.133
1687769644.236,8.301,-11.230,0.000,-30.273,225.586
1687769644.240,8.789,-8.301,1.465,-33.203,31.250
1687769644.243,-4.395,-7.324,3.906,-29.785,20.020
1687769644.247,2.930,-15.625,0.977,-24.414,310.059
1687769644.251,8.789,-16.113,2.441,-21.484,333.984
1687769644.255,4.883,-3.906,1.953,-27.832,-80.078
1687769644.259,8.301,-2.441,5.371,-37.598,-96.191
1687769644.261,13.184,-9.766,8.301,-32.715,3.418
1687769644.265,16.113,-9.277,4.883,-26.367,-30.762
1687769644.269,13.672,-6.348,4.883,-36.133,-47.852
1687769644.273,14.160,3.906,4.883,-32.715,-41.992
1687769644.277,7.812,0.000,-0.488,-53.223,12.695
1687769644.281,1.953,-6.348,0.000,-62.500,77.148
1687769644.285,-20.996,-7.812,-4.395,-62.988,88.867
1687769644.288,-46.387,-13.672,-5.371,-86.426,187.988
1687769644.292,-60.059,-1.465,13.184,-100.098,271.973
1687769644.296,-96.680,2.930,31.250,-147.949,41.992
1687769644.300,-112.305,0.000,45.898,-170.410,-124.023
1687769644.304,-143.066,4.883,50.781,-170.410,-2.930
1687769644.306,-178.223,3.906,54.199,-192.871,20.020
1687769644.310,-209.961,17.578,74.707,-243.164,-165.527
1687769644.314,-241.211,18.555,82.031,-288.086,-136.719
1687769644.318,-241.211,19.043,81.543,-301.270,81.543
1687769644.322,-272.461,20.996,95.703,-298.340,85.449
1687769644.326,-304.688,6.836,91.797,-301.270,33.691
1687769644.330,-300.781,3.418,87.891,-312.012,26.367
1687769644.333,-291.504,6.836,92.285,-311.523,227.539
1687769644.337,-284.668,-2.930,87.402,-320.312,241.699
1687769644.341,-263.672,-0.488,91.309,-308.594,-28.320
1687769644.345,-251.465,22.461,107.910,-276.367,-12.207
1687769644.349,-246.582,22.461,108.398,-276.367,119.141
1687769644.354,-247.559,11.719,99.121,-272.461,77.148
1687769644.358,-235.352,17.090,99.121,-255.371,-130.859
1687769644.362,-220.215,25.879,93.750,-233.398,-63.477
1687769644.366,-212.891,18.066,80.566,-217.285,84.473
1687769644.370,-189.941,17.578,67.871,-210.449,-34.180
1687769644.374,-187.012,27.832,56.152,-211.914,-19.531
1687769644.378,-180.664,21.973,49.805,-214.355,226.074
1687769644.381,-158.691,3.906,52.246,-197.266,294.922
1687769644.385,-172.852,-17.090,46.875,-204.590,19.531
1687769644.389,-187.500,-21.484,32.227,-205.078,-49.805
1687769644.393,-173.340,-14.648,30.762,-193.848,11.719
1687769644.397,-170.898,-17.578,28.809,-188.965,-33.691
1687769644.397,-161.621,-21.973,24.414,-183.105,-45.898
1687769644.401,-156.738,-26.367,20.996,-176.758,-70.801
1687769644.405,-150.879,-28.809,9.277,-156.738,59.082
1687769644.409,-163.574,-30.762,2.441,-169.434,156.738
1687769644.413,-162.598,-37.109,1.465,-182.617,55.664
1687769644.417,-127.930,-40.039,7.812,-158.691,54.688
1687769644.421,-122.559,-27.344,9.277,-127.441,266.602
1687769644.424,-118.652,-10.254,-3.418,-112.305,398.926
1687769644.428,-110.352,-12.695,1.465,-137.695,124.512
1687769644.432,-98.633,-23.438,7.324,-137.695,8.789
1687769644.436,-97.168,-30.273,0.000,-124.023,46.387
1687769644.440,-113.281,-36.133,1.953,-125.488,-32.227
1687769644.443,-105.469,-37.598,-0.488,-112.793,-47.363
1687769644.447,-79.590,-36.133,1.465,-99.609,4.883
1687769644.451,-73.242,-30.273,0.488,-105.957,4.883
1687769644.455,-86.914,-18.066,-3.906,-99.609,-91.797
1687769644.459,-66.406,-16.602,1.953,-90.332,-29.785
1687769644.463,-43.457,-7.812,1.465,-76.660,178.711
1687769644.467,-52.734,4.395,-4.395,-61.523,307.617
1687769644.470,-39.062,-6.348,-8.789,-63.477,71.289
1687769644.474,-18.066,-16.602,-13.184,-61.035,-111.328
1687769644.478,-9.277,-29.297,-11.230,-48.340,35.156
1687769644.482,-10.742,-24.414,-3.906,-45.410,97.656
1687769644.486,-9.766,-12.695,-9.277,-40.527,27.832
1687769644.502,1.953,-23.438,-18.555,-46.387,-27.832
1687769644.506,1.953,-19.531,-13.184,-49.316,-10.254
1687769644.510,7.324,-15.137,-13.672,-38.086,36.621
1687769644.514,-2.441,-26.367,-24.902,-42.480,18.555
1687769644.518,-18.066,-36.133,-24.414,-44.922,-43.457
1687769644.522,-4.883,-35.156,-19.043,-43.945,231.445
1687769644.526,0.000,-26.367,-21.484,-50.781,342.773
1687769644.529,-8.789,-22.461,-26.367,-51.758,55.176
1687769644.533,-13.672,-31.738,-35.156,-46.875,-40.039
1687769644.537,-10.254,-39.062,-47.852,-51.270,103.027
1687769644.541,-14.648,-36.621,-49.316,-59.570,64.941
1687769644.545,-28.320,-35.156,-43.945,-62.500,-143.066
1687769644.561,-13.672,-33.691,-44.922,-56.152,-60.059
1687769644.565,-18.066,-40.039,-50.781,-53.223,13.672
1687769644.569,-34.180,-45.898,-61.035,-63.477,-30.273
1687769644.573,-45.410,-50.781,-67.871,-71.289,-71.289
1687769644.577,-50.293,-76.172,-64.453,-84.473,-16.602
1687769644.581,-15.625,-75.684,-63.477,-70.312,85.449
1687769644.585,-35.156,-58.105,-62.988,-68.359,71.777
1687769644.588,-66.895,-67.871,-61.035,-71.777,-40.527
1687769644.592,-48.340,-61.523,-69.824,-71.777,28.320
1687769644.596,-29.297,-55.176,-71.289,-87.402,349.609
1687769644.600,-28.320,-56.152,-63.477,-77.148,223.145
1687769644.604,-36.133,-55.176,-57.129,-56.641,14.648
1687769644.591,-27.344,-61.523,-72.754,-63.965,47.363
1687769644.595,-23.438,-50.293,-78.613,-68.359,22.461
1687769644.599,-22.949,-50.293,-69.824,-73.730,26.367
1687769644.603,-18.555,-54.688,-69.824,-81.543,61.035
1687769644.607,-12.207,-53.711,-47.852,-70.801,160.645
1687769644.611,-26.855,-58.594,-34.180,-74.707,208.984
1687769644.615,-53.711,-60.059,-40.527,-80.078,75.195
1687769644.618,-51.270,-62.012,-44.922,-96.191,-12.695
1687769644.622,-35.645,-64.453,-46.387,-104.492,-30.762
1687769644.626,-29.785,-67.871,-41.992,-83.008,-49.805
1687769644.630,-27.832,-62.988,-38.086,-72.266,-103.027
1687769644.634,-21.973,-55.176,-34.180,-62.988,-22.461
1687769644.636,-36.621,-59.082,-29.785,-68.359,301.758
1687769644.640,-44.922,-71.289,-36.133,-59.570,237.793
1687769644.644,-23.926,-62.988,-41.992,-52.734,-43.945
1687769644.648,-20.996,-55.176,-40.039,-68.848,26.855
1687769644.652,-41.992,-68.359,-36.621,-70.801,107.422
1687769644.656,-47.852,-62.988,-39.551,-56.641,97.656
1687769644.660,-44.922,-68.359,-48.828,-54.688,20.508
1687769644.663,-28.809,-66.406,-50.293,-37.598,123.047
1687769644.667,-20.020,-52.734,-41.992,-15.137,299.316
1687769644.671,-30.273,-54.688,-31.738,-19.531,82.031
1687769644.675,-38.086,-51.758,-25.391,-27.344,-34.180
1687769644.679,-34.668,-59.082,-30.762,-30.273,5.859
1687769644.682,-29.785,-67.383,-43.945,-35.645,6.348
1687769644.686,-15.137,-54.199,-50.293,-34.180,-23.438
1687769644.690,-17.090,-45.898,-41.016,-26.855,19.531
1687769644.694,-42.969,-52.246,-30.762,-44.922,158.691
1687769644.698,-35.645,-60.059,-27.832,-44.922,148.438
1687769644.702,-25.391,-53.223,-39.062,-35.156,42.969
1687769644.706,-31.738,-38.574,-53.223,-38.574,99.121
1687769644.709,-24.414,-34.668,-43.457,-24.902,202.148
1687769644.713,-40.527,-36.133,-39.551,-34.668,139.160
1687769644.717,-40.527,-43.457,-42.480,-52.246,-82.520
1687769644.721,-24.414,-42.969,-43.945,-30.273,-57.617
1687769644.725,-16.602,-36.621,-47.852,-8.789,31.738
1687769644.727,-2.930,-31.250,-41.504,-14.160,-0.488
1687769644.731,-18.066,-28.320,-41.992,-28.809,-13.672
1687769644.735,-16.602,-27.832,-51.270,-30.762,32.227
1687769644.739,5.371,-19.531,-65.430,-21.484,63.965
1687769644.743,7.324,-41.504,-39.551,-0.977,89.355
1687769644.747,-8.301,-59.570,-21.484,10.254,27.832
1687769644.751,2.441,-31.738,-34.668,20.508,155.762
1687769644.754,18.066,-17.578,-48.828,20.996,400.391
1687769644.758,16.602,-27.832,-67.383,6.836,167.969
1687769644.762,48.340,-31.738,-67.871,25.391,-67.383
1687769644.766,59.570,-36.621,-67.871,36.133,-50.781
1687769644.770,52.734,-57.617,-79.590,23.438,-39.062
1687769644.786,67.871,-50.293,-88.379,31.738,-38.086
1687769644.790,75.195,-34.668,-80.566,52.246,-47.852
1687769644.794,82.520,-34.668,-79.590,65.918,87.402
1687769644.798,99.609,-37.598,-96.680,75.195,107.910
1687769644.802,114.258,-56.641,-103.516,100.098,-24.902
1687769644.806,120.605,-49.316,-92.285,113.281,-12.207
1687769644.810,131.836,-23.926,-94.238,129.395,258.789
1687769644.813,145.020,-25.391,-125.977,159.668,443.359
1687769644.817,159.668,-40.039,-135.742,160.156,84.961
1687769644.821,171.875,-53.711,-125.977,171.875,-86.914
1687769644.825,198.730,-52.734,-123.047,187.012,9.277
1687769644.829,226.562,-43.945,-123.535,187.988,-15.625
1687769644.818,227.051,-58.105,-128.418,207.520,-15.625
1687769644.822,233.887,-73.730,-124.512,222.168,72.266
1687769644.826,258.301,-57.129,-127.441,231.934,1.465
1687769644.830,257.324,-38.574,-125.977,228.516,-32.715
1687769644.834,239.746,-47.852,-116.211,208.008,-29.297
1687769644.838,220.703,-50.781,-123.535,195.801,144.531
1687769644.842,205.078,-48.340,-125.488,200.684,206.055
1687769644.845,219.238,-45.410,-124.512,201.172,42.969
1687769644.849,219.238,-40.039,-124.512,185.059,-26.367
1687769644.853,204.102,-45.898,-138.184,189.941,91.309
1687769644.857,223.633,-49.316,-155.762,206.055,265.625
1687769644.861,219.238,-55.176,-141.602,182.617,97.168
1687769644.876,192.871,-57.129,-125.488,169.434,-42.969
1687769644.880,178.223,-54.199,-137.695,166.992,86.426
1687769644.884,182.129,-53.711,-150.391,151.367,178.223
1687769644.888,187.500,-46.387,-145.020,155.273,36.621
1687769644.892,168.945,-46.875,-155.762,153.809,-48.340
1687769644.896,149.902,-48.340,-151.855,142.090,197.266
1687769644.900,137.695,-41.016,-130.859,128.418,312.012
1687769644.903,120.605,-45.410,-132.812,104.492,-15.137
1687769644.907,115.723,-61.523,-124.512,116.699,-75.684
1687769644.911,125.977,-67.383,-117.188,111.816,83.496
1687769644.915,110.352,-70.312,-113.770,78.613,56.152
1687769644.919,93.750,-67.383,-103.516,63.477,-41.992
1687769644.909,98.633,-56.641,-107.422,73.242,-35.645
1687769644.913,109.863,-62.988,-102.539,89.844,33.203
1687769644.917,107.910,-61.523,-100.586,80.078,-8.301
1687769644.921,92.285,-44.922,-111.328,67.383,-72.754
1687769644.925,76.660,-51.270,-119.141,59.570,-32.227
1687769644.929,71.289,-67.383,-124.512,45.898,-24.414
1687769644.933,71.289,-58.594,-112.305,56.152,-57.617
1687769644.936,67.871,-43.457,-97.168,65.430,-76.172
1687769644.940,75.684,-48.340,-96.680,66.406,85.938
1687769644.944,85.938,-64.453,-110.352,58.105,282.227
1687769644.948,70.801,-58.594,-120.605,43.945,67.871
1687769644.952,63.965,-39.062,-108.887,45.410,-91.309
1687769644.967,79.590,-46.387,-100.098,49.316,13.672
1687769644.971,83.008,-60.059,-90.820,55.176,111.816
1687769644.975,63.965,-40.527,-65.918,50.293,58.594
1687769644.979,48.340,-30.273,-65.430,27.832,-49.805
1687769644.983,55.176,-31.250,-61.523,33.203,125.488
1687769644.987,62.012,-25.879,-47.852,57.617,360.840
1687769644.991,61.035,-28.809,-49.805,42.969,92.773
1687769644.994,44.434,-34.668,-43.945,25.879,-39.062
1687769644.998,29.297,-35.156,-44.922,27.344,97.656
1687769645.002,34.668,-41.992,-55.664,15.137,99.609
1687769645.006,45.410,-42.480,-62.012,17.090,-63.477
1687769645.010,46.387,-36.133,-64.941,30.762,-36.621
1687769645.012,36.133,-38.086,-52.734,12.207,-27.344
1687769645.016,28.320,-44.922,-48.828,0.977,-39.062
1687769645.020,23.926,-49.805,-41.992,-8.301,-30.273
1687769645.024,24.414,-48.828,-32.715,-5.859,25.391
1687769645.028,11.719,-51.270,-28.809,-2.930,169.922
1687769645.032,-4.395,-56.152,-15.137,-13.672,124.512
1687769645.036,-3.418,-56.641,-12.695,-17.090,7.324
1687769645.039,10.254,-46.387,-19.531,-10.254,75.684
1687769645.043,17.578,-41.992,-14.648,1.953,258.789
1687769645.047,15.625,-52.246,-5.371,-8.789,92.285
1687769645.051,13.672,-45.410,-0.977,-19.043,-40.527
1687769645.055,9.277,-28.809,3.418,-25.391,12.695
1687769645.057,2.441,-24.414,-0.488,-30.762,-38.086
1687769645.061,2.930,-25.391,-10.742,-26.855,-121.582
1687769645.065,-2.441,-19.531,-17.090,-26.367,-14.160
1687769645.069,-8.301,-27.832,-28.320,-21.484,208.008
1687769645.073,-15.137,-41.992,-41.992,-28.320,89.355
1687769645.077,-20.020,-42.480,-37.598,-40.527,-37.109
1687769645.081,-8.301,-38.086,-26.855,-33.203,-8.789
1687769645.084,0.488,-29.785,-17.578,-11.230,249.512
1687769645.088,-9.766,-39.062,-32.227,-15.137,320.801
1687769645.092,-12.695,-39.062,-51.758,-28.809,-100.586
1687769645.096,-8.789,-26.855,-41.992,-37.598,-109.863
1687769645.100,6.836,-27.344,-29.297,-44.434,7.324
1687769645.102,3.906,-36.621,-44.922,-18.066,-99.609
1687769645.106,-12.207,-40.039,-50.293,-21.973,-131.348
1687769645.110,-20.996,-38.574,-42.480,-41.992,-20.996
1687769645.114,-32.227,-41.016,-35.645,-30.762,-17.578
1687769645.118,-18.066,-40.527,-29.297,-27.832,-50.293
1687769645.122,-11.719,-37.109,-25.391,-14.160,-65.430
1687769645.126,-13.184,-37.109,-19.531,-9.277,85.938
1687769645.129,-9.766,-33.203,-21.484,-10.742,224.609
1687769645.133,-14.648,-36.133,-31.738,-21.973,63.965
1687769645.137,2.441,-39.062,-35.645,-37.109,-61.523
1687769645.141,20.020,-29.297,-31.738,-16.602,-4.395
1687769645.145,-8.789,-25.879,-30.273,-8.301,55.664
1687769645.147,-18.555,-31.738,-35.156,-24.414,-63.965
1687769645.151,0.977,-34.180,-50.781,-27.344,-105.469
1687769645.155,-0.977,-43.457,-51.758,-31.250,-60.059
1687769645.159,-10.742,-34.668,-40.527,-27.832,-7.812
1687769645.163,2.930,-10.742,-34.180,-10.254,-62.012
1687769645.167,0.000,-16.113,-50.781,-17.578,-69.824
1687769645.171,-18.066,-28.320,-62.988,-3.418,155.273
1687769645.174,-14.160,-33.691,-65.430,-0.977,256.348
1687769645.178,-4.883,-37.109,-66.895,-28.809,28.320
1687769645.182,-10.742,-35.156,-52.734,-31.738,-15.625
1687769645.186,-14.160,-36.133,-34.180,-10.742,22.461
1687769645.190,-12.207,-45.410,-43.945,-12.695,-5.371
1687769645.193,-30.273,-53.223,-65.918,-47.852,-87.402
1687769645.197,-32.227,-52.246,-68.359,-42.969,23.438
1687769645.201,-23.438,-64.453,-55.664,-13.672,150.879
1687769645.205,-28.320,-75.195,-52.246,-5.859,13.672
1687769645.209,-31.738,-55.176,-59.570,-42.480,-127.441
1687769645.213,-24.414,-44.434,-61.035,-41.016,82.520
1687769645.217,-20.996,-61.523,-62.012,-8.789,309.082
1687769645.220,-10.742,-63.477,-50.781,-9.766,116.211
1687769645.224,-19.531,-42.480,-44.434,-6.348,-21.973
1687769645.228,-29.785,-41.016,-29.297,-7.324,94.238
1687769645.232,-30.762,-56.152,-23.438,-30.762,120.605
1687769645.236,-28.320,-56.641,-34.180,-28.320,-26.855
1687769645.252,-18.066,-39.551,-40.039,-13.184,53.223
1687769645.256,-22.949,-31.738,-42.480,-10.254,211.426
1687769645.260,-38.574,-37.598,-39.551,-15.625,205.078
1687769645.264,-54.199,-50.293,-43.945,-23.926,37.598
1687769645.268,-41.992,-50.293,-44.922,-21.484,-30.762
1687769645.272,-35.645,-40.527,-40.039,0.488,227.051
1687769645.276,-45.898,-40.527,-58.594,-3.418,348.145
1687769645.279,-48.340,-49.316,-55.664,-11.230,60.059
1687769645.283,-38.086,-46.387,-24.414,-10.254,-14.648
1687769645.287,-31.738,-39.551,-26.855,-19.043,98.633
1687769645.291,-37.598,-43.457,-33.691,-24.902,47.852
1687769645.295,-38.574,-42.969,-41.992,-19.043,9.766
1687769645.297,-37.598,-44.434,-56.641,-9.277,58.105
1687769645.301,-44.434,-35.645,-41.016,-19.531,60.547
1687769645.305,-31.250,-32.227,-31.738,-29.785,-16.602
1687769645.309,-19.531,-42.969,-41.504,-24.902,28.320
1687769645.313,-27.344,-42.969,-46.875,-21.484,140.625
1687769645.317,-33.203,-43.945,-52.246,-26.855,200.684
1687769645.321,-24.902,-51.758,-54.199,-23.926,99.609
1687769645.324,-13.184,-42.480,-30.762,-10.254,-31.250
1687769645.328,-12.207,-35.156,-24.902,-0.977,75.195
1687769645.332,-23.926,-49.316,-37.598,-2.930,319.824
1687769645.336,-41.504,-62.988,-39.062,-24.902,130.859
1687769645.340,-30.762,-57.129,-47.852,-37.598,-54.199
1687769645.341,-18.555,-46.387,-49.805,-30.762,-37.109
1687769645.345,-22.461,-46.875,-38.086,-9.277,-74.707
1687769645.349,-7.324,-42.969,-26.855,-7.812,-10.254
1687769645.353,-9.277,-48.340,-25.879,-20.020,63.477
1687769645.357,-20.508,-57.129,-36.621,-18.066,178.711
1687769645.361,-20.020,-53.223,-41.992,-19.531,209.961
1687769645.365,-19.531,-62.500,-35.645,-26.367,119.141
1687769645.368,-13.672,-66.895,-33.203,-25.391,76.660
1687769645.372,-13.672,-55.176,-40.039,-20.020,173.340
1687769645.376,-14.648,-52.734,-44.922,-30.273,126.465
1687769645.380,-16.113,-52.246,-49.805,-39.551,-77.637
1687769645.384,-18.066,-52.734,-55.664,-19.531,-2.930
1687769645.388,-20.020,-55.664,-53.711,-10.254,185.059
1687769645.392,-1.465,-55.664,-56.641,-18.555,86.426
1687769645.396,10.254,-37.598,-57.617,-12.695,-102.539
1687769645.400,-1.465,-27.344,-43.457,-23.438,-88.379
1687769645.404,-7.812,-42.480,-40.039,-20.508,-90.820
1687769645.408,-15.137,-42.969,-46.875,-8.301,-16.602
1687769645.412,-24.902,-32.715,-47.363,-37.598,26.367
1687769645.415,-36.133,-50.293,-55.176,-57.129,174.316
1687769645.419,-24.414,-49.805,-60.059,-46.387,258.301
1687769645.423,-27.344,-38.086,-56.152,-43.945,59.082
1687769645.427,-51.758,-48.340,-54.688,-65.430,-3.906
1687769645.431,-65.430,-38.086,-52.734,-70.801,157.227
1687769645.432,-78.613,-18.066,-36.133,-85.938,343.262
1687769645.436,-114.746,-24.414,-34.668,-150.879,64.941
1687769645.440,-143.555,-37.109,-24.414,-179.688,27.832
1687769645.444,-165.039,-33.203,1.465,-187.012,158.691
1687769645.448,-199.219,-22.949,12.695,-216.797,39.062
1687769645.452,-231.934,-28.320,16.602,-229.980,-12.695
1687769645.456,-256.836,-32.715,22.949,-259.277,-29.785
1687769645.459,-284.668,-29.785,33.691,-301.758,200.684
1687769645.463,-314.941,-23.926,35.645,-298.828,339.844
1687769645.467,-306.641,-16.602,39.062,-288.086,12.695
1687769645.471,-307.617,-29.297,50.293,-295.410,-19.043
1687769645.475,-318.359,-34.180,50.781,-298.340,81.543
1687769645.476,-298.828,-14.160,53.223,-303.223,-1.953
1687769645.480,-296.875,-12.695,44.922,-311.035,-44.922
1687769645.484,-289.551,-19.531,36.621,-291.992,-32.227
1687769645.488,-284.668,-16.113,34.180,-288.086,17.578
1687769645.492,-291.504,-10.742,21.484,-303.711,34.180
1687769645.496,-268.066,-8.789,18.555,-276.855,23.438
1687769645.500,-250.977,-9.766,26.367,-250.000,180.664
1687769645.503,-248.535,-8.301,30.762,-240.723,329.590
1687769645.507,-241.211,-5.371,29.297,-242.188,56.152
1687769645.511,-235.840,-19.043,34.180,-239.746,-64.941
1687769645.515,-232.910,-31.250,33.203,-233.887,23.926
1687769645.519,-216.309,-14.648,17.578,-220.215,-20.020
1687769645.523,-214.844,-12.695,-1.953,-227.539,-13.672
1687769645.527,-216.797,-19.531,-6.836,-225.586,0.977
1687769645.531,-197.754,-10.742,-3.418,-197.754,191.895
1687769645.535,-189.941,-0.488,-2.930,-181.152,282.227
1687769645.539,-167.969,6.836,-8.789,-174.316,16.602
1687769645.543,-166.992,-6.348,-11.719,-174.316,41.504
1687769645.547,-183.594,-20.020,-14.648,-170.410,296.387
1687769645.550,-167.969,-17.578,-11.230,-162.598,260.742
1687769645.554,-166.992,-29.297,-16.113,-174.316,-80.566
1687769645.558,-175.781,-42.969,-36.133,-190.430,-125.977
1687769645.562,-167.480,-40.527,-41.992,-179.688,-21.484
1687769645.566,-149.902,-35.645,-44.922,-169.434,37.598
1687769645.568,-129.883,-25.879,-36.133,-156.738,-1.953
1687769645.572,-126.953,-19.043,-23.438,-155.762,19.043
1687769645.576,-121.094,-20.508,-15.625,-144.043,122.070
1687769645.580,-114.258,-18.555,-13.672,-116.699,103.516
1687769645.584,-122.559,-24.414,-37.109,-121.094,-6.348
1687769645.588,-125.977,-29.297,-38.574,-109.863,122.070
1687769645.592,-128.906,-17.578,-19.531,-94.238,421.387
1687769645.595,-124.023,-20.508,-33.691,-113.770,192.871
1687769645.599,-110.352,-30.273,-32.227,-105.469,-120.605
1687769645.603,-96.680,-25.879,-22.461,-85.449,9.277
1687769645.607,-93.262,-19.043,-19.043,-90.332,28.809
1687769645.611,-98.145,-20.508,-10.254,-96.680,-75.195
1687769645.626,-92.285,-29.297,-13.184,-90.820,-120.605
1687769645.630,-79.590,-20.020,-26.855,-78.125,-124.512
1687769645.634,-78.125,-12.695,-47.852,-56.152,-41.504
1687769645.638,-67.383,-7.324,-42.480,-46.387,-37.598
1687769645.642,-58.594,-5.371,-22.949,-61.035,-117.188
1687769645.646,-44.434,-7.812,-20.508,-48.340,181.641
1687769645.650,-39.062,-0.977,-27.344,-33.691,336.914
1687769645.653,-36.621,-10.254,-34.180,-30.762,27.832
1687769645.657,-31.250,-28.809,-34.668,-47.852,-54.688
1687769645.661,-32.227,-32.227,-38.086,-63.477,113.770
1687769645.665,-33.203,-34.180,-39.551,-54.688,75.195
1687769645.669,-29.297,-36.621,-29.297,-47.852,-97.168
1687769645.671,-11.230,-34.668,-30.762,-23.926,-12.207
1687769645.675,-1.953,-32.227,-52.246,-21.973,19.043
1687769645.679,-7.324,-38.574,-58.105,-39.551,-20.020
1687769645.683,-27.832,-43.457,-58.594,-43.457,-30.762
1687769645.687,-45.898,-38.574,-66.895,-28.809,26.367
1687769645.691,-41.016,-48.828,-58.594,-29.297,92.285
1687769645.695,-35.645,-56.641,-41.992,-40.527,59.570
1687769645.698,-21.973,-51.270,-28.320,-34.668,-29.297
1687769645.702,-20.508,-51.758,-18.066,-21.973,102.539
1687769645.706,-27.832,-54.688,-16.113,-15.137,192.871
1687769645.710,-21.973,-52.246,-14.160,-17.578,-47.363
1687769645.714,-16.602,-52.734,-19.531,-28.809,-85.938
1687769645.717,-11.719,-47.363,-20.508,-26.855,154.785
1687769645.721,-5.859,-46.387,-9.277,-19.531,206.055
1687769645.725,-7.324,-54.199,-15.625,-25.879,45.898
1687769645.729,-20.996,-53.223,-10.254,-16.602,21.973
1687769645.733,-16.602,-53.711,-11.230,-2.930,111.328
1687769645.737,0.977,-50.293,-24.414,-9.766,105.469
1687769645.741,-7.812,-49.805,-18.066,-22.949,-13.184
1687769645.744,-9.766,-57.129,-12.207,-14.648,-21.973
1687769645.748,5.371,-57.617,-9.277,11.719,153.809
1687769645.752,-3.906,-56.152,-10.254,4.883,283.691
1687769645.756,-19.531,-55.176,-17.578,-21.973,12.207
1687769645.760,-23.438,-63.965,-31.250,-33.691,-131.836
1687769645.762,-35.156,-68.359,-40.527,-20.508,-67.383
1687769645.766,-35.645,-64.453,-44.434,-11.230,-39.062
1687769645.770,-37.598,-64.453,-50.293,-27.832,-107.910
1687769645.774,-44.434,-66.895,-50.293,-30.762,-55.176
1687769645.778,-36.621,-67.383,-33.691,-17.090,78.613
1687769645.782,-30.273,-67.871,-31.250,-25.391,56.641
1687769645.786,-14.160,-65.430,-37.598,-30.273,32.715
1687769645.789,-9.277,-42.480,-29.785,-5.859,157.227
1687769645.793,-19.531,-30.762,-23.438,-3.906,265.137
1687769645.797,-32.715,-41.504,-32.715,-33.203,42.480
1687769645.801,-23.438,-46.875,-32.227,-45.898,-81.543
1687769645.805,-18.555,-49.805,-20.996,-23.438,2.930
1687769645.807,-25.391,-45.898,-16.113,-20.508,47.852
1687769645.811,-24.414,-34.668,-18.555,-41.016,-22.461
1687769645.815,-18.066,-35.645,-14.648,-37.598,35.645
1687769645.819,-20.020,-33.691,-9.277,-23.438,278.320
1687769645.823,-11.719,-23.438,2.930,-20.020,273.438
1687769645.827,-8.789,-24.902,9.277,-21.484,52.246
1687769645.831,-26.855,-31.738,-1.465,-41.016,-20.020
1687769645.834,-30.273,-28.320,-4.883,-56.152,141.602
1687769645.838,-38.086,-34.668,-15.625,-47.363,160.645
1687769645.842,-34.180,-42.969,-13.672,-23.926,-83.008
1687769645.846,-24.414,-37.598,-9.766,-19.531,-10.254
1687769645.850,-21.484,-33.691,-18.066,-34.180,47.852
1687769645.854,-18.555,-34.180,-17.578,-42.480,-36.621
1687769645.858,-18.555,-39.551,-8.301,-36.621,-58.594
1687769645.862,-6.836,-52.246,-15.625,-17.578,44.434
1687769645.866,-1.953,-51.270,-13.184,-16.113,133.789
1687769645.870,-10.742,-38.086,6.836,-28.320,67.383
1687769645.874,-3.906,-28.809,10.254,-31.738,32.715
1687769645.878,7.324,-22.949,10.254,-24.902,126.465
1687769645.881,7.324,-22.949,5.371,-13.184,249.512
1687769645.885,11.719,-24.414,0.000,-15.137,50.781
1687769645.889,15.625,-28.320,-5.859,-20.020,-62.500
1687769645.893,13.672,-33.691,1.953,-21.484,-11.230
1687769645.897,9.766,-37.598,5.859,-29.785,-41.016
1687769645.897,11.719,-39.062,3.906,-20.020,-55.664
1687769645.901,22.949,-26.855,-0.488,-11.719,-35.156
1687769645.905,25.879,-18.555,-5.859,-2.930,54.199
1687769645.909,10.742,-25.879,-7.324,-23.926,53.223
1687769645.913,8.789,-28.320,-4.883,-42.969,-58.105
1687769645.917,13.672,-20.508,4.395,-27.344,-14.160
1687769645.921,2.441,-21.484,-2.441,-20.508,310.059
1687769645.924,10.254,-29.297,-13.184,-14.648,512.207
1687769645.928,7.324,-30.273,-20.996,-38.086,121.582
1687769645.932,-8.301,-37.598,-21.484,-49.805,-80.566
1687769645.936,-4.883,-41.504,-17.090,-34.668,10.254
1687769645.940,-1.465,-37.109,-18.555,-34.180,30.273
1687769645.957,-10.254,-39.551,-18.066,-45.410,-13.184
1687769645.961,-9.766,-44.434,-19.043,-46.875,13.184
1687769645.965,-13.184,-47.363,-15.137,-49.805,-40.527
1687769645.969,-24.414,-43.945,-8.789,-55.664,-64.453
1687769645.973,5.371,-33.691,-1.953,-41.016,0.977
1687769645.977,12.695,-39.551,-3.418,-25.879,131.836
1687769645.981,-6.348,-47.852,-15.137,-33.203,203.613
1687769645.984,-5.859,-52.246,-20.020,-42.969,63.965
1687769645.988,-1.953,-49.316,-12.207,-41.992,-48.340
1687769645.992,2.441,-42.969,-19.043,-42.480,95.215
1687769645.996,-11.230,-46.387,-46.387,-45.410,271.973
1687769646.000,-17.578,-39.551,-45.898,-63.477,35.645
1687769646.001,-11.230,-27.344,-30.762,-75.684,-61.523
1687769646.005,-8.789,-29.785,-28.320,-50.293,-80.566
1687769646.009,-9.277,-38.086,-31.250,-20.508,-38.574
1687769646.013,-2.930,-38.574,-32.227,-30.273,-25.391
1687769646.017,-4.395,-43.945,-38.086,-55.176,-69.336
1687769646.021,-24.414,-41.992,-32.715,-56.152,245.117
1687769646.025,-20.508,-46.875,-23.926,-53.711,366.211
1687769646.028,-29.785,-47.852,-28.320,-52.246,82.520
1687769646.032,-33.203,-32.227,-30.273,-64.453,-12.695
1687769646.036,-33.691,-28.809,-41.992,-73.242,254.395
1687769646.040,-31.250,-36.621,-42.969,-63.965,330.078
1687769646.044,-19.043,-40.039,-30.273,-83.008,-37.598
1687769646.047,-30.762,-33.691,-34.180,-83.984,-15.625
1687769646.051,-42.969,-31.250,-40.039,-65.918,23.926
1687769646.055,-31.738,-33.691,-30.762,-60.059,-60.547
1687769646.059,-20.996,-42.969,-36.133,-63.965,-80.566
1687769646.063,-2.930,-55.176,-28.809,-64.941,2.930
1687769646.067,-7.324,-39.062,-21.484,-48.340,55.664
1687769646.071,-12.695,-15.137,-25.879,-35.645,40.039
1687769646.074,-9.766,-11.719,-29.297,-41.992,16.113
1687769646.078,-7.812,-17.578,-24.902,-39.551,36.621
1687769646.082,2.930,-24.902,-25.879,-35.645,124.023
1687769646.086,0.488,-27.832,-46.387,-52.734,-4.883
1687769646.090,-2.441,-25.879,-54.199,-47.363,-99.121
1687769646.091,-7.812,-22.461,-40.039,-45.410,126.465
1687769646.095,-27.832,-48.340,-29.785,-59.082,242.676
1687769646.099,-56.641,-57.129,-40.527,-55.664,105.957
