timestamps,TP9,AF7,AF8,TP10,Right AUX
1678024478.128,-37.598,-39.062,-33.691,5.371,-87.891
1678024478.132,-38.574,-41.992,-30.273,-34.668,-34.668
1678024478.136,-44.434,-43.457,-32.715,-76.172,-174.805
1678024478.140,-53.711,-35.645,-35.645,-63.477,-247.070
1678024478.144,-51.758,-32.227,-34.180,-6.348,-85.938
1678024478.148,-30.762,-32.715,-32.715,20.020,78.125
1678024478.152,-17.090,-26.855,-32.715,-26.855,72.754
1678024478.155,-28.320,-28.320,-32.715,-85.938,-81.055
1678024478.159,-44.434,-34.180,-33.691,-70.312,-14.160
1678024478.163,-48.828,-33.203,-36.133,-11.719,183.594
1678024478.167,-31.738,-32.227,-35.645,18.066,71.777
1678024478.171,-21.484,-30.273,-28.809,-17.090,-27.832
1678024478.171,-21.484,-30.273,-28.809,-17.090,-27.832
1678024478.171,-39.551,-27.344,-28.809,-75.195,-14.648
1678024478.175,-46.387,-26.855,-31.250,-68.848,-39.551
1678024478.179,-46.387,-28.809,-34.180,-23.438,-176.270
1678024478.183,-43.945,-34.180,-32.227,2.441,-125.977
1678024478.187,-41.016,-32.715,-28.320,-24.414,7.812
1678024478.191,-49.316,-29.785,-29.297,-84.473,-9.277
1678024478.195,-57.129,-34.180,-35.645,-101.562,-88.379
1678024478.198,-58.594,-32.227,-37.598,-48.828,-62.500
1678024478.202,-53.711,-27.832,-35.156,11.230,206.055
1678024478.206,-41.016,-27.832,-39.551,-16.602,239.258
1678024478.210,-31.250,-27.832,-39.551,-89.844,-164.551
1678024478.214,-48.340,-30.762,-38.086,-105.957,-205.566
1678024478.219,-60.059,-28.809,-37.109,-52.734,-54.688
1678024478.223,-53.223,-24.902,-36.621,-2.930,-25.391
1678024478.227,-29.785,-24.414,-35.645,-16.113,-104.980
1678024478.231,-20.996,-26.367,-28.809,-67.383,-86.426
1678024478.235,-30.762,-27.832,-28.320,-94.727,-41.504
1678024478.239,-27.344,-26.855,-30.762,-47.852,-79.102
1678024478.243,-28.320,-29.297,-23.926,14.648,-17.578
1678024478.246,-23.438,-29.785,-22.949,14.648,179.688
1678024478.250,-22.461,-28.809,-29.785,-48.340,157.715
1678024478.254,-32.715,-30.273,-32.227,-92.773,-91.309
1678024478.258,-44.922,-26.367,-39.551,-62.012,-69.824
1678024478.262,-34.180,-25.879,-40.527,-3.418,-35.156
1678024478.261,-21.973,-28.809,-39.551,0.000,-92.773
1678024478.265,-26.855,-30.273,-44.922,-62.012,-193.848
1678024478.269,-31.738,-35.156,-41.016,-102.539,-188.477
1678024478.273,-39.551,-37.109,-35.156,-74.219,-97.656
1678024478.277,-45.898,-33.203,-36.133,-14.648,-35.645
1678024478.281,-24.902,-32.715,-37.109,10.254,64.453
1678024478.285,-15.625,-25.391,-40.039,-49.316,46.875
1678024478.288,-49.316,-18.555,-40.039,-123.535,148.438
1678024478.292,-58.594,-24.902,-41.016,-99.609,240.234
1678024478.296,-59.570,-19.531,-45.410,-47.363,-9.766
1678024478.300,-60.547,-15.137,-48.340,-44.922,-66.406
1678024478.304,-58.105,-16.113,-52.734,-98.633,-84.961
1678024478.308,-69.824,-13.184,-53.223,-148.926,-214.355
1678024478.312,-81.055,-10.254,-53.223,-131.348,-217.773
1678024478.316,-92.773,-12.207,-59.082,-77.148,-98.145
1678024478.320,-85.938,-15.137,-63.965,-52.246,-12.695
1678024478.324,-70.801,-16.113,-70.312,-102.051,-58.105
1678024478.328,-67.871,-13.672,-75.684,-152.344,-188.965
1678024478.332,-82.031,-11.230,-72.754,-143.555,-21.484
1678024478.335,-86.426,-16.602,-67.383,-77.637,301.270
1678024478.339,-64.453,-20.020,-67.871,-31.738,57.617
1678024478.343,-41.992,-20.508,-67.871,-52.246,-159.180
1678024478.347,-45.410,-24.902,-68.848,-101.562,-107.422
1678024478.351,-65.430,-28.809,-68.848,-103.516,-162.109
1678024478.352,-74.707,-27.832,-65.430,-45.898,-139.160
1678024478.356,-61.035,-28.320,-58.105,0.977,-61.523
1678024478.360,-33.203,-28.809,-55.664,-18.066,-104.004
1678024478.364,-27.832,-26.855,-54.199,-72.266,-148.926
1678024478.368,-42.480,-26.855,-55.664,-90.332,-92.773
1678024478.372,-44.922,-27.832,-55.664,-49.805,-80.078
1678024478.376,-32.715,-23.926,-49.805,13.672,257.324
1678024478.379,-19.531,-23.926,-48.340,4.883,345.215
1678024478.383,-10.254,-22.461,-48.828,-67.871,-124.023
1678024478.387,-18.066,-22.949,-50.293,-88.867,-152.832
1678024478.391,-33.203,-27.344,-47.852,-33.691,99.609
1678024478.395,-21.484,-29.785,-45.898,20.508,0.488
1678024478.412,-9.277,-31.738,-44.434,-1.465,-139.160
1678024478.416,-14.160,-29.785,-41.992,-72.754,-112.793
1678024478.420,-22.949,-27.832,-41.504,-99.609,-139.160
1678024478.424,-33.203,-30.762,-42.969,-58.594,-130.371
1678024478.428,-28.320,-33.691,-45.898,-1.465,-140.137
1678024478.432,-15.625,-32.227,-44.434,6.348,45.410
1678024478.436,-8.789,-34.180,-42.969,-54.688,180.664
1678024478.439,-15.137,-33.203,-46.387,-84.961,-98.145
1678024478.443,-36.133,-30.762,-41.992,-44.434,-215.820
1678024478.447,-34.668,-29.785,-36.133,16.602,90.332
1678024478.451,-16.113,-27.344,-34.180,24.414,176.758
1678024478.455,-14.648,-25.879,-34.180,-41.016,-53.711
1678024478.456,-25.391,-31.738,-35.156,-87.402,-115.234
1678024478.460,-44.434,-36.133,-37.109,-62.988,-14.648
1678024478.464,-47.363,-29.297,-40.039,4.395,22.461
1678024478.468,-31.250,-30.762,-38.086,18.555,-84.961
1678024478.472,-20.996,-31.250,-36.621,-35.645,-55.176
1678024478.476,-26.367,-25.391,-37.109,-79.590,28.320
1678024478.480,-30.762,-26.367,-34.180,-62.012,-22.461
1678024478.483,-35.156,-25.391,-36.133,-4.395,-132.812
1678024478.487,-35.645,-22.949,-35.645,20.996,-170.898
1678024478.491,-22.461,-23.926,-32.227,-12.207,82.031
1678024478.495,-23.926,-23.926,-31.738,-73.730,13.184
1678024478.499,-35.156,-23.438,-32.715,-68.359,-227.539
1678024478.505,-30.762,-25.391,-34.668,10.742,-33.691
1678024478.509,-29.297,-28.809,-33.691,41.504,100.098
1678024478.513,-26.367,-29.297,-33.203,-12.207,-123.535
1678024478.517,-19.043,-27.344,-35.156,-74.707,-201.172
1678024478.521,-39.062,-27.832,-34.180,-61.523,-180.664
1678024478.525,-48.828,-31.250,-34.180,-1.953,-77.148
1678024478.529,-34.668,-27.832,-35.156,30.273,-23.926
1678024478.532,-21.973,-21.973,-33.691,-2.441,-162.109
1678024478.536,-23.926,-25.879,-31.738,-71.777,-19.043
1678024478.540,-43.945,-32.715,-33.203,-88.867,67.383
1678024478.544,-55.664,-33.691,-35.156,-41.992,-162.598
1678024478.548,-41.504,-32.715,-30.762,0.488,-122.070
1678024478.548,-21.484,-30.762,-22.949,-18.555,-27.344
1678024478.552,-24.414,-31.250,-28.320,-73.242,-95.215
1678024478.556,-42.969,-33.691,-35.645,-96.680,-198.242
1678024478.560,-43.945,-31.738,-30.273,-48.340,-157.715
1678024478.564,-24.414,-24.414,-27.344,14.160,77.148
1678024478.568,-15.625,-18.066,-28.809,7.324,162.109
1678024478.572,-17.090,-19.043,-26.367,-53.711,43.945
1678024478.575,-23.926,-20.508,-25.391,-80.566,-100.098
1678024478.579,-37.109,-21.973,-30.762,-20.020,166.504
1678024478.583,-37.598,-25.391,-30.762,41.992,392.090
1678024478.587,-29.297,-25.391,-27.832,9.277,68.848
1678024478.591,-26.855,-30.762,-27.832,-68.359,-119.629
1678024478.593,-34.180,-34.668,-29.297,-98.145,-172.852
1678024478.597,-52.734,-30.762,-29.785,-48.340,-221.680
1678024478.601,-44.922,-29.785,-25.391,17.578,-136.230
1678024478.605,-24.414,-26.367,-21.484,25.391,-60.059
1678024478.609,-20.508,-22.949,-23.926,-29.297,-69.336
1678024478.613,-29.297,-23.926,-24.902,-67.383,-92.773
1678024478.617,-43.945,-25.391,-28.320,-40.527,-100.098
1678024478.620,-44.922,-27.832,-29.297,11.230,138.184
1678024478.624,-31.738,-29.297,-28.809,31.250,356.934
1678024478.628,-20.020,-30.273,-29.297,-29.785,1.953
1678024478.632,-16.602,-30.273,-26.367,-86.426,-268.066
1678024478.636,-29.785,-29.785,-33.203,-60.059,-175.781
1678024478.636,-38.574,-28.320,-35.156,5.371,-83.008
1678024478.640,-27.344,-28.809,-31.250,27.832,-72.266
1678024478.644,-18.555,-30.762,-37.109,-16.113,-126.465
1678024478.648,-18.555,-27.832,-39.551,-62.012,-127.930
1678024478.652,-28.809,-24.902,-35.645,-49.805,-137.695
1678024478.656,-40.039,-26.855,-33.691,10.254,-45.898
1678024478.660,-30.762,-29.297,-34.180,31.250,39.551
1678024478.663,-17.578,-28.809,-32.715,-0.977,287.109
1678024478.667,-25.391,-34.180,-36.621,-57.617,381.348
1678024478.671,-46.387,-35.156,-37.598,-71.777,-49.805
1678024478.675,-51.270,-26.855,-28.320,-3.906,-144.043
1678024478.679,-37.598,-24.414,-22.949,36.133,-41.992
1678024478.683,-24.414,-24.414,-27.344,-0.488,-159.668
1678024478.687,-33.691,-25.391,-30.762,-63.477,-232.910
1678024478.691,-50.781,-26.367,-32.715,-64.453,-151.367
1678024478.695,-49.316,-24.902,-35.645,4.395,-78.613
1678024478.699,-45.410,-31.738,-37.109,41.504,-39.551
1678024478.703,-42.969,-33.691,-38.086,-5.371,-11.719
1678024478.707,-34.668,-30.273,-36.621,-65.918,107.422
1678024478.710,-43.457,-31.738,-35.645,-70.801,171.387
1678024478.714,-46.387,-32.227,-32.715,-16.113,-65.918
1678024478.718,-37.109,-33.203,-31.250,36.133,-52.734
1678024478.722,-26.855,-32.227,-29.297,15.137,63.477
1678024478.726,-23.926,-31.738,-27.344,-50.781,-44.434
1678024478.726,-44.922,-36.133,-29.785,-75.195,-167.480
1678024478.730,-58.105,-36.621,-28.320,-32.227,-136.230
1678024478.734,-47.363,-33.203,-30.273,24.414,-12.695
1678024478.738,-34.180,-31.250,-33.203,23.438,-22.949
1678024478.742,-32.227,-36.133,-35.645,-43.945,-10.254
1678024478.746,-37.109,-36.133,-38.086,-87.891,-97.168
1678024478.750,-45.410,-30.762,-38.086,-41.016,160.156
1678024478.753,-49.316,-33.203,-39.551,17.578,320.801
1678024478.757,-36.621,-31.250,-42.480,7.812,-79.590
1678024478.761,-24.902,-22.949,-39.551,-52.734,-144.531
1678024478.765,-36.133,-21.973,-38.574,-82.520,-119.141
1678024478.769,-51.758,-28.809,-40.039,-40.039,-90.820
1678024478.775,-51.270,-30.273,-34.180,19.531,-69.824
1678024478.779,-26.855,-25.879,-27.832,32.227,-3.418
1678024478.783,-14.648,-26.367,-30.762,-28.320,21.973
1678024478.787,-25.391,-29.297,-32.715,-73.730,-146.973
1678024478.791,-34.668,-24.902,-26.855,-41.016,-178.223
1678024478.795,-33.691,-26.855,-26.367,17.090,50.781
1678024478.799,-11.230,-29.297,-27.344,29.785,189.453
1678024478.802,-7.324,-28.809,-28.320,-27.832,-27.344
1678024478.806,-25.391,-32.715,-28.809,-86.426,-190.430
1678024478.810,-41.016,-35.156,-33.691,-63.965,-42.480
1678024478.814,-43.945,-32.715,-34.180,-2.441,56.152
1678024478.818,-37.598,-30.273,-30.273,15.625,-122.070
1678024478.832,-35.645,-27.344,-31.250,-37.109,-167.969
1678024478.836,-40.527,-29.297,-29.297,-94.727,-165.039
1678024478.840,-51.758,-30.762,-25.391,-70.312,-91.797
1678024478.844,-66.406,-30.273,-27.832,-17.090,-105.957
1678024478.848,-57.129,-31.250,-28.809,7.812,-42.480
1678024478.852,-42.969,-34.180,-26.855,-26.367,201.660
1678024478.856,-48.340,-40.039,-30.762,-93.262,233.398
1678024478.859,-50.781,-38.574,-29.785,-91.797,-103.516
1678024478.863,-52.734,-33.203,-24.902,-33.203,-189.453
1678024478.867,-43.945,-34.180,-23.438,7.812,11.719
1678024478.871,-36.133,-37.598,-21.484,-27.832,-33.691
1678024478.875,-36.621,-28.320,-22.461,-96.191,-205.078
1678024478.878,-43.945,-24.902,-19.043,-101.562,-179.199
1678024478.882,-58.105,-26.855,-14.648,-40.527,-94.238
1678024478.886,-64.453,-27.832,-18.555,-0.488,-98.633
1678024478.890,-63.965,-29.297,-20.020,-49.316,-96.191
1678024478.894,-69.824,-23.926,-25.391,-127.441,-37.598
1678024478.898,-90.820,-18.066,-14.648,-151.367,16.113
1678024478.902,-122.070,-5.371,-0.977,-118.164,-53.223
1678024478.905,-144.531,-5.859,1.465,-94.727,-108.887
1678024478.909,-155.273,-6.836,12.207,-131.348,37.109
1678024478.913,-170.898,-1.953,9.277,-213.379,146.484
1678024478.917,-213.379,0.000,14.648,-262.207,-63.477
1678024478.921,-264.160,-0.488,25.391,-252.441,-121.094
1678024478.921,-285.645,2.441,28.320,-229.004,-53.711
1678024478.925,-295.898,17.578,37.598,-242.188,-76.172
1678024478.929,-314.941,6.836,42.969,-328.613,-142.578
1678024478.933,-322.266,6.348,44.434,-379.395,-174.805
1678024478.937,-322.754,12.207,44.922,-332.031,-66.406
1678024478.941,-328.125,9.766,52.734,-261.719,93.262
1678024478.945,-330.078,12.695,55.664,-262.207,98.633
1678024478.948,-329.590,0.488,40.039,-331.055,-1.465
1678024478.952,-316.895,-0.488,34.668,-353.027,155.762
1678024478.956,-313.965,5.371,38.086,-316.406,321.289
1678024478.960,-329.590,0.488,34.668,-274.902,37.598
1678024478.964,-327.148,-6.836,29.297,-271.484,-84.961
1678024478.968,-295.898,-6.348,31.250,-297.852,-63.477
1678024478.972,-305.176,-10.254,29.785,-334.961,-208.984
1678024478.976,-318.359,-20.020,28.320,-310.547,-230.957
1678024478.980,-309.570,-26.367,28.320,-236.328,-102.539
1678024478.984,-290.527,-32.227,32.227,-204.590,-78.613
1678024478.988,-267.090,-30.273,31.250,-244.629,-64.941
1678024478.992,-258.789,-26.367,29.785,-288.086,-97.168
1678024478.995,-269.043,-39.062,23.438,-265.137,60.059
1678024478.999,-271.484,-42.480,20.996,-194.824,214.844
1678024479.003,-252.930,-38.574,22.461,-171.387,46.875
1678024479.007,-242.676,-46.875,16.602,-213.867,-63.477
1678024479.011,-237.793,-56.152,13.184,-258.789,-21.973
1678024479.011,-228.516,-51.270,10.254,-259.766,-68.359
1678024479.015,-211.426,-41.504,0.977,-189.941,-138.672
1678024479.019,-191.406,-37.598,-7.812,-136.230,-49.316
1678024479.023,-180.664,-40.039,-7.324,-166.992,-61.035
1678024479.027,-186.523,-45.410,-6.348,-221.191,-46.875
1678024479.031,-194.336,-52.734,-12.207,-215.332,-25.391
1678024479.035,-187.988,-56.152,-16.113,-154.785,30.273
1678024479.038,-174.316,-53.223,-13.184,-99.121,381.348
1678024479.042,-152.832,-61.035,-14.160,-117.188,301.758
1678024479.046,-138.672,-68.848,-9.277,-184.082,-145.996
1678024479.050,-157.227,-71.777,-10.742,-193.848,-185.547
1678024479.054,-161.621,-67.871,-15.137,-129.395,-40.039
1678024479.058,-153.809,-63.477,-15.137,-76.660,-18.555
1678024479.062,-143.555,-60.547,-11.230,-99.609,-133.789
1678024479.066,-132.812,-58.105,-9.277,-154.785,-63.477
1678024479.070,-143.066,-68.359,-15.625,-166.992,-75.684
1678024479.074,-142.090,-67.383,-22.461,-121.582,-202.637
1678024479.078,-118.652,-67.383,-22.461,-63.477,-68.359
1678024479.082,-94.238,-81.055,-24.902,-56.152,174.805
1678024479.085,-81.055,-81.055,-35.156,-107.910,160.156
1678024479.089,-82.520,-77.637,-42.969,-142.578,-157.715
1678024479.093,-100.098,-80.566,-44.922,-95.703,-270.996
1678024479.097,-106.445,-86.426,-47.852,-30.273,-167.969
1678024479.101,-83.008,-94.238,-50.293,-17.090,-111.328
1678024479.103,-70.801,-94.238,-56.641,-74.219,-201.172
1678024479.107,-84.473,-98.145,-63.965,-112.793,-168.945
1678024479.111,-77.148,-101.562,-61.035,-44.922,-1.953
1678024479.115,-59.570,-100.098,-64.941,20.020,-23.438
1678024479.119,-42.480,-97.168,-65.430,6.836,-37.109
1678024479.123,-12.695,-95.703,-64.941,-45.410,6.348
1678024479.127,0.488,-97.656,-74.219,-73.242,189.941
1678024479.130,-16.602,-96.680,-76.172,-26.367,173.828
1678024479.134,-18.555,-92.773,-76.172,33.203,-148.438
1678024479.138,19.043,-87.891,-74.219,50.781,-81.055
1678024479.142,39.551,-90.332,-75.195,1.465,-31.250
1678024479.146,35.156,-92.285,-87.402,-48.828,-205.078
1678024479.161,29.297,-84.473,-94.238,-20.996,-313.965
1678024479.165,36.621,-85.938,-89.844,60.059,-178.711
1678024479.169,59.570,-83.984,-93.262,97.168,-53.711
1678024479.173,74.219,-74.219,-100.586,51.270,-153.320
1678024479.177,76.172,-77.148,-102.051,-4.883,-161.621
1678024479.181,66.895,-73.242,-99.121,18.066,23.926
1678024479.185,65.918,-69.336,-99.609,85.938,250.488
1678024479.188,92.285,-74.219,-99.121,114.258,66.895
1678024479.192,104.492,-75.684,-102.539,76.172,-83.008
1678024479.196,106.934,-81.055,-107.910,26.855,-81.543
1678024479.200,89.355,-79.102,-105.469,36.133,-41.992
1678024479.204,75.195,-69.336,-99.121,110.352,-27.344
1678024479.206,89.355,-71.777,-99.609,155.273,-8.789
1678024479.210,95.215,-74.219,-94.238,104.492,-9.766
1678024479.214,101.562,-69.824,-85.938,39.551,-88.379
1678024479.218,93.262,-68.359,-84.473,45.410,-159.668
1678024479.222,76.172,-65.918,-83.008,104.492,-110.840
1678024479.226,83.008,-65.918,-86.426,148.926,152.344
1678024479.230,98.633,-69.824,-88.867,106.445,87.891
1678024479.233,101.562,-65.918,-87.891,34.180,-96.191
1678024479.237,92.285,-58.594,-88.867,19.531,-99.609
1678024479.241,79.102,-58.594,-90.332,86.914,158.203
1678024479.245,77.148,-61.523,-90.820,150.391,195.312
1678024479.249,95.215,-60.547,-85.449,118.164,-77.148
1678024479.253,100.586,-61.035,-82.031,56.152,-118.652
1678024479.257,70.801,-64.941,-76.660,36.133,-182.129
1678024479.261,45.410,-64.941,-73.242,77.148,-206.055
1678024479.265,49.805,-60.059,-74.219,128.906,-142.578
1678024479.269,67.383,-57.617,-71.777,120.117,-52.246
1678024479.273,74.219,-60.059,-73.730,54.199,-16.113
1678024479.277,64.941,-61.523,-73.242,11.719,-75.195
1678024479.280,52.246,-60.059,-73.730,48.828,-217.773
1678024479.284,49.316,-57.617,-74.219,117.676,24.414
1678024479.288,62.012,-53.223,-72.266,125.000,384.277
1678024479.292,68.848,-46.875,-73.242,49.316,56.641
1678024479.296,61.035,-45.410,-67.383,-8.301,-243.652
1678024479.296,41.504,-43.945,-68.359,29.785,-146.484
1678024479.300,30.273,-46.387,-69.824,104.004,-42.969
1678024479.304,42.480,-49.316,-64.941,98.633,-99.609
1678024479.308,55.176,-46.387,-65.918,21.484,-80.078
1678024479.312,41.992,-43.945,-67.871,-25.391,3.906
1678024479.316,18.066,-39.551,-63.965,0.000,-37.109
1678024479.320,9.766,-39.551,-62.012,62.012,-53.711
1678024479.323,22.949,-39.551,-61.523,79.102,1.465
1678024479.327,26.367,-40.039,-60.059,23.926,158.203
1678024479.331,16.602,-41.504,-62.500,-37.598,103.516
1678024479.335,8.301,-44.434,-63.965,-23.438,-208.496
1678024479.339,1.465,-48.828,-63.477,41.992,-101.074
1678024479.343,9.766,-49.805,-59.570,71.289,37.598
1678024479.347,19.043,-50.293,-58.594,24.414,-145.020
1678024479.351,9.766,-48.828,-62.500,-45.410,-202.148
1678024479.355,-10.254,-45.898,-60.547,-30.762,-108.887
1678024479.359,-22.949,-44.922,-58.594,36.133,-60.059
1678024479.363,-17.090,-49.316,-59.082,53.223,-23.438
1678024479.367,-1.465,-50.781,-61.523,0.488,-62.988
1678024479.370,-9.766,-53.711,-62.988,-64.941,9.277
1678024479.374,-22.949,-53.711,-56.152,-62.500,71.289
1678024479.378,-30.762,-52.246,-52.734,2.930,-101.074
1678024479.382,-29.297,-50.293,-49.316,45.410,-90.820
1678024479.386,-15.625,-45.410,-48.340,-3.906,-73.730
1678024479.388,-14.648,-48.828,-48.828,-77.148,-120.117
1678024479.392,-27.344,-52.246,-51.758,-83.984,-147.949
1678024479.396,-41.992,-52.734,-55.664,-27.344,-125.488
1678024479.400,-39.551,-50.781,-51.270,34.180,-29.297
1678024479.404,-28.809,-51.270,-48.828,11.230,26.367
1678024479.408,-31.738,-57.617,-57.617,-71.777,-42.969
1678024479.412,-37.109,-59.082,-60.059,-95.703,-108.398
1678024479.415,-42.480,-57.129,-50.781,-30.273,187.500
1678024479.419,-41.992,-57.129,-49.805,29.785,289.062
1678024479.423,-35.645,-56.152,-56.152,-0.977,-38.086
1678024479.427,-34.180,-51.758,-54.199,-77.637,-82.031
1678024479.431,-51.270,-55.664,-54.688,-109.375,-108.398
1678024479.433,-70.801,-59.570,-59.570,-62.012,-164.062
1678024479.437,-66.895,-57.129,-56.152,1.465,-123.535
1678024479.441,-42.969,-52.246,-49.316,4.395,-100.098
1678024479.445,-40.527,-53.223,-48.828,-61.523,-88.379
1678024479.449,-55.176,-56.641,-52.246,-104.980,-148.438
1678024479.453,-68.359,-49.316,-54.688,-60.547,-105.957
1678024479.457,-64.941,-49.805,-47.852,4.883,145.508
1678024479.460,-49.316,-54.199,-46.875,-2.441,292.969
1678024479.464,-43.945,-49.316,-51.758,-76.172,13.184
1678024479.468,-55.176,-52.246,-46.387,-119.141,-211.426
1678024479.472,-71.289,-57.129,-45.410,-74.219,-123.047
1678024479.476,-70.801,-56.152,-50.781,-4.395,-83.496
1678024479.476,-55.664,-55.664,-48.828,-2.441,-105.469
1678024479.480,-39.551,-52.734,-47.852,-62.012,-153.809
1678024479.484,-41.504,-46.387,-44.922,-107.422,-161.133
1678024479.488,-50.293,-44.434,-41.016,-73.242,-130.371
1678024479.492,-55.176,-43.457,-41.016,1.465,-32.715
1678024479.496,-44.434,-42.480,-43.457,21.484,29.785
1678024479.500,-26.855,-40.527,-44.922,-26.367,282.227
1678024479.503,-29.297,-38.086,-45.410,-86.914,265.137
1678024479.507,-49.316,-40.527,-42.480,-74.219,-140.137
1678024479.511,-53.711,-42.480,-39.062,-2.441,-95.215
1678024479.515,-44.922,-40.527,-42.480,23.926,150.879
1678024479.519,-33.691,-45.410,-39.551,-35.645,80.566
1678024479.536,-27.832,-48.340,-40.039,-102.051,-171.875
1678024479.540,-42.969,-43.945,-39.551,-92.285,-138.184
1678024479.544,-51.758,-41.504,-35.645,-21.484,-20.996
1678024479.548,-41.992,-42.480,-37.109,18.555,8.301
1678024479.552,-26.367,-41.504,-41.016,-26.367,-116.211
1678024479.556,-29.297,-35.156,-38.086,-84.961,40.527
1678024479.560,-58.105,-34.180,-35.156,-88.379,206.055
1678024479.563,-69.336,-40.039,-40.527,-34.180,-73.730
1678024479.567,-61.523,-42.969,-36.133,17.578,-125.488
1678024479.571,-50.293,-44.434,-35.156,-10.254,111.328
1678024479.575,-48.340,-50.781,-42.480,-94.238,158.203
1678024479.579,-51.758,-56.152,-42.480,-103.027,-119.629
1678024479.581,-44.922,-48.828,-38.086,-29.297,-126.465
1678024479.585,-46.875,-38.086,-37.109,12.695,21.973
1678024479.589,-42.480,-38.574,-36.133,-19.531,-10.742
1678024479.593,-24.902,-36.621,-32.227,-92.773,-191.406
1678024479.597,-33.691,-35.645,-30.762,-102.051,-123.535
1678024479.601,-54.199,-39.551,-31.250,-32.715,167.480
1678024479.605,-48.340,-37.598,-30.273,13.184,168.945
1678024479.608,-36.621,-40.039,-33.203,-2.441,9.277
1678024479.612,-24.902,-46.875,-38.574,-76.172,-135.742
1678024479.616,-37.109,-48.340,-39.551,-104.004,35.645
1678024479.620,-55.664,-49.805,-38.086,-39.551,28.320
1678024479.624,-43.945,-48.340,-30.762,33.691,-152.832
1678024479.627,-21.973,-44.434,-27.344,25.879,-47.363
1678024479.631,-16.602,-47.363,-28.320,-41.992,7.812
1678024479.635,-30.273,-51.270,-29.297,-91.309,-178.223
1678024479.639,-41.504,-43.945,-28.809,-54.688,-260.254
1678024479.643,-43.945,-38.574,-25.879,17.578,-87.402
1678024479.647,-32.715,-43.457,-22.461,22.949,19.531
1678024479.651,-26.855,-45.410,-28.320,-39.062,-33.691
1678024479.654,-36.133,-46.875,-32.715,-89.844,-174.805
1678024479.658,-40.527,-48.340,-32.715,-69.824,-62.500
1678024479.662,-43.457,-46.387,-36.133,-8.789,145.996
1678024479.666,-37.109,-49.316,-33.691,6.348,-43.457
1678024479.670,-23.926,-49.316,-36.133,-55.176,-129.395
1678024479.672,-29.785,-43.945,-39.551,-110.352,-88.379
1678024479.676,-38.574,-42.969,-36.133,-89.355,-53.711
1678024479.680,-39.551,-37.109,-36.133,-22.461,-86.426
1678024479.684,-31.738,-36.133,-38.086,6.836,-132.812
1678024479.688,-19.531,-40.527,-38.574,-38.574,57.617
1678024479.692,-24.414,-41.016,-37.598,-99.121,18.555
1678024479.696,-29.785,-39.062,-30.273,-78.125,-129.883
1678024479.699,-36.133,-39.062,-24.902,-1.953,-76.660
1678024479.703,-36.133,-42.969,-28.809,36.133,183.105
1678024479.707,-28.809,-43.945,-33.203,-16.113,218.262
1678024479.711,-35.156,-45.410,-29.297,-91.309,-203.613
1678024479.715,-55.176,-49.805,-26.367,-81.055,-176.758
1678024479.718,-68.848,-51.270,-28.809,-9.277,-72.754
1678024479.722,-64.453,-50.781,-30.273,24.414,-111.816
1678024479.726,-47.852,-52.734,-30.762,-19.531,-172.852
1678024479.730,-37.598,-51.758,-30.273,-89.844,-84.961
1678024479.734,-48.340,-48.828,-28.809,-100.098,-42.480
1678024479.738,-61.523,-48.340,-29.297,-36.621,-117.676
1678024479.742,-55.664,-47.363,-28.809,5.859,-56.152
1678024479.745,-43.457,-45.410,-28.809,-18.555,100.098
1678024479.749,-47.363,-46.875,-29.785,-81.055,188.477
1678024479.753,-53.711,-41.016,-18.555,-100.098,-113.281
1678024479.757,-62.988,-31.250,-15.625,-51.758,-162.109
1678024479.761,-57.129,-33.203,-18.066,-2.930,-63.477
1678024479.761,-51.270,-32.227,-8.789,-27.832,-67.383
1678024479.765,-73.730,-42.480,-10.742,-113.281,-143.555
1678024479.769,-87.402,-36.133,-7.812,-142.578,-200.195
1678024479.773,-96.191,-24.414,-4.395,-112.305,-137.207
1678024479.777,-124.023,-31.738,-7.324,-90.332,-17.578
1678024479.781,-129.883,-20.508,0.488,-98.145,56.641
1678024479.785,-138.672,-18.066,6.836,-186.035,19.531
1678024479.788,-192.871,-17.090,10.742,-268.555,207.520
1678024479.792,-243.164,-29.785,11.719,-251.465,388.672
1678024479.796,-250.977,-26.855,9.766,-218.262,57.617
1678024479.800,-276.855,-15.137,23.926,-240.723,-87.402
1678024479.804,-310.547,-24.902,32.227,-325.195,-59.570
1678024479.808,-320.801,-20.508,24.414,-389.160,-214.844
1678024479.812,-329.102,-8.789,35.645,-351.074,-268.555
1678024479.816,-332.520,-11.719,44.922,-270.020,-153.320
1678024479.820,-328.125,-15.137,39.551,-252.930,-80.078
1678024479.824,-306.641,-7.324,40.527,-295.898,-143.066
1678024479.828,-311.523,-9.277,35.156,-358.887,-184.570
1678024479.832,-334.473,-24.902,31.738,-341.797,22.461
1678024479.835,-332.520,-21.973,40.039,-242.188,236.328
1678024479.839,-316.406,-26.367,38.574,-217.285,62.500
1678024479.843,-289.062,-37.109,34.180,-257.324,-158.691
1678024479.847,-281.738,-32.715,39.551,-297.852,-111.816
1678024479.851,-297.363,-35.645,29.785,-290.527,-65.430
1678024479.852,-295.898,-40.527,29.785,-212.402,-125.977
1678024479.856,-281.738,-45.898,39.062,-171.387,-82.520
1678024479.860,-259.277,-44.434,41.016,-217.773,-54.199
1678024479.864,-254.395,-48.340,26.855,-276.855,-135.742
1678024479.868,-260.254,-55.664,20.508,-256.836,-180.176
1678024479.872,-258.301,-50.293,22.461,-193.359,-62.988
1678024479.876,-250.488,-53.223,25.879,-147.461,358.887
1678024479.879,-231.445,-52.734,29.785,-169.434,402.832
1678024479.883,-214.844,-51.758,26.367,-239.746,-115.234
1678024479.887,-217.773,-59.082,22.461,-239.746,-176.758
1678024479.891,-215.332,-64.941,18.555,-166.504,13.672
1678024479.895,-197.266,-70.312,16.113,-104.492,-17.578
1678024479.911,-178.223,-79.102,16.602,-131.836,-124.512
1678024479.915,-179.688,-80.078,15.625,-213.379,-80.078
1678024479.919,-185.059,-70.801,14.160,-215.820,-14.160
1678024479.923,-190.918,-67.871,14.160,-142.578,-140.137
1678024479.927,-185.547,-75.195,10.742,-91.797,-164.062
1678024479.931,-164.551,-81.055,5.371,-109.375,85.449
1678024479.935,-150.879,-76.172,7.812,-178.223,110.352
1678024479.938,-159.180,-70.801,9.766,-203.613,-176.758
1678024479.942,-173.828,-70.801,5.859,-141.602,-193.848
1678024479.946,-170.410,-77.148,5.371,-78.613,66.895
1678024479.950,-148.926,-82.031,9.766,-80.078,122.559
1678024479.954,-119.629,-85.449,6.836,-136.230,-118.652
1678024479.956,-112.305,-80.078,6.348,-160.645,-104.004
1678024479.960,-128.418,-79.102,3.418,-108.887,38.574
1678024479.964,-116.211,-85.938,-0.977,-41.016,-31.250
1678024479.968,-81.055,-90.332,-3.906,-32.715,-99.121
1678024479.972,-70.801,-92.773,-9.277,-89.844,-31.250
1678024479.976,-83.008,-91.797,-17.090,-132.812,142.090
1678024479.980,-93.750,-93.750,-32.715,-83.984,174.316
1678024479.983,-69.336,-94.238,-37.109,0.000,10.742
1678024479.987,-48.828,-97.168,-30.762,9.766,-68.359
1678024479.991,-37.598,-95.215,-35.156,-41.992,108.398
1678024479.995,-24.902,-92.773,-38.574,-80.078,12.695
1678024479.999,-34.668,-98.633,-39.062,-50.781,-178.223
1678024480.003,-29.297,-101.562,-50.293,29.297,-53.711
1678024480.007,-1.465,-99.609,-52.246,49.805,30.273
1678024480.011,11.719,-103.027,-47.363,-12.695,-10.254
1678024480.015,28.809,-104.980,-50.781,-54.688,-121.094
1678024480.019,55.664,-94.727,-48.828,-5.371,-30.273
1678024480.023,49.805,-85.938,-44.434,74.707,161.133
1678024480.027,52.734,-89.355,-51.270,108.398,123.535
1678024480.030,82.520,-92.773,-57.129,61.523,-78.613
1678024480.034,93.262,-87.891,-55.176,2.441,-20.020
1678024480.038,90.332,-85.449,-53.711,31.250,150.391
1678024480.042,88.379,-85.449,-57.617,99.121,-52.246
1678024480.046,116.211,-85.938,-54.688,142.090,-100.586
1678024480.046,153.320,-82.031,-46.387,124.512,-100.586
1678024480.050,156.738,-73.730,-47.363,67.383,-154.297
1678024480.054,144.043,-76.660,-53.223,65.918,-157.715
1678024480.058,144.043,-74.707,-57.617,135.742,-117.676
1678024480.062,156.250,-68.359,-57.617,191.406,42.480
1678024480.066,173.340,-62.500,-53.711,163.574,59.082
1678024480.070,171.387,-54.199,-52.734,94.727,-116.699
1678024480.073,151.855,-54.688,-58.105,77.637,-114.746
1678024480.077,135.742,-57.617,-63.477,143.555,211.426
1678024480.081,134.766,-56.152,-64.941,190.430,359.375
1678024480.085,148.438,-50.781,-62.012,152.344,61.523
1678024480.089,152.344,-45.410,-64.453,85.938,-109.375
1678024480.093,140.137,-47.852,-68.848,62.012,-124.023
1678024480.097,127.441,-47.363,-65.430,110.352,-211.914
1678024480.101,121.582,-39.551,-64.453,165.039,-175.781
1678024480.105,125.488,-38.574,-65.918,143.066,-46.875
1678024480.109,127.441,-42.480,-66.895,61.035,-118.652
1678024480.113,123.047,-42.480,-68.359,35.156,-214.844
1678024480.117,108.887,-41.016,-61.523,97.656,-197.266
1678024480.120,100.098,-40.039,-57.617,159.180,110.352
1678024480.124,106.445,-37.109,-58.105,157.715,390.625
1678024480.128,109.863,-31.738,-59.082,83.008,-11.230
1678024480.132,107.910,-29.297,-58.105,31.250,-256.348
1678024480.136,94.238,-30.273,-56.641,64.453,-131.348
1678024480.136,83.984,-36.133,-58.594,117.676,-98.633
1678024480.140,93.750,-35.156,-52.246,115.723,-109.375
1678024480.144,105.957,-33.691,-51.270,55.176,-91.797
1678024480.148,91.309,-36.621,-53.711,6.836,-112.305
1678024480.152,64.941,-33.691,-48.828,40.039,-118.652
1678024480.156,58.105,-29.297,-43.457,104.980,-5.859
1678024480.160,67.871,-28.809,-45.898,112.793,104.980
1678024480.163,72.754,-31.738,-46.387,60.059,259.766
1678024480.167,63.477,-35.156,-41.504,14.160,246.094
1678024480.171,49.316,-34.180,-41.016,30.762,-33.691
1678024480.175,39.551,-31.738,-41.504,77.637,-9.766
1678024480.179,52.734,-28.809,-44.434,94.238,77.148
1678024480.183,71.289,-26.367,-44.922,53.223,-84.961
1678024480.187,64.453,-26.367,-40.527,-15.625,-206.055
1678024480.191,34.668,-29.297,-40.527,-10.254,-166.992
1678024480.195,16.113,-30.273,-40.527,57.617,-135.254
1678024480.199,25.879,-31.738,-34.180,83.984,-91.797
1678024480.203,34.180,-29.785,-32.715,34.668,-16.113
1678024480.207,29.297,-29.297,-35.156,-26.855,59.570
1678024480.210,13.672,-31.738,-37.598,-26.367,84.473
1678024480.214,1.465,-29.297,-40.527,30.273,-70.312
1678024480.218,9.766,-29.785,-38.574,63.965,-51.758
1678024480.222,23.926,-34.180,-39.551,13.672,-32.227
1678024480.226,16.113,-31.738,-38.574,-50.293,-99.121
1678024480.228,-1.953,-30.762,-40.527,-54.688,-45.898
1678024480.232,-6.836,-33.691,-40.527,-2.930,-89.355
1678024480.236,-11.719,-37.109,-41.016,35.645,24.902
1678024480.240,-3.418,-40.527,-47.852,-4.883,30.273
1678024480.244,7.324,-37.109,-46.387,-66.406,-132.324
1678024480.248,-2.441,-32.715,-40.527,-75.684,-150.391
1678024480.252,-11.719,-31.250,-36.621,-13.184,228.027
1678024480.255,-8.789,-30.762,-34.180,43.457,362.793
1678024480.259,1.465,-29.785,-32.227,13.184,-58.105
1678024480.263,4.883,-31.250,-32.715,-62.988,-129.883
1678024480.267,-5.859,-34.180,-28.320,-75.684,-126.465
1678024480.271,-23.438,-37.109,-30.762,-20.508,-180.176
1678024480.287,-22.461,-38.086,-33.203,30.273,-171.387
1678024480.291,-1.465,-34.180,-23.926,32.715,-65.918
1678024480.295,2.441,-31.738,-23.926,-39.551,-45.410
1678024480.299,-16.113,-31.738,-30.273,-86.914,-123.047
1678024480.303,-22.949,-31.250,-26.367,-28.320,-152.832
1678024480.307,-14.648,-30.762,-13.672,41.992,29.785
1678024480.311,-10.254,-35.156,-13.672,38.574,316.895
1678024480.314,-13.184,-43.457,-20.020,-36.133,52.246
1678024480.318,-21.484,-41.016,-21.484,-83.984,-232.910
1678024480.322,-30.273,-37.598,-22.949,-47.852,-104.980
1678024480.326,-38.574,-40.039,-21.484,17.090,-45.410
1678024480.330,-29.785,-38.574,-23.926,33.203,-77.148
1678024480.331,-19.531,-40.039,-28.809,-27.344,-179.688
1678024480.335,-30.273,-41.016,-28.320,-78.613,-234.863
1678024480.339,-38.086,-38.086,-25.879,-54.199,-129.395
1678024480.343,-28.320,-34.668,-25.391,9.277,-109.863
1678024480.347,-15.137,-32.715,-18.555,36.133,-48.340
1678024480.351,-30.762,-39.062,-19.043,-37.598,199.707
1678024480.355,-35.156,-41.504,-26.855,-104.492,161.133
1678024480.358,-30.273,-34.180,-22.949,-66.895,13.672
1678024480.362,-42.480,-33.691,-22.461,2.930,-4.883
1678024480.366,-31.250,-36.621,-27.344,30.762,180.664
1678024480.370,-15.137,-33.691,-29.297,-21.973,148.438
1678024480.374,-17.090,-32.715,-24.902,-90.332,-163.574
1678024480.378,-25.391,-31.250,-23.926,-75.684,-122.070
1678024480.382,-32.227,-28.809,-25.391,-2.441,-45.410
1678024480.386,-22.949,-28.320,-25.391,35.156,-5.371
1678024480.390,-3.906,-31.250,-29.785,-17.578,-63.477
1678024480.394,-10.254,-26.855,-28.320,-86.914,-110.352
1678024480.398,-32.227,-27.832,-25.391,-87.891,0.488
1678024480.402,-37.109,-30.762,-27.832,-25.879,47.852
1678024480.405,-24.902,-30.273,-29.785,18.555,-12.695
1678024480.409,-9.277,-31.250,-28.809,-8.789,55.664
1678024480.413,-11.719,-34.180,-28.320,-78.125,204.102
1678024480.417,-26.855,-33.203,-26.367,-95.703,-21.484
1678024480.421,-33.203,-28.320,-26.367,-29.297,-180.664
1678024480.421,-24.902,-27.832,-28.809,27.832,-113.770
1678024480.425,-7.812,-27.832,-27.832,14.160,-103.516
1678024480.429,-5.371,-25.879,-26.367,-48.340,-164.551
1678024480.433,-18.066,-28.809,-26.367,-73.242,-250.000
1678024480.437,-31.250,-30.762,-29.785,-21.484,-149.414
1678024480.441,-20.020,-27.832,-31.738,35.156,-23.926
1678024480.445,-3.418,-31.250,-32.227,17.090,-45.410
1678024480.448,0.977,-30.762,-32.715,-46.387,-142.090
1678024480.452,-6.836,-34.668,-26.855,-67.383,13.184
1678024480.456,-27.344,-36.621,-22.949,-14.648,236.328
1678024480.460,-26.855,-27.344,-23.438,44.434,-35.156
1678024480.464,-9.766,-26.367,-23.926,43.457,-125.488
1678024480.468,-9.766,-33.203,-23.926,-15.625,-79.590
1678024480.472,-26.855,-32.227,-21.973,-54.688,-248.535
1678024480.476,-42.480,-29.297,-20.020,-19.531,-262.207
1678024480.480,-36.133,-29.297,-23.926,48.828,-112.305
1678024480.484,-20.020,-27.344,-22.461,58.105,-57.617
1678024480.488,-9.766,-25.391,-20.996,-17.578,-86.914
1678024480.492,-21.973,-26.855,-25.879,-72.754,-107.422
1678024480.495,-32.227,-23.438,-20.996,-25.391,45.898
1678024480.499,-26.855,-21.484,-19.531,46.875,185.059
1678024480.503,-13.184,-27.344,-21.973,43.945,-4.395
1678024480.507,-5.371,-28.809,-21.973,-16.602,-129.395
1678024480.511,-15.625,-27.832,-22.949,-65.918,-136.719
1678024480.511,-24.414,-26.367,-23.926,-47.363,-164.551
1678024480.515,-29.297,-28.809,-25.879,21.973,-112.305
1678024480.519,-18.555,-30.273,-22.949,47.852,-24.902
1678024480.523,-1.465,-25.879,-23.438,-9.277,4.395
1678024480.527,-0.977,-21.973,-21.973,-63.477,-63.965
1678024480.531,-15.137,-25.879,-26.367,-38.574,-42.969
1678024480.535,-21.973,-27.832,-31.250,27.344,37.598
1678024480.538,-10.742,-25.879,-31.738,57.617,270.508
1678024480.542,-6.348,-22.949,-38.086,4.395,264.648
1678024480.546,-8.301,-18.555,-35.156,-68.359,-189.941
1678024480.550,-19.043,-19.043,-25.879,-58.594,-241.211
1678024480.554,-28.320,-19.531,-21.973,3.906,-115.234
1678024480.560,-17.090,-18.555,-20.508,47.852,-68.848
1678024480.564,-0.977,-19.043,-23.438,16.113,-60.059
1678024480.568,-5.371,-17.578,-27.832,-54.688,-0.488
1678024480.572,-25.879,-20.996,-27.344,-70.801,17.090
1678024480.576,-37.598,-25.391,-25.391,-17.090,-76.172
1678024480.580,-37.109,-21.973,-24.414,36.133,-16.113
1678024480.584,-23.438,-19.043,-22.949,13.184,217.773
1678024480.587,-18.555,-21.484,-22.461,-49.316,214.844
1678024480.591,-30.273,-21.973,-22.949,-66.895,-135.254
1678024480.595,-41.992,-19.531,-22.461,-15.137,-134.766
1678024480.599,-37.598,-20.996,-20.996,41.016,-27.344
1678024480.603,-15.625,-21.484,-19.531,24.902,-45.898
1678024480.601,-12.695,-20.996,-18.066,-45.410,-100.098
1678024480.605,-28.809,-21.973,-20.508,-73.242,-161.133
1678024480.609,-39.062,-27.344,-24.902,-24.414,-122.559
1678024480.613,-35.156,-27.344,-23.926,35.645,-46.875
1678024480.617,-23.926,-22.949,-18.066,35.645,1.465
1678024480.621,-20.020,-22.461,-20.508,-22.949,-10.742
1678024480.625,-29.785,-23.926,-23.438,-54.199,233.398
1678024480.628,-39.551,-23.438,-22.949,-24.414,283.691
1678024480.632,-35.156,-26.367,-23.438,15.625,-58.594
1678024480.636,-16.602,-25.879,-17.578,25.391,-91.309
1678024480.640,-12.207,-22.949,-19.043,-28.320,10.254
1678024480.644,-19.531,-26.855,-24.902,-72.754,-156.250
1678024480.648,-30.762,-30.762,-24.902,-42.969,-228.516
1678024480.652,-32.227,-30.273,-24.902,23.926,-45.898
1678024480.656,-11.230,-30.762,-22.461,42.480,13.184
1678024480.660,-3.418,-24.902,-20.020,-17.578,-106.934
1678024480.664,-15.625,-25.879,-19.531,-78.125,-189.941
1678024480.668,-30.273,-37.109,-21.973,-51.270,29.785
1678024480.672,-39.551,-40.039,-26.855,16.602,220.215
1678024480.675,-32.715,-36.133,-26.855,24.414,35.645
1678024480.679,-20.996,-34.180,-26.855,-35.645,-126.465
1678024480.683,-17.578,-36.621,-28.320,-88.867,-20.996
1678024480.687,-28.320,-36.621,-29.297,-64.453,56.641
1678024480.691,-37.109,-35.645,-29.785,-0.977,-139.160
1678024480.706,-32.227,-29.785,-25.879,27.832,-130.371
1678024480.710,-21.973,-31.250,-21.973,-19.043,-79.590
1678024480.714,-16.113,-33.203,-25.391,-90.820,-153.320
1678024480.718,-19.043,-29.297,-26.367,-83.008,-210.449
1678024480.722,-37.109,-32.715,-26.367,-16.602,-126.465
1678024480.726,-38.086,-34.180,-31.250,18.066,166.504
1678024480.730,-23.438,-31.738,-29.785,-16.602,187.500
1678024480.733,-20.020,-27.344,-25.879,-78.613,-89.355
1678024480.737,-28.809,-22.461,-24.902,-75.195,-172.363
1678024480.741,-32.715,-20.508,-25.391,5.859,161.621
1678024480.745,-18.066,-19.531,-26.367,57.617,141.113
1678024480.749,-1.953,-18.555,-26.367,20.020,-222.168
1678024480.753,1.953,-18.555,-24.902,-56.641,-237.305
1678024480.757,-15.137,-19.531,-27.344,-86.426,-166.016
1678024480.761,-38.086,-20.996,-25.391,-33.203,-160.156
1678024480.765,-30.762,-23.438,-23.926,21.484,-145.020
1678024480.769,-13.672,-23.926,-27.832,-1.465,24.902
1678024480.773,-9.277,-23.438,-27.832,-75.684,21.973
1678024480.777,-19.531,-20.996,-25.879,-94.238,-120.605
1678024480.780,-24.902,-17.578,-23.926,-34.668,-90.820
1678024480.784,-15.625,-10.254,-23.926,22.461,87.891
1678024480.788,-5.859,-13.672,-27.344,2.441,190.918
1678024480.792,-8.789,-21.973,-20.508,-71.777,-100.586
1678024480.796,-26.855,-13.184,-6.348,-95.215,-168.945
1678024480.796,-47.852,-14.160,-12.207,-54.199,-14.160
1678024480.800,-51.758,-20.508,-12.207,-11.230,9.766
1678024480.804,-42.480,-16.113,-3.906,-26.855,-119.629
1678024480.808,-52.246,-12.207,-2.441,-98.145,-108.887
1678024480.812,-84.961,-9.277,4.395,-160.156,-57.129
1678024480.816,-117.188,-11.230,15.625,-141.113,-0.977
1678024480.820,-153.809,3.418,12.695,-107.910,58.105
1678024480.823,-182.617,12.695,13.672,-149.414,-67.383
1678024480.827,-217.773,-0.977,22.949,-245.117,57.617
1678024480.831,-260.742,10.254,20.508,-325.195,119.141
1678024480.835,-291.504,25.391,29.785,-323.242,-181.641
1678024480.839,-322.754,20.996,38.574,-279.297,-125.488
1678024480.845,-323.730,19.043,26.855,-271.484,-16.602
1678024480.849,-301.270,31.250,25.879,-317.383,-63.477
1678024480.853,-297.852,35.645,32.715,-364.746,-101.562
1678024480.857,-314.941,19.531,32.715,-344.238,16.113
1678024480.861,-315.430,25.879,26.855,-264.648,75.684
1678024480.865,-292.480,27.344,20.996,-238.281,7.812
1678024480.869,-284.180,16.602,19.531,-294.434,63.477
1678024480.872,-280.762,28.320,25.879,-335.449,92.285
1678024480.876,-281.250,29.785,32.227,-307.129,107.910
1678024480.880,-288.086,17.578,14.648,-250.000,-87.891
1678024480.884,-271.484,23.926,6.348,-219.238,-132.812
1678024480.888,-251.953,21.484,12.207,-258.301,-114.746
1678024480.887,-249.023,9.766,11.230,-323.242,-162.109
1678024480.891,-250.000,11.719,4.883,-299.316,-177.246
1678024480.895,-249.023,13.672,7.324,-215.820,-120.605
1678024480.899,-238.770,11.230,14.648,-169.434,-11.230
1678024480.903,-224.609,3.906,17.578,-201.172,26.367
1678024480.907,-203.125,-2.441,20.996,-251.465,-121.582
1678024480.911,-192.383,-0.488,19.043,-230.469,-198.242
1678024480.914,-192.871,-0.977,15.625,-161.621,120.117
1678024480.918,-188.477,-4.883,14.648,-125.977,391.113
1678024480.922,-172.363,0.488,7.324,-173.340,45.410
1678024480.926,-159.668,-6.836,6.348,-247.070,-166.504
1678024480.930,-159.668,-13.672,5.371,-246.582,-119.141
1678024480.933,-157.715,-9.766,6.348,-170.898,-139.648
1678024480.937,-149.902,-7.812,6.348,-103.027,-115.234
1678024480.941,-137.207,-17.090,0.977,-113.770,4.395
1678024480.945,-127.441,-20.996,-0.977,-167.480,-19.043
1678024480.949,-134.277,-13.672,4.395,-174.316,-105.957
1678024480.953,-146.973,-20.996,4.395,-134.277,-43.945
1678024480.957,-135.254,-30.762,-0.488,-77.148,143.066
1678024480.960,-103.027,-20.508,-5.859,-76.172,373.535
1678024480.964,-103.516,-14.160,-10.254,-154.785,63.965
1678024480.968,-130.859,-23.926,-5.859,-192.871,-226.562
1678024480.972,-134.277,-23.926,0.977,-125.977,-109.375
1678024480.976,-132.324,-23.438,-2.441,-54.688,-44.434
1678024480.977,-113.281,-22.949,0.000,-56.152,-65.918
1678024480.981,-88.379,-18.066,9.766,-108.887,-124.023
1678024480.985,-97.168,-28.809,12.207,-149.902,-148.926
1678024480.989,-115.723,-41.504,11.230,-112.793,-150.391
1678024480.993,-104.492,-35.156,8.301,-45.410,-82.031
1678024480.997,-82.031,-28.320,-0.488,-48.828,-46.875
1678024481.001,-70.312,-28.809,-8.301,-110.352,240.234
1678024481.004,-80.078,-23.438,-12.207,-153.320,274.902
1678024481.008,-99.121,-19.043,-20.508,-131.348,-140.137
1678024481.012,-102.051,-14.160,-19.531,-64.453,-111.816
1678024481.016,-86.426,-16.602,-15.625,-31.250,48.828
1678024481.020,-67.871,-18.066,-18.066,-78.125,-81.055
1678024481.023,-73.242,-27.344,-19.531,-129.883,-295.410
1678024481.027,-84.961,-38.574,-19.531,-96.191,-217.285
1678024481.031,-75.684,-41.504,-19.531,-12.695,-87.402
1678024481.035,-55.176,-44.922,-29.297,9.766,-80.078
1678024481.039,-31.738,-43.945,-37.109,-44.434,-90.332
1678024481.043,-28.809,-38.086,-39.062,-89.844,15.625
1678024481.047,-28.809,-43.945,-47.852,-72.754,98.633
1678024481.050,-17.090,-46.875,-55.664,7.812,-70.801
1678024481.054,-7.324,-38.574,-57.129,48.340,-137.207
1678024481.058,16.602,-40.039,-62.012,19.531,18.555
1678024481.062,25.391,-42.969,-66.406,-28.809,80.566
1678024481.066,19.531,-40.527,-66.895,-29.785,-144.043
1678024481.082,19.531,-36.621,-70.801,45.898,-204.102
1678024481.086,26.367,-39.551,-80.078,92.773,-13.672
1678024481.090,40.039,-42.480,-80.566,56.152,10.742
1678024481.094,56.152,-34.668,-76.660,6.348,-136.719
1678024481.098,54.199,-30.762,-79.102,6.836,-105.957
1678024481.102,56.641,-33.203,-84.961,72.754,225.098
1678024481.106,67.871,-29.785,-91.797,132.324,267.578
1678024481.109,87.891,-29.297,-93.750,111.816,-22.949
1678024481.113,108.887,-25.391,-92.285,44.922,-135.742
1678024481.117,101.562,-19.531,-95.703,29.297,3.418
1678024481.121,95.215,-20.996,-104.492,91.309,10.254
1678024481.125,106.445,-18.555,-111.328,150.391,-134.277
1678024481.128,131.348,-16.602,-121.094,146.484,-85.938
1678024481.132,134.277,-12.207,-124.512,77.637,-70.801
1678024481.136,120.117,-13.672,-120.117,38.086,-173.828
1678024481.140,112.305,-14.160,-114.258,99.609,-219.238
1678024481.144,116.699,-8.301,-112.305,167.480,-20.996
1678024481.148,137.695,-7.812,-109.375,166.504,149.902
1678024481.152,155.762,-16.602,-109.375,108.887,2.441
1678024481.155,161.621,-19.043,-112.305,72.266,-134.277
1678024481.159,154.785,-11.719,-108.887,125.488,0.488
1678024481.163,152.832,-15.625,-104.980,195.312,215.820
1678024481.167,173.340,-17.578,-100.098,190.918,10.254
1678024481.171,187.500,-15.625,-95.703,126.953,-135.254
1678024481.171,178.223,-11.719,-88.379,84.961,-136.230
1678024481.175,167.969,-11.719,-76.172,123.047,-109.375
1678024481.179,159.668,-16.602,-74.219,185.059,-73.242
1678024481.183,161.133,-20.996,-76.172,194.824,14.160
1678024481.187,162.109,-23.438,-72.266,123.535,159.180
1678024481.191,148.438,-24.414,-70.801,57.129,17.090
1678024481.195,131.836,-25.391,-69.824,91.309,-148.438
1678024481.198,125.488,-24.902,-63.477,161.133,-67.871
1678024481.202,123.047,-28.809,-61.523,182.129,233.887
1678024481.206,119.141,-29.297,-62.500,127.930,280.762
1678024481.210,117.676,-23.438,-62.500,63.965,-117.676
1678024481.214,104.492,-23.438,-62.988,74.219,-133.301
1678024481.218,85.449,-25.879,-64.941,135.254,-72.266
1678024481.222,92.285,-24.902,-63.965,159.180,-125.977
1678024481.226,110.840,-24.414,-53.711,107.422,-135.742
1678024481.230,103.027,-27.344,-49.316,44.434,-129.883
1678024481.234,86.914,-28.320,-48.340,62.988,-111.816
1678024481.238,80.566,-27.832,-45.410,139.160,-50.293
1678024481.242,85.938,-32.227,-42.480,166.992,13.184
1678024481.245,96.191,-33.203,-38.086,125.977,96.191
1678024481.249,84.473,-30.273,-38.574,46.387,188.965
1678024481.253,68.848,-28.809,-41.504,27.832,-66.895
1678024481.257,57.617,-32.715,-41.504,89.844,-249.023
1678024481.261,59.082,-33.203,-42.969,129.883,-166.016
1678024481.261,84.473,-30.273,-40.039,88.867,-186.523
1678024481.265,76.172,-29.785,-37.109,9.766,-245.605
1678024481.269,52.734,-31.738,-41.992,-15.137,-211.426
1678024481.273,46.875,-34.180,-37.598,37.109,-144.531
1678024481.277,47.852,-30.762,-35.645,96.191,59.082
1678024481.281,56.152,-29.297,-39.062,76.172,141.113
1678024481.285,64.453,-30.273,-38.086,2.441,-16.602
1678024481.288,56.641,-26.367,-41.504,-14.160,179.688
1678024481.292,34.668,-22.461,-45.410,36.621,511.230
1678024481.296,30.762,-20.996,-45.898,84.473,182.129
1678024481.300,43.457,-19.043,-44.434,66.406,-75.195
1678024481.304,48.340,-16.602,-38.574,-7.324,-31.738
1678024481.308,39.551,-17.578,-30.273,-43.945,-173.828
1678024481.312,26.367,-19.043,-29.785,10.254,-205.078
1678024481.316,19.531,-23.438,-33.691,80.566,-98.145
1678024481.320,29.785,-26.367,-37.598,74.707,-52.734
1678024481.324,37.598,-24.414,-36.621,0.000,-138.184
1678024481.328,28.809,-27.344,-31.738,-41.504,-142.578
1678024481.332,11.230,-28.320,-28.809,1.465,100.098
1678024481.335,0.488,-26.367,-27.832,64.941,245.605
1678024481.339,9.766,-25.879,-30.762,71.289,-13.672
1678024481.343,14.648,-28.320,-31.738,9.766,-215.332
1678024481.347,5.859,-33.203,-30.762,-38.086,-135.742
1678024481.351,-7.812,-30.273,-31.250,-7.324,-83.008
1678024481.351,-10.254,-29.785,-33.691,66.406,-138.672
1678024481.355,2.930,-30.273,-30.273,75.684,-105.957
1678024481.359,20.020,-29.297,-32.227,12.207,-28.809
1678024481.363,18.555,-26.367,-37.109,-34.180,-82.520
1678024481.367,-9.277,-24.902,-33.691,-16.602,-113.770
1678024481.371,-19.043,-29.785,-32.715,38.086,4.883
1678024481.375,-8.301,-29.297,-30.762,62.012,301.758
1678024481.378,-6.836,-28.809,-37.598,6.348,339.844
1678024481.382,-7.812,-26.855,-38.574,-63.477,-104.492
1678024481.386,-19.531,-24.902,-37.109,-51.270,-195.801
1678024481.390,-25.879,-25.391,-43.457,16.602,-50.293
1678024481.394,-7.324,-17.578,-40.527,55.176,-73.242
1678024481.399,1.465,-11.230,-38.574,7.812,-147.949
1678024481.403,-0.977,-12.695,-44.434,-59.570,-38.574
1678024481.407,-12.207,-12.207,-42.969,-49.316,6.836
1678024481.411,-17.090,-20.020,-39.551,10.254,-100.098
1678024481.415,-2.441,-17.578,-38.574,57.617,-91.309
1678024481.419,5.859,-12.207,-38.574,35.645,108.887
1678024481.423,8.301,-14.160,-37.598,-35.156,89.355
1678024481.426,4.883,-13.672,-37.109,-47.363,-167.969
1678024481.430,-19.043,-13.672,-38.574,20.508,-201.660
1678024481.434,-20.996,-10.742,-36.133,74.219,53.711
1678024481.438,3.418,-11.230,-35.156,48.340,152.344
1678024481.442,5.859,-8.789,-35.156,-27.344,-110.352
1678024481.456,-12.695,-8.789,-35.645,-55.664,-170.898
1678024481.460,-24.414,-11.230,-34.180,9.766,-53.223
1678024481.464,-13.672,-9.766,-32.227,71.289,57.617
1678024481.468,-6.836,-12.695,-34.668,38.574,33.203
1678024481.472,7.812,-10.742,-39.062,-25.879,-40.527
1678024481.476,7.324,-9.766,-32.227,-44.434,103.516
1678024481.480,-36.621,-14.160,-24.414,-6.836,196.289
1678024481.483,-37.598,-10.254,-26.367,43.457,-47.363
1678024481.487,-10.254,-10.254,-22.949,34.180,-111.328
1678024481.491,-9.766,-11.230,-22.949,-33.691,1.953
1678024481.495,-25.391,-13.184,-25.391,-68.848,-135.742
1678024481.499,-40.527,-14.648,-27.344,-24.414,-218.750
1678024481.503,-33.691,-13.672,-27.832,44.434,-13.184
1678024481.507,-4.883,-15.137,-27.832,48.828,32.227
1678024481.511,6.836,-14.160,-26.855,-19.531,-135.742
1678024481.515,-15.137,-20.996,-30.762,-72.754,-208.008
1678024481.519,-39.551,-22.461,-33.691,-34.668,-115.234
1678024481.523,-45.410,-19.531,-33.691,34.180,3.906
1678024481.527,-29.785,-20.508,-36.133,38.574,54.199
1678024481.530,-18.066,-17.090,-36.133,-29.297,-64.941
1678024481.534,-30.273,-19.531,-34.668,-85.449,-14.160
1678024481.538,-50.293,-25.391,-31.738,-46.387,233.398
1678024481.542,-52.246,-27.344,-30.273,24.414,83.984
1678024481.546,-37.109,-29.785,-30.762,37.109,-83.008
1678024481.546,-23.926,-30.273,-35.156,-22.461,-68.848
1678024481.550,-30.273,-27.344,-33.691,-87.891,-144.043
1678024481.554,-43.945,-26.367,-35.645,-66.895,-178.711
1678024481.558,-40.527,-25.391,-39.062,9.766,-93.750
1678024481.562,-29.785,-22.461,-34.668,41.504,48.828
1678024481.566,-23.438,-24.902,-31.250,-14.648,49.805
1678024481.570,-23.438,-28.809,-31.738,-90.332,-42.969
1678024481.573,-33.691,-26.367,-29.785,-75.684,-96.680
1678024481.577,-47.363,-27.344,-29.297,0.488,140.625
1678024481.581,-43.945,-29.785,-26.367,37.598,386.230
1678024481.585,-24.902,-28.320,-29.785,-12.695,20.020
1678024481.589,-18.555,-27.832,-33.203,-77.148,-216.309
1678024481.593,-30.273,-31.250,-33.691,-85.449,-168.945
1678024481.597,-38.574,-30.762,-33.203,-23.926,-131.836
1678024481.601,-29.785,-24.902,-29.297,29.297,-74.707
1678024481.605,-21.973,-24.414,-25.879,0.977,-74.707
1678024481.609,-24.414,-27.832,-25.879,-70.312,-115.234
1678024481.613,-36.133,-26.367,-24.902,-84.961,-164.551
1678024481.617,-42.969,-22.949,-24.414,-12.695,-94.727
1678024481.620,-42.480,-25.391,-27.344,43.945,151.855
1678024481.624,-30.273,-31.250,-27.832,18.555,193.359
1678024481.628,-23.438,-29.785,-27.832,-54.688,-90.820
1678024481.632,-27.832,-23.438,-28.809,-77.148,-225.586
1678024481.636,-38.574,-23.926,-28.809,-15.137,-67.383
1678024481.636,-39.062,-28.809,-26.855,46.875,31.738
1678024481.640,-18.555,-30.273,-24.414,34.180,-67.383
1678024481.644,-14.648,-30.762,-26.367,-44.434,-108.398
1678024481.648,-29.297,-34.668,-26.855,-82.520,-149.902
1678024481.652,-33.203,-29.297,-24.902,-27.832,-127.441
1678024481.656,-36.621,-28.809,-26.855,32.227,-21.484
1678024481.660,-34.668,-31.250,-27.344,24.414,85.938
1678024481.663,-32.227,-27.344,-21.973,-35.156,261.719
1678024481.667,-44.922,-28.320,-21.484,-79.102,220.703
1678024481.671,-56.152,-27.344,-24.414,-47.363,-72.754
1678024481.675,-53.223,-29.297,-26.367,21.484,-50.781
1678024481.679,-42.480,-36.133,-33.203,17.578,-11.230
1678024481.685,-32.715,-37.598,-32.715,-53.711,-93.262
1678024481.689,-39.551,-34.180,-30.273,-101.562,-196.289
1678024481.693,-62.012,-30.762,-31.250,-67.871,-147.949
1678024481.697,-69.336,-27.832,-23.926,8.789,1.953
1678024481.701,-51.758,-27.832,-20.996,29.297,-59.570
1678024481.705,-35.156,-23.926,-18.555,-31.250,-82.520
1678024481.709,-41.992,-19.043,-13.184,-93.750,100.098
1678024481.712,-60.547,-25.879,-18.066,-72.754,211.426
1678024481.716,-71.777,-23.438,-17.090,-4.883,-5.371
1678024481.720,-69.336,-7.812,0.000,16.602,-87.891
1678024481.724,-70.801,-11.230,0.000,-53.711,-79.102
1678024481.728,-94.238,-4.395,0.488,-138.672,-153.809
1678024481.728,-132.812,5.859,12.695,-149.902,-150.391
1678024481.732,-169.434,1.953,6.348,-117.676,-36.621
1678024481.736,-177.734,11.230,5.859,-111.328,41.992
1678024481.740,-195.801,10.254,21.973,-177.246,-6.836
1678024481.744,-253.906,16.602,29.297,-283.203,-14.160
1678024481.748,-296.387,16.602,33.691,-317.871,-46.387
1678024481.752,-319.824,16.113,41.992,-263.184,222.656
1678024481.755,-329.102,20.508,47.852,-224.609,544.922
1678024481.759,-311.523,7.812,50.781,-266.602,156.738
1678024481.763,-308.105,12.207,51.270,-336.426,-147.461
1678024481.767,-321.289,16.113,53.223,-337.891,-162.109
1678024481.771,-310.547,10.254,58.105,-251.953,-130.371
1678024481.786,-304.688,3.906,57.129,-198.242,-112.305
1678024481.790,-286.621,0.488,60.059,-224.121,-136.230
1678024481.794,-264.648,-8.789,63.477,-281.738,-130.859
1678024481.798,-269.043,-12.695,62.500,-293.945,-202.637
1678024481.802,-270.996,-16.602,63.477,-223.633,-126.953
1678024481.806,-262.695,-22.461,62.988,-161.133,172.852
1678024481.810,-249.512,-24.414,61.035,-177.734,252.930
1678024481.813,-236.816,-30.762,56.152,-236.328,-23.438
1678024481.817,-226.562,-34.668,52.246,-247.070,-204.102
1678024481.821,-235.840,-36.621,49.805,-191.406,9.277
1678024481.825,-228.516,-45.898,48.828,-119.141,148.438
1678024481.829,-189.941,-55.664,47.852,-121.582,-66.406
1678024481.831,-153.320,-62.988,48.340,-169.434,-167.480
1678024481.835,-150.879,-66.895,44.434,-183.105,-145.996
1678024481.839,-153.809,-65.430,36.133,-123.047,-119.141
1678024481.843,-149.902,-72.266,26.367,-48.828,-140.137
1678024481.847,-126.953,-80.078,21.973,-25.391,-16.602
1678024481.851,-86.914,-73.730,20.020,-66.895,212.402
1678024481.855,-94.727,-63.477,5.859,-118.164,93.262
1678024481.858,-116.699,-65.918,-3.906,-91.309,-107.910
1678024481.862,-103.027,-70.801,-9.766,-15.625,-55.176
1678024481.866,-87.891,-67.871,-14.648,10.742,211.426
1678024481.870,-76.172,-65.918,-22.461,-42.969,170.410
1678024481.874,-62.500,-62.012,-29.297,-94.238,-275.391
1678024481.878,-68.359,-63.477,-29.297,-64.453,-292.969
1678024481.882,-67.383,-62.988,-29.297,17.578,-125.000
1678024481.886,-37.109,-54.688,-31.738,59.082,-71.289
1678024481.890,-19.043,-55.176,-36.621,0.488,-98.145
1678024481.894,-16.113,-53.711,-37.109,-59.570,-123.535
1678024481.898,-20.996,-46.875,-41.016,-37.109,-117.188
1678024481.902,-21.484,-46.875,-49.316,33.203,-84.473
1678024481.905,4.883,-45.898,-51.270,72.266,-96.191
1678024481.909,30.273,-45.410,-52.734,31.250,25.391
1678024481.913,32.715,-46.875,-55.176,-25.391,94.238
1678024481.917,27.344,-41.992,-58.594,-17.090,-171.387
1678024481.921,20.996,-41.992,-63.477,54.688,-154.785
1678024481.921,22.461,-38.574,-60.547,93.750,40.527
1678024481.925,40.039,-35.156,-60.547,56.152,-32.715
1678024481.929,56.152,-35.156,-63.477,-5.859,-188.965
1678024481.933,48.340,-38.574,-60.059,-6.348,-220.215
1678024481.937,37.109,-39.551,-57.617,65.430,-64.453
1678024481.941,46.875,-39.062,-58.105,123.047,48.340
1678024481.945,59.570,-39.551,-60.059,87.402,-30.762
1678024481.948,58.594,-36.133,-55.664,22.949,-133.301
1678024481.952,53.711,-39.551,-52.246,23.926,63.477
1678024481.956,50.293,-40.039,-53.711,83.008,167.969
1678024481.960,57.129,-37.109,-55.176,127.441,-114.746
1678024481.964,71.777,-35.156,-57.129,99.121,-77.148
1678024481.968,74.707,-34.180,-55.664,25.879,-47.852
1678024481.972,59.570,-34.668,-56.152,6.836,-141.602
1678024481.976,35.156,-33.203,-61.035,60.547,-189.941
1678024481.980,33.203,-30.273,-60.059,108.887,-62.012
1678024481.984,47.852,-32.227,-56.152,86.426,-33.691
1678024481.988,48.828,-32.715,-52.734,18.555,-58.594
1678024481.992,43.457,-30.762,-50.293,-8.301,-75.684
1678024481.995,41.016,-32.227,-52.734,29.297,-30.762
1678024481.999,38.086,-35.645,-57.129,90.820,180.176
1678024482.003,51.758,-39.551,-54.199,96.680,7.324
1678024482.007,64.941,-38.574,-49.316,32.227,-200.684
1678024482.011,59.570,-39.551,-52.246,-4.395,-166.992
1678024482.012,52.734,-36.133,-49.805,40.527,-108.398
1678024482.016,57.129,-35.156,-44.922,109.863,-124.023
1678024482.020,64.941,-40.039,-42.480,116.699,-133.301
1678024482.024,63.477,-37.598,-41.504,50.293,-74.219
1678024482.028,56.152,-31.250,-42.480,1.465,-148.438
1678024482.032,45.410,-31.250,-46.875,35.645,-163.574
1678024482.036,39.062,-31.738,-47.852,104.492,-51.270
1678024482.039,45.898,-31.250,-46.387,119.141,226.562
1678024482.043,59.082,-32.715,-41.504,56.152,290.039
1678024482.047,53.711,-34.180,-39.551,-14.160,-93.262
1678024482.051,23.926,-33.203,-42.969,2.441,-163.574
1678024482.055,-2.441,-36.133,-47.363,72.754,-106.445
1678024482.073,3.906,-36.133,-48.340,88.379,-123.535
1678024482.077,19.043,-30.762,-42.480,32.227,-124.512
1678024482.081,16.602,-27.832,-36.133,-21.973,-84.473
1678024482.085,0.977,-29.297,-38.574,-9.277,-78.125
1678024482.089,-6.348,-32.715,-41.504,60.547,-53.223
1678024482.093,8.789,-34.180,-38.574,94.238,25.879
1678024482.097,18.066,-37.109,-39.551,42.969,167.480
1678024482.100,6.836,-34.180,-39.551,-21.973,308.105
1678024482.104,-5.859,-32.227,-36.621,-25.879,46.387
1678024482.108,-14.160,-31.738,-39.551,38.574,-114.746
1678024482.112,-10.742,-30.762,-41.504,91.309,-8.301
1678024482.116,6.348,-31.250,-36.621,47.363,-83.008
1678024482.101,13.184,-30.273,-34.180,-27.344,-155.762
1678024482.105,-5.859,-28.809,-37.109,-22.949,-138.184
1678024482.109,-22.949,-27.344,-34.668,45.898,-109.375
1678024482.113,-20.020,-24.902,-29.785,93.750,-96.680
1678024482.117,-10.742,-26.855,-35.156,63.965,-93.262
1678024482.121,-6.836,-26.367,-37.598,-20.508,-20.508
1678024482.125,-18.555,-26.855,-38.574,-47.852,57.617
1678024482.128,-28.320,-29.785,-37.109,16.602,31.738
1678024482.132,-23.926,-27.832,-32.715,63.477,24.902
1678024482.136,-9.766,-24.414,-37.109,28.809,-116.211
1678024482.140,-11.719,-27.832,-39.551,-29.785,73.242
1678024482.144,-20.020,-34.668,-33.691,-40.527,268.555
1678024482.148,-13.672,-23.438,-31.738,19.043,-39.551
1678024482.152,-16.602,-18.555,-33.691,62.988,-62.500
1678024482.156,-17.090,-23.926,-36.621,32.715,49.805
1678024482.160,-11.719,-23.438,-43.457,-41.016,-84.473
1678024482.164,-24.902,-21.973,-44.922,-83.496,-196.777
1678024482.168,-47.363,-20.996,-49.316,-40.527,97.656
1678024482.172,-54.199,-18.066,-54.688,21.484,241.211
1678024482.175,-38.574,-12.207,-55.176,6.836,-61.035
1678024482.179,-24.414,-4.883,-55.176,-56.641,-197.754
1678024482.183,-24.414,0.000,-54.199,-83.496,-113.281
1678024482.187,-30.273,-1.953,-50.781,-37.598,-109.375
1678024482.191,-24.902,-5.859,-49.316,32.715,-94.727
1678024482.194,-4.395,-10.742,-45.898,48.340,-39.551
1678024482.198,-1.953,-10.742,-42.969,-15.137,74.219
1678024482.202,-15.137,-11.719,-45.898,-77.637,55.664
1678024482.206,-32.227,-11.719,-47.363,-53.223,-208.496
1678024482.210,-39.062,-9.277,-46.387,31.738,-123.535
1678024482.214,-17.578,-10.254,-46.387,58.105,270.508
1678024482.218,-3.418,-16.602,-46.387,-4.395,257.324
1678024482.221,-10.254,-19.531,-42.480,-58.594,-177.734
1678024482.225,-24.414,-16.113,-42.480,-44.922,-220.215
1678024482.229,-31.250,-18.555,-47.363,22.949,-21.973
1678024482.233,-21.973,-22.949,-45.410,59.082,-43.457
1678024482.237,-16.602,-23.438,-43.945,9.766,-136.230
1678024482.255,-31.250,-21.973,-39.062,-60.547,-110.352
1678024482.259,-45.898,-21.973,-36.621,-63.477,-122.559
1678024482.263,-51.758,-21.973,-39.551,10.742,-122.559
1678024482.267,-46.875,-17.578,-37.109,52.246,-59.082
1678024482.271,-31.738,-10.742,-36.621,4.395,-14.648
1678024482.275,-37.109,-14.648,-39.062,-64.941,258.301
1678024482.279,-51.270,-20.996,-41.504,-69.336,174.316
1678024482.282,-55.664,-22.461,-43.945,2.930,-111.816
1678024482.286,-47.852,-22.461,-38.574,56.152,-39.551
1678024482.290,-29.785,-22.949,-31.738,23.438,-43.457
1678024482.294,-20.996,-23.926,-32.715,-48.340,-147.461
1678024482.298,-28.809,-26.367,-33.691,-63.965,-162.598
1678024482.313,-35.156,-30.762,-34.668,0.000,-86.914
1678024482.317,-30.762,-28.320,-35.645,54.688,26.367
1678024482.321,-22.949,-28.320,-34.668,24.902,-20.020
1678024482.325,-21.973,-32.715,-27.344,-33.691,-159.180
1678024482.329,-34.180,-29.297,-22.949,-55.176,-100.586
1678024482.333,-46.387,-28.809,-24.902,-13.672,-24.902
1678024482.337,-34.180,-26.855,-23.438,46.875,7.324
1678024482.340,-15.137,-24.902,-23.926,26.855,-46.875
1678024482.344,-14.648,-22.461,-25.391,-35.645,85.449
1678024482.348,-29.297,-21.484,-27.832,-62.988,223.633
1678024482.352,-39.062,-23.438,-34.668,-27.344,-106.445
1678024482.356,-32.227,-22.949,-34.180,32.227,-174.316
1678024482.357,-21.484,-21.973,-30.273,31.250,-40.039
1678024482.361,-16.113,-16.113,-27.832,-40.527,-154.785
1678024482.365,-25.391,-20.996,-28.809,-91.797,-244.629
1678024482.369,-40.527,-25.879,-31.250,-48.828,-156.250
1678024482.373,-36.133,-20.996,-32.227,18.066,-50.781
1678024482.377,-24.414,-19.531,-31.738,19.531,-56.152
1678024482.381,-18.066,-24.902,-29.785,-42.969,-118.652
1678024482.384,-16.602,-25.391,-25.879,-91.797,-133.301
1678024482.388,-33.691,-24.414,-28.809,-57.617,-114.746
1678024482.392,-42.969,-25.391,-27.832,14.648,-84.961
1678024482.396,-34.180,-25.391,-27.344,20.996,-106.934
1678024482.400,-26.855,-23.926,-28.320,-35.156,31.738
1678024482.401,-34.180,-20.508,-24.902,-78.125,281.250
1678024482.405,-45.898,-25.391,-29.785,-62.988,35.156
1678024482.409,-37.598,-26.367,-34.180,2.930,-116.211
1678024482.413,-25.391,-23.438,-33.203,31.250,-34.180
1678024482.417,-7.324,-21.973,-30.762,-15.625,-32.715
1678024482.421,-1.953,-20.996,-25.879,-76.660,-111.328
1678024482.425,-12.695,-18.555,-22.949,-63.477,-125.488
1678024482.428,-15.625,-16.602,-22.461,14.648,162.598
1678024482.432,-6.348,-18.555,-24.902,39.062,95.703
1678024482.436,14.648,-14.160,-22.949,-1.465,-154.785
1678024482.440,24.414,-12.695,-24.414,-51.270,-145.020
1678024482.444,4.395,-20.996,-29.785,-51.270,119.141
1678024482.433,-9.277,-23.438,-26.855,14.160,187.012
1678024482.437,-7.324,-27.832,-24.902,43.457,-90.332
1678024482.441,-0.977,-24.902,-23.926,2.441,-38.574
1678024482.445,-6.348,-22.949,-26.855,-62.500,-48.828
1678024482.449,-23.438,-24.902,-28.320,-74.707,-198.730
1678024482.453,-19.043,-25.391,-28.320,1.953,-66.406
1678024482.457,2.930,-29.297,-22.461,63.477,134.277
1678024482.460,-8.789,-31.738,-16.602,14.648,22.461
1678024482.464,-30.762,-35.645,-15.137,-61.523,-164.062
1678024482.468,-38.086,-39.551,-8.301,-62.500,-177.246
1678024482.472,-57.617,-50.781,-4.883,-17.578,29.297
1678024482.476,-58.105,-54.199,-0.488,34.668,277.344
1678024482.477,-45.410,-52.246,3.906,20.996,44.922
1678024482.481,-48.828,-56.152,7.812,-61.523,-137.695
1678024482.485,-62.500,-57.129,8.789,-84.473,-141.113
1678024482.489,-81.543,-60.547,9.277,-30.762,-169.922
1678024482.493,-84.961,-62.988,10.742,19.531,-147.949
1678024482.497,-73.730,-62.988,12.695,7.324,-105.957
1678024482.501,-69.824,-67.383,14.648,-57.129,240.234
1678024482.504,-86.914,-73.242,11.719,-98.633,315.918
1678024482.508,-109.863,-72.754,5.371,-59.082,-85.938
1678024482.512,-101.562,-70.312,6.348,6.348,-115.234
1678024482.516,-80.566,-68.848,7.324,1.953,-46.875
1678024482.520,-76.172,-66.895,4.883,-57.129,-97.656
1678024482.524,-78.125,-64.453,0.488,-101.562,-215.332
1678024482.528,-82.031,-62.988,-4.883,-63.965,-162.598
1678024482.532,-88.379,-62.012,-5.371,12.207,18.555
1678024482.536,-73.730,-60.547,-4.883,23.926,-30.762
1678024482.540,-60.059,-54.688,-7.812,-38.574,-157.227
1678024482.544,-69.824,-47.363,-8.789,-91.309,-11.719
1678024482.548,-82.031,-48.340,-7.812,-60.547,74.707
1678024482.551,-82.031,-44.922,-8.301,12.695,-91.797
1678024482.555,-72.754,-38.574,-6.348,29.297,-119.629
1678024482.559,-68.359,-39.062,-9.277,-25.879,36.133
1678024482.563,-75.684,-38.086,-14.160,-67.871,53.223
1678024482.567,-89.355,-34.180,-15.137,-56.152,-160.156
1678024482.581,-88.867,-34.668,-19.531,3.906,-144.043
1678024482.585,-74.219,-35.156,-15.137,41.016,73.242
1678024482.589,-54.688,-32.227,-15.625,0.977,24.902
1678024482.593,-47.363,-30.762,-18.555,-62.500,-197.266
1678024482.597,-52.246,-35.156,-17.578,-60.059,-154.297
1678024482.601,-47.852,-33.691,-22.461,11.230,263.184
1678024482.605,-35.156,-29.297,-25.391,51.270,381.348
1678024482.608,-24.414,-35.156,-24.902,4.883,-23.438
1678024482.612,-20.996,-36.133,-19.043,-62.012,-169.922
1678024482.616,-36.621,-27.832,-18.066,-56.152,-72.754
1678024482.620,-58.105,-28.809,-20.996,4.395,-83.496
1678024482.624,-62.500,-28.320,-17.090,40.527,-141.602
1678024482.628,-54.199,-28.320,-10.254,10.254,-42.480
1678024482.632,-56.641,-33.203,-14.648,-60.547,-85.938
1678024482.636,-82.031,-33.691,-21.484,-84.473,-164.062
1678024482.640,-97.168,-25.879,-23.438,-26.855,-93.262
1678024482.644,-93.750,-22.949,-21.973,21.973,87.891
1678024482.648,-85.938,-27.344,-17.578,0.000,222.168
1678024482.652,-86.914,-14.648,-12.207,-74.219,-8.789
1678024482.655,-110.840,-13.184,-7.812,-104.492,-268.555
1678024482.659,-128.418,-25.879,-4.883,-48.828,-86.426
1678024482.663,-130.371,-20.508,-5.859,-16.602,177.734
1678024482.667,-125.488,-12.695,-2.441,-52.246,-10.254
1678024482.671,-139.648,-14.648,-1.953,-134.766,-171.387
1678024482.671,-174.316,-13.672,5.859,-190.430,-173.828
1678024482.675,-207.031,-4.883,17.090,-168.457,-98.633
1678024482.679,-251.465,-2.441,17.578,-154.785,-97.168
1678024482.683,-262.207,3.418,24.414,-187.012,-128.418
1678024482.687,-276.855,0.000,23.438,-264.160,-22.949
1678024482.691,-312.988,7.324,34.180,-328.613,-87.402
1678024482.695,-325.195,12.695,48.340,-309.082,-138.184
1678024482.698,-317.871,2.441,45.410,-241.699,-23.926
1678024482.702,-306.641,9.277,52.734,-233.398,269.531
1678024482.706,-293.457,11.719,54.688,-296.875,394.531
1678024482.710,-289.551,4.395,52.246,-339.844,-43.945
1678024482.714,-290.039,6.348,55.176,-297.363,-208.496
1678024482.719,-282.715,7.324,49.316,-229.004,-84.961
1678024482.723,-259.766,2.930,45.898,-209.961,-115.234
1678024482.727,-242.676,-4.395,50.781,-256.348,-174.805
1678024482.731,-236.816,-7.324,54.688,-287.109,-79.102
1678024482.735,-234.375,-8.789,56.152,-247.559,-8.301
1678024482.739,-233.398,-17.578,44.434,-186.523,-52.246
1678024482.743,-221.680,-23.438,37.109,-165.527,-9.766
1678024482.746,-201.172,-23.438,43.945,-197.754,16.113
1678024482.750,-203.613,-22.949,45.898,-240.723,3.906
1678024482.754,-229.980,-27.832,40.527,-233.887,-150.391
1678024482.758,-235.840,-32.227,38.086,-165.527,-242.188
1678024482.762,-214.355,-35.645,32.715,-104.980,62.012
1678024482.761,-195.801,-38.086,25.391,-128.906,211.426
1678024482.765,-177.246,-37.109,26.855,-190.918,-99.121
1678024482.769,-159.180,-45.898,21.973,-178.223,-166.992
1678024482.773,-139.648,-51.758,19.531,-103.516,-21.484
1678024482.777,-115.234,-62.988,19.043,-52.246,104.980
1678024482.781,-94.727,-79.590,8.301,-75.195,56.641
1678024482.785,-76.660,-73.242,3.418,-123.047,-3.418
1678024482.788,-65.918,-64.453,0.488,-93.750,203.613
1678024482.792,-60.547,-65.918,-11.230,-16.113,258.301
1678024482.796,-43.945,-63.477,-13.184,11.230,-98.145
1678024482.800,-25.391,-55.176,-17.090,-24.414,-72.266
1678024482.804,-29.297,-50.781,-26.367,-83.496,20.508
1678024482.808,-47.852,-48.828,-31.250,-96.191,-212.402
1678024482.812,-59.570,-48.340,-36.621,-38.086,-231.934
1678024482.816,-42.480,-51.270,-37.598,20.020,-74.219
1678024482.820,-16.602,-51.758,-43.945,15.137,20.508
1678024482.824,-8.301,-47.363,-51.758,-44.434,-80.566
1678024482.828,-15.137,-48.828,-56.152,-69.824,-155.273
1678024482.832,-18.555,-53.223,-62.012,-3.906,-35.156
1678024482.835,-18.066,-50.781,-62.012,57.617,126.953
1678024482.839,-0.977,-41.992,-59.570,42.969,-65.430
1678024482.843,8.789,-36.621,-60.547,-9.277,-205.078
1678024482.847,-6.348,-35.156,-63.965,-41.016,-146.973
1678024482.851,-8.301,-34.668,-64.941,8.789,-112.793
1678024482.855,5.371,-34.668,-62.500,82.031,-55.664
1678024482.859,24.414,-36.133,-60.547,81.055,6.836
1678024482.863,40.039,-41.992,-65.430,16.113,21.973
1678024482.867,38.574,-41.504,-65.430,-20.996,-116.211
1678024482.871,20.020,-35.645,-64.941,24.902,-187.988
1678024482.875,20.508,-36.133,-68.848,101.562,-97.168
1678024482.879,39.551,-36.133,-65.430,129.395,259.766
1678024482.882,56.641,-29.785,-61.523,86.426,423.828
1678024482.886,58.105,-34.180,-58.594,24.414,-26.367
1678024482.890,35.645,-43.457,-60.547,42.480,-101.074
1678024482.894,34.668,-41.016,-63.965,103.027,1.953
1678024482.898,52.734,-37.598,-63.477,119.141,-41.992
1678024482.928,61.523,-39.551,-62.500,73.242,-120.605
1678024482.932,54.199,-41.504,-64.453,22.949,-130.859
1678024482.936,33.203,-37.109,-61.035,41.016,-48.340
1678024482.940,23.438,-35.156,-59.570,103.027,-46.387
1678024482.944,29.297,-36.621,-64.453,129.883,-72.266
1678024482.948,31.738,-37.598,-64.941,84.473,22.949
1678024482.952,22.949,-43.457,-62.988,29.785,242.676
1678024482.955,8.789,-40.527,-62.500,34.668,66.895
1678024482.959,3.906,-39.062,-59.082,83.008,-163.086
1678024482.963,13.672,-41.992,-58.105,112.793,-27.832
1678024482.967,33.203,-39.062,-59.082,69.824,8.789
1678024482.971,31.738,-38.574,-61.035,3.906,-138.184
1678024482.957,18.555,-36.133,-63.477,6.348,-189.941
1678024482.961,8.789,-33.203,-64.941,74.707,-98.145
1678024482.965,4.883,-33.203,-60.547,116.699,-53.223
1678024482.969,22.461,-34.180,-59.082,86.426,-97.168
1678024482.973,25.391,-35.645,-66.406,14.648,-97.656
1678024482.977,12.207,-36.621,-64.453,-0.977,-36.621
1678024482.981,9.766,-34.180,-57.617,55.664,28.320
1678024482.984,26.855,-28.809,-58.594,93.750,89.355
1678024482.988,43.945,-29.297,-57.617,78.613,48.340
1678024482.992,46.387,-28.809,-53.711,28.320,-5.371
1678024482.996,44.922,-25.391,-56.641,4.395,-33.203
1678024483.000,55.664,-29.297,-56.641,49.805,-155.762
1678024482.992,79.590,-26.367,-53.711,102.051,-140.137
1678024482.996,84.473,-27.344,-50.781,107.422,204.590
1678024483.000,78.125,-31.250,-45.898,46.387,249.512
1678024483.004,63.477,-30.762,-45.410,-4.883,-121.094
1678024483.008,56.641,-33.203,-47.852,36.133,-118.652
1678024483.012,62.500,-36.133,-46.387,93.262,17.578
1678024483.016,64.941,-41.504,-47.363,77.637,7.324
1678024483.019,60.547,-39.551,-51.270,5.371,-28.809
1678024483.023,54.199,-34.668,-49.805,-32.227,33.691
1678024483.027,33.203,-35.156,-49.805,-0.977,-7.812
1678024483.031,24.902,-37.598,-49.316,59.570,-130.371
1678024483.035,38.574,-39.551,-49.805,67.383,-185.059
1678024483.046,36.621,-35.645,-50.781,0.488,-129.883
1678024483.050,14.648,-33.691,-50.781,-47.852,-122.559
1678024483.054,-4.883,-41.016,-49.316,-17.578,-117.188
1678024483.058,-13.184,-38.574,-46.875,38.574,-57.617
1678024483.062,-0.977,-32.715,-45.898,52.734,164.551
1678024483.066,24.414,-30.273,-43.457,11.719,454.102
1678024483.070,32.227,-28.320,-49.316,-39.062,188.965
1678024483.073,6.348,-27.344,-51.758,-19.531,-104.492
1678024483.077,-8.789,-27.344,-47.363,39.062,17.578
1678024483.081,11.230,-21.973,-46.387,47.852,-37.598
1678024483.085,12.207,-18.066,-46.875,-5.371,-193.848
1678024483.089,-6.348,-22.461,-43.945,-61.035,-134.766
1678024483.093,-18.066,-27.832,-41.992,-47.852,-27.344
1678024483.097,-16.602,-25.391,-41.016,21.484,-92.285
1678024483.101,-15.137,-33.203,-40.527,46.387,-100.586
1678024483.105,-1.465,-43.457,-41.992,9.766,0.000
1678024483.109,20.020,-33.203,-42.969,-40.039,-11.230
1678024483.113,16.113,-21.973,-43.945,-42.969,-79.102
1678024483.117,-1.465,-22.461,-47.363,8.301,-67.383
1678024483.120,14.160,-26.367,-53.223,44.922,73.242
1678024483.124,31.250,-21.484,-60.059,10.742,124.023
1678024483.128,11.719,-16.602,-59.570,-57.617,-100.098
1678024483.132,7.812,-17.578,-54.199,-63.965,-214.355
1678024483.136,12.695,-19.043,-50.781,-0.977,-194.336
1678024483.167,15.625,-22.461,-49.316,47.852,-67.871
1678024483.171,23.438,-21.973,-48.340,26.855,-65.430
1678024483.175,10.254,-23.438,-48.828,-41.504,-159.180
1678024483.179,-9.766,-23.926,-49.805,-65.918,-72.754
1678024483.183,-16.113,-26.855,-48.828,-5.859,64.941
1678024483.187,-9.766,-30.762,-49.805,43.457,2.441
1678024483.191,5.859,-30.762,-48.828,23.438,-41.992
1678024483.194,15.625,-23.926,-45.898,-32.715,164.551
1678024483.198,1.465,-19.531,-48.340,-47.852,151.855
1678024483.202,-15.137,-26.367,-50.293,-11.230,-106.445
1678024483.206,-17.578,-26.367,-47.363,35.156,-32.715
1678024483.210,-11.230,-26.367,-45.898,31.738,-13.184
1678024483.210,-11.230,-26.367,-45.898,31.738,-13.184
1678024483.210,-55.176,-28.320,-40.039,-29.297,5.859
1678024483.214,-52.734,-26.367,-42.969,43.457,-120.605
1678024483.218,-36.621,-20.996,-41.504,54.199,-105.957
1678024483.222,-17.578,-20.508,-42.480,-8.789,5.859
1678024483.226,-26.855,-27.344,-48.828,-55.664,-11.719
1678024483.227,-37.598,-23.926,-47.363,-15.625,-197.754
1678024483.231,-15.625,-19.043,-44.922,42.969,-180.664
1678024483.235,6.348,-18.555,-45.898,49.316,100.586
1678024483.239,19.043,-16.113,-40.527,0.488,236.816
1678024483.243,24.414,-18.555,-36.621,-53.223,-34.668
1678024483.247,3.906,-21.973,-38.086,-38.574,-158.691
1678024483.251,-6.836,-21.973,-35.156,20.508,187.988
1678024483.254,12.207,-24.414,-35.156,41.504,384.277
1678024483.258,21.484,-21.484,-36.133,-10.742,-72.754
1678024483.262,14.160,-22.461,-41.016,-69.824,-291.016
1678024483.266,-2.441,-26.855,-43.945,-58.594,-133.301
1678024483.270,-13.184,-25.391,-38.574,0.000,-122.559
1678024483.275,-9.277,-25.391,-36.621,25.391,-182.617
1678024483.279,4.395,-26.367,-38.574,-15.137,-150.391
1678024483.283,6.836,-24.902,-40.527,-71.289,-173.828
1678024483.287,-14.160,-27.832,-43.945,-73.730,-231.934
1678024483.291,-31.738,-33.203,-43.457,-14.648,-210.449
1678024483.295,-22.461,-29.297,-40.527,38.086,41.504
1678024483.299,-15.625,-27.832,-39.062,13.184,217.285
1678024483.302,-20.020,-28.809,-41.016,-54.688,-22.461
1678024483.306,-20.508,-25.879,-39.551,-66.406,-161.621
1678024483.310,-23.438,-25.391,-39.062,-12.695,-41.016
1678024483.314,-16.113,-27.832,-38.574,37.598,18.555
1678024483.318,-4.883,-29.297,-36.133,20.996,-97.168
1678024483.318,4.395,-25.879,-32.227,-42.969,-201.660
1678024483.322,-7.812,-26.855,-33.203,-71.289,-114.258
1678024483.326,-24.414,-30.762,-37.109,-19.043,-25.391
1678024483.330,-22.461,-34.668,-44.434,32.227,-105.469
1678024483.334,-20.508,-35.645,-42.480,15.625,-105.957
1678024483.338,-21.484,-29.785,-37.109,-43.945,146.484
1678024483.342,-35.156,-31.250,-37.109,-71.289,391.113
1678024483.345,-45.898,-33.203,-39.062,-26.367,65.430
1678024483.349,-32.715,-34.180,-41.504,22.461,-152.832
1678024483.353,-14.648,-28.809,-41.016,5.371,41.016
1678024483.357,-15.137,-26.367,-35.645,-57.617,0.488
1678024483.361,-21.484,-27.832,-31.738,-87.891,-235.352
1678024483.377,-30.273,-22.461,-32.227,-41.992,-150.879
1678024483.381,-33.203,-23.926,-35.645,11.719,59.082
1678024483.385,-27.344,-26.855,-33.203,9.766,0.977
1678024483.389,-23.926,-25.879,-34.180,-48.828,-208.984
1678024483.393,-31.250,-29.297,-35.645,-86.914,-124.512
1678024483.397,-35.156,-26.367,-31.250,-53.711,158.203
1678024483.401,-37.598,-26.367,-31.738,-7.812,57.617
1678024483.404,-41.504,-31.250,-33.691,-4.883,-135.254
1678024483.408,-40.527,-25.391,-26.855,-60.059,-33.691
1678024483.412,-56.641,-20.020,-17.578,-112.305,92.773
1678024483.416,-88.379,-28.320,-28.809,-104.492,-120.605
1678024483.420,-97.656,-27.832,-29.785,-52.246,-120.605
1678024483.422,-90.820,-26.855,-13.184,-37.598,-22.949
1678024483.426,-100.098,-24.902,-9.277,-104.004,-91.309
1678024483.430,-125.977,-17.090,-2.930,-183.105,-184.570
1678024483.434,-155.273,-17.578,4.883,-188.965,-190.918
1678024483.438,-176.758,-24.902,0.977,-130.371,22.949
1678024483.442,-179.688,-26.367,6.836,-119.141,142.578
1678024483.446,-180.176,-25.879,17.578,-186.035,46.875
1678024483.449,-210.449,-29.785,15.137,-256.836,-40.527
1678024483.453,-226.562,-20.020,19.531,-247.559,56.641
1678024483.457,-253.906,-8.789,18.066,-206.543,39.062
1678024483.461,-271.973,0.488,14.648,-199.219,-111.816
1678024483.465,-257.324,4.395,16.113,-229.980,-20.996
1678024483.499,-260.742,4.395,9.277,-292.969,-24.414
1678024483.503,-271.484,16.113,10.254,-296.875,-183.594
1678024483.507,-279.785,25.391,7.324,-235.352,-173.340
1678024483.511,-267.578,16.602,-4.883,-196.289,-25.391
1678024483.515,-242.676,9.277,-9.766,-228.027,87.402
1678024483.519,-238.770,10.742,-6.348,-287.598,28.320
1678024483.523,-264.648,8.789,-1.953,-300.293,-45.410
1678024483.526,-280.762,15.137,-1.465,-258.301,32.715
1678024483.530,-276.367,16.113,-2.930,-207.520,95.703
1678024483.534,-259.766,5.371,-11.719,-211.914,-102.051
1678024483.538,-251.953,4.395,-11.230,-267.578,-206.055
1678024483.542,-251.953,6.348,-10.254,-277.344,-95.215
1678024483.511,-257.812,4.395,-6.836,-227.051,-120.605
1678024483.515,-250.000,-6.836,-4.883,-180.176,-198.730
1678024483.519,-222.168,-15.625,-4.395,-174.316,-116.211
1678024483.523,-216.309,-21.973,-7.324,-231.445,-134.766
1678024483.527,-209.473,-15.137,-8.789,-244.141,-122.559
1678024483.531,-205.566,-9.766,-7.324,-192.383,-73.730
1678024483.535,-207.031,-15.625,-11.719,-136.719,10.742
1678024483.538,-197.266,-19.531,-10.742,-134.277,160.645
1678024483.542,-186.035,-20.020,-10.254,-194.336,92.285
1678024483.546,-178.711,-21.973,-15.625,-223.145,-148.926
1678024483.550,-187.012,-21.484,-8.789,-184.082,-194.336
1678024483.554,-191.895,-22.949,-13.184,-117.676,-82.031
1678024483.588,-177.246,-33.203,-13.184,-106.934,-86.914
1678024483.592,-151.855,-37.109,-10.742,-161.133,-71.289
1678024483.596,-163.086,-36.133,-13.672,-207.520,-20.020
1678024483.600,-188.965,-28.809,-11.719,-180.664,218.262
1678024483.604,-178.711,-31.738,-12.695,-105.469,285.645
1678024483.608,-163.574,-45.410,-13.672,-79.102,99.121
1678024483.612,-159.668,-43.457,-14.648,-131.348,128.906
1678024483.615,-159.668,-43.457,-9.277,-166.992,340.820
1678024483.619,-157.715,-54.199,-8.301,-137.207,62.500
1678024483.623,-136.719,-51.270,-13.184,-71.289,-233.398
1678024483.627,-120.117,-48.340,-16.113,-33.691,-77.637
1678024483.631,-116.211,-54.199,-15.137,-74.707,-104.980
1678024483.601,-110.352,-56.152,-17.578,-130.371,-207.031
1678024483.605,-115.723,-62.012,-20.508,-114.746,-145.508
1678024483.609,-103.027,-68.848,-27.832,-32.227,-56.641
1678024483.613,-65.918,-67.871,-36.621,11.719,-69.336
1678024483.617,-29.785,-62.988,-38.086,-26.367,-61.035
1678024483.621,-9.277,-61.035,-36.621,-73.730,-6.348
1678024483.625,-21.484,-71.777,-40.527,-66.406,58.105
1678024483.628,-29.297,-78.125,-45.898,2.930,-10.742
1678024483.632,-7.812,-86.426,-48.340,69.336,-111.328
1678024483.636,9.766,-94.238,-54.688,46.875,0.000
1678024483.640,23.438,-90.332,-56.152,-15.625,42.969
1678024483.644,25.391,-89.355,-57.617,-18.066,-164.062
1678024483.665,13.184,-87.891,-66.895,36.133,-214.844
1678024483.669,29.297,-87.891,-63.477,89.844,-79.590
1678024483.673,54.688,-85.938,-57.129,84.473,270.020
1678024483.677,52.246,-82.520,-58.594,17.578,260.742
1678024483.681,42.480,-85.938,-62.012,-10.742,-126.465
1678024483.685,42.480,-84.961,-66.406,50.781,-21.484
1678024483.689,46.387,-82.031,-65.918,113.770,181.152
1678024483.692,64.453,-80.078,-65.430,93.750,10.254
1678024483.696,72.266,-73.242,-69.336,24.902,-158.691
1678024483.700,54.199,-69.824,-69.824,19.043,-58.105
1678024483.704,39.062,-73.730,-74.219,75.195,23.438
1678024483.708,50.781,-76.172,-76.172,125.488,-52.246
1678024483.706,75.195,-73.242,-72.754,129.883,-108.398
1678024483.710,86.426,-73.242,-75.684,72.754,-108.398
1678024483.714,83.496,-69.336,-78.613,33.203,-109.375
1678024483.718,78.125,-67.383,-75.195,64.941,-181.152
1678024483.722,80.566,-69.336,-74.707,127.441,-27.344
1678024483.726,100.586,-64.941,-74.707,135.254,95.215
1678024483.730,101.074,-68.359,-72.266,72.266,-31.738
1678024483.733,90.332,-66.895,-65.918,32.227,-206.543
1678024483.737,92.285,-59.082,-68.359,67.871,-270.996
1678024483.741,85.449,-61.035,-74.707,129.883,87.402
1678024483.745,83.496,-61.035,-70.312,149.414,350.586
1678024483.749,86.426,-59.082,-71.777,73.730,0.977
1678024483.755,79.590,-58.105,-71.289,12.695,-227.051
1678024483.759,75.195,-56.641,-69.824,46.875,-104.004
1678024483.763,61.523,-55.664,-69.824,97.168,-128.418
1678024483.767,55.176,-53.223,-65.918,108.398,-218.262
1678024483.771,67.871,-50.781,-65.918,68.848,-94.238
1678024483.775,65.430,-47.852,-66.895,13.672,55.664
1678024483.779,45.898,-45.898,-68.359,14.160,-59.570
1678024483.782,34.180,-43.457,-68.848,82.031,-166.504
1678024483.786,38.574,-45.410,-74.219,114.746,11.719
1678024483.790,49.316,-46.875,-77.148,59.570,181.152
1678024483.794,46.387,-50.781,-72.266,-21.973,-96.191
1678024483.798,24.414,-54.199,-70.801,-24.902,-189.941
1678024483.796,23.926,-51.270,-70.801,45.898,-56.641
1678024483.800,40.527,-48.828,-71.289,83.984,-94.727
1678024483.804,51.270,-48.340,-69.336,52.246,-157.715
1678024483.808,47.852,-49.316,-66.406,8.301,-166.992
1678024483.812,26.367,-43.945,-66.406,5.859,-138.184
1678024483.816,19.531,-41.016,-65.918,60.059,-54.688
1678024483.820,37.109,-38.086,-61.523,100.098,40.527
1678024483.823,47.363,-35.645,-62.012,63.477,28.320
1678024483.827,44.434,-38.574,-65.430,4.883,164.551
1678024483.831,28.320,-39.551,-63.965,-11.719,258.301
1678024483.835,10.254,-41.016,-60.547,30.273,-56.152
1678024483.839,20.020,-40.527,-62.012,84.473,-126.953
1678024483.843,31.250,-41.992,-63.477,68.848,-42.480
1678024483.847,21.973,-46.875,-62.500,-4.395,-128.418
1678024483.851,10.254,-39.062,-65.918,-28.809,-223.633
1678024483.855,3.418,-34.668,-63.965,18.555,-157.227
1678024483.859,1.953,-38.086,-61.523,67.383,6.836
1678024483.863,2.441,-34.180,-61.035,55.176,64.941
1678024483.867,0.488,-28.809,-59.082,-8.789,-19.531
1678024483.870,-9.766,-31.738,-56.641,-40.039,13.672
1678024483.874,-24.902,-37.598,-53.223,-4.883,219.727
1678024483.878,-26.855,-38.086,-54.688,40.039,44.922
1678024483.882,-20.020,-41.016,-57.617,31.250,-97.656
1678024483.886,-18.555,-40.039,-53.223,-35.156,52.734
1678024483.888,-26.367,-38.086,-55.176,-81.055,-35.645
1678024483.892,-42.969,-43.945,-58.594,-43.457,-187.500
1678024483.896,-42.969,-42.480,-53.711,22.949,-141.113
1678024483.900,-25.879,-41.504,-53.711,26.855,-91.797
1678024483.904,-26.367,-50.293,-57.129,-36.621,-73.242
1678024483.908,-36.621,-53.223,-56.641,-75.195,-101.074
1678024483.912,-40.039,-52.734,-58.594,-41.016,-145.020
1678024483.915,-38.086,-51.270,-60.059,23.438,69.336
1678024483.919,-28.320,-49.316,-52.246,32.715,202.637
1678024483.923,-17.578,-50.781,-49.316,-35.645,-105.469
1678024483.927,-22.949,-49.805,-51.758,-78.613,-204.102
1678024483.931,-37.598,-47.363,-58.594,-56.641,-44.434
1678024483.948,-43.945,-46.875,-63.965,0.977,22.949
1678024483.952,-36.133,-46.875,-56.641,34.668,-32.715
1678024483.956,-23.926,-49.316,-52.246,-14.160,-68.848
1678024483.960,-24.902,-46.387,-47.363,-73.242,-112.305
1678024483.964,-40.527,-45.898,-47.852,-58.105,-221.680
1678024483.968,-47.852,-48.340,-47.852,-1.465,-151.367
1678024483.972,-35.156,-50.781,-46.875,25.879,143.066
1678024483.975,-22.461,-47.363,-47.852,-4.395,362.793
1678024483.979,-19.043,-43.945,-49.316,-69.336,36.133
1678024483.983,-29.297,-45.898,-52.246,-74.707,-227.539
1678024483.987,-46.875,-47.363,-54.688,-9.277,-141.602
1678024483.991,-46.387,-53.223,-52.246,36.133,-26.367
1678024483.976,-32.227,-55.664,-45.898,2.930,-23.926
1678024483.980,-34.180,-50.781,-48.828,-72.266,-127.441
1678024483.984,-54.688,-50.293,-51.270,-83.496,-44.434
1678024483.988,-69.336,-51.758,-48.340,-27.832,-23.438
1678024483.992,-49.316,-51.758,-46.387,20.508,-20.996
1678024483.996,-36.621,-52.734,-42.969,2.441,46.387
1678024484.000,-53.711,-55.176,-42.969,-66.406,48.828
1678024484.003,-66.406,-56.641,-42.480,-88.379,-20.996
1678024484.007,-72.754,-55.176,-40.039,-29.297,-111.328
1678024484.011,-67.871,-49.316,-37.598,27.832,-118.164
1678024484.015,-54.688,-46.387,-35.645,19.531,152.344
1678024484.019,-52.246,-52.734,-42.969,-45.898,257.812
1678024484.040,-58.105,-50.293,-43.945,-81.055,-194.336
1678024484.044,-67.383,-47.363,-37.598,-36.133,-213.867
1678024484.048,-65.918,-49.316,-37.598,18.066,-8.789
1678024484.052,-51.270,-51.270,-38.086,3.906,-75.684
1678024484.056,-38.086,-50.781,-39.551,-59.570,-214.844
1678024484.060,-45.898,-51.270,-44.434,-95.215,-62.500
1678024484.064,-66.406,-52.246,-45.898,-59.570,141.113
1678024484.067,-68.359,-54.199,-43.945,-0.488,-105.469
1678024484.071,-50.293,-51.758,-41.992,9.277,-210.449
1678024484.075,-40.039,-50.781,-41.992,-36.133,-59.570
1678024484.079,-50.293,-56.152,-41.992,-80.566,-60.059
1678024484.083,-58.594,-53.223,-45.410,-57.129,-191.895
1678024484.081,-53.223,-51.270,-47.363,5.371,-123.535
1678024484.085,-29.785,-52.246,-47.363,17.090,5.371
1678024484.089,-26.367,-50.781,-46.875,-43.945,-50.293
1678024484.093,-41.992,-49.316,-41.016,-95.215,-163.086
1678024484.097,-58.594,-50.781,-43.945,-67.871,-103.516
1678024484.101,-70.312,-50.293,-43.457,-8.789,35.156
1678024484.105,-72.754,-57.129,-43.457,5.371,80.566
1678024484.108,-62.500,-66.895,-41.504,-43.945,19.531
1678024484.112,-32.715,-57.617,-46.875,-84.961,-213.867
1678024484.116,-45.898,-41.992,-51.270,-68.848,-35.645
1678024484.120,-85.449,-43.945,-49.316,-26.367,331.543
1678024484.124,-77.637,-41.504,-48.340,0.000,57.617
1678024484.128,-64.453,-32.715,-48.828,-44.922,-110.840
1678024484.132,-85.449,-28.320,-58.594,-129.395,-76.172
1678024484.136,-114.258,-30.273,-62.988,-136.230,-155.273
1678024484.140,-120.605,-27.832,-59.570,-76.660,-192.871
1678024484.144,-116.211,-23.438,-61.523,-43.945,-101.074
1678024484.148,-114.258,-24.414,-67.871,-86.914,9.277
1678024484.152,-120.605,-25.391,-71.289,-158.203,-81.543
1678024484.155,-120.605,-27.832,-73.242,-154.297,-177.246
1678024484.159,-119.629,-27.832,-71.289,-94.238,-42.969
1678024484.163,-111.328,-30.273,-66.895,-45.410,250.488
1678024484.167,-74.219,-29.297,-68.848,-61.523,103.027
1678024484.171,-65.430,-30.273,-70.801,-126.953,-130.859
1678024484.171,-68.359,-34.668,-67.871,-131.836,-75.195
1678024484.175,-63.477,-34.668,-58.594,-68.359,-97.168
1678024484.179,-48.828,-38.574,-50.781,-9.277,-132.812
1678024484.183,-22.461,-38.574,-46.875,-20.020,-78.613
1678024484.187,-15.625,-37.109,-44.922,-85.938,-25.391
1678024484.191,-25.879,-43.457,-47.852,-107.910,-83.496
1678024484.195,-29.785,-41.992,-42.969,-49.805,-85.449
1678024484.198,-21.973,-38.574,-39.062,8.301,-70.801
1678024484.202,-3.906,-41.504,-36.621,7.812,189.453
1678024484.206,2.930,-45.410,-34.180,-49.316,346.191
1678024484.210,-12.695,-51.270,-42.969,-91.797,-64.941
1678024484.214,-27.344,-49.805,-44.434,-48.340,-165.527
1678024484.218,-32.715,-49.316,-38.574,10.742,-7.812
1678024484.222,-21.973,-49.316,-38.086,2.441,-45.410
1678024484.226,-15.137,-48.340,-34.180,-57.129,-84.473
1678024484.230,-24.902,-49.805,-34.668,-96.680,-107.910
1678024484.234,-46.875,-56.641,-40.527,-71.777,-165.039
1678024484.238,-60.059,-61.035,-40.039,-11.719,-55.664
1678024484.242,-51.758,-55.664,-40.039,-2.441,11.719
1678024484.245,-42.969,-58.105,-44.922,-62.012,47.363
1678024484.249,-48.828,-62.012,-45.898,-110.840,149.902
1678024484.253,-62.500,-62.500,-43.945,-83.008,-37.598
1678024484.257,-56.152,-62.012,-47.852,-14.648,-61.523
1678024484.261,-38.086,-57.617,-44.922,1.465,106.445
1678024484.261,-26.367,-60.059,-43.457,-46.387,-20.508
1678024484.265,-35.156,-57.617,-46.387,-89.844,-182.617
1678024484.269,-53.223,-56.641,-40.527,-81.055,-177.246
1678024484.273,-56.152,-56.641,-35.645,-12.207,-48.340
1678024484.277,-42.969,-54.688,-38.086,14.648,81.543
1678024484.281,-34.180,-62.988,-43.945,-46.387,70.312
1678024484.285,-38.574,-65.430,-43.457,-103.027,-89.844
1678024484.288,-55.176,-61.035,-37.109,-84.961,92.285
1678024484.292,-61.523,-62.012,-35.645,-13.184,277.832
1678024484.296,-46.387,-59.082,-35.645,18.066,-5.859
1678024484.300,-33.203,-61.035,-32.715,-28.320,-123.047
1678024484.304,-44.922,-69.336,-35.156,-86.914,-84.961
1678024484.310,-62.988,-75.195,-34.180,-88.379,-101.074
1678024484.314,-65.918,-76.660,-32.227,-28.809,-122.559
1678024484.318,-57.617,-75.195,-34.668,9.277,-20.508
1678024484.322,-46.387,-76.660,-37.109,-33.691,31.738
1678024484.326,-44.922,-80.078,-36.133,-99.121,-162.109
1678024484.330,-52.734,-83.984,-35.645,-102.539,-211.914
1678024484.334,-59.570,-77.637,-28.320,-33.203,31.250
1678024484.337,-51.270,-75.684,-26.855,17.578,231.934
1678024484.341,-38.574,-75.684,-31.738,-16.602,-3.418
1678024484.345,-29.297,-72.266,-28.320,-71.777,-202.637
1678024484.349,-33.691,-73.730,-29.785,-78.125,-188.477
1678024484.353,-46.387,-74.707,-33.691,-14.160,-115.234
1678024484.351,-52.246,-68.848,-29.785,38.574,-78.613
1678024484.355,-49.316,-62.012,-24.902,11.230,-64.941
1678024484.359,-46.387,-64.941,-27.344,-61.035,-65.430
1678024484.363,-52.734,-67.871,-29.785,-92.285,-106.934
1678024484.367,-60.547,-63.965,-29.785,-50.293,-52.246
1678024484.371,-62.500,-62.500,-26.855,6.836,38.086
1678024484.375,-43.945,-62.500,-22.461,10.742,279.297
1678024484.378,-37.598,-60.059,-22.949,-57.617,428.223
1678024484.382,-53.223,-64.453,-21.484,-104.980,50.781
1678024484.386,-70.312,-65.430,-31.738,-64.941,-161.621
1678024484.390,-77.637,-60.547,-34.668,-9.277,-31.738
1678024484.394,-75.684,-60.547,-27.832,-22.461,-16.113
1678024484.427,-75.684,-58.594,-39.062,-93.262,-117.188
1678024484.431,-92.773,-59.082,-35.645,-142.090,-92.285
1678024484.435,-121.582,-48.828,-20.996,-118.652,-37.598
1678024484.439,-132.812,-29.785,-25.879,-77.637,-123.047
1678024484.443,-135.742,-31.738,-35.645,-98.633,-206.055
1678024484.447,-149.414,-40.527,-28.809,-167.969,-48.828
1678024484.451,-196.289,-31.250,-18.066,-243.164,106.445
1678024484.454,-264.648,-13.184,-23.926,-268.555,-81.055
1678024484.458,-318.359,-11.230,-24.902,-246.582,-213.379
1678024484.462,-329.590,-14.648,-10.254,-253.906,-40.527
1678024484.466,-330.566,0.977,-0.488,-325.684,222.656
1678024484.470,-366.211,-8.789,-2.930,-419.434,-38.574
1678024484.471,-384.277,-20.996,4.395,-409.668,-225.586
1678024484.475,-384.277,-12.207,12.207,-336.914,-41.504
1678024484.479,-371.582,0.488,5.859,-312.012,20.996
1678024484.483,-347.168,-2.441,0.488,-345.703,-98.145
1678024484.487,-335.449,-2.441,9.277,-382.812,-133.301
1678024484.491,-338.867,-4.883,3.418,-364.258,-1.953
1678024484.495,-348.633,-8.301,-3.906,-304.199,61.523
1678024484.498,-333.984,-3.418,-2.930,-249.512,-63.477
1678024484.502,-319.336,-10.742,-7.812,-278.320,-112.305
1678024484.506,-317.383,-18.555,-2.930,-341.309,-104.004
1678024484.510,-332.520,-23.438,-12.695,-349.609,-210.938
1678024484.514,-322.266,-25.879,-19.531,-270.508,-223.145
1678024484.492,-287.109,-29.785,-15.137,-206.543,-96.680
1678024484.496,-258.789,-28.809,-18.066,-227.539,153.320
1678024484.500,-244.141,-17.578,-26.367,-272.949,127.441
1678024484.504,-244.141,-20.508,-32.715,-276.367,-207.031
1678024484.508,-235.840,-29.785,-34.180,-207.031,-195.801
1678024484.512,-210.449,-32.715,-31.250,-145.996,-82.031
1678024484.516,-172.363,-39.062,-33.203,-153.809,-21.973
1678024484.519,-147.461,-40.527,-35.156,-189.941,-65.430
1678024484.523,-146.973,-40.039,-35.156,-190.918,-104.980
1678024484.527,-132.324,-44.922,-38.086,-126.465,-25.391
1678024484.531,-110.352,-53.711,-33.203,-60.547,-38.574
1678024484.535,-86.914,-62.012,-33.203,-64.453,-54.688
1678024484.546,-62.012,-62.012,-40.039,-116.699,-38.574
1678024484.550,-66.895,-64.941,-40.039,-142.090,-31.738
1678024484.554,-75.684,-72.754,-35.645,-85.938,-99.609
1678024484.558,-64.453,-78.125,-32.715,-14.648,-134.766
1678024484.562,-39.551,-82.520,-31.250,-17.090,176.270
1678024484.566,-26.367,-80.566,-32.227,-70.312,458.008
1678024484.570,-20.508,-82.031,-34.180,-99.121,201.172
1678024484.573,-19.531,-85.449,-28.320,-51.270,-107.910
1678024484.577,-28.809,-87.891,-24.902,22.461,-83.008
1678024484.581,-7.324,-86.914,-23.926,35.645,-49.805
1678024484.585,19.531,-84.473,-21.973,-11.230,-178.223
1678024484.589,18.555,-82.031,-20.020,-43.945,-237.305
1678024484.608,5.371,-77.637,-20.508,-13.184,-68.848
1678024484.612,4.883,-78.125,-21.484,56.641,20.996
1678024484.616,23.926,-80.078,-17.090,81.055,-106.445
1678024484.620,32.227,-83.984,-19.531,25.879,-55.176
1678024484.624,20.020,-88.379,-28.320,-34.180,-4.395
1678024484.628,7.812,-87.402,-28.809,-9.766,-80.078
1678024484.632,11.719,-87.891,-26.855,66.406,-34.668
1678024484.635,7.812,-91.309,-27.832,94.727,119.629
1678024484.639,10.742,-94.727,-30.273,49.316,104.980
1678024484.643,19.531,-95.703,-34.668,-17.090,-150.391
1678024484.647,4.883,-93.262,-36.621,-9.277,-145.996
1678024484.651,-8.301,-94.238,-36.133,58.594,0.977
1678024484.666,6.836,-98.633,-33.691,96.680,31.738
1678024484.670,30.762,-98.633,-37.109,50.781,-117.188
1678024484.674,23.926,-98.633,-44.434,-25.391,-128.906
1678024484.678,3.906,-97.656,-49.316,-21.484,-56.641
1678024484.682,0.488,-94.727,-53.223,51.758,9.766
1678024484.686,10.742,-92.773,-51.758,88.379,-5.371
1678024484.690,31.250,-87.402,-49.316,40.527,-6.348
1678024484.693,36.133,-83.984,-47.852,-36.133,-22.949
1678024484.697,20.996,-84.473,-50.293,-46.387,-116.699
1678024484.701,7.812,-87.891,-54.199,16.113,-116.211
1678024484.705,16.602,-91.797,-54.199,66.406,-122.559
1678024484.709,33.203,-92.773,-51.758,46.875,121.582
1678024484.698,30.762,-91.797,-55.664,-19.043,189.453
1678024484.702,10.742,-87.891,-58.105,-40.039,-164.062
1678024484.706,-6.348,-86.426,-53.711,23.926,-143.555
1678024484.710,-1.953,-84.961,-51.758,76.660,15.625
1678024484.714,24.902,-80.566,-50.781,53.711,-37.598
1678024484.718,40.527,-74.219,-44.434,2.930,-121.094
1678024484.722,13.672,-78.613,-39.551,-10.254,-2.441
1678024484.725,-8.301,-84.473,-42.969,36.133,97.656
1678024484.729,-4.883,-82.031,-47.363,83.496,-54.199
1678024484.733,7.812,-82.520,-43.945,63.965,-114.258
1678024484.737,17.578,-79.590,-42.480,-1.953,-65.918
1678024484.741,10.254,-72.754,-43.945,-34.180,-118.652
1678024484.726,-1.953,-69.824,-40.039,7.812,-161.133
1678024484.730,-1.465,-73.730,-38.086,77.637,-77.148
1678024484.734,13.672,-69.824,-33.203,82.031,165.527
1678024484.738,21.973,-69.336,-32.715,-4.883,270.996
1678024484.742,12.207,-72.754,-39.062,-58.105,18.066
1678024484.746,-3.906,-72.266,-38.574,-8.789,-41.504
1678024484.750,-9.766,-72.754,-39.551,59.082,123.047
1678024484.753,5.859,-67.871,-41.992,60.547,143.555
1678024484.757,17.090,-65.430,-39.062,-1.465,-59.570
1678024484.761,10.742,-69.824,-41.504,-52.734,-216.309
1678024484.765,-5.859,-64.941,-43.945,-29.297,44.922
1678024484.769,-13.672,-57.129,-43.945,37.598,353.027
1678024484.776,11.719,-57.129,-40.039,51.270,81.055
1678024484.780,17.090,-56.152,-36.621,-6.836,-110.352
1678024484.784,0.488,-54.199,-46.875,-53.223,-116.699
1678024484.788,-13.672,-54.199,-48.828,-29.785,-221.191
1678024484.792,-20.020,-53.223,-43.457,32.227,-192.383
1678024484.796,-4.883,-50.293,-43.945,52.734,96.191
1678024484.800,9.277,-50.781,-44.434,-3.418,194.336
1678024484.803,7.324,-54.688,-36.621,-70.801,-114.746
1678024484.807,-13.184,-55.176,-32.715,-54.199,-246.094
1678024484.811,-28.320,-54.199,-36.133,22.949,-55.176
1678024484.815,-23.926,-56.152,-34.668,62.500,-17.578
1678024484.819,-15.137,-56.641,-34.668,10.742,-234.375
1678024484.818,-7.812,-55.664,-32.715,-60.059,-309.570
1678024484.822,-15.137,-59.570,-29.785,-57.617,-170.898
1678024484.826,-24.902,-61.035,-29.785,14.160,-99.609
1678024484.830,-16.113,-57.617,-27.832,62.012,-108.398
1678024484.834,1.953,-60.547,-27.344,21.973,-31.250
1678024484.838,0.977,-54.688,-30.273,-52.734,130.859
1678024484.842,-21.484,-49.316,-31.250,-65.430,403.320
1678024484.845,-25.391,-54.199,-34.668,-7.812,235.352
1678024484.849,-14.648,-56.641,-37.598,43.945,-71.777
1678024484.853,-7.812,-53.223,-35.645,31.738,-64.453
1678024484.857,-7.812,-51.270,-34.180,-41.992,-138.184
1678024484.861,-16.113,-51.758,-34.668,-74.219,-217.773
1678024484.892,-27.832,-53.223,-38.086,-9.277,-34.180
1678024484.896,-31.250,-61.035,-35.156,52.246,98.145
1678024484.900,-11.719,-64.941,-33.203,20.996,-18.066
1678024484.904,3.906,-60.059,-33.691,-50.781,-166.016
1678024484.908,-8.301,-62.012,-35.645,-74.707,-137.207
1678024484.912,-30.762,-61.523,-39.062,-24.414,108.887
1678024484.916,-33.691,-56.641,-39.062,34.668,103.027
1678024484.919,-18.066,-55.176,-33.203,24.414,-54.688
1678024484.923,-13.672,-52.246,-28.809,-38.574,28.320
1678024484.927,-29.785,-51.270,-31.250,-68.848,67.383
1678024484.931,-46.387,-48.340,-28.809,-30.273,-168.945
1678024484.935,-47.852,-48.340,-26.367,36.621,-171.875
1678024484.926,-40.527,-54.199,-31.738,35.156,-28.320
1678024484.930,-37.109,-56.152,-35.645,-43.945,-76.172
1678024484.934,-38.574,-52.734,-32.715,-86.426,-174.805
1678024484.938,-50.293,-50.781,-28.320,-50.293,-223.633
1678024484.942,-56.152,-50.293,-24.902,19.043,123.535
1678024484.946,-51.758,-53.711,-27.832,36.133,300.293
1678024484.950,-55.176,-55.664,-29.785,-25.879,-23.926
1678024484.953,-67.383,-52.734,-28.320,-88.867,-101.074
1678024484.957,-73.242,-48.340,-28.320,-66.895,-123.535
1678024484.961,-70.312,-45.898,-30.762,4.883,-108.398
1678024484.965,-70.312,-50.293,-32.715,21.484,-113.281
1678024484.969,-59.570,-53.223,-30.273,-30.273,-132.812
1678024484.968,-56.152,-54.199,-31.738,-83.984,33.691
1678024484.972,-65.918,-55.664,-36.133,-66.406,23.438
1678024484.976,-64.941,-55.664,-38.086,-3.906,-161.133
1678024484.980,-58.594,-55.176,-36.621,19.531,-105.957
1678024484.984,-41.016,-48.828,-36.133,-26.367,-114.746
1678024484.988,-41.992,-44.434,-40.039,-82.520,-181.641
1678024484.992,-65.918,-45.898,-41.504,-75.684,-222.656
1678024484.995,-70.801,-47.852,-43.457,-6.836,-7.812
1678024484.999,-51.270,-49.316,-40.527,35.645,190.918
1678024485.003,-26.855,-50.293,-37.598,-0.488,-33.203
1678024485.007,-19.043,-48.340,-42.969,-74.219,-215.820
1678024485.011,-29.785,-46.875,-40.527,-84.961,-56.152
1678024485.011,-37.598,-48.828,-36.133,-14.648,53.711
1678024485.015,-31.738,-48.340,-36.133,32.227,-15.137
1678024485.019,-16.602,-52.246,-38.086,-3.418,-22.949
1678024485.023,-14.648,-54.688,-37.109,-74.219,-150.879
1678024485.027,-33.691,-57.129,-33.691,-81.543,-171.387
1678024485.031,-52.734,-56.641,-32.715,-10.742,-67.871
1678024485.035,-49.805,-52.734,-34.180,37.109,-2.930
1678024485.038,-33.691,-52.734,-40.039,0.977,239.746
1678024485.042,-21.973,-48.340,-38.086,-70.312,450.195
1678024485.046,-27.832,-49.316,-33.203,-100.098,23.926
1678024485.050,-35.156,-54.688,-33.203,-47.852,-239.746
1678024485.054,-30.762,-53.223,-32.715,21.973,-102.051
1678024485.088,-28.320,-49.805,-33.203,16.113,-81.543
1678024485.092,-24.902,-44.922,-36.133,-68.848,-152.832
1678024485.096,-33.203,-44.434,-36.133,-110.352,-126.953
1678024485.100,-39.062,-47.363,-35.156,-57.617,-78.125
1678024485.104,-41.016,-48.828,-38.086,0.000,-87.891
1678024485.108,-31.738,-44.922,-36.133,-7.812,0.000
1678024485.112,-24.414,-43.945,-35.645,-73.730,150.879
1678024485.115,-30.762,-47.852,-37.109,-112.793,106.934
1678024485.119,-42.480,-51.270,-42.480,-74.707,-111.328
1678024485.123,-47.852,-50.781,-43.457,-1.953,-113.770
1678024485.127,-33.203,-49.316,-38.086,17.090,60.547
1678024485.131,-30.762,-51.758,-40.527,-45.898,163.574
1678024485.132,-39.062,-50.293,-41.016,-93.750,-77.637
1678024485.136,-40.527,-47.363,-34.668,-53.223,-211.914
1678024485.140,-41.016,-50.293,-33.691,8.301,-104.980
1678024485.144,-30.762,-46.875,-37.109,15.625,-61.035
1678024485.148,-20.996,-42.969,-38.086,-41.992,-71.777
1678024485.152,-24.902,-46.875,-40.039,-88.867,-24.414
1678024485.156,-42.480,-43.945,-40.039,-65.430,35.156
1678024485.159,-58.105,-42.480,-38.574,-6.348,-29.785
1678024485.163,-45.898,-46.387,-35.645,15.137,-103.516
1678024485.167,-28.320,-43.945,-34.180,-31.250,-45.410
1678024485.171,-35.156,-41.992,-33.203,-85.938,-25.879
1678024485.175,-54.688,-44.434,-31.738,-79.590,-71.777
1678024485.148,-68.359,-47.852,-34.668,-13.672,-86.914
1678024485.152,-62.988,-49.316,-39.062,20.508,-79.102
1678024485.156,-45.898,-47.363,-41.016,-30.273,208.496
1678024485.160,-43.457,-48.340,-36.621,-97.168,293.457
1678024485.164,-54.688,-52.734,-31.738,-95.703,-106.445
1678024485.168,-61.523,-54.688,-29.785,-23.926,-14.160
1678024485.172,-56.641,-49.316,-30.273,27.344,185.059
1678024485.175,-47.852,-44.922,-35.156,-12.207,-71.289
1678024485.179,-46.875,-48.340,-36.621,-75.195,-241.211
1678024485.183,-63.965,-52.734,-39.551,-74.219,-188.965
1678024485.187,-77.148,-55.664,-39.551,-10.254,-106.934
1678024485.191,-69.824,-54.199,-32.715,37.598,-80.078
1678024485.206,-53.223,-55.664,-30.762,14.160,-190.918
1678024485.210,-49.316,-55.664,-31.250,-49.316,-69.336
1678024485.214,-75.195,-57.129,-31.738,-75.684,229.004
1678024485.218,-90.820,-59.570,-32.715,-21.973,-7.324
1678024485.222,-81.543,-56.152,-29.785,39.062,-166.504
1678024485.226,-64.453,-55.176,-29.785,9.277,173.340
1678024485.230,-53.223,-51.270,-26.367,-64.453,234.863
1678024485.233,-60.059,-51.758,-25.879,-84.473,-81.055
1678024485.237,-71.289,-50.781,-31.250,-38.574,-218.262
1678024485.241,-62.500,-49.316,-29.785,21.973,29.297
1678024485.245,-48.340,-52.734,-36.621,4.883,105.469
1678024485.249,-49.805,-50.293,-41.504,-65.918,-166.992
1678024485.253,-50.293,-50.293,-39.551,-96.191,-182.617
1678024485.257,-50.781,-44.922,-39.062,-45.410,-91.309
1678024485.261,-53.711,-43.945,-40.039,15.625,-133.301
1678024485.265,-34.668,-48.828,-38.574,16.602,-172.363
1678024485.269,-32.715,-46.875,-37.109,-48.828,-51.270
1678024485.273,-54.688,-45.898,-44.434,-97.656,82.520
1678024485.277,-75.684,-45.898,-44.434,-61.035,14.648
1678024485.280,-86.426,-45.898,-41.992,0.488,-105.957
1678024485.284,-68.848,-42.969,-37.598,12.207,-35.645
1678024485.288,-60.547,-45.898,-37.109,-33.691,139.160
1678024485.292,-69.336,-49.805,-41.992,-101.074,-91.309
1678024485.296,-71.289,-46.875,-42.969,-82.520,-221.191
1678024485.296,-65.918,-43.457,-41.504,-7.812,-127.930
1678024485.300,-53.711,-42.969,-43.945,1.465,-86.426
1678024485.304,-37.598,-45.898,-44.434,-54.199,-138.184
1678024485.308,-37.598,-48.828,-42.969,-105.957,-114.746
1678024485.312,-49.316,-43.945,-43.945,-85.449,-21.484
1678024485.316,-55.176,-40.039,-43.457,-15.625,-3.906
1678024485.320,-49.805,-40.527,-40.527,12.695,-37.598
1678024485.323,-50.293,-40.039,-40.527,-31.250,-54.199
1678024485.327,-60.547,-38.574,-39.062,-97.168,125.488
1678024485.331,-74.707,-45.898,-45.410,-94.727,166.504
1678024485.335,-83.496,-48.340,-54.199,-35.645,-62.500
1678024485.339,-62.012,-44.922,-45.410,9.277,-68.848
1678024485.343,-45.410,-42.969,-41.016,-14.648,-2.441
1678024485.347,-56.641,-37.109,-44.922,-85.449,-156.738
1678024485.351,-66.895,-34.180,-41.992,-85.449,-257.812
1678024485.355,-69.824,-36.621,-40.039,-14.648,-153.320
1678024485.359,-62.988,-41.992,-39.062,29.297,-67.383
1678024485.363,-42.969,-42.969,-41.992,-2.930,23.926
1678024485.367,-36.133,-42.969,-41.504,-78.125,32.227
1678024485.370,-45.410,-41.992,-35.156,-89.355,-3.906
1678024485.374,-48.340,-41.992,-36.621,-32.227,165.039
1678024485.378,-48.828,-44.434,-41.016,8.301,103.027
1678024485.382,-32.227,-44.434,-44.434,-8.301,-55.176
1678024485.386,-15.625,-37.109,-46.875,-58.594,-25.879
1678024485.386,-22.949,-34.668,-43.945,-82.031,-70.801
1678024485.390,-25.391,-37.109,-46.875,-37.109,-158.203
1678024485.394,-19.531,-36.133,-50.781,28.809,-107.422
1678024485.398,-12.695,-37.598,-49.316,14.160,-41.016
1678024485.402,-4.395,-40.039,-45.898,-61.523,-73.730
1678024485.406,-6.348,-37.109,-42.480,-81.543,-116.699
1678024485.410,-18.555,-31.738,-46.387,-26.367,-139.160
1678024485.413,-18.555,-31.250,-45.410,38.086,152.344
1678024485.417,0.977,-31.738,-37.109,28.809,352.539
1678024485.421,20.508,-28.320,-32.715,-48.340,-48.828
1678024485.425,12.207,-22.461,-29.297,-84.473,-173.828
1678024485.429,-32.715,-35.156,-29.785,-60.059,-42.480
1678024485.435,-46.387,-27.344,-26.855,-7.324,-99.121
1678024485.439,-42.969,-18.555,-28.320,-17.578,-144.531
1678024485.443,-48.828,-15.625,-21.973,-94.727,-54.199
1678024485.447,-61.035,-7.324,-22.461,-157.715,0.977
1678024485.451,-94.727,-8.301,-26.855,-151.367,-106.934
1678024485.455,-134.766,-6.348,-15.625,-104.492,-39.551
1678024485.459,-166.016,-3.418,-3.418,-118.652,162.598
1678024485.462,-201.172,7.324,4.395,-218.750,137.207
1678024485.466,-255.371,0.977,1.465,-330.078,-110.352
1678024485.470,-300.293,5.371,6.836,-337.402,-203.613
1678024485.474,-322.266,3.906,23.926,-282.715,-125.977
1678024485.478,-328.613,-6.836,38.086,-274.902,-85.938
1678024485.478,-320.312,-3.418,48.340,-322.754,-164.062
1678024485.482,-312.988,0.000,56.152,-369.629,-179.688
1678024485.486,-319.336,-2.930,64.453,-346.680,-65.918
1678024485.490,-325.195,-12.695,65.918,-269.043,-92.285
1678024485.494,-309.082,-13.184,69.824,-214.844,-62.012
1678024485.498,-295.410,-13.184,70.312,-249.512,-44.434
1678024485.502,-303.223,-20.020,78.125,-319.824,95.703
1678024485.505,-309.570,-23.438,84.961,-297.363,327.637
1678024485.509,-308.105,-37.109,80.566,-221.680,98.633
1678024485.513,-292.969,-41.016,83.984,-184.082,-60.059
1678024485.517,-271.484,-48.340,79.102,-228.027,-18.066
1678024485.521,-264.648,-57.617,74.707,-285.645,-130.859
1678024485.523,-270.996,-53.711,80.566,-277.344,-208.496
1678024485.527,-278.320,-61.523,70.801,-211.914,-81.055
1678024485.531,-261.230,-66.895,62.012,-146.973,32.715
1678024485.535,-226.074,-68.848,63.965,-152.832,-29.297
1678024485.539,-210.449,-71.777,58.105,-216.309,-111.816
1678024485.543,-202.637,-75.195,59.570,-208.008,-4.395
1678024485.547,-209.473,-75.195,61.035,-137.207,293.945
1678024485.550,-205.078,-75.195,52.734,-104.980,171.875
1678024485.554,-178.711,-81.055,51.758,-118.652,-62.500
1678024485.558,-169.922,-80.078,55.176,-160.645,-76.172
1678024485.562,-179.199,-80.078,54.199,-175.293,-178.711
1678024485.566,-169.434,-87.891,48.828,-126.465,-189.941
1678024485.581,-150.391,-87.891,41.504,-60.059,-94.727
1678024485.585,-120.117,-85.449,36.621,-50.781,-46.387
1678024485.589,-102.539,-89.844,32.715,-108.887,-60.059
1678024485.593,-120.605,-90.820,28.809,-140.137,-208.008
1678024485.597,-126.953,-90.332,25.391,-92.285,-192.871
1678024485.601,-100.586,-92.285,20.996,-13.672,188.965
1678024485.605,-68.359,-89.355,11.719,-9.766,277.832
1678024485.608,-70.312,-85.938,4.395,-89.355,15.137
1678024485.612,-70.312,-84.473,0.977,-105.957,-108.887
1678024485.616,-61.035,-79.590,-3.906,-59.082,76.172
1678024485.620,-68.359,-82.031,-11.230,-7.324,213.867
1678024485.624,-62.988,-83.008,-19.043,6.836,-51.758
1678024485.628,-40.039,-82.031,-21.973,-35.156,-90.820
1678024485.632,-30.762,-80.566,-26.855,-84.473,-115.723
1678024485.636,-31.250,-73.730,-35.645,-62.500,-205.566
1678024485.640,-27.832,-72.266,-38.574,7.324,-164.062
1678024485.644,-12.207,-67.383,-36.133,28.320,-42.969
1678024485.648,-0.977,-57.129,-38.086,-23.438,23.438
1678024485.652,-4.395,-51.758,-39.062,-70.801,-124.512
1678024485.655,-10.254,-52.246,-38.086,-47.852,-229.980
1678024485.659,-3.906,-56.152,-41.016,27.832,17.090
1678024485.663,20.020,-55.176,-46.387,73.242,322.266
1678024485.667,33.691,-49.805,-53.711,18.555,93.262
1678024485.671,34.180,-46.387,-56.641,-55.664,-178.711
1678024485.701,32.227,-41.016,-54.688,-31.738,-191.895
1678024485.705,25.879,-40.527,-51.758,50.293,-98.633
1678024485.709,25.879,-42.969,-54.688,95.215,-17.090
1678024485.713,47.363,-41.016,-61.035,68.359,-37.598
1678024485.717,66.895,-41.504,-61.523,6.836,25.391
1678024485.721,45.898,-44.922,-66.895,2.930,-24.414
1678024485.725,31.250,-43.945,-68.359,73.242,-99.609
1678024485.728,51.758,-45.410,-65.430,123.047,-100.098
1678024485.732,68.359,-48.828,-67.871,93.262,121.094
1678024485.736,76.660,-46.387,-65.918,27.344,166.992
1678024485.740,80.566,-45.410,-57.617,10.254,-201.660
1678024485.744,72.754,-47.852,-60.547,66.895,-187.012
1678024485.717,65.430,-47.363,-66.406,121.582,-10.742
1678024485.721,74.707,-47.852,-68.848,102.051,-74.219
1678024485.725,81.543,-44.434,-70.801,32.227,-247.070
1678024485.729,64.941,-42.969,-64.941,12.207,-139.160
1678024485.733,55.176,-43.945,-60.547,73.730,10.254
1678024485.737,65.430,-44.922,-66.406,139.648,45.410
1678024485.741,83.008,-41.992,-68.848,124.512,86.426
1678024485.744,93.750,-40.527,-65.430,47.363,-1.465
1678024485.748,80.078,-41.016,-66.895,11.719,-131.836
1678024485.752,58.105,-39.551,-65.918,55.664,-174.316
1678024485.756,58.105,-39.551,-62.988,111.816,-93.262
1678024485.760,67.383,-39.062,-63.965,105.469,33.691
1678024485.778,67.383,-41.992,-66.406,29.297,-41.016
1678024485.782,59.082,-37.598,-62.988,-16.113,-134.277
1678024485.786,49.316,-31.738,-58.594,31.738,-187.500
1678024485.790,53.711,-29.785,-59.570,94.238,8.301
1678024485.794,60.547,-32.715,-61.035,94.727,430.664
1678024485.798,56.152,-36.621,-62.012,28.320,205.566
1678024485.802,47.852,-35.156,-63.965,-25.879,-116.211
1678024485.805,35.645,-36.133,-62.988,11.230,87.402
1678024485.809,26.855,-39.062,-62.012,79.590,227.539
1678024485.813,38.086,-36.133,-57.129,96.680,0.000
1678024485.817,46.387,-31.250,-51.758,44.434,-89.844
1678024485.821,31.738,-33.691,-59.570,-12.695,-101.562
1678024485.823,16.113,-37.598,-62.012,-1.465,-146.484
1678024485.827,13.184,-38.574,-55.664,57.129,-89.844
1678024485.831,19.043,-38.086,-61.523,79.102,6.836
1678024485.835,24.902,-39.062,-66.406,26.855,39.062
1678024485.839,17.578,-42.480,-67.871,-30.273,-64.941
1678024485.843,0.488,-40.039,-67.383,-13.184,-130.371
1678024485.847,-5.859,-39.062,-64.453,54.688,68.848
1678024485.850,0.977,-45.898,-63.965,80.078,33.691
1678024485.854,15.625,-44.922,-62.500,35.156,-146.484
1678024485.858,19.043,-40.039,-62.988,-31.738,-192.871
1678024485.862,3.906,-40.527,-61.523,-20.020,-55.176
1678024485.866,-4.883,-42.969,-59.570,59.570,273.438
1678024485.866,5.859,-41.016,-61.035,90.332,121.094
1678024485.870,18.555,-41.992,-56.641,34.668,-142.578
1678024485.874,20.020,-45.410,-53.223,-45.410,-60.547
1678024485.878,9.277,-42.969,-51.270,-52.246,-76.172
1678024485.882,-2.930,-42.480,-47.852,15.625,-90.332
1678024485.886,-1.953,-43.457,-47.363,70.801,27.344
1678024485.890,11.719,-42.480,-44.922,38.086,57.617
1678024485.893,7.324,-44.922,-45.898,-42.480,1.953
1678024485.897,-2.930,-42.480,-48.340,-54.199,-108.398
1678024485.901,-8.301,-38.086,-42.480,-8.301,-202.148
1678024485.905,-9.766,-40.039,-37.598,40.527,62.500
1678024485.909,-4.395,-39.551,-43.457,36.621,346.191
1678024485.898,-8.789,-40.039,-48.340,-42.969,6.348
1678024485.902,-17.090,-38.086,-46.387,-75.195,-216.797
1678024485.906,-26.855,-38.086,-44.922,-16.113,-54.688
1678024485.910,-25.879,-41.992,-42.480,41.992,-121.094
1678024485.914,-8.301,-41.992,-41.992,23.438,-195.312
1678024485.918,-5.371,-41.504,-38.574,-47.852,10.254
1678024485.922,-20.508,-40.039,-38.086,-83.496,135.742
1678024485.925,-30.762,-40.527,-44.434,-43.457,-57.129
1678024485.929,-33.691,-39.551,-45.410,16.113,-121.582
1678024485.933,-26.855,-41.992,-40.527,13.184,41.992
1678024485.937,-19.043,-46.387,-43.457,-46.387,266.113
1678024485.941,-23.926,-44.922,-49.316,-97.168,20.508
1678024485.945,-38.086,-45.410,-47.852,-62.012,-178.223
1678024485.949,-38.574,-43.945,-44.434,17.090,-77.148
1678024485.953,-26.855,-41.016,-41.992,17.090,-66.895
1678024485.957,-26.367,-47.363,-44.922,-44.922,-129.395
1678024485.961,-29.785,-54.688,-44.434,-100.586,-177.246
1678024485.965,-43.945,-51.270,-47.363,-80.566,110.840
1678024485.969,-59.082,-48.828,-49.316,-8.301,245.605
1678024485.972,-46.875,-44.434,-44.922,0.488,-72.266
1678024485.976,-35.156,-40.527,-46.875,-64.453,-164.062
1678024485.980,-38.086,-40.039,-48.828,-112.305,-137.695
1678024485.984,-53.711,-40.527,-48.828,-86.426,-167.969
1678024485.988,-63.965,-42.480,-47.852,-25.391,-210.938
1678024486.002,-56.641,-42.969,-45.410,0.977,-111.328
1678024486.006,-45.898,-44.434,-42.480,-41.992,-5.371
1678024486.010,-47.363,-48.828,-43.457,-105.469,-129.883
1678024486.014,-61.035,-48.340,-45.410,-98.633,-220.703
1678024486.018,-67.383,-44.434,-45.410,-26.855,-99.609
1678024486.022,-56.152,-42.480,-42.969,20.508,384.766
1678024486.026,-42.480,-45.410,-45.410,-25.879,419.922
1678024486.029,-44.922,-44.922,-45.410,-99.609,-70.801
1678024486.033,-58.105,-41.992,-41.504,-102.051,-130.859
1678024486.037,-65.918,-42.480,-40.039,-30.273,-7.812
1678024486.041,-53.223,-39.551,-33.203,24.902,-75.684
1678024486.045,-37.598,-36.133,-30.762,-17.578,-203.125
1678024486.046,-35.156,-36.133,-37.109,-89.844,-161.133
1678024486.050,-53.711,-41.992,-43.945,-100.586,-9.766
1678024486.054,-71.289,-47.852,-46.875,-35.645,-51.758
1678024486.058,-59.082,-47.852,-43.945,34.180,-153.320
1678024486.062,-47.852,-41.016,-37.109,3.906,120.605
1678024486.066,-49.316,-37.598,-33.691,-76.660,241.699
1678024486.070,-43.945,-37.109,-34.180,-79.102,-79.102
1678024486.073,-43.945,-37.598,-33.691,-3.906,-172.852
1678024486.077,-44.922,-36.621,-31.738,49.316,125.000
1678024486.081,-44.434,-38.086,-30.273,17.090,247.559
1678024486.085,-33.691,-42.480,-30.762,-59.570,-173.340
1678024486.089,-38.086,-43.945,-31.250,-91.309,-198.730
1678024486.093,-69.824,-49.805,-29.785,-47.363,-135.254
1678024486.097,-72.266,-46.387,-31.250,6.348,-173.340
1678024486.101,-50.781,-41.016,-28.320,0.488,-126.953
1678024486.105,-43.945,-44.434,-24.902,-57.129,-73.730
1678024486.109,-54.688,-41.504,-30.273,-90.332,-31.738
1678024486.113,-71.777,-39.551,-34.180,-49.316,-100.586
1678024486.117,-71.777,-41.992,-32.715,6.348,-88.379
1678024486.120,-52.246,-45.410,-27.344,4.883,77.148
1678024486.124,-38.086,-44.922,-27.344,-47.852,111.816
1678024486.128,-48.340,-42.969,-31.250,-93.750,-124.023
1678024486.132,-60.059,-45.410,-28.809,-63.965,-221.680
1678024486.136,-67.383,-47.363,-30.273,5.371,-78.125
1678024486.137,-61.523,-46.387,-33.691,7.812,-18.555
1678024486.141,-46.875,-43.457,-30.273,-60.059,-125.488
1678024486.145,-51.758,-42.480,-29.297,-104.492,-161.621
1678024486.149,-62.988,-38.574,-30.762,-70.801,-133.301
1678024486.153,-59.570,-36.621,-31.738,-0.977,29.785
1678024486.157,-50.293,-39.551,-31.250,24.414,167.480
1678024486.161,-39.551,-37.598,-31.738,-36.133,-33.691
1678024486.164,-38.574,-33.691,-33.203,-86.914,87.891
1678024486.168,-54.199,-37.109,-32.715,-57.129,359.375
1678024486.172,-62.988,-41.992,-35.645,-4.883,58.594
1678024486.176,-47.363,-36.621,-35.156,16.113,-90.332
1678024486.180,-28.320,-34.668,-31.250,-27.832,-32.715
1678024486.183,-25.391,-38.086,-25.391,-85.938,-166.016
1678024486.187,-34.180,-35.645,-21.484,-78.613,-212.891
1678024486.191,-46.875,-34.668,-27.344,-23.438,-75.195
1678024486.195,-46.875,-39.551,-33.203,0.977,-36.133
1678024486.199,-30.273,-38.574,-33.203,-36.621,-159.668
1678024486.203,-26.855,-35.645,-30.762,-98.145,-181.641
1678024486.207,-41.016,-36.133,-31.738,-102.539,-5.371
1678024486.210,-49.316,-36.133,-34.180,-36.133,274.902
1678024486.214,-47.852,-40.039,-32.715,9.766,126.465
1678024486.218,-38.574,-39.551,-31.250,-21.484,-90.332
1678024486.222,-36.133,-33.691,-32.715,-88.379,-6.836
1678024486.226,-46.875,-36.133,-40.527,-95.215,-47.852
1678024486.226,-54.688,-33.691,-37.109,-33.691,-159.180
1678024486.230,-55.664,-30.762,-30.273,19.531,-95.215
1678024486.234,-41.504,-31.250,-33.203,-12.207,-57.617
1678024486.238,-33.691,-26.855,-31.250,-88.867,-103.027
1678024486.242,-44.922,-34.180,-31.738,-110.352,-78.613
1678024486.246,-55.176,-39.062,-35.645,-56.152,-71.289
1678024486.250,-46.875,-32.227,-35.156,6.348,181.641
1678024486.253,-29.297,-30.762,-31.738,-3.418,399.902
1678024486.257,-23.438,-34.180,-26.855,-68.848,-56.641
1678024486.261,-29.297,-33.691,-23.926,-95.215,-293.945
1678024486.265,-33.691,-29.297,-28.809,-47.363,-82.520
1678024486.269,-37.109,-27.832,-31.738,3.906,-57.617
1678024486.273,-30.762,-30.273,-27.344,-0.488,-185.547
1678024486.277,-28.809,-33.203,-31.738,-61.523,-178.223
1678024486.281,-47.852,-37.598,-37.109,-98.145,-176.270
1678024486.285,-57.617,-36.621,-36.133,-52.246,-243.164
1678024486.289,-50.781,-38.086,-38.086,17.090,-171.387
1678024486.293,-33.203,-36.621,-31.738,15.137,66.895
1678024486.297,-25.391,-36.133,-30.762,-51.758,172.363
1678024486.300,-29.785,-39.551,-36.133,-103.027,-149.902
1678024486.304,-42.969,-41.504,-35.156,-72.754,-283.203
1678024486.308,-57.129,-42.969,-35.156,1.953,-17.090
1678024486.312,-51.758,-41.504,-32.715,23.926,91.797
1678024486.316,-38.086,-36.133,-25.391,-39.062,-156.250
1678024486.318,-43.945,-38.086,-26.367,-100.586,-133.301
1678024486.322,-56.641,-39.062,-33.691,-80.078,3.906
1678024486.326,-60.547,-39.062,-35.156,-16.602,15.625
1678024486.330,-54.199,-41.992,-31.738,9.277,-30.273
1678024486.334,-33.203,-38.086,-31.250,-30.273,-39.062
1678024486.338,-38.574,-34.668,-27.832,-90.820,160.156
1678024486.342,-61.523,-41.504,-27.344,-97.656,190.430
1678024486.345,-61.523,-42.969,-31.738,-40.039,-111.816
1678024486.349,-51.270,-39.062,-31.250,0.977,-188.477
1678024486.353,-43.457,-43.945,-29.785,-31.738,-16.113
1678024486.357,-38.574,-41.992,-26.855,-88.379,-36.621
1678024486.361,-48.340,-37.598,-27.832,-81.055,-245.605
1678024486.380,-57.617,-39.551,-28.809,-26.855,-185.059
1678024486.384,-47.852,-41.504,-28.809,4.883,-25.879
1678024486.388,-34.668,-40.527,-32.715,-26.855,-40.527
1678024486.392,-33.203,-39.551,-38.086,-94.238,-199.707
1678024486.396,-41.016,-42.480,-37.598,-100.098,-155.762
1678024486.400,-50.293,-40.527,-36.133,-34.668,146.973
1678024486.404,-43.457,-36.621,-32.227,16.113,178.223
1678024486.407,-38.086,-34.668,-27.344,-7.324,-19.531
1678024486.411,-50.293,-35.156,-27.832,-69.336,16.113
1678024486.415,-65.918,-35.645,-27.344,-91.797,142.090
1678024486.419,-68.848,-33.203,-30.273,-48.340,-69.336
1678024486.423,-56.641,-32.227,-28.809,11.230,-87.891
1678024486.422,-42.480,-30.273,-24.414,-6.836,-12.695
1678024486.426,-42.480,-30.762,-25.391,-75.684,-125.488
1678024486.430,-61.035,-34.668,-26.855,-103.027,-155.273
1678024486.434,-73.730,-32.715,-27.832,-50.781,-119.629
1678024486.438,-73.242,-31.250,-26.855,8.789,-39.062
1678024486.442,-68.848,-30.273,-27.832,-5.371,-24.414
1678024486.446,-59.082,-28.809,-24.414,-83.984,-36.621
1678024486.449,-66.406,-26.855,-14.648,-131.348,-6.348
1678024486.453,-94.727,-23.926,-7.812,-87.402,125.488
1678024486.457,-115.723,-31.738,-8.789,-27.832,299.316
1678024486.461,-103.516,-27.344,-12.695,-34.668,56.641
1678024486.465,-100.586,-20.508,-9.277,-113.281,-166.992
1678024486.468,-126.465,-19.043,-2.930,-179.688,-195.312
1678024486.472,-161.621,-19.531,-2.441,-168.945,-158.203
1678024486.476,-182.129,-20.996,7.812,-118.652,-81.055
1678024486.480,-194.824,-16.602,13.672,-129.395,-27.344
1678024486.484,-204.590,-12.695,16.602,-198.242,-22.949
1678024486.488,-219.727,-7.812,24.902,-266.113,-97.168
1678024486.492,-267.578,-14.648,21.484,-284.180,-147.949
1678024486.495,-287.598,-10.254,31.250,-215.332,22.949
1678024486.499,-282.227,-5.371,40.039,-187.988,357.910
1678024486.503,-274.902,-13.672,42.480,-259.766,124.512
1678024486.507,-276.367,-11.230,48.340,-326.172,-166.504
1678024486.511,-283.203,-9.766,48.340,-299.316,-136.230
1678024486.511,-278.320,-21.484,49.805,-230.957,-144.043
1678024486.515,-268.066,-25.391,45.898,-200.684,-109.375
1678024486.519,-249.512,-23.438,48.340,-234.375,-118.652
1678024486.523,-246.094,-30.273,51.270,-295.898,-106.445
1678024486.527,-263.184,-41.504,38.086,-288.086,-134.766
1678024486.531,-255.371,-41.504,35.645,-210.938,-75.684
1678024486.535,-234.375,-33.203,43.457,-160.156,31.250
1678024486.538,-226.562,-28.320,46.387,-189.941,184.082
1678024486.542,-225.098,-29.785,36.621,-253.906,254.395
1678024486.546,-216.797,-38.086,33.691,-252.441,-11.230
1678024486.550,-216.309,-38.086,33.203,-187.012,-89.844
1678024486.554,-204.102,-33.691,31.250,-133.301,-52.246
1678024486.560,-189.941,-38.574,29.785,-155.762,-89.844
1678024486.564,-186.035,-45.410,27.832,-211.914,-196.777
1678024486.568,-189.941,-43.945,23.438,-228.516,-216.797
1678024486.572,-205.078,-42.969,19.531,-185.059,-114.258
1678024486.576,-191.895,-34.668,18.555,-116.699,-100.586
1678024486.580,-167.969,-29.785,11.719,-127.441,-88.379
1678024486.584,-164.062,-34.668,8.789,-190.430,67.871
1678024486.587,-173.340,-32.715,8.789,-205.078,161.133
1678024486.591,-181.641,-28.809,0.977,-154.785,-95.215
1678024486.595,-168.457,-30.273,-0.488,-86.914,-196.289
1678024486.599,-149.414,-30.762,-0.977,-91.309,-78.613
1678024486.603,-132.812,-30.762,-12.207,-156.250,-98.145
1678024486.602,-138.184,-29.297,-21.484,-176.270,-171.875
1678024486.606,-145.508,-28.809,-19.531,-121.094,-206.543
1678024486.610,-132.812,-28.320,-22.949,-51.758,-60.547
1678024486.614,-117.676,-31.250,-35.156,-45.898,20.996
1678024486.618,-97.168,-35.156,-40.039,-98.145,-65.430
1678024486.622,-92.773,-33.203,-50.781,-125.977,-125.488
1678024486.626,-101.074,-39.062,-63.477,-79.590,85.449
1678024486.629,-84.473,-41.504,-67.871,0.977,447.266
1678024486.633,-61.035,-43.945,-73.730,10.254,147.949
1678024486.637,-41.504,-41.992,-75.684,-43.945,-151.855
1678024486.641,-33.203,-34.668,-77.637,-78.613,-116.211
1678024486.645,-44.434,-39.062,-83.984,-44.922,-143.066
1678024486.662,-45.898,-43.945,-83.008,30.762,-124.023
1678024486.666,-23.438,-39.062,-79.102,59.082,-12.695
1678024486.670,-10.254,-35.156,-79.590,10.742,-0.488
1678024486.674,-9.766,-41.016,-85.449,-39.062,-154.297
1678024486.678,-12.695,-38.086,-89.844,-14.648,-203.125
1678024486.682,-15.625,-40.039,-91.797,54.688,9.277
1678024486.686,-2.441,-45.898,-89.355,89.844,369.629
1678024486.689,15.137,-42.480,-89.355,22.461,171.875
1678024486.693,18.555,-41.992,-92.773,-43.945,-180.176
1678024486.697,7.324,-42.969,-90.332,-14.160,-141.113
1678024486.701,6.836,-41.504,-82.520,62.988,-125.977
1678024486.705,22.461,-41.504,-82.520,102.539,-101.074
1678024486.721,36.621,-38.574,-77.148,68.848,-75.195
1678024486.725,40.039,-38.574,-70.312,13.672,-132.812
1678024486.729,28.320,-43.945,-73.730,16.602,-134.277
1678024486.733,29.297,-40.039,-69.824,86.426,-86.914
1678024486.737,51.758,-35.156,-67.383,130.859,-42.969
1678024486.741,62.500,-36.133,-68.848,91.309,201.172
1678024486.745,68.359,-38.086,-68.359,24.414,214.355
1678024486.748,68.359,-42.480,-66.406,20.508,-48.828
1678024486.752,64.941,-42.480,-65.918,76.660,-105.957
