timestamps,TP9,AF7,AF8,TP10,Right AUX
1678024539.435,-41.504,-29.785,-27.344,12.207,-72.754
1678024539.439,-30.762,-34.668,-28.809,-24.902,16.602
1678024539.443,-33.691,-33.203,-27.832,-87.402,-45.410
1678024539.447,-46.875,-31.738,-32.227,-83.984,-120.605
1678024539.451,-55.176,-31.738,-32.227,-29.297,-56.641
1678024539.455,-43.457,-35.645,-24.902,9.277,40.527
1678024539.459,-26.367,-37.109,-26.367,-17.578,-12.207
1678024539.462,-26.855,-36.133,-30.762,-73.730,-106.934
1678024539.466,-38.086,-32.227,-28.809,-72.266,101.562
1678024539.470,-46.875,-36.133,-28.320,-26.367,104.004
1678024539.474,-44.922,-42.969,-29.297,9.766,-108.398
1678024539.478,-30.273,-38.086,-33.691,-3.418,-37.598
1678024539.481,-30.273,-38.574,-29.297,-71.289,-147.949
1678024539.485,-47.852,-36.621,-25.391,-28.809,-132.812
1678024539.489,-50.293,-39.062,-20.996,16.602,-21.484
1678024539.493,-29.297,-33.203,-14.648,9.277,50.781
1678024539.497,-15.625,-27.344,-12.207,-43.457,-0.977
1678024539.501,-21.484,-29.297,-15.137,-61.035,-74.219
1678024539.504,-35.156,-29.785,-18.066,-17.090,6.348
1678024539.508,-37.598,-34.180,-20.020,30.273,386.719
1678024539.512,-21.973,-35.156,-20.996,21.484,276.855
1678024539.516,-10.742,-30.273,-23.438,-37.109,-111.816
1678024539.520,-15.625,-26.855,-25.879,-63.477,-195.312
1678024539.524,-26.855,-24.902,-20.508,-27.344,-208.008
1678024539.528,-33.691,-24.414,-20.020,20.996,-107.422
1678024539.532,-32.227,-24.414,-24.414,15.137,-96.191
1678024539.536,-27.344,-28.809,-23.438,-40.039,-138.184
1678024539.540,-32.227,-25.391,-26.367,-77.637,-115.723
1678024539.544,-45.410,-25.391,-27.832,-46.387,-84.473
1678024539.548,-51.270,-27.344,-24.902,9.277,-70.801
1678024539.551,-35.156,-27.832,-18.555,26.367,210.938
1678024539.555,-19.043,-31.250,-16.113,-22.949,240.234
1678024539.559,-24.414,-24.902,-20.020,-78.613,-185.059
1678024539.563,-40.527,-18.555,-19.531,-56.152,-218.750
1678024539.567,-44.922,-20.020,-18.555,-0.488,-93.262
1678024539.567,-36.621,-20.508,-19.043,20.996,-99.609
1678024539.571,-30.762,-19.043,-17.090,-22.461,-123.535
1678024539.575,-29.297,-19.043,-16.602,-74.219,-93.750
1678024539.579,-37.598,-20.508,-20.508,-62.500,-57.617
1678024539.583,-44.922,-23.438,-21.484,-2.930,-6.348
1678024539.587,-38.574,-20.996,-15.625,30.762,16.602
1678024539.591,-25.391,-16.113,-14.648,-5.371,87.402
1678024539.594,-28.320,-20.508,-17.090,-54.199,327.637
1678024539.598,-40.039,-21.484,-16.602,-44.922,196.289
1678024539.602,-46.875,-23.438,-20.508,6.836,-25.879
1678024539.606,-43.457,-25.391,-19.531,29.785,3.418
1678024539.610,-24.902,-23.438,-14.160,-8.789,-75.195
1678024539.614,-13.184,-26.367,-15.625,-67.383,-209.961
1678024539.618,-25.879,-25.391,-15.137,-65.918,-267.578
1678024539.622,-38.086,-20.020,-18.066,-9.277,-155.762
1678024539.626,-33.691,-18.555,-20.996,21.484,-63.965
1678024539.630,-11.719,-18.555,-16.113,1.465,-80.078
1678024539.634,-5.859,-19.043,-19.043,-55.176,-52.246
1678024539.638,-26.367,-22.949,-22.461,-72.266,114.746
1678024539.641,-34.668,-26.855,-23.438,-25.391,16.602
1678024539.645,-33.691,-29.297,-24.414,14.648,-165.527
1678024539.649,-19.043,-27.832,-19.531,-2.441,-61.523
1678024539.653,-16.113,-24.414,-25.391,-56.641,-44.922
1678024539.657,-28.809,-20.996,-27.344,-69.824,-73.730
1678024539.657,-36.621,-17.090,-26.855,-32.227,-136.230
1678024539.661,-37.598,-17.578,-30.762,11.230,-12.695
1678024539.665,-31.738,-20.996,-27.832,0.488,163.086
1678024539.669,-23.926,-22.949,-25.879,-64.453,20.996
1678024539.673,-29.297,-29.297,-23.926,-88.867,-116.211
1678024539.677,-43.457,-29.785,-22.461,-40.527,32.227
1678024539.681,-46.387,-30.273,-22.461,3.906,426.270
1678024539.684,-36.621,-33.691,-24.414,-10.254,214.355
1678024539.688,-32.227,-34.668,-24.902,-62.012,-257.812
1678024539.692,-37.598,-29.785,-22.461,-79.590,-146.973
1678024539.696,-44.434,-27.344,-22.461,-38.574,-37.598
1678024539.700,-43.945,-27.344,-24.902,8.789,-226.074
1678024539.717,-29.785,-24.414,-23.438,12.695,-174.805
1678024539.721,-18.066,-24.902,-27.832,-41.504,-74.707
1678024539.725,-29.297,-25.879,-28.320,-87.891,-131.836
1678024539.729,-47.852,-31.250,-33.691,-59.082,-187.012
1678024539.733,-49.805,-31.250,-37.598,0.977,-186.035
1678024539.737,-35.645,-27.832,-27.832,16.113,24.902
1678024539.741,-27.344,-22.949,-27.832,-31.738,98.145
1678024539.744,-35.645,-25.391,-36.133,-83.496,-125.000
1678024539.748,-46.387,-28.809,-35.156,-67.383,-165.527
1678024539.752,-45.898,-23.926,-33.691,-6.348,-1.465
1678024539.756,-29.297,-19.531,-29.297,16.113,25.879
1678024539.760,-20.508,-22.949,-27.832,-29.297,-74.707
1678024539.762,-29.785,-28.809,-34.180,-78.125,-59.082
1678024539.766,-41.992,-29.297,-34.180,-62.500,-26.855
1678024539.770,-48.340,-30.273,-31.250,-7.324,-84.473
1678024539.774,-39.551,-31.250,-30.762,12.695,-92.285
1678024539.778,-25.879,-31.250,-28.320,-20.508,115.234
1678024539.782,-25.391,-28.320,-28.320,-69.824,258.789
1678024539.786,-36.621,-28.809,-32.715,-75.195,25.879
1678024539.789,-44.434,-31.738,-30.273,-24.414,-79.102
1678024539.793,-37.598,-31.250,-25.391,18.555,89.844
1678024539.797,-18.555,-28.809,-24.902,1.465,174.805
1678024539.801,-7.812,-25.879,-22.461,-60.059,-131.836
1678024539.805,-13.184,-26.367,-21.484,-71.777,-241.211
1678024539.809,-27.832,-27.832,-23.438,-12.695,-106.445
1678024539.813,-32.715,-31.250,-23.438,26.855,-55.176
1678024539.817,-21.484,-34.180,-25.879,3.418,-73.730
1678024539.821,-17.090,-32.227,-27.832,-53.223,-101.074
1678024539.825,-23.926,-32.227,-29.785,-60.547,-99.609
1678024539.829,-29.785,-27.344,-30.762,-3.906,-20.020
1678024539.833,-23.926,-23.438,-27.344,37.109,22.461
1678024539.836,-11.230,-26.855,-22.461,27.832,47.363
1678024539.840,-9.766,-26.855,-22.461,-27.344,204.590
1678024539.844,-15.137,-24.902,-21.484,-55.176,113.281
1678024539.848,-26.855,-25.879,-20.996,-19.531,-204.102
1678024539.852,-34.668,-27.344,-23.438,29.785,-100.586
1678024539.852,-17.578,-22.949,-25.391,25.879,0.000
1678024539.856,-13.672,-25.879,-26.367,-41.504,-71.777
1678024539.860,-21.973,-27.832,-24.902,-76.660,-148.926
1678024539.864,-31.738,-22.461,-26.367,-31.738,-40.039
1678024539.868,-37.109,-29.785,-29.785,18.555,141.602
1678024539.872,-13.184,-29.785,-31.738,18.066,38.574
1678024539.876,-1.465,-18.066,-30.762,-31.250,-53.223
1678024539.879,-9.766,-20.020,-25.879,-62.988,-46.387
1678024539.883,-29.297,-25.879,-24.414,-27.832,246.582
1678024539.887,-42.969,-24.902,-28.320,27.832,240.234
1678024539.891,-30.762,-24.902,-34.180,24.414,-80.078
1678024539.895,-18.555,-23.926,-37.109,-32.715,-123.535
1678024539.899,-25.879,-24.414,-32.227,-72.266,-167.480
1678024539.903,-39.062,-26.367,-29.297,-54.199,-192.383
1678024539.907,-37.598,-25.879,-26.855,0.977,-56.641
1678024539.911,-25.879,-26.855,-24.414,20.508,57.129
1678024539.915,-20.996,-27.832,-20.508,-24.414,-26.367
1678024539.919,-27.344,-29.785,-18.555,-69.824,-121.094
1678024539.923,-40.527,-31.738,-22.461,-53.711,-99.121
1678024539.926,-49.805,-35.645,-23.926,2.930,142.090
1678024539.930,-41.992,-37.109,-23.438,21.973,138.672
1678024539.934,-27.832,-36.621,-25.391,-25.879,-164.551
1678024539.938,-23.926,-29.785,-24.414,-70.312,-192.871
1678024539.942,-36.133,-26.855,-17.090,-62.012,-104.492
1678024539.958,-45.898,-33.691,-22.949,-11.230,-127.930
1678024539.962,-40.039,-30.273,-26.855,21.973,-104.492
1678024539.966,-28.320,-24.902,-21.973,-9.277,-6.836
1678024539.970,-23.926,-26.855,-21.973,-64.453,-14.160
1678024539.974,-34.180,-23.926,-18.555,-62.988,-67.871
1678024539.978,-43.945,-20.508,-18.555,-14.160,-0.488
1678024539.982,-36.621,-21.484,-21.973,12.695,114.746
1678024539.985,-21.484,-24.902,-20.508,-6.836,354.492
1678024539.989,-24.902,-29.297,-20.508,-69.336,103.516
1678024539.993,-36.133,-25.391,-19.531,-78.613,-216.797
1678024539.997,-44.922,-21.484,-17.578,-18.555,-131.836
1678024540.001,-41.016,-19.043,-11.719,9.766,-119.141
1678024539.990,-22.461,-16.602,-2.441,-10.742,-130.371
1678024539.994,-23.926,-21.973,-10.254,-65.918,-109.863
1678024539.998,-41.504,-19.043,-11.719,-90.820,-121.094
1678024540.002,-54.199,-18.066,1.953,-35.156,-133.301
1678024540.006,-60.059,-15.625,6.348,8.301,-145.508
1678024540.010,-57.617,-14.160,2.441,-24.414,-50.781
1678024540.014,-69.336,-11.719,8.301,-100.098,67.383
1678024540.017,-105.469,-2.441,17.090,-146.973,-39.551
1678024540.021,-148.926,-9.766,25.879,-137.695,-119.629
1678024540.025,-170.410,-3.418,44.922,-108.398,-72.266
1678024540.029,-184.570,-4.395,53.711,-124.023,245.605
1678024540.033,-217.773,-14.160,46.387,-220.215,265.137
1678024540.032,-253.418,-2.441,54.688,-284.668,-164.551
1678024540.036,-289.551,6.348,60.059,-269.043,-143.066
1678024540.040,-304.688,8.301,49.805,-231.934,-34.180
1678024540.044,-296.387,1.465,46.875,-229.004,-7.812
1678024540.048,-286.621,-5.371,51.270,-279.785,-13.184
1678024540.052,-285.156,-0.488,47.852,-318.359,57.617
1678024540.056,-296.387,0.488,47.363,-282.715,393.555
1678024540.059,-291.992,0.000,52.246,-222.168,330.078
1678024540.063,-266.113,0.000,57.129,-208.496,-77.148
1678024540.067,-248.535,-1.953,56.641,-247.070,-115.234
1678024540.071,-246.094,-6.348,56.152,-278.320,-124.023
1678024540.075,-251.953,-14.648,57.617,-247.559,-193.848
1678024540.092,-261.230,-29.785,49.805,-191.406,-154.785
1678024540.096,-233.887,-26.367,51.270,-156.250,-74.707
1678024540.100,-212.402,-20.508,54.688,-187.012,-124.512
1678024540.104,-215.820,-27.832,48.828,-232.422,-179.199
1678024540.108,-215.820,-34.668,41.016,-199.707,-83.984
1678024540.112,-201.660,-27.344,34.180,-133.789,27.344
1678024540.116,-173.828,-24.414,33.203,-110.352,24.414
1678024540.119,-158.203,-27.344,30.273,-145.996,20.996
1678024540.123,-146.973,-33.691,24.902,-176.758,-104.004
1678024540.127,-134.277,-38.574,23.438,-140.625,50.781
1678024540.131,-131.348,-36.133,14.648,-89.844,123.047
1678024540.135,-109.863,-39.551,6.348,-56.641,-102.051
1678024540.137,-82.520,-41.504,0.000,-72.754,-88.867
1678024540.141,-72.266,-42.969,-4.395,-124.512,-139.160
1678024540.145,-70.312,-45.410,-7.324,-120.605,-150.879
1678024540.149,-75.195,-47.852,-18.066,-56.641,-185.059
1678024540.153,-63.477,-42.969,-24.902,-8.301,28.809
1678024540.157,-40.039,-41.504,-27.832,-29.297,172.363
1678024540.161,-32.715,-43.945,-33.203,-80.566,-29.785
1678024540.164,-33.691,-38.574,-39.062,-84.961,-52.734
1678024540.168,-40.527,-38.574,-36.133,-29.785,96.680
1678024540.172,-41.504,-44.434,-38.086,26.855,307.617
1678024540.176,-10.254,-44.434,-46.387,18.066,111.816
1678024540.180,16.113,-38.574,-47.363,-34.668,-159.180
1678024540.184,16.113,-32.227,-49.805,-41.016,-154.785
1678024540.188,10.254,-35.645,-48.340,19.531,-154.297
1678024540.192,18.066,-42.969,-45.898,74.219,-133.789
1678024540.196,39.551,-42.480,-50.293,67.871,-71.289
1678024540.200,54.199,-39.062,-53.223,17.578,-103.516
1678024540.204,54.199,-36.621,-53.711,-3.906,-98.145
1678024540.208,51.270,-36.621,-59.082,35.645,-19.531
1678024540.211,55.176,-39.551,-60.547,86.426,-62.988
1678024540.215,68.848,-37.598,-54.688,93.262,157.715
1678024540.219,82.031,-37.598,-57.617,41.504,117.188
1678024540.223,76.172,-41.504,-62.012,8.789,-191.406
1678024540.227,61.523,-42.480,-56.641,51.758,-106.934
1678024540.227,58.105,-44.922,-57.129,115.234,38.086
1678024540.231,76.172,-40.527,-55.176,118.164,-31.250
1678024540.235,89.844,-34.180,-47.363,58.105,-110.840
1678024540.239,88.867,-31.738,-48.340,28.809,-102.539
1678024540.243,83.008,-30.762,-55.664,65.430,-53.711
1678024540.247,76.172,-27.832,-56.641,117.188,-0.488
1678024540.251,81.543,-28.320,-57.129,118.652,-34.668
1678024540.254,88.379,-34.668,-60.547,56.152,75.195
1678024540.258,84.473,-36.621,-57.617,13.672,301.270
1678024540.262,72.266,-32.715,-54.688,42.480,89.355
1678024540.266,66.895,-35.156,-54.688,100.586,-171.875
1678024540.270,79.102,-37.109,-57.129,117.676,-79.590
1678024540.275,86.914,-38.574,-61.523,68.848,-85.938
1678024540.279,78.613,-41.504,-61.523,21.973,-183.105
1678024540.283,63.477,-41.016,-61.035,35.156,-232.910
1678024540.287,55.664,-37.598,-59.082,93.262,-86.426
1678024540.291,63.477,-31.738,-53.223,121.094,26.367
1678024540.295,77.637,-30.762,-48.340,85.449,19.043
1678024540.299,70.312,-34.180,-48.828,33.203,-34.180
1678024540.302,47.363,-38.574,-54.199,31.738,92.285
1678024540.306,42.480,-39.551,-54.199,87.891,83.496
1678024540.310,56.641,-33.691,-47.363,121.582,-96.191
1678024540.314,62.012,-31.738,-46.387,83.496,-40.527
1678024540.318,53.223,-33.691,-45.898,20.996,-99.121
1678024540.317,35.156,-32.227,-45.898,12.207,-197.266
1678024540.321,20.996,-34.180,-45.410,67.383,-229.492
1678024540.325,28.320,-40.527,-46.387,102.051,-77.148
1678024540.329,44.922,-35.156,-43.945,71.289,56.641
1678024540.333,47.852,-30.273,-37.109,13.672,-62.012
1678024540.337,34.180,-31.250,-41.504,-5.371,-22.949
1678024540.341,20.508,-32.715,-45.898,39.062,177.246
1678024540.344,25.391,-29.785,-42.969,100.098,498.047
1678024540.348,33.203,-28.320,-42.480,76.660,285.156
1678024540.352,33.691,-25.879,-42.969,-6.348,-160.156
1678024540.356,25.879,-20.020,-40.039,-21.973,-191.895
1678024540.360,10.742,-22.949,-38.086,26.855,-119.629
1678024540.364,13.672,-24.414,-37.598,62.988,-118.652
1678024540.368,29.297,-22.461,-38.086,49.805,-150.879
1678024540.372,35.156,-20.020,-35.645,-4.395,-100.586
1678024540.376,30.273,-19.531,-34.180,-33.691,-93.750
1678024540.380,22.949,-19.531,-30.762,2.930,-139.648
1678024540.384,14.160,-21.484,-29.785,51.270,-94.238
1678024540.388,24.902,-18.555,-31.250,56.641,218.750
1678024540.391,31.738,-16.113,-31.250,-6.348,272.461
1678024540.395,19.531,-16.602,-28.809,-55.176,-175.293
1678024540.399,5.859,-15.137,-28.809,-13.672,-262.207
1678024540.403,-6.348,-19.531,-31.250,34.180,-67.383
1678024540.407,-12.695,-29.297,-29.297,34.668,-20.020
1678024540.407,8.301,-28.809,-31.738,2.930,-113.770
1678024540.411,25.391,-15.137,-34.668,-30.762,-87.891
1678024540.415,-13.672,-7.324,-36.621,-32.227,-24.414
1678024540.419,-42.969,-6.348,-33.691,-0.488,-112.793
1678024540.423,-23.438,-3.418,-31.738,6.836,-108.398
1678024540.427,-17.578,0.000,-43.457,-48.340,94.238
1678024540.431,-33.203,2.441,-53.223,-94.238,263.672
1678024540.434,-51.758,4.883,-56.641,-92.773,110.352
1678024540.438,-60.547,10.742,-57.129,-46.875,-73.242
1678024540.442,-46.875,14.648,-58.594,-19.531,51.270
1678024540.446,-33.203,16.602,-65.430,-67.383,101.562
1678024540.450,-39.062,15.625,-69.824,-129.395,-211.426
1678024540.467,-43.945,14.160,-69.824,-109.863,-290.527
1678024540.471,-49.316,16.113,-69.824,-41.992,-158.691
1678024540.475,-49.316,16.113,-70.801,-26.855,-104.980
1678024540.479,-40.039,11.719,-73.242,-80.078,-147.461
1678024540.483,-33.203,10.254,-71.777,-122.070,-191.406
1678024540.487,-42.480,10.742,-72.266,-103.027,-140.137
1678024540.491,-58.105,9.277,-79.590,-52.734,-50.781
1678024540.494,-46.875,7.324,-76.172,-18.066,-119.141
1678024540.498,-18.555,7.812,-72.266,-34.668,-210.938
1678024540.502,-19.043,6.836,-73.242,-83.984,28.320
1678024540.506,-36.133,-0.488,-73.730,-95.215,49.805
1678024540.510,-41.016,-5.859,-74.707,-50.293,-148.438
1678024540.512,-34.668,-8.301,-64.941,-5.859,-87.891
1678024540.516,-21.973,-15.137,-59.570,-26.367,-27.832
1678024540.520,-16.602,-17.578,-61.035,-78.613,-92.285
1678024540.524,-30.762,-19.531,-62.988,-90.820,-156.738
1678024540.528,-40.039,-22.949,-61.523,-40.039,100.586
1678024540.532,-29.297,-28.809,-60.547,15.625,339.355
1678024540.536,-9.277,-28.320,-56.641,-1.465,72.754
1678024540.539,-0.488,-20.508,-52.734,-57.617,-179.688
1678024540.543,-9.766,-20.020,-52.246,-62.012,-54.199
1678024540.547,-21.973,-24.902,-47.363,-0.977,156.250
1678024540.551,-25.879,-26.367,-46.387,36.621,-29.785
1678024540.555,-6.348,-23.438,-41.016,15.625,-130.371
1678024540.559,14.160,-20.996,-35.645,-42.969,-17.578
1678024540.563,2.441,-18.066,-35.156,-64.941,-76.660
1678024540.567,-14.160,-19.043,-34.668,-25.391,-187.988
1678024540.571,-18.555,-25.879,-36.133,23.926,-92.773
1678024540.575,-4.883,-30.762,-39.062,28.809,8.301
1678024540.579,5.859,-33.691,-39.062,-23.926,-23.438
1678024540.583,-0.488,-27.832,-38.086,-55.664,1.953
1678024540.586,-15.137,-23.926,-36.133,-24.414,-75.195
1678024540.590,-21.484,-25.391,-33.691,29.297,107.910
1678024540.594,-12.695,-27.344,-35.156,32.227,200.195
1678024540.598,-3.418,-28.809,-35.645,-28.320,-92.285
1678024540.602,-1.465,-24.902,-31.250,-69.824,-105.957
1678024540.603,-20.020,-26.367,-31.250,-41.504,-96.680
1678024540.607,-31.738,-31.250,-34.180,15.137,-106.934
1678024540.611,-15.625,-26.855,-29.297,35.156,-78.613
1678024540.615,0.488,-20.996,-23.438,-12.695,19.043
1678024540.619,-3.418,-20.508,-22.461,-66.406,81.055
1678024540.623,-26.367,-23.438,-28.809,-55.664,-70.801
1678024540.627,-36.621,-23.926,-29.785,-0.488,-102.051
1678024540.630,-19.531,-22.949,-20.508,33.691,84.961
1678024540.634,-6.836,-28.320,-23.926,6.836,320.801
1678024540.638,-9.277,-31.738,-31.250,-48.828,147.949
1678024540.642,-17.090,-23.926,-26.855,-44.922,-133.789
1678024540.646,-28.809,-21.973,-26.367,13.672,-71.289
1678024540.649,-26.855,-24.902,-25.391,27.344,-46.875
1678024540.653,-15.625,-26.855,-25.391,-23.438,-99.609
1678024540.657,-17.090,-28.809,-28.320,-81.055,-141.602
1678024540.661,-33.203,-29.297,-27.832,-74.219,-179.688
1678024540.665,-40.039,-30.273,-26.855,-1.465,-84.961
1678024540.669,-35.645,-33.203,-26.367,35.645,14.160
1678024540.673,-18.555,-35.156,-21.973,-1.465,-32.227
1678024540.676,-14.160,-36.621,-20.508,-51.270,180.176
1678024540.680,-27.832,-40.039,-20.020,-54.199,171.387
1678024540.684,-33.203,-39.062,-18.555,-0.488,-141.113
1678024540.688,-38.086,-31.250,-18.555,37.598,-107.422
1678024540.692,-35.645,-32.227,-24.414,2.930,-41.504
1678024540.692,-35.156,-32.227,-29.297,-62.988,-191.895
1678024540.696,-42.969,-29.785,-29.785,-72.754,-257.812
1678024540.700,-49.805,-28.809,-27.832,-21.973,-148.438
1678024540.704,-49.805,-27.344,-24.414,26.855,-59.082
1678024540.708,-36.621,-30.273,-25.391,10.254,-27.832
1678024540.712,-27.344,-26.855,-24.414,-54.688,-104.492
1678024540.716,-34.180,-24.902,-26.367,-64.941,-122.070
1678024540.719,-45.410,-23.438,-26.855,-2.930,318.848
1678024540.723,-47.363,-27.344,-24.414,37.598,343.750
1678024540.727,-31.250,-29.785,-24.414,13.184,-91.309
1678024540.731,-20.020,-28.320,-21.973,-43.945,-118.164
1678024540.735,-36.133,-27.832,-18.555,-70.312,-132.812
1678024540.754,-51.270,-33.203,-20.508,-32.715,-150.391
1678024540.758,-44.922,-33.691,-21.484,22.949,-53.223
1678024540.762,-25.879,-28.320,-16.113,21.973,3.906
1678024540.766,-10.742,-30.762,-14.648,-43.457,-99.121
1678024540.770,-18.555,-32.227,-14.160,-84.961,-216.309
1678024540.774,-37.109,-31.250,-16.113,-47.852,-146.484
1678024540.778,-44.434,-28.320,-15.625,21.484,112.793
1678024540.781,-34.668,-26.367,-6.836,36.621,104.492
1678024540.785,-17.578,-28.320,-3.418,-19.043,-161.621
1678024540.789,-18.555,-32.715,-13.184,-73.242,-138.672
1678024540.793,-35.156,-39.551,-20.996,-55.176,12.207
1678024540.797,-49.316,-40.039,-18.555,13.184,-79.590
1678024540.782,-39.551,-32.715,-14.648,37.598,-120.117
1678024540.786,-19.043,-26.855,-12.207,-18.555,-47.852
1678024540.790,-18.066,-29.297,-14.648,-72.754,-158.691
1678024540.794,-34.668,-30.762,-17.090,-46.875,-196.777
1678024540.798,-43.945,-28.809,-13.184,16.113,-94.727
1678024540.802,-33.691,-32.227,-19.531,35.156,80.078
1678024540.806,-20.508,-31.250,-22.949,-18.066,152.832
1678024540.809,-22.949,-28.320,-14.160,-77.148,-67.383
1678024540.813,-39.551,-29.297,-15.137,-68.848,-198.730
1678024540.817,-47.363,-30.273,-17.578,-2.441,35.156
1678024540.821,-41.992,-31.738,-15.625,37.109,407.227
1678024540.825,-31.250,-29.297,-15.625,-12.695,220.703
1678024540.842,-24.902,-29.297,-13.672,-74.707,-131.348
1678024540.846,-41.016,-32.227,-17.578,-73.242,-114.746
1678024540.850,-53.711,-31.250,-20.508,-14.648,-96.191
1678024540.854,-51.270,-25.879,-21.973,30.762,-142.090
1678024540.858,-40.527,-22.949,-24.414,-3.418,-101.074
1678024540.862,-33.203,-23.438,-22.949,-72.754,-131.348
1678024540.866,-42.480,-27.832,-29.785,-80.078,-146.484
1678024540.869,-55.176,-29.297,-31.250,-20.996,-175.293
1678024540.873,-54.688,-26.855,-24.902,27.832,-79.102
1678024540.877,-38.574,-22.949,-20.020,2.930,163.574
1678024540.881,-34.668,-25.391,-24.414,-67.871,40.527
1678024540.885,-41.016,-27.344,-25.391,-88.867,-212.891
1678024540.887,-48.340,-19.531,-21.973,-34.668,-50.781
1678024540.891,-53.711,-19.043,-24.902,11.719,-18.555
1678024540.895,-36.621,-20.508,-24.902,-9.277,-91.797
1678024540.899,-27.832,-18.555,-22.949,-69.336,-151.367
1678024540.903,-35.645,-19.531,-19.043,-91.797,-36.133
1678024540.907,-50.293,-26.367,-19.531,-41.016,214.355
1678024540.911,-62.012,-26.367,-21.484,15.137,107.910
1678024540.914,-51.758,-26.367,-22.461,-2.930,-84.473
1678024540.918,-40.527,-26.367,-27.832,-65.918,-27.832
1678024540.922,-41.992,-19.043,-27.832,-95.703,77.637
1678024540.926,-54.688,-15.625,-20.508,-62.012,-102.539
1678024540.930,-61.523,-17.578,-20.508,-12.207,-117.188
1678024540.934,-63.477,-27.344,-28.320,-27.832,-20.020
1678024540.938,-59.082,-25.391,-21.973,-81.055,-111.328
1678024540.942,-64.941,-2.441,0.000,-117.188,-225.586
1678024540.946,-93.262,0.488,-7.324,-106.445,-223.633
1678024540.950,-118.164,2.930,-19.043,-64.941,-51.758
1678024540.954,-121.582,10.254,-9.277,-63.965,-7.812
1678024540.958,-135.742,11.719,-0.977,-149.902,-131.348
1678024540.961,-180.664,14.160,10.742,-237.793,-206.543
1678024540.965,-217.773,22.461,26.367,-227.539,84.473
1678024540.969,-251.953,25.391,32.227,-196.777,186.035
1678024540.973,-282.227,16.113,41.016,-215.332,-140.137
1678024540.977,-293.945,9.277,56.152,-290.527,-104.980
1678024540.977,-306.152,5.859,58.594,-359.863,-102.539
1678024540.981,-329.590,0.488,64.941,-350.586,-152.832
1678024540.985,-342.773,0.000,65.430,-287.109,-94.727
1678024540.989,-333.984,-3.418,72.266,-250.977,18.066
1678024540.993,-324.707,-10.742,72.266,-297.852,39.551
1678024540.997,-312.012,-17.578,73.242,-348.633,11.719
1678024541.001,-315.918,-12.207,77.148,-325.684,3.418
1678024541.004,-322.754,-14.648,74.219,-252.930,155.762
1678024541.008,-306.641,-27.832,75.195,-194.824,496.094
1678024541.012,-279.785,-31.738,75.684,-216.309,295.410
1678024541.016,-263.184,-30.273,73.242,-287.109,-121.094
1678024541.020,-277.832,-35.156,64.941,-295.410,-176.270
1678024541.024,-283.691,-46.387,63.477,-220.703,-174.805
1678024541.028,-270.508,-53.223,62.012,-166.016,-171.875
1678024541.032,-260.742,-58.105,53.223,-191.895,-134.277
1678024541.036,-241.699,-56.641,53.711,-239.746,-114.746
1678024541.040,-229.004,-53.711,54.199,-235.840,-135.254
1678024541.044,-233.398,-53.223,47.852,-166.992,-53.223
1678024541.048,-245.605,-54.688,41.016,-127.441,79.590
1678024541.051,-225.586,-60.059,38.086,-148.438,233.398
1678024541.055,-196.289,-67.383,38.086,-204.590,124.512
1678024541.059,-199.219,-66.406,26.367,-237.793,-145.508
1678024541.063,-202.637,-69.824,17.578,-178.711,-105.957
1678024541.067,-178.711,-77.637,13.184,-98.145,24.902
1678024541.067,-148.926,-75.195,3.906,-101.562,13.672
1678024541.071,-137.207,-67.383,1.953,-164.551,-133.789
1678024541.075,-125.488,-66.406,2.930,-172.363,-168.945
1678024541.079,-122.070,-60.059,-5.371,-107.422,-116.699
1678024541.083,-119.629,-59.570,-18.066,-46.387,-83.008
1678024541.087,-93.750,-67.871,-23.926,-46.875,-12.207
1678024541.091,-80.078,-67.871,-26.367,-95.703,67.871
1678024541.094,-87.891,-62.012,-30.273,-125.488,257.324
1678024541.098,-92.773,-53.711,-36.133,-95.703,69.824
1678024541.102,-83.984,-55.664,-43.945,-28.320,-171.387
1678024541.106,-57.617,-62.012,-43.457,-5.371,-92.285
1678024541.110,-41.016,-54.688,-41.016,-56.641,-52.246
1678024541.115,-52.734,-53.223,-49.805,-104.980,-170.410
1678024541.119,-51.270,-54.688,-50.781,-60.547,-304.688
1678024541.123,-38.086,-45.898,-51.758,9.766,-122.070
1678024541.127,-29.297,-43.457,-55.176,23.438,-48.828
1678024541.131,-6.348,-44.434,-56.641,-24.414,-147.461
1678024541.135,2.930,-39.062,-60.059,-65.918,-94.238
1678024541.139,-5.371,-39.062,-59.570,-32.715,136.230
1678024541.142,-2.930,-39.062,-67.871,31.738,179.199
1678024541.146,17.578,-35.645,-68.848,57.617,-59.570
1678024541.150,28.809,-35.645,-65.430,10.254,-130.859
1678024541.154,27.832,-39.062,-68.359,-42.480,-153.809
1678024541.158,21.484,-39.551,-68.359,-23.926,-149.902
1678024541.158,18.066,-41.016,-69.824,44.922,-145.508
1678024541.162,30.273,-44.922,-68.359,87.891,43.945
1678024541.166,48.828,-49.805,-65.430,50.293,92.285
1678024541.170,51.270,-45.898,-66.895,-13.672,-124.512
1678024541.174,40.527,-39.551,-68.848,-2.441,-130.859
1678024541.178,33.691,-41.504,-67.871,68.359,83.984
1678024541.182,42.969,-39.551,-63.965,115.723,485.352
1678024541.185,59.082,-38.574,-60.547,76.660,352.539
1678024541.189,70.801,-44.922,-59.082,13.184,-51.758
1678024541.193,64.453,-45.410,-59.082,12.695,-8.789
1678024541.197,52.734,-41.016,-60.547,73.730,17.090
1678024541.201,62.012,-42.969,-62.500,120.605,-70.312
1678024541.217,75.684,-42.480,-64.453,92.773,-44.434
1678024541.221,86.426,-32.715,-62.988,38.574,-76.660
1678024541.225,75.195,-31.250,-62.988,40.527,-107.910
1678024541.229,53.223,-34.180,-61.523,93.750,-83.008
1678024541.233,58.594,-35.645,-62.012,136.719,-84.961
1678024541.237,73.242,-36.621,-58.594,124.023,199.707
1678024541.241,71.777,-36.621,-56.641,54.688,176.758
1678024541.244,61.523,-38.574,-61.035,20.020,-244.629
1678024541.248,46.387,-36.133,-59.082,64.941,-225.586
1678024541.252,50.293,-37.109,-56.641,113.770,-9.766
1678024541.256,71.777,-41.016,-54.199,104.980,-5.371
1678024541.260,79.590,-34.668,-46.387,44.922,-183.594
1678024541.262,67.871,-30.762,-49.805,5.371,-168.457
1678024541.266,49.316,-36.621,-58.105,38.574,-130.371
1678024541.270,46.387,-35.156,-54.688,98.145,-161.133
1678024541.274,57.129,-30.273,-47.852,97.168,-190.918
1678024541.278,69.336,-26.855,-41.016,34.180,-54.688
1678024541.282,61.035,-27.832,-44.922,-7.812,-7.324
1678024541.286,41.992,-31.738,-49.805,23.438,-64.941
1678024541.289,41.016,-28.320,-47.852,83.496,-32.227
1678024541.293,46.387,-31.738,-47.363,83.984,80.566
1678024541.297,53.711,-33.691,-45.898,32.715,332.031
1678024541.301,44.922,-32.227,-48.828,-10.742,28.809
1678024541.305,29.785,-34.180,-48.340,10.742,-219.727
1678024541.309,24.902,-34.180,-46.387,72.754,-109.863
1678024541.313,40.527,-29.297,-46.875,83.984,-83.008
1678024541.317,63.965,-24.902,-38.086,32.227,-96.191
1678024541.321,56.152,-26.855,-38.086,-11.719,-155.273
1678024541.325,33.691,-25.879,-41.992,15.625,-153.320
1678024541.329,22.461,-27.832,-41.504,74.219,-48.340
1678024541.333,34.180,-27.832,-41.992,89.355,-4.883
1678024541.336,46.875,-25.391,-40.527,41.016,-138.672
1678024541.340,41.992,-24.902,-36.621,-13.672,68.848
1678024541.344,33.691,-25.879,-31.738,5.859,169.922
1678024541.348,28.320,-26.855,-31.738,69.824,-140.137
1678024541.352,33.691,-27.344,-35.645,92.773,-66.895
1678024541.352,41.504,-27.344,-38.086,42.480,-10.742
1678024541.356,32.715,-27.832,-39.062,-20.508,-145.508
1678024541.360,12.695,-30.762,-41.016,-19.043,-191.895
1678024541.364,-3.906,-35.156,-38.086,38.574,-29.297
1678024541.368,-8.789,-41.504,-38.574,81.543,124.512
1678024541.372,4.883,-40.039,-39.062,49.805,54.199
1678024541.376,13.672,-32.227,-36.133,-21.973,-62.500
1678024541.379,-1.465,-36.133,-41.016,-35.156,3.418
1678024541.383,-17.090,-43.945,-42.969,27.344,293.945
1678024541.387,-22.461,-41.016,-41.992,66.406,191.895
1678024541.391,-12.207,-37.598,-40.039,30.273,-102.539
1678024541.395,-2.441,-36.133,-36.133,-28.320,0.000
1678024541.399,-6.348,-35.645,-38.574,-41.016,-17.578
1678024541.403,-12.207,-37.109,-32.227,19.531,-167.480
1678024541.407,-20.508,-39.551,-22.949,72.266,-100.586
1678024541.411,-16.113,-39.062,-28.809,49.805,-16.113
1678024541.415,-4.395,-34.668,-32.227,-15.625,-62.988
1678024541.419,-3.906,-30.762,-29.785,-29.297,-77.148
1678024541.423,-19.043,-31.250,-29.297,17.578,-23.438
1678024541.426,-23.438,-30.273,-23.926,74.219,195.312
1678024541.430,-7.812,-32.715,-22.461,66.406,183.105
1678024541.434,6.836,-36.621,-25.391,-13.672,-158.691
1678024541.438,6.836,-34.668,-26.367,-42.969,-148.926
1678024541.442,-6.836,-36.133,-29.785,-0.977,2.930
1678024541.443,-16.113,-41.016,-29.297,42.480,-36.133
1678024541.447,-7.324,-39.551,-26.367,38.574,-79.102
1678024541.451,7.812,-35.645,-27.344,-21.973,-1.953
1678024541.455,-0.488,-38.574,-31.738,-52.246,4.395
1678024541.459,-19.043,-35.645,-29.297,-12.695,-144.043
1678024541.463,-28.320,-32.715,-27.832,30.273,-101.562
1678024541.467,-14.648,-30.762,-25.879,36.133,110.840
1678024541.470,6.348,-24.902,-21.484,-7.812,367.188
1678024541.474,3.418,-25.391,-21.484,-52.734,169.922
1678024541.478,-8.301,-25.391,-21.484,-31.250,-217.285
1678024541.482,-25.391,-27.344,-26.367,30.762,-149.414
1678024541.486,-25.391,-33.203,-24.902,43.945,-13.184
1678024541.489,-7.812,-28.809,-20.996,-16.602,-114.746
1678024541.493,-14.648,-27.832,-24.414,-76.660,-176.270
1678024541.497,-34.668,-30.273,-25.879,-56.641,-70.801
1678024541.501,-40.527,-29.297,-29.785,10.742,-10.742
1678024541.505,-26.855,-33.203,-31.250,28.320,-31.250
1678024541.509,-12.207,-26.855,-22.461,-32.227,-46.875
1678024541.513,-13.672,-23.926,-17.090,-77.148,184.082
1678024541.516,-30.273,-27.344,-20.020,-62.988,263.184
1678024541.520,-41.992,-26.367,-17.578,-6.836,-21.484
1678024541.524,-30.762,-24.414,-17.090,28.320,-56.152
1678024541.528,-15.137,-26.855,-22.949,-13.672,11.719
1678024541.532,-8.789,-28.809,-24.902,-74.219,-111.328
1678024541.532,-12.695,-27.832,-27.344,-65.430,-176.270
1678024541.536,-20.996,-32.227,-30.273,-0.977,-66.406
1678024541.540,-23.926,-37.598,-28.809,26.855,-11.230
1678024541.544,-5.859,-31.250,-27.344,-6.348,-67.383
1678024541.548,3.906,-30.273,-31.250,-56.152,-94.727
1678024541.552,-7.324,-32.715,-27.344,-56.152,42.969
1678024541.556,-27.344,-39.551,-24.414,-10.254,320.312
1678024541.559,-30.762,-39.551,-34.180,22.461,192.383
1678024541.563,-13.184,-31.738,-30.273,4.883,-131.348
1678024541.567,-5.859,-35.156,-23.438,-50.293,-49.805
1678024541.571,-17.090,-32.227,-27.832,-65.430,4.883
1678024541.575,-33.203,-33.203,-27.344,-27.344,-196.289
1678024541.593,-35.645,-33.691,-19.043,17.090,-218.262
1678024541.597,-20.508,-29.785,-21.973,3.418,-176.270
1678024541.601,-10.742,-33.203,-27.832,-55.664,-207.520
1678024541.605,-20.508,-33.691,-27.344,-74.707,-244.141
1678024541.609,-31.738,-28.320,-25.879,-32.715,-175.781
1678024541.613,-34.668,-30.273,-25.391,29.297,-47.852
1678024541.617,-21.973,-32.227,-32.227,19.531,49.805
1678024541.620,-12.695,-31.250,-35.645,-46.387,-36.621
1678024541.624,-23.438,-32.227,-31.250,-76.172,-147.949
1678024541.628,-37.598,-28.320,-27.832,-37.109,93.262
1678024541.632,-39.551,-28.809,-25.879,19.531,163.086
1678024541.636,-23.438,-27.344,-27.832,11.230,-94.727
1678024541.637,-15.625,-25.391,-27.344,-49.805,-96.680
1678024541.641,-27.344,-27.832,-22.949,-89.355,-149.902
1678024541.645,-37.598,-27.344,-21.484,-48.828,-217.285
1678024541.649,-34.668,-30.762,-24.902,16.602,-107.910
1678024541.653,-24.414,-28.809,-26.367,18.066,66.895
1678024541.657,-15.625,-23.438,-28.320,-38.086,127.441
1678024541.661,-19.043,-25.391,-26.855,-84.961,-21.973
1678024541.664,-27.344,-34.180,-25.391,-60.059,-150.879
1678024541.668,-35.156,-31.738,-25.879,14.160,20.020
1678024541.672,-27.832,-27.832,-21.484,37.598,343.750
1678024541.676,-8.301,-30.273,-20.020,-18.555,164.062
1678024541.680,-8.301,-17.578,-16.113,-61.035,-205.078
1678024541.684,-22.949,-14.160,-16.113,-43.945,-91.309
1678024541.688,-27.832,-20.996,-23.926,8.301,-16.113
1678024541.692,-24.902,-20.020,-23.926,31.250,-130.371
1678024541.696,-19.043,-22.461,-24.414,-19.043,-84.473
1678024541.700,-16.602,-23.926,-27.832,-75.684,-126.953
1678024541.704,-30.273,-22.461,-27.344,-65.918,-25.391
1678024541.708,-39.551,-22.949,-25.391,3.418,-25.879
1678024541.711,-30.273,-22.949,-20.020,42.480,-177.734
1678024541.715,-20.020,-22.461,-18.555,3.418,48.828
1678024541.719,-14.160,-21.484,-19.043,-57.129,69.336
1678024541.723,-22.461,-26.855,-19.531,-63.965,-213.867
1678024541.727,-41.504,-27.832,-15.625,-8.301,-192.383
1678024541.727,-39.551,-24.414,-16.113,28.809,-24.414
1678024541.731,-20.020,-26.367,-17.578,-0.488,-3.418
1678024541.735,-17.578,-24.414,-17.090,-66.895,-125.488
1678024541.739,-31.250,-21.973,-21.973,-74.707,-65.918
1678024541.743,-42.480,-23.438,-20.020,-12.695,98.633
1678024541.747,-43.945,-26.367,-18.066,29.785,51.270
1678024541.751,-30.762,-26.855,-19.043,10.254,31.738
1678024541.754,-21.973,-27.344,-20.020,-53.223,63.477
1678024541.758,-37.598,-31.738,-21.484,-79.102,209.473
1678024541.762,-52.246,-29.785,-26.855,-41.016,109.375
1678024541.766,-43.945,-22.461,-24.902,13.672,-116.699
1678024541.770,-31.738,-26.855,-20.996,0.000,-31.738
1678024541.774,-27.832,-28.320,-20.996,-62.988,-82.031
1678024541.778,-31.738,-28.320,-21.484,-86.914,-198.730
1678024541.782,-47.363,-27.832,-25.391,-44.434,-151.367
1678024541.786,-57.129,-27.344,-25.391,11.719,40.527
1678024541.790,-45.898,-29.785,-26.855,-2.930,26.855
1678024541.794,-33.691,-27.832,-23.926,-57.617,-86.426
1678024541.798,-39.551,-27.344,-23.438,-85.938,-52.246
1678024541.801,-54.688,-32.227,-22.949,-47.363,154.297
1678024541.805,-59.570,-38.086,-26.367,10.254,204.102
1678024541.809,-45.410,-37.109,-28.809,4.883,-63.965
1678024541.813,-28.809,-30.273,-22.949,-56.641,-40.039
1678024541.817,-29.297,-30.273,-25.391,-99.121,-59.082
1678024541.817,-35.645,-29.785,-28.809,-64.453,-162.109
1678024541.821,-44.922,-26.367,-31.250,5.371,-118.652
1678024541.825,-40.527,-27.344,-28.809,20.020,-8.301
1678024541.829,-27.344,-26.367,-21.484,-38.086,-46.387
1678024541.833,-32.715,-25.391,-23.926,-84.473,-134.766
1678024541.837,-48.340,-27.344,-28.320,-66.406,-65.430
1678024541.841,-53.223,-27.344,-24.414,-12.207,56.641
1678024541.844,-40.527,-27.832,-23.438,11.719,485.840
1678024541.848,-24.414,-27.344,-24.902,-38.086,390.137
1678024541.852,-24.902,-30.273,-20.508,-96.680,-160.156
1678024541.856,-38.574,-26.367,-19.531,-75.684,-179.688
1678024541.860,-47.852,-23.926,-22.461,-12.695,-81.055
1678024541.864,-41.016,-31.738,-22.461,15.625,-107.910
1678024541.868,-24.902,-31.738,-27.832,-23.438,-145.020
1678024541.872,-21.973,-24.902,-25.391,-72.266,-107.422
1678024541.876,-42.969,-27.832,-26.855,-78.125,-118.652
1678024541.880,-54.688,-29.297,-29.297,-30.273,-108.887
1678024541.884,-38.574,-26.367,-26.367,9.277,-66.406
1678024541.888,-25.391,-30.762,-27.832,-22.949,142.578
1678024541.891,-25.879,-32.227,-27.832,-82.031,129.883
1678024541.895,-38.086,-31.250,-22.949,-84.473,-207.031
1678024541.899,-52.734,-31.738,-23.926,-30.273,-199.219
1678024541.903,-58.105,-28.320,-34.180,18.066,-33.691
1678024541.907,-46.387,-30.273,-36.133,-4.883,-98.145
1678024541.907,-36.133,-29.785,-23.926,-70.312,-203.613
1678024541.911,-40.527,-22.949,-20.508,-82.520,-93.262
1678024541.915,-49.316,-15.625,-21.484,-36.621,-58.105
1678024541.919,-58.594,-15.625,-7.812,-0.977,-93.750
1678024541.923,-56.641,-15.137,-14.160,-31.738,-39.062
1678024541.927,-56.152,-19.531,-19.531,-97.656,42.969
1678024541.931,-77.637,-22.949,-9.766,-125.977,194.336
1678024541.934,-101.562,-17.090,-9.766,-88.379,85.449
1678024541.938,-113.281,-9.766,-5.371,-57.129,-132.812
1678024541.942,-119.629,-0.488,0.000,-91.797,49.316
1678024541.946,-136.719,3.906,-1.953,-176.270,162.109
1678024541.950,-161.133,0.488,1.953,-234.375,-180.664
1678024541.967,-208.984,3.906,14.648,-217.773,-223.145
1678024541.971,-254.395,6.348,29.785,-182.129,-81.543
1678024541.975,-260.742,3.418,33.203,-200.684,-55.664
1678024541.979,-259.277,13.184,38.574,-280.762,-164.551
1678024541.983,-276.367,12.695,51.758,-332.031,-195.801
1678024541.987,-309.082,16.602,49.805,-306.152,-119.141
1678024541.991,-302.734,13.184,58.105,-236.816,-82.031
1678024541.994,-278.320,3.418,66.895,-226.074,-122.559
1678024541.998,-265.625,6.348,68.359,-270.020,-144.531
1678024542.002,-267.578,2.441,62.012,-300.293,34.668
1678024542.006,-281.738,-7.812,52.734,-278.809,30.273
1678024542.010,-277.344,-11.719,61.035,-213.867,-138.184
1678024542.012,-262.695,-18.555,62.012,-192.383,-3.906
1678024542.016,-251.465,-28.320,56.152,-237.793,63.477
1678024542.020,-245.117,-28.809,59.082,-274.414,-98.145
1678024542.024,-252.930,-32.227,59.082,-255.859,-168.945
1678024542.028,-246.094,-29.785,53.223,-180.176,-5.859
1678024542.032,-219.238,-25.879,53.711,-134.766,112.305
1678024542.036,-208.008,-33.203,53.711,-185.059,-56.152
1678024542.039,-199.707,-45.410,49.805,-237.793,-157.227
1678024542.043,-184.082,-51.758,47.363,-198.730,-24.902
1678024542.047,-180.176,-53.223,39.062,-118.652,161.621
1678024542.051,-170.898,-54.688,33.691,-92.773,-24.902
1678024542.055,-146.973,-56.152,25.879,-128.906,-188.477
1678024542.059,-121.582,-58.105,17.090,-164.551,-134.277
1678024542.063,-119.141,-62.500,18.555,-138.184,-108.398
1678024542.067,-122.559,-67.383,12.695,-66.406,-42.969
1678024542.071,-100.098,-66.406,2.441,-22.461,30.762
1678024542.075,-72.266,-62.012,-7.812,-49.805,30.762
1678024542.079,-60.547,-58.105,-7.324,-97.168,-54.199
1678024542.083,-59.082,-62.012,-6.836,-93.262,-68.359
1678024542.086,-57.617,-65.918,-14.160,-36.133,-72.266
1678024542.090,-53.711,-59.082,-24.414,14.648,148.438
1678024542.094,-38.086,-50.781,-26.855,0.977,132.324
1678024542.098,-23.438,-54.199,-25.391,-64.453,-210.449
1678024542.102,-31.738,-58.594,-34.180,-84.961,-230.957
1678024542.102,-44.434,-56.152,-44.434,-24.414,-107.422
1678024542.106,-34.180,-56.641,-41.504,35.156,-66.895
1678024542.110,-13.672,-59.570,-41.016,25.391,-100.098
1678024542.114,0.977,-54.688,-43.457,-29.785,-59.570
1678024542.118,-1.953,-54.199,-43.457,-51.270,13.184
1678024542.122,-8.789,-54.688,-49.316,-5.859,12.207
1678024542.126,-1.953,-45.410,-46.875,54.199,-48.828
1678024542.129,15.137,-42.480,-42.969,55.664,114.746
1678024542.133,27.832,-44.922,-43.945,8.301,389.648
1678024542.137,21.484,-42.480,-45.410,-22.461,166.504
1678024542.141,12.207,-39.551,-46.875,10.254,-226.562
1678024542.145,13.184,-42.969,-49.316,66.406,-131.836
1678024542.149,29.785,-41.992,-50.293,66.895,-76.172
1678024542.153,44.922,-41.016,-51.270,9.277,-196.289
1678024542.157,41.992,-44.922,-55.664,-25.879,-213.379
1678024542.161,33.691,-41.992,-53.223,14.160,-198.730
1678024542.165,35.645,-40.527,-54.688,77.148,-136.230
1678024542.169,49.805,-38.574,-54.688,89.844,-28.320
1678024542.173,58.105,-37.109,-51.758,33.691,-19.531
1678024542.176,51.270,-37.598,-54.199,-12.695,127.930
1678024542.180,32.715,-39.062,-58.105,10.254,197.754
1678024542.184,20.020,-40.039,-62.988,61.035,-91.309
1678024542.188,27.344,-41.016,-61.523,74.219,-117.188
1678024542.192,41.504,-42.969,-59.570,26.367,-61.035
1678024542.192,46.387,-43.945,-61.035,-19.531,-93.750
1678024542.196,35.645,-44.922,-60.547,-10.254,-169.922
1678024542.200,27.344,-40.039,-58.594,61.523,-84.473
1678024542.204,43.945,-36.133,-57.617,89.355,20.508
1678024542.208,56.152,-39.062,-56.641,36.621,-13.184
1678024542.212,52.246,-37.598,-54.688,-13.672,-80.566
1678024542.216,43.945,-34.668,-54.688,3.418,12.695
1678024542.219,36.621,-38.574,-55.176,74.219,371.094
1678024542.223,49.805,-37.109,-55.664,99.121,201.172
1678024542.227,62.500,-31.738,-55.664,58.594,-86.426
1678024542.231,56.152,-34.668,-57.129,5.371,-20.508
1678024542.235,38.086,-38.574,-59.570,4.395,-70.312
1678024542.239,30.762,-38.574,-55.664,60.059,-139.648
1678024542.243,41.992,-34.180,-50.781,97.168,-132.812
1678024542.247,53.711,-35.645,-50.293,68.848,-62.500
1678024542.251,57.129,-40.039,-47.852,11.719,-63.965
1678024542.255,40.527,-39.551,-51.758,-2.441,-170.898
1678024542.259,19.043,-38.086,-56.641,46.875,-125.977
1678024542.263,23.926,-33.203,-53.223,94.238,181.152
1678024542.266,39.551,-32.715,-51.270,69.336,205.078
1678024542.270,39.062,-32.715,-44.922,0.488,-125.977
1678024542.274,24.414,-28.320,-42.480,-26.855,-166.504
1678024542.278,12.207,-24.902,-47.852,18.066,-75.684
1678024542.282,17.578,-26.367,-42.969,78.613,-24.414
1678024542.283,25.879,-32.715,-38.086,60.547,-4.883
1678024542.287,29.785,-32.227,-40.527,-10.254,-48.340
1678024542.291,22.949,-32.715,-41.504,-36.621,-53.223
1678024542.295,5.859,-33.691,-39.551,6.836,-124.512
1678024542.299,5.371,-34.180,-43.945,56.152,-100.098
1678024542.303,18.066,-36.621,-41.992,46.387,83.984
1678024542.307,24.414,-34.668,-37.598,-5.371,290.527
1678024542.310,12.207,-38.574,-44.922,-51.758,47.852
1678024542.314,-3.418,-39.062,-46.387,-26.367,-196.289
1678024542.318,-7.812,-38.086,-42.969,36.133,7.324
1678024542.322,2.930,-39.062,-45.410,40.039,75.195
1678024542.326,14.648,-38.574,-46.875,-12.695,-69.824
1678024542.344,12.695,-39.551,-46.875,-43.457,-128.906
1678024542.348,2.930,-40.527,-42.480,-13.184,-135.742
1678024542.352,-7.812,-40.039,-41.016,35.156,-60.059
1678024542.356,2.930,-39.551,-43.945,37.109,-73.730
1678024542.360,17.090,-43.457,-43.457,-16.602,-188.965
1678024542.364,14.160,-41.016,-39.062,-49.316,7.812
1678024542.368,5.859,-37.109,-37.109,-16.113,185.059
1678024542.371,3.418,-34.668,-38.574,41.504,-92.285
1678024542.375,9.277,-33.691,-38.574,55.176,-120.605
1678024542.379,10.742,-34.180,-39.551,3.906,7.812
1678024542.383,12.207,-31.738,-39.062,-43.945,-73.730
1678024542.387,-1.953,-31.738,-40.039,-38.574,-131.836
1678024542.387,-15.625,-33.691,-39.551,11.719,-44.434
1678024542.391,-7.812,-33.691,-39.551,38.086,-26.367
1678024542.395,0.977,-34.180,-40.527,-2.441,-36.621
1678024542.399,3.906,-26.855,-33.691,-53.223,-143.555
1678024542.403,-9.277,-22.461,-29.297,-51.270,-96.680
1678024542.407,-21.973,-27.344,-31.738,0.977,127.441
1678024542.411,-13.184,-29.785,-34.180,36.621,67.383
1678024542.414,1.953,-31.250,-33.691,-1.465,48.828
1678024542.418,-1.465,-28.809,-37.109,-60.059,118.652
1678024542.422,-14.648,-27.344,-42.480,-54.688,262.695
1678024542.426,-18.555,-32.715,-39.551,-4.395,66.895
1678024542.430,-16.113,-38.574,-36.621,29.785,-142.578
1678024542.449,-8.789,-33.691,-37.109,3.418,-31.250
1678024542.453,-11.230,-34.180,-38.086,-59.082,-112.305
1678024542.457,-28.320,-43.945,-33.203,-63.477,-237.305
1678024542.461,-34.668,-46.875,-31.250,-10.254,-147.949
1678024542.465,-33.203,-46.387,-31.250,28.809,-40.039
1678024542.469,-22.949,-44.922,-27.832,16.602,15.625
1678024542.473,-13.672,-41.992,-28.320,-36.621,-11.719
1678024542.476,-18.066,-37.598,-25.879,-52.734,-129.395
1678024542.480,-23.926,-33.203,-25.879,2.930,138.184
1678024542.484,-27.832,-38.086,-28.809,55.664,295.410
1678024542.488,-14.160,-39.551,-31.250,43.457,-68.359
1678024542.492,-4.883,-35.156,-35.156,-16.602,-150.879
1678024542.477,-20.020,-33.691,-31.738,-55.176,-114.258
1678024542.481,-36.133,-32.227,-34.668,-31.250,-175.781
1678024542.485,-35.645,-29.297,-39.551,12.695,-165.039
1678024542.489,-25.879,-29.785,-37.598,8.789,-118.164
1678024542.493,-21.973,-32.227,-38.574,-49.316,-5.371
1678024542.497,-31.250,-33.203,-43.457,-89.844,-86.426
1678024542.501,-44.434,-34.180,-45.410,-56.641,-169.922
1678024542.504,-47.363,-31.738,-40.039,7.324,40.527
1678024542.508,-33.691,-31.738,-33.203,20.508,10.742
1678024542.512,-21.484,-34.180,-31.250,-39.062,-92.285
1678024542.516,-29.297,-34.668,-32.715,-90.820,-136.719
1678024542.520,-57.617,-39.062,-36.133,-64.453,-45.898
1678024542.524,-72.754,-51.270,-31.250,7.812,298.340
1678024542.528,-40.039,-44.922,-27.344,38.086,200.195
1678024542.532,-13.672,-22.461,-34.668,-22.949,-151.367
1678024542.536,-30.762,-16.113,-37.109,-91.797,-233.398
1678024542.540,-40.039,-18.066,-37.598,-66.895,-215.332
1678024542.544,-41.016,-18.066,-40.527,-0.977,-104.492
1678024542.548,-38.086,-14.648,-42.480,13.672,-53.223
1678024542.551,-19.043,-8.789,-45.410,-30.273,97.656
1678024542.555,-27.344,-6.348,-50.293,-87.402,61.523
1678024542.559,-47.363,-9.766,-53.223,-75.684,-208.984
1678024542.563,-50.293,-12.207,-54.688,-15.137,-129.883
1678024542.567,-41.016,-11.719,-55.664,7.324,-20.020
1678024542.567,-21.484,-10.742,-51.758,-25.391,-167.969
1678024542.571,-26.855,-9.277,-44.434,-83.496,-279.785
1678024542.575,-49.805,-13.184,-44.922,-78.125,-163.086
1678024542.579,-58.105,-19.043,-44.922,-12.207,-2.441
1678024542.583,-47.852,-20.020,-43.945,17.090,-9.277
1678024542.587,-37.109,-20.020,-42.969,-21.484,-62.988
1678024542.591,-32.715,-18.066,-39.062,-70.801,-3.418
1678024542.594,-38.086,-18.555,-43.457,-66.406,234.375
1678024542.598,-48.340,-19.043,-46.387,-23.926,81.055
1678024542.602,-43.945,-14.160,-39.551,12.207,-142.090
1678024542.606,-29.785,-18.555,-36.621,-7.812,-99.121
1678024542.610,-29.785,-24.414,-41.504,-78.613,-124.512
1678024542.615,-41.016,-20.996,-42.480,-87.402,-163.574
1678024542.619,-52.246,-21.973,-40.039,-34.668,-96.191
1678024542.623,-54.199,-22.949,-41.504,-3.906,102.051
1678024542.627,-37.598,-21.973,-40.039,-19.043,37.598
1678024542.631,-19.531,-23.926,-38.574,-70.801,-162.109
1678024542.635,-28.809,-27.344,-40.527,-96.680,-168.457
1678024542.639,-50.293,-27.832,-44.922,-41.016,174.805
1678024542.642,-51.758,-30.273,-46.875,8.789,229.980
1678024542.646,-31.738,-32.715,-43.945,-5.859,-98.145
1678024542.650,-14.160,-22.949,-41.504,-55.664,-125.488
1678024542.654,-23.438,-20.020,-42.480,-81.055,-119.629
1678024542.658,-40.527,-24.414,-43.945,-44.922,-98.633
1678024542.657,-43.945,-26.367,-41.504,7.812,-78.613
1678024542.661,-30.762,-26.855,-39.062,6.836,-45.898
1678024542.665,-23.438,-28.320,-38.574,-56.152,-35.156
1678024542.669,-29.297,-23.438,-39.551,-91.797,-124.023
1678024542.673,-37.109,-17.090,-40.039,-54.199,-114.258
1678024542.677,-41.016,-18.555,-35.156,4.883,110.840
1678024542.681,-28.809,-18.555,-25.391,24.902,464.844
1678024542.684,-17.578,-16.113,-21.484,-30.762,268.555
1678024542.688,-26.367,-20.020,-27.832,-82.031,-199.219
1678024542.692,-38.574,-23.926,-27.344,-46.875,-34.180
1678024542.696,-42.480,-23.926,-28.809,12.695,140.625
1678024542.700,-33.691,-26.855,-33.203,20.996,-97.168
1678024542.717,-20.020,-27.344,-26.855,-22.461,-185.059
1678024542.721,-24.902,-26.855,-26.855,-67.871,-163.574
1678024542.725,-46.387,-28.809,-30.762,-52.246,-145.508
1678024542.729,-57.617,-29.785,-30.762,9.277,-86.426
1678024542.733,-50.781,-34.180,-31.738,28.809,-84.961
1678024542.737,-40.039,-33.203,-30.762,-15.625,-3.418
1678024542.741,-42.480,-35.156,-27.344,-65.918,-7.324
1678024542.744,-53.711,-39.062,-29.785,-57.129,-119.141
1678024542.748,-56.641,-38.574,-33.203,2.441,-113.770
1678024542.752,-45.898,-41.016,-34.668,35.156,155.762
1678024542.756,-31.250,-39.062,-38.574,-8.301,235.352
1678024542.760,-30.273,-37.598,-39.551,-71.289,-104.980
1678024542.762,-43.457,-34.180,-32.715,-62.012,-194.824
1678024542.766,-55.176,-32.227,-27.344,0.977,-155.273
1678024542.770,-51.758,-32.715,-28.809,29.297,-109.375
1678024542.774,-33.691,-31.738,-28.809,-3.906,-124.023
1678024542.778,-26.367,-31.738,-24.902,-56.152,-113.770
1678024542.782,-42.480,-35.645,-23.926,-61.523,61.523
1678024542.786,-58.594,-39.551,-25.391,-19.043,-8.789
1678024542.789,-51.758,-37.598,-27.832,21.484,-61.523
1678024542.793,-41.992,-34.668,-30.762,1.465,85.449
1678024542.797,-43.945,-33.203,-33.203,-58.105,242.188
1678024542.801,-53.711,-33.691,-35.156,-72.754,50.293
1678024542.805,-65.430,-32.715,-34.668,-30.273,-155.273
1678024542.809,-64.941,-32.715,-33.203,12.207,-36.621
1678024542.813,-62.012,-30.762,-32.715,-9.277,-15.137
1678024542.817,-63.477,-30.273,-34.180,-74.219,-134.766
1678024542.821,-72.266,-30.762,-32.227,-87.402,-132.812
1678024542.825,-85.449,-30.762,-30.273,-31.250,-74.219
1678024542.829,-84.961,-33.203,-26.855,18.066,-42.480
1678024542.833,-67.383,-28.320,-21.484,13.184,21.484
1678024542.836,-57.129,-22.949,-19.043,-38.574,-83.496
1678024542.840,-68.359,-30.273,-22.949,-74.219,44.922
1678024542.844,-88.379,-36.621,-23.926,-42.969,112.793
1678024542.848,-88.867,-29.785,-19.531,7.324,-125.977
1678024542.852,-67.871,-21.973,-20.508,12.695,-24.902
1678024542.852,-54.199,-21.484,-23.926,-38.086,-9.277
1678024542.856,-62.988,-26.367,-25.879,-79.590,-222.656
1678024542.860,-85.938,-34.180,-23.926,-52.246,-253.906
1678024542.864,-86.914,-32.715,-22.461,5.371,-127.441
1678024542.868,-70.801,-28.320,-26.367,13.184,-53.223
1678024542.872,-62.012,-29.785,-23.926,-46.387,-55.664
1678024542.876,-59.570,-25.879,-20.996,-84.473,-60.547
1678024542.879,-67.383,-23.926,-22.461,-53.223,-15.137
1678024542.883,-78.125,-29.785,-27.344,1.465,249.512
1678024542.887,-69.824,-28.809,-30.762,17.578,148.438
1678024542.891,-53.711,-22.949,-30.273,-28.320,-181.152
1678024542.895,-58.594,-23.926,-32.715,-79.590,-214.844
1678024542.900,-69.336,-24.902,-36.133,-68.359,-204.102
1678024542.904,-73.242,-22.949,-30.762,-4.883,-141.113
1678024542.908,-70.312,-21.973,-24.414,21.484,-138.184
1678024542.912,-56.152,-18.555,-25.391,-19.531,-88.867
1678024542.916,-43.945,-15.137,-24.902,-65.430,-85.938
1678024542.920,-57.617,-17.578,-23.438,-53.223,-123.047
1678024542.924,-87.891,-20.996,-24.902,0.000,-49.316
1678024542.927,-86.914,-20.020,-29.297,22.461,199.219
1678024542.931,-62.988,-17.578,-30.273,-23.926,183.105
1678024542.935,-54.199,-18.555,-24.902,-83.496,-151.367
1678024542.939,-70.801,-24.902,-23.438,-75.195,-125.488
1678024542.943,-86.914,-26.367,-24.902,-13.672,-73.242
1678024542.942,-85.449,-27.832,-31.250,17.578,-87.402
1678024542.946,-69.824,-27.344,-35.156,-28.320,-131.836
1678024542.950,-54.688,-25.879,-33.203,-92.773,-195.312
1678024542.954,-58.105,-24.414,-33.203,-96.191,-58.105
1678024542.958,-76.660,-25.391,-32.227,-46.875,34.180
1678024542.962,-80.566,-28.809,-32.227,-12.695,7.324
1678024542.966,-62.012,-23.926,-25.391,-23.926,118.164
1678024542.969,-53.711,-10.742,-19.043,-70.801,354.004
1678024542.973,-72.754,-18.066,-25.879,-90.820,196.289
1678024542.977,-93.262,-24.902,-26.367,-54.688,-163.086
1678024542.981,-92.773,-12.207,-25.391,-22.949,-71.777
1678024542.985,-78.125,-8.301,-17.578,-43.945,-74.707
1678024542.989,-82.520,-7.812,-14.160,-113.770,-211.426
1678024542.993,-119.141,-7.812,-17.578,-149.414,-210.449
1678024542.997,-142.578,3.906,-7.324,-106.445,-127.441
1678024543.001,-155.273,15.625,3.418,-66.406,-40.527
1678024543.005,-175.781,6.836,3.906,-105.469,-36.621
1678024543.009,-176.270,6.348,7.324,-180.176,-101.074
1678024543.013,-190.430,17.578,8.789,-213.379,200.684
1678024543.016,-239.746,23.438,16.113,-204.102,317.871
1678024543.020,-257.812,22.461,27.832,-175.293,-27.832
1678024543.024,-254.883,24.414,27.344,-193.848,-80.078
1678024543.028,-270.996,28.809,28.809,-266.113,-21.973
1678024543.032,-292.480,31.738,36.133,-305.176,-107.910
1678024543.032,-317.383,18.066,42.480,-289.551,-268.555
1678024543.036,-318.848,14.160,40.527,-236.816,-127.441
1678024543.040,-297.852,26.855,34.668,-217.773,-8.301
1678024543.044,-292.969,26.367,41.504,-273.926,-99.121
1678024543.048,-292.480,21.973,40.039,-311.523,-114.258
1678024543.052,-288.574,17.578,26.367,-280.273,73.730
1678024543.056,-287.598,15.137,25.391,-213.867,370.117
1678024543.059,-273.926,10.254,32.715,-184.082,229.004
1678024543.063,-251.953,4.395,29.785,-233.398,-41.016
1678024543.067,-244.141,0.488,17.090,-291.016,38.086
1678024543.071,-249.023,-3.906,21.484,-270.996,112.305
1678024543.075,-245.117,-7.324,25.391,-204.590,-124.512
1678024543.092,-223.145,-5.859,19.531,-174.805,-178.223
1678024543.096,-205.566,-3.906,16.113,-207.031,-64.453
1678024543.100,-194.336,-6.836,11.719,-239.258,-99.609
1678024543.104,-179.199,-8.301,8.789,-210.449,-176.270
1678024543.108,-165.039,-13.672,7.812,-142.090,-79.102
1678024543.112,-150.391,-22.461,0.488,-106.934,1.953
1678024543.116,-119.141,-24.414,-5.371,-127.441,25.879
1678024543.119,-90.820,-27.832,-1.465,-153.809,-39.551
1678024543.123,-96.191,-36.133,-3.906,-141.602,-158.691
1678024543.127,-100.098,-42.480,-16.113,-74.707,50.781
1678024543.131,-78.125,-46.387,-23.438,-20.508,140.137
1678024543.135,-47.852,-44.434,-28.320,-42.969,-46.387
1678024543.137,-39.551,-48.340,-29.785,-94.727,-130.371
1678024543.141,-49.805,-51.758,-30.762,-96.191,-21.973
1678024543.145,-55.176,-47.363,-30.762,-45.898,0.977
1678024543.149,-43.457,-48.340,-33.691,8.301,-102.539
1678024543.153,-19.531,-57.129,-37.598,9.277,53.223
1678024543.157,-12.207,-59.082,-46.387,-51.270,176.270
1678024543.161,-13.184,-58.594,-48.340,-68.359,-43.945
1678024543.164,-19.531,-60.547,-47.363,-18.555,-132.812
1678024543.168,-11.230,-62.012,-49.316,49.805,44.922
1678024543.172,9.277,-61.035,-53.223,45.410,264.648
1678024543.176,24.414,-59.082,-52.734,-20.996,-46.387
1678024543.180,35.645,-57.129,-46.387,-35.156,-259.766
1678024543.184,23.438,-60.547,-49.316,9.277,-146.484
1678024543.188,21.484,-62.500,-55.664,60.547,-19.043
1678024543.192,47.363,-59.570,-56.152,65.918,-26.367
1678024543.196,68.359,-56.152,-56.641,12.207,-108.398
1678024543.200,61.523,-56.641,-60.547,-27.832,-62.500
1678024543.204,38.574,-56.641,-62.012,9.277,-67.871
1678024543.208,39.062,-54.199,-63.965,67.871,-112.793
1678024543.211,62.012,-53.223,-64.453,74.707,-140.137
1678024543.215,71.777,-57.129,-62.988,30.762,23.438
1678024543.219,67.383,-59.082,-60.059,-6.348,-21.484
1678024543.223,58.594,-52.734,-57.617,22.949,-238.281
1678024543.227,59.082,-51.758,-58.105,90.820,-105.469
1678024543.227,74.219,-46.387,-53.711,111.816,-71.289
1678024543.231,88.867,-42.480,-52.246,55.176,-106.934
1678024543.235,87.402,-40.039,-56.152,12.207,-208.008
1678024543.239,72.266,-39.551,-55.176,37.598,-58.105
1678024543.243,61.035,-40.527,-55.176,83.984,180.176
1678024543.247,71.777,-35.156,-52.246,98.145,53.223
1678024543.251,92.285,-35.645,-49.316,51.758,-63.965
1678024543.254,94.727,-32.715,-54.199,11.230,-89.355
1678024543.258,81.543,-30.273,-56.641,39.551,188.965
1678024543.262,76.172,-32.227,-52.246,92.773,115.234
1678024543.266,84.473,-30.762,-48.340,114.746,-152.344
1678024543.270,89.844,-34.668,-49.805,73.730,-108.887
1678024543.274,89.355,-33.691,-42.480,19.531,-139.160
1678024543.278,72.266,-35.156,-39.551,29.297,-193.359
1678024543.282,56.152,-39.062,-41.504,91.309,-170.410
1678024543.286,61.035,-38.574,-39.062,115.234,-54.688
1678024543.290,68.359,-42.969,-39.551,68.848,23.926
1678024543.294,66.895,-45.898,-40.527,9.277,-22.949
1678024543.298,53.223,-46.387,-35.645,6.836,-69.824
1678024543.301,38.574,-44.434,-37.598,64.453,151.855
1678024543.305,38.574,-42.969,-41.992,102.051,221.680
1678024543.309,53.711,-43.457,-41.992,73.730,-80.566
1678024543.313,62.988,-44.922,-35.156,25.391,-119.629
1678024543.317,50.781,-41.016,-31.250,12.695,-113.281
1678024543.317,32.227,-41.992,-41.016,46.387,-123.047
1678024543.321,32.715,-40.527,-46.387,84.473,-66.406
1678024543.325,50.781,-37.598,-44.922,71.289,-63.965
1678024543.329,55.176,-40.039,-46.387,15.137,-131.348
1678024543.333,41.504,-39.551,-45.410,-3.418,-87.402
1678024543.337,30.273,-36.621,-43.457,41.016,-20.508
1678024543.341,38.086,-34.668,-45.898,83.984,41.992
1678024543.344,52.246,-33.203,-45.410,70.801,401.367
1678024543.348,54.688,-37.109,-47.852,8.789,304.688
1678024543.352,44.434,-35.645,-46.875,-22.461,-136.719
1678024543.356,26.855,-29.297,-43.457,15.625,-101.074
1678024543.360,20.996,-30.762,-41.016,71.777,35.156
1678024543.364,29.297,-35.645,-37.598,72.266,-63.965
1678024543.368,41.992,-37.598,-31.738,19.531,-108.887
1678024543.372,40.039,-36.133,-32.715,-21.973,-112.305
1678024543.376,28.809,-31.738,-31.250,6.348,-114.258
1678024543.380,16.602,-34.180,-30.273,67.383,-67.383
1678024543.384,21.973,-37.109,-30.762,65.430,-12.695
1678024543.388,41.016,-33.691,-22.461,13.672,203.125
1678024543.391,31.738,-32.715,-22.949,-19.531,129.395
1678024543.395,6.836,-32.715,-25.879,1.953,-223.633
1678024543.399,7.324,-30.762,-25.879,60.547,-189.941
1678024543.403,23.926,-31.250,-25.879,80.078,-13.672
1678024543.407,28.809,-30.273,-24.414,25.391,-74.219
1678024543.407,23.438,-29.785,-26.855,-24.414,-160.156
1678024543.411,10.254,-30.762,-28.320,-4.883,-93.750
1678024543.415,0.977,-26.855,-25.391,50.781,-15.625
1678024543.419,17.578,-22.949,-24.414,65.430,-25.391
1678024543.423,35.156,-22.461,-23.926,14.648,-71.289
1678024543.427,35.645,-19.531,-22.949,-25.879,-0.977
1678024543.431,21.484,-19.043,-19.531,8.301,329.102
1678024543.434,11.719,-21.484,-20.020,62.012,197.754
1678024543.438,21.484,-22.949,-26.855,78.125,-93.262
1678024543.442,33.691,-28.320,-26.367,40.039,58.105
1678024543.446,25.391,-32.715,-21.484,-27.832,-22.949
1678024543.450,2.441,-37.598,-22.949,-35.156,-216.797
1678024543.455,6.348,-35.645,-22.949,37.598,-175.781
1678024543.459,9.277,-28.809,-26.367,70.801,-12.207
1678024543.463,-5.859,-30.762,-30.273,20.996,-8.789
1678024543.467,-2.930,-33.691,-30.273,-38.086,-114.258
1678024543.471,-16.113,-32.715,-40.527,-58.105,-150.879
1678024543.475,-38.086,-31.250,-41.504,-12.695,-22.949
1678024543.479,-35.156,-32.227,-35.156,34.668,85.449
1678024543.482,-24.414,-28.809,-35.156,6.836,-86.426
1678024543.486,-18.555,-28.320,-38.086,-61.035,-237.793
1678024543.490,-19.531,-28.320,-37.598,-67.871,-60.059
1678024543.494,-26.367,-26.367,-37.109,-18.066,-3.418
1678024543.498,-23.438,-28.320,-37.109,25.879,-162.109
1678024543.513,-11.719,-27.344,-38.574,17.090,-79.102
1678024543.517,-13.184,-27.344,-46.875,-48.828,-43.457
1678024543.521,-18.066,-27.832,-46.875,-76.172,-80.566
1678024543.525,-19.043,-23.926,-37.109,-17.578,-61.035
1678024543.529,-12.695,-23.926,-32.715,44.434,58.594
1678024543.533,3.906,-24.414,-30.273,44.922,436.035
1678024543.537,17.578,-20.996,-27.344,-10.254,249.023
1678024543.540,13.672,-20.508,-29.297,-56.152,-222.656
1678024543.544,-4.395,-22.461,-29.297,-28.809,-29.297
1678024543.548,-11.719,-22.949,-30.762,27.344,175.781
1678024543.552,0.488,-26.855,-31.250,27.832,-28.320
1678024543.556,5.859,-25.879,-31.738,-27.832,-116.699
1678024543.559,-11.719,-27.344,-33.203,-63.477,-105.469
1678024543.563,-27.832,-35.156,-29.785,-39.551,-152.344
1678024543.567,-26.855,-34.180,-26.855,15.137,-113.770
1678024543.571,-9.277,-32.227,-25.879,23.438,-48.340
1678024543.575,1.465,-33.203,-22.949,-26.855,-48.828
1678024543.579,-7.812,-36.133,-21.973,-66.406,28.809
1678024543.583,-25.879,-39.551,-24.414,-47.852,-17.090
1678024543.586,-32.227,-40.039,-26.367,8.789,-53.711
1678024543.590,-22.949,-42.969,-21.484,33.691,181.152
1678024543.594,-14.648,-44.922,-20.508,-12.207,246.582
1678024543.598,-11.719,-41.504,-22.949,-70.801,-90.820
1678024543.602,-19.043,-39.062,-20.508,-53.711,-124.023
1678024543.602,-34.668,-40.527,-20.020,3.418,-20.996
1678024543.606,-28.809,-42.480,-20.020,22.949,-108.887
1678024543.610,-15.625,-38.086,-22.461,-20.508,-154.785
1678024543.614,-19.043,-35.156,-24.902,-73.730,-144.043
1678024543.618,-28.809,-34.668,-21.484,-58.105,-90.332
1678024543.622,-34.668,-32.715,-20.996,-5.371,28.320
1678024543.626,-24.902,-29.785,-20.996,17.090,-0.977
1678024543.629,-16.113,-26.855,-22.949,-15.137,36.621
1678024543.633,-15.137,-20.996,-26.367,-55.176,246.094
1678024543.637,-22.461,-23.926,-27.344,-51.758,140.137
1678024543.641,-31.250,-28.320,-31.250,-12.207,-97.656
1678024543.645,-25.391,-25.391,-31.250,19.043,-117.676
1678024543.649,-15.625,-29.785,-34.668,-14.648,-137.207
1678024543.653,-20.020,-29.297,-37.109,-75.684,-185.547
1678024543.657,-30.273,-22.461,-31.738,-80.078,-248.047
1678024543.661,-37.109,-25.391,-30.762,-27.832,-85.449
1678024543.665,-26.367,-23.438,-33.203,13.184,37.109
1678024543.669,-14.160,-20.508,-34.180,-6.836,-9.277
1678024543.673,-13.672,-22.461,-35.645,-68.359,-40.039
1678024543.676,-16.602,-20.996,-37.109,-91.309,128.418
1678024543.680,-39.551,-23.438,-37.109,-48.340,175.781
1678024543.684,-37.598,-21.484,-35.156,-0.977,-15.137
1678024543.688,-25.391,-15.625,-33.203,-6.348,-12.695
1678024543.692,-27.344,-18.066,-34.180,-61.523,-55.664
1678024543.692,-23.926,-18.555,-28.809,-87.402,-172.852
1678024543.696,-38.086,-20.508,-26.367,-45.410,-205.566
1678024543.700,-46.875,-24.902,-29.297,9.766,0.000
1678024543.704,-30.273,-24.902,-30.762,7.812,17.090
1678024543.708,-23.926,-25.879,-39.062,-57.129,-102.051
1678024543.712,-38.086,-33.203,-43.945,-93.750,-143.555
1678024543.716,-48.828,-36.133,-39.062,-51.758,-41.504
1678024543.719,-51.758,-34.180,-35.156,2.930,355.957
1678024543.723,-46.387,-38.086,-37.109,0.488,284.668
1678024543.727,-30.273,-38.086,-37.109,-60.059,-96.191
1678024543.731,-31.250,-36.133,-36.133,-98.145,-141.113
1678024543.735,-44.922,-36.621,-41.992,-64.941,-75.195
1678024543.741,-41.504,-32.715,-37.109,-7.324,-75.195
1678024543.745,-26.855,-29.785,-34.180,5.371,-114.258
1678024543.749,-17.578,-32.227,-34.180,-39.062,-30.273
1678024543.753,-19.531,-34.668,-32.715,-75.195,-79.102
1678024543.757,-34.668,-36.133,-37.598,-58.594,-151.855
1678024543.761,-43.945,-33.203,-38.574,-8.301,-97.168
1678024543.765,-41.016,-32.227,-32.227,18.066,97.656
1678024543.768,-29.785,-33.203,-26.367,-32.227,105.957
1678024543.772,-29.785,-33.691,-27.832,-98.145,-237.305
1678024543.776,-44.922,-31.738,-29.785,-78.125,-253.906
1678024543.780,-57.129,-27.344,-31.738,-15.137,-138.184
1678024543.784,-52.734,-29.785,-28.809,1.953,-111.328
1678024543.783,-42.969,-30.273,-26.367,-40.527,-128.418
1678024543.787,-43.945,-35.156,-33.203,-100.586,-145.508
1678024543.791,-56.152,-31.250,-32.715,-96.680,-119.141
1678024543.795,-70.312,-24.902,-27.832,-38.086,-84.961
1678024543.799,-69.336,-24.902,-27.344,-9.277,31.738
1678024543.803,-59.570,-23.438,-21.973,-37.598,82.520
1678024543.807,-55.176,-27.344,-20.020,-88.379,288.574
1678024543.810,-62.988,-27.832,-23.926,-88.867,282.227
1678024543.814,-69.824,-23.926,-26.855,-36.621,-82.520
1678024543.818,-65.430,-25.879,-30.762,-0.977,-137.695
1678024543.822,-51.270,-26.367,-31.738,-31.738,-46.875
1678024543.826,-51.758,-27.832,-32.227,-97.656,-132.324
1678024543.842,-63.477,-39.062,-30.762,-105.469,-202.637
1678024543.846,-61.035,-33.203,-28.809,-38.086,-115.234
1678024543.850,-65.430,-22.461,-42.480,-8.789,-102.051
1678024543.854,-48.828,-24.902,-42.480,-26.855,-117.676
1678024543.858,-31.250,-28.320,-37.109,-74.707,-102.539
1678024543.862,-46.875,-28.320,-43.457,-101.074,33.691
1678024543.866,-54.199,-23.926,-44.434,-48.828,90.332
1678024543.869,-45.898,-24.414,-42.480,9.766,38.574
1678024543.873,-24.902,-21.484,-37.598,-0.977,-59.082
1678024543.877,-18.066,-16.113,-27.344,-57.617,6.348
1678024543.881,-26.367,-19.043,-30.273,-83.496,15.137
1678024543.885,-35.156,-22.461,-32.715,-48.340,-105.957
1678024543.887,-40.039,-23.438,-27.832,3.418,-53.711
1678024543.891,-26.855,-25.391,-26.855,2.441,-1.465
1678024543.895,-21.973,-30.273,-29.297,-56.641,-62.012
1678024543.899,-36.133,-32.715,-34.180,-94.727,-133.789
1678024543.903,-50.781,-32.227,-33.691,-54.199,28.320
1678024543.907,-44.434,-27.344,-29.297,10.742,232.910
1678024543.911,-28.809,-23.438,-29.297,14.648,105.957
1678024543.914,-23.438,-25.391,-28.320,-41.992,-71.289
1678024543.918,-30.762,-29.297,-29.297,-84.961,3.906
1678024543.922,-49.316,-29.785,-31.250,-64.941,242.188
1678024543.926,-60.547,-31.250,-36.621,-14.648,94.238
1678024543.930,-48.828,-36.133,-40.039,-5.371,-129.883
1678024543.934,-31.250,-35.156,-39.062,-59.082,-123.047
1678024543.938,-36.133,-36.133,-39.551,-103.027,-159.668
1678024543.942,-65.430,-37.598,-36.621,-74.707,-217.773
1678024543.946,-79.590,-36.133,-31.738,-9.277,-166.016
1678024543.950,-65.430,-33.691,-31.738,15.137,-56.641
1678024543.954,-48.340,-29.297,-34.668,-36.621,-31.738
1678024543.958,-47.852,-26.367,-28.809,-83.496,-100.586
1678024543.961,-56.152,-29.297,-27.832,-68.848,-216.309
1678024543.965,-53.711,-27.344,-28.320,-0.488,91.309
1678024543.969,-38.574,-26.367,-27.832,34.668,288.086
1678024543.973,-22.461,-29.297,-32.715,-20.996,-67.383
1678024543.977,-14.160,-25.879,-35.156,-77.148,-155.762
1678024543.977,-25.879,-28.809,-34.668,-67.383,-54.199
1678024543.981,-34.668,-29.297,-30.762,-18.555,-19.531
1678024543.985,-20.996,-24.414,-24.414,18.555,-39.062
1678024543.989,-14.648,-25.879,-20.508,-14.648,-84.961
1678024543.993,-19.043,-27.344,-19.043,-78.613,-55.176
1678024543.997,-27.344,-19.531,-21.973,-75.684,-90.820
1678024544.001,-34.180,-8.789,-17.090,-17.090,-71.777
1678024544.004,-31.250,-15.137,-11.719,16.602,88.379
1678024544.008,-25.879,-14.160,-20.508,-13.672,313.965
1678024544.012,-35.645,-3.418,-24.902,-81.543,125.977
1678024544.016,-57.617,-16.113,-22.461,-109.375,-263.184
1678024544.020,-77.148,-9.766,-15.137,-68.848,-161.133
1678024544.024,-92.285,8.301,-4.395,-44.434,-62.012
1678024544.028,-99.121,2.930,-10.742,-83.008,-193.848
1678024544.032,-115.234,-1.953,-8.301,-144.531,-213.867
1678024544.036,-157.715,8.789,7.812,-195.312,-180.664
1678024544.040,-219.238,18.066,15.137,-214.844,-176.758
1678024544.044,-252.930,15.137,21.484,-196.289,-58.594
1678024544.048,-255.859,15.137,31.250,-223.145,-60.059
1678024544.051,-258.301,22.461,42.969,-290.039,78.125
1678024544.055,-290.527,20.996,54.688,-337.891,118.652
1678024544.059,-329.102,13.184,52.734,-313.965,-151.367
1678024544.063,-326.172,9.766,59.570,-248.047,-104.980
1678024544.067,-308.105,7.324,62.988,-249.023,-83.984
1678024544.068,-300.781,5.859,62.012,-312.988,-150.879
1678024544.072,-308.594,-3.906,60.059,-349.609,-140.625
1678024544.076,-317.383,-7.812,54.199,-306.152,-67.871
1678024544.080,-311.523,-12.695,53.711,-229.980,20.020
1678024544.084,-294.434,-20.508,58.594,-210.449,1.465
1678024544.088,-271.484,-20.508,57.617,-266.602,-27.832
1678024544.092,-270.020,-28.320,55.176,-300.293,77.637
1678024544.095,-285.645,-32.227,58.594,-251.953,354.004
1678024544.099,-295.898,-35.645,50.293,-192.383,208.496
1678024544.103,-282.227,-40.527,42.969,-183.105,-113.281
1678024544.107,-251.953,-44.922,41.016,-218.262,-61.523
1678024544.111,-238.281,-50.781,41.504,-246.582,-71.289
1678024544.114,-247.070,-53.711,39.062,-220.215,-139.160
1678024544.118,-250.488,-47.852,36.621,-160.156,-139.160
1678024544.122,-237.305,-46.875,37.109,-138.184,-33.203
1678024544.126,-215.332,-47.363,35.156,-174.805,-36.133
1678024544.130,-201.660,-53.711,29.297,-216.309,-123.047
1678024544.134,-198.730,-52.246,29.785,-201.172,-55.664
1678024544.138,-203.125,-47.852,23.926,-135.742,181.152
1678024544.141,-182.129,-54.199,20.996,-91.309,320.312
1678024544.145,-163.086,-49.805,20.020,-132.324,25.391
1678024544.149,-174.316,-45.410,17.090,-197.266,-177.246
1678024544.153,-179.199,-55.664,16.113,-184.570,-209.473
1678024544.157,-162.109,-57.617,4.883,-113.770,-188.965
1678024544.157,-151.855,-54.688,0.977,-74.707,-162.598
1678024544.161,-148.438,-58.105,3.906,-109.375,-137.207
1678024544.165,-125.977,-59.082,-0.977,-157.227,-105.469
1678024544.169,-113.770,-68.848,-7.324,-144.531,-169.922
1678024544.173,-122.559,-72.754,-5.371,-80.566,-167.480
1678024544.177,-114.258,-68.848,-5.371,-30.273,14.648
1678024544.181,-75.195,-71.777,-12.207,-39.062,318.848
1678024544.184,-56.641,-76.660,-20.020,-93.750,155.762
1678024544.188,-75.195,-81.055,-27.344,-110.352,-206.543
1678024544.192,-74.219,-76.660,-33.691,-36.133,-68.359
1678024544.196,-56.641,-72.754,-36.621,22.949,125.000
1678024544.200,-38.086,-75.684,-38.574,4.395,-52.246
1678024544.217,-22.461,-73.730,-47.852,-53.711,-172.363
1678024544.221,-17.090,-71.289,-51.270,-63.477,-163.086
1678024544.225,-23.926,-69.824,-50.781,-4.883,-104.492
1678024544.229,-16.113,-67.383,-52.734,56.641,-62.500
1678024544.233,17.090,-66.406,-51.758,63.477,-24.414
1678024544.237,31.250,-63.965,-55.664,4.395,88.379
1678024544.241,20.020,-62.500,-60.059,-29.297,80.566
1678024544.244,14.160,-61.523,-59.570,20.020,-56.641
1678024544.248,25.879,-61.035,-56.641,87.891,-104.980
1678024544.252,42.480,-60.547,-57.129,97.656,177.734
1678024544.256,57.129,-57.617,-58.594,43.457,196.289
1678024544.260,50.293,-56.152,-60.547,0.977,-191.895
1678024544.262,37.598,-60.547,-61.035,42.969,-173.340
1678024544.266,31.738,-60.547,-63.965,98.145,-53.223
1678024544.270,47.363,-57.129,-65.918,104.980,-69.336
1678024544.274,81.055,-51.758,-67.383,54.199,-129.395
1678024544.278,83.496,-48.828,-68.359,12.207,-36.133
1678024544.282,60.547,-50.781,-65.918,48.340,79.102
1678024544.286,54.688,-54.199,-69.336,102.539,73.242
1678024544.289,73.242,-55.176,-69.824,119.629,59.082
1678024544.293,95.703,-46.875,-61.035,74.219,41.016
1678024544.297,98.145,-42.480,-60.059,26.367,132.812
1678024544.301,89.355,-43.457,-67.383,37.109,-13.672
1678024544.305,77.637,-41.016,-67.871,91.797,-43.457
1678024544.309,77.637,-39.062,-65.430,130.371,92.285
1678024544.313,95.703,-41.016,-66.406,83.008,52.734
1678024544.317,92.773,-43.945,-71.289,4.395,-134.766
1678024544.321,71.289,-43.457,-70.312,12.695,-141.602
1678024544.325,57.129,-44.922,-68.848,75.195,-41.504
1678024544.329,57.129,-48.340,-69.336,98.633,0.488
1678024544.333,74.707,-51.270,-65.918,65.918,-18.066
1678024544.336,77.637,-52.734,-62.012,10.742,-190.918
1678024544.340,59.570,-55.664,-60.059,5.859,-14.160
1678024544.344,46.875,-58.594,-60.547,64.453,135.742
1678024544.348,44.922,-58.594,-61.523,98.145,-71.289
1678024544.352,55.664,-56.152,-62.988,61.523,-124.023
1678024544.353,59.082,-53.711,-65.430,-1.465,-131.348
1678024544.357,38.574,-55.664,-65.918,-15.625,-80.078
1678024544.361,20.508,-54.688,-63.965,42.480,-85.449
1678024544.365,25.879,-50.781,-66.895,90.820,-32.227
1678024544.369,46.387,-47.363,-65.430,68.848,119.141
1678024544.373,53.223,-43.945,-63.965,5.859,-2.930
1678024544.377,35.645,-47.363,-64.941,-18.066,-91.797
1678024544.380,20.508,-52.734,-62.500,27.344,18.555
1678024544.384,20.020,-51.270,-62.012,83.984,278.320
1678024544.388,36.133,-43.945,-65.918,64.453,165.039
1678024544.392,46.387,-42.480,-66.406,-6.836,-165.039
1678024544.396,30.273,-45.410,-59.082,-33.203,-163.574
1678024544.399,10.742,-44.922,-54.199,16.113,-114.746
1678024544.403,8.789,-42.969,-47.852,71.289,-122.559
1678024544.407,20.020,-41.016,-42.480,51.758,-146.484
1678024544.411,29.785,-38.086,-44.434,-3.906,-104.004
1678024544.415,25.879,-34.180,-46.387,-29.785,-132.812
1678024544.419,7.812,-34.668,-48.340,7.324,-155.273
1678024544.423,-0.977,-36.621,-48.340,62.988,-68.848
1678024544.426,4.883,-37.109,-44.434,56.641,186.523
1678024544.430,10.742,-37.598,-45.898,-5.859,248.047
1678024544.434,6.836,-36.133,-49.316,-49.805,-35.645
1678024544.438,-14.160,-37.598,-47.852,-20.996,-124.512
1678024544.442,-26.855,-38.574,-51.758,37.109,-98.145
1678024544.442,-16.602,-33.203,-53.711,42.969,-72.266
1678024544.446,2.441,-30.273,-51.758,-9.277,-80.566
1678024544.450,-3.418,-34.180,-52.246,-55.176,-117.188
1678024544.454,-20.996,-35.156,-52.246,-31.250,-127.930
1678024544.458,-26.855,-39.551,-49.805,21.973,-55.176
1678024544.462,-23.926,-40.527,-44.922,30.762,-42.969
1678024544.466,-10.254,-35.156,-43.945,-20.508,3.906
1678024544.469,-15.625,-32.715,-43.945,-71.289,262.695
1678024544.473,-34.180,-32.715,-44.434,-53.711,143.066
1678024544.477,-40.039,-32.227,-45.898,1.953,-142.578
1678024544.481,-32.227,-32.715,-46.387,30.762,-107.422
1678024544.485,-21.484,-33.691,-48.340,-19.531,-86.914
1678024544.489,-21.484,-35.645,-51.270,-88.867,-216.309
1678024544.493,-29.785,-40.039,-50.781,-80.566,-177.246
1678024544.497,-39.551,-40.039,-45.410,-17.578,29.297
1678024544.501,-40.039,-41.992,-47.363,14.648,7.812
1678024544.505,-24.902,-42.969,-46.875,-22.461,-113.281
1678024544.509,-19.531,-37.598,-40.527,-75.195,-150.391
1678024544.513,-35.645,-36.621,-43.457,-67.383,103.516
1678024544.516,-45.410,-41.504,-50.781,-9.277,160.156
1678024544.520,-29.297,-38.086,-46.875,34.668,-70.312
1678024544.524,-12.695,-28.809,-40.527,2.930,-60.547
1678024544.528,-13.672,-35.156,-42.480,-66.406,-24.414
1678024544.532,-21.484,-40.039,-41.016,-70.312,-160.645
1678024544.532,-22.949,-35.156,-41.992,-7.812,-240.723
1678024544.536,-20.996,-31.738,-43.945,29.785,-120.605
1678024544.540,-11.719,-31.250,-37.109,-0.488,-14.648
1678024544.544,9.277,-30.273,-33.203,-57.617,-136.230
1678024544.548,-5.859,-28.320,-32.227,-67.383,-187.500
1678024544.552,-37.598,-33.691,-33.691,-9.766,44.922
1678024544.556,-37.109,-36.621,-36.621,40.527,305.664
1678024544.559,-21.484,-37.109,-35.156,18.555,187.500
1678024544.563,-5.371,-35.645,-35.645,-46.387,-124.512
1678024544.567,-12.207,-35.645,-35.645,-65.430,-101.562
1678024544.571,-30.273,-41.504,-33.691,-21.484,22.461
1678024544.575,-29.297,-38.086,-33.691,27.832,-23.926
1678024544.580,-10.742,-31.738,-34.180,18.066,-82.520
1678024544.584,-7.812,-34.180,-33.203,-32.227,5.371
1678024544.588,-24.414,-31.738,-38.086,-63.965,13.184
1678024544.592,-38.086,-30.762,-36.621,-37.598,-101.562
1678024544.596,-44.434,-35.645,-31.738,13.672,-125.000
1678024544.600,-33.203,-36.621,-34.668,13.184,32.227
1678024544.604,-25.391,-37.109,-32.227,-40.527,54.688
1678024544.607,-33.203,-38.574,-32.715,-86.914,-79.102
1678024544.611,-36.133,-36.133,-35.156,-53.711,-96.191
1678024544.615,-32.227,-33.691,-35.156,14.160,137.695
1678024544.619,-26.855,-34.180,-36.621,12.207,126.953
1678024544.623,-17.578,-35.645,-41.504,-59.082,-116.699
1678024544.637,-18.066,-33.691,-42.480,-104.004,-124.512
1678024544.641,-30.273,-29.297,-40.039,-75.684,-76.660
1678024544.645,-40.527,-30.273,-47.852,-16.113,-6.348
1678024544.649,-27.344,-26.855,-47.363,1.953,-49.805
1678024544.653,-14.648,-22.461,-37.109,-40.527,40.039
1678024544.657,-17.578,-24.414,-37.109,-82.031,356.934
1678024544.661,-29.297,-28.320,-46.387,-72.266,160.156
1678024544.664,-38.574,-32.227,-47.363,-18.066,-102.539
1678024544.668,-29.297,-35.645,-42.969,9.766,69.824
1678024544.672,-15.625,-30.273,-41.504,-28.320,170.898
1678024544.676,-11.719,-24.414,-40.527,-86.426,-118.164
1678024544.680,-20.996,-22.461,-33.203,-81.543,-217.773
1678024544.684,-32.715,-19.043,-35.156,-24.902,-111.328
1678024544.688,-36.133,-20.996,-39.062,8.789,-65.430
1678024544.692,-24.414,-17.090,-33.203,-17.578,-91.797
1678024544.696,-23.438,-18.066,-33.691,-88.379,-140.625
1678024544.700,-37.598,-20.508,-38.086,-94.727,-29.785
1678024544.704,-45.410,-14.648,-34.668,-20.508,112.305
1678024544.708,-33.691,-14.160,-32.227,29.785,-12.695
1678024544.711,-13.672,-19.531,-33.203,-0.488,-144.043
1678024544.715,-7.324,-16.602,-27.344,-54.199,14.160
1678024544.719,-20.508,-15.137,-31.250,-70.801,66.406
1678024544.723,-32.715,-16.602,-33.203,-36.133,-170.410
1678024544.727,-27.832,-14.160,-29.297,11.230,-122.559
1678024544.727,-16.602,-19.531,-34.668,-5.859,-33.203
1678024544.731,-11.719,-18.066,-34.668,-60.547,-98.633
1678024544.735,-18.066,-11.230,-31.250,-75.195,-158.691
1678024544.739,-27.832,-13.184,-31.738,-21.973,-55.176
1678024544.743,-28.809,-14.648,-31.250,32.227,81.543
1678024544.747,-22.949,-16.113,-35.156,19.531,45.898
1678024544.751,-15.137,-14.160,-37.109,-36.621,-13.184
1678024544.754,-21.973,-10.742,-37.109,-65.918,65.430
1678024544.758,-45.410,-17.090,-38.574,-21.973,329.102
1678024544.762,-50.781,-21.484,-35.156,36.133,315.918
1678024544.766,-37.109,-22.949,-39.551,20.508,-54.199
1678024544.770,-30.273,-22.949,-41.016,-38.574,-171.387
1678024544.774,-34.180,-18.555,-35.645,-75.684,-132.324
1678024544.778,-49.316,-17.578,-37.109,-50.781,-210.938
1678024544.782,-57.129,-20.996,-38.574,9.277,-157.227
1678024544.786,-34.668,-21.973,-36.621,16.602,-53.223
1678024544.790,-22.461,-25.391,-37.109,-41.504,-89.844
1678024544.794,-29.297,-27.832,-40.039,-80.078,-147.949
1678024544.798,-41.016,-30.762,-40.527,-44.434,-108.887
1678024544.801,-52.734,-33.203,-36.621,17.578,207.031
1678024544.805,-36.621,-29.297,-37.109,27.344,301.758
1678024544.809,-20.996,-30.762,-39.062,-22.461,-39.551
1678024544.813,-27.344,-36.621,-40.039,-72.754,-173.340
1678024544.817,-37.598,-34.668,-40.527,-64.453,-149.902
1678024544.817,-41.992,-30.273,-41.016,-9.277,-72.266
1678024544.821,-35.156,-31.250,-42.480,15.625,-93.262
1678024544.825,-25.879,-31.250,-41.504,-25.879,-97.168
1678024544.829,-33.691,-36.133,-42.480,-81.543,-84.961
1678024544.833,-46.387,-39.551,-41.016,-65.918,-149.414
1678024544.837,-56.152,-38.574,-38.086,-2.441,-117.188
1678024544.841,-56.152,-37.598,-38.086,23.926,79.590
1678024544.844,-45.410,-38.086,-38.086,-16.113,414.551
1678024544.848,-48.828,-36.133,-37.598,-80.566,150.391
1678024544.852,-61.035,-42.480,-41.016,-80.566,-260.254
1678024544.856,-59.082,-39.062,-45.410,-16.113,52.734
1678024544.860,-43.457,-25.391,-46.387,15.625,119.141
1678024544.864,-33.203,-28.809,-43.945,-20.996,-170.410
1678024544.868,-40.039,-30.273,-45.410,-77.637,-159.668
1678024544.872,-51.758,-26.855,-48.340,-81.055,-153.320
1678024544.876,-60.547,-31.738,-53.223,-28.809,-147.461
1678024544.880,-59.570,-34.180,-54.199,13.184,-95.215
1678024544.884,-35.645,-31.250,-46.387,-11.230,-65.430
1678024544.888,-21.973,-27.344,-37.109,-68.359,177.734
1678024544.891,-32.715,-26.855,-38.086,-83.008,195.312
1678024544.895,-40.527,-28.320,-41.992,-41.016,-111.816
1678024544.899,-35.156,-31.250,-39.551,14.160,-157.715
1678024544.903,-25.391,-33.203,-38.574,1.465,-93.262
1678024544.907,-20.996,-30.273,-40.527,-60.547,-137.207
1678024544.908,-26.855,-32.715,-43.457,-85.938,-215.332
1678024544.912,-37.109,-36.621,-41.504,-34.668,-134.277
1678024544.916,-34.180,-30.762,-33.203,23.926,3.906
1678024544.920,-21.484,-31.250,-31.738,1.465,-64.941
1678024544.924,-21.484,-40.527,-35.645,-62.012,-161.621
1678024544.928,-28.809,-41.016,-34.668,-83.984,-75.195
1678024544.932,-41.504,-38.086,-31.738,-34.668,170.898
1678024544.935,-39.062,-39.062,-30.762,15.625,116.211
1678024544.939,-21.484,-38.574,-29.297,4.395,-117.676
1678024544.943,-12.207,-36.133,-30.273,-48.340,-84.473
1678024544.947,-15.137,-38.086,-30.762,-86.426,-12.207
1678024544.951,-34.668,-38.086,-37.598,-53.223,-145.508
1678024544.968,-40.039,-32.227,-41.016,18.066,-97.168
1678024544.972,-23.926,-27.832,-34.668,21.484,-2.441
1678024544.976,-15.625,-25.879,-32.715,-40.527,20.996
1678024544.980,-19.531,-22.949,-31.250,-73.730,-68.359
1678024544.984,-29.785,-21.973,-26.855,-48.340,-173.828
1678024544.988,-40.527,-28.809,-29.297,10.742,214.844
1678024544.992,-38.574,-34.180,-31.250,19.043,358.398
1678024544.995,-33.203,-37.109,-37.109,-47.363,-124.512
1678024544.999,-37.598,-34.668,-41.992,-98.633,-249.023
1678024545.003,-45.898,-30.762,-34.668,-77.148,-103.027
1678024545.007,-57.617,-32.227,-34.180,-18.066,-62.500
1678024545.011,-50.781,-36.133,-32.227,-0.977,-100.098
1678024545.012,-34.180,-37.598,-33.691,-43.457,-124.512
1678024545.016,-34.180,-32.715,-38.086,-96.191,-156.250
1678024545.020,-43.945,-31.738,-38.086,-89.844,-181.641
1678024545.024,-56.641,-39.062,-36.133,-25.391,-142.578
1678024545.028,-49.805,-38.574,-31.250,20.996,-1.953
1678024545.032,-34.668,-37.598,-35.645,-14.648,150.391
1678024545.036,-46.387,-39.551,-34.668,-89.355,-36.621
1678024545.039,-58.594,-32.715,-28.809,-87.891,-121.582
1678024545.043,-63.965,-28.809,-24.902,-30.273,46.387
1678024545.047,-61.523,-26.367,-20.020,8.789,344.727
1678024545.051,-50.293,-26.855,-17.090,-25.879,202.148
1678024545.055,-56.152,-33.691,-22.461,-109.375,-167.969
1678024545.059,-70.801,-30.273,-20.996,-119.629,-138.672
1678024545.063,-87.891,-19.531,-8.789,-69.824,-88.867
1678024545.067,-115.234,-22.461,-13.672,-50.781,-109.863
1678024545.071,-119.629,-22.949,-4.883,-89.355,-80.566
1678024545.075,-133.789,-20.508,4.883,-167.480,-116.211
1678024545.079,-169.434,-15.625,0.977,-207.031,-147.461
1678024545.083,-204.102,-4.395,4.883,-185.547,-29.785
1678024545.086,-217.773,-4.883,20.020,-163.086,-1.953
1678024545.090,-216.797,5.371,28.320,-190.918,176.270
1678024545.094,-238.281,4.883,27.344,-265.137,218.262
1678024545.098,-269.043,-3.906,20.508,-304.688,-175.293
1678024545.102,-298.340,-7.324,17.090,-280.273,-221.680
1678024545.102,-300.293,-7.812,22.949,-241.211,-83.008
1678024545.106,-286.133,4.395,19.043,-239.746,-116.211
1678024545.110,-277.832,13.184,14.648,-293.945,-198.242
1678024545.114,-274.414,11.719,14.648,-326.660,-112.793
1678024545.118,-266.602,20.508,11.719,-276.367,-58.594
1678024545.122,-267.578,20.996,10.254,-208.984,-87.402
1678024545.126,-267.090,13.184,7.324,-206.543,20.508
1678024545.129,-240.723,15.625,3.418,-243.652,89.844
1678024545.133,-232.910,19.043,-3.906,-273.926,229.492
1678024545.137,-236.328,19.043,-7.324,-250.000,145.996
1678024545.141,-234.863,16.113,-10.742,-191.406,-155.273
1678024545.145,-215.332,10.742,-19.531,-169.922,-43.945
1678024545.149,-190.430,14.648,-21.484,-210.938,-20.020
1678024545.153,-189.941,20.508,-22.949,-257.324,-192.383
1678024545.157,-197.266,15.137,-25.391,-221.680,-192.871
1678024545.161,-195.801,10.254,-22.949,-144.043,-107.910
1678024545.165,-179.688,3.418,-26.367,-124.023,-62.012
1678024545.169,-148.926,0.000,-36.133,-175.781,-40.039
1678024545.173,-139.648,-0.488,-43.945,-223.633,-107.910
1678024545.176,-147.461,-6.348,-43.457,-178.711,35.156
1678024545.180,-135.254,-11.230,-46.875,-106.445,142.578
1678024545.184,-106.934,-13.672,-52.246,-72.266,-61.035
1678024545.188,-88.379,-19.531,-54.199,-91.309,-116.699
1678024545.192,-80.566,-19.531,-56.641,-136.719,-159.180
1678024545.193,-78.125,-23.926,-58.594,-124.023,-162.598
1678024545.197,-77.637,-32.715,-61.523,-51.758,-142.090
1678024545.201,-58.594,-30.762,-70.801,-9.766,-50.293
1678024545.205,-23.926,-24.902,-75.684,-47.852,35.156
1678024545.209,-5.859,-31.250,-79.590,-91.309,-24.902
1678024545.213,-8.789,-27.832,-85.449,-81.543,-65.430
1678024545.217,-7.812,-21.484,-87.891,-23.926,9.766
1678024545.220,-1.465,-22.461,-90.820,29.785,347.168
1678024545.224,9.277,-30.762,-97.168,12.207,259.766
1678024545.228,23.926,-27.832,-101.562,-47.852,-111.328
1678024545.232,6.836,-27.832,-101.074,-61.035,-100.098
1678024545.236,1.465,-40.039,-94.727,11.230,-65.918
1678024545.240,14.648,-38.086,-87.402,65.430,-83.984
1678024545.244,20.508,-40.527,-85.449,27.832,-53.711
1678024545.248,31.250,-40.527,-80.566,-27.832,16.113
1678024545.252,34.668,-40.527,-80.566,-27.832,-53.223
1678024545.256,26.855,-51.270,-77.637,28.320,-108.398
1678024545.260,25.879,-54.688,-70.801,74.219,-17.090
1678024545.264,45.898,-49.316,-72.266,64.453,250.488
1678024545.267,57.129,-54.199,-73.730,4.395,233.887
1678024545.271,53.223,-60.059,-72.266,-31.250,-120.605
1678024545.275,45.898,-57.617,-67.871,7.812,-80.566
1678024545.279,43.945,-54.199,-64.941,68.359,-32.715
1678024545.283,56.152,-55.176,-69.336,68.359,-121.094
1678024545.282,67.871,-54.688,-72.754,9.277,-216.797
1678024545.286,58.594,-57.129,-73.730,-17.578,-199.219
1678024545.290,41.992,-59.082,-74.707,22.461,-100.586
1678024545.294,40.039,-52.734,-73.242,83.984,-54.688
1678024545.298,64.453,-51.758,-72.266,93.262,-6.836
1678024545.302,76.660,-54.199,-73.242,36.621,20.996
1678024545.306,59.570,-54.199,-76.172,0.977,200.195
1678024545.309,48.828,-57.129,-75.684,33.691,162.109
1678024545.313,55.176,-57.617,-75.195,98.145,-95.703
1678024545.317,70.312,-52.734,-71.777,113.770,-1.953
1678024545.321,82.520,-52.246,-64.453,55.664,125.488
1678024545.325,85.449,-52.246,-64.453,6.836,-114.746
1678024545.342,77.637,-49.316,-62.012,33.691,-213.867
1678024545.346,67.383,-49.805,-63.965,96.680,-132.812
1678024545.350,71.777,-50.293,-67.871,116.699,-152.832
1678024545.354,86.426,-47.852,-65.430,63.965,-225.586
1678024545.358,81.055,-48.340,-64.941,5.859,-246.582
1678024545.362,60.059,-45.898,-69.336,20.508,-81.543
1678024545.366,48.340,-41.504,-68.359,82.031,9.277
1678024545.369,49.805,-47.852,-68.359,105.957,22.461
1678024545.373,57.617,-54.199,-67.871,58.594,-58.594
1678024545.377,56.641,-52.734,-67.871,-6.836,35.156
1678024545.381,40.527,-52.246,-66.895,-4.395,137.207
1678024545.385,28.809,-52.734,-67.871,54.199,-140.625
1678024545.387,30.762,-51.270,-64.453,92.285,-129.883
1678024545.391,42.480,-53.711,-60.059,53.223,-48.828
1678024545.395,45.898,-51.270,-61.035,-9.766,-151.855
1678024545.399,26.855,-51.270,-62.012,-6.348,-211.426
1678024545.403,8.301,-52.246,-57.617,58.105,-38.086
1678024545.407,23.926,-49.805,-53.223,99.121,144.531
1678024545.411,40.527,-48.340,-47.852,70.801,34.668
1678024545.414,36.133,-52.246,-49.805,4.883,-125.000
1678024545.418,29.785,-53.223,-52.246,-6.836,-97.656
1678024545.422,24.902,-49.316,-44.922,49.316,278.320
1678024545.426,29.297,-46.387,-45.898,87.402,240.234
1678024545.430,39.551,-45.898,-44.434,61.523,-61.523
1678024545.434,42.969,-45.898,-43.457,-0.488,-73.242
1678024545.438,31.738,-42.969,-46.387,-23.926,-129.883
1678024545.442,11.230,-38.574,-47.852,19.043,-175.293
1678024545.446,14.648,-33.203,-43.457,70.801,-110.352
1678024545.450,29.297,-36.133,-41.016,61.035,-46.387
1678024545.454,28.320,-39.551,-46.875,-4.395,-21.484
1678024545.458,15.625,-37.109,-44.434,-40.527,-71.289
1678024545.461,1.953,-34.180,-37.598,4.883,-182.617
1678024545.465,4.395,-35.645,-37.109,75.684,54.688
1678024545.469,9.766,-40.527,-42.480,67.871,120.117
1678024545.473,21.973,-39.551,-43.457,-2.930,-173.340
1678024545.477,22.461,-41.016,-39.062,-49.805,-172.363
1678024545.477,-1.465,-46.387,-37.109,-23.926,-33.691
1678024545.481,-5.371,-42.969,-35.156,40.527,-34.668
1678024545.485,6.836,-39.062,-35.645,51.270,-64.941
1678024545.489,10.742,-35.645,-33.691,2.441,-15.137
1678024545.493,0.977,-37.598,-34.668,-51.270,-16.113
1678024545.497,-18.555,-40.527,-41.016,-45.898,-78.613
1678024545.501,-26.367,-43.457,-43.945,5.859,-62.500
1678024545.504,-8.301,-45.898,-37.109,26.855,42.480
1678024545.508,1.465,-42.969,-37.109,-7.324,285.645
1678024545.512,-2.441,-41.016,-41.992,-53.223,135.254
1678024545.516,-15.625,-44.434,-42.480,-38.086,-170.410
1678024545.520,-25.879,-49.316,-43.945,32.227,-50.293
1678024545.525,-17.578,-48.828,-40.527,44.922,9.277
1678024545.529,-12.207,-44.434,-38.086,-19.043,-106.445
1678024545.533,-14.648,-39.551,-39.551,-63.965,-183.105
1678024545.537,-19.043,-37.109,-36.621,-47.363,-55.664
1678024545.541,-17.578,-33.691,-33.691,14.648,-41.016
1678024545.545,-9.766,-33.691,-34.668,48.828,-55.664
1678024545.549,-5.371,-39.062,-35.645,2.441,-13.672
1678024545.552,-11.230,-43.457,-37.598,-61.035,83.496
1678024545.556,-24.414,-44.434,-42.480,-54.199,91.309
1678024545.560,-27.344,-43.457,-40.039,0.000,-138.672
1678024545.564,-22.949,-38.086,-39.062,32.227,-120.605
1678024545.568,-17.090,-39.062,-44.434,1.465,-141.602
1678024545.567,-8.789,-36.133,-41.016,-56.641,-203.613
1678024545.571,-15.137,-28.320,-33.691,-60.547,-200.195
1678024545.575,-30.762,-30.273,-33.203,-9.766,-108.887
1678024545.579,-28.809,-35.156,-35.156,29.785,34.180
1678024545.583,-14.160,-35.645,-31.250,6.836,10.742
1678024545.587,-20.020,-37.109,-31.738,-52.734,-96.680
1678024545.591,-35.156,-41.016,-35.645,-68.359,-8.789
1678024545.594,-47.852,-39.062,-31.738,-19.043,328.125
1678024545.598,-45.410,-35.645,-30.273,20.508,299.316
1678024545.602,-10.254,-29.297,-30.273,10.742,-71.777
1678024545.606,-7.324,-35.156,-22.949,-46.875,-151.367
1678024545.610,-51.758,-49.316,-24.902,-94.727,-160.156
1678024545.614,-71.289,-41.992,-36.133,-54.688,-182.617
1678024545.618,-69.824,-35.156,-34.668,-10.742,-89.355
1678024545.622,-62.012,-38.086,-27.344,-25.879,2.441
1678024545.626,-57.129,-40.039,-28.809,-81.543,-76.660
1678024545.630,-65.430,-38.086,-34.668,-115.234,-189.941
1678024545.634,-75.195,-38.574,-39.062,-80.566,-137.695
1678024545.638,-77.637,-39.551,-38.574,-25.879,169.434
1678024545.641,-67.383,-37.109,-42.480,-32.227,271.484
1678024545.645,-51.758,-42.969,-44.434,-86.426,-84.473
1678024545.649,-46.875,-45.898,-36.133,-105.957,-223.145
1678024545.653,-57.129,-45.410,-31.250,-67.871,-44.922
1678024545.657,-62.012,-48.828,-31.738,-13.672,-9.766
1678024545.657,-50.781,-52.246,-30.762,-7.812,-86.914
1678024545.661,-41.992,-56.152,-30.762,-64.941,-6.348
1678024545.665,-45.898,-59.570,-32.715,-106.934,-75.195
1678024545.669,-53.223,-55.664,-36.133,-71.289,-169.922
1678024545.673,-46.387,-48.828,-34.668,-6.836,-59.570
1678024545.677,-30.762,-42.480,-34.668,15.625,85.938
1678024545.681,-21.484,-37.109,-37.598,-23.438,356.934
1678024545.684,-22.949,-37.109,-39.551,-72.266,145.020
1678024545.688,-32.715,-39.062,-37.109,-56.152,-244.629
1678024545.692,-40.039,-38.086,-34.180,2.930,-23.438
1678024545.696,-27.832,-36.621,-32.227,22.461,46.875
1678024545.700,-6.836,-41.504,-30.273,-23.438,-183.594
1678024545.705,-1.465,-44.922,-30.273,-75.195,-215.820
1678024545.709,-13.184,-38.574,-28.320,-65.430,-143.066
1678024545.713,-22.461,-34.668,-26.367,0.000,-101.074
1678024545.717,-14.160,-35.645,-26.367,34.180,-89.355
1678024545.721,-1.953,-33.691,-27.344,2.441,-71.289
1678024545.725,-3.418,-33.203,-27.832,-51.758,-47.852
1678024545.729,-14.160,-31.738,-27.344,-56.152,-44.434
1678024545.732,-19.043,-32.715,-32.227,-3.418,-50.293
1678024545.736,-12.207,-33.691,-26.367,32.715,-43.457
1678024545.740,-1.953,-28.320,-19.043,6.836,142.578
1678024545.744,-1.465,-28.809,-21.973,-55.664,57.617
1678024545.748,-16.113,-29.297,-23.926,-65.430,-128.418
1678024545.778,-23.926,-28.320,-21.484,-8.301,-32.227
1678024545.782,-20.020,-25.391,-22.461,34.668,50.781
1678024545.786,-11.230,-24.414,-21.973,9.277,-59.570
1678024545.790,-11.230,-28.320,-24.414,-61.035,-185.547
1678024545.794,-34.180,-35.645,-29.785,-84.961,-116.699
1678024545.798,-49.316,-31.738,-25.879,-19.043,248.047
1678024545.802,-45.410,-26.367,-25.879,33.691,297.852
1678024545.805,-30.273,-28.320,-29.785,6.348,-68.848
1678024545.809,-20.996,-30.273,-26.855,-50.781,-95.703
1678024545.813,-30.762,-31.250,-29.785,-67.383,36.133
1678024545.817,-37.598,-32.715,-31.738,-22.949,-129.883
1678024545.821,-35.156,-33.691,-28.320,31.738,-165.039
1678024545.810,-25.391,-33.203,-27.832,24.414,-22.461
1678024545.814,-19.531,-31.738,-27.344,-46.387,-23.438
1678024545.818,-30.762,-32.715,-28.320,-81.543,-143.555
1678024545.822,-44.434,-40.527,-34.180,-44.922,-220.703
1678024545.826,-45.898,-43.945,-39.062,11.230,-46.387
1678024545.830,-34.668,-44.922,-39.062,8.789,98.633
1678024545.834,-22.949,-43.945,-39.551,-52.246,52.246
1678024545.837,-17.578,-37.598,-41.504,-89.844,-87.402
1678024545.841,-23.926,-35.645,-39.551,-63.965,-40.527
1678024545.845,-33.691,-33.203,-32.715,0.000,8.301
1678024545.849,-22.949,-30.273,-30.273,17.090,-71.289
1678024545.853,-9.277,-32.227,-33.691,-34.668,-94.727
1678024545.852,-13.672,-33.691,-35.645,-66.895,123.535
1678024545.856,-41.504,-33.691,-40.039,-36.621,179.688
1678024545.860,-54.199,-32.227,-41.016,12.695,-49.805
1678024545.864,-38.086,-30.273,-39.062,9.766,52.246
1678024545.868,-26.367,-29.297,-37.109,-41.016,80.566
1678024545.872,-24.414,-27.832,-34.668,-79.102,-67.383
1678024545.876,-34.668,-31.250,-35.645,-65.918,-9.277
1678024545.879,-42.480,-31.250,-29.297,-5.371,44.922
1678024545.883,-39.062,-29.297,-27.832,26.367,241.699
1678024545.887,-32.715,-33.691,-33.691,-21.484,252.441
1678024545.891,-27.832,-31.738,-33.203,-82.520,-154.785
1678024545.895,-38.086,-32.227,-28.320,-65.918,-198.242
1678024545.927,-49.316,-37.598,-28.320,1.465,-84.473
1678024545.931,-41.992,-37.598,-30.762,23.926,-116.211
1678024545.935,-28.320,-42.969,-28.320,-20.020,-104.492
1678024545.939,-23.438,-39.551,-29.785,-76.172,-129.395
1678024545.943,-36.621,-34.668,-30.762,-81.543,-171.875
1678024545.947,-54.199,-37.598,-33.691,-20.996,-86.426
1678024545.951,-44.922,-37.109,-37.598,21.484,-39.551
1678024545.954,-25.391,-35.156,-34.180,-2.930,244.141
1678024545.958,-20.020,-28.809,-30.273,-58.105,283.691
1678024545.962,-30.273,-29.297,-35.156,-84.961,-147.949
1678024545.966,-39.551,-27.832,-37.109,-36.621,-150.879
1678024545.970,-35.645,-30.273,-30.762,12.695,10.254
1678024545.942,-20.996,-34.180,-32.227,-5.859,-45.898
1678024545.946,-11.230,-31.738,-30.273,-61.523,-173.340
1678024545.950,-21.484,-32.227,-27.832,-78.125,-148.438
1678024545.954,-35.645,-37.109,-35.645,-27.344,-98.633
1678024545.958,-35.645,-36.621,-40.527,31.250,-46.387
1678024545.962,-23.438,-34.668,-35.645,19.043,0.488
1678024545.966,-20.996,-33.691,-30.273,-52.246,21.973
1678024545.969,-39.551,-33.691,-23.926,-73.242,173.340
1678024545.973,-51.270,-33.203,-22.949,-32.227,43.945
1678024545.977,-52.734,-35.645,-25.879,11.719,-111.328
1678024545.981,-40.527,-36.133,-26.367,1.465,11.230
1678024545.985,-28.320,-31.250,-27.832,-57.617,-52.246
1678024546.018,-34.668,-29.297,-28.320,-92.773,-216.797
1678024546.022,-47.852,-20.020,-18.555,-48.340,-214.355
1678024546.026,-57.617,-17.090,-16.602,8.789,16.602
1678024546.030,-64.941,-25.391,-19.531,-5.371,265.137
1678024546.034,-62.012,-22.949,-12.695,-74.707,7.324
1678024546.038,-66.406,-16.602,-13.672,-113.770,-224.609
1678024546.042,-97.656,-20.020,-13.184,-83.008,79.590
1678024546.045,-127.441,-11.719,-9.766,-57.617,200.684
1678024546.049,-121.094,10.742,-8.301,-76.660,-91.797
1678024546.053,-128.418,13.184,-0.977,-138.672,-149.902
1678024546.057,-171.387,14.160,13.184,-206.543,-75.684
1678024546.061,-228.027,16.113,20.020,-229.980,-115.723
1678024546.032,-280.762,12.695,19.531,-217.773,-169.922
1678024546.036,-300.781,20.020,27.344,-222.168,-71.289
1678024546.040,-305.664,13.184,23.438,-293.457,-6.836
1678024546.044,-311.523,9.766,22.461,-354.980,-128.418
1678024546.048,-324.707,17.090,27.832,-334.473,-241.699
1678024546.052,-329.102,21.973,29.785,-272.949,-51.270
1678024546.056,-319.336,24.414,30.762,-245.605,216.309
1678024546.059,-299.805,25.879,35.645,-288.574,48.828
1678024546.063,-275.879,18.555,37.598,-325.195,-214.355
1678024546.067,-283.203,6.348,30.762,-296.387,-124.512
1678024546.071,-296.387,9.277,35.156,-236.816,25.391
1678024546.075,-271.484,11.230,40.527,-197.266,-72.266
1678024546.094,-248.047,5.859,41.016,-215.332,-156.738
1678024546.098,-238.281,3.418,39.062,-270.508,-16.602
1678024546.102,-238.281,-1.953,27.344,-277.344,292.969
1678024546.106,-246.094,-3.418,20.508,-214.355,116.699
1678024546.110,-237.793,-9.766,26.855,-173.340,-127.930
1678024546.114,-210.938,-11.230,25.391,-192.383,-21.973
1678024546.118,-199.707,-13.184,15.625,-235.352,-45.898
1678024546.121,-193.359,-8.301,11.230,-233.887,-109.375
1678024546.125,-188.477,-11.230,9.277,-175.781,-128.418
1678024546.129,-172.363,-14.648,0.000,-116.699,83.496
1678024546.133,-142.090,-12.695,-6.348,-121.094,53.223
1678024546.137,-125.000,-13.672,-9.277,-172.363,-163.574
1678024546.152,-126.953,-15.625,-23.438,-181.152,-141.113
1678024546.156,-119.629,-28.809,-28.320,-108.398,-20.996
1678024546.160,-101.562,-35.156,-27.344,-37.598,10.254
1678024546.164,-81.543,-41.504,-31.738,-51.758,-46.875
1678024546.168,-60.547,-43.457,-35.645,-104.492,-14.160
1678024546.172,-49.316,-35.156,-36.133,-110.352,140.625
1678024546.176,-55.664,-37.109,-40.527,-61.035,93.262
1678024546.179,-60.059,-38.574,-38.086,-4.883,-96.680
1678024546.183,-46.875,-40.039,-41.992,-0.488,-60.059
1678024546.187,-20.996,-44.434,-54.199,-36.133,211.426
1678024546.191,-14.648,-43.945,-58.594,-64.941,78.613
1678024546.195,-16.113,-44.922,-60.059,-28.809,-253.418
1678024546.182,-6.348,-43.457,-60.059,38.574,-197.266
1678024546.186,4.883,-41.016,-59.082,48.828,-111.328
1678024546.190,20.508,-46.387,-59.082,5.859,-147.461
1678024546.194,38.086,-45.410,-61.035,-22.949,-235.352
1678024546.198,28.320,-42.969,-61.035,6.348,-182.617
1678024546.202,16.602,-46.875,-62.012,75.195,-45.898
1678024546.206,34.180,-48.828,-62.988,98.633,-41.992
1678024546.209,56.152,-51.758,-62.500,48.828,-41.992
1678024546.213,61.523,-51.270,-62.012,0.488,-84.473
1678024546.217,45.410,-50.781,-58.105,18.555,-163.574
1678024546.221,44.922,-54.199,-56.152,77.148,-116.211
1678024546.225,65.918,-52.246,-58.105,104.004,-114.746
1678024546.227,83.496,-47.363,-53.711,67.383,69.336
1678024546.231,86.426,-46.387,-53.223,16.113,5.859
1678024546.235,73.730,-46.875,-55.664,28.320,-244.141
1678024546.239,63.965,-46.387,-54.688,92.285,-162.109
1678024546.243,69.336,-44.922,-59.570,129.395,274.414
1678024546.247,85.938,-41.992,-60.059,90.820,405.762
1678024546.251,89.355,-41.992,-56.641,14.648,12.207
1678024546.254,73.242,-42.969,-57.617,7.812,-97.656
1678024546.258,59.082,-43.457,-53.711,81.543,190.918
1678024546.262,67.871,-43.945,-48.828,118.652,75.195
1678024546.266,77.148,-41.016,-46.875,77.148,-221.680
1678024546.270,73.242,-40.039,-48.828,11.230,-183.594
1678024546.274,60.059,-39.062,-56.152,2.930,-163.574
1678024546.278,43.945,-41.016,-56.641,59.082,-139.160
1678024546.282,47.363,-41.992,-52.734,100.098,-95.215
1678024546.286,57.617,-43.945,-51.270,71.777,-68.359
1678024546.290,54.199,-46.875,-55.176,15.137,-128.906
1678024546.294,45.898,-47.363,-56.152,12.695,-154.297
1678024546.298,37.109,-46.875,-54.199,56.641,-173.828
1678024546.301,41.504,-46.387,-52.734,98.633,48.340
1678024546.305,53.711,-40.039,-50.781,90.820,223.633
1678024546.309,55.176,-41.016,-48.340,27.344,-128.418
1678024546.313,43.945,-44.434,-46.387,2.441,-142.578
1678024546.317,32.715,-42.480,-48.828,45.410,10.742
1678024546.318,31.250,-43.945,-45.898,91.309,-103.027
1678024546.322,41.992,-46.875,-40.527,82.520,-127.441
1678024546.326,56.152,-42.969,-39.062,29.785,-57.129
1678024546.330,53.711,-39.551,-38.086,1.953,-99.121
1678024546.334,41.504,-39.551,-38.574,44.434,-107.910
1678024546.338,35.156,-42.480,-41.992,100.586,0.000
1678024546.342,44.434,-42.480,-46.875,97.656,140.137
1678024546.345,49.316,-41.992,-45.898,40.039,349.609
1678024546.349,42.969,-41.016,-43.457,-1.953,98.633
1678024546.353,32.715,-37.598,-45.410,26.855,-256.348
1678024546.357,28.320,-40.527,-46.387,80.078,-74.707
1678024546.361,35.645,-34.180,-44.434,88.867,-18.066
1678024546.403,41.504,-24.902,-39.062,38.574,-122.070
1678024546.407,39.551,-34.180,-38.574,-14.160,-173.340
1678024546.411,18.066,-37.598,-45.410,2.441,-62.500
1678024546.415,14.648,-30.273,-41.504,62.012,72.266
1678024546.419,33.203,-27.832,-34.668,83.984,-30.762
1678024546.423,37.598,-30.273,-38.086,26.367,-35.645
1678024546.427,24.902,-30.273,-41.992,-31.250,194.336
1678024546.430,10.254,-28.320,-38.086,-16.113,221.191
1678024546.434,1.465,-33.691,-37.109,31.738,-68.359
1678024546.438,1.953,-36.621,-43.457,43.457,-100.586
1678024546.442,12.695,-36.621,-41.504,0.000,-7.812
1678024546.446,20.020,-36.133,-35.645,-40.527,-65.430
1678024546.412,9.766,-29.297,-35.645,-25.391,-164.062
1678024546.416,-5.859,-30.273,-32.227,31.250,-109.375
1678024546.420,-3.906,-35.645,-30.273,57.617,-38.574
1678024546.424,4.395,-34.668,-31.738,8.789,-41.016
1678024546.428,4.395,-38.086,-36.621,-62.012,-133.301
1678024546.432,3.906,-38.574,-39.551,-56.641,-97.168
1678024546.436,-5.371,-36.133,-38.086,9.277,327.148
1678024546.439,-5.371,-39.551,-37.109,37.109,350.098
1678024546.443,7.324,-39.062,-38.086,1.953,-92.773
1678024546.447,9.766,-34.180,-35.645,-49.316,-206.055
1678024546.451,-5.371,-35.645,-35.156,-50.293,-171.387
1678024546.455,-26.855,-42.480,-38.086,0.000,-113.770
1678024546.483,-38.086,-42.480,-34.668,34.180,-40.527
1678024546.487,-30.762,-36.133,-32.227,8.301,-37.598
1678024546.491,-24.414,-34.180,-30.273,-52.734,-49.805
1678024546.495,-40.039,-40.527,-35.156,-76.172,-137.695
1678024546.499,-49.316,-42.969,-41.504,-38.574,-146.973
1678024546.503,-41.016,-41.504,-36.621,6.836,-25.879
1678024546.507,-35.156,-40.039,-35.156,-7.812,20.020
1678024546.510,-27.344,-39.062,-39.551,-75.195,-7.324
1678024546.514,-33.203,-41.016,-40.527,-102.539,-89.844
1678024546.518,-54.199,-40.039,-39.062,-49.805,109.863
1678024546.522,-54.199,-42.480,-40.527,7.324,218.750
1678024546.526,-40.039,-45.410,-41.504,-8.301,-87.402
1678024546.512,-28.320,-40.527,-47.363,-69.336,-126.953
1678024546.516,-26.367,-39.551,-41.016,-93.262,-68.359
1678024546.520,-42.480,-41.504,-34.180,-48.340,-88.867
1678024546.524,-52.246,-43.945,-36.133,5.859,-68.848
1678024546.528,-40.527,-43.457,-34.180,2.441,95.215
1678024546.532,-28.809,-39.551,-32.715,-56.641,118.164
1678024546.536,-35.156,-37.109,-36.133,-101.074,-108.887
1678024546.539,-50.293,-39.062,-41.992,-72.266,-104.492
1678024546.543,-50.293,-34.180,-40.039,-9.766,44.922
1678024546.547,-36.133,-34.180,-40.039,-0.488,25.879
1678024546.551,-20.020,-35.645,-40.039,-54.688,-169.434
1678024546.555,-18.555,-28.809,-32.227,-96.191,-236.816
1678024546.559,-33.691,-27.344,-26.855,-71.777,-53.223
1678024546.563,-45.410,-31.738,-29.297,-5.371,322.266
1678024546.567,-46.387,-36.133,-36.621,-0.977,214.355
1678024546.571,-23.438,-36.621,-43.945,-50.781,-164.062
1678024546.575,-15.625,-41.504,-36.133,-83.496,-160.156
1678024546.579,-49.316,-42.480,-25.879,-79.590,-87.891
1678024546.583,-71.777,-41.016,-28.320,-28.809,20.508
1678024546.586,-58.594,-49.805,-24.902,-3.418,8.789
1678024546.590,-37.109,-54.199,-18.555,-41.992,95.215
1678024546.594,-41.504,-55.176,-18.555,-83.496,122.070
1678024546.598,-59.570,-58.594,-17.090,-74.707,-145.996
1678024546.602,-72.754,-57.617,-11.719,-18.555,-164.062
1678024546.602,-70.312,-65.430,-11.719,4.395,23.926
1678024546.606,-55.664,-69.824,-4.883,-32.227,-20.508
1678024546.610,-49.805,-67.871,5.371,-81.543,-221.680
1678024546.614,-60.547,-70.312,5.371,-79.102,-164.551
1678024546.618,-71.289,-68.848,2.930,-19.043,-23.926
1678024546.622,-65.918,-71.777,2.441,14.160,-18.555
1678024546.626,-48.828,-77.637,1.465,-6.348,-66.406
1678024546.629,-31.250,-78.125,2.441,-52.246,-57.617
1678024546.633,-29.785,-69.336,4.395,-57.129,189.453
1678024546.637,-40.039,-59.082,2.930,-3.418,145.996
1678024546.641,-32.715,-56.641,1.465,37.109,-150.879
1678024546.645,-19.043,-60.547,-1.465,18.066,-20.020
1678024546.649,-15.625,-62.988,-2.441,-45.898,4.883
1678024546.653,-21.973,-62.988,-3.906,-64.941,-181.641
1678024546.657,-38.086,-64.453,-10.742,-9.277,-193.848
1678024546.661,-42.969,-61.523,-10.742,47.363,-23.926
1678024546.665,-28.320,-53.223,-6.836,27.832,32.715
1678024546.669,-23.926,-51.758,-10.742,-45.410,-26.855
1678024546.673,-37.598,-56.152,-17.578,-75.684,-59.570
1678024546.676,-46.387,-57.617,-11.230,-26.367,-36.621
1678024546.680,-48.828,-56.152,-6.836,27.832,-10.742
1678024546.684,-42.969,-60.059,-11.719,7.812,-34.180
1678024546.688,-27.832,-59.082,-18.066,-55.664,-119.629
1678024546.692,-34.180,-52.246,-20.508,-80.566,-19.043
1678024546.708,-46.387,-45.410,-23.926,-41.504,17.578
1678024546.712,-38.574,-41.504,-23.926,13.672,-164.551
1678024546.716,-21.973,-38.086,-16.113,24.902,-77.148
1678024546.720,-13.184,-38.086,-13.184,-31.738,-15.137
1678024546.724,-16.113,-43.945,-18.066,-81.543,-146.484
1678024546.728,-28.809,-41.504,-19.043,-41.016,-104.980
1678024546.732,-41.016,-34.668,-18.555,23.926,78.613
1678024546.735,-36.621,-40.527,-20.020,29.297,391.602
1678024546.739,-25.391,-39.062,-20.020,-22.461,245.117
1678024546.743,-27.832,-29.785,-17.090,-67.383,-215.820
1678024546.747,-44.434,-30.762,-21.484,-36.133,-189.941
1678024546.751,-47.363,-32.715,-24.902,15.137,-123.535
1678024546.739,-36.621,-33.691,-20.996,25.879,-180.664
1678024546.743,-29.785,-32.715,-26.367,-18.555,-209.961
1678024546.747,-28.809,-29.297,-28.809,-61.523,-168.457
1678024546.751,-33.691,-27.832,-26.855,-50.293,-166.504
1678024546.755,-32.715,-26.855,-27.832,1.465,-142.090
1678024546.759,-24.902,-26.855,-26.367,28.320,-28.809
1678024546.763,-24.414,-30.762,-25.879,-22.949,170.898
1678024546.766,-21.484,-32.227,-25.391,-78.125,93.262
1678024546.770,-30.762,-33.203,-27.832,-72.266,-166.992
1678024546.774,-42.969,-36.621,-31.250,-20.020,-158.691
1678024546.778,-29.297,-34.180,-25.879,18.066,166.504
1678024546.782,-11.230,-35.645,-25.879,-12.207,275.391
1678024546.782,-5.859,-34.180,-27.344,-67.871,-148.926
1678024546.786,-22.461,-35.156,-27.344,-66.895,-263.184
1678024546.790,-38.574,-39.062,-34.180,-16.113,-161.621
1678024546.794,-30.762,-33.203,-35.645,20.996,-89.355
1678024546.798,-12.207,-31.738,-35.156,-9.277,-104.004
1678024546.802,-14.160,-31.250,-33.203,-65.430,-18.555
1678024546.806,-33.203,-39.062,-30.273,-63.477,280.273
1678024546.809,-29.785,-42.480,-30.273,0.000,132.812
1678024546.813,-21.973,-30.762,-37.109,33.203,-136.230
1678024546.817,-20.020,-27.832,-44.922,-2.441,-2.930
1678024546.821,-19.531,-35.156,-44.922,-61.035,62.988
1678024546.825,-19.043,-29.297,-44.434,-71.289,-132.812
1678024546.842,-39.551,-25.391,-45.898,-24.902,-192.383
1678024546.846,-52.246,-32.715,-44.434,22.949,-64.941
1678024546.850,-22.461,-26.855,-41.504,17.090,-31.250
1678024546.854,-10.742,-24.902,-41.504,-48.340,-155.273
1678024546.858,-27.832,-29.785,-41.992,-83.008,-182.129
1678024546.862,-44.434,-28.809,-42.969,-38.574,-15.137
1678024546.866,-42.480,-28.320,-45.410,16.602,76.660
1678024546.869,-23.438,-24.902,-43.945,7.812,-71.289
1678024546.873,-18.555,-22.461,-42.480,-50.781,-188.965
1678024546.877,-33.691,-24.902,-43.457,-85.449,-125.488
1678024546.881,-44.434,-25.879,-40.039,-41.016,-72.266
1678024546.885,-42.480,-27.832,-37.109,28.320,-65.430
1678024546.887,-31.738,-27.832,-37.598,22.461,-115.723
1678024546.891,-18.066,-24.902,-37.109,-37.109,109.863
1678024546.895,-23.926,-22.949,-33.203,-70.312,152.344
1678024546.899,-36.621,-26.367,-33.691,-50.781,-176.270
1678024546.903,-38.574,-25.879,-31.738,9.766,-38.574
1678024546.907,-30.762,-30.762,-32.715,16.602,152.344
1678024546.911,-20.020,-34.668,-37.109,-46.387,59.082
1678024546.914,-20.508,-31.250,-35.156,-78.613,-61.035
1678024546.918,-32.715,-33.203,-36.133,-55.176,-110.352
1678024546.922,-38.086,-29.297,-37.109,8.789,177.246
1678024546.926,-25.879,-23.926,-36.133,23.926,111.328
1678024546.930,-13.184,-29.297,-38.086,-31.738,-91.309
1678024546.934,-14.648,-29.785,-35.156,-74.707,-13.672
1678024546.938,-27.344,-30.273,-38.574,-58.594,-9.766
1678024546.942,-31.738,-33.203,-38.086,-5.371,-76.172
1678024546.946,-27.832,-30.273,-33.203,24.414,-120.605
1678024546.950,-26.367,-31.250,-36.133,-9.766,-90.332
1678024546.954,-17.578,-29.785,-35.156,-62.988,-92.773
1678024546.958,-22.949,-27.344,-28.809,-65.430,-73.730
1678024546.961,-41.504,-28.809,-28.809,-8.301,-75.195
1678024546.965,-37.598,-28.320,-27.832,26.855,104.980
1678024546.969,-22.461,-25.879,-30.273,-16.113,189.453
1678024546.973,-18.066,-28.809,-33.203,-80.078,-109.375
1678024546.977,-33.203,-29.297,-34.668,-85.938,-203.613
1678024546.978,-53.223,-25.879,-39.551,-27.832,-153.320
1678024546.982,-45.898,-27.344,-41.504,19.043,-61.523
1678024546.986,-23.438,-26.855,-40.039,-2.441,-110.840
1678024546.990,-11.230,-26.367,-36.621,-59.570,-173.340
1678024546.994,-16.602,-26.855,-30.762,-72.754,-60.059
1678024546.998,-40.039,-24.414,-31.250,-26.367,-56.152
1678024547.002,-43.945,-21.484,-36.621,18.066,-71.777
1678024547.005,-27.344,-21.973,-35.156,-0.488,16.602
1678024547.009,-28.320,-25.391,-34.668,-54.688,209.961
1678024547.013,-36.621,-26.367,-36.621,-72.266,49.805
1678024547.017,-49.805,-26.367,-33.691,-40.039,-158.691
1678024547.021,-45.410,-26.855,-28.320,12.207,59.570
1678024547.024,-27.344,-20.508,-26.855,8.789,183.594
1678024547.028,-23.438,-14.648,-30.273,-60.547,-85.449
1678024547.032,-25.391,-14.648,-27.344,-95.215,-253.906
1678024547.036,-38.574,-16.602,-23.438,-60.059,-97.168
1678024547.040,-50.781,-24.902,-11.719,-11.719,-1.465
1678024547.044,-62.500,-35.645,-13.184,-18.555,-48.340
1678024547.048,-61.035,-30.762,-13.672,-78.613,-32.715
1678024547.051,-71.777,-21.484,-2.930,-122.559,106.934
1678024547.055,-114.258,-26.855,-0.977,-104.980,199.707
1678024547.059,-141.113,-21.973,8.301,-73.242,-50.293
1678024547.063,-155.762,-19.531,14.160,-101.562,-126.465
1678024547.067,-169.434,-21.973,10.742,-178.223,-93.750
1678024547.067,-187.988,-9.277,22.949,-247.559,-138.672
1678024547.071,-232.422,0.488,23.926,-268.066,-193.848
1678024547.075,-257.812,4.883,23.438,-230.957,-142.578
1678024547.079,-263.672,0.000,27.344,-227.539,-45.898
1678024547.083,-278.809,-1.953,20.996,-288.086,-24.414
1678024547.087,-293.945,5.371,22.461,-330.566,-58.105
1678024547.091,-291.992,19.531,21.973,-309.570,-12.207
1678024547.094,-290.039,13.672,15.625,-251.465,372.070
1678024547.098,-279.785,5.371,18.066,-223.145,270.508
1678024547.102,-260.254,11.719,18.066,-262.695,-183.594
1678024547.106,-248.047,13.672,13.672,-296.875,-134.766
1678024547.110,-241.699,0.000,10.254,-282.715,5.371
1678024547.128,-251.953,-3.906,3.906,-227.051,-106.934
1678024547.132,-244.629,-0.488,-0.977,-188.965,-101.074
1678024547.136,-218.750,1.953,4.395,-230.469,-65.430
1678024547.140,-202.637,-0.488,7.324,-278.320,-162.598
1678024547.144,-208.008,-3.906,4.883,-253.906,-182.129
1678024547.148,-220.703,-3.906,2.441,-200.684,-56.641
1678024547.152,-211.426,-7.812,4.883,-163.086,238.281
1678024547.155,-188.477,-8.789,6.348,-177.246,229.004
1678024547.159,-185.059,-4.883,-4.883,-243.164,-155.273
1678024547.163,-195.312,-6.348,-1.465,-242.676,-131.836
1678024547.167,-210.938,-18.555,1.465,-184.082,22.461
1678024547.171,-212.402,-19.043,0.488,-145.020,-9.277
1678024547.157,-191.895,-19.043,2.441,-150.391,-110.352
1678024547.161,-173.340,-25.391,1.465,-197.266,-93.262
1678024547.165,-174.316,-24.414,1.465,-218.750,-104.004
1678024547.169,-186.035,-18.066,6.836,-161.621,-141.113
1678024547.173,-189.941,-18.555,13.184,-111.328,-66.895
1678024547.177,-175.781,-34.180,7.324,-127.441,98.145
1678024547.181,-160.645,-34.668,8.789,-160.156,252.441
1678024547.184,-167.969,-24.902,16.113,-171.875,73.242
1678024547.188,-193.848,-28.320,15.625,-142.090,-137.207
1678024547.192,-197.754,-37.109,15.625,-86.914,13.672
1678024547.196,-186.523,-38.574,17.090,-92.773,291.504
1678024547.200,-167.480,-51.270,15.137,-158.691,107.422
1678024547.205,-150.879,-58.594,-0.977,-196.289,-186.035
1678024547.209,-159.668,-45.898,-9.766,-160.645,-90.332
1678024547.213,-175.293,-38.574,-12.207,-104.980,19.531
1678024547.217,-163.574,-39.062,-10.742,-99.121,-84.961
1678024547.221,-144.531,-35.645,-8.789,-151.855,-142.090
1678024547.225,-145.508,-41.016,-14.648,-184.570,-29.785
1678024547.229,-171.387,-53.223,-23.438,-147.949,60.547
1678024547.232,-179.199,-53.711,-23.926,-73.730,-55.176
1678024547.236,-150.391,-59.570,-17.578,-48.828,-110.352
1678024547.240,-125.977,-54.688,-19.531,-108.398,56.152
1678024547.244,-115.234,-40.527,-26.855,-153.809,5.371
1678024547.248,-114.258,-36.621,-27.344,-125.488,-217.773
1678024547.262,-120.117,-33.691,-29.785,-62.012,-105.469
1678024547.266,-103.516,-37.598,-29.785,-40.527,25.879
1678024547.270,-73.242,-41.504,-28.809,-77.148,-52.734
1678024547.274,-63.965,-42.480,-33.691,-115.723,-207.520
1678024547.278,-71.289,-41.504,-38.574,-94.727,-62.500
1678024547.282,-69.824,-39.551,-41.504,-18.066,316.895
1678024547.286,-52.734,-44.434,-50.293,13.672,270.020
1678024547.289,-24.414,-45.898,-57.617,-25.391,-166.504
1678024547.293,-17.090,-47.363,-63.477,-78.613,-97.168
1678024547.297,-25.391,-46.875,-70.801,-69.336,40.527
1678024547.301,-21.973,-42.969,-76.660,-4.883,-115.723
1678024547.305,-2.441,-41.016,-79.102,37.598,-126.465
1678024547.309,13.672,-46.875,-83.008,12.695,-94.727
1678024547.313,24.414,-43.457,-86.914,-38.574,-105.469
1678024547.317,24.902,-33.691,-88.867,-28.320,-184.570
1678024547.321,23.438,-39.062,-95.215,40.039,-174.805
1678024547.325,41.016,-38.086,-100.098,78.613,-23.926
1678024547.329,57.129,-36.133,-100.586,49.805,80.078
1678024547.333,70.312,-35.156,-97.168,5.371,0.977
1678024547.336,72.754,-33.203,-101.074,10.742,-225.586
1678024547.340,63.965,-35.156,-104.492,81.543,-17.578
1678024547.344,77.148,-31.738,-102.539,134.277,245.605
1678024547.348,104.004,-26.367,-103.516,102.539,-72.754
1678024547.352,118.652,-28.320,-106.934,36.133,-213.379
1678024547.352,117.188,-30.273,-107.910,31.250,-152.832
1678024547.356,97.168,-32.715,-115.234,84.473,-117.676
1678024547.360,98.633,-35.156,-120.117,131.836,-89.355
1678024547.364,122.070,-35.156,-112.793,132.812,-42.480
1678024547.368,131.836,-32.715,-103.027,78.613,-0.488
1678024547.372,127.441,-32.715,-100.098,52.734,-85.449
1678024547.376,113.770,-39.551,-97.168,98.145,-116.211
1678024547.379,109.375,-43.457,-92.773,151.367,41.504
1678024547.383,121.582,-44.922,-95.215,156.738,312.012
1678024547.387,127.930,-42.480,-89.355,100.586,247.559
1678024547.391,127.441,-39.062,-79.102,56.152,-154.785
1678024547.395,111.816,-44.922,-81.055,88.379,-209.473
1678024547.399,97.656,-51.270,-84.961,139.648,-67.383
1678024547.403,115.723,-47.363,-78.125,144.531,-76.172
1678024547.407,121.582,-41.992,-74.219,80.566,-160.156
1678024547.411,110.840,-48.340,-77.637,26.367,-209.473
1678024547.415,95.703,-48.340,-70.312,62.500,-170.898
1678024547.419,81.055,-41.992,-64.453,125.000,-39.551
1678024547.423,92.285,-41.504,-65.918,124.512,17.578
1678024547.426,104.492,-44.922,-65.918,73.242,144.043
1678024547.430,93.262,-49.316,-66.406,25.879,150.391
1678024547.434,75.684,-50.781,-67.871,44.922,-102.539
1678024547.438,75.195,-51.758,-62.988,106.934,-121.582
1678024547.442,91.797,-46.387,-62.988,123.535,10.254
1678024547.442,94.727,-42.480,-62.988,66.406,-72.754
1678024547.446,80.566,-49.316,-59.082,8.789,-265.137
1678024547.450,62.988,-51.758,-58.105,31.738,-160.156
1678024547.454,48.828,-47.852,-57.129,92.285,-65.918
1678024547.458,54.688,-44.434,-54.688,120.117,-38.574
1678024547.462,72.754,-40.039,-50.293,78.613,10.742
1678024547.466,74.219,-34.668,-49.805,25.879,31.250
1678024547.469,57.129,-34.668,-47.363,36.133,311.523
1678024547.473,48.340,-39.062,-44.922,86.426,244.629
1678024547.477,50.781,-38.086,-41.016,107.910,-57.129
1678024547.481,57.129,-38.086,-42.969,66.895,-64.941
1678024547.485,52.734,-38.574,-49.805,-7.812,-67.383
1678024547.491,41.016,-35.156,-50.293,-13.184,-152.344
1678024547.495,31.250,-33.691,-50.293,55.176,-210.449
1678024547.499,34.180,-37.109,-45.898,91.797,18.066
1678024547.503,46.875,-38.086,-40.039,58.594,63.477
1678024547.507,50.293,-37.109,-37.109,-9.277,-158.691
1678024547.511,36.133,-35.645,-34.668,-26.855,-177.246
1678024547.515,21.484,-31.738,-37.598,27.344,138.672
1678024547.518,24.414,-29.785,-36.621,76.172,201.660
1678024547.522,36.133,-27.344,-34.180,50.781,-148.438
1678024547.526,38.086,-25.391,-34.668,-6.348,-185.547
1678024547.530,31.250,-25.879,-34.180,-21.484,-139.160
1678024547.534,24.902,-27.832,-36.621,20.508,-128.418
1678024547.533,22.949,-31.738,-35.156,70.801,-104.492
1678024547.537,29.297,-31.250,-28.809,62.988,-22.461
1678024547.541,33.203,-30.762,-29.297,0.977,-27.344
1678024547.545,19.531,-33.203,-31.250,-33.203,-175.293
1678024547.549,7.324,-29.297,-31.250,9.277,-103.027
1678024547.553,9.766,-23.926,-34.180,72.266,39.062
1678024547.557,26.367,-23.926,-30.273,68.848,358.398
1678024547.560,31.250,-23.926,-29.785,-4.395,375.977
1678024547.564,22.461,-28.320,-31.738,-48.828,-93.750
1678024547.568,0.488,-31.250,-26.367,-8.301,-162.109
1678024547.572,-8.789,-30.762,-24.902,43.945,-103.516
1678024547.576,0.977,-34.668,-27.344,44.434,-140.625
1678024547.593,6.836,-32.715,-29.297,-8.789,-195.312
1678024547.597,0.977,-35.156,-29.785,-47.363,-168.457
1678024547.601,3.906,-35.156,-31.738,-9.766,-125.488
1678024547.605,5.371,-21.973,-29.785,46.875,-31.738
1678024547.609,-11.230,-23.438,-31.250,25.391,8.301
1678024547.613,-5.371,-28.320,-32.715,-40.527,134.277
1678024547.617,0.488,-24.414,-31.250,-76.172,179.199
1678024547.620,-22.461,-23.438,-35.156,-58.594,-122.070
1678024547.624,-35.645,-24.902,-36.621,-0.488,-118.652
1678024547.628,-24.902,-29.297,-36.621,17.578,61.035
1678024547.632,-10.254,-29.785,-39.062,-35.645,-0.488
1678024547.636,0.488,-22.461,-37.598,-79.590,-124.512
1678024547.637,-11.719,-18.555,-36.621,-65.430,-109.375
1678024547.641,-23.438,-20.508,-34.668,-8.301,-104.980
1678024547.645,-16.602,-21.973,-32.227,29.785,-48.828
1678024547.649,-15.625,-22.461,-35.156,-14.648,-84.961
1678024547.653,-20.020,-26.367,-36.133,-70.312,-51.270
1678024547.657,-32.715,-32.715,-37.598,-59.082,53.223
1678024547.661,-41.992,-33.691,-36.621,-3.418,14.648
1678024547.664,-28.809,-28.320,-34.668,26.855,18.066
1678024547.668,-9.766,-29.297,-33.691,-14.160,56.152
1678024547.672,-12.207,-29.297,-36.133,-61.523,187.500
1678024547.676,-22.949,-26.855,-36.133,-65.430,83.008
1678024547.680,-28.320,-31.738,-30.273,-20.508,-170.410
1678024547.684,-31.250,-31.738,-24.414,20.020,-125.488
1678024547.688,-14.648,-24.414,-24.902,-7.324,-112.305
1678024547.692,-13.672,-25.879,-32.227,-72.266,-212.402
1678024547.696,-30.273,-30.762,-30.762,-80.078,-216.309
1678024547.700,-39.551,-32.227,-35.645,-22.949,-95.703
1678024547.704,-39.551,-30.762,-36.133,29.785,6.348
1678024547.708,-22.461,-23.926,-25.391,20.996,106.934
1678024547.711,-10.254,-20.996,-29.297,-51.270,-27.344
1678024547.715,-27.344,-25.391,-33.691,-72.754,6.836
1678024547.719,-42.480,-28.320,-32.227,-18.066,213.379
1678024547.723,-34.180,-24.414,-32.227,23.926,8.789
1678024547.727,-24.902,-23.438,-33.203,6.836,-129.883
1678024547.727,-13.184,-24.414,-34.668,-53.223,-88.867
1678024547.731,-14.648,-18.555,-33.203,-75.684,-123.535
1678024547.735,-33.203,-14.160,-30.273,-24.414,-175.293
1678024547.739,-36.133,-20.508,-28.809,31.738,-69.824
1678024547.743,-23.926,-27.832,-28.320,26.855,133.789
1678024547.747,-13.184,-26.855,-24.414,-40.039,37.109
1678024547.751,-18.555,-25.879,-24.902,-82.520,-142.090
1678024547.754,-29.785,-24.902,-23.926,-42.480,-104.004
1678024547.758,-44.922,-28.809,-25.879,24.414,210.938
1678024547.762,-31.738,-27.832,-29.297,26.855,252.441
1678024547.766,-12.695,-24.902,-28.320,-34.668,-109.863
1678024547.770,-20.508,-25.879,-25.879,-76.172,-66.895
1678024547.774,-31.738,-25.391,-26.855,-43.457,40.527
1678024547.778,-28.809,-22.949,-27.344,25.391,-143.066
1678024547.782,-20.996,-21.973,-23.926,39.062,-178.711
1678024547.786,-10.742,-22.949,-23.438,-21.973,-129.883
1678024547.790,-11.719,-25.879,-26.855,-71.289,-162.109
1678024547.794,-32.227,-30.273,-28.809,-48.828,-153.320
1678024547.798,-41.504,-33.691,-28.809,19.531,-73.730
1678024547.801,-26.855,-32.715,-32.227,45.410,162.109
1678024547.805,-9.766,-27.832,-32.715,-5.859,236.328
1678024547.809,-13.184,-29.297,-32.227,-66.406,-96.680
1678024547.813,-25.391,-36.133,-38.086,-57.129,-158.203
1678024547.817,-29.297,-35.156,-39.551,3.906,-30.273
1678024547.818,-27.832,-32.227,-35.645,32.715,-22.949
1678024547.822,-20.020,-33.691,-32.715,-5.859,-62.988
1678024547.826,-16.113,-39.062,-34.668,-56.641,-111.816
1678024547.830,-22.461,-37.598,-30.273,-48.828,-74.707
1678024547.834,-35.156,-38.086,-26.855,9.766,-57.617
1678024547.838,-35.645,-43.457,-32.715,41.992,0.977
1678024547.842,-21.973,-38.574,-31.738,3.418,34.180
1678024547.845,-20.996,-39.062,-33.691,-51.270,222.656
1678024547.849,-33.203,-41.016,-34.668,-62.500,145.508
1678024547.853,-39.551,-35.156,-34.668,-10.742,-176.270
1678024547.857,-34.180,-32.227,-29.785,36.133,-48.828
1678024547.861,-17.578,-30.273,-22.949,6.348,10.254
1678024547.864,-12.695,-35.156,-24.902,-56.152,-144.531
1678024547.868,-30.273,-33.691,-27.832,-84.473,-193.848
1678024547.872,-46.387,-29.297,-29.297,-30.273,-81.055
1678024547.876,-38.574,-27.832,-33.203,28.809,19.043
1678024547.880,-36.133,-24.414,-35.645,0.977,-35.645
1678024547.884,-38.574,-30.273,-36.133,-66.895,-104.980
1678024547.888,-37.109,-32.715,-33.691,-68.848,39.551
1678024547.891,-41.992,-26.855,-29.785,-9.766,214.844
1678024547.895,-43.945,-29.297,-29.297,30.273,-1.953
1678024547.899,-33.691,-28.320,-25.879,17.090,-37.598
1678024547.903,-13.672,-20.508,-22.949,-41.992,-30.273
1678024547.907,-14.648,-20.020,-22.949,-72.266,-138.184
1678024547.907,-28.809,-20.020,-22.949,-25.879,-143.066
1678024547.911,-39.062,-22.949,-26.855,27.344,-132.812
1678024547.915,-39.551,-26.855,-28.809,18.066,-23.926
1678024547.919,-36.133,-28.809,-28.320,-44.922,-46.875
1678024547.923,-37.598,-28.320,-30.273,-84.473,-125.000
1678024547.927,-54.688,-30.273,-29.785,-46.875,-47.363
1678024547.931,-70.801,-40.527,-29.785,14.160,301.270
1678024547.934,-51.758,-39.551,-28.809,19.531,328.613
1678024547.938,-37.598,-36.621,-26.855,-48.828,-114.746
1678024547.942,-46.387,-38.086,-26.855,-91.309,-109.863
1678024547.946,-53.711,-38.574,-26.855,-55.664,94.727
1678024547.950,-60.547,-42.480,-27.832,-10.254,-70.312
1678024547.968,-47.363,-46.387,-30.762,6.348,-155.273
1678024547.972,-15.625,-42.969,-30.273,-27.832,-67.383
1678024547.976,-11.719,-28.809,-28.320,-75.195,-118.164
1678024547.980,-42.969,-26.367,-34.180,-75.195,-159.668
1678024547.984,-54.199,-24.414,-39.062,-18.555,-93.262
1678024547.988,-29.297,-16.113,-37.598,10.742,98.145
1678024547.992,-22.949,-10.742,-42.969,-51.270,70.801
1678024547.995,-29.785,-2.441,-48.340,-107.422,-137.695
1678024547.999,-36.133,-3.906,-48.340,-89.355,-173.340
1678024548.003,-42.969,-9.766,-52.734,-21.484,92.773
1678024548.007,-41.016,-11.230,-58.105,8.789,248.535
1678024548.011,-22.949,-7.812,-54.688,-35.645,-21.973
1678024548.012,-11.230,-8.789,-54.688,-90.332,-175.781
1678024548.016,-20.508,-15.137,-49.805,-81.543,-202.637
1678024548.020,-30.273,-18.066,-44.434,-24.902,-143.066
1678024548.024,-28.320,-18.066,-42.480,8.301,-120.605
1678024548.028,-14.648,-17.090,-38.086,-11.230,-60.547
1678024548.032,-11.719,-15.137,-41.016,-64.941,-1.465
1678024548.036,-29.297,-13.672,-42.969,-80.566,-65.430
1678024548.039,-38.574,-14.648,-43.457,-38.574,-32.227
1678024548.043,-31.250,-17.578,-36.621,5.371,91.309
1678024548.047,-23.926,-18.066,-32.227,-8.789,330.078
1678024548.051,-22.461,-14.648,-38.086,-76.172,188.477
