timestamps,TP9,AF7,AF8,TP10,Right AUX
1678024291.840,-13.184,-31.738,-11.230,25.879,-77.637
1678024291.844,-17.578,-33.203,-5.371,-9.766,-31.250
1678024291.848,-27.344,-37.598,-8.301,-53.223,-99.609
1678024291.852,-30.762,-39.551,-10.742,-32.227,-168.945
1678024291.856,-26.367,-36.621,-8.301,21.973,-82.031
1678024291.860,-13.672,-35.156,-10.742,31.738,-9.277
1678024291.864,-11.719,-34.180,-15.137,-0.977,-60.547
1678024291.867,-16.113,-29.785,-17.578,-35.645,-58.105
1678024291.871,-25.391,-27.832,-17.578,-41.992,-61.035
1678024291.875,-20.508,-28.320,-16.113,2.930,170.898
1678024291.879,-5.371,-26.855,-13.184,33.203,358.887
1678024291.883,-0.977,-22.949,-14.648,1.953,27.344
1678024291.883,-0.977,-22.949,-14.648,1.953,27.344
1678024291.883,-16.113,-23.438,-22.461,-59.570,-128.906
1678024291.887,-28.320,-21.484,-21.484,-72.754,-207.520
1678024291.900,-29.785,-20.996,-21.484,-34.180,-104.004
1678024291.904,-12.695,-18.555,-20.996,8.301,-59.570
1678024291.908,-3.418,-19.531,-20.508,-4.395,-132.812
1678024291.912,-15.137,-25.391,-21.484,-60.059,-204.102
1678024291.916,-28.809,-29.297,-27.832,-69.336,-8.789
1678024291.920,-32.227,-29.297,-32.715,-13.672,380.859
1678024291.924,-20.020,-28.809,-32.227,17.090,232.422
1678024291.927,-7.812,-31.250,-28.320,3.906,-0.977
1678024291.931,-18.066,-30.273,-27.344,-36.133,145.020
1678024291.935,-28.320,-29.785,-28.320,-63.477,53.223
1678024291.939,-26.855,-29.785,-24.414,-32.715,-248.047
1678024291.943,-18.555,-26.367,-25.879,13.672,-156.738
1678024291.945,2.930,-26.855,-27.344,15.137,0.000
1678024291.949,-4.883,-31.250,-26.855,-30.762,-50.293
1678024291.953,-30.273,-30.273,-28.809,-60.059,-89.355
1678024291.957,-30.762,-26.367,-23.438,-37.109,-76.172
1678024291.961,-16.602,-22.949,-21.973,5.859,-80.078
1678024291.965,-2.930,-23.438,-29.785,14.648,-88.379
1678024291.969,-8.301,-25.879,-33.691,-25.391,-98.145
1678024291.972,-27.832,-22.461,-30.762,-62.500,-27.344
1678024291.976,-38.574,-19.531,-30.273,-49.805,69.824
1678024291.980,-20.996,-20.020,-30.273,-1.953,-90.332
1678024291.984,-6.348,-22.461,-29.785,14.160,-160.156
1678024291.988,-14.648,-27.344,-30.273,-27.832,-80.078
1678024291.991,-24.902,-29.297,-27.832,-63.965,-133.301
1678024291.995,-38.574,-28.809,-26.367,-48.828,-159.180
1678024291.999,-35.156,-30.762,-21.484,-8.301,-115.234
1678024292.003,-17.578,-29.785,-20.996,8.789,-11.230
1678024292.007,-17.090,-28.809,-22.461,-23.926,26.855
1678024292.011,-33.203,-33.203,-23.438,-71.289,-60.059
1678024292.015,-46.387,-34.180,-26.855,-69.824,-123.047
1678024292.018,-35.645,-27.344,-21.973,-10.254,139.160
1678024292.022,-18.555,-24.414,-17.090,24.414,334.961
1678024292.026,-12.207,-25.391,-19.531,-16.602,16.113
1678024292.030,-18.066,-23.926,-19.531,-69.336,-128.906
1678024292.034,-20.020,-24.902,-16.602,-62.988,-139.648
1678024292.035,-20.508,-25.391,-19.043,-14.160,-147.949
1678024292.039,-18.066,-30.762,-20.508,15.137,-129.395
1678024292.043,-5.371,-28.809,-16.602,-1.465,-72.266
1678024292.047,-9.766,-22.461,-13.184,-44.922,57.129
1678024292.051,-19.531,-27.832,-14.160,-53.223,55.176
1678024292.055,-17.578,-29.785,-14.648,-15.625,6.348
1678024292.059,-3.906,-30.273,-13.184,20.996,59.570
1678024292.062,0.977,-34.180,-9.766,13.184,289.551
1678024292.066,-19.043,-35.645,-13.184,-45.898,111.328
1678024292.070,-40.527,-35.156,-20.508,-73.730,-206.055
1678024292.074,-40.039,-41.016,-25.879,-38.574,-154.297
1678024292.078,-27.832,-41.504,-30.762,0.000,-104.004
1678024292.080,-26.367,-39.062,-30.273,-7.324,-89.844
1678024292.084,-29.297,-38.574,-26.855,-55.176,-129.395
1678024292.088,-39.551,-35.156,-29.785,-79.102,-110.840
1678024292.092,-43.457,-36.133,-29.297,-51.270,-85.449
1678024292.096,-28.320,-39.062,-22.461,-15.137,-75.684
1678024292.100,-11.719,-36.621,-23.438,-13.672,-12.207
1678024292.104,-17.578,-37.598,-23.926,-48.340,223.633
1678024292.107,-31.250,-39.062,-24.902,-81.543,158.203
1678024292.111,-40.039,-37.109,-28.320,-62.500,-114.258
1678024292.115,-33.203,-32.715,-29.785,-17.578,-61.523
1678024292.119,-17.578,-29.297,-32.227,-13.184,126.465
1678024292.123,-22.461,-31.738,-30.762,-54.199,87.402
1678024292.125,-26.855,-32.227,-23.926,-78.613,-181.641
1678024292.129,-34.668,-32.715,-25.391,-57.617,-189.453
1678024292.133,-39.062,-38.086,-31.738,-14.648,-92.773
1678024292.137,-24.414,-42.480,-36.621,1.953,-30.762
1678024292.141,-26.367,-43.457,-36.133,-46.387,-149.414
1678024292.145,-42.969,-44.434,-34.180,-87.402,-43.457
1678024292.149,-53.223,-40.527,-35.645,-73.242,90.332
1678024292.152,-50.293,-38.086,-36.133,-37.598,-82.520
1678024292.156,-35.156,-40.039,-31.738,-10.742,-154.297
1678024292.160,-31.738,-37.598,-30.762,-38.086,-25.879
1678024292.164,-40.527,-39.062,-29.785,-84.961,86.914
1678024292.168,-50.293,-35.645,-28.809,-80.566,-145.020
1678024292.171,-44.922,-32.715,-28.320,-33.203,-192.383
1678024292.175,-31.250,-40.039,-27.832,-8.789,-87.891
1678024292.179,-32.227,-41.504,-28.320,-35.645,-111.816
1678024292.183,-47.363,-40.527,-27.344,-74.219,-201.660
1678024292.187,-53.223,-40.527,-26.855,-68.848,-166.992
1678024292.191,-39.551,-35.156,-23.438,-21.484,68.359
1678024292.195,-20.020,-29.297,-20.020,1.465,69.336
1678024292.198,-18.066,-30.273,-22.461,-25.879,-79.102
1678024292.202,-31.738,-34.668,-24.902,-72.266,-60.059
1678024292.206,-38.574,-32.715,-26.855,-82.520,7.812
1678024292.210,-39.551,-31.738,-27.832,-45.410,-4.395
1678024292.214,-26.367,-24.902,-26.367,-5.371,-62.012
1678024292.230,-17.578,-24.902,-27.344,-15.625,-110.840
1678024292.234,-28.320,-29.785,-26.855,-58.594,187.012
1678024292.238,-45.898,-24.902,-25.879,-71.289,269.531
1678024292.242,-42.969,-20.996,-23.926,-41.504,-82.031
1678024292.246,-25.879,-22.949,-25.391,-10.742,-33.691
1678024292.250,-31.250,-25.879,-30.273,-20.508,180.664
1678024292.254,-42.969,-25.391,-31.250,-70.312,22.461
1678024292.257,-56.641,-27.832,-31.738,-98.145,-160.645
1678024292.261,-61.523,-28.809,-29.785,-62.500,-48.340
1678024292.265,-52.246,-28.320,-32.715,-25.879,40.527
1678024292.269,-41.504,-31.250,-37.109,-29.785,-58.105
1678024292.273,-36.621,-28.809,-34.180,-65.918,-170.410
1678024292.275,-43.945,-31.250,-39.551,-87.891,28.809
1678024292.279,-55.664,-31.250,-41.992,-65.430,226.074
1678024292.283,-49.805,-27.344,-33.691,-36.621,-41.992
1678024292.287,-36.133,-31.250,-34.180,-23.438,-76.660
1678024292.291,-44.922,-30.762,-38.086,-45.898,0.977
1678024292.295,-66.406,-33.691,-40.527,-80.078,-75.684
1678024292.299,-70.312,-33.691,-39.551,-64.941,-82.031
1678024292.302,-55.664,-28.809,-37.109,-26.367,-76.660
1678024292.306,-45.410,-31.250,-39.062,-13.184,70.312
1678024292.310,-40.527,-31.250,-39.551,-40.039,185.547
1678024292.314,-46.387,-31.250,-37.598,-78.613,-163.574
1678024292.318,-57.129,-31.738,-37.109,-69.336,-210.938
1678024292.320,-46.875,-31.738,-36.621,-35.156,-92.285
1678024292.324,-28.809,-35.645,-35.645,-17.090,-130.859
1678024292.328,-28.809,-30.273,-34.668,-39.062,-172.363
1678024292.332,-46.387,-27.832,-33.203,-71.289,-65.430
1678024292.336,-53.711,-30.273,-37.109,-66.406,32.715
1678024292.340,-43.945,-27.344,-40.039,-29.785,-38.086
1678024292.344,-33.691,-25.391,-36.621,-8.789,-33.203
1678024292.347,-37.598,-27.832,-37.109,-39.062,5.371
1678024292.351,-47.363,-38.574,-40.039,-75.195,143.555
1678024292.355,-57.129,-41.016,-38.574,-78.613,3.906
1678024292.359,-54.199,-43.945,-36.133,-43.945,-97.656
1678024292.363,-40.527,-46.387,-35.156,-17.578,-9.766
1678024292.365,-37.598,-43.945,-31.250,-42.480,-61.035
1678024292.369,-43.457,-43.457,-34.180,-83.496,-144.043
1678024292.373,-57.129,-36.133,-34.668,-86.426,-153.809
1678024292.377,-61.523,-37.109,-30.762,-51.758,-81.055
1678024292.381,-51.270,-40.527,-36.621,-24.902,-64.941
1678024292.385,-41.016,-37.598,-37.109,-36.133,-51.758
1678024292.389,-45.410,-40.039,-36.133,-80.566,-24.414
1678024292.392,-60.059,-41.504,-36.621,-89.355,145.996
1678024292.396,-62.500,-38.574,-38.574,-47.363,422.852
1678024292.400,-45.410,-38.574,-38.086,-17.090,201.172
1678024292.404,-28.809,-37.598,-37.598,-20.508,-47.363
1678024292.408,-30.762,-32.715,-38.574,-50.293,-45.410
1678024292.410,-41.016,-31.250,-39.551,-71.777,-130.859
1678024292.414,-43.945,-33.691,-40.527,-41.992,-191.406
1678024292.418,-36.133,-35.645,-35.645,-2.930,-101.074
1678024292.422,-24.902,-34.180,-37.598,-7.812,-61.035
1678024292.426,-26.367,-34.180,-41.504,-38.574,-174.316
1678024292.430,-45.898,-39.062,-39.062,-60.059,-143.555
1678024292.434,-48.828,-36.133,-38.574,-41.504,54.199
1678024292.437,-32.227,-28.320,-34.668,4.395,226.562
1678024292.441,-19.043,-27.832,-31.250,8.301,26.367
1678024292.445,-30.762,-28.320,-30.762,-39.062,-152.832
1678024292.449,-48.340,-29.785,-36.133,-67.871,-76.660
1678024292.453,-46.875,-26.855,-37.109,-46.875,-44.922
1678024292.455,-29.785,-22.461,-21.973,0.977,-124.023
1678024292.459,-17.090,-16.113,-20.020,5.859,-151.367
1678024292.463,-27.344,-23.438,-26.855,-41.016,-112.305
1678024292.467,-41.992,-33.691,-26.367,-67.871,-72.754
1678024292.471,-55.664,-30.762,-23.438,-66.406,-67.383
1678024292.475,-58.594,-22.461,-25.879,-48.340,-102.051
1678024292.479,-51.270,-21.973,-14.648,-42.480,129.395
1678024292.482,-83.984,-18.066,5.859,-85.938,197.754
1678024292.486,-147.461,0.000,9.277,-168.457,-97.656
1678024292.490,-206.543,1.953,12.207,-214.844,-188.965
1678024292.494,-244.141,-2.930,20.508,-216.797,114.258
1678024292.498,-273.926,3.418,33.691,-239.746,152.344
1678024292.515,-311.035,15.137,41.992,-309.082,-188.965
1678024292.519,-342.773,16.113,42.969,-368.652,-192.871
1678024292.523,-368.652,17.578,46.875,-374.023,-144.531
1678024292.527,-370.117,17.578,54.199,-332.520,-153.320
1678024292.531,-349.609,17.578,52.246,-298.828,-157.227
1678024292.535,-325.684,22.949,54.199,-312.012,26.367
1678024292.539,-325.684,18.066,59.570,-353.027,213.867
1678024292.542,-332.520,4.883,55.176,-354.492,-62.012
1678024292.546,-312.988,-4.395,53.711,-298.340,-220.703
1678024292.550,-288.086,-8.301,52.734,-259.277,-81.055
1678024292.554,-279.297,-13.184,46.875,-269.043,-68.848
1678024292.558,-282.227,-18.555,45.410,-296.875,-248.047
1678024292.560,-281.250,-24.902,45.410,-299.316,-181.152
1678024292.564,-280.273,-28.809,48.828,-256.348,4.883
1678024292.568,-251.953,-29.785,45.410,-206.543,-48.828
1678024292.572,-225.586,-30.762,35.645,-207.520,-174.805
1678024292.576,-228.516,-32.715,30.273,-238.281,-175.293
1678024292.580,-229.492,-39.062,28.320,-237.793,-43.457
1678024292.584,-217.773,-41.016,27.344,-195.312,-11.719
1678024292.587,-192.383,-40.527,23.438,-146.484,-37.109
1678024292.591,-165.527,-50.781,23.438,-138.184,-70.312
1678024292.595,-158.203,-63.477,14.160,-158.203,87.891
1678024292.599,-158.691,-66.406,4.395,-156.738,285.156
1678024292.603,-145.020,-64.941,-2.930,-123.535,-102.051
1678024292.623,-121.094,-67.871,-11.230,-85.938,-191.406
1678024292.627,-97.656,-67.871,-12.695,-74.707,-98.633
1678024292.631,-89.844,-67.871,-19.531,-96.680,-156.738
1678024292.635,-94.238,-68.359,-27.344,-115.234,-149.902
1678024292.639,-90.820,-69.336,-36.621,-91.797,-34.180
1678024292.643,-62.500,-67.383,-41.016,-42.969,135.742
1678024292.647,-36.621,-60.059,-42.480,-22.461,104.980
1678024292.650,-34.668,-53.711,-50.293,-54.199,-76.660
1678024292.654,-37.598,-57.617,-53.711,-76.660,-51.758
1678024292.658,-32.227,-62.500,-60.547,-49.316,176.270
1678024292.662,-6.836,-59.570,-69.824,-7.324,-8.301
1678024292.666,21.484,-61.523,-74.219,17.090,-105.957
1678024292.650,23.438,-62.988,-79.590,3.906,-69.824
1678024292.654,20.996,-58.594,-84.473,-13.672,-115.234
1678024292.658,28.320,-58.594,-85.449,4.395,-164.551
1678024292.662,39.551,-56.641,-92.773,34.180,-133.789
1678024292.666,62.988,-51.758,-100.098,59.570,-68.848
1678024292.670,72.754,-48.340,-93.750,54.688,-14.160
1678024292.674,62.012,-45.898,-90.332,28.320,-44.434
1678024292.677,60.059,-44.922,-93.750,42.969,-91.309
1678024292.681,76.172,-48.340,-93.262,85.938,50.293
1678024292.685,97.168,-55.176,-93.262,101.074,56.641
1678024292.689,105.469,-55.664,-94.238,82.520,-84.473
1678024292.693,88.867,-49.316,-92.285,45.410,-169.434
1678024292.695,67.871,-47.852,-91.309,46.875,78.125
1678024292.699,72.266,-52.246,-90.332,83.984,372.559
1678024292.703,86.914,-48.828,-88.379,98.145,104.980
1678024292.707,85.449,-49.316,-84.473,82.031,-35.645
1678024292.711,73.242,-51.270,-84.961,47.363,6.348
1678024292.715,63.965,-50.293,-86.914,36.621,2.441
1678024292.719,64.941,-49.805,-83.984,69.824,-21.484
1678024292.722,77.637,-50.293,-83.496,98.145,34.668
1678024292.726,89.355,-53.223,-82.520,92.285,258.789
1678024292.730,70.312,-54.199,-80.078,56.152,60.059
1678024292.734,50.293,-56.641,-81.055,39.551,-207.031
1678024292.738,55.176,-58.594,-75.684,71.289,-88.867
1678024292.740,66.406,-59.082,-71.289,92.773,-59.570
1678024292.744,72.266,-58.594,-72.266,79.590,-130.371
1678024292.748,65.918,-53.223,-67.383,45.898,-148.926
1678024292.752,47.363,-53.711,-66.406,29.297,-170.410
1678024292.756,39.062,-54.199,-67.871,50.293,-183.105
1678024292.760,50.293,-48.340,-64.453,79.590,-54.688
1678024292.764,63.965,-45.410,-60.059,75.684,1.953
1678024292.767,62.988,-43.945,-57.617,43.945,158.691
1678024292.771,40.039,-45.410,-60.059,25.879,355.957
1678024292.775,29.297,-43.945,-62.988,27.832,32.227
1678024292.779,42.480,-43.945,-63.965,51.270,-130.371
1678024292.783,47.852,-41.992,-62.988,58.594,-61.035
1678024292.785,32.715,-42.969,-58.594,15.625,-119.629
1678024292.789,20.508,-47.852,-55.664,-15.137,-205.566
1678024292.793,15.625,-45.410,-54.688,4.395,-168.457
1678024292.797,20.020,-42.969,-54.688,38.086,-88.867
1678024292.801,37.109,-41.016,-54.688,50.781,-117.676
1678024292.805,36.133,-36.621,-50.293,22.949,-121.094
1678024292.809,20.020,-35.645,-46.875,-3.418,20.996
1678024292.812,11.230,-33.203,-48.340,8.789,160.645
1678024292.816,20.508,-32.227,-47.852,31.250,-19.531
1678024292.820,38.574,-36.621,-47.363,39.062,-126.953
1678024292.824,37.109,-33.203,-46.875,21.484,-49.316
1678024292.828,24.414,-24.902,-45.410,-2.930,-89.844
1678024292.831,17.578,-27.832,-46.875,0.488,-145.996
1678024292.835,16.602,-33.203,-50.293,27.832,-143.555
1678024292.839,28.320,-29.785,-45.410,50.781,-14.648
1678024292.843,31.738,-28.809,-42.480,36.621,14.160
1678024292.847,10.254,-29.785,-43.457,-1.465,-71.289
1678024292.851,-4.883,-31.250,-42.480,-14.648,-80.566
1678024292.855,3.906,-36.133,-44.434,8.789,210.938
1678024292.858,12.695,-34.668,-45.410,27.832,332.031
1678024292.862,11.719,-30.762,-45.410,10.742,-35.156
1678024292.866,4.883,-34.180,-41.992,-15.137,-179.688
1678024292.870,-11.230,-38.086,-40.039,-23.438,-25.879
1678024292.874,-16.602,-35.645,-35.156,-1.953,0.977
1678024292.876,-2.930,-37.598,-33.203,24.414,-69.824
1678024292.880,-1.465,-41.504,-37.598,7.812,7.812
1678024292.884,-10.254,-40.527,-39.551,-31.250,71.777
1678024292.888,-16.602,-33.691,-39.062,-42.480,-46.875
1678024292.892,-19.531,-32.227,-37.598,-12.695,-125.977
1678024292.896,-9.277,-33.691,-34.668,16.113,-25.879
1678024292.900,-1.465,-31.738,-30.762,13.672,318.359
1678024292.903,-10.742,-34.668,-31.250,-13.672,248.535
1678024292.907,-25.879,-39.062,-31.738,-29.785,-104.004
1678024292.911,-36.133,-38.086,-33.203,-12.207,-76.172
1678024292.915,-29.297,-36.133,-36.621,14.160,-38.086
1678024292.919,-19.043,-32.715,-36.621,10.742,-119.629
1678024292.935,-16.602,-35.645,-36.133,-16.602,-165.039
1678024292.939,-13.672,-31.250,-37.109,-21.484,-113.770
1678024292.943,-20.508,-22.949,-36.133,-15.625,-79.590
1678024292.947,-17.090,-27.344,-38.086,0.977,-96.680
1678024292.951,3.418,-28.809,-41.504,12.695,-37.109
1678024292.955,1.465,-26.367,-46.875,-8.789,204.102
1678024292.959,-7.812,-26.367,-50.293,-37.109,198.730
1678024292.962,-6.836,-20.996,-45.410,-26.855,-49.316
1678024292.966,-7.324,-20.996,-42.480,0.977,-160.156
1678024292.970,-3.906,-28.320,-43.945,11.719,143.555
1678024292.974,-9.766,-33.203,-47.852,-14.160,285.156
1678024292.978,-25.391,-33.203,-52.246,-49.316,-79.590
1678024292.980,-31.738,-33.691,-49.805,-40.039,-133.301
1678024292.984,-22.461,-31.250,-42.480,-7.324,-100.586
1678024292.988,-11.719,-30.762,-43.945,-1.953,-111.816
1678024292.992,-10.742,-37.109,-51.270,-32.227,-153.809
1678024292.996,-19.531,-39.551,-49.316,-55.176,-104.492
1678024293.000,-31.738,-33.691,-43.945,-46.875,48.828
1678024293.004,-20.996,-28.809,-44.434,-16.113,19.531
1678024293.007,-6.348,-24.414,-46.387,1.953,-11.230
1678024293.011,-12.695,-25.879,-48.828,-15.625,45.410
1678024293.015,-27.344,-27.832,-46.875,-44.922,263.672
1678024293.019,-38.574,-30.273,-43.457,-49.805,89.844
1678024293.023,-41.016,-34.668,-42.969,-28.320,-187.012
1678024293.025,-30.273,-35.156,-44.922,-16.602,-124.512
1678024293.029,-17.090,-32.715,-42.480,-28.320,-56.152
1678024293.033,-28.320,-33.203,-39.062,-50.781,-128.418
1678024293.037,-41.016,-32.227,-46.875,-53.711,-137.207
1678024293.041,-37.109,-27.344,-43.945,-28.809,-98.145
1678024293.045,-20.508,-27.344,-34.180,4.883,-43.945
1678024293.049,-10.254,-25.391,-32.227,-0.488,77.637
1678024293.052,-20.996,-24.414,-27.832,-29.297,5.859
1678024293.056,-32.715,-29.785,-24.902,-27.344,42.480
1678024293.060,-32.227,-38.574,-31.738,-10.254,313.477
1678024293.064,-19.531,-38.574,-37.109,6.348,53.711
1678024293.068,-11.719,-39.062,-35.156,5.859,-120.605
1678024293.070,-24.902,-41.016,-41.992,-26.367,-49.805
1678024293.074,-42.480,-37.109,-44.922,-45.898,-142.090
1678024293.078,-43.457,-36.133,-42.969,-25.391,-147.949
1678024293.082,-28.320,-37.598,-48.340,1.465,-62.500
1678024293.086,-19.531,-41.992,-48.828,-9.277,-35.645
1678024293.090,-34.668,-44.434,-44.434,-33.203,-51.270
1678024293.094,-52.246,-43.945,-43.945,-42.480,-31.250
1678024293.097,-51.270,-42.969,-48.828,-32.715,25.391
1678024293.101,-44.434,-38.574,-47.363,-0.977,140.625
1678024293.105,-32.715,-33.691,-41.504,4.883,-14.648
1678024293.109,-31.250,-31.250,-40.039,-24.414,-188.477
1678024293.113,-37.598,-24.902,-39.062,-39.062,-94.238
1678024293.115,-32.715,-20.020,-36.133,-31.738,-38.086
1678024293.119,-22.461,-24.414,-35.156,-9.277,-132.812
1678024293.123,-14.160,-32.715,-38.086,3.418,-148.438
1678024293.127,-23.926,-36.133,-39.551,-21.484,-107.910
1678024293.131,-38.574,-38.086,-41.504,-43.457,-138.672
1678024293.135,-39.551,-38.574,-40.039,-25.391,-123.047
1678024293.139,-27.832,-31.738,-35.645,5.371,-54.688
1678024293.142,-15.137,-28.320,-36.621,12.695,215.820
1678024293.146,-19.531,-26.855,-37.598,-13.672,395.508
1678024293.150,-32.715,-24.902,-37.109,-40.039,-19.043
1678024293.154,-41.504,-25.879,-40.527,-39.551,-207.520
1678024293.158,-41.992,-27.832,-46.387,-25.879,-143.555
1678024293.161,-27.832,-31.738,-42.480,-13.672,-123.535
1678024293.165,-26.367,-36.133,-37.109,-31.250,-175.781
1678024293.169,-36.133,-35.156,-42.480,-53.711,-138.184
1678024293.173,-51.270,-33.203,-41.992,-50.293,-20.020
1678024293.177,-53.711,-35.645,-38.086,-20.996,-54.688
1678024293.181,-31.738,-35.156,-38.574,-0.977,-27.832
1678024293.185,-26.367,-38.086,-38.086,-17.090,105.957
1678024293.188,-34.180,-41.016,-34.668,-39.551,210.449
1678024293.192,-44.434,-41.504,-40.039,-49.805,-3.906
1678024293.196,-43.457,-38.574,-38.574,-24.902,-112.305
1678024293.200,-22.461,-35.645,-33.691,1.953,-53.711
1678024293.204,-4.883,-36.133,-42.969,-15.137,-56.641
1678024293.205,-22.949,-31.738,-43.457,-51.758,-130.371
1678024293.209,-49.805,-28.320,-40.039,-59.570,-160.156
1678024293.213,-54.199,-31.738,-42.969,-38.574,-125.000
1678024293.217,-44.434,-36.621,-46.875,-27.344,-145.508
1678024293.221,-30.762,-34.180,-43.457,-36.621,-37.109
1678024293.225,-41.016,-33.691,-41.016,-56.152,12.695
1678024293.229,-52.246,-31.738,-39.062,-59.570,80.078
1678024293.232,-48.828,-34.180,-36.621,-33.691,355.469
1678024293.236,-38.086,-36.133,-37.598,-22.461,99.609
1678024293.240,-33.691,-38.086,-35.156,-40.039,-79.102
1678024293.244,-39.062,-35.156,-36.133,-62.500,-2.441
1678024293.248,-44.922,-28.320,-38.086,-71.289,-84.473
1678024293.250,-47.363,-30.273,-36.133,-49.316,-138.672
1678024293.254,-39.062,-33.691,-38.574,-24.902,-155.273
1678024293.258,-28.809,-34.180,-43.457,-21.973,-95.215
1678024293.262,-37.598,-32.227,-36.133,-42.969,-30.762
1678024293.266,-51.270,-31.738,-33.203,-59.570,-109.375
1678024293.270,-53.223,-30.273,-33.203,-41.504,-78.613
1678024293.274,-38.574,-30.273,-38.086,-10.254,57.617
1678024293.277,-23.438,-29.785,-37.109,-13.672,-19.043
1678024293.281,-32.715,-27.832,-31.250,-45.898,-104.004
1678024293.285,-47.852,-26.855,-36.133,-62.988,-26.855
1678024293.289,-49.805,-30.273,-35.645,-50.781,98.633
1678024293.293,-33.203,-33.691,-30.762,-26.367,-55.176
1678024293.310,-15.137,-32.227,-30.762,-16.113,-128.418
1678024293.314,-25.879,-26.367,-30.762,-43.457,-166.992
1678024293.318,-45.898,-24.902,-27.344,-64.941,-227.539
1678024293.322,-48.340,-23.438,-23.926,-47.852,-191.895
1678024293.326,-37.109,-18.555,-20.996,-22.461,-115.234
1678024293.330,-29.297,-21.484,-20.020,-19.531,0.977
1678024293.334,-28.320,-17.578,-21.973,-36.621,8.789
1678024293.337,-31.250,-10.742,-17.578,-54.688,-16.113
1678024293.341,-44.434,-3.418,-9.277,-51.758,-66.406
1678024293.345,-45.898,-6.836,-13.672,-29.785,125.000
1678024293.349,-39.551,-14.648,-14.648,-22.461,412.109
1678024293.353,-48.340,-10.742,-12.207,-56.152,154.785
1678024293.355,-80.078,3.906,-13.672,-94.238,-87.402
1678024293.359,-109.375,12.207,-4.883,-111.816,-104.492
1678024293.363,-120.117,15.137,5.371,-108.398,-144.043
1678024293.367,-128.906,22.461,2.930,-109.375,-145.508
1678024293.371,-157.715,24.414,0.977,-154.785,-57.129
1678024293.375,-209.473,31.250,7.324,-223.145,33.691
1678024293.379,-255.371,30.762,15.137,-269.531,7.812
1678024293.382,-270.996,36.621,23.438,-265.137,-101.562
1678024293.386,-287.598,41.016,27.344,-262.207,-52.734
1678024293.390,-306.152,36.621,26.367,-288.086,178.711
1678024293.394,-319.336,41.504,34.668,-319.336,-8.789
1678024293.398,-335.449,29.785,39.062,-336.914,-211.426
1678024293.400,-323.242,30.762,34.180,-317.383,-71.289
1678024293.404,-302.734,38.086,35.156,-295.410,-82.520
1678024293.408,-299.316,21.484,32.227,-299.316,-228.516
1678024293.412,-299.805,14.160,31.738,-308.105,-196.289
1678024293.416,-310.059,16.113,36.621,-314.453,-168.945
1678024293.420,-320.312,17.578,33.691,-297.852,-60.547
1678024293.424,-304.199,10.742,33.691,-270.996,4.395
1678024293.427,-278.320,4.883,41.016,-257.324,-126.465
1678024293.431,-274.414,0.488,47.852,-267.090,12.695
1678024293.435,-282.227,1.953,42.969,-271.484,210.449
1678024293.439,-261.230,3.906,36.133,-247.559,-60.059
1678024293.443,-235.840,-4.395,39.062,-203.613,-127.930
1678024293.446,-224.609,-11.230,37.109,-188.477,-27.344
1678024293.450,-217.285,-9.766,23.438,-217.773,-87.891
1678024293.454,-218.262,-9.766,17.578,-223.145,-181.152
1678024293.458,-203.613,-15.625,21.484,-187.988,-114.746
1678024293.462,-175.781,-19.531,10.742,-144.043,-12.695
1678024293.466,-144.531,-27.832,-2.441,-128.906,-40.527
1678024293.470,-132.812,-40.527,-8.301,-140.137,-88.379
1678024293.473,-144.531,-42.969,-13.184,-150.391,-62.500
1678024293.477,-139.160,-45.410,-17.578,-119.629,111.816
1678024293.481,-107.422,-49.316,-23.438,-81.055,-25.879
1678024293.485,-83.008,-45.410,-26.855,-72.754,-132.324
1678024293.489,-76.660,-43.945,-30.273,-88.867,-89.844
1678024293.490,-76.172,-48.828,-36.133,-94.727,-114.258
1678024293.494,-72.754,-52.734,-43.457,-87.891,-169.922
1678024293.498,-59.570,-52.246,-47.363,-69.336,-181.641
1678024293.502,-40.527,-55.664,-48.340,-43.457,-54.688
1678024293.506,-33.691,-61.035,-48.340,-52.246,-21.973
1678024293.510,-29.297,-59.082,-48.828,-63.965,-81.543
1678024293.514,-32.227,-55.664,-54.688,-47.852,-95.215
1678024293.517,-38.086,-56.152,-53.223,-5.859,144.531
1678024293.521,-25.391,-55.664,-54.199,21.973,465.332
1678024293.525,-17.090,-57.129,-59.082,-0.977,157.227
1678024293.529,-17.090,-56.641,-58.105,-30.762,-99.609
1678024293.533,-17.090,-53.711,-58.105,-30.273,-114.746
1678024293.535,0.977,-54.688,-54.199,6.836,-149.414
1678024293.539,23.438,-53.711,-52.246,37.598,-140.137
1678024293.543,20.020,-61.035,-54.199,21.973,-83.984
1678024293.547,15.625,-65.430,-52.246,-2.930,-71.289
1678024293.551,17.090,-62.012,-52.734,2.441,-144.531
1678024293.555,23.926,-61.523,-49.316,33.691,-73.242
1678024293.559,35.156,-55.664,-49.316,50.781,63.965
1678024293.562,47.363,-54.688,-54.199,49.316,358.887
1678024293.566,43.457,-54.688,-55.664,22.949,148.438
1678024293.570,32.227,-49.805,-53.711,6.348,-175.293
1678024293.574,34.180,-51.270,-54.688,32.227,-101.074
1678024293.578,50.781,-50.781,-54.199,63.965,-52.734
1678024293.580,61.035,-48.828,-55.176,60.059,-95.215
1678024293.584,37.598,-52.246,-64.941,18.555,-185.547
1678024293.588,23.438,-53.223,-66.895,3.418,-99.609
1678024293.592,31.738,-49.805,-57.617,30.762,-93.262
1678024293.596,48.828,-50.781,-49.316,60.547,-164.062
1678024293.600,58.594,-55.664,-46.387,59.082,-75.195
1678024293.604,45.410,-55.664,-47.852,32.715,214.844
1678024293.607,31.250,-51.758,-51.270,19.531,322.266
1678024293.611,25.879,-50.781,-52.734,36.621,-20.996
1678024293.615,31.738,-49.805,-53.223,60.547,-147.461
1678024293.619,37.598,-48.340,-52.246,66.895,80.078
1678024293.623,27.832,-50.293,-50.781,28.320,49.805
1678024293.625,14.648,-45.410,-51.270,-8.301,-199.707
1678024293.629,12.207,-43.945,-50.293,21.973,-95.703
1678024293.633,22.949,-47.852,-54.199,57.129,-62.988
1678024293.637,34.180,-48.340,-57.129,50.781,-149.414
1678024293.641,36.133,-49.805,-49.316,22.949,-190.430
1678024293.645,24.414,-49.805,-44.434,13.672,-10.254
1678024293.649,11.719,-48.828,-51.758,21.484,169.434
1678024293.652,20.020,-46.387,-55.176,42.969,-36.133
1678024293.656,39.062,-44.434,-53.711,61.035,-159.668
1678024293.660,30.762,-48.340,-56.641,33.203,-79.590
1678024293.664,17.090,-50.781,-54.199,5.859,94.238
1678024293.668,18.066,-51.758,-50.293,14.648,67.871
1678024293.685,20.508,-51.758,-46.875,45.410,-77.637
1678024293.689,25.391,-54.688,-43.945,70.801,56.152
1678024293.693,26.855,-58.594,-44.922,42.969,-0.977
1678024293.697,10.254,-58.105,-44.434,-1.953,-196.777
1678024293.701,-0.977,-52.734,-42.969,9.277,-145.508
1678024293.705,10.254,-43.945,-39.062,44.922,-8.301
1678024293.709,21.484,-40.039,-36.133,58.105,110.840
1678024293.712,22.949,-42.480,-39.062,45.410,42.480
1678024293.716,8.789,-45.898,-41.016,8.789,-65.430
1678024293.720,-6.836,-41.992,-42.480,0.977,123.535
1678024293.724,3.418,-37.109,-44.922,39.062,211.914
1678024293.728,14.160,-36.621,-41.992,62.500,-69.824
1678024293.730,17.090,-38.574,-38.086,38.574,-125.000
1678024293.734,5.371,-42.480,-41.016,-4.883,-76.660
1678024293.738,-20.020,-46.387,-44.922,-19.531,-109.375
1678024293.742,-20.996,-48.340,-44.922,4.883,-118.164
1678024293.746,-3.418,-45.898,-40.527,27.832,-19.043
1678024293.750,7.324,-43.457,-36.133,10.254,30.273
1678024293.754,3.418,-41.016,-41.504,-20.996,21.973
1678024293.757,-7.812,-35.645,-44.922,-29.785,-79.590
1678024293.761,-16.113,-33.203,-37.598,3.418,-114.258
1678024293.765,-4.395,-34.668,-34.180,34.180,102.539
1678024293.769,1.953,-33.691,-38.086,19.531,-26.855
1678024293.773,-13.672,-32.227,-39.062,-21.973,-190.430
1678024293.775,-25.879,-33.203,-35.645,-35.156,-139.648
1678024293.779,-27.344,-32.715,-35.645,-10.742,-133.301
1678024293.783,-18.066,-30.762,-35.645,17.090,-130.371
1678024293.787,-9.277,-29.785,-30.762,17.578,-133.789
1678024293.791,-16.113,-29.785,-28.320,-20.020,26.855
1678024293.795,-29.297,-32.715,-30.762,-36.133,43.945
1678024293.799,-34.668,-31.738,-34.668,-4.883,-122.070
1678024293.802,-29.785,-31.738,-35.156,24.902,-110.352
1678024293.806,-19.043,-36.133,-36.133,13.672,139.648
1678024293.810,-23.438,-35.156,-35.645,-26.855,248.047
1678024293.814,-41.992,-33.691,-36.621,-50.293,-38.574
1678024293.818,-46.387,-31.250,-34.180,-35.156,-142.578
1678024293.820,-36.621,-37.598,-37.598,1.953,-88.867
1678024293.824,-26.855,-42.480,-35.645,7.324,-66.895
1678024293.828,-34.180,-43.457,-28.809,-40.039,-102.539
1678024293.832,-46.387,-39.062,-32.227,-64.453,-127.441
1678024293.836,-49.316,-33.691,-28.320,-43.457,-87.402
1678024293.840,-41.504,-35.645,-24.414,-3.906,-63.477
1678024293.844,-28.320,-36.621,-25.391,11.719,-92.773
1678024293.847,-26.855,-40.527,-27.344,-32.227,-18.555
1678024293.851,-34.668,-39.062,-26.855,-59.570,198.730
1678024293.855,-36.621,-36.133,-28.320,-39.551,72.754
1678024293.859,-36.133,-38.086,-29.297,-4.883,-179.688
1678024293.863,-32.715,-38.574,-27.832,17.578,-109.863
1678024293.865,-30.762,-37.109,-27.344,-23.438,-90.332
1678024293.869,-37.109,-30.273,-26.367,-63.477,-194.336
1678024293.873,-50.781,-29.785,-28.320,-50.293,-205.078
1678024293.877,-48.340,-37.109,-32.227,-15.625,-81.543
1678024293.881,-27.344,-37.109,-33.203,4.883,-35.645
1678024293.885,-21.973,-34.668,-25.391,-23.438,-49.316
1678024293.889,-33.691,-33.203,-24.902,-59.082,-14.160
1678024293.892,-49.805,-33.691,-31.250,-54.688,177.734
1678024293.896,-46.387,-30.762,-33.203,-10.742,419.922
1678024293.900,-28.809,-25.391,-28.320,8.301,128.418
1678024293.904,-27.832,-33.203,-28.809,-22.949,-138.672
1678024293.908,-40.527,-34.180,-33.203,-61.523,-99.609
1678024293.910,-52.246,-29.297,-34.668,-60.059,-139.160
1678024293.914,-55.664,-37.109,-30.762,-20.996,-203.125
1678024293.918,-44.434,-41.992,-26.367,6.836,-122.559
1678024293.922,-34.668,-39.551,-29.785,-12.207,-48.828
1678024293.926,-38.574,-37.598,-27.344,-54.688,-117.188
1678024293.930,-48.340,-36.133,-22.949,-69.824,-138.184
1678024293.934,-55.176,-39.062,-27.832,-34.180,31.250
1678024293.937,-47.363,-35.645,-30.273,6.348,207.031
1678024293.941,-38.086,-34.668,-28.320,-20.508,-8.301
1678024293.945,-43.945,-38.574,-30.273,-70.312,-144.531
1678024293.949,-48.828,-36.621,-29.785,-74.219,32.227
1678024293.953,-44.434,-33.691,-32.715,-44.434,6.836
1678024293.955,-44.922,-36.621,-35.645,-13.672,-171.387
1678024293.959,-33.203,-37.598,-34.668,-13.184,-139.648
1678024293.963,-33.691,-38.574,-37.109,-53.223,-74.219
1678024293.967,-51.270,-36.621,-34.180,-77.148,-115.234
1678024293.971,-61.523,-39.062,-33.691,-52.246,-118.164
1678024293.975,-48.828,-41.504,-33.203,-7.324,31.738
1678024293.979,-37.109,-40.527,-32.227,-11.230,271.484
1678024293.982,-44.922,-41.016,-35.156,-60.547,166.016
1678024293.986,-49.316,-44.434,-35.156,-74.219,-93.262
1678024293.990,-54.199,-48.828,-37.598,-47.363,-133.789
1678024293.994,-46.875,-45.410,-40.039,-5.371,5.371
1678024293.998,-32.227,-42.969,-38.574,3.906,15.625
1678024294.001,-38.086,-44.922,-36.133,-38.574,-119.141
1678024294.005,-51.758,-42.480,-35.156,-78.125,-119.629
1678024294.009,-63.477,-41.016,-33.691,-68.848,-82.031
1678024294.013,-67.383,-48.340,-39.062,-35.156,-125.977
1678024294.017,-59.082,-49.316,-41.016,-31.250,-158.691
1678024294.021,-60.547,-41.992,-33.203,-58.594,-51.270
1678024294.025,-66.895,-42.480,-37.598,-80.566,55.176
1678024294.028,-73.730,-43.945,-37.109,-70.801,-121.582
1678024294.032,-66.406,-41.016,-34.668,-36.621,-199.707
1678024294.036,-52.246,-43.457,-41.016,-19.043,-8.301
1678024294.040,-54.688,-43.945,-42.480,-49.805,27.832
1678024294.044,-62.500,-45.410,-38.574,-86.914,-148.926
1678024294.060,-71.289,-47.852,-33.203,-77.637,-119.141
1678024294.064,-63.965,-46.875,-31.250,-34.668,-24.414
1678024294.068,-44.922,-43.945,-34.668,-15.137,21.484
1678024294.072,-45.898,-43.945,-42.969,-45.898,10.254
1678024294.076,-56.152,-41.016,-39.062,-76.660,-113.281
1678024294.080,-58.105,-35.645,-30.762,-63.477,97.168
1678024294.084,-53.711,-33.691,-37.109,-26.367,298.828
1678024294.087,-51.270,-38.086,-40.039,-7.812,99.609
1678024294.091,-48.828,-42.969,-43.457,-38.086,-83.984
1678024294.095,-49.316,-42.480,-45.410,-85.449,83.496
1678024294.099,-63.965,-42.969,-43.945,-104.004,114.258
1678024294.103,-55.664,-39.062,-43.945,-70.801,-174.805
1678024294.105,-39.062,-38.574,-41.992,-30.273,-109.863
1678024294.109,-33.203,-37.109,-43.945,-42.480,-36.621
1678024294.113,-33.203,-35.645,-48.340,-82.031,-112.305
1678024294.117,-50.293,-33.691,-49.316,-84.961,-141.602
1678024294.121,-64.453,-30.762,-45.898,-44.434,-41.992
1678024294.125,-54.199,-34.180,-41.992,-4.883,22.461
1678024294.129,-43.945,-38.574,-38.086,-15.625,-42.480
1678024294.132,-59.082,-40.527,-36.621,-66.406,-105.957
1678024294.136,-68.359,-41.016,-38.086,-81.543,-53.711
1678024294.140,-61.523,-41.016,-36.621,-39.551,265.625
1678024294.144,-50.293,-37.109,-33.203,-11.230,242.676
1678024294.148,-36.133,-36.133,-33.691,-29.785,-95.215
1678024294.150,-38.086,-41.016,-37.598,-66.895,-56.152
1678024294.154,-48.828,-42.969,-41.992,-84.961,6.836
1678024294.158,-52.734,-37.598,-37.598,-52.246,-102.051
1678024294.162,-51.270,-42.969,-38.086,-15.137,-20.996
1678024294.166,-38.086,-45.410,-43.945,-14.648,55.664
1678024294.170,-41.992,-39.551,-44.434,-57.129,0.488
1678024294.174,-56.641,-35.156,-40.039,-86.426,-26.367
1678024294.177,-55.664,-36.621,-38.086,-57.617,-69.824
1678024294.181,-45.898,-37.109,-38.574,-4.883,165.527
1678024294.185,-34.668,-33.203,-34.668,11.719,445.312
1678024294.189,-33.203,-30.762,-30.273,-34.668,114.746
1678024294.193,-44.922,-32.227,-33.691,-78.125,-207.520
1678024294.195,-53.711,-38.086,-38.574,-62.500,-196.289
1678024294.199,-48.340,-40.039,-39.551,-15.625,-151.855
1678024294.203,-39.062,-37.598,-41.992,-14.648,-122.559
1678024294.207,-34.668,-38.086,-37.109,-51.270,-76.172
1678024294.211,-42.480,-36.621,-40.039,-72.266,-88.379
1678024294.215,-47.363,-35.645,-44.434,-59.570,-70.312
1678024294.219,-41.992,-33.203,-41.504,-16.602,-10.254
1678024294.222,-28.320,-29.297,-37.109,4.883,63.477
1678024294.226,-25.391,-35.156,-34.180,-27.832,145.996
1678024294.230,-32.715,-36.621,-38.086,-67.383,-107.422
1678024294.234,-41.016,-35.156,-40.527,-64.941,-210.938
1678024294.238,-39.551,-37.109,-42.969,-18.555,8.789
1678024294.240,-25.879,-34.180,-42.480,8.789,40.039
1678024294.244,-28.809,-35.645,-43.945,-28.809,-127.441
1678024294.248,-45.410,-36.133,-42.969,-74.707,-175.781
1678024294.252,-59.570,-34.180,-37.598,-71.777,-137.207
1678024294.256,-52.246,-36.621,-36.621,-28.809,-149.414
1678024294.260,-27.344,-28.809,-30.762,5.859,-133.301
1678024294.264,-24.902,-22.461,-23.926,-12.207,-113.770
1678024294.267,-50.293,-32.715,-27.344,-62.012,96.680
1678024294.271,-71.289,-34.668,-23.438,-69.336,299.316
1678024294.275,-78.613,-28.809,-14.648,-46.387,-20.508
1678024294.279,-74.219,-28.809,-9.277,-37.109,-98.145
1678024294.283,-89.355,-26.367,3.418,-66.406,-38.086
1678024294.285,-131.836,-7.324,13.184,-142.578,-84.961
1678024294.289,-168.945,0.977,17.090,-193.848,-189.453
1678024294.293,-206.543,-3.906,11.719,-190.918,-177.734
1678024294.297,-236.816,0.000,19.043,-184.082,-42.969
1678024294.301,-265.625,8.301,28.320,-236.816,-5.371
1678024294.305,-303.223,9.766,37.598,-317.871,-23.438
1678024294.309,-334.473,6.348,49.805,-334.961,44.922
1678024294.312,-349.121,10.254,47.363,-305.176,183.594
1678024294.316,-330.566,12.695,42.480,-272.461,64.453
1678024294.320,-317.383,12.695,48.340,-277.344,-124.023
1678024294.324,-319.824,16.602,47.852,-324.219,-152.344
1678024294.328,-318.848,20.508,27.344,-341.797,-138.184
1678024294.331,-314.941,20.996,21.973,-303.223,-121.582
1678024294.335,-300.293,18.555,24.414,-255.859,-155.273
1678024294.339,-283.691,15.625,18.555,-246.094,-39.062
1678024294.343,-274.902,5.371,13.184,-280.762,29.785
1678024294.347,-270.020,3.906,11.719,-307.617,-101.562
1678024294.351,-268.555,15.625,15.625,-270.020,-163.574
1678024294.355,-270.996,16.602,9.766,-214.844,137.695
1678024294.358,-255.371,6.836,1.953,-209.473,333.008
1678024294.362,-238.281,5.859,3.906,-235.352,-43.945
1678024294.366,-241.699,7.812,-0.488,-249.512,-138.184
1678024294.370,-241.211,12.207,-3.418,-231.445,-3.906
1678024294.374,-209.961,13.184,-2.930,-180.664,-63.965
1678024294.375,-183.594,10.742,-8.789,-158.691,-153.809
1678024294.379,-176.758,10.742,-15.625,-180.176,-144.531
1678024294.383,-178.223,6.348,-13.672,-193.359,-155.762
1678024294.387,-172.852,1.465,-14.160,-177.246,-182.129
1678024294.391,-149.902,-1.953,-23.438,-134.277,-183.594
1678024294.395,-125.977,-10.742,-31.250,-99.609,-19.531
1678024294.399,-111.816,-22.949,-40.039,-120.117,284.180
1678024294.402,-114.746,-29.297,-42.969,-153.320,114.746
1678024294.406,-126.953,-40.527,-43.457,-135.254,-166.504
1678024294.410,-111.328,-40.039,-44.922,-86.914,-45.410
1678024294.414,-70.801,-33.203,-51.270,-51.758,66.895
1678024294.418,-51.270,-41.992,-53.711,-63.965,-46.875
1678024294.435,-54.199,-49.316,-52.246,-99.609,-153.320
1678024294.439,-60.547,-51.758,-57.129,-93.750,-125.000
1678024294.443,-59.082,-55.664,-61.035,-43.457,-41.504
1678024294.447,-26.855,-57.129,-56.641,-2.441,-77.148
1678024294.451,-9.766,-53.711,-52.246,-15.625,-121.582
1678024294.455,-25.879,-56.152,-52.734,-59.082,3.418
1678024294.459,-30.762,-62.500,-57.617,-58.594,33.203
1678024294.462,-20.020,-66.895,-62.500,-5.371,-64.453
1678024294.466,-8.789,-66.895,-60.547,28.320,-97.168
1678024294.470,0.977,-62.988,-61.035,14.160,192.871
1678024294.474,4.395,-67.383,-63.477,-16.602,346.191
1678024294.478,-12.695,-72.266,-65.918,-39.062,-34.668
1678024294.480,-13.672,-65.918,-65.430,-8.789,-184.570
1678024294.484,10.254,-62.988,-62.012,42.969,-101.562
1678024294.488,26.367,-66.406,-66.895,38.086,-116.211
1678024294.492,27.344,-67.871,-73.730,-3.906,-116.211
1678024294.496,17.578,-60.547,-70.312,-20.508,-47.852
1678024294.500,9.766,-55.176,-69.336,9.277,-3.906
1678024294.504,19.531,-51.270,-70.801,54.688,15.625
1678024294.507,31.738,-52.246,-67.871,62.012,-98.633
1678024294.511,25.879,-57.129,-67.871,13.184,-93.750
1678024294.515,11.719,-57.617,-71.777,-13.184,164.551
1678024294.519,6.348,-55.664,-72.754,14.648,-25.391
1678024294.523,22.949,-58.105,-68.359,62.988,-178.711
1678024294.525,48.340,-55.664,-62.500,82.031,-13.672
1678024294.529,49.316,-55.664,-64.453,47.363,-14.648
1678024294.533,38.086,-55.664,-70.801,7.812,-140.625
1678024294.537,37.598,-54.199,-72.266,23.438,-167.969
1678024294.541,44.434,-53.223,-70.801,71.289,-35.645
1678024294.545,50.293,-51.758,-69.336,87.402,79.590
1678024294.549,53.711,-51.270,-68.359,51.270,52.246
1678024294.552,49.316,-46.875,-63.965,10.742,-63.477
1678024294.556,42.969,-42.969,-62.988,29.297,147.461
1678024294.560,56.152,-42.480,-65.430,79.590,299.316
1678024294.564,73.730,-44.434,-64.941,90.332,25.879
1678024294.568,65.430,-45.410,-64.941,58.594,-54.199
1678024294.570,46.875,-43.457,-62.988,34.180,-38.086
1678024294.574,41.992,-41.504,-62.500,37.109,-119.141
1678024294.578,47.363,-47.852,-60.059,64.941,-175.293
1678024294.582,62.500,-52.734,-54.688,91.797,-134.766
1678024294.586,61.523,-51.270,-56.641,69.824,-42.969
1678024294.590,45.410,-49.316,-57.617,31.250,-79.590
1678024294.594,33.691,-47.852,-52.246,30.762,-48.340
1678024294.597,30.762,-50.781,-50.293,71.289,67.871
1678024294.601,42.480,-54.199,-52.246,96.680,175.293
1678024294.605,52.734,-53.223,-52.734,66.406,-5.371
1678024294.609,47.852,-49.805,-52.246,26.367,-154.297
1678024294.613,38.086,-45.898,-51.758,15.625,-60.547
1678024294.616,35.645,-41.992,-52.734,45.410,-80.566
1678024294.620,45.410,-40.527,-54.199,86.914,-155.273
1678024294.624,49.805,-34.668,-54.199,69.824,-183.594
1678024294.628,36.133,-33.691,-49.805,28.809,-57.617
1678024294.632,20.508,-36.621,-48.828,19.043,-32.227
1678024294.636,15.625,-37.598,-56.152,39.062,-122.070
1678024294.640,28.320,-36.133,-56.152,65.430,-103.516
1678024294.643,41.016,-34.668,-50.293,58.105,160.156
1678024294.647,32.715,-35.645,-49.316,25.391,394.531
1678024294.651,14.160,-35.156,-51.758,0.488,54.199
1678024294.655,17.578,-36.133,-54.199,33.203,-144.043
1678024294.659,32.715,-33.691,-52.734,63.477,-106.445
1678024294.660,40.527,-25.391,-52.734,42.480,-122.070
1678024294.664,35.645,-21.484,-50.781,10.254,-124.512
1678024294.668,15.137,-23.438,-53.223,-12.695,-49.316
1678024294.672,13.672,-24.902,-54.199,6.348,-44.922
1678024294.676,26.855,-24.414,-49.805,43.457,-69.336
1678024294.680,31.738,-25.879,-44.922,48.340,-37.109
1678024294.684,29.785,-28.320,-42.480,18.066,52.246
1678024294.687,13.184,-34.180,-45.898,-10.742,272.461
1678024294.691,-1.465,-40.527,-50.293,-10.254,88.867
1678024294.695,4.395,-41.016,-48.828,25.879,-140.625
1678024294.699,22.461,-35.645,-42.480,55.176,-45.410
1678024294.703,20.020,-38.086,-40.039,16.113,-62.012
1678024294.705,-7.812,-41.504,-44.434,-25.879,-122.070
1678024294.709,-17.090,-39.551,-39.551,-9.277,-98.145
1678024294.713,2.441,-36.133,-34.668,31.250,-34.180
1678024294.717,16.113,-31.250,-35.645,40.527,-15.625
1678024294.721,20.020,-33.203,-36.621,3.418,-119.629
1678024294.725,12.695,-32.715,-38.574,-34.180,-179.199
1678024294.729,-9.277,-30.273,-44.434,-29.297,85.938
1678024294.732,-13.672,-32.227,-46.387,2.930,221.191
1678024294.736,5.371,-29.297,-45.898,16.602,55.664
1678024294.740,11.719,-28.809,-43.457,-10.742,-74.219
1678024294.744,-0.488,-32.715,-39.062,-41.016,47.363
1678024294.748,-9.766,-30.273,-37.598,-33.691,100.098
1678024294.750,-16.113,-32.227,-37.109,-6.348,-105.469
1678024294.754,-6.836,-38.574,-34.668,10.742,-50.293
1678024294.758,-0.488,-38.574,-36.621,-10.742,-48.828
1678024294.762,-7.812,-38.574,-39.062,-44.922,-120.117
1678024294.766,-21.484,-42.969,-34.180,-44.922,-188.965
1678024294.770,-26.855,-39.062,-31.250,-5.859,3.418
1678024294.774,-10.254,-28.320,-32.227,20.020,209.473
1678024294.777,-7.324,-29.785,-36.621,-8.789,-1.953
1678024294.781,-15.137,-37.598,-41.016,-46.875,-155.273
1678024294.785,-24.902,-35.156,-41.016,-49.316,4.395
1678024294.789,-30.273,-34.668,-40.039,-15.625,114.746
1678024294.793,-11.719,-34.180,-39.062,13.672,-37.109
1678024294.810,-7.812,-39.551,-43.457,-4.395,-145.508
1678024294.814,-21.973,-45.898,-48.828,-41.504,-143.555
1678024294.818,-33.203,-41.504,-48.340,-56.641,-109.375
1678024294.822,-29.297,-36.621,-45.410,-31.250,-152.344
1678024294.826,-12.695,-41.504,-47.363,2.441,-169.922
1678024294.830,-5.859,-40.039,-50.293,1.465,-60.059
1678024294.834,-10.254,-34.668,-46.387,-30.762,-94.727
1678024294.837,-21.484,-37.598,-45.410,-44.434,-107.910
1678024294.841,-30.273,-35.156,-45.410,-26.367,-75.195
1678024294.845,-18.066,-29.297,-41.504,9.277,111.816
1678024294.849,-3.906,-28.320,-41.504,15.625,230.957
1678024294.853,-11.230,-28.809,-48.340,-21.973,-19.043
1678024294.855,-29.785,-26.367,-49.805,-42.969,-97.168
1678024294.859,-42.480,-25.879,-47.363,-28.809,-122.070
1678024294.863,-31.250,-23.438,-49.316,-0.488,-99.609
1678024294.867,-17.578,-26.367,-49.805,1.953,-152.832
1678024294.871,-31.250,-30.273,-44.922,-25.879,-102.539
1678024294.875,-40.039,-29.785,-44.922,-45.410,97.656
1678024294.879,-43.945,-28.320,-49.316,-33.203,34.180
1678024294.882,-38.574,-26.367,-47.852,-6.836,-104.980
1678024294.886,-19.531,-32.227,-47.852,2.930,-24.902
1678024294.890,-15.625,-28.320,-47.852,-15.137,120.117
1678024294.894,-14.160,-20.996,-45.898,-36.621,-44.922
1678024294.898,-17.578,-21.484,-40.527,-27.344,-166.992
1678024294.900,-17.578,-27.344,-40.039,6.836,-72.754
1678024294.904,-7.324,-30.762,-41.504,18.555,0.977
1678024294.908,-6.348,-29.297,-46.387,-7.812,-39.551
1678024294.912,-16.113,-28.320,-45.410,-32.715,-134.766
1678024294.916,-25.879,-27.832,-41.016,-39.062,-51.758
1678024294.920,-29.297,-27.344,-37.109,-13.184,-5.859
1678024294.924,-17.578,-29.297,-35.156,3.906,-88.379
1678024294.927,-13.184,-30.762,-41.016,-18.555,-88.379
1678024294.931,-26.367,-31.250,-42.480,-44.434,131.348
1678024294.935,-40.039,-31.250,-41.504,-44.434,218.750
1678024294.939,-36.621,-30.762,-37.598,-17.090,-45.410
1678024294.943,-15.137,-29.297,-34.180,0.488,-104.492
1678024294.945,-15.137,-21.484,-38.574,-18.555,-65.918
1678024294.949,-28.809,-23.438,-42.480,-46.875,-124.512
1678024294.953,-41.992,-27.344,-45.410,-56.152,-168.945
1678024294.957,-47.852,-27.344,-45.410,-34.668,-39.062
1678024294.961,-32.715,-30.762,-41.016,-5.859,15.625
1678024294.965,-25.391,-29.297,-38.574,-6.348,6.836
1678024294.969,-32.227,-27.344,-38.574,-39.551,-45.898
1678024294.972,-38.086,-30.762,-38.086,-52.734,-61.035
1678024294.976,-48.340,-31.738,-35.156,-20.996,166.992
1678024294.980,-48.340,-29.785,-33.203,2.441,20.996
1678024294.984,-29.297,-27.832,-36.621,-5.859,-180.664
1678024294.988,-29.785,-30.273,-41.504,-35.156,-24.414
1678024294.990,-51.270,-33.691,-46.875,-60.547,22.461
1678024294.994,-55.664,-31.250,-47.852,-43.945,-133.301
1678024294.998,-38.086,-29.785,-45.410,-9.766,-135.254
1678024295.002,-23.438,-28.809,-43.457,-3.906,-91.309
1678024295.006,-23.926,-30.273,-40.039,-32.715,-134.766
1678024295.010,-32.227,-29.785,-37.598,-55.176,-67.383
1678024295.014,-40.039,-32.715,-38.574,-39.062,-88.867
1678024295.017,-36.133,-34.668,-40.039,-1.953,150.391
1678024295.021,-16.113,-30.762,-36.621,8.789,542.969
1678024295.025,-13.672,-30.273,-37.598,-25.391,187.988
1678024295.029,-32.715,-33.203,-41.016,-56.152,-96.191
1678024295.033,-34.180,-31.250,-40.527,-41.016,-48.340
1678024295.035,-22.461,-28.320,-37.109,-3.906,-80.566
1678024295.039,-18.066,-29.785,-33.203,-0.488,-132.324
1678024295.043,-20.508,-33.203,-33.203,-25.879,-153.320
1678024295.047,-27.832,-32.227,-30.762,-46.387,-148.438
1678024295.051,-41.016,-34.668,-33.203,-44.434,-150.391
1678024295.055,-40.527,-40.527,-38.574,-27.832,-85.938
1678024295.059,-26.367,-40.039,-36.621,-9.277,65.430
1678024295.062,-22.949,-35.156,-36.133,-24.902,229.492
1678024295.066,-35.156,-35.645,-37.598,-61.523,41.016
1678024295.070,-47.363,-36.621,-40.527,-59.570,-124.512
1678024295.074,-45.898,-32.227,-38.574,-23.438,25.391
1678024295.078,-36.133,-32.715,-35.156,-7.324,40.527
1678024295.080,-36.133,-35.156,-32.715,-26.855,-64.941
1678024295.084,-48.340,-35.156,-33.203,-48.340,-131.836
1678024295.088,-56.641,-32.715,-32.227,-53.711,-100.586
1678024295.092,-54.688,-33.203,-36.133,-30.273,-72.754
1678024295.096,-41.016,-36.133,-35.645,0.000,-116.211
1678024295.100,-41.504,-39.062,-27.832,-13.184,-90.820
1678024295.104,-51.270,-35.645,-28.809,-49.316,199.219
1678024295.107,-63.477,-38.574,-33.203,-61.523,339.355
1678024295.111,-59.082,-46.875,-31.250,-37.598,-57.617
1678024295.115,-32.227,-39.062,-28.809,-7.324,-209.961
1678024295.119,-22.461,-31.738,-28.320,-23.926,-16.602
1678024295.123,-37.109,-35.645,-29.785,-60.059,4.395
1678024295.140,-45.410,-35.645,-28.809,-67.383,-222.656
1678024295.144,-41.992,-35.645,-29.297,-34.180,-183.105
1678024295.148,-31.250,-32.227,-30.762,-7.812,-57.617
1678024295.152,-18.555,-23.926,-25.879,-12.207,-70.801
1678024295.156,-22.461,-26.367,-27.344,-38.086,-155.762
1678024295.160,-36.621,-29.785,-22.949,-55.664,-62.988
1678024295.164,-52.734,-19.043,-12.695,-56.152,143.066
1678024295.167,-54.688,-13.672,-17.578,-37.598,-17.578
1678024295.171,-41.016,-12.207,-17.090,-29.785,-204.590
1678024295.175,-61.523,-9.277,0.488,-66.895,-82.520
1678024295.179,-124.512,-12.207,0.000,-133.789,-5.371
1678024295.183,-171.387,-4.395,2.441,-163.086,-140.137
1678024295.171,-193.848,5.859,16.113,-168.945,-172.852
1678024295.175,-229.492,10.254,28.320,-210.449,4.883
1678024295.179,-271.484,5.859,41.504,-265.137,13.184
1678024295.183,-320.312,7.324,41.992,-319.824,-186.523
1678024295.187,-348.633,11.230,54.199,-336.426,-164.551
1678024295.191,-350.098,11.230,69.336,-312.012,-6.836
1678024295.195,-351.074,8.301,65.918,-307.617,50.781
1678024295.198,-358.398,1.953,60.547,-333.496,6.348
1678024295.202,-353.027,4.883,66.406,-343.750,-150.391
1678024295.206,-356.934,4.883,73.242,-326.172,-6.836
1678024295.210,-344.727,-3.418,68.359,-288.574,262.207
1678024295.214,-303.711,-1.465,65.430,-270.996,-15.137
1678024295.230,-298.340,0.488,68.359,-287.598,-147.949
1678024295.234,-313.477,-5.859,63.965,-295.410,-88.867
1678024295.238,-316.895,-17.578,58.105,-292.480,-113.281
1678024295.242,-300.293,-18.066,54.688,-265.625,-114.258
1678024295.246,-279.297,-7.812,52.734,-233.887,-16.602
1678024295.250,-282.715,-12.695,49.316,-248.047,137.207
1678024295.254,-269.531,-19.043,51.758,-256.836,73.242
1678024295.257,-254.883,-14.648,50.781,-240.723,-70.312
1678024295.261,-248.047,-17.578,43.457,-211.914,-83.008
1678024295.265,-223.633,-25.391,41.504,-175.781,82.031
1678024295.269,-208.008,-26.855,33.203,-182.617,-68.848
1678024295.273,-194.824,-29.297,33.691,-204.590,-206.055
1678024295.275,-190.430,-27.344,31.250,-203.613,-117.188
1678024295.279,-187.988,-33.691,25.391,-162.598,-97.656
1678024295.283,-183.594,-38.574,34.668,-126.953,-118.164
1678024295.287,-183.105,-41.504,28.320,-136.719,-178.223
1678024295.291,-165.527,-50.293,18.066,-146.973,-108.887
1678024295.295,-161.621,-41.992,16.602,-140.625,-2.930
1678024295.299,-171.387,-42.480,16.602,-119.141,-38.086
1678024295.302,-145.508,-43.457,15.625,-92.285,-27.832
1678024295.306,-121.094,-40.527,4.395,-98.633,191.406
1678024295.310,-136.719,-38.574,-4.883,-125.488,425.293
1678024295.314,-154.297,-40.527,-1.953,-135.742,133.301
1678024295.318,-139.648,-40.039,0.000,-95.215,-148.438
1678024295.320,-110.352,-36.621,-8.789,-51.758,-108.887
1678024295.324,-86.914,-39.551,-17.578,-58.105,-131.348
1678024295.328,-83.496,-39.551,-21.973,-87.402,-178.711
1678024295.332,-88.379,-44.922,-25.391,-88.379,-186.035
1678024295.336,-83.984,-45.898,-26.367,-67.383,-114.746
1678024295.340,-63.965,-45.410,-39.551,-45.410,-63.965
1678024295.344,-37.598,-55.664,-52.734,-37.109,-120.605
1678024295.347,-33.691,-50.293,-54.688,-55.176,-95.215
1678024295.351,-48.828,-39.551,-58.105,-61.035,232.910
1678024295.355,-44.922,-45.898,-62.988,-43.945,163.086
1678024295.359,-15.625,-43.945,-72.266,-13.672,-144.043
1678024295.363,4.883,-40.039,-78.125,-8.301,-51.270
1678024295.365,5.371,-38.086,-76.172,-29.297,-18.066
1678024295.369,0.488,-30.273,-73.730,-35.156,-147.461
1678024295.373,6.348,-32.715,-76.172,-19.043,-139.160
1678024295.377,25.879,-42.969,-83.984,16.113,-115.723
1678024295.381,44.434,-41.992,-90.820,39.062,-112.305
1678024295.385,56.641,-39.551,-95.215,12.207,-27.832
1678024295.389,49.316,-40.039,-99.609,-14.648,-44.434
1678024295.392,43.457,-39.551,-101.562,12.695,130.859
1678024295.396,68.848,-35.645,-103.516,66.406,287.598
1678024295.400,93.750,-29.785,-104.492,83.984,18.555
1678024295.404,101.074,-28.809,-106.934,61.035,-79.102
1678024295.408,96.680,-27.832,-107.422,47.852,-15.137
1678024295.410,90.332,-22.949,-108.887,56.641,-160.645
1678024295.414,96.680,-21.484,-110.352,82.031,-206.543
1678024295.418,112.793,-23.926,-111.816,105.957,-83.008
1678024295.422,124.512,-25.391,-107.422,89.844,-52.734
1678024295.426,118.164,-30.273,-106.445,72.754,-78.613
1678024295.430,93.750,-37.109,-105.469,69.824,-142.090
1678024295.434,96.191,-40.527,-104.004,97.656,-44.434
1678024295.437,116.211,-39.062,-105.469,141.113,137.695
1678024295.441,117.676,-39.062,-99.609,121.094,-0.977
1678024295.445,107.910,-40.039,-92.773,74.707,-121.094
1678024295.449,97.168,-36.621,-90.332,72.754,-52.246
1678024295.453,101.562,-34.180,-88.379,102.539,-42.969
1678024295.456,118.164,-37.109,-89.844,117.676,-46.875
1678024295.460,119.629,-36.621,-88.379,109.863,-79.102
1678024295.464,102.051,-38.574,-83.008,86.426,-0.977
1678024295.468,81.543,-44.922,-77.637,74.707,-10.254
1678024295.472,82.520,-41.992,-80.566,92.773,-99.121
1678024295.476,99.121,-42.480,-79.102,106.445,-4.883
1678024295.480,103.516,-45.410,-73.242,103.027,192.383
1678024295.483,94.238,-40.039,-72.266,69.824,190.918
1678024295.487,83.984,-41.016,-66.895,49.805,-48.340
1678024295.491,71.289,-43.457,-58.105,68.359,-87.891
1678024295.495,68.359,-42.969,-59.570,97.168,33.203
1678024295.499,74.707,-44.434,-65.918,97.168,22.461
1678024295.500,68.848,-50.293,-65.918,42.480,-152.344
1678024295.504,56.152,-46.875,-65.430,23.926,-122.070
1678024295.508,48.828,-43.945,-62.500,56.152,-87.402
1678024295.512,62.988,-43.945,-59.082,80.078,-8.789
1678024295.516,76.172,-39.062,-53.223,81.543,-5.859
1678024295.520,59.082,-39.062,-48.828,56.152,59.570
1678024295.524,41.992,-42.480,-54.199,45.898,337.402
1678024295.527,35.645,-43.457,-52.246,65.430,149.902
1678024295.531,36.621,-47.852,-49.316,80.078,-143.555
1678024295.535,46.875,-52.734,-51.758,80.566,-137.695
1678024295.539,43.945,-53.711,-51.270,48.828,-160.156
1678024295.543,32.227,-47.852,-45.410,19.043,-200.684
1678024295.560,24.902,-46.387,-41.504,30.273,-204.590
1678024295.564,26.855,-45.410,-41.992,63.965,-119.629
1678024295.568,39.062,-39.062,-41.016,81.543,-55.176
1678024295.572,42.480,-41.016,-35.645,56.641,-109.863
1678024295.576,30.762,-41.504,-36.621,19.043,-170.410
1678024295.580,20.020,-41.016,-38.574,18.555,-110.352
1678024295.584,26.855,-42.969,-37.598,43.945,-74.707
1678024295.587,39.062,-39.062,-36.133,62.012,-70.312
1678024295.591,31.250,-39.551,-34.668,31.250,-69.336
1678024295.595,11.719,-44.922,-36.621,-17.090,114.258
1678024295.599,-3.418,-45.410,-37.109,-10.742,281.738
1678024295.603,1.465,-37.598,-32.715,29.297,35.156
1678024295.605,12.695,-39.062,-30.273,44.922,-128.906
1678024295.609,9.766,-44.434,-35.156,19.043,-72.266
1678024295.613,-0.977,-47.363,-36.621,-17.578,-118.652
1678024295.617,-13.184,-47.852,-40.527,-22.949,-190.918
1678024295.621,-10.742,-47.852,-42.969,10.254,-162.598
1678024295.625,4.883,-48.828,-36.621,38.086,-40.039
1678024295.629,11.719,-47.363,-35.156,19.531,-58.594
1678024295.632,4.395,-49.316,-36.621,-18.555,-196.777
1678024295.636,-8.789,-54.688,-43.457,-28.809,-113.770
1678024295.640,-10.254,-49.316,-47.363,4.395,252.930
1678024295.644,11.719,-44.922,-40.039,30.762,134.277
1678024295.648,16.602,-47.852,-31.738,16.113,-136.230
1678024295.650,0.000,-52.246,-29.297,-21.973,-76.172
1678024295.654,-10.254,-49.316,-31.738,-35.645,-164.551
1678024295.658,-10.742,-54.199,-27.832,-2.930,-225.586
1678024295.662,4.883,-57.617,-28.809,29.297,-180.176
1678024295.666,18.066,-48.828,-32.227,17.578,-155.273
1678024295.670,11.230,-48.828,-34.180,-26.367,-54.688
1678024295.674,-7.812,-43.945,-31.738,-47.363,-26.367
1678024295.677,-9.277,-41.992,-34.180,-28.809,-134.277
1678024295.681,-8.301,-41.504,-35.645,8.789,15.625
1678024295.685,-16.113,-35.156,-34.668,12.207,222.656
1678024295.689,-15.625,-34.668,-34.668,-27.832,-34.180
1678024295.693,-24.902,-39.062,-34.180,-51.270,-164.551
1678024295.695,-33.203,-40.527,-40.039,-34.180,-50.781
1678024295.699,-18.555,-37.109,-42.480,-0.977,-60.547
1678024295.703,-2.930,-36.133,-37.109,4.395,-125.977
1678024295.707,-16.113,-38.574,-34.668,-31.738,-115.723
1678024295.711,-32.227,-42.480,-33.691,-55.176,-106.934
1678024295.715,-32.227,-39.062,-30.762,-32.227,-114.258
1678024295.719,-27.344,-36.621,-35.156,3.906,-36.133
1678024295.722,-13.672,-39.062,-37.109,15.137,107.422
1678024295.726,-15.625,-41.992,-35.156,-16.602,141.602
1678024295.730,-33.203,-46.387,-39.062,-61.523,-84.961
1678024295.734,-39.062,-47.363,-41.016,-63.965,-213.379
1678024295.738,-36.133,-48.828,-36.621,-24.902,-49.316
1678024295.740,-32.227,-48.340,-38.086,-10.254,159.180
1678024295.744,-33.203,-43.945,-34.668,-40.039,-6.348
1678024295.748,-39.551,-43.945,-37.109,-67.871,-213.867
1678024295.752,-48.340,-44.434,-44.434,-58.594,-101.074
1678024295.756,-49.316,-43.945,-41.016,-21.484,-14.160
1678024295.760,-37.109,-43.457,-41.992,-3.418,-68.848
1678024295.764,-37.598,-50.293,-41.992,-28.809,-106.934
1678024295.767,-47.363,-50.293,-37.598,-67.871,113.281
1678024295.771,-51.270,-42.969,-33.691,-57.129,294.922
1678024295.775,-41.504,-44.434,-39.062,-26.367,-67.871
1678024295.779,-29.297,-45.898,-39.551,-9.766,-178.711
1678024295.783,-21.973,-41.016,-34.668,-23.926,-125.488
1678024295.786,-22.949,-42.969,-36.621,-64.941,-201.660
1678024295.790,-54.199,-47.852,-37.109,-70.801,-251.465
1678024295.794,-72.754,-48.340,-36.621,-34.668,-114.258
1678024295.798,-58.594,-51.270,-38.086,-16.602,12.207
1678024295.802,-44.434,-51.270,-38.086,-38.574,-77.148
1678024295.806,-48.340,-47.363,-32.715,-74.219,-40.039
1678024295.810,-61.523,-50.293,-31.738,-78.125,26.855
1678024295.813,-58.594,-47.852,-34.180,-31.738,208.008
1678024295.817,-47.363,-44.922,-33.203,-4.395,90.332
1678024295.821,-41.992,-44.922,-34.668,-23.438,-155.273
1678024295.825,-48.828,-44.434,-32.227,-65.430,-89.844
1678024295.829,-64.453,-52.246,-30.762,-77.637,-72.754
1678024295.830,-65.430,-58.594,-31.738,-47.852,-166.992
1678024295.834,-52.734,-57.617,-29.297,-11.719,-124.023
1678024295.838,-42.480,-52.734,-33.203,-6.348,-45.898
1678024295.842,-48.340,-50.293,-38.086,-39.551,-115.234
1678024295.846,-66.406,-54.688,-35.156,-52.734,-104.492
1678024295.850,-74.219,-55.664,-28.320,-26.367,-69.336
1678024295.854,-59.082,-49.805,-27.344,19.531,158.203
1678024295.857,-43.945,-48.340,-27.344,17.578,358.887
1678024295.861,-42.969,-44.922,-27.344,-41.016,53.223
1678024295.865,-54.688,-42.969,-33.203,-65.430,-126.465
1678024295.869,-62.012,-48.828,-37.598,-45.898,57.617
1678024295.873,-55.176,-50.781,-36.621,-17.578,64.453
1678024295.875,-31.738,-45.410,-34.180,-14.648,-96.680
1678024295.879,-21.973,-43.945,-34.180,-39.062,-115.234
1678024295.883,-33.691,-41.016,-32.715,-53.223,-125.000
1678024295.887,-36.621,-43.457,-29.297,-41.016,-108.398
1678024295.891,-25.391,-44.922,-33.691,-13.184,-152.344
1678024295.895,-15.625,-44.434,-38.086,-11.719,13.672
1678024295.899,-21.973,-42.480,-34.668,-50.293,244.629
1678024295.902,-45.898,-42.480,-34.668,-75.684,60.547
1678024295.906,-62.988,-50.293,-39.551,-72.266,-108.398
1678024295.910,-53.711,-49.316,-41.504,-47.363,-20.996
1678024295.914,-40.039,-49.316,-36.621,-18.555,56.152
1678024295.918,-29.785,-48.340,-33.203,-47.363,-69.824
1678024295.935,-44.434,-45.410,-31.738,-88.379,-106.445
1678024295.939,-69.336,-46.387,-33.203,-76.172,-30.762
1678024295.943,-59.570,-45.410,-36.621,-39.062,-33.203
1678024295.947,-36.133,-44.434,-35.645,-8.789,-88.379
1678024295.951,-33.203,-41.016,-28.809,-32.227,-98.145
1678024295.955,-46.387,-43.457,-28.320,-74.707,-7.812
1678024295.959,-52.734,-47.852,-30.273,-72.266,49.805
1678024295.962,-41.504,-46.387,-26.367,-26.855,-7.324
1678024295.966,-29.297,-45.898,-30.762,-2.441,-94.238
1678024295.970,-32.715,-47.852,-33.691,-26.855,101.074
1678024295.974,-44.434,-53.223,-35.156,-52.246,322.266
1678024295.978,-50.781,-53.223,-35.156,-52.734,-21.973
1678024295.995,-41.016,-45.898,-29.297,-20.020,-140.137
1678024295.999,-29.785,-47.363,-28.320,12.695,-61.035
1678024296.003,-15.137,-43.945,-28.320,-2.441,-125.000
1678024296.007,-24.414,-40.039,-25.879,-47.852,-178.223
1678024296.011,-47.852,-45.410,-25.879,-53.711,-164.551
1678024296.015,-42.969,-44.434,-20.508,-11.230,-85.938
1678024296.019,-31.250,-44.434,-19.043,15.137,16.113
1678024296.022,-16.602,-46.387,-20.996,-7.812,-64.453
1678024296.026,-16.113,-41.504,-21.973,-45.898,-72.754
1678024296.030,-39.062,-37.109,-22.949,-46.875,135.742
1678024296.034,-49.805,-38.086,-16.113,-13.672,4.883
1678024296.038,-36.133,-38.574,-16.113,17.578,-144.043
1678024296.025,-29.785,-39.551,-17.578,7.324,-14.648
1678024296.029,-37.598,-39.062,-16.602,-37.109,7.812
1678024296.033,-46.387,-40.527,-20.020,-59.570,-187.012
1678024296.037,-50.293,-42.969,-21.973,-36.621,-187.012
1678024296.041,-35.645,-41.504,-22.949,-1.953,-55.176
1678024296.045,-21.973,-40.039,-21.484,-0.977,-1.953
1678024296.049,-38.574,-41.016,-21.484,-42.480,-9.766
1678024296.052,-55.176,-40.039,-21.973,-68.848,-61.035
1678024296.056,-63.965,-40.039,-19.531,-44.434,-94.238
1678024296.060,-60.059,-39.062,-22.949,-15.137,-41.504
1678024296.064,-41.504,-34.668,-20.508,-17.090,-77.637
1678024296.068,-34.180,-41.504,-19.043,-44.922,-170.410
1678024296.071,-54.199,-42.969,-21.973,-64.453,61.035
1678024296.075,-69.824,-39.062,-20.020,-48.340,194.336
1678024296.079,-57.617,-45.410,-24.902,-20.996,-71.777
1678024296.083,-42.480,-49.316,-30.273,-3.418,-98.633
1678024296.087,-46.875,-46.387,-28.809,-32.715,-91.797
1678024296.091,-62.500,-47.363,-30.273,-72.266,-92.773
1678024296.095,-72.266,-42.969,-32.227,-57.129,-41.992
1678024296.098,-60.547,-33.691,-24.902,-20.020,-20.996
1678024296.102,-52.734,-26.367,-14.160,-9.766,164.551
1678024296.106,-67.871,-31.250,-21.973,-58.594,17.578
1678024296.110,-83.008,-34.180,-21.484,-111.816,-248.047
1678024296.114,-94.238,-26.855,-12.207,-107.910,-175.293
1678024296.115,-112.793,-23.926,-17.578,-93.262,-118.164
1678024296.119,-125.000,-21.484,-13.672,-109.863,-140.137
1678024296.123,-147.949,-7.812,-5.859,-164.062,-140.625
1678024296.127,-182.129,0.000,-0.488,-228.516,-105.957
1678024296.131,-233.398,-10.254,5.371,-264.160,-54.688
1678024296.135,-279.785,2.441,10.742,-278.809,25.879
1678024296.139,-292.969,11.719,20.020,-290.039,111.816
1678024296.142,-307.129,16.113,29.297,-325.684,289.062
1678024296.146,-335.938,26.367,39.551,-368.164,457.520
1678024296.150,-353.516,26.367,47.363,-365.723,117.676
1678024296.154,-357.910,20.020,53.223,-330.566,-139.648
1678024296.158,-342.285,15.625,56.641,-295.898,-47.363
1678024296.160,-321.777,8.789,46.875,-302.246,-53.223
1678024296.164,-327.637,0.977,43.457,-339.355,-108.887
1678024296.168,-333.984,-1.465,48.828,-350.586,-83.984
1678024296.172,-330.566,-1.465,49.805,-313.965,-25.879
1678024296.176,-319.824,-7.812,47.852,-269.043,-73.730
1678024296.180,-305.664,-16.113,47.363,-263.672,-4.883
1678024296.184,-298.340,-13.672,51.758,-298.828,42.969
1678024296.187,-291.992,-18.066,48.828,-306.641,226.562
1678024296.191,-290.527,-27.832,41.504,-275.879,152.832
1678024296.195,-265.137,-30.762,44.434,-226.074,-151.855
1678024296.199,-238.281,-31.738,37.598,-206.543,-103.516
1678024296.203,-243.652,-33.203,27.344,-245.117,-122.070
1678024296.205,-228.516,-38.574,24.902,-254.395,-185.059
1678024296.209,-217.285,-37.109,20.508,-212.402,-122.559
1678024296.213,-213.867,-41.016,17.578,-164.551,-77.637
1678024296.217,-174.316,-47.852,15.625,-139.160,-84.961
1678024296.221,-141.113,-52.246,9.277,-153.320,-127.930
1678024296.225,-145.508,-49.805,0.977,-176.270,-127.930
1678024296.229,-147.461,-52.734,-0.488,-147.461,172.363
1678024296.232,-131.348,-63.477,-10.742,-88.867,286.133
1678024296.236,-106.445,-62.012,-18.555,-79.590,-25.391
1678024296.240,-98.145,-55.176,-22.949,-114.746,-136.230
1678024296.244,-104.004,-58.105,-28.809,-116.211,16.113
1678024296.248,-98.633,-58.594,-32.715,-79.590,24.414
1678024296.250,-78.125,-50.781,-46.387,-53.711,-145.996
1678024296.254,-55.176,-53.223,-53.223,-43.457,-122.559
1678024296.258,-41.992,-57.129,-49.805,-54.688,-123.047
1678024296.262,-41.992,-56.152,-49.805,-77.637,-93.262
1678024296.266,-50.781,-53.711,-58.105,-68.848,-138.672
1678024296.270,-41.016,-53.711,-65.430,-18.066,32.227
1678024296.274,-13.184,-59.082,-62.012,10.742,228.516
1678024296.277,-3.418,-57.617,-67.871,-17.090,-16.113
1678024296.281,-7.324,-58.594,-74.219,-47.363,-202.637
1678024296.285,-6.348,-52.246,-67.383,-27.344,-80.566
1678024296.289,3.906,-46.875,-64.453,20.020,38.574
1678024296.293,31.250,-48.828,-62.500,48.828,-23.926
1678024296.296,44.434,-43.457,-61.523,29.785,-37.598
1678024296.300,29.785,-41.016,-66.895,-13.184,28.809
1678024296.304,14.648,-41.016,-66.895,-10.742,2.441
1678024296.308,22.949,-46.875,-66.406,45.410,-140.137
1678024296.312,43.457,-47.852,-71.289,79.590,-94.727
1678024296.316,58.594,-43.457,-65.430,61.035,0.977
1678024296.320,59.082,-40.527,-61.035,26.367,-2.930
1678024296.323,44.922,-41.504,-66.895,16.602,-44.922
1678024296.327,37.109,-43.457,-72.266,50.293,-94.238
1678024296.331,42.480,-41.504,-72.754,90.332,74.707
1678024296.335,53.223,-43.457,-68.848,84.473,196.777
1678024296.339,58.594,-47.363,-71.289,35.156,-86.914
1678024296.355,57.129,-43.945,-74.219,21.484,-191.895
1678024296.359,51.758,-42.969,-72.754,58.594,-116.211
1678024296.363,62.500,-47.852,-72.266,93.262,-84.473
1678024296.367,78.125,-44.434,-70.801,88.867,-159.180
1678024296.371,75.195,-35.156,-67.383,57.129,-101.562
1678024296.375,60.547,-33.691,-66.406,46.387,98.145
1678024296.379,56.152,-35.645,-72.754,67.383,41.992
1678024296.382,71.289,-35.156,-74.219,99.121,-128.418
1678024296.386,90.332,-32.715,-71.289,103.027,-32.715
1678024296.390,94.727,-34.668,-71.289,70.801,126.953
1678024296.394,89.355,-34.180,-67.383,45.898,-67.383
1678024296.398,87.402,-36.133,-70.312,68.848,-230.957
1678024296.400,97.656,-40.039,-68.848,109.863,-132.324
1678024296.404,113.281,-32.715,-59.082,112.305,-71.777
1678024296.408,121.094,-24.902,-49.316,78.125,-149.902
1678024296.412,109.375,-29.297,-48.340,59.082,-133.789
1678024296.416,80.566,-39.062,-56.152,73.242,17.578
1678024296.420,77.148,-41.504,-59.570,102.539,89.355
1678024296.424,96.680,-38.574,-58.105,103.027,69.336
1678024296.427,90.820,-37.598,-53.711,62.012,2.930
1678024296.431,71.289,-40.039,-52.734,31.250,145.508
1678024296.435,52.734,-44.922,-54.688,44.434,330.078
1678024296.439,56.152,-43.945,-56.152,80.078,62.988
1678024296.443,66.895,-40.039,-51.270,91.797,-108.398
1678024296.445,54.688,-45.898,-48.340,52.734,-50.293
1678024296.449,36.621,-47.852,-48.340,18.555,-90.332
1678024296.453,16.113,-50.293,-46.387,25.391,-174.805
1678024296.457,9.766,-53.711,-41.504,65.430,-76.172
1678024296.461,33.203,-52.734,-37.109,88.867,0.488
1678024296.465,45.410,-52.246,-37.598,49.805,-27.344
1678024296.469,33.691,-51.270,-38.574,1.465,-39.062
1678024296.472,23.926,-51.270,-41.016,17.090,-69.336
1678024296.476,28.320,-51.270,-42.480,63.965,252.441
1678024296.480,40.527,-49.316,-38.574,75.684,198.730
1678024296.484,43.945,-44.434,-33.691,42.480,-174.316
1678024296.488,33.691,-40.039,-33.203,5.859,-185.059
1678024296.490,22.949,-41.992,-34.180,10.254,-175.293
1678024296.494,16.113,-39.551,-40.039,38.574,-220.215
1678024296.498,23.926,-31.738,-42.969,43.945,-190.430
1678024296.502,29.297,-30.273,-44.434,22.461,-116.699
1678024296.506,19.043,-29.785,-41.992,-6.836,-86.426
1678024296.510,10.742,-27.344,-37.109,-20.020,-42.480
1678024296.514,6.836,-30.762,-41.992,6.836,-10.254
1678024296.517,14.160,-40.039,-41.504,38.086,247.070
1678024296.521,17.578,-39.062,-39.062,26.855,494.629
1678024296.525,14.648,-33.203,-41.504,-9.277,136.230
1678024296.529,-3.418,-36.621,-37.109,-27.832,-153.809
1678024296.533,-15.137,-40.039,-35.156,-10.742,-53.223
1678024296.535,-2.441,-42.480,-38.574,22.461,-59.082
1678024296.539,12.695,-43.945,-36.133,24.414,-167.969
1678024296.543,9.766,-40.039,-38.086,-15.625,-170.898
1678024296.547,-13.672,-40.039,-39.062,-34.180,-94.238
1678024296.551,-12.695,-42.969,-33.691,-4.395,-125.488
1678024296.555,4.883,-41.504,-29.785,26.855,-137.695
1678024296.559,9.766,-37.109,-27.832,26.855,60.059
1678024296.562,0.977,-33.203,-29.785,-11.230,269.531
1678024296.566,-11.230,-35.156,-36.133,-37.109,37.598
1678024296.570,-25.391,-36.621,-37.109,-13.672,-166.504
1678024296.574,-23.926,-37.598,-35.156,22.461,-112.305
1678024296.578,-13.184,-38.086,-40.039,26.855,-29.297
1678024296.580,-20.508,-34.180,-39.062,-16.113,-68.359
1678024296.584,-33.691,-39.551,-42.480,-59.082,-151.367
1678024296.588,-45.410,-44.434,-44.922,-42.480,-37.109
1678024296.592,-41.016,-39.551,-38.574,0.000,-9.277
1678024296.596,-23.438,-40.039,-35.156,4.883,-150.879
1678024296.600,-25.879,-42.480,-35.645,-34.668,-108.398
1678024296.604,-42.480,-46.387,-39.551,-58.105,124.512
1678024296.607,-46.387,-48.828,-43.945,-41.016,171.387
1678024296.611,-32.715,-48.340,-50.293,-9.766,-36.133
1678024296.615,-24.414,-44.922,-49.316,7.324,-121.094
1678024296.619,-35.156,-44.434,-48.340,-25.391,35.645
1678024296.623,-51.758,-42.969,-45.898,-60.547,50.293
1678024296.641,-59.082,-39.551,-42.480,-54.199,-124.512
1678024296.645,-45.410,-34.668,-41.992,-16.602,-42.480
1678024296.649,-30.762,-31.250,-39.551,9.277,41.504
1678024296.653,-31.250,-36.621,-35.645,-25.391,-82.031
1678024296.657,-39.062,-43.945,-41.016,-72.266,-230.957
1678024296.661,-53.711,-46.875,-42.480,-67.383,-188.477
1678024296.665,-53.223,-40.039,-37.109,-24.414,97.168
1678024296.668,-40.039,-37.109,-37.598,-2.441,38.086
1678024296.672,-32.227,-37.598,-39.551,-20.508,-169.434
1678024296.676,-34.180,-33.691,-36.133,-55.664,-99.121
1678024296.680,-48.828,-35.645,-38.574,-67.383,-25.879
1678024296.684,-58.105,-35.645,-40.039,-39.551,-131.348
1678024296.685,-46.875,-34.180,-39.062,-15.625,-160.645
1678024296.689,-44.434,-35.156,-39.062,-28.320,-104.492
1678024296.693,-49.805,-35.645,-38.086,-64.453,-114.746
1678024296.697,-56.152,-37.109,-34.668,-70.801,-176.758
1678024296.701,-48.828,-36.621,-31.738,-34.668,-40.039
1678024296.705,-34.180,-35.156,-29.785,-10.254,148.438
1678024296.709,-34.180,-36.621,-30.273,-18.555,115.234
1678024296.712,-38.574,-40.039,-28.809,-49.316,20.508
1678024296.716,-45.410,-35.156,-28.809,-57.617,-57.129
1678024296.720,-51.270,-34.668,-33.203,-22.461,24.902
1678024296.724,-43.945,-39.062,-37.109,14.648,329.590
1678024296.728,-24.902,-35.645,-33.691,7.812,136.719
1678024296.730,-21.484,-33.203,-29.785,-39.062,-166.504
1678024296.734,-39.551,-39.062,-34.180,-59.082,-167.480
1678024296.738,-49.805,-41.992,-38.086,-37.109,-161.621
1678024296.742,-33.203,-40.527,-32.227,-0.977,-145.020
1678024296.746,-20.508,-40.527,-27.344,4.395,-97.656
1678024296.750,-28.320,-36.133,-24.902,-36.133,-37.598
1678024296.754,-41.992,-31.250,-25.391,-63.965,-56.641
1678024296.757,-46.387,-28.809,-31.738,-48.340,-118.164
1678024296.761,-41.504,-29.785,-31.250,-4.883,-87.891
1678024296.765,-25.879,-29.297,-24.902,16.113,177.246
1678024296.769,-24.414,-26.367,-29.785,-23.926,62.012
1678024296.773,-34.180,-23.926,-28.809,-56.152,-225.586
1678024296.775,-39.062,-26.367,-24.902,-37.598,-125.488
1678024296.779,-43.457,-30.762,-26.367,-3.906,-95.703
1678024296.783,-35.156,-30.762,-28.809,-1.465,-157.715
1678024296.787,-30.762,-29.297,-30.762,-37.109,-181.641
1678024296.791,-42.480,-30.762,-28.809,-69.336,-83.984
1678024296.795,-60.547,-34.668,-28.320,-69.336,-31.738
1678024296.799,-62.500,-36.133,-30.273,-34.668,-24.902
1678024296.802,-41.504,-30.762,-29.785,-17.090,3.906
1678024296.806,-34.668,-34.180,-25.391,-37.109,206.055
1678024296.810,-45.410,-41.016,-26.367,-57.617,406.738
1678024296.814,-56.152,-37.109,-33.203,-57.617,87.891
1678024296.818,-46.387,-36.621,-34.668,-25.391,-125.000
1678024296.820,-29.785,-35.156,-34.668,-7.324,-24.902
1678024296.824,-24.902,-32.227,-38.574,-38.086,-17.090
1678024296.828,-35.156,-33.203,-36.133,-77.637,-89.844
1678024296.832,-55.176,-35.156,-36.133,-71.289,-138.184
1678024296.836,-45.410,-32.227,-32.227,-26.367,-89.844
1678024296.840,-27.832,-31.738,-29.297,-1.953,12.695
1678024296.844,-27.344,-33.691,-30.273,-22.949,25.391
1678024296.847,-33.203,-34.180,-30.273,-64.453,7.324
1678024296.851,-44.922,-37.109,-31.738,-66.406,161.133
1678024296.855,-44.922,-33.691,-26.855,-23.438,-1.953
1678024296.859,-32.227,-31.738,-27.832,5.859,-67.871
1678024296.863,-29.785,-35.645,-31.250,-11.230,136.719
1678024296.865,-35.156,-36.621,-29.785,-57.617,25.879
1678024296.869,-40.527,-34.180,-30.762,-72.754,-178.711
1678024296.873,-45.410,-37.598,-32.227,-40.039,-206.543
1678024296.877,-39.551,-38.574,-29.297,-9.766,-144.531
1678024296.881,-21.484,-35.156,-25.879,-17.578,-120.117
1678024296.885,-20.996,-36.621,-25.879,-53.711,-63.965
1678024296.889,-45.898,-39.062,-21.484,-65.430,-42.969
1678024296.892,-52.246,-37.109,-22.949,-35.645,118.164
1678024296.896,-36.621,-37.109,-29.297,4.883,348.145
1678024296.900,-30.273,-36.621,-30.762,-1.465,58.105
1678024296.904,-35.645,-32.227,-25.879,-41.992,-172.363
1678024296.908,-44.434,-34.668,-23.926,-65.430,-120.117
1678024296.908,-44.434,-34.668,-23.926,-65.430,-120.117
1678024296.911,-49.316,-35.156,-29.785,-43.457,-53.711
1678024296.915,-39.062,-27.832,-30.273,-3.906,-33.203
1678024296.919,-28.809,-31.250,-22.949,1.465,-70.312
1678024296.923,-33.203,-34.180,-24.414,-38.574,-20.020
1678024296.927,-41.504,-28.320,-28.809,-69.336,-125.488
1678024296.931,-44.434,-32.227,-30.273,-52.734,-170.898
1678024296.935,-37.109,-33.203,-29.785,-10.742,6.836
1678024296.938,-23.926,-34.668,-27.344,3.418,126.953
1678024296.942,-20.020,-38.574,-31.738,-39.551,-47.852
1678024296.946,-24.414,-33.691,-33.203,-68.359,-205.078
1678024296.950,-37.109,-39.062,-32.715,-45.898,-123.535
1678024296.954,-32.227,-36.133,-33.691,-16.113,-77.637
1678024296.955,-14.160,-32.227,-31.250,-6.836,-73.242
1678024296.959,-16.602,-37.598,-35.645,-34.180,-54.199
1678024296.963,-34.180,-42.480,-39.062,-60.059,-37.598
1678024296.967,-45.410,-41.016,-40.527,-52.246,-29.785
1678024296.971,-36.133,-37.109,-41.992,-20.996,-79.102
1678024296.975,-20.996,-35.645,-34.668,3.906,-48.340
1678024296.979,-24.414,-36.621,-37.109,-23.926,116.211
1678024296.982,-44.434,-38.574,-43.457,-62.988,351.562
1678024296.986,-54.199,-38.086,-40.527,-58.594,65.430
1678024296.990,-45.410,-35.645,-32.227,-21.484,-229.492
1678024296.994,-30.762,-31.250,-30.762,5.859,-106.934
1678024296.998,-26.855,-30.273,-35.156,-20.996,-126.465
1678024297.000,-36.621,-30.762,-31.738,-61.523,-209.961
1678024297.004,-55.176,-36.133,-33.203,-64.453,-158.691
1678024297.008,-60.547,-41.992,-35.156,-34.180,-38.574
1678024297.012,-43.457,-36.133,-31.738,-7.324,-76.660
1678024297.016,-35.156,-38.086,-30.273,-21.973,-121.094
1678024297.020,-38.574,-40.039,-26.367,-51.758,-30.762
1678024297.024,-46.387,-33.691,-25.879,-62.012,145.996
1678024297.027,-46.387,-36.621,-30.273,-38.574,105.957
1678024297.031,-26.367,-36.133,-25.391,0.000,-59.570
1678024297.035,-18.555,-37.598,-20.996,0.488,4.883
1678024297.039,-31.738,-39.551,-24.414,-35.645,83.008
1678024297.043,-47.852,-39.062,-25.391,-53.223,-115.723
1678024297.045,-52.246,-34.668,-29.785,-27.832,-166.992
1678024297.049,-41.992,-31.250,-28.320,11.230,-82.520
1678024297.053,-28.809,-33.203,-25.879,7.812,-54.688
1678024297.057,-25.391,-35.645,-27.832,-41.016,-142.578
1678024297.061,-35.156,-35.645,-27.832,-66.406,-180.176
1678024297.065,-41.504,-32.227,-25.391,-41.992,5.859
1678024297.069,-36.133,-30.762,-26.367,-8.301,31.250
1678024297.072,-24.414,-21.973,-26.855,-2.441,-21.973
1678024297.076,-24.902,-25.879,-27.832,-42.480,-91.309
1678024297.080,-39.062,-33.691,-28.320,-66.406,48.828
1678024297.084,-48.828,-31.250,-30.273,-40.527,336.914
1678024297.088,-41.504,-33.691,-39.062,-11.230,127.441
1678024297.105,-30.273,-36.133,-37.109,0.977,-101.562
1678024297.109,-23.926,-31.250,-32.715,-32.715,-15.137
1678024297.113,-28.809,-34.180,-36.133,-71.777,-59.570
1678024297.117,-51.270,-36.621,-39.062,-63.477,-194.824
1678024297.121,-49.316,-32.227,-34.180,-23.438,-62.988
1678024297.125,-32.715,-29.785,-29.785,-10.254,66.895
1678024297.129,-38.086,-30.762,-28.809,-46.387,23.438
1678024297.132,-54.199,-33.691,-26.367,-75.684,-106.445
1678024297.136,-66.406,-30.273,-25.879,-60.059,-151.855
1678024297.140,-59.570,-21.484,-18.066,-17.578,74.707
1678024297.144,-49.316,-22.949,-19.043,-13.184,36.133
1678024297.148,-48.340,-25.879,-26.855,-56.152,-175.293
1678024297.150,-57.617,-20.508,-18.555,-88.867,-98.633
1678024297.154,-83.984,-21.973,-20.996,-90.332,-10.742
1678024297.158,-102.539,-27.344,-23.438,-79.590,-140.137
1678024297.162,-99.121,-15.137,-5.859,-70.801,-149.902
1678024297.166,-102.539,5.371,-6.348,-110.840,-62.012
1678024297.170,-151.367,6.836,-0.488,-181.641,-17.578
1678024297.174,-217.773,17.578,20.996,-224.121,28.320
1678024297.177,-263.184,23.926,21.484,-244.629,-51.270
1678024297.181,-293.945,18.555,24.414,-266.602,76.660
1678024297.185,-313.965,23.438,36.621,-294.922,288.574
1678024297.189,-345.703,17.578,48.828,-349.121,-6.836
1678024297.193,-383.789,19.531,53.223,-381.836,-204.590
1678024297.195,-378.418,28.809,55.176,-348.633,-77.148
1678024297.199,-359.863,19.531,61.035,-310.059,-28.320
1678024297.203,-354.980,13.184,59.570,-312.012,-136.719
1678024297.207,-355.469,13.184,55.664,-345.703,-130.371
1678024297.211,-368.652,8.301,59.570,-360.352,-49.805
1678024297.215,-354.980,3.418,61.523,-321.777,-41.016
1678024297.219,-328.125,6.836,52.734,-278.809,-24.414
1678024297.222,-312.500,6.348,52.246,-267.578,40.039
1678024297.226,-319.824,-10.254,50.781,-292.969,130.859
1678024297.230,-329.102,-20.020,48.340,-316.406,-67.871
1678024297.234,-318.359,-10.254,48.340,-278.320,-237.305
1678024297.238,-301.758,-18.066,48.340,-228.516,-122.559
1678024297.241,-289.551,-29.785,46.875,-220.703,-70.312
1678024297.245,-277.344,-25.879,43.945,-244.629,-109.375
1678024297.249,-269.531,-34.180,38.086,-256.348,-110.352
1678024297.253,-269.043,-36.133,28.809,-233.398,26.855
1678024297.257,-252.441,-37.598,34.668,-189.453,23.926
1678024297.261,-226.074,-38.086,42.480,-176.758,-12.207
1678024297.265,-214.844,-32.227,39.062,-199.707,18.066
1678024297.268,-216.309,-40.527,34.668,-198.730,229.492
1678024297.272,-216.797,-46.387,29.297,-167.969,409.180
1678024297.276,-203.125,-50.293,20.020,-142.578,49.805
1678024297.280,-186.523,-58.105,19.531,-132.324,-114.746
1678024297.284,-184.082,-59.082,15.137,-150.391,-35.156
1678024297.285,-178.711,-67.383,7.812,-162.598,-115.723
1678024297.289,-162.109,-64.941,7.812,-139.648,-164.062
1678024297.293,-136.719,-55.664,9.277,-93.262,-122.559
1678024297.297,-114.258,-59.082,6.348,-70.312,-79.102
1678024297.301,-107.422,-61.035,-7.324,-103.027,-145.020
1678024297.305,-113.770,-63.965,-13.184,-133.789,-183.105
1678024297.309,-117.676,-70.312,-22.949,-121.582,-47.852
1678024297.312,-97.168,-69.336,-35.156,-67.383,299.316
1678024297.316,-67.383,-67.871,-41.016,-41.504,195.801
1678024297.320,-55.176,-69.336,-46.387,-66.895,-73.242
1678024297.324,-46.875,-67.383,-52.734,-85.938,-54.688
1678024297.328,-41.504,-67.871,-56.641,-69.336,-86.426
1678024297.345,-37.598,-68.848,-60.547,-29.785,-135.254
1678024297.349,-15.137,-71.289,-67.383,-2.930,-161.133
1678024297.353,-0.977,-71.289,-77.148,-22.461,-104.980
1678024297.357,-9.766,-62.988,-83.496,-53.223,-132.812
1678024297.361,-7.324,-62.012,-84.473,-38.086,-151.367
1678024297.365,9.277,-62.988,-90.820,-1.953,-122.559
1678024297.369,19.531,-60.547,-96.191,34.180,239.746
1678024297.372,33.691,-59.570,-96.191,38.086,383.789
1678024297.376,31.738,-63.477,-100.098,-4.883,3.906
1678024297.380,26.367,-64.453,-101.562,-10.254,-130.371
1678024297.384,39.062,-61.523,-103.516,39.062,60.059
1678024297.388,57.617,-62.500,-98.633,81.055,40.039
1678024297.375,69.824,-60.547,-93.262,72.266,-157.715
1678024297.379,67.871,-61.523,-91.797,28.809,-136.719
1678024297.383,58.594,-65.918,-89.355,20.508,-35.156
1678024297.387,61.035,-62.988,-87.402,61.035,-39.551
1678024297.391,77.637,-57.617,-84.473,100.586,-84.473
1678024297.395,94.238,-48.828,-76.660,92.773,5.859
1678024297.399,93.262,-45.410,-76.660,47.363,35.645
1678024297.402,78.613,-51.270,-85.938,31.250,-66.406
1678024297.406,70.312,-49.316,-89.355,53.711,-210.449
1678024297.410,82.031,-51.758,-83.496,101.074,-86.426
1678024297.414,94.238,-56.641,-82.520,113.281,319.824
1678024297.418,83.984,-58.105,-86.426,62.988,125.977
1678024297.420,60.059,-59.082,-83.984,30.273,-242.188
1678024297.424,57.129,-53.223,-78.613,54.688,-149.902
1678024297.428,68.848,-51.758,-80.566,90.332,-57.129
1678024297.432,75.684,-54.199,-80.078,91.797,-88.867
1678024297.436,70.801,-48.828,-73.730,57.129,-119.141
1678024297.440,62.012,-46.387,-70.801,33.691,5.859
1678024297.444,60.547,-47.363,-71.289,49.316,-4.883
1678024297.447,59.082,-49.805,-70.801,75.684,-77.148
1678024297.451,62.988,-47.852,-68.359,87.891,-26.855
1678024297.455,63.965,-45.410,-65.918,63.477,109.863
1678024297.459,45.898,-48.828,-65.918,25.391,200.195
1678024297.463,29.785,-48.340,-67.871,25.879,-122.070
1678024297.480,39.062,-44.434,-63.965,61.035,-164.551
1678024297.484,53.223,-45.410,-58.594,75.195,11.230
1678024297.488,51.758,-44.434,-58.594,43.457,-52.734
1678024297.492,37.109,-41.504,-56.641,10.742,-187.988
1678024297.496,24.414,-40.039,-53.223,18.066,-162.109
1678024297.500,22.461,-38.574,-55.176,52.246,68.359
1678024297.504,38.574,-38.574,-55.176,65.918,46.875
1678024297.507,46.875,-37.598,-56.152,40.527,-139.648
1678024297.511,30.762,-38.086,-59.082,9.277,-94.727
1678024297.515,15.625,-40.527,-57.617,2.930,35.156
1678024297.519,12.695,-42.969,-60.059,17.090,-85.449
1678024297.523,23.926,-42.480,-62.500,33.691,-163.574
1678024297.526,33.691,-42.969,-56.641,22.949,-67.871
1678024297.530,24.414,-46.875,-54.199,-13.672,-119.629
1678024297.534,7.324,-46.387,-54.688,-22.949,-181.152
1678024297.538,1.953,-45.410,-53.223,7.324,-132.812
1678024297.542,14.648,-47.852,-50.293,40.527,11.719
1678024297.546,26.367,-46.387,-48.828,29.297,133.789
1678024297.550,13.672,-45.898,-52.734,-14.160,32.715
1678024297.553,-3.418,-52.246,-57.129,-32.227,-41.992
1678024297.557,-11.230,-53.223,-52.734,1.465,129.883
1678024297.561,-6.348,-47.852,-51.758,27.832,265.625
1678024297.565,-1.953,-47.852,-54.688,9.766,-43.457
1678024297.569,-19.043,-47.363,-53.223,-20.996,-255.859
1678024297.570,-31.250,-47.363,-53.711,-40.039,-142.578
1678024297.574,-31.250,-43.945,-56.152,-28.320,-138.184
1678024297.578,-18.555,-39.551,-54.199,2.441,-188.477
1678024297.582,-6.348,-42.969,-50.781,6.836,-144.043
1678024297.586,-13.184,-41.992,-51.270,-26.855,-89.844
1678024297.590,-20.996,-41.016,-49.316,-41.504,9.277
1678024297.594,-27.344,-42.480,-47.363,-22.949,-33.691
1678024297.597,-26.855,-45.410,-48.340,2.930,-36.133
1678024297.601,-7.812,-52.734,-47.363,23.926,229.492
1678024297.605,10.742,-41.504,-49.316,-4.883,118.164
1678024297.609,-9.277,-24.902,-45.898,-60.547,-204.102
1678024297.613,-24.902,-30.273,-46.387,-58.105,-97.656
1678024297.615,-13.184,-35.156,-53.711,-10.254,-68.848
1678024297.619,-7.324,-34.180,-59.082,-0.488,-152.832
1678024297.623,-11.719,-34.180,-64.453,-34.668,-148.926
1678024297.627,-24.902,-37.109,-62.988,-63.965,-112.793
1678024297.631,-35.156,-34.668,-59.570,-54.199,-126.465
1678024297.635,-29.785,-32.715,-55.664,-16.602,-6.836
1678024297.639,-14.160,-37.109,-51.758,-12.207,5.859
1678024297.642,-12.207,-34.668,-44.922,-38.086,102.539
1678024297.646,-26.367,-31.738,-42.969,-57.617,455.078
1678024297.650,-38.086,-33.203,-52.246,-59.082,190.918
1678024297.654,-27.344,-33.203,-48.828,-22.949,-144.043
1678024297.658,-8.301,-29.297,-45.410,-2.930,-96.191
1678024297.660,-6.836,-32.715,-52.246,-31.738,-122.070
1678024297.664,-27.344,-32.715,-56.641,-53.223,-217.285
1678024297.668,-51.758,-33.203,-56.152,-49.316,-184.570
1678024297.672,-51.270,-36.621,-48.340,-18.066,-76.172
1678024297.676,-32.715,-37.109,-44.922,4.395,-101.074
1678024297.680,-30.273,-31.738,-47.852,-22.949,-81.055
1678024297.684,-41.016,-30.273,-45.898,-59.082,43.945
1678024297.687,-49.316,-30.762,-45.410,-52.734,155.762
1678024297.691,-54.688,-33.203,-48.340,-28.809,18.066
1678024297.695,-41.504,-38.574,-43.457,-8.789,-68.848
1678024297.699,-35.156,-38.574,-41.016,-21.484,32.715
1678024297.703,-48.828,-38.086,-39.551,-60.059,-9.766
1678024297.705,-56.152,-36.621,-37.109,-69.336,-182.129
1678024297.709,-56.641,-34.668,-39.551,-46.875,-199.707
1678024297.713,-41.504,-39.551,-41.992,-19.043,-46.875
1678024297.717,-36.133,-41.992,-45.410,-29.297,-41.016
1678024297.721,-45.410,-37.109,-43.457,-60.547,-147.461
1678024297.725,-53.223,-41.016,-42.969,-68.359,-121.582
1678024297.729,-55.664,-46.875,-46.387,-45.410,133.789
1678024297.732,-49.316,-48.340,-45.898,-13.672,250.000
1678024297.736,-43.457,-49.805,-45.898,-31.738,-96.191
1678024297.740,-43.457,-45.410,-43.457,-71.777,-158.203
1678024297.744,-52.246,-43.457,-41.504,-82.520,20.996
1678024297.748,-50.781,-41.992,-37.598,-57.129,41.016
1678024297.751,-40.527,-41.992,-36.133,-29.785,-38.086
1678024297.755,-33.691,-42.480,-42.969,-34.180,-98.145
1678024297.759,-38.086,-41.016,-40.527,-64.941,-54.688
1678024297.763,-47.852,-46.387,-36.621,-80.078,-89.355
1678024297.767,-48.340,-42.969,-41.016,-55.664,-167.480
1678024297.771,-40.527,-40.527,-40.039,-25.391,-26.855
1678024297.775,-31.738,-43.945,-40.039,-23.438,127.441
1678024297.778,-35.156,-42.969,-40.039,-51.758,-74.219
1678024297.782,-47.852,-38.574,-37.598,-74.707,-258.789
1678024297.786,-49.316,-36.133,-35.645,-56.152,-201.660
1678024297.790,-38.574,-39.062,-35.645,-22.461,-208.008
1678024297.794,-31.250,-41.992,-43.457,-16.602,-231.445
1678024297.796,-33.203,-39.551,-44.434,-43.457,-184.082
1678024297.800,-49.316,-36.621,-39.062,-65.918,-79.102
1678024297.804,-59.570,-36.133,-37.598,-53.711,-60.547
1678024297.808,-38.086,-35.156,-37.598,-11.719,-102.051
1678024297.812,-15.625,-29.297,-39.062,0.977,-56.152
1678024297.816,-24.902,-30.273,-41.504,-30.762,142.090
1678024297.820,-40.527,-35.156,-38.086,-59.082,212.891
1678024297.823,-41.992,-29.785,-35.156,-53.711,-40.527
1678024297.827,-35.156,-29.785,-33.691,-21.484,-108.398
1678024297.831,-26.855,-27.344,-27.832,4.883,131.348
1678024297.835,-20.996,-26.367,-29.297,-8.789,167.969
1678024297.839,-27.344,-29.785,-35.156,-53.223,-125.000
1678024297.855,-40.527,-26.855,-31.738,-49.316,-133.789
1678024297.859,-39.062,-24.414,-29.785,-16.602,-69.336
1678024297.863,-23.438,-25.879,-29.785,2.930,-62.500
1678024297.867,-19.043,-28.320,-30.762,-15.625,-125.488
1678024297.871,-32.227,-29.785,-30.273,-59.082,-79.102
1678024297.875,-43.945,-28.320,-30.762,-61.523,140.625
1678024297.879,-41.504,-29.297,-33.691,-26.855,67.383
1678024297.882,-31.738,-31.250,-30.762,-0.488,-101.562
1678024297.886,-20.020,-32.227,-26.367,-12.695,-19.531
1678024297.890,-21.484,-32.227,-33.691,-51.270,31.738
1678024297.894,-44.434,-31.738,-39.062,-66.895,-104.980
1678024297.898,-44.922,-31.738,-33.203,-37.598,-200.195
1678024297.900,-27.344,-32.715,-32.715,-12.207,-160.645
1678024297.904,-19.531,-30.762,-31.250,-24.902,-70.801
1678024297.908,-25.879,-27.344,-28.320,-57.617,-89.355
1678024297.912,-41.992,-30.273,-26.367,-70.312,-188.965
1678024297.916,-46.387,-28.809,-28.809,-46.387,-154.297
1678024297.920,-38.086,-27.832,-34.180,-8.789,-24.902
1678024297.924,-32.227,-35.645,-38.086,-11.230,-14.160
1678024297.927,-36.621,-39.062,-39.062,-55.176,23.926
1678024297.931,-51.270,-39.551,-37.598,-73.242,154.297
1678024297.935,-62.500,-37.598,-37.109,-49.805,362.305
1678024297.939,-51.758,-32.227,-37.109,-22.461,168.457
1678024297.943,-40.039,-32.227,-34.180,-19.043,-125.000
1678024297.945,-41.992,-32.715,-33.691,-52.246,-109.863
1678024297.949,-57.617,-34.668,-34.180,-72.266,-116.211
1678024297.953,-71.289,-39.062,-36.621,-56.152,-182.129
1678024297.957,-60.059,-38.086,-40.039,-28.320,-178.223
1678024297.961,-42.480,-37.109,-36.133,-20.996,-6.348
1678024297.965,-44.922,-31.738,-36.621,-51.758,-20.996
1678024297.969,-62.012,-29.785,-39.551,-87.402,-117.676
1678024297.972,-71.777,-33.203,-37.598,-75.684,-64.453
1678024297.976,-63.477,-34.668,-39.551,-24.902,193.359
1678024297.980,-49.805,-36.621,-39.551,-9.766,162.598
1678024297.984,-47.363,-35.645,-38.086,-48.340,-130.859
1678024297.988,-57.617,-28.809,-35.645,-80.078,-94.727
1678024297.990,-67.871,-30.273,-37.109,-67.383,-19.043
1678024297.994,-53.711,-28.809,-37.598,-35.156,-71.289
1678024297.998,-38.086,-23.926,-36.133,-16.113,-15.137
1678024298.002,-42.480,-28.320,-38.574,-36.621,8.789
1678024298.006,-46.875,-32.715,-40.039,-71.289,-80.078
1678024298.010,-54.688,-36.621,-36.621,-66.895,-86.426
1678024298.014,-57.617,-39.551,-35.156,-29.297,-115.234
1678024298.017,-42.480,-39.551,-36.133,-10.742,80.566
1678024298.021,-34.668,-38.574,-34.180,-35.645,355.469
1678024298.025,-42.969,-35.645,-28.809,-73.242,-67.383
1678024298.029,-54.688,-38.086,-32.227,-70.312,-281.250
1678024298.033,-55.176,-39.551,-35.645,-32.715,-100.098
1678024298.035,-43.457,-36.133,-39.551,-14.648,-100.586
1678024298.039,-30.762,-31.738,-42.480,-29.785,-137.207
1678024298.043,-39.062,-30.273,-37.598,-60.547,-171.875
1678024298.047,-63.477,-33.691,-33.691,-72.754,-139.648
1678024298.051,-65.918,-37.109,-35.156,-45.898,-99.121
1678024298.055,-49.805,-35.156,-39.062,-22.461,-20.508
1678024298.059,-40.527,-34.668,-34.668,-33.691,136.230
1678024298.062,-57.129,-41.504,-37.109,-70.801,234.375
1678024298.066,-69.336,-39.062,-39.062,-90.820,24.414
1678024298.070,-59.570,-36.621,-30.273,-57.617,-146.973
1678024298.074,-50.293,-35.156,-29.297,-17.090,-78.125
1678024298.078,-37.109,-30.762,-31.738,-24.902,-73.242
1678024298.081,-41.016,-31.738,-33.203,-65.918,-124.023
1678024298.085,-62.012,-36.621,-35.156,-89.355,-181.152
1678024298.089,-64.941,-36.133,-34.180,-68.359,-34.668
1678024298.093,-50.293,-33.691,-35.156,-40.527,-7.324
1678024298.097,-35.156,-39.551,-37.598,-39.551,-86.914
1678024298.101,-41.016,-44.434,-38.086,-64.941,-65.430
1678024298.105,-55.176,-39.062,-36.621,-80.078,132.812
1678024298.108,-58.594,-38.086,-36.621,-56.641,341.797
1678024298.112,-45.898,-38.574,-35.156,-20.996,57.129
1678024298.116,-30.762,-35.645,-31.250,-17.578,-77.637
1678024298.120,-33.203,-35.645,-29.297,-52.734,83.008
1678024298.124,-49.316,-37.109,-32.227,-81.055,33.203
1678024298.125,-50.781,-38.086,-35.156,-73.730,-165.527
1678024298.129,-43.457,-36.133,-36.133,-41.016,-117.188
1678024298.133,-34.180,-33.203,-30.762,-23.438,-48.340
1678024298.137,-26.855,-36.133,-26.367,-45.898,-44.434
1678024298.141,-35.645,-30.762,-29.297,-77.148,-97.168
1678024298.145,-55.664,-34.668,-31.738,-66.406,-67.383
1678024298.149,-58.594,-38.574,-36.621,-19.531,302.734
1678024298.152,-35.645,-26.855,-28.320,-11.230,266.113
1678024298.156,-39.551,-23.926,-27.832,-54.688,-129.883
1678024298.160,-61.523,-31.250,-28.809,-89.355,-84.961
1678024298.164,-72.266,-30.762,-22.949,-92.773,-44.922
1678024298.168,-72.754,-28.809,-23.926,-55.664,-86.426
1678024298.170,-70.801,-25.879,-16.113,-41.016,-28.809
1678024298.174,-80.078,-20.020,-10.254,-86.914,-14.160
1678024298.178,-106.445,-8.789,-7.324,-137.695,-104.004
1678024298.182,-158.691,-0.977,-2.930,-169.434,-169.434
1678024298.186,-201.172,7.324,9.277,-175.781,-140.625
1678024298.190,-229.004,22.461,14.160,-200.684,-27.344
1678024298.194,-270.020,20.996,10.742,-268.066,67.871
1678024298.197,-308.594,24.902,16.113,-330.078,73.242
1678024298.201,-336.426,20.996,20.996,-342.285,-64.453
1678024298.205,-338.867,21.973,26.855,-306.152,32.715
1678024298.209,-328.125,24.902,28.320,-285.645,346.680
1678024298.213,-322.266,18.066,20.996,-312.500,111.328
1678024298.230,-316.406,23.926,20.996,-341.797,-147.461
1678024298.234,-321.777,19.043,20.020,-347.168,-143.555
1678024298.238,-318.359,11.719,18.555,-305.176,-131.836
1678024298.242,-301.758,8.301,15.625,-258.301,-117.188
1678024298.246,-279.785,7.812,15.137,-257.324,-41.016
1678024298.250,-269.531,7.812,10.742,-280.273,4.883
1678024298.254,-262.695,1.953,9.277,-274.414,-79.590
1678024298.257,-246.582,-2.930,12.695,-230.957,-157.715
1678024298.261,-225.586,-5.859,5.859,-187.988,-27.832
1678024298.265,-203.613,-15.137,-7.812,-179.199,300.293
1678024298.269,-190.430,-28.320,-15.625,-203.125,71.289
1678024298.273,-181.152,-30.273,-20.508,-198.730,-215.332
1678024298.275,-174.316,-28.320,-31.738,-157.715,-117.676
1678024298.279,-145.508,-29.297,-43.945,-108.398,-58.594
1678024298.283,-108.398,-33.203,-41.992,-84.473,-86.426
1678024298.287,-105.469,-39.551,-39.551,-111.816,-95.703
1678024298.291,-111.328,-44.434,-40.039,-127.441,-58.594
1678024298.295,-106.934,-49.316,-40.039,-83.008,-42.480
1678024298.299,-88.379,-51.758,-39.551,-40.527,-26.855
1678024298.302,-62.012,-52.734,-41.992,-40.527,-65.918
1678024298.306,-52.246,-55.176,-46.875,-64.453,65.918
1678024298.310,-54.199,-56.152,-52.734,-69.824,198.242
1678024298.314,-43.945,-51.758,-53.223,-42.969,19.043
1678024298.318,-28.809,-51.270,-52.246,-0.977,-45.898
1678024298.320,-13.184,-49.316,-55.664,11.719,-1.465
1678024298.324,-5.371,-48.340,-57.617,-19.043,-101.562
1678024298.328,-16.113,-50.293,-58.105,-41.016,-195.312
1678024298.332,-21.484,-48.828,-58.105,-24.902,-114.746
1678024298.336,-5.371,-47.363,-50.781,25.879,-95.215
1678024298.340,16.113,-46.875,-47.852,52.246,-34.180
1678024298.344,14.648,-46.387,-57.129,20.508,6.348
1678024298.347,1.465,-47.363,-60.059,-10.254,-73.242
1678024298.351,-0.488,-49.805,-58.105,3.418,100.098
1678024298.355,8.789,-52.246,-60.059,38.086,44.922
1678024298.359,27.832,-55.176,-62.012,58.594,-142.090
1678024298.363,37.598,-52.246,-62.988,42.969,-105.469
1678024298.366,32.715,-44.922,-61.523,21.484,-161.133
1678024298.370,25.391,-45.898,-64.941,20.508,-216.797
1678024298.374,34.180,-46.875,-64.453,42.969,-210.938
1678024298.378,48.340,-40.527,-58.105,73.242,-10.254
1678024298.382,50.781,-37.598,-58.105,47.852,64.941
1678024298.386,43.945,-41.016,-59.570,7.812,-57.129
1678024298.390,26.367,-43.457,-57.617,19.531,-69.824
1678024298.393,21.973,-46.387,-55.664,62.012,90.332
1678024298.397,35.156,-49.805,-58.594,91.797,293.457
1678024298.401,52.734,-51.270,-58.594,73.242,33.691
1678024298.405,54.688,-50.293,-54.688,40.527,-138.672
1678024298.409,35.645,-49.316,-57.129,33.203,-118.164
1678024298.410,30.762,-54.199,-62.012,62.500,-130.859
1678024298.414,44.922,-56.641,-62.012,89.355,-128.418
1678024298.418,53.711,-54.688,-52.734,75.195,-104.004
1678024298.422,47.363,-51.758,-50.293,40.527,-23.438
1678024298.426,36.621,-49.316,-56.152,30.762,-63.477
1678024298.430,29.297,-52.246,-55.664,74.219,-74.219
1678024298.434,40.527,-54.199,-50.781,112.793,-38.086
1678024298.437,56.641,-47.852,-45.898,104.004,205.078
1678024298.441,54.199,-45.898,-46.387,53.711,174.805
1678024298.445,42.480,-45.898,-42.480,33.691,-238.770
1678024298.449,37.598,-44.922,-42.480,56.152,-181.152
1678024298.453,44.434,-48.828,-46.875,84.473,-65.430
1678024298.455,52.246,-44.434,-47.852,94.238,-97.656
1678024298.459,53.223,-39.551,-47.852,49.805,-133.789
1678024298.463,44.434,-37.598,-43.457,21.973,-110.352
1678024298.467,35.645,-31.250,-43.945,45.410,-60.547
1678024298.471,41.992,-31.250,-46.875,80.566,-38.574
1678024298.475,46.387,-38.086,-45.898,67.871,-1.465
1678024298.479,43.945,-40.039,-45.898,25.391,165.039
1678024298.482,34.180,-37.109,-42.969,3.418,203.125
1678024298.486,15.625,-36.621,-38.574,16.113,11.719
1678024298.490,13.184,-35.156,-38.086,55.664,-147.949
1678024298.494,34.180,-29.785,-39.551,75.195,14.160
1678024298.498,43.457,-31.250,-39.062,45.410,137.207
1678024298.500,23.438,-29.785,-36.621,3.418,-148.926
1678024298.504,7.324,-33.691,-34.668,11.230,-110.840
1678024298.508,13.184,-40.527,-40.039,46.875,-22.949
1678024298.512,21.973,-38.574,-41.016,57.129,-45.898
1678024298.516,15.137,-40.039,-39.062,25.391,-141.602
1678024298.520,-5.371,-42.969,-41.016,-12.695,-99.121
1678024298.524,-17.090,-44.434,-42.969,-7.324,93.262
1678024298.527,-7.812,-42.969,-42.969,21.973,-16.602
1678024298.531,3.906,-40.527,-41.504,38.086,-138.672
1678024298.535,12.695,-37.598,-37.109,18.066,-16.602
1678024298.539,13.184,-36.133,-33.203,-19.043,88.867
1678024298.543,-2.441,-34.668,-37.598,-23.438,-61.523
1678024298.560,-8.789,-31.250,-38.574,15.625,-137.207
1678024298.564,4.883,-33.691,-35.645,39.551,-52.734
1678024298.568,11.719,-36.621,-37.109,9.766,-25.879
1678024298.572,3.906,-38.086,-36.621,-21.484,-104.492
1678024298.576,-11.719,-42.480,-40.039,-25.879,-188.965
1678024298.580,-8.789,-40.039,-38.574,5.371,-80.078
1678024298.584,9.277,-36.621,-37.109,40.039,68.848
1678024298.587,11.230,-33.691,-37.109,18.555,64.941
1678024298.591,1.465,-34.180,-32.227,-27.832,-44.434
1678024298.595,-8.301,-41.016,-36.133,-37.109,21.973
1678024298.599,-15.137,-39.062,-39.551,-10.254,284.180
1678024298.603,-11.230,-41.504,-42.969,13.672,51.270
1678024298.605,-6.836,-40.039,-44.434,4.395,-178.223
1678024298.609,-10.742,-32.715,-42.969,-35.645,-93.262
1678024298.613,-22.949,-30.273,-42.480,-49.316,-133.789
1678024298.617,-29.785,-26.855,-41.992,-19.043,-221.191
1678024298.621,-17.578,-30.273,-40.527,14.160,-121.582
1678024298.625,-6.348,-31.738,-41.504,15.625,40.527
1678024298.629,-9.277,-28.320,-42.969,-28.809,15.137
1678024298.632,-25.391,-30.762,-36.621,-54.199,-120.605
1678024298.636,-34.180,-31.250,-31.738,-30.273,-104.980
1678024298.640,-22.949,-34.180,-34.668,0.000,111.816
1678024298.644,-13.184,-40.527,-34.180,0.000,-4.395
1678024298.648,-19.531,-40.039,-31.250,-41.992,-180.664
1678024298.650,-26.367,-38.086,-33.203,-60.059,7.324
1678024298.654,-29.297,-35.156,-31.250,-29.297,13.184
1678024298.658,-28.320,-37.109,-30.273,-2.441,-146.973
1678024298.662,-19.043,-37.598,-28.320,4.395,-100.586
1678024298.666,-22.949,-39.062,-31.250,-29.785,-25.391
1678024298.670,-36.133,-37.598,-32.227,-64.941,29.785
1678024298.674,-47.363,-35.645,-31.250,-50.293,-75.195
1678024298.677,-38.574,-33.691,-33.203,-11.719,-72.266
1678024298.681,-23.438,-28.320,-28.320,10.254,172.363
1678024298.685,-28.809,-29.297,-26.855,-11.719,292.969
1678024298.689,-36.621,-30.273,-31.250,-62.500,-53.711
1678024298.693,-43.457,-34.668,-32.715,-58.105,-194.336
1678024298.695,-34.180,-39.062,-29.785,-3.418,-65.430
1678024298.699,-15.137,-36.621,-25.879,12.695,-127.930
1678024298.703,-12.207,-37.109,-23.438,-16.113,-147.949
1678024298.707,-25.879,-35.645,-23.438,-48.340,-61.523
1678024298.711,-34.668,-30.762,-24.902,-47.363,43.945
1678024298.715,-21.484,-28.809,-22.949,-7.324,116.699
1678024298.719,-8.789,-27.832,-21.484,25.879,68.848
1678024298.722,-9.277,-27.832,-21.484,8.301,-27.832
1678024298.726,-20.020,-34.180,-25.391,-35.645,66.406
1678024298.730,-25.879,-30.273,-26.855,-44.922,-21.484
1678024298.734,-20.020,-20.996,-27.832,-17.090,-181.641
1678024298.738,-2.930,-24.902,-25.879,27.832,-142.578
1678024298.740,-5.371,-27.344,-16.602,15.137,-114.258
1678024298.744,-34.180,-23.926,-18.555,-46.387,-144.531
1678024298.748,-41.504,-27.832,-24.414,-55.176,-187.012
1678024298.752,-39.551,-36.133,-23.438,-19.531,-120.605
1678024298.756,-32.715,-35.156,-18.555,5.371,-51.270
1678024298.760,-20.996,-29.785,-21.484,-11.719,-37.598
1678024298.764,-30.762,-35.156,-26.855,-59.570,-81.055
1678024298.767,-39.551,-36.133,-27.832,-67.871,55.664
1678024298.771,-37.598,-30.273,-26.855,-18.555,426.758
1678024298.775,-30.273,-35.645,-27.344,17.578,212.402
1678024298.779,-16.602,-36.621,-32.715,11.230,-142.090
1678024298.783,-19.043,-31.250,-38.086,-31.738,-108.398
1678024298.785,-32.715,-28.809,-33.203,-57.617,-134.766
1678024298.789,-39.062,-29.297,-34.668,-33.203,-171.875
1678024298.793,-32.227,-34.180,-42.480,2.930,-84.473
1678024298.797,-24.414,-37.109,-39.062,3.418,-28.809
1678024298.801,-26.855,-36.621,-36.133,-44.922,-76.172
1678024298.805,-42.480,-36.621,-38.574,-77.637,-83.008
1678024298.809,-52.734,-36.133,-40.527,-54.688,-33.203
1678024298.812,-43.945,-36.133,-39.551,-12.207,215.820
1678024298.816,-26.855,-36.621,-35.156,-7.324,177.246
1678024298.820,-18.066,-34.668,-31.250,-51.270,-168.945
1678024298.824,-32.715,-35.156,-29.785,-78.125,-145.996
1678024298.828,-37.598,-34.180,-30.273,-59.570,-62.012
1678024298.830,-33.203,-33.691,-33.203,-18.555,-132.324
1678024298.834,-23.926,-36.621,-27.344,-0.488,-131.836
1678024298.838,-14.648,-38.574,-24.414,-41.016,-85.938
1678024298.842,-24.902,-42.969,-27.344,-67.871,-64.941
1678024298.846,-36.621,-39.062,-27.832,-49.805,-102.539
1678024298.850,-29.297,-38.086,-33.203,-22.949,-85.449
1678024298.854,-14.160,-38.086,-33.203,-4.883,245.117
1678024298.857,-9.277,-31.738,-24.414,-22.461,373.535
1678024298.861,-20.508,-33.203,-26.855,-62.012,-39.551
1678024298.865,-33.691,-35.645,-33.691,-69.336,-237.305
1678024298.869,-32.715,-31.738,-32.715,-22.949,95.215
1678024298.873,-17.090,-27.344,-31.738,0.000,136.230
1678024298.875,-6.348,-26.367,-32.227,-32.715,-127.930
1678024298.879,-22.461,-32.715,-32.715,-68.359,-135.742
1678024298.883,-36.133,-29.297,-32.227,-66.406,-148.438
1678024298.887,-34.668,-21.484,-28.809,-30.762,-112.793
1678024298.891,-28.320,-25.391,-26.367,-2.930,-88.867
1678024298.895,-20.020,-29.785,-20.996,-18.555,26.367
1678024298.899,-26.855,-26.855,-18.066,-57.617,241.211
1678024298.902,-37.598,-26.367,-21.973,-69.336,62.500
1678024298.906,-40.527,-23.438,-26.367,-38.574,-187.988
1678024298.910,-28.809,-19.043,-27.832,-8.789,-66.895
1678024298.914,-22.949,-19.531,-26.367,-21.973,-18.066
1678024298.918,-35.156,-20.996,-27.832,-55.664,-129.395
1678024298.921,-40.039,-17.090,-26.855,-60.059,-44.434
1678024298.925,-41.016,-16.602,-24.414,-20.020,63.477
1678024298.929,-40.527,-24.902,-27.344,9.277,92.285
1678024298.933,-34.180,-25.391,-30.273,-8.301,-62.012
1678024298.937,-37.598,-21.484,-30.273,-53.711,-165.527
1678024298.941,-48.340,-20.996,-30.762,-72.754,-60.547
1678024298.945,-48.340,-22.949,-30.273,-41.016,6.836
1678024298.948,-40.039,-25.391,-30.762,-2.930,93.750
1678024298.952,-37.598,-23.926,-36.621,-18.066,10.742
1678024298.956,-41.992,-25.879,-38.086,-58.105,39.551
1678024298.960,-48.828,-28.320,-36.621,-66.895,214.355
1678024298.964,-53.711,-27.344,-36.133,-52.246,-31.738
1678024298.981,-38.086,-26.367,-28.320,-16.602,-117.676
1678024298.985,-19.531,-29.297,-27.832,-13.672,-57.129
1678024298.989,-20.020,-29.297,-34.180,-50.293,-89.844
1678024298.993,-32.227,-27.832,-33.691,-68.359,-193.848
1678024298.997,-41.016,-30.273,-32.227,-40.527,-104.492
1678024299.001,-29.785,-34.180,-31.738,-1.953,144.043
1678024299.005,-20.508,-34.180,-28.809,-0.488,83.008
1678024299.008,-29.785,-31.250,-29.297,-33.691,-108.398
1678024299.012,-37.109,-30.273,-26.855,-59.570,-101.562
1678024299.016,-47.852,-29.785,-21.973,-39.551,71.289
1678024299.020,-46.387,-35.645,-23.926,-7.324,0.000
1678024299.024,-25.391,-41.016,-26.367,-3.418,-79.102
1678024299.025,-22.461,-38.574,-26.367,-38.574,-74.707
1678024299.029,-38.574,-37.598,-25.391,-68.848,-102.539
1678024299.033,-49.316,-34.180,-24.414,-60.059,-201.172
1678024299.037,-44.434,-28.809,-24.902,-24.414,-189.453
1678024299.041,-30.762,-32.227,-24.414,0.000,-42.969
1678024299.045,-28.809,-34.180,-25.879,-26.855,-17.578
1678024299.049,-40.039,-27.832,-27.344,-61.035,-93.262
1678024299.052,-50.781,-28.320,-30.273,-52.734,-104.980
1678024299.056,-42.969,-27.344,-31.250,-18.066,72.754
1678024299.060,-25.879,-26.367,-26.855,8.789,390.137
1678024299.064,-22.949,-27.832,-27.832,-14.648,239.746
1678024299.068,-24.414,-24.414,-28.320,-46.387,-118.164
1678024299.070,-35.645,-20.020,-27.344,-43.457,-146.484
1678024299.074,-45.898,-23.926,-29.297,-12.207,-120.605
1678024299.078,-30.273,-26.855,-30.762,12.695,-140.625
1678024299.082,-16.602,-18.066,-28.809,-7.812,-107.910
1678024299.086,-20.020,-16.113,-28.320,-45.410,-59.082
1678024299.090,-28.809,-12.695,-27.832,-47.852,-96.191
1678024299.094,-28.809,-13.184,-23.926,-8.301,-164.062
1678024299.097,-15.137,-25.391,-25.391,16.602,-149.414
1678024299.101,0.977,-24.902,-25.879,9.277,234.863
1678024299.105,-10.742,-26.855,-27.832,-29.297,160.645
1678024299.109,-33.691,-30.762,-30.273,-48.828,-172.852
1678024299.113,-35.156,-25.879,-29.297,-17.090,-66.406
1678024299.115,-24.414,-27.344,-25.879,14.648,-19.531
1678024299.119,-10.254,-26.367,-24.414,2.930,-88.867
1678024299.123,-19.043,-24.414,-26.367,-40.527,-111.328
1678024299.127,-39.062,-27.344,-24.902,-52.734,-97.168
1678024299.131,-46.387,-33.691,-24.902,-22.461,-106.445
1678024299.135,-38.574,-37.598,-22.949,5.859,0.488
1678024299.139,-24.414,-36.133,-28.320,-12.207,10.742
1678024299.142,-23.926,-32.227,-26.367,-39.062,175.293
1678024299.146,-27.832,-24.902,-17.090,-47.852,333.008
1678024299.150,-23.438,-15.137,-13.184,-33.691,4.883
1678024299.154,-20.508,-16.602,-14.160,-4.883,-151.855
1678024299.158,-15.625,-30.762,-16.602,2.441,-76.172
1678024299.160,-26.855,-30.273,-13.672,-35.156,-96.191
1678024299.164,-57.129,-18.555,-9.766,-79.102,-208.984
1678024299.168,-64.453,-20.020,-6.836,-62.988,-167.969
1678024299.172,-68.848,-21.484,0.977,-33.691,-114.258
1678024299.176,-105.957,-21.484,18.066,-56.152,-126.465
1678024299.180,-162.109,-14.160,23.926,-142.090,-100.586
1678024299.184,-198.242,-8.789,32.715,-205.078,-53.711
1678024299.187,-251.465,-5.859,41.992,-225.098,120.605
1678024299.191,-295.410,0.000,44.922,-245.117,3.906
1678024299.195,-314.941,-0.977,62.988,-262.695,-188.965
1678024299.199,-330.566,8.301,75.684,-298.828,-132.324
1678024299.203,-342.773,10.254,78.125,-335.938,-96.191
1678024299.205,-351.074,1.953,70.312,-324.707,-118.652
1678024299.209,-334.473,8.789,71.289,-290.527,-169.922
1678024299.213,-325.684,8.301,81.055,-262.695,-34.668
1678024299.217,-317.383,2.930,78.125,-267.090,49.316
1678024299.221,-306.152,4.883,71.777,-301.270,-125.000
1678024299.225,-313.965,-5.371,70.801,-291.016,-178.711
1678024299.229,-317.871,-14.160,71.289,-243.652,136.230
1678024299.232,-300.293,-14.648,62.012,-210.449,320.312
1678024299.236,-273.438,-15.625,57.617,-221.191,-55.664
1678024299.240,-273.438,-25.879,56.152,-257.812,-210.449
1678024299.244,-286.133,-26.855,53.223,-250.977,-95.703
1678024299.248,-264.648,-20.996,56.641,-199.707,-79.102
1678024299.251,-242.676,-28.809,51.270,-179.199,-172.363
1678024299.255,-232.910,-31.250,45.410,-187.500,-142.090
1678024299.259,-231.445,-35.156,35.156,-213.867,-57.129
1678024299.263,-230.957,-41.504,32.715,-221.680,-99.121
1678024299.267,-223.633,-41.016,38.574,-181.152,-147.461
1678024299.271,-207.520,-37.598,33.203,-150.879,-78.125
1678024299.275,-186.523,-43.457,24.414,-152.344,190.918
1678024299.278,-172.363,-50.293,19.531,-166.504,107.910
1678024299.282,-162.598,-45.410,17.090,-174.316,-143.555
1678024299.286,-158.691,-41.992,6.836,-150.391,0.488
1678024299.290,-144.531,-50.781,0.488,-116.211,22.461
1678024299.294,-107.910,-53.711,4.883,-106.934,-106.445
1678024299.310,-93.750,-52.246,0.488,-123.047,-112.305
1678024299.314,-96.680,-48.340,-9.277,-130.859,-54.199
1678024299.318,-92.773,-51.270,-20.996,-100.098,-41.992
1678024299.322,-78.125,-57.617,-29.297,-57.617,-42.480
1678024299.326,-63.477,-50.293,-35.645,-41.504,-52.734
1678024299.330,-56.641,-43.457,-44.922,-70.312,103.516
1678024299.334,-49.805,-49.316,-49.316,-91.309,196.289
1678024299.337,-60.059,-50.781,-57.129,-61.523,-4.883
1678024299.341,-53.711,-49.805,-61.035,-22.461,-168.945
1678024299.345,-27.344,-47.363,-67.871,-15.137,-4.883
1678024299.349,-15.625,-46.387,-75.195,-40.039,109.375
1678024299.353,-7.812,-44.922,-76.172,-65.430,-162.109
1678024299.355,-9.277,-40.527,-80.078,-47.363,-179.199
1678024299.359,-7.812,-41.992,-85.449,0.488,-93.262
1678024299.363,13.184,-39.062,-89.844,22.461,-50.781
1678024299.367,28.809,-32.715,-90.820,-1.953,-102.539
1678024299.371,19.531,-32.227,-91.797,-25.879,-97.656
1678024299.375,15.625,-33.203,-96.680,-5.371,-26.855
1678024299.379,36.621,-29.785,-101.074,40.527,-13.672
1678024299.382,58.105,-27.832,-104.004,44.922,-12.207
1678024299.386,62.500,-24.902,-104.004,14.648,-27.344
1678024299.390,55.176,-24.414,-104.004,1.953,228.516
1678024299.394,53.223,-24.902,-108.398,25.879,201.172
1678024299.398,66.895,-28.320,-106.934,68.848,-65.918
1678024299.400,86.426,-27.832,-98.633,86.914,39.551
1678024299.404,94.727,-26.855,-101.074,63.477,22.461
1678024299.408,99.121,-32.227,-100.586,35.645,-101.562
1678024299.412,83.984,-30.762,-99.121,37.598,-144.531
1678024299.416,73.730,-28.809,-100.586,72.754,-30.273
1678024299.420,93.262,-28.320,-101.074,103.027,116.699
1678024299.424,101.562,-26.855,-99.609,90.332,54.688
1678024299.427,101.074,-30.273,-94.727,62.012,-67.383
1678024299.431,85.938,-32.715,-96.191,54.688,86.914
1678024299.435,78.125,-28.320,-91.797,88.379,450.684
1678024299.439,93.750,-29.297,-90.332,111.328,212.891
1678024299.443,100.098,-32.715,-92.773,86.914,-90.332
1678024299.445,92.773,-32.715,-88.379,52.246,-77.637
1678024299.449,80.566,-35.156,-85.938,43.457,-108.398
1678024299.453,75.195,-28.809,-83.008,67.871,-174.805
1678024299.457,85.938,-31.250,-80.566,86.914,-204.102
1678024299.461,94.727,-42.969,-80.078,74.219,-128.418
1678024299.465,86.914,-43.945,-78.125,38.086,-64.941
1678024299.469,74.219,-41.016,-71.777,28.809,-51.270
1678024299.472,65.918,-42.480,-71.777,50.293,-46.387
1678024299.476,69.824,-40.527,-74.707,80.566,154.297
1678024299.480,84.961,-40.039,-73.730,75.195,53.711
1678024299.484,88.379,-43.945,-70.312,38.086,-196.289
1678024299.488,62.988,-47.852,-69.824,20.996,-11.230
1678024299.490,46.387,-48.340,-71.289,39.551,50.781
1678024299.494,66.406,-45.410,-71.289,71.777,-124.023
1678024299.498,74.707,-44.434,-68.359,75.684,-95.703
1678024299.502,58.594,-41.992,-67.383,43.945,-77.637
1678024299.506,43.457,-40.039,-69.824,18.066,-104.004
1678024299.510,40.039,-42.969,-65.918,29.297,-72.754
1678024299.514,45.410,-42.480,-62.012,59.082,-76.660
1678024299.517,46.875,-43.457,-58.594,64.453,90.332
1678024299.521,44.922,-47.363,-56.152,36.133,336.426
1678024299.525,36.621,-42.969,-55.664,5.859,12.695
1678024299.529,25.391,-39.551,-53.711,12.207,-234.863
1678024299.533,22.461,-46.875,-56.641,44.922,-120.605
1678024299.536,38.086,-53.223,-56.641,44.434,-117.188
1678024299.540,46.387,-47.363,-50.781,6.836,-134.277
1678024299.544,20.020,-48.828,-54.199,-21.484,-137.207
1678024299.548,-2.930,-57.617,-57.617,-10.742,-60.059
1678024299.552,-0.488,-58.594,-56.152,28.320,-21.973
1678024299.556,8.301,-50.293,-53.223,41.504,-79.590
1678024299.560,8.301,-45.410,-54.199,15.137,-20.508
1678024299.563,-0.977,-46.387,-56.641,-18.555,220.215
1678024299.567,-12.207,-46.875,-55.664,-20.508,51.270
1678024299.571,-12.695,-45.898,-57.617,7.812,-204.590
1678024299.575,-0.488,-41.016,-54.199,28.320,-125.488
1678024299.579,14.160,-36.133,-48.340,13.672,-105.469
1678024299.580,14.648,-31.738,-48.340,-17.578,-123.047
1678024299.584,-3.418,-32.715,-45.898,-20.996,-152.344
1678024299.588,-13.184,-38.574,-47.363,2.930,-150.879
1678024299.592,-12.207,-41.016,-50.293,20.996,-68.848
1678024299.596,-14.648,-41.016,-50.781,3.418,-0.977
1678024299.600,-22.949,-41.992,-49.805,-31.250,4.395
1678024299.604,-35.645,-43.457,-45.410,-38.086,115.234
1678024299.607,-37.109,-44.434,-43.945,-4.395,428.711
1678024299.611,-22.949,-42.480,-45.410,7.324,260.742
1678024299.615,-5.371,-39.551,-43.945,-16.113,-133.301
1678024299.619,-20.508,-41.504,-41.504,-41.504,-93.262
1678024299.623,-42.969,-45.410,-43.457,-59.082,-113.770
1678024299.625,-42.480,-48.828,-49.805,-48.340,-215.332
1678024299.629,-27.344,-48.340,-50.781,-17.090,-155.762
1678024299.633,-13.184,-43.457,-47.363,-19.531,-82.031
1678024299.637,-17.578,-40.527,-44.434,-58.594,-125.977
1678024299.641,-29.297,-38.086,-41.504,-72.266,-194.336
1678024299.645,-34.180,-42.480,-41.504,-41.016,-74.707
1678024299.649,-20.508,-43.945,-46.387,-3.418,149.414
1678024299.652,-8.301,-40.039,-48.828,-5.859,128.906
1678024299.656,-14.648,-45.410,-45.898,-44.922,-69.336
1678024299.660,-23.926,-45.898,-42.969,-63.965,-126.465
1678024299.664,-31.738,-43.457,-46.875,-43.457,-16.113
1678024299.668,-31.250,-46.875,-46.387,-17.090,-73.242
1678024299.670,-16.602,-48.340,-39.551,-9.277,-125.977
1678024299.674,-17.090,-48.340,-41.016,-30.762,-65.430
1678024299.678,-38.574,-50.781,-43.457,-57.129,-43.945
1678024299.682,-48.828,-52.246,-46.387,-46.387,-110.840
1678024299.686,-36.133,-47.852,-48.828,-10.742,-95.703
1678024299.690,-15.137,-46.387,-45.410,9.277,125.488
1678024299.694,-21.973,-49.316,-42.480,-27.344,99.609
1678024299.697,-50.781,-52.734,-39.551,-63.965,-25.879
1678024299.701,-61.523,-54.199,-42.480,-49.316,1.465
1678024299.705,-59.082,-54.688,-43.945,-18.555,152.344
1678024299.709,-51.270,-58.105,-42.969,-9.766,315.918
1678024299.713,-44.434,-57.129,-46.387,-35.156,23.438
1678024299.730,-50.293,-50.781,-44.434,-60.059,-171.387
1678024299.734,-63.477,-47.852,-43.457,-58.594,-125.488
1678024299.738,-65.430,-48.340,-44.922,-31.738,-114.258
1678024299.742,-42.969,-45.410,-43.457,-19.043,-65.430
1678024299.746,-38.574,-43.945,-40.527,-30.762,-78.613
1678024299.750,-51.270,-43.457,-36.133,-57.617,-17.090
1678024299.754,-63.965,-45.410,-38.086,-62.988,-3.418
1678024299.757,-63.965,-45.898,-40.527,-32.715,-175.781
1678024299.761,-47.852,-46.387,-39.062,-13.672,-141.113
1678024299.765,-50.781,-49.316,-40.039,-35.645,108.398
1678024299.769,-62.500,-48.828,-43.945,-73.242,-24.902
1678024299.773,-66.406,-47.363,-49.316,-74.707,-156.250
1678024299.775,-63.477,-47.363,-50.781,-36.621,-16.113
1678024299.779,-52.246,-46.875,-53.711,-5.371,-14.160
1678024299.783,-42.480,-49.805,-55.176,-32.227,-111.816
1678024299.787,-52.246,-53.711,-54.199,-76.172,-111.328
1678024299.791,-63.965,-46.875,-56.641,-79.590,-95.215
1678024299.795,-61.523,-39.551,-57.617,-49.316,38.086
1678024299.799,-44.434,-39.062,-56.152,-24.414,6.836
1678024299.802,-31.738,-43.457,-52.734,-28.320,-41.016
1678024299.806,-39.551,-43.945,-53.711,-62.988,121.094
1678024299.810,-55.664,-43.457,-55.176,-76.660,225.586
1678024299.814,-61.035,-43.457,-54.199,-47.852,-4.883
1678024299.818,-55.664,-47.363,-55.176,-23.438,-161.133
1678024299.820,-54.688,-50.293,-55.664,-28.320,-73.242
1678024299.824,-60.059,-48.340,-55.176,-62.988,-45.898
1678024299.828,-72.754,-50.781,-53.711,-92.773,-139.160
1678024299.832,-80.078,-50.293,-49.316,-67.383,-141.113
1678024299.836,-69.336,-49.316,-45.410,-30.762,7.812
1678024299.840,-56.152,-51.758,-43.457,-29.297,7.324
1678024299.844,-55.664,-51.758,-44.434,-68.848,-83.984
1678024299.847,-77.148,-48.828,-47.852,-92.285,-143.066
1678024299.851,-89.355,-50.293,-48.828,-70.801,72.754
1678024299.855,-77.637,-48.340,-49.316,-45.898,90.820
1678024299.859,-62.988,-44.922,-49.805,-45.410,-130.371
1678024299.863,-62.988,-43.457,-46.387,-73.730,-159.668
1678024299.865,-67.383,-46.387,-48.828,-90.820,-160.645
1678024299.869,-71.289,-48.340,-56.152,-75.684,-214.355
1678024299.873,-65.430,-46.387,-53.711,-45.410,-173.828
1678024299.877,-55.664,-49.316,-50.781,-33.691,-18.066
1678024299.881,-59.570,-50.781,-49.805,-62.988,-5.859
1678024299.885,-64.941,-50.781,-47.852,-85.938,-37.598
1678024299.889,-71.777,-51.758,-49.316,-70.801,15.137
1678024299.892,-62.988,-50.293,-50.781,-30.273,220.703
1678024299.896,-48.828,-53.223,-49.805,-18.555,516.113
1678024299.900,-51.758,-52.246,-50.293,-57.617,182.617
1678024299.904,-62.012,-49.805,-50.781,-83.984,-194.824
1678024299.908,-75.195,-53.711,-54.199,-83.984,-126.953
1678024299.910,-67.383,-52.734,-56.641,-62.012,-134.277
1678024299.914,-48.828,-50.781,-53.223,-37.598,-194.824
1678024299.918,-42.480,-50.293,-48.340,-56.641,-137.695
1678024299.922,-41.016,-46.875,-43.945,-83.496,-105.469
1678024299.926,-54.199,-50.293,-46.875,-86.914,-157.227
1678024299.930,-54.199,-49.316,-42.480,-50.293,-97.656
1678024299.934,-39.062,-48.340,-39.062,-24.902,-34.180
1678024299.937,-40.527,-48.828,-32.715,-34.668,267.090
1678024299.941,-53.711,-45.898,-32.715,-64.941,202.637
1678024299.945,-69.336,-46.875,-41.504,-83.984,-233.398
1678024299.949,-67.871,-43.945,-43.457,-49.805,-114.258
1678024299.953,-48.340,-41.016,-46.875,-26.855,-13.184
1678024299.970,-43.945,-41.016,-46.387,-49.805,-134.766
1678024299.974,-55.176,-40.039,-45.410,-79.102,-174.316
1678024299.978,-66.406,-38.086,-43.945,-80.078,-128.418
1678024299.982,-66.406,-42.969,-43.457,-57.617,-71.289
1678024299.986,-61.523,-46.875,-44.434,-32.227,-55.176
1678024299.990,-52.734,-42.969,-41.016,-28.809,-42.969
1678024299.994,-52.734,-41.016,-37.598,-54.688,125.977
1678024299.997,-62.012,-41.504,-39.062,-62.988,246.582
1678024300.001,-71.777,-44.922,-42.969,-46.875,-6.348
1678024300.005,-62.988,-44.922,-42.969,-23.926,-157.715
1678024300.009,-47.363,-45.898,-43.457,-17.578,30.762
1678024300.013,-54.199,-51.270,-45.410,-58.594,61.035
1678024300.000,-57.617,-45.898,-43.945,-83.496,-188.477
1678024300.004,-64.453,-45.898,-40.039,-55.664,-181.152
1678024300.008,-58.105,-45.410,-43.457,-38.574,-82.520
1678024300.012,-40.039,-43.457,-46.387,-31.738,-100.586
1678024300.016,-44.434,-40.527,-41.016,-48.828,-137.695
1678024300.020,-72.266,-39.062,-36.621,-84.961,-22.461
1678024300.024,-80.078,-41.504,-32.715,-72.266,99.609
1678024300.027,-68.359,-45.898,-35.645,-39.551,-13.184
1678024300.031,-62.500,-50.293,-37.109,-39.062,-115.723
1678024300.035,-53.711,-45.898,-33.691,-63.965,-111.328
1678024300.039,-57.129,-42.969,-32.715,-83.496,136.230
1678024300.043,-70.312,-39.062,-33.203,-78.613,45.898
1678024300.060,-74.707,-41.016,-36.133,-40.039,-197.754
1678024300.064,-63.965,-46.875,-44.434,-29.785,-102.539
1678024300.068,-59.082,-45.898,-44.922,-67.871,-125.000
1678024300.072,-68.848,-47.363,-41.504,-84.473,-161.133
1678024300.076,-74.219,-44.434,-42.480,-67.871,-166.992
1678024300.080,-61.523,-41.504,-43.457,-39.551,16.602
1678024300.084,-51.270,-42.480,-44.434,-25.391,83.984
1678024300.087,-55.664,-42.480,-41.504,-47.363,0.488
1678024300.091,-62.500,-43.945,-36.621,-70.801,13.672
1678024300.095,-79.590,-41.016,-34.668,-67.383,133.789
1678024300.099,-83.008,-39.551,-36.621,-41.992,182.617
1678024300.103,-64.941,-40.039,-37.598,-17.578,-62.988
1678024300.105,-52.246,-37.598,-34.180,-30.762,-94.238
1678024300.109,-53.711,-32.715,-26.855,-66.406,20.508
1678024300.113,-63.965,-30.273,-26.855,-66.406,-75.684
1678024300.117,-62.988,-35.645,-34.180,-43.945,-192.871
1678024300.121,-41.992,-35.645,-29.297,-20.996,-133.301
1678024300.125,-33.203,-32.715,-27.832,-29.297,-82.520
1678024300.129,-54.199,-36.621,-32.715,-67.871,-34.180
1678024300.132,-66.406,-38.574,-32.715,-75.684,-86.426
1678024300.136,-62.012,-38.086,-32.715,-46.875,-161.133
1678024300.140,-53.711,-39.551,-33.691,-19.531,88.867
1678024300.144,-40.527,-39.062,-37.109,-29.297,23.438
1678024300.148,-47.363,-36.133,-36.133,-69.824,-166.992
1678024300.150,-63.477,-39.551,-37.109,-84.473,-101.074
1678024300.154,-61.523,-43.457,-38.574,-58.105,-130.859
1678024300.158,-50.781,-41.016,-35.156,-33.691,-133.789
1678024300.162,-42.969,-41.016,-33.203,-36.133,-126.953
1678024300.166,-48.340,-42.969,-33.203,-60.059,-42.480
1678024300.170,-57.129,-39.062,-36.621,-79.590,45.410
1678024300.174,-53.223,-37.109,-36.621,-63.965,-90.332
1678024300.177,-39.551,-37.109,-31.738,-30.273,-113.770
1678024300.181,-28.809,-36.621,-31.250,-22.461,78.125
1678024300.185,-36.133,-41.992,-34.668,-46.875,264.160
1678024300.189,-45.898,-41.016,-34.180,-73.730,36.133
1678024300.193,-52.734,-39.062,-33.203,-62.012,-191.895
1678024300.195,-50.781,-40.527,-38.574,-24.902,-141.602
1678024300.199,-42.969,-42.480,-36.621,-18.066,-114.258
1678024300.203,-48.340,-41.016,-31.738,-52.734,-139.160
1678024300.207,-51.758,-34.668,-30.762,-75.195,-108.398
1678024300.211,-52.246,-33.203,-25.391,-61.523,-53.711
1678024300.215,-64.453,-41.016,-24.414,-36.621,-83.984
1678024300.219,-72.754,-41.992,-32.715,-35.156,-63.965
1678024300.222,-77.148,-36.621,-34.180,-66.895,88.379
1678024300.226,-91.797,-26.367,-23.926,-95.215,282.715
1678024300.230,-114.258,-20.020,-15.137,-112.305,149.902
1678024300.234,-130.859,-24.902,-19.531,-105.957,-121.582
1678024300.238,-143.066,-10.254,-13.672,-107.910,-90.332
1678024300.240,-181.152,2.930,4.883,-183.105,-128.906
1678024300.244,-243.652,2.930,8.301,-265.137,-231.934
1678024300.248,-295.410,7.812,20.020,-298.828,-144.043
1678024300.252,-333.984,11.230,34.180,-298.340,-62.500
1678024300.256,-347.168,16.602,35.156,-308.105,-110.840
1678024300.260,-341.309,17.578,42.480,-337.402,-28.320
1678024300.264,-364.258,11.719,53.711,-374.512,-7.324
1678024300.267,-362.305,16.113,62.500,-365.723,61.523
1678024300.271,-338.867,10.742,57.617,-312.500,431.152
1678024300.275,-321.777,5.859,62.988,-273.926,226.074
1678024300.279,-317.383,4.395,70.312,-286.621,-170.898
1678024300.283,-330.566,-11.230,65.918,-324.707,-123.535
1678024300.285,-329.590,-18.555,58.105,-314.941,-149.414
1678024300.289,-309.570,-18.555,54.199,-272.461,-241.699
1678024300.293,-279.785,-20.996,53.711,-235.840,-210.938
1678024300.297,-284.180,-21.973,50.293,-239.258,-115.234
1678024300.301,-290.527,-23.438,51.758,-265.137,-101.562
1678024300.305,-289.062,-32.227,45.410,-262.207,-123.535
1678024300.309,-277.832,-35.156,41.016,-215.820,8.789
1678024300.312,-239.746,-35.645,39.551,-170.898,229.492
1678024300.316,-223.145,-39.551,44.434,-176.758,66.406
1678024300.320,-237.305,-40.527,44.434,-226.562,-174.805
1678024300.324,-246.582,-43.457,34.180,-236.328,-5.859
1678024300.328,-238.770,-50.781,22.949,-186.035,59.082
1678024300.330,-201.172,-46.875,15.137,-140.625,-105.957
1678024300.334,-173.828,-40.039,18.066,-138.672,-104.004
1678024300.338,-184.082,-41.992,22.461,-173.340,-71.289
1678024300.342,-186.523,-45.898,18.555,-179.688,-56.152
1678024300.346,-171.387,-52.246,10.254,-125.977,-76.172
1678024300.350,-138.672,-58.105,8.789,-68.848,-6.348
1678024300.354,-104.004,-59.570,7.324,-61.035,268.555
1678024300.357,-99.609,-61.523,5.371,-82.031,368.164
1678024300.361,-95.215,-61.035,-0.977,-96.191,24.414
1678024300.365,-92.773,-63.965,-14.160,-68.359,-180.176
1678024300.369,-70.801,-69.336,-15.137,-9.766,-12.207
1678024300.373,-54.199,-63.477,-17.578,4.395,30.273
1678024300.376,-58.594,-63.965,-32.227,-26.855,-100.098
1678024300.380,-61.523,-69.336,-41.016,-56.641,-160.645
1678024300.384,-65.430,-61.035,-45.898,-58.105,-91.797
1678024300.388,-40.039,-54.199,-49.805,-20.996,-70.801
1678024300.392,-4.395,-44.922,-52.734,11.230,-117.188
1678024300.396,-6.348,-41.504,-58.594,-18.066,-3.906
1678024300.400,-19.531,-45.410,-60.059,-43.945,181.641
1678024300.403,-8.789,-42.480,-61.523,-22.461,53.711
1678024300.407,4.883,-40.039,-63.965,21.484,-122.070
1678024300.411,16.602,-40.039,-67.383,45.898,-33.203
1678024300.415,23.438,-42.969,-69.824,20.508,-30.273
1678024300.419,15.625,-50.781,-76.660,-16.602,-141.602
