timestamps,TP9,AF7,AF8,TP10,Right AUX
1678024419.344,-53.223,-31.738,-30.273,-18.555,-176.758
1678024419.348,-55.664,-31.250,-30.762,41.504,-91.797
1678024419.352,-42.969,-29.297,-24.414,6.836,-7.812
1678024419.356,-40.527,-34.180,-24.414,-71.777,-55.176
1678024419.360,-56.641,-35.645,-27.832,-99.121,-172.363
1678024419.364,-67.383,-35.156,-29.785,-35.645,-204.102
1678024419.368,-61.523,-31.738,-28.809,33.691,45.898
1678024419.371,-50.781,-26.855,-27.344,0.488,237.305
1678024419.375,-50.293,-28.320,-27.832,-93.750,-67.871
1678024419.379,-49.805,-26.855,-27.832,-119.629,-212.402
1678024419.383,-47.363,-25.879,-28.320,-46.875,-26.855
1678024419.387,-42.969,-28.809,-26.855,34.668,22.461
1678024419.390,-55.664,-29.297,-33.203,-87.891,-142.090
1678024419.394,-50.293,-28.809,-31.738,-132.324,-143.066
1678024419.398,-42.969,-27.832,-31.738,-74.219,-97.656
1678024419.402,-46.875,-32.715,-38.086,0.488,20.508
1678024419.406,-44.434,-35.645,-37.109,2.441,56.152
1678024419.410,-39.062,-36.621,-41.016,-59.570,266.113
1678024419.413,-43.945,-34.180,-50.293,-103.027,311.523
1678024419.417,-47.363,-33.203,-52.246,-71.289,-49.316
1678024419.421,-46.875,-33.203,-53.711,7.812,-107.422
1678024419.425,-34.668,-27.344,-53.711,41.016,-19.531
1678024419.429,-27.832,-23.438,-48.340,-37.598,-106.934
1678024419.446,-37.598,-29.785,-51.270,-110.840,-160.645
1678024419.450,-40.527,-31.250,-61.035,-73.242,-170.410
1678024419.454,-41.016,-29.297,-61.035,-6.348,-87.891
1678024419.458,-45.410,-31.250,-58.594,6.348,67.871
1678024419.462,-48.828,-30.273,-57.617,-59.082,-12.207
1678024419.466,-53.223,-29.785,-58.594,-120.117,25.879
1678024419.470,-62.500,-31.738,-58.105,-87.402,118.652
1678024419.473,-68.848,-32.715,-53.711,-15.137,60.547
1678024419.477,-67.383,-32.715,-51.270,19.043,-57.129
1678024419.481,-66.406,-31.250,-44.922,-24.902,1.465
1678024419.485,-65.430,-30.762,-45.410,-116.699,105.957
1678024419.489,-72.266,-32.715,-56.641,-113.770,-139.648
1678024419.491,-78.125,-34.180,-55.664,-20.020,-158.203
1678024419.495,-72.266,-30.762,-51.270,29.785,-38.574
1678024419.499,-66.895,-28.320,-53.223,-10.254,-53.223
1678024419.503,-57.617,-27.344,-44.922,-82.520,-194.824
1678024419.507,-57.617,-27.344,-46.875,-87.891,-212.891
1678024419.511,-56.641,-25.391,-50.293,2.441,54.688
1678024419.515,-48.828,-29.785,-43.457,61.523,52.734
1678024419.518,-47.852,-39.551,-40.527,5.859,17.578
1678024419.522,-45.898,-34.180,-40.527,-82.520,25.391
1678024419.526,-46.387,-25.879,-43.457,-85.938,87.891
1678024419.530,-52.734,-27.344,-44.922,-7.324,109.375
1678024419.534,-49.316,-28.809,-40.527,43.945,-67.383
1678024419.538,-43.945,-25.391,-39.551,11.230,-92.285
1678024419.542,-42.969,-24.902,-39.551,-68.848,-145.508
1678024419.546,-38.574,-24.414,-38.086,-94.238,-255.371
1678024419.550,-45.410,-22.949,-42.480,-27.832,-207.520
1678024419.554,-60.059,-26.367,-40.527,44.434,-56.152
1678024419.558,-62.500,-28.320,-34.668,19.531,41.504
1678024419.562,-56.641,-25.879,-36.621,-57.129,-9.277
1678024419.565,-54.199,-28.320,-35.156,-82.031,-174.316
1678024419.569,-50.781,-30.273,-32.715,-15.625,-51.270
1678024419.573,-48.828,-25.879,-34.180,62.012,167.969
1678024419.577,-45.898,-27.832,-34.668,39.062,-55.664
1678024419.581,-42.480,-31.738,-33.691,-37.598,-184.570
1678024419.581,-41.504,-33.203,-31.738,-70.312,-104.980
1678024419.585,-43.457,-33.691,-31.738,-26.855,-97.168
1678024419.589,-41.992,-32.715,-29.785,40.039,-80.078
1678024419.593,-39.062,-40.039,-29.297,41.016,-50.781
1678024419.597,-38.086,-41.016,-25.391,-27.344,-58.594
1678024419.601,-40.527,-35.156,-24.414,-71.777,-26.367
1678024419.605,-48.340,-38.086,-27.832,-32.227,48.340
1678024419.608,-50.293,-39.551,-25.391,42.969,103.027
1678024419.612,-41.992,-39.062,-22.461,59.570,313.477
1678024419.616,-36.133,-42.480,-21.484,-18.066,285.156
1678024419.620,-44.434,-46.875,-26.367,-87.891,-84.961
1678024419.624,-47.852,-44.434,-31.738,-54.199,-150.879
1678024419.632,-41.016,-41.016,-27.344,28.320,-41.016
1678024419.636,-40.039,-38.574,-23.438,45.898,-25.391
1678024419.640,-33.203,-35.156,-20.020,-17.578,-97.656
1678024419.644,-23.438,-33.691,-21.484,-77.148,-89.355
1678024419.648,-25.879,-33.691,-20.508,-59.082,17.090
1678024419.652,-27.344,-35.156,-18.066,14.648,19.043
1678024419.656,-22.461,-38.086,-20.020,54.688,5.859
1678024419.659,-27.344,-33.691,-21.484,19.531,108.398
1678024419.663,-35.156,-29.297,-29.785,-48.340,116.211
1678024419.667,-36.133,-32.227,-30.762,-57.617,-101.074
1678024419.671,-32.227,-30.762,-24.902,18.066,-123.535
1678024419.675,-26.367,-26.855,-27.344,70.312,-18.555
1678024419.671,-22.461,-26.367,-28.320,16.602,-71.777
1678024419.675,-21.973,-26.367,-26.855,-60.547,-195.801
1678024419.679,-22.461,-30.273,-23.926,-52.734,-186.035
1678024419.683,-28.809,-33.203,-18.555,28.320,3.418
1678024419.687,-33.691,-29.785,-15.625,73.242,25.391
1678024419.691,-30.762,-29.785,-19.531,26.367,-64.941
1678024419.695,-25.879,-26.855,-20.996,-54.688,-57.129
1678024419.698,-24.902,-26.855,-20.020,-62.988,189.453
1678024419.702,-37.109,-31.738,-22.461,7.324,280.273
1678024419.706,-46.875,-36.133,-23.926,57.129,33.691
1678024419.710,-39.551,-37.109,-23.926,26.367,3.906
1678024419.714,-36.133,-34.668,-22.949,-55.664,-111.328
1678024419.718,-44.922,-34.180,-23.926,-81.055,-235.352
1678024419.722,-45.898,-36.133,-25.879,-17.578,-143.555
1678024419.726,-44.434,-35.645,-21.484,42.480,-74.707
1678024419.730,-43.457,-42.480,-23.438,20.996,-71.777
1678024419.734,-41.992,-45.898,-24.902,-62.012,-151.367
1678024419.738,-47.363,-42.969,-23.926,-99.121,-227.051
1678024419.742,-55.664,-41.504,-25.879,-34.668,26.855
1678024419.745,-58.105,-38.086,-26.855,44.434,388.672
1678024419.749,-56.152,-38.574,-24.902,28.809,79.590
1678024419.753,-51.270,-40.039,-18.555,-44.434,-156.250
1678024419.757,-39.062,-34.668,-17.578,-75.684,-108.887
1678024419.761,-43.457,-34.180,-22.949,-38.574,-208.984
1678024419.761,-56.641,-38.574,-24.902,31.738,-211.426
1678024419.765,-54.688,-36.621,-23.926,39.551,-72.754
1678024419.769,-45.898,-34.668,-23.926,-30.762,-60.547
1678024419.773,-43.945,-36.133,-26.855,-83.496,-167.480
1678024419.777,-48.340,-41.016,-29.785,-53.711,-210.449
1678024419.781,-53.223,-46.387,-30.273,27.344,0.977
1678024419.785,-52.734,-56.152,-40.039,45.898,387.207
1678024419.788,-63.477,-69.336,-54.688,-44.434,211.914
1678024419.792,-74.219,-79.102,-62.500,-134.766,-103.516
1678024419.796,-81.543,-86.426,-67.871,-114.746,-130.371
1678024419.800,-85.938,-89.355,-67.383,-29.785,-74.219
1678024419.804,-79.590,-88.867,-66.895,-1.465,-35.156
1678024419.822,-73.730,-86.426,-68.848,-61.523,-103.027
1678024419.826,-75.684,-83.008,-66.895,-125.000,-65.918
1678024419.830,-78.125,-80.078,-64.453,-92.773,138.672
1678024419.834,-75.684,-71.777,-53.223,-12.207,-0.977
1678024419.838,-71.777,-62.500,-47.363,17.090,-79.590
1678024419.842,-70.801,-64.941,-52.734,-36.133,105.469
1678024419.846,-71.777,-65.918,-51.758,-115.234,17.090
1678024419.849,-74.219,-65.430,-56.152,-123.047,-202.148
1678024419.853,-74.219,-66.406,-57.129,-38.574,-179.199
1678024419.857,-78.125,-69.336,-57.129,16.602,-6.836
1678024419.861,-92.285,-78.125,-69.336,-46.387,53.223
1678024419.865,-103.516,-85.449,-77.637,-136.230,-157.227
1678024419.866,-108.398,-91.797,-86.426,-147.949,-249.023
1678024419.870,-109.375,-95.703,-94.238,-79.102,-16.602
1678024419.874,-111.816,-92.773,-97.168,-18.555,40.527
1678024419.878,-110.840,-96.191,-95.215,-53.223,1.465
1678024419.882,-113.281,-101.562,-92.285,-141.113,-48.828
1678024419.886,-112.305,-97.168,-92.773,-163.574,-76.172
1678024419.890,-105.957,-93.262,-86.914,-89.844,4.883
1678024419.893,-103.027,-91.309,-85.938,-20.020,34.668
1678024419.897,-98.633,-83.008,-86.914,-38.574,0.977
1678024419.901,-95.703,-77.637,-80.078,-115.234,170.898
1678024419.905,-90.332,-79.102,-73.730,-157.715,44.922
1678024419.909,-84.961,-73.730,-67.383,-78.125,-175.293
1678024419.913,-84.961,-65.430,-64.453,0.488,10.254
1678024419.917,-68.848,-61.035,-62.500,-49.316,-66.895
1678024419.921,-57.617,-60.547,-57.617,-116.699,-200.684
1678024419.925,-53.223,-58.105,-52.246,-102.051,-197.266
1678024419.929,-48.828,-52.734,-53.711,-29.297,-89.355
1678024419.933,-49.316,-56.641,-56.641,12.207,-15.625
1678024419.937,-49.805,-55.664,-54.688,-38.574,44.434
1678024419.940,-48.828,-52.734,-51.758,-114.746,-20.996
1678024419.944,-47.363,-50.781,-50.293,-108.398,47.852
1678024419.948,-51.758,-48.828,-51.758,-44.922,21.973
1678024419.952,-44.434,-45.410,-47.852,5.371,-122.070
1678024419.956,-38.086,-41.504,-43.457,-17.090,-61.523
1678024419.957,-46.387,-44.922,-40.527,-97.168,-120.117
1678024419.961,-54.199,-42.480,-38.086,-102.539,-203.125
1678024419.965,-50.781,-41.016,-39.062,-39.062,-167.480
1678024419.969,-47.363,-44.434,-42.969,6.836,62.988
1678024419.973,-47.363,-43.457,-43.945,-16.113,98.145
1678024419.977,-40.039,-36.621,-39.551,-93.750,0.000
1678024419.981,-41.504,-35.156,-39.551,-111.328,-61.035
1678024419.984,-37.598,-38.574,-37.598,-46.875,18.555
1678024419.988,-34.668,-37.109,-40.039,24.414,299.316
1678024419.992,-36.621,-32.715,-38.574,4.395,62.500
1678024419.996,-27.344,-26.367,-29.785,-75.195,-200.684
1678024420.000,-38.086,-24.414,-32.715,-109.375,-218.750
1678024420.003,-46.387,-30.273,-34.668,-48.828,-166.992
1678024420.007,-39.551,-34.180,-34.668,34.668,-137.207
1678024420.011,-29.297,-31.250,-31.250,25.391,-133.301
1678024420.015,-13.672,-22.461,-25.879,-43.945,-127.930
1678024420.019,-16.113,-23.438,-30.762,-94.238,-216.797
1678024420.023,-29.297,-22.949,-30.273,-73.730,-109.375
1678024420.027,-27.344,-18.066,-17.578,3.418,38.574
1678024420.030,-29.785,-16.602,-18.066,23.926,241.211
1678024420.034,-42.969,-20.508,-20.508,-57.129,165.527
1678024420.038,-51.270,-22.461,-14.160,-131.348,-232.422
1678024420.042,-74.707,-13.184,-12.695,-115.723,-222.168
1678024420.046,-105.469,-14.648,-11.230,-72.266,-86.914
1678024420.046,-127.441,-10.742,-7.812,-84.473,-62.500
1678024420.050,-160.645,-4.395,0.977,-173.828,-103.516
1678024420.054,-197.754,-2.930,0.000,-264.648,-138.672
1678024420.058,-246.094,4.883,-0.488,-289.551,-106.445
1678024420.062,-283.203,11.719,-1.953,-245.117,-26.367
1678024420.066,-301.270,11.719,3.418,-247.559,84.961
1678024420.070,-319.336,7.812,16.602,-331.055,147.949
1678024420.073,-333.008,11.719,18.555,-389.648,380.371
1678024420.077,-334.473,14.648,17.578,-372.559,204.102
1678024420.081,-329.102,8.301,13.672,-291.016,-74.219
1678024420.085,-312.012,5.859,11.719,-241.699,2.441
1678024420.089,-296.875,4.883,18.555,-281.250,-68.359
1678024420.093,-288.086,6.348,20.020,-344.238,-140.625
1678024420.097,-277.344,0.000,14.648,-334.473,-173.340
1678024420.101,-263.672,-10.254,8.789,-244.141,-117.188
1678024420.105,-244.141,-14.160,2.930,-170.410,-61.523
1678024420.109,-226.074,-20.996,-6.348,-194.336,-103.516
1678024420.113,-215.332,-29.785,-16.113,-267.090,-175.293
1678024420.117,-203.125,-33.691,-20.020,-257.324,57.129
1678024420.120,-179.199,-33.203,-18.066,-160.645,107.422
1678024420.124,-155.273,-33.691,-20.020,-87.891,-110.352
1678024420.128,-146.973,-41.992,-19.531,-95.215,17.578
1678024420.132,-141.113,-49.316,-21.973,-160.645,15.625
1678024420.136,-128.906,-49.805,-30.762,-177.246,-246.582
1678024420.136,-127.441,-54.199,-36.621,-109.863,-247.070
1678024420.140,-127.441,-55.664,-41.016,-36.621,-49.805
1678024420.144,-109.863,-49.316,-40.039,-44.434,9.766
1678024420.148,-95.703,-51.758,-40.527,-125.488,-107.910
1678024420.152,-92.285,-54.199,-40.039,-145.996,-168.457
1678024420.156,-82.031,-48.828,-36.621,-62.500,179.199
1678024420.160,-63.965,-46.875,-36.621,33.691,459.961
1678024420.163,-49.805,-50.781,-41.992,23.926,152.344
1678024420.167,-36.133,-50.293,-44.434,-51.270,-90.332
1678024420.171,-27.832,-51.270,-45.410,-72.754,-55.664
1678024420.175,-32.715,-54.688,-46.875,-21.484,-77.148
1678024420.179,-35.645,-56.641,-48.828,47.852,-157.227
1678024420.196,-27.832,-60.059,-50.293,56.641,-119.141
1678024420.200,-21.484,-57.129,-49.316,-15.137,-31.250
1678024420.204,-15.625,-54.199,-48.340,-51.270,-123.535
1678024420.208,-10.742,-53.711,-50.293,-3.418,-199.707
1678024420.212,-9.766,-53.223,-55.176,78.613,-81.543
1678024420.216,0.000,-53.223,-53.223,100.098,67.871
1678024420.220,6.348,-51.758,-52.246,20.996,36.133
1678024420.223,7.812,-52.734,-58.105,-44.922,-201.660
1678024420.227,9.277,-49.805,-60.059,-1.953,-139.648
1678024420.231,14.648,-50.293,-54.199,86.426,8.301
1678024420.235,20.996,-54.688,-52.246,109.375,-53.223
1678024420.239,21.973,-55.176,-53.223,44.434,-89.844
1678024420.242,23.438,-53.711,-52.246,-18.066,-44.434
1678024420.246,17.578,-51.758,-53.223,6.836,67.871
1678024420.250,20.996,-53.223,-56.641,87.402,10.742
1678024420.254,20.508,-56.152,-59.082,132.324,-35.156
1678024420.258,15.625,-55.176,-63.477,66.895,53.711
1678024420.262,16.113,-56.152,-65.430,-24.902,199.707
1678024420.266,11.719,-63.477,-65.430,-28.320,85.449
1678024420.269,12.207,-64.941,-64.453,51.270,-38.574
1678024420.273,19.043,-57.617,-63.477,109.863,124.512
1678024420.277,27.832,-55.176,-62.012,70.801,228.027
1678024420.281,35.645,-56.152,-61.523,-11.719,-91.309
1678024420.285,36.133,-58.105,-60.059,-18.066,-220.703
1678024420.288,36.621,-59.570,-59.082,57.129,-99.609
1678024420.292,39.551,-55.176,-56.641,117.676,-42.480
1678024420.296,35.156,-48.340,-53.223,72.754,-114.258
1678024420.300,27.832,-48.828,-53.223,-25.879,-172.363
1678024420.304,26.855,-48.828,-58.105,-29.785,-101.562
1678024420.308,21.484,-47.363,-61.523,35.645,-19.531
1678024420.312,16.602,-48.828,-60.059,89.844,14.648
1678024420.315,27.344,-43.457,-62.012,73.242,-10.254
1678024420.319,32.715,-38.574,-60.547,-15.137,149.902
1678024420.323,24.902,-40.039,-58.105,-54.199,104.492
1678024420.327,16.113,-38.574,-55.664,1.953,-156.250
1678024420.331,17.090,-35.156,-50.781,79.590,-5.859
1678024420.331,22.949,-41.016,-49.805,68.848,120.605
1678024420.335,25.879,-45.898,-46.387,-13.672,-72.754
1678024420.339,20.996,-42.480,-47.363,-49.805,-225.586
1678024420.343,19.043,-44.434,-52.734,6.348,-101.562
1678024420.347,23.438,-46.387,-53.711,75.684,9.766
1678024420.351,16.113,-40.039,-47.363,70.801,17.090
1678024420.355,13.184,-38.574,-46.387,-10.742,-31.250
1678024420.358,18.555,-41.992,-43.945,-59.570,24.902
1678024420.362,15.625,-41.992,-43.945,-8.789,297.852
1678024420.366,16.602,-36.621,-44.434,75.195,261.230
1678024420.370,20.508,-36.621,-41.504,72.754,-16.113
1678024420.374,16.602,-37.109,-44.922,-15.137,-82.031
1678024420.378,12.695,-31.738,-50.293,-61.035,-142.090
1678024420.382,5.859,-31.738,-53.223,-15.625,-218.262
1678024420.386,-2.930,-39.551,-49.805,53.223,-158.203
1678024420.390,-6.348,-44.434,-51.758,59.570,-62.988
1678024420.394,0.977,-43.457,-52.246,-12.207,-97.656
1678024420.398,6.348,-41.016,-50.293,-78.125,-160.645
1678024420.402,-0.977,-42.480,-48.828,-51.758,-173.828
1678024420.405,-15.625,-41.992,-49.805,30.273,40.527
1678024420.409,-28.320,-35.645,-46.387,62.012,50.293
1678024420.413,-26.855,-36.133,-41.504,7.812,-134.766
1678024420.417,-26.367,-40.039,-42.969,-65.918,-92.773
1678024420.421,-25.879,-39.551,-42.480,-58.594,-46.875
1678024420.421,-26.367,-44.434,-41.504,14.648,-102.539
1678024420.425,-29.297,-43.945,-40.527,57.617,-139.160
1678024420.429,-31.738,-42.969,-35.156,-0.977,-155.762
1678024420.433,-30.762,-44.922,-32.715,-91.309,-160.156
1678024420.437,-31.250,-49.805,-39.551,-91.797,-174.805
1678024420.441,-44.922,-47.363,-47.363,-13.672,-65.918
1678024420.445,-46.875,-41.504,-45.410,32.227,240.723
1678024420.448,-41.016,-41.992,-41.016,-8.301,419.922
1678024420.452,-38.574,-37.598,-41.992,-81.543,38.574
1678024420.456,-32.227,-36.621,-44.922,-84.473,-245.117
1678024420.460,-33.203,-39.062,-42.969,-11.230,-122.559
1678024420.464,-38.574,-42.969,-43.457,24.902,18.066
1678024420.468,-40.527,-42.480,-42.480,-22.949,-125.977
1678024420.472,-29.785,-41.992,-43.945,-103.516,-246.094
1678024420.476,-20.508,-43.945,-45.898,-112.793,-111.328
1678024420.480,-27.832,-41.992,-44.434,-30.762,-63.965
1678024420.484,-21.973,-40.039,-40.039,39.551,-84.473
1678024420.488,-28.320,-43.457,-36.133,0.977,84.473
1678024420.492,-43.945,-52.246,-33.691,-89.844,269.531
1678024420.495,-5.859,-41.992,-33.203,-92.285,23.438
1678024420.499,3.906,-22.461,-36.621,-47.852,-213.379
1678024420.503,-50.781,-28.320,-39.551,-21.484,-75.195
1678024420.507,-64.453,-33.691,-42.480,-30.762,33.203
1678024420.511,-44.434,-19.531,-46.387,-109.863,-106.445
1678024420.512,-82.520,-11.719,-43.457,-169.434,-183.594
1678024420.516,-117.188,-13.184,-42.969,-133.301,-19.531
1678024420.520,-117.188,-15.137,-49.316,-77.637,83.008
1678024420.524,-115.723,-15.137,-50.781,-83.984,-28.809
1678024420.528,-120.117,-10.742,-51.270,-160.156,-112.305
1678024420.532,-124.512,-8.789,-54.688,-216.797,62.012
1678024420.536,-126.465,-4.395,-57.617,-167.480,306.152
1678024420.539,-119.629,-2.930,-60.059,-81.543,106.445
1678024420.543,-102.539,-3.418,-66.406,-75.195,-104.492
1678024420.547,-94.238,1.953,-60.547,-143.555,-94.238
1678024420.551,-86.914,-0.488,-59.082,-202.148,-102.539
1678024420.555,-82.520,-4.395,-65.918,-163.574,-232.422
1678024420.572,-97.168,-4.395,-65.430,-76.172,-187.012
1678024420.576,-108.887,-6.348,-62.988,-50.781,-82.520
1678024420.580,-104.492,-7.812,-60.059,-99.121,-112.305
1678024420.584,-89.355,-5.371,-61.523,-162.109,-215.820
1678024420.588,-75.684,-5.371,-63.965,-148.438,-148.438
1678024420.592,-67.871,-10.254,-68.359,-59.570,253.906
1678024420.596,-65.430,-12.207,-72.266,-20.508,204.590
1678024420.599,-40.039,-7.324,-67.383,-69.824,-158.203
1678024420.603,-20.508,-9.277,-64.941,-133.301,-169.434
1678024420.607,-11.230,-11.719,-69.824,-118.652,-68.359
1678024420.611,9.766,-3.906,-70.312,-33.203,-64.941
1678024420.615,32.715,-1.953,-70.801,21.484,-130.859
1678024420.616,48.340,-8.789,-73.730,-25.391,-108.887
1678024420.620,9.766,-14.648,-69.824,-102.051,-95.703
1678024420.624,-23.926,-15.137,-69.336,-98.145,-204.102
1678024420.628,-18.066,-16.602,-66.895,-11.230,-165.039
1678024420.632,-4.395,-14.160,-61.035,54.199,-7.812
1678024420.636,20.020,-10.254,-61.523,11.719,-13.184
1678024420.640,36.133,-8.301,-64.453,-68.848,-112.793
1678024420.643,12.207,-5.859,-63.477,-65.918,-141.113
1678024420.647,-3.418,-10.254,-59.570,20.508,84.961
1678024420.651,9.766,-15.625,-60.059,86.914,408.203
1678024420.655,28.809,-17.578,-62.012,42.969,177.246
1678024420.659,31.738,-19.531,-60.059,-56.152,-212.891
1678024420.663,27.344,-24.902,-59.082,-84.961,-218.262
1678024420.667,31.250,-29.785,-59.570,-11.230,-176.758
1678024420.671,30.762,-30.762,-55.176,66.895,-123.535
1678024420.675,43.457,-29.785,-43.457,43.945,-90.332
1678024420.679,46.387,-27.832,-34.668,-39.551,-171.387
1678024420.683,27.344,-35.645,-38.086,-72.266,-71.289
1678024420.687,17.578,-36.133,-42.480,-8.301,-26.367
1678024420.690,27.832,-34.180,-42.480,60.547,-157.715
1678024420.694,42.480,-41.016,-44.922,33.203,202.148
1678024420.698,40.039,-42.480,-47.363,-87.402,235.352
1678024420.702,34.668,-42.969,-45.410,-165.039,-239.258
1678024420.706,20.020,-43.457,-41.504,-115.234,-193.359
1678024420.706,0.977,-42.480,-38.574,-39.062,-58.105
1678024420.710,3.906,-42.480,-37.109,-54.199,-86.914
1678024420.714,9.766,-42.480,-33.691,-161.621,-113.281
1678024420.718,2.930,-42.480,-28.320,-223.145,-118.164
1678024420.722,7.324,-42.480,-27.344,-179.688,-90.820
1678024420.726,14.648,-43.945,-28.809,-85.938,-95.215
1678024420.730,19.531,-41.016,-26.855,-67.383,11.230
1678024420.733,26.367,-37.598,-23.438,-156.738,124.023
1678024420.737,32.227,-39.062,-20.508,-218.750,247.559
1678024420.741,20.996,-41.504,-20.996,-176.758,11.719
1678024420.745,14.648,-40.039,-25.391,-77.148,-136.230
1678024420.749,24.902,-42.480,-18.066,-45.410,136.719
1678024420.753,23.438,-45.898,-11.719,-125.977,20.020
1678024420.757,3.906,-39.551,-9.277,-210.938,-203.613
1678024420.761,-20.020,-35.645,-11.230,-187.500,-218.262
1678024420.765,-29.785,-32.227,-11.230,-79.102,-109.375
1678024420.769,-23.438,-32.715,-10.742,-22.949,-45.898
1678024420.773,-4.395,-30.762,-10.254,-91.797,2.930
1678024420.777,16.113,-26.367,-14.648,-187.988,17.578
1678024420.780,7.812,-20.996,-16.113,-169.434,93.750
1678024420.784,-8.301,-17.090,-14.648,-71.289,10.254
1678024420.788,-6.836,-14.160,-18.555,-28.809,-123.047
1678024420.792,6.348,-1.953,-20.508,-99.121,-69.824
1678024420.796,6.836,0.000,-27.832,-199.707,-116.699
1678024420.812,-11.719,-6.836,-38.574,-193.359,-193.359
1678024420.816,-24.414,-3.418,-44.922,-86.426,-160.156
1678024420.820,-18.555,2.930,-47.852,-21.973,61.523
1678024420.824,10.254,4.395,-47.852,-76.172,67.871
1678024420.828,45.898,3.418,-48.828,-178.711,-132.812
1678024420.832,48.828,-1.465,-49.316,-183.594,-131.836
1678024420.836,21.973,-2.441,-48.340,-71.289,73.730
1678024420.839,3.418,-0.977,-41.016,32.227,367.676
1678024420.843,3.906,-2.441,-35.156,3.906,126.465
1678024420.847,4.395,-9.277,-36.133,-110.352,-206.055
1678024420.851,-12.207,-9.277,-33.691,-140.137,-224.609
1678024420.855,-21.973,-12.207,-36.621,-42.969,-135.254
1678024420.843,-21.973,-20.020,-37.598,48.340,-77.148
1678024420.847,-19.531,-17.090,-31.250,26.367,-57.617
1678024420.851,-7.324,-18.555,-26.855,-83.008,-96.680
1678024420.855,-10.254,-23.438,-33.203,-139.648,-135.742
1678024420.859,-20.508,-24.414,-39.062,-63.477,-116.699
1678024420.863,-15.137,-26.367,-33.203,39.062,22.461
1678024420.867,-19.531,-28.320,-30.273,25.879,181.152
1678024420.870,-22.949,-32.227,-29.297,-90.332,13.184
1678024420.874,-5.859,-32.715,-22.461,-158.203,-181.152
1678024420.878,-8.789,-32.227,-20.020,-97.168,-124.023
1678024420.882,-45.410,-33.691,-28.809,12.695,251.465
1678024420.886,-65.918,-34.180,-32.715,20.020,235.840
1678024420.886,-54.688,-32.227,-30.762,-102.051,-211.914
1678024420.890,-46.387,-29.785,-31.250,-188.965,-260.254
1678024420.894,-54.688,-30.762,-24.414,-125.977,-183.594
1678024420.898,-67.383,-34.668,-20.508,3.418,-109.863
1678024420.902,-65.918,-34.180,-18.555,19.043,-46.875
1678024420.906,-57.617,-32.227,-22.461,-96.191,107.910
1678024420.910,-48.828,-32.227,-23.926,-181.152,250.000
1678024420.913,-53.223,-34.180,-18.555,-125.000,-16.113
1678024420.917,-74.707,-42.480,-25.391,-1.465,-119.141
1678024420.921,-83.496,-49.316,-32.715,43.457,159.668
1678024420.925,-69.824,-49.805,-29.785,-55.176,207.520
1678024420.929,-61.035,-46.387,-29.297,-167.480,-245.117
1678024420.946,-72.754,-41.992,-30.273,-120.117,-373.535
1678024420.950,-94.238,-40.039,-28.809,31.250,-181.152
1678024420.954,-91.309,-36.621,-23.926,99.121,-90.820
1678024420.958,-71.777,-32.227,-15.137,-2.441,-176.270
1678024420.962,-69.824,-29.297,-18.066,-118.164,-234.863
1678024420.966,-87.402,-22.949,-16.602,-99.121,-145.996
1678024420.970,-105.957,-20.508,-10.254,20.020,-60.059
1678024420.973,-117.188,-32.227,-20.508,88.867,-59.082
1678024420.977,-104.492,-29.297,-17.090,3.906,-63.477
1678024420.981,-104.004,-12.695,-11.230,-130.859,127.441
1678024420.985,-132.812,-14.648,-14.648,-162.598,-31.250
1678024420.989,-168.457,-2.441,-18.066,-73.730,-206.055
1678024420.991,-178.223,5.371,-24.902,-5.371,-13.672
1678024420.995,-182.129,-2.930,-15.137,-85.938,-25.879
1678024420.999,-227.539,11.230,11.719,-267.090,-203.125
1678024421.003,-288.574,26.367,20.020,-356.445,-347.168
1678024421.007,-322.754,15.625,20.020,-249.512,-76.660
1678024421.011,-334.473,8.789,25.879,-137.207,239.746
1678024421.015,-331.055,15.625,47.363,-198.730,157.715
1678024421.018,-340.820,2.441,51.270,-379.883,-86.914
1678024421.022,-330.566,-3.418,56.641,-418.945,-106.934
1678024421.026,-328.613,-4.395,72.266,-277.344,109.863
1678024421.030,-343.750,-24.414,74.707,-150.879,76.172
1678024421.034,-314.453,-29.297,82.520,-167.480,-3.418
1678024421.038,-303.223,-27.344,83.496,-323.730,-44.922
1678024421.042,-302.246,-37.598,88.379,-386.719,-155.273
1678024421.046,-288.086,-38.574,91.309,-259.766,-228.027
1678024421.050,-292.480,-41.016,86.914,-120.117,-92.773
1678024421.054,-283.203,-53.711,93.750,-111.816,29.297
1678024421.058,-262.695,-54.199,98.633,-249.512,-27.344
1678024421.062,-241.699,-54.688,95.703,-343.750,-146.973
1678024421.065,-238.281,-58.105,93.262,-232.422,-175.781
1678024421.069,-231.934,-62.012,93.262,-44.922,165.527
1678024421.073,-206.055,-66.406,86.426,-21.973,257.324
1678024421.077,-175.781,-69.336,78.125,-169.922,-55.176
1678024421.081,-150.391,-73.730,69.824,-257.812,-192.871
1678024421.081,-120.117,-77.148,61.523,-141.602,-193.848
1678024421.085,-115.723,-80.078,55.176,34.180,11.719
1678024421.089,-103.516,-83.984,42.969,78.125,48.828
1678024421.093,-67.383,-86.426,31.738,-37.598,7.812
1678024421.097,-52.246,-84.473,14.160,-149.414,10.254
1678024421.101,-46.387,-80.566,4.395,-81.543,-122.070
1678024421.105,-43.945,-79.590,3.418,75.684,-12.207
1678024421.108,-27.832,-79.590,-10.254,141.602,228.027
1678024421.112,-19.043,-75.684,-23.926,38.086,351.562
1678024421.116,-3.906,-70.801,-34.180,-100.586,23.926
1678024421.120,8.789,-73.242,-36.133,-63.477,-282.227
1678024421.124,-10.254,-72.754,-43.945,94.238,-142.090
1678024421.128,-9.766,-68.359,-56.152,174.316,-11.230
1678024421.132,22.949,-66.406,-55.176,92.773,-81.543
1678024421.136,40.527,-61.035,-55.664,-53.223,-158.691
1678024421.140,41.504,-60.547,-60.059,-41.992,-104.980
1678024421.144,38.086,-62.500,-61.523,104.980,-64.941
1678024421.148,42.480,-53.711,-63.965,188.477,75.195
1678024421.152,58.105,-52.734,-65.918,106.445,88.867
1678024421.155,73.730,-56.152,-61.523,-37.109,101.562
1678024421.159,82.031,-53.223,-65.918,-50.293,-2.441
1678024421.163,77.148,-54.688,-66.895,94.238,-166.016
1678024421.167,73.242,-54.688,-67.871,222.656,2.441
1678024421.171,83.008,-49.805,-71.777,170.410,29.785
1678024421.171,99.121,-49.805,-68.359,27.344,-177.246
1678024421.175,102.539,-53.711,-70.312,-4.395,-255.859
1678024421.179,93.750,-54.199,-76.172,134.277,-136.230
1678024421.183,96.191,-54.199,-74.707,271.484,-11.230
1678024421.187,96.191,-54.199,-69.824,224.121,83.008
1678024421.191,94.727,-49.805,-68.359,69.824,-20.508
1678024421.195,95.703,-48.340,-70.801,17.090,-16.113
1678024421.198,83.008,-49.316,-72.266,139.648,395.020
1678024421.202,76.660,-48.828,-72.266,274.414,354.004
1678024421.206,85.938,-49.316,-73.242,236.816,20.996
1678024421.210,102.539,-44.922,-77.148,72.754,-92.285
1678024421.214,100.098,-41.504,-78.125,-11.230,-208.008
1678024421.218,80.566,-39.062,-80.078,98.145,-140.137
1678024421.222,70.801,-36.133,-79.590,242.676,8.789
1678024421.226,80.078,-34.668,-73.730,230.957,28.809
1678024421.230,89.844,-35.645,-75.195,82.520,-80.566
1678024421.234,91.797,-38.086,-77.148,-23.926,-220.703
1678024421.238,81.055,-33.691,-74.707,48.828,-145.508
1678024421.242,61.523,-31.738,-76.172,198.242,251.465
1678024421.245,55.176,-33.691,-75.195,219.238,289.551
1678024421.249,61.035,-29.785,-71.289,75.195,-18.555
1678024421.253,72.754,-28.320,-72.754,-40.039,-150.879
1678024421.257,72.754,-28.809,-73.242,19.043,-63.965
1678024421.261,51.270,-30.273,-71.777,149.902,8.789
1678024421.261,45.410,-32.715,-73.730,182.617,-5.859
1678024421.265,51.270,-30.273,-70.312,60.059,-73.730
1678024421.269,58.594,-31.738,-68.359,-70.801,-164.062
1678024421.273,61.035,-31.250,-72.266,-37.109,-162.109
1678024421.277,33.691,-33.691,-70.801,119.141,-9.277
1678024421.281,26.367,-38.086,-69.336,193.359,318.848
1678024421.285,42.969,-32.227,-70.801,75.684,418.457
1678024421.288,43.457,-28.320,-67.383,-80.078,-0.977
1678024421.292,39.551,-30.273,-59.570,-59.570,-241.699
1678024421.296,26.855,-32.715,-59.082,94.727,-6.348
1678024421.300,17.578,-30.273,-59.570,166.016,205.078
1678024421.304,27.344,-28.809,-51.758,69.336,8.301
1678024421.322,35.156,-28.809,-41.504,-70.312,-180.176
1678024421.326,34.668,-28.320,-41.504,-83.008,-106.934
1678024421.330,20.996,-31.250,-45.410,41.504,-54.199
1678024421.334,13.672,-31.250,-44.922,127.441,-76.660
1678024421.338,22.949,-32.227,-42.480,46.875,-70.801
1678024421.342,36.133,-29.785,-36.133,-107.910,-83.496
1678024421.346,36.133,-29.297,-38.574,-125.977,-57.129
1678024421.349,15.625,-33.691,-41.016,6.836,-71.777
1678024421.353,2.930,-33.691,-40.039,116.699,-45.410
1678024421.357,9.277,-29.785,-40.527,70.312,100.586
1678024421.361,9.766,-31.250,-44.434,-83.984,-67.383
1678024421.365,8.301,-35.645,-49.805,-139.648,-257.324
1678024421.366,0.488,-33.691,-46.387,-24.414,-10.254
1678024421.370,-12.207,-35.645,-45.410,97.168,191.406
1678024421.374,-8.789,-36.133,-46.875,51.270,-16.602
1678024421.378,4.395,-31.250,-43.457,-104.980,-166.504
1678024421.382,5.859,-29.785,-41.504,-161.621,-61.035
1678024421.386,-13.672,-27.344,-48.340,-59.082,-9.766
1678024421.390,-16.602,-23.926,-45.898,83.008,11.230
1678024421.393,-11.719,-29.785,-33.691,82.031,112.793
1678024421.397,-28.320,-29.297,-30.273,-93.750,152.832
1678024421.401,-39.062,-28.320,-30.273,-188.477,152.832
1678024421.405,-44.434,-27.344,-30.273,-103.027,-76.660
1678024421.409,-50.781,-28.320,-27.832,25.391,-112.305
1678024421.414,-46.875,-30.762,-23.438,33.691,3.418
1678024421.418,-44.922,-28.809,-20.508,-102.539,-123.047
1678024421.422,-57.129,-32.715,-23.438,-210.938,-257.812
1678024421.426,-71.289,-37.109,-26.367,-140.137,-180.664
1678024421.430,-78.613,-41.992,-22.461,18.555,-26.855
1678024421.434,-71.777,-47.363,-18.555,62.988,46.875
1678024421.438,-54.199,-49.805,-18.555,-44.922,-43.457
1678024421.441,-45.410,-47.852,-19.531,-130.859,-178.711
1678024421.445,-54.199,-44.434,-19.531,-46.875,-2.930
1678024421.449,-59.082,-43.945,-25.391,106.934,64.941
1678024421.453,-54.688,-43.457,-29.785,161.133,-125.000
1678024421.457,-39.062,-37.109,-23.438,59.570,-104.492
1678024421.459,-23.438,-33.203,-20.020,-61.523,-168.457
1678024421.463,-32.715,-32.715,-20.020,-27.344,-240.723
1678024421.467,-49.316,-31.738,-20.508,112.305,-98.145
1678024421.471,-45.898,-44.434,-26.855,179.688,137.695
1678024421.475,-33.203,-47.363,-27.832,91.797,143.555
1678024421.479,-30.273,-39.551,-30.273,-51.270,-74.707
1678024421.483,-26.855,-44.922,-38.086,-39.062,-147.461
1678024421.486,-32.715,-38.574,-34.668,111.816,46.387
1678024421.490,-45.898,-35.156,-29.785,188.965,448.730
1678024421.494,-30.762,-40.039,-31.738,96.191,313.477
1678024421.498,-16.602,-38.086,-31.738,-43.945,-177.734
1678024421.502,-30.762,-42.480,-29.785,-50.781,-223.633
1678024421.503,-49.316,-48.340,-25.879,70.312,-101.562
1678024421.507,-43.945,-42.969,-20.508,169.434,-20.508
1678024421.511,-25.879,-37.598,-18.555,112.793,17.578
1678024421.515,-19.531,-38.574,-19.531,-35.156,-9.766
1678024421.519,-16.113,-36.133,-23.926,-62.988,-194.336
1678024421.523,-20.996,-34.668,-22.461,55.176,-183.594
1678024421.527,-22.949,-36.621,-20.020,151.367,81.543
1678024421.530,-25.391,-34.668,-20.508,109.863,332.031
1678024421.534,-25.391,-32.715,-20.508,-25.391,163.086
1678024421.538,-18.555,-31.250,-22.461,-81.543,-215.820
1678024421.542,-27.832,-31.738,-24.902,18.555,-98.633
1678024421.546,-42.480,-33.203,-25.879,133.789,24.902
1678024421.546,-30.273,-34.668,-29.297,104.492,-34.180
1678024421.550,-12.207,-35.645,-29.297,-33.203,-140.137
1678024421.554,-24.414,-38.574,-28.809,-96.680,-199.707
1678024421.558,-42.480,-37.109,-31.738,-7.812,-123.047
1678024421.562,-49.316,-36.621,-25.879,111.328,54.199
1678024421.566,-41.992,-40.527,-22.461,105.957,72.754
1678024421.570,-31.250,-39.551,-24.414,-31.250,162.598
1678024421.573,-24.414,-32.715,-22.461,-105.469,317.871
1678024421.577,-23.926,-31.738,-20.508,-17.578,40.039
1678024421.581,-40.527,-34.180,-11.719,117.676,-74.707
1678024421.585,-47.363,-33.691,-8.789,129.883,102.051
1678024421.589,-28.809,-33.691,-13.184,-3.418,-73.730
1678024421.593,-14.160,-32.227,-16.602,-104.980,-272.461
1678024421.597,-18.555,-32.715,-15.625,-50.781,-220.703
1678024421.601,-35.156,-36.133,-20.020,73.242,-54.688
1678024421.605,-33.203,-37.109,-21.973,110.352,-16.602
1678024421.609,-10.254,-34.668,-18.066,4.395,-172.363
1678024421.613,1.465,-30.273,-16.602,-113.281,-145.020
1678024421.617,-11.230,-27.344,-11.719,-62.012,175.781
1678024421.620,-32.227,-29.297,-13.184,74.219,191.895
1678024421.624,-35.645,-34.668,-13.672,114.746,-82.031
1678024421.628,-25.391,-33.691,-9.277,12.207,-122.559
1678024421.632,-19.043,-31.738,-15.625,-107.910,-132.324
1678024421.636,-32.227,-29.785,-22.949,-86.914,-235.352
1678024421.637,-39.551,-26.855,-22.461,46.875,-112.793
1678024421.641,-39.062,-31.738,-25.391,121.094,93.262
1678024421.645,-30.762,-36.621,-26.367,23.926,104.004
1678024421.649,-28.809,-32.715,-21.973,-119.141,-214.355
1678024421.653,-45.898,-33.691,-22.461,-128.418,-303.223
1678024421.657,-56.152,-32.715,-23.438,4.395,101.074
1678024421.661,-60.547,-32.227,-19.531,100.586,407.227
1678024421.664,-58.594,-32.227,-20.508,4.395,79.102
1678024421.668,-51.758,-30.762,-18.555,-148.438,-249.512
1678024421.672,-57.617,-34.668,-19.043,-150.391,-85.938
1678024421.676,-63.965,-34.180,-22.949,-22.949,24.414
1678024421.680,-66.406,-33.203,-21.484,72.266,-50.781
1678024421.698,-61.523,-29.785,-22.461,12.207,-65.918
1678024421.702,-45.898,-26.855,-21.973,-130.371,-142.090
1678024421.706,-43.945,-30.273,-20.020,-171.387,-194.824
1678024421.710,-55.664,-36.133,-23.438,-50.293,-209.473
1678024421.714,-61.523,-35.645,-24.414,74.707,-72.266
1678024421.718,-58.105,-31.738,-25.879,41.992,194.336
1678024421.722,-46.875,-32.227,-25.879,-107.422,148.926
1678024421.725,-37.109,-34.668,-26.855,-176.758,-239.258
1678024421.729,-49.805,-32.715,-26.367,-63.965,-229.492
1678024421.733,-72.266,-34.180,-23.438,72.754,54.688
1678024421.737,-72.754,-37.598,-22.461,45.898,56.641
1678024421.741,-59.082,-36.621,-22.949,-115.234,-158.691
1678024421.741,-58.105,-39.551,-23.926,-200.195,-203.613
1678024421.745,-67.871,-43.945,-20.508,-95.215,-148.926
1678024421.749,-70.312,-42.480,-19.531,57.617,-62.988
1678024421.753,-61.523,-38.574,-18.555,61.523,16.113
1678024421.757,-52.246,-39.551,-22.949,-91.309,20.508
1678024421.761,-46.387,-39.062,-22.461,-195.801,-68.359
1678024421.765,-47.852,-33.691,-18.555,-103.027,-184.570
1678024421.768,-51.758,-28.320,-20.508,61.523,54.199
1678024421.772,-49.316,-26.855,-24.414,89.355,288.574
1678024421.776,-39.062,-29.785,-20.508,-49.316,339.844
1678024421.780,-35.156,-36.621,-22.461,-178.223,40.039
1678024421.784,-46.387,-37.109,-22.461,-120.605,-206.055
1678024421.788,-57.129,-37.109,-16.113,41.992,-76.172
1678024421.792,-53.711,-34.180,-15.137,93.750,-16.113
1678024421.796,-44.922,-30.273,-15.625,-41.992,-60.547
1678024421.800,-41.992,-32.227,-15.625,-183.105,-164.551
1678024421.804,-47.363,-33.203,-14.648,-135.742,-151.367
1678024421.808,-63.477,-38.086,-17.090,20.020,19.531
1678024421.812,-75.684,-42.969,-20.508,83.008,91.797
1678024421.815,-56.152,-40.527,-21.484,-20.020,-58.594
1678024421.819,-40.527,-32.715,-17.578,-164.551,50.781
1678024421.823,-53.711,-31.250,-22.461,-155.273,42.969
1678024421.827,-54.199,-34.668,-26.855,15.625,-171.387
1678024421.831,-37.598,-30.273,-20.996,118.652,-24.902
1678024421.831,-20.508,-27.344,-19.043,9.766,-18.555
1678024421.835,-15.625,-33.203,-26.367,-159.668,-260.254
1678024421.839,-17.090,-26.367,-36.621,-151.367,-321.289
1678024421.843,-29.297,-21.973,-36.621,20.020,-120.605
1678024421.847,-31.250,-25.391,-28.320,136.719,103.516
1678024421.851,-17.090,-20.020,-30.273,52.246,127.930
1678024421.855,-7.324,-15.625,-32.227,-123.535,-47.852
1678024421.858,-4.883,-17.578,-27.344,-150.391,-30.273
1678024421.862,-23.438,-22.949,-30.273,4.883,300.293
1678024421.866,-43.457,-25.879,-35.156,133.789,233.398
1678024421.870,-21.973,-26.367,-32.715,73.730,-69.336
1678024421.874,-9.277,-27.832,-32.715,-105.469,-83.008
1678024421.878,-22.949,-26.367,-32.715,-165.527,-144.531
1678024421.882,-25.879,-24.902,-31.738,-21.973,-184.570
1678024421.886,-24.902,-27.832,-33.203,130.371,-21.973
1678024421.890,-22.461,-27.832,-29.297,86.914,37.598
1678024421.894,-12.207,-26.367,-27.344,-94.727,-160.156
1678024421.898,-9.277,-25.879,-30.273,-170.898,-179.688
1678024421.902,-25.879,-31.738,-29.785,-48.340,-60.547
1678024421.905,-37.109,-34.668,-29.297,124.512,205.566
1678024421.909,-41.016,-33.691,-28.809,112.305,242.188
1678024421.913,-37.598,-34.668,-28.809,-70.312,-142.578
1678024421.917,-25.879,-32.715,-23.926,-172.852,-268.066
1678024421.921,-38.086,-34.668,-22.461,-72.266,-99.121
1678024421.921,-60.059,-40.527,-28.809,90.820,35.156
1678024421.925,-62.012,-41.992,-31.250,94.238,-14.160
1678024421.929,-51.758,-41.016,-28.320,-63.965,42.969
1678024421.933,-48.340,-38.574,-20.508,-176.758,-23.438
1678024421.937,-66.406,-33.691,-20.996,-89.844,-145.020
1678024421.941,-79.102,-34.668,-24.414,81.543,-18.555
1678024421.945,-66.406,-38.086,-23.438,108.398,187.012
1678024421.948,-48.828,-38.086,-20.996,-42.480,355.469
1678024421.952,-37.109,-36.621,-21.973,-185.547,-41.992
1678024421.956,-42.969,-36.621,-26.855,-119.141,-317.383
1678024421.960,-53.711,-35.156,-20.996,73.242,-109.863
1678024421.964,-49.805,-31.250,-18.066,136.719,4.883
1678024421.969,-27.832,-34.668,-21.484,5.371,-124.023
1678024421.973,-16.113,-39.551,-23.438,-147.461,-235.840
1678024421.977,-26.855,-36.621,-22.949,-105.469,-144.043
1678024421.981,-33.203,-34.180,-21.973,80.078,-9.277
1678024421.985,-29.785,-33.203,-24.902,162.598,48.340
1678024421.989,-25.391,-30.273,-28.809,37.109,14.160
1678024421.993,-24.414,-30.762,-29.297,-123.047,35.156
1678024421.996,-31.250,-27.832,-25.391,-112.305,-59.082
1678024422.000,-37.109,-20.996,-22.461,52.246,-165.527
1678024422.004,-34.668,-21.484,-22.461,156.250,-38.086
1678024422.008,-23.926,-19.531,-20.020,58.594,-12.695
1678024422.012,-17.578,-21.484,-18.555,-115.234,-197.754
1678024422.011,-15.625,-21.484,-18.066,-129.883,-276.855
1678024422.015,-24.414,-11.719,-14.160,22.949,-127.930
1678024422.019,-43.945,-15.137,-11.230,130.859,62.500
1678024422.023,-47.852,-16.602,-11.719,37.598,0.977
1678024422.027,-41.016,-7.324,-12.207,-154.785,-125.000
1678024422.031,-49.316,-15.625,-6.836,-186.035,0.000
1678024422.035,-86.914,-8.301,0.977,-43.457,321.777
1678024422.038,-113.770,-4.395,6.348,58.105,267.090
1678024422.042,-124.023,-11.230,8.301,-31.250,18.066
1678024422.046,-145.508,-5.371,15.625,-219.238,12.695
1678024422.050,-167.969,0.488,7.324,-299.805,-94.238
1678024422.054,-205.566,6.348,7.812,-206.055,-274.902
1678024422.071,-251.465,-1.953,17.090,-85.449,-90.820
1678024422.075,-264.160,2.441,13.184,-134.766,39.062
1678024422.079,-246.582,14.648,12.695,-305.664,-111.816
1678024422.083,-255.371,7.324,7.812,-395.508,-292.480
1678024422.087,-281.250,0.977,18.066,-282.227,-201.172
1678024422.091,-286.133,8.301,22.461,-112.305,70.801
1678024422.095,-275.879,5.371,14.160,-118.652,134.277
1678024422.098,-257.812,3.418,18.066,-287.109,-57.617
1678024422.102,-239.746,5.859,15.137,-387.695,-262.695
1678024422.106,-230.957,12.207,15.137,-274.414,3.906
1678024422.110,-235.840,4.883,17.090,-90.820,208.984
1678024422.114,-226.074,-4.395,15.137,-59.570,53.223
1678024422.116,-202.148,0.000,15.625,-205.566,-34.180
1678024422.120,-185.059,-6.348,15.625,-317.383,-253.906
1678024422.124,-175.781,-10.254,13.672,-228.516,-270.020
1678024422.128,-170.410,-13.672,6.348,-42.480,-83.496
1678024422.132,-153.809,-18.066,-1.465,13.184,146.973
1678024422.136,-123.047,-22.949,-0.977,-120.605,127.930
1678024422.140,-101.074,-20.508,-1.465,-249.023,-103.027
1678024422.143,-112.305,-23.438,-14.648,-197.266,-207.031
1678024422.147,-127.930,-36.621,-24.414,-10.254,51.270
1678024422.151,-118.164,-35.156,-28.809,77.148,455.566
1678024422.155,-83.984,-33.691,-34.180,-47.363,95.703
1678024422.159,-64.453,-39.062,-32.227,-190.918,-253.418
1678024422.163,-70.312,-42.969,-34.180,-152.832,-161.621
1678024422.167,-64.453,-43.945,-39.062,23.438,-95.703
1678024422.171,-48.340,-42.969,-33.691,121.094,-38.574
1678024422.175,-37.598,-45.898,-29.785,25.391,-37.109
1678024422.179,-25.391,-52.246,-34.180,-127.930,-129.395
1678024422.183,-19.043,-56.152,-34.180,-108.887,-93.262
1678024422.187,-30.762,-57.617,-32.227,57.129,44.922
1678024422.190,-35.156,-60.547,-26.855,161.621,93.750
1678024422.194,-18.066,-63.477,-25.391,78.125,201.172
1678024422.198,1.953,-67.383,-29.785,-80.566,62.012
1678024422.202,7.812,-67.383,-29.297,-89.844,-209.961
1678024422.206,-0.488,-63.965,-26.367,58.105,-81.543
1678024422.206,-9.277,-62.012,-25.391,189.453,114.746
1678024422.210,7.812,-62.500,-25.391,128.906,-11.719
1678024422.214,40.527,-60.547,-23.926,-35.645,-192.871
1678024422.218,37.598,-57.617,-25.879,-77.637,-281.250
1678024422.222,23.438,-54.199,-22.949,58.105,-90.332
1678024422.226,27.832,-53.711,-21.484,197.266,153.809
1678024422.230,37.109,-51.758,-23.926,153.320,95.215
1678024422.233,56.152,-52.246,-23.438,-13.672,80.566
1678024422.237,57.617,-51.270,-22.461,-68.848,129.883
1678024422.241,38.574,-49.805,-23.438,56.641,-46.387
1678024422.245,31.250,-50.293,-26.367,197.754,-80.078
1678024422.249,43.945,-49.316,-31.250,173.828,28.809
1678024422.254,64.941,-42.969,-32.227,1.953,-117.188
1678024422.258,73.242,-35.156,-30.762,-98.633,-162.109
1678024422.262,66.406,-37.109,-33.691,5.371,-97.656
1678024422.266,48.340,-42.480,-35.156,164.551,41.016
1678024422.270,40.527,-43.945,-38.086,158.691,91.309
1678024422.274,56.641,-40.039,-43.457,1.465,-148.438
1678024422.278,63.477,-39.551,-45.410,-111.816,-229.492
1678024422.281,46.875,-42.969,-42.969,-28.809,53.223
1678024422.285,28.320,-48.828,-45.410,137.695,130.859
1678024422.289,32.227,-48.340,-41.016,156.738,10.254
1678024422.293,41.504,-42.480,-35.156,15.137,-36.133
1678024422.297,42.969,-41.992,-37.598,-104.980,-207.520
1678024422.296,30.762,-39.062,-37.598,-46.875,-248.535
1678024422.300,12.207,-41.504,-37.109,110.352,-135.254
1678024422.304,10.254,-47.363,-41.992,164.062,6.836
1678024422.308,19.043,-45.410,-43.457,28.320,48.828
1678024422.312,29.297,-40.039,-38.086,-105.469,-50.293
1678024422.316,19.043,-42.480,-40.039,-63.477,-121.094
1678024422.320,11.719,-43.457,-49.316,88.379,88.379
1678024422.323,18.555,-37.598,-46.875,170.898,503.418
1678024422.327,30.273,-33.691,-38.086,59.082,292.969
1678024422.331,41.992,-35.645,-36.133,-88.379,-242.676
1678024422.335,36.133,-35.156,-37.109,-75.195,-255.859
1678024422.339,20.996,-25.391,-34.668,79.102,-98.145
1678024422.343,20.020,-22.949,-34.668,182.129,-96.680
1678024422.347,31.738,-29.785,-36.621,73.242,-118.652
1678024422.351,27.832,-29.297,-37.109,-98.633,-157.715
1678024422.355,17.578,-33.691,-44.922,-101.074,-247.559
1678024422.359,10.254,-36.621,-44.922,53.223,-164.551
1678024422.363,7.812,-32.715,-38.086,154.785,7.812
1678024422.367,19.043,-32.227,-39.551,75.684,221.680
1678024422.370,23.438,-32.715,-41.992,-82.520,46.875
1678024422.374,17.090,-30.762,-37.598,-112.793,-256.348
1678024422.378,12.207,-26.367,-36.133,29.785,-104.980
1678024422.382,0.000,-23.926,-40.039,137.695,123.535
1678024422.386,-6.348,-25.391,-44.922,49.316,15.137
1678024422.386,0.488,-29.297,-51.758,-122.070,-178.711
1678024422.390,-3.906,-30.273,-48.828,-177.246,-223.633
1678024422.394,-19.043,-31.738,-43.945,-52.246,-114.258
1678024422.398,-35.645,-37.109,-43.457,79.590,87.891
1678024422.402,-20.996,-34.668,-51.758,27.832,111.816
1678024422.406,12.695,-33.691,-45.898,-125.977,106.445
1678024422.410,-16.113,-38.086,-29.297,-205.566,326.172
1678024422.413,-55.664,-38.086,-29.297,-120.605,119.141
1678024422.417,-56.152,-41.504,-29.785,11.719,-77.637
1678024422.421,-57.129,-53.711,-27.832,1.465,138.184
1678024422.425,-48.828,-55.176,-28.809,-150.391,36.621
1678024422.429,-45.410,-53.223,-21.973,-252.930,-273.438
1678024422.447,-58.594,-54.688,-18.555,-158.203,-190.918
1678024422.451,-58.105,-52.734,-17.578,1.953,-4.883
1678024422.455,-58.105,-44.922,-12.207,13.672,7.812
1678024422.459,-53.711,-43.945,-16.602,-142.578,-101.074
1678024422.463,-34.180,-47.363,-21.484,-240.234,-230.957
1678024422.467,-36.621,-48.828,-23.926,-143.555,-77.637
1678024422.471,-49.316,-46.875,-25.391,17.090,107.422
1678024422.474,-51.758,-41.992,-23.438,47.363,-13.672
1678024422.478,-39.551,-38.574,-20.996,-83.496,-67.383
1678024422.482,-24.902,-37.598,-18.066,-184.570,14.160
1678024422.486,-26.855,-38.086,-21.484,-116.699,-103.516
1678024422.490,-42.969,-40.527,-25.391,35.645,-100.586
1678024422.491,-41.992,-41.016,-26.855,87.891,40.039
1678024422.495,-24.902,-37.109,-24.414,-24.902,0.000
1678024422.499,-20.996,-35.156,-31.250,-151.855,-233.398
1678024422.503,-31.250,-36.621,-37.109,-117.676,-295.410
1678024422.507,-35.156,-35.645,-34.180,37.109,-99.121
1678024422.511,-37.598,-30.762,-39.062,101.562,93.750
1678024422.515,-36.621,-28.320,-38.086,-10.254,103.516
1678024422.518,-26.855,-31.738,-34.668,-165.039,-75.195
1678024422.522,-27.832,-29.785,-38.086,-154.785,-86.914
1678024422.526,-42.969,-26.855,-35.645,16.602,226.562
1678024422.530,-41.992,-32.227,-31.250,114.746,142.090
1678024422.534,-26.855,-31.250,-30.762,19.043,-113.770
1678024422.538,-24.414,-26.367,-31.250,-135.254,-229.004
1678024422.542,-34.180,-28.809,-30.762,-140.625,-236.816
1678024422.546,-43.457,-31.738,-32.715,-0.977,-112.305
1678024422.550,-41.504,-31.738,-36.133,109.375,18.066
1678024422.554,-32.715,-25.879,-33.691,41.504,103.027
1678024422.558,-26.367,-20.020,-27.344,-110.352,11.719
1678024422.562,-28.320,-23.438,-26.367,-143.555,-132.812
1678024422.565,-38.086,-25.879,-28.320,-12.207,-62.500
1678024422.569,-41.992,-24.902,-29.297,115.723,203.613
1678024422.573,-38.574,-23.438,-29.297,67.871,165.527
1678024422.577,-23.438,-18.555,-30.273,-99.609,-162.598
1678024422.581,-16.602,-18.555,-29.297,-165.039,-208.984
1678024422.581,-32.227,-21.484,-26.367,-36.621,-114.746
1678024422.585,-30.762,-22.949,-23.438,105.957,-42.480
1678024422.589,-21.484,-24.414,-23.438,72.266,-74.219
1678024422.593,-19.043,-25.391,-26.855,-78.613,-76.172
1678024422.597,-20.508,-29.297,-29.297,-145.508,-32.715
1678024422.601,-28.809,-29.785,-32.715,-52.734,-95.703
1678024422.605,-38.086,-36.621,-34.668,77.637,-44.434
1678024422.608,-36.621,-38.574,-35.156,65.430,147.461
1678024422.612,-31.250,-33.691,-35.156,-74.219,337.891
1678024422.616,-35.156,-41.016,-33.691,-167.969,-20.996
1678024422.620,-43.945,-42.480,-34.180,-92.773,-303.711
1678024422.624,-56.152,-44.434,-34.668,48.340,-77.637
1678024422.628,-57.617,-43.945,-32.227,57.617,6.836
1678024422.632,-44.922,-35.645,-27.344,-80.078,-151.855
1678024422.636,-30.762,-35.156,-29.297,-193.848,-265.137
1678024422.640,-32.227,-33.203,-30.762,-124.023,-171.387
1678024422.644,-45.898,-29.785,-32.227,32.227,-41.504
1678024422.648,-46.387,-31.738,-35.645,75.684,96.191
1678024422.652,-36.133,-31.738,-41.504,-49.805,86.426
1678024422.655,-27.832,-35.156,-45.898,-171.387,157.715
1678024422.659,-12.695,-27.832,-45.898,-118.164,98.633
1678024422.663,-28.320,-12.207,-42.480,19.531,-116.211
1678024422.667,-45.898,-15.137,-38.574,82.031,37.109
1678024422.671,-30.273,-18.066,-40.527,-12.695,55.176
1678024422.671,-23.438,-16.602,-39.551,-140.625,-178.223
1678024422.675,-28.809,-13.672,-39.551,-115.234,-304.199
1678024422.679,-37.598,-11.230,-46.875,23.926,-90.332
1678024422.683,-39.062,-11.719,-47.852,90.332,25.391
1678024422.687,-28.320,-14.648,-44.922,-1.953,-11.719
1678024422.691,-25.391,-14.160,-42.480,-125.977,-84.961
1678024422.695,-31.738,-17.090,-39.551,-121.094,18.066
1678024422.698,-38.574,-21.973,-39.062,29.785,464.355
1678024422.702,-42.969,-26.367,-45.898,115.723,362.793
1678024422.706,-37.109,-22.461,-42.969,20.508,-52.734
1678024422.710,-24.902,-18.555,-37.598,-115.723,-180.664
1678024422.714,-23.438,-22.461,-39.062,-132.812,-191.406
1678024422.718,-30.273,-23.438,-37.109,-4.883,-150.391
1678024422.722,-34.180,-19.531,-40.527,111.328,-73.242
1678024422.726,-32.227,-21.973,-42.969,50.781,-19.531
1678024422.730,-16.602,-23.438,-39.551,-104.980,-154.785
1678024422.734,-13.184,-17.578,-36.133,-138.184,-263.184
1678024422.738,-27.832,-18.066,-36.621,-5.371,-134.277
1678024422.742,-29.785,-18.555,-38.086,113.281,180.664
1678024422.745,-29.297,-20.020,-40.527,61.035,152.832
1678024422.749,-24.902,-20.996,-39.062,-87.402,-173.340
1678024422.753,-23.438,-20.508,-34.180,-132.812,-208.984
1678024422.757,-38.086,-26.367,-33.691,-21.484,-71.289
1678024422.761,-47.852,-30.762,-35.645,106.445,-4.883
1678024422.761,-38.574,-30.273,-32.715,85.938,-2.930
1678024422.765,-31.738,-31.250,-33.203,-69.336,-2.441
1678024422.769,-34.180,-40.039,-42.480,-153.320,-53.223
1678024422.773,-36.133,-38.574,-43.457,-52.246,-132.324
1678024422.777,-45.898,-28.809,-38.574,83.008,-8.789
1678024422.781,-43.945,-25.391,-34.180,87.891,235.352
1678024422.785,-34.668,-28.809,-38.086,-43.945,365.723
1678024422.788,-35.645,-31.250,-49.805,-143.555,-19.043
1678024422.792,-41.992,-29.297,-45.410,-67.383,-238.281
1678024422.796,-45.898,-34.180,-34.180,77.148,2.930
1678024422.800,-51.270,-34.668,-36.621,99.121,83.984
1678024422.804,-40.527,-30.762,-37.109,-41.504,-140.625
1678024422.809,-33.691,-33.203,-31.250,-147.949,-187.500
1678024422.813,-47.363,-36.133,-31.250,-83.496,-30.762
1678024422.817,-53.223,-33.203,-35.645,57.617,-0.977
1678024422.821,-46.387,-29.297,-34.180,98.145,15.625
1678024422.825,-44.434,-30.273,-31.738,-20.020,-54.688
1678024422.829,-36.133,-29.297,-34.180,-138.672,-66.406
1678024422.833,-32.227,-30.762,-34.668,-95.703,-53.223
1678024422.836,-50.293,-33.203,-32.715,45.898,-114.746
1678024422.840,-56.152,-29.297,-28.320,102.539,13.672
1678024422.844,-45.410,-32.227,-30.762,3.906,166.016
1678024422.848,-35.156,-39.062,-38.574,-130.371,-4.883
1678024422.852,-44.434,-33.691,-37.598,-114.258,-208.008
1678024422.867,-59.082,-30.762,-36.133,33.691,-152.832
1678024422.871,-58.105,-32.227,-38.086,108.887,-60.547
1678024422.875,-42.480,-30.273,-39.551,10.254,-23.438
1678024422.879,-37.109,-31.738,-39.062,-128.418,-105.469
1678024422.883,-41.992,-30.273,-32.227,-126.953,-70.312
1678024422.887,-44.434,-29.785,-28.320,17.578,230.957
1678024422.891,-52.246,-32.715,-28.320,105.957,243.164
1678024422.894,-46.875,-29.297,-27.344,19.043,-48.828
1678024422.898,-33.691,-29.785,-27.832,-122.070,-8.789
1678024422.902,-36.621,-31.250,-29.297,-135.254,48.340
1678024422.906,-52.246,-31.738,-28.809,-11.719,-99.121
1678024422.910,-62.500,-34.668,-24.414,94.238,-44.922
1678024422.913,-57.617,-35.645,-28.809,38.574,-81.055
1678024422.917,-41.504,-32.227,-32.715,-109.863,-184.570
1678024422.921,-43.945,-30.762,-23.438,-146.973,-264.160
1678024422.925,-59.082,-32.715,-25.879,-30.273,-188.477
1678024422.929,-49.316,-32.715,-30.762,91.797,3.906
1678024422.933,-26.367,-30.273,-28.809,52.734,120.605
1678024422.937,-38.574,-29.785,-18.555,-95.215,9.766
1678024422.940,-53.223,-33.691,-25.879,-156.738,-171.387
1678024422.944,-54.688,-33.203,-36.621,-48.828,84.961
1678024422.948,-61.035,-32.715,-34.180,74.707,249.512
1678024422.952,-52.734,-32.227,-34.668,54.688,-61.523
1678024422.956,-40.039,-25.879,-30.273,-77.148,-101.074
1678024422.956,-39.551,-24.902,-31.250,-166.992,-155.273
1678024422.960,-51.758,-32.227,-37.598,-89.355,-223.633
1678024422.964,-62.012,-30.273,-32.715,45.898,-88.867
1678024422.968,-63.477,-30.273,-31.250,54.688,21.973
1678024422.972,-48.340,-30.762,-31.250,-68.848,44.434
1678024422.976,-35.156,-24.902,-27.344,-170.410,-124.512
1678024422.980,-36.133,-28.320,-31.738,-102.051,-166.992
1678024422.983,-48.828,-30.273,-33.691,47.363,189.453
1678024422.987,-54.199,-29.297,-32.715,79.102,537.598
1678024422.991,-50.293,-30.273,-36.621,-51.270,256.348
1678024422.995,-45.410,-26.855,-41.016,-169.434,-201.660
1678024422.999,-46.387,-23.926,-41.992,-121.094,-220.215
1678024423.003,-49.316,-27.344,-37.109,23.438,-124.023
1678024423.007,-44.434,-27.832,-34.180,68.848,-62.012
1678024423.011,-36.133,-27.344,-33.691,-32.715,-64.453
1678024423.015,-22.461,-24.414,-28.320,-138.672,-184.082
1678024423.019,-26.367,-26.855,-28.320,-110.840,-250.977
1678024423.023,-35.645,-32.715,-32.715,31.250,-147.949
1678024423.027,-45.410,-31.738,-34.668,102.051,67.383
1678024423.030,-45.410,-35.156,-37.109,-9.766,211.914
1678024423.034,-26.855,-32.715,-36.133,-158.691,-0.977
1678024423.038,-31.738,-26.367,-33.691,-147.461,-250.488
1678024423.042,-46.387,-31.738,-40.527,-6.836,-107.910
1678024423.046,-39.551,-32.227,-39.551,77.148,109.863
1678024423.046,-32.227,-27.832,-34.180,-4.395,-11.719
1678024423.050,-28.809,-28.320,-31.738,-144.531,-276.367
1678024423.054,-32.227,-31.250,-28.320,-152.832,-271.973
1678024423.058,-41.504,-29.297,-30.762,-14.160,-83.984
1678024423.062,-40.039,-33.203,-27.344,86.426,34.668
1678024423.066,-36.621,-39.062,-24.902,17.090,13.184
1678024423.070,-32.227,-34.180,-24.414,-115.234,73.730
1678024423.073,-29.297,-34.180,-20.996,-134.277,292.969
1678024423.077,-44.434,-36.133,-19.043,-18.555,130.371
1678024423.081,-55.176,-37.598,-20.020,86.426,-45.410
1678024423.085,-48.828,-37.598,-26.855,26.855,-19.043
1678024423.089,-37.109,-33.203,-22.461,-123.535,-173.828
1678024423.109,-27.832,-32.227,-20.996,-168.457,-216.309
1678024423.113,-43.945,-27.832,-27.344,-66.406,-153.320
1678024423.117,-65.918,-22.949,-20.508,47.852,45.898
1678024423.121,-73.730,-23.926,-21.484,18.555,67.383
1678024423.125,-76.172,-24.902,-31.250,-125.977,-112.793
1678024423.129,-62.012,-17.090,-25.879,-200.684,-150.391
1678024423.133,-86.426,-19.531,-25.391,-127.930,114.746
1678024423.136,-116.211,-8.789,-18.066,-10.742,229.492
1678024423.140,-114.258,0.000,-6.348,-33.203,-57.129
1678024423.144,-144.043,-6.836,-15.625,-210.449,-116.211
1678024423.148,-170.410,-2.930,-13.184,-319.336,-190.430
1678024423.152,-184.570,7.812,-4.395,-251.465,-269.531
1678024423.151,-214.355,20.508,0.000,-131.836,-133.789
1678024423.155,-252.930,13.672,-1.465,-153.320,-21.973
1678024423.159,-273.438,4.883,5.371,-307.129,-6.348
1678024423.163,-278.320,11.719,12.695,-420.410,-177.734
1678024423.167,-288.574,13.672,10.254,-356.445,-171.387
1678024423.171,-292.480,9.766,9.766,-207.031,199.707
1678024423.175,-289.062,6.836,16.602,-170.410,187.988
1678024423.178,-286.621,0.977,18.066,-281.738,-94.238
1678024423.182,-268.555,-3.906,16.602,-382.812,-306.152
1678024423.186,-255.371,-5.859,9.766,-333.008,-156.738
1678024423.190,-261.230,-6.836,4.883,-166.016,371.094
1678024423.194,-258.789,-18.066,10.742,-105.469,321.777
1678024423.196,-230.469,-23.438,14.160,-215.820,-50.293
1678024423.200,-207.031,-30.273,13.672,-320.801,-177.246
1678024423.204,-208.496,-41.992,10.742,-284.668,-193.359
1678024423.208,-208.496,-42.969,2.441,-138.672,-118.164
1678024423.212,-193.848,-44.434,5.371,-41.016,16.602
1678024423.216,-169.434,-49.805,6.348,-104.980,94.238
1678024423.220,-139.648,-53.223,0.977,-225.098,2.930
1678024423.223,-124.512,-57.129,-0.977,-213.379,-147.949
1678024423.227,-124.023,-63.477,-11.719,-76.172,-142.090
1678024423.231,-106.445,-64.941,-18.555,31.738,178.223
1678024423.235,-81.055,-65.430,-18.555,-23.438,71.777
1678024423.239,-63.477,-65.918,-12.695,-164.062,-315.918
1678024423.241,-57.617,-65.430,-13.672,-171.875,-250.000
1678024423.245,-59.570,-65.430,-24.902,-23.438,-108.887
1678024423.249,-68.359,-65.918,-24.414,85.938,-80.078
1678024423.253,-66.895,-64.941,-23.926,30.762,-96.680
1678024423.257,-41.504,-62.012,-28.809,-101.074,-20.996
1678024423.261,-31.250,-60.547,-31.250,-125.000,23.926
1678024423.265,-41.016,-61.035,-30.273,-7.812,-94.727
1678024423.268,-36.621,-68.359,-25.879,116.699,-37.109
1678024423.272,-18.555,-69.336,-27.344,83.496,147.949
1678024423.276,-15.625,-65.430,-29.297,-55.176,322.754
1678024423.280,-10.254,-66.406,-30.273,-112.305,33.691
1678024423.284,-10.742,-66.406,-34.180,-11.719,-224.121
1678024423.289,-21.484,-63.477,-36.621,115.723,-15.137
1678024423.293,-10.742,-61.523,-38.574,93.750,58.105
1678024423.297,6.836,-57.617,-39.062,-31.738,-77.637
1678024423.301,9.766,-60.059,-38.574,-85.938,-218.750
1678024423.305,6.348,-57.617,-39.062,5.371,-217.773
1678024423.309,1.465,-51.270,-40.039,127.441,-79.102
1678024423.313,8.301,-53.223,-41.504,132.324,10.254
1678024423.316,33.691,-46.875,-36.133,0.488,-149.902
1678024423.320,46.387,-39.062,-33.691,-78.125,-20.508
1678024423.324,34.668,-39.062,-32.227,5.859,95.215
1678024423.328,30.273,-40.527,-33.203,136.230,-122.070
1678024423.332,34.668,-37.109,-35.645,162.598,-41.016
1678024423.331,40.039,-35.156,-33.691,41.992,-57.129
1678024423.335,48.340,-36.133,-35.156,-69.824,-247.070
1678024423.339,50.293,-30.762,-36.621,-14.160,-262.207
1678024423.343,36.621,-28.320,-37.109,131.836,-128.418
1678024423.347,32.715,-25.879,-35.645,168.945,20.508
1678024423.351,48.340,-26.367,-33.203,48.340,59.570
1678024423.355,52.734,-32.227,-31.738,-63.965,-73.242
1678024423.358,41.504,-28.809,-33.203,-17.090,-51.758
1678024423.362,33.203,-28.320,-33.203,130.371,289.062
1678024423.366,36.133,-33.203,-35.156,186.035,208.008
1678024423.370,54.199,-29.297,-33.203,75.195,-76.172
1678024423.374,63.477,-26.367,-30.762,-55.664,-129.883
1678024423.378,50.781,-33.203,-36.133,-32.227,-202.148
1678024423.382,29.297,-32.227,-35.645,101.074,-204.590
1678024423.386,19.531,-28.320,-34.668,154.785,-82.031
1678024423.390,21.973,-33.691,-40.039,68.848,47.852
1678024423.394,21.973,-35.645,-41.992,-60.059,-105.469
1678024423.398,21.484,-34.180,-38.574,-61.035,-237.793
1678024423.402,13.184,-33.691,-38.574,71.289,-90.332
1678024423.405,10.254,-34.180,-39.551,156.738,196.777
1678024423.409,15.625,-38.574,-41.016,76.172,201.660
1678024423.413,18.555,-41.504,-43.945,-71.289,-221.191
1678024423.417,8.301,-39.062,-52.246,-93.750,-314.453
1678024423.421,-6.348,-37.109,-49.316,35.645,-166.992
1678024423.422,-4.883,-41.504,-39.062,147.461,-107.910
1678024423.426,5.371,-41.504,-34.668,102.539,-112.793
1678024423.430,16.602,-35.645,-33.203,-42.969,-28.320
1678024423.434,14.648,-33.691,-34.180,-93.262,-55.176
1678024423.438,-5.371,-39.551,-34.180,11.719,-165.527
1678024423.442,-23.438,-47.852,-39.062,119.141,-19.043
1678024423.446,-21.973,-45.410,-39.551,92.285,155.762
1678024423.449,-10.742,-45.410,-30.762,-29.785,323.242
1678024423.453,-9.766,-51.270,-33.691,-97.168,28.809
1678024423.457,-22.461,-51.270,-39.062,-23.438,-200.195
1678024423.461,-29.785,-47.852,-37.598,91.797,17.578
1678024423.465,-21.973,-44.434,-35.156,80.078,-46.875
1678024423.468,-6.836,-42.480,-33.203,-48.340,-175.781
1678024423.472,-10.742,-41.504,-37.109,-123.535,-179.199
1678024423.476,-34.668,-41.016,-37.598,-37.598,-121.582
1678024423.480,-39.062,-42.969,-33.203,93.750,-85.938
1678024423.484,-29.785,-39.062,-31.738,85.449,-76.172
1678024423.488,-20.020,-38.086,-29.297,-48.340,-69.824
1678024423.492,-16.113,-37.109,-22.461,-121.094,141.113
1678024423.495,-21.973,-34.180,-24.902,-49.805,215.332
1678024423.499,-20.508,-35.156,-29.785,78.613,-47.852
1678024423.503,-5.859,-38.574,-20.996,112.793,-54.688
1678024423.507,0.000,-36.621,-15.625,-18.066,-40.527
1678024423.511,-24.902,-45.410,-15.137,-143.555,-184.082
1678024423.511,-30.273,-52.246,-10.742,-84.961,-219.238
1678024423.515,-40.039,-48.340,-3.906,41.992,-24.414
1678024423.519,-46.875,-57.617,3.418,72.754,76.660
1678024423.523,-45.898,-69.336,3.906,-49.316,-5.859
1678024423.527,-62.012,-71.289,2.930,-174.805,-106.445
1678024423.531,-76.660,-72.266,7.812,-136.230,17.090
1678024423.535,-104.980,-77.148,10.742,-11.719,304.199
1678024423.538,-105.469,-82.520,9.766,43.945,245.605
1678024423.542,-99.121,-86.914,10.742,-53.711,-0.488
1678024423.546,-99.121,-86.426,13.672,-175.781,-38.086
1678024423.550,-97.168,-86.426,14.160,-151.367,53.711
1678024423.554,-108.398,-83.496,16.602,-27.832,-101.074
1678024423.571,-108.398,-84.961,16.602,46.875,-66.895
1678024423.575,-93.262,-89.355,18.555,-31.250,-25.879
1678024423.579,-74.707,-82.520,13.184,-160.645,-155.762
1678024423.583,-71.777,-76.660,4.883,-161.621,-225.098
1678024423.587,-79.102,-76.660,1.465,-27.344,-122.070
1678024423.591,-84.473,-76.660,1.953,84.473,86.914
1678024423.595,-80.566,-71.289,3.906,25.391,101.562
1678024423.598,-66.406,-65.918,3.418,-111.328,-112.305
1678024423.602,-65.430,-64.941,0.488,-129.395,-272.949
1678024423.606,-73.730,-61.035,0.977,-2.930,131.836
1678024423.610,-76.172,-60.059,-5.859,88.867,240.723
1678024423.614,-68.848,-61.035,-14.160,40.527,-65.918
1678024423.616,-55.664,-59.570,-15.137,-87.891,-133.789
1678024423.620,-56.152,-60.547,-19.043,-137.207,-196.777
1678024423.624,-54.199,-62.500,-20.020,-29.297,-175.293
1678024423.628,-47.363,-63.477,-18.066,83.496,-107.422
1678024423.632,-49.316,-62.988,-18.555,60.059,112.793
1678024423.636,-37.109,-60.547,-21.973,-63.477,154.785
1678024423.640,-27.832,-56.641,-23.926,-113.770,-73.730
1678024423.643,-37.109,-54.199,-22.949,-22.949,-116.211
1678024423.647,-40.527,-50.293,-19.043,88.867,77.637
1678024423.651,-37.109,-53.223,-24.414,81.055,285.645
1678024423.655,-28.320,-50.781,-29.785,-44.434,27.344
1678024423.659,-13.672,-48.340,-27.832,-120.605,-163.574
1678024423.663,-13.672,-42.969,-25.391,-40.039,-34.668
1678024423.667,-17.578,-39.062,-24.414,83.496,29.297
1678024423.671,-12.207,-38.574,-23.926,100.098,-66.895
1678024423.675,-12.207,-36.621,-24.902,-6.348,-56.152
1678024423.679,-7.812,-29.785,-22.949,-106.934,-103.516
1678024423.683,-5.371,-25.391,-23.438,-55.176,-86.914
1678024423.687,-13.672,-28.809,-22.949,71.289,42.480
1678024423.690,-16.602,-34.668,-23.926,93.262,-12.207
1678024423.694,-15.625,-34.180,-29.785,-9.277,76.172
1678024423.698,-11.230,-31.738,-34.668,-106.445,-23.926
1678024423.702,-13.672,-32.227,-40.527,-85.938,-247.559
1678024423.706,-29.297,-29.785,-41.016,30.273,-89.355
1678024423.707,-34.668,-25.391,-37.109,83.008,-11.719
1678024423.711,-31.250,-22.461,-35.645,-11.230,10.254
1678024423.715,-26.855,-22.949,-39.062,-123.047,-119.141
1678024423.719,-30.273,-24.902,-33.203,-93.262,-76.660
1678024423.723,-39.062,-25.391,-34.668,28.809,217.773
1678024423.727,-44.922,-32.227,-43.457,70.801,154.297
1678024423.731,-33.691,-37.598,-39.062,-18.555,31.250
1678024423.734,-19.043,-31.250,-35.156,-112.793,155.762
1678024423.738,-22.461,-26.855,-37.598,-93.750,337.891
1678024423.742,-32.227,-30.273,-43.945,-3.418,141.113
1678024423.746,-33.691,-28.809,-38.574,63.965,-3.906
1678024423.750,-21.973,-25.879,-30.762,19.531,-28.809
1678024423.753,-10.254,-27.832,-29.785,-96.191,-114.746
1678024423.757,-11.719,-26.367,-30.273,-117.188,-156.250
1678024423.761,-18.555,-27.344,-32.227,-19.043,-147.461
1678024423.765,-14.648,-28.809,-29.785,61.035,85.449
1678024423.769,-8.789,-26.367,-28.809,19.531,87.402
1678024423.773,-13.184,-28.809,-35.156,-96.680,-57.129
1678024423.777,-13.672,-27.344,-39.551,-133.789,-36.133
1678024423.780,-19.531,-28.320,-37.598,-36.133,209.961
1678024423.784,-24.414,-28.809,-37.109,58.594,290.039
1678024423.788,-18.066,-23.926,-35.156,14.160,-43.457
1678024423.792,-17.090,-25.879,-37.109,-99.121,-121.582
1678024423.796,-19.043,-26.367,-39.062,-136.719,-177.734
1678024423.796,-22.949,-29.297,-38.086,-58.105,-192.871
1678024423.800,-35.645,-29.297,-41.504,32.715,-119.141
1678024423.804,-45.410,-27.832,-41.992,13.672,-94.238
1678024423.808,-36.133,-26.855,-35.645,-92.285,-107.910
1678024423.812,-29.785,-27.832,-34.180,-145.508,-99.609
1678024423.816,-41.016,-30.273,-36.133,-82.031,-116.699
1678024423.820,-41.504,-27.832,-35.645,25.879,65.918
1678024423.823,-35.156,-27.832,-37.598,35.645,510.742
1678024423.827,-33.691,-30.762,-39.062,-70.312,231.445
1678024423.831,-30.762,-30.762,-35.156,-147.461,-235.840
1678024423.835,-30.273,-27.832,-31.738,-100.586,-157.715
1678024423.839,-45.410,-30.762,-36.133,2.930,-62.500
1678024423.843,-46.875,-31.738,-38.086,5.371,-50.293
1678024423.847,-26.367,-27.832,-38.086,-85.449,-69.824
1678024423.851,-23.926,-25.391,-34.180,-139.160,-135.254
1678024423.855,-41.016,-29.785,-33.691,-95.703,-127.930
1678024423.859,-51.270,-29.785,-35.645,0.000,-78.125
1678024423.863,-51.270,-25.879,-33.203,36.133,-39.551
1678024423.867,-55.664,-31.250,-29.785,-40.527,247.070
1678024423.870,-50.781,-39.062,-28.809,-119.141,139.160
1678024423.874,-38.574,-32.227,-34.668,-87.891,-225.098
1678024423.878,-54.688,-26.367,-40.039,-15.625,-104.492
1678024423.882,-68.359,-27.832,-45.410,1.465,59.082
1678024423.886,-57.617,-26.367,-52.246,-68.359,-99.609
1678024423.886,-47.852,-29.297,-51.270,-154.785,-241.699
1678024423.890,-42.969,-21.973,-44.922,-132.812,-172.852
1678024423.894,-40.527,-17.578,-47.363,-33.203,-125.000
1678024423.898,-50.293,-20.996,-50.293,27.344,-101.074
1678024423.902,-44.434,-18.555,-42.969,-32.227,-101.074
1678024423.906,-28.809,-17.090,-44.434,-134.277,28.320
1678024423.910,-28.809,-21.484,-46.387,-128.418,239.746
1678024423.913,-30.762,-18.066,-45.410,-35.156,43.945
1678024423.917,-33.691,-17.090,-43.945,21.484,-112.793
1678024423.921,-28.320,-18.555,-38.574,-24.902,1.465
1678024423.925,-24.902,-20.020,-39.062,-114.258,2.930
1678024423.929,-37.598,-26.855,-42.480,-142.578,-98.145
1678024423.946,-47.363,-29.297,-44.434,-62.988,-110.840
1678024423.950,-44.434,-28.320,-45.410,25.391,15.137
1678024423.954,-36.133,-25.391,-43.457,-8.301,11.719
1678024423.958,-34.180,-26.367,-42.969,-104.004,-194.824
1678024423.962,-43.457,-30.273,-45.898,-126.953,-218.750
1678024423.966,-45.410,-31.250,-44.922,-46.875,-32.715
1678024423.970,-43.457,-30.273,-41.016,31.738,82.031
1678024423.973,-50.293,-35.645,-41.992,2.441,-46.875
1678024423.977,-52.246,-34.668,-41.016,-86.914,-128.906
1678024423.981,-47.363,-30.762,-39.062,-104.492,13.184
1678024423.985,-41.504,-36.133,-44.434,-17.578,-53.711
1678024423.989,-38.574,-34.180,-40.039,80.078,-135.254
1678024423.991,-42.480,-33.203,-33.691,72.266,61.523
1678024423.995,-35.156,-29.785,-34.668,-20.508,6.836
1678024423.999,-24.414,-27.344,-38.574,-79.590,-213.867
1678024424.003,-22.949,-27.344,-34.180,-14.648,-216.309
1678024424.007,-28.809,-26.855,-34.180,95.703,43.457
1678024424.011,-39.062,-30.273,-37.109,109.863,275.391
1678024424.015,-35.156,-32.227,-34.180,14.648,49.316
1678024424.018,-26.855,-33.691,-33.691,-57.129,-156.738
1678024424.022,-28.809,-35.645,-38.574,-11.230,3.418
1678024424.026,-38.086,-34.180,-43.457,89.844,228.027
1678024424.030,-34.180,-33.203,-41.992,99.609,46.875
1678024424.034,-20.996,-35.156,-33.203,9.766,-123.047
1678024424.038,-23.926,-34.180,-32.227,-68.359,-178.223
1678024424.042,-34.668,-33.203,-36.621,-33.691,-144.531
1678024424.046,-35.645,-29.785,-35.645,70.801,-63.965
1678024424.050,-30.273,-26.367,-36.133,113.281,47.363
1678024424.054,-29.297,-31.738,-34.668,35.645,73.730
1678024424.058,-25.391,-32.715,-30.762,-51.758,-38.086
1678024424.062,-31.250,-28.320,-29.785,-43.457,-133.789
1678024424.065,-43.945,-30.762,-28.320,38.574,-177.734
1678024424.069,-50.781,-33.691,-28.320,91.309,132.812
1678024424.073,-56.152,-34.180,-30.762,21.973,124.512
1678024424.077,-48.340,-29.297,-21.484,-73.242,-222.656
1678024424.081,-47.363,-20.996,-19.043,-73.730,-218.750
1678024424.081,-58.105,-20.020,-17.090,14.648,-121.094
1678024424.085,-64.941,-24.414,-9.766,73.730,-96.191
1678024424.089,-68.359,-23.438,-14.160,-3.906,-93.750
1678024424.093,-67.871,-27.832,-10.254,-109.375,-106.934
1678024424.097,-82.031,-15.137,9.277,-119.141,-67.383
1678024424.101,-115.723,-10.742,12.695,-49.316,-14.160
1678024424.105,-143.555,-13.184,17.578,-5.859,116.211
1678024424.108,-163.086,-6.836,25.391,-79.590,171.387
1678024424.112,-183.594,-19.531,22.949,-197.266,258.301
1678024424.116,-211.426,-17.090,27.344,-243.652,83.496
1678024424.120,-239.746,-4.395,38.086,-191.406,-197.266
1678024424.124,-270.020,-13.672,39.062,-147.949,-107.910
1678024424.128,-287.598,-22.461,33.203,-213.379,-110.352
1678024424.132,-288.086,-17.578,36.621,-313.477,-249.512
1678024424.136,-291.016,-12.695,33.691,-352.051,-233.398
1678024424.140,-298.340,-8.301,25.879,-289.551,-145.508
1678024424.144,-299.316,-7.324,26.855,-202.148,-118.652
1678024424.148,-281.738,-1.465,35.645,-201.172,0.000
1678024424.152,-257.324,2.441,43.457,-291.992,-2.930
1678024424.155,-241.699,-0.488,38.086,-333.496,137.695
1678024424.159,-234.375,-8.789,35.156,-244.141,250.488
1678024424.163,-223.145,-17.578,34.668,-138.672,-49.805
1678024424.167,-214.355,-19.043,24.902,-135.742,-83.984
1678024424.171,-191.895,-23.438,17.578,-221.191,-52.246
1678024424.171,-173.340,-31.250,13.672,-260.254,-190.918
1678024424.175,-172.363,-38.574,9.766,-195.312,-204.590
1678024424.179,-161.133,-42.969,4.395,-86.426,-62.988
1678024424.183,-141.602,-42.969,-6.836,-63.477,-14.648
1678024424.187,-130.371,-46.875,-17.578,-154.297,-38.086
1678024424.191,-112.305,-46.387,-21.973,-215.332,-97.656
1678024424.195,-96.680,-45.410,-21.484,-147.949,-7.812
1678024424.198,-95.215,-41.504,-22.949,-28.809,391.602
1678024424.202,-78.613,-41.504,-22.461,6.348,253.906
1678024424.206,-53.711,-44.922,-22.949,-65.918,-111.816
1678024424.210,-44.922,-37.109,-28.320,-134.277,-91.309
1678024424.214,-37.109,-32.227,-33.691,-105.957,-91.309
1678024424.218,-38.086,-39.062,-38.574,-5.859,-127.930
1678024424.222,-35.156,-46.387,-39.551,39.062,-73.242
1678024424.226,-23.438,-49.316,-40.039,-38.574,-51.758
1678024424.230,-19.531,-49.316,-42.969,-119.629,-153.809
1678024424.234,-7.812,-43.457,-44.922,-81.055,-130.371
1678024424.238,-5.859,-44.434,-46.875,20.020,41.504
1678024424.242,-8.789,-48.340,-49.805,80.078,302.734
1678024424.245,-6.836,-48.828,-51.758,23.438,197.754
1678024424.249,2.930,-49.316,-52.246,-70.801,-191.895
1678024424.253,10.254,-52.734,-53.223,-56.152,-191.406
1678024424.257,3.418,-52.246,-54.199,47.363,-12.207
1678024424.261,-0.977,-49.805,-58.594,100.098,15.137
1678024424.262,11.719,-49.805,-61.035,44.922,-41.504
1678024424.266,29.297,-48.340,-61.035,-45.410,19.043
1678024424.270,33.691,-44.434,-64.453,-56.641,-0.488
1678024424.274,25.391,-42.480,-60.059,29.785,-74.707
1678024424.278,23.926,-45.410,-58.594,109.375,-87.402
1678024424.282,28.320,-43.945,-63.477,79.102,104.004
1678024424.286,34.668,-43.945,-60.547,-15.137,210.449
1678024424.289,36.621,-45.410,-57.617,-40.039,-73.242
1678024424.293,29.785,-45.410,-59.082,40.527,-205.078
1678024424.297,26.855,-43.945,-59.082,130.859,37.598
1678024424.301,27.344,-40.527,-62.012,99.609,130.859
1678024424.305,34.180,-39.062,-60.547,-16.602,-203.125
1678024424.321,35.156,-40.527,-62.012,-60.547,-294.434
1678024424.325,29.297,-45.898,-65.430,9.277,-117.676
1678024424.329,35.645,-46.387,-59.570,95.215,8.301
1678024424.333,29.297,-41.016,-57.617,89.844,-14.648
1678024424.337,21.973,-38.574,-61.035,-17.090,-182.129
1678024424.341,26.855,-36.621,-61.035,-59.082,40.527
1678024424.345,22.949,-38.086,-62.500,21.973,204.102
1678024424.348,16.602,-42.969,-65.430,94.727,-96.191
1678024424.352,23.438,-39.551,-61.035,82.031,-65.918
1678024424.356,28.320,-35.645,-58.105,-15.625,18.555
1678024424.360,21.973,-39.551,-61.035,-80.566,-112.305
1678024424.364,19.531,-39.551,-59.570,-28.320,-224.609
1678024424.366,16.113,-39.062,-62.012,66.895,-144.043
1678024424.370,10.742,-40.039,-63.965,83.496,-23.438
1678024424.374,22.461,-36.133,-60.059,2.930,-46.875
1678024424.378,19.531,-35.645,-58.594,-65.430,-192.871
1678024424.382,9.277,-38.574,-57.617,-23.438,-1.953
1678024424.386,8.789,-39.551,-57.129,70.801,169.434
1678024424.390,5.371,-38.086,-54.199,92.285,27.344
1678024424.393,4.883,-35.645,-48.340,12.695,-10.742
1678024424.397,0.488,-40.039,-47.363,-65.430,44.922
1678024424.401,-4.395,-41.016,-49.805,-34.668,235.840
1678024424.405,-2.930,-36.133,-47.852,61.035,76.172
1678024424.409,0.488,-39.551,-48.828,95.215,-70.801
1678024424.413,0.488,-42.480,-49.805,23.438,-50.781
1678024424.417,-0.488,-37.109,-49.316,-59.082,-137.207
1678024424.421,1.953,-37.109,-48.340,-50.293,-190.918
1678024424.425,-5.371,-41.992,-45.410,46.387,-181.641
1678024424.429,-6.836,-39.062,-43.457,101.074,-51.270
1678024424.433,2.441,-33.691,-41.992,41.016,66.895
1678024424.437,-2.441,-31.738,-42.969,-55.664,-11.719
1678024424.440,-8.789,-34.180,-43.945,-71.777,-120.605
1678024424.444,-8.789,-40.039,-46.387,15.137,163.574
1678024424.448,-5.371,-39.551,-48.340,76.660,291.992
1678024424.452,-0.977,-36.133,-46.875,26.367,-26.855
1678024424.456,-1.953,-36.621,-48.828,-78.125,-167.480
1678024424.456,-7.324,-39.551,-47.852,-97.168,-209.473
1678024424.460,-13.184,-41.504,-48.828,-10.742,-207.031
1678024424.464,-11.719,-39.551,-42.480,72.266,-120.605
1678024424.468,-8.789,-39.062,-41.016,28.320,-57.129
1678024424.472,-9.766,-41.504,-44.922,-76.660,-36.133
1678024424.476,-16.113,-44.922,-44.922,-85.938,-86.426
1678024424.480,-17.578,-42.969,-45.410,-16.602,-34.180
1678024424.483,-26.855,-36.133,-43.945,68.848,202.148
1678024424.487,-35.645,-32.227,-40.039,60.059,385.742
1678024424.491,-21.973,-30.273,-35.156,-37.109,161.133
1678024424.495,-23.926,-29.297,-37.598,-98.145,-158.203
1678024424.499,-35.156,-33.203,-41.504,-41.504,-23.926
1678024424.503,-39.062,-41.992,-44.922,35.156,42.480
1678024424.507,-43.457,-42.969,-43.945,25.391,-60.059
1678024424.511,-38.086,-36.621,-39.062,-66.895,-95.215
1678024424.515,-32.715,-35.645,-41.016,-131.836,-181.152
1678024424.519,-45.898,-40.039,-43.457,-68.848,-214.844
1678024424.523,-47.852,-34.668,-41.016,37.598,-33.691
1678024424.527,-37.598,-36.621,-40.527,41.992,30.273
1678024424.530,-34.668,-39.551,-41.016,-51.270,110.840
1678024424.534,-25.879,-29.297,-35.645,-104.980,64.453
1678024424.538,-25.879,-25.879,-35.645,-63.477,-142.578
1678024424.542,-27.832,-24.902,-36.133,22.949,-46.387
1678024424.546,-25.391,-21.973,-32.715,44.434,16.113
1678024424.546,-20.508,-20.508,-29.785,-40.039,18.555
1678024424.550,-12.207,-20.996,-30.762,-114.258,-149.414
1678024424.554,-26.367,-27.832,-36.621,-74.707,-171.875
1678024424.558,-37.109,-36.133,-39.551,29.297,14.648
1678024424.562,-30.273,-33.203,-30.762,58.594,-7.812
1678024424.566,-28.809,-22.461,-30.762,-28.809,12.695
1678024424.570,-14.648,-21.484,-29.785,-104.492,87.402
1678024424.573,-3.906,-30.273,-21.484,-48.340,318.848
1678024424.577,3.418,-25.879,-22.461,59.570,99.121
1678024424.581,15.137,-20.508,-25.879,101.074,-125.488
1678024424.585,18.066,-26.855,-21.973,41.016,-70.801
1678024424.589,5.371,-34.180,-19.043,-49.316,-189.941
1678024424.594,-0.977,-37.109,-19.043,-42.480,-295.898
1678024424.598,-1.465,-35.156,-15.625,53.711,-244.141
1678024424.602,-7.324,-33.203,-16.113,101.074,15.137
1678024424.606,-9.766,-32.715,-16.113,35.645,-17.090
1678024424.610,-10.742,-35.645,-15.137,-63.965,-236.328
1678024424.614,-8.301,-37.109,-16.113,-57.617,-124.512
1678024424.618,-8.301,-33.691,-16.602,44.922,287.598
1678024424.621,-17.090,-37.109,-15.625,103.027,272.949
1678024424.625,-15.137,-34.180,-12.695,56.641,-126.465
1678024424.629,-14.648,-34.180,-15.625,-47.363,-180.664
1678024424.633,-19.531,-36.621,-22.949,-80.566,-189.453
1678024424.637,-27.832,-34.668,-23.926,4.395,-209.473
1678024424.636,-34.668,-30.762,-23.438,84.473,-123.047
1678024424.640,-30.273,-24.902,-26.855,41.992,16.602
1678024424.644,-18.066,-30.762,-30.273,-60.059,-62.988
1678024424.648,-21.484,-31.250,-33.691,-86.426,-204.102
1678024424.652,-40.039,-33.203,-38.574,-18.555,-162.109
1678024424.656,-45.898,-35.645,-34.180,71.289,57.129
1678024424.660,-44.922,-27.832,-25.879,57.617,351.562
1678024424.663,-40.527,-25.879,-32.227,-59.570,147.949
1678024424.667,-43.457,-31.738,-35.645,-120.117,-188.965
1678024424.671,-44.434,-34.668,-32.715,-51.758,-63.477
1678024424.675,-46.875,-27.832,-29.785,48.828,148.438
1678024424.679,-43.945,-30.273,-29.297,46.387,-53.223
1678024424.697,-32.227,-32.715,-25.879,-52.246,-179.688
1678024424.701,-30.273,-29.785,-20.996,-111.816,-206.543
1678024424.705,-32.715,-27.344,-18.066,-45.410,-170.410
1678024424.709,-36.133,-22.949,-21.973,55.176,-83.496
1678024424.713,-33.203,-27.832,-22.461,60.547,-36.621
1678024424.717,-27.344,-29.297,-17.578,-29.297,-22.949
1678024424.721,-31.250,-29.297,-25.391,-101.562,-62.500
1678024424.724,-34.668,-28.809,-30.762,-60.059,-51.758
1678024424.728,-34.668,-18.555,-29.785,42.969,-98.633
1678024424.732,-31.738,-12.695,-29.297,80.566,182.617
1678024424.736,-25.391,-15.625,-26.855,-5.859,152.832
1678024424.740,-22.461,-20.020,-22.461,-101.562,-261.230
1678024424.741,-27.832,-20.508,-21.973,-66.895,-168.457
1678024424.745,-37.598,-16.113,-27.344,33.691,-45.898
1678024424.749,-38.086,-18.555,-26.855,72.754,-71.289
1678024424.753,-24.414,-17.578,-23.438,-2.441,-119.629
1678024424.757,-24.414,-9.766,-21.973,-95.215,-74.707
1678024424.761,-38.574,-14.160,-23.926,-79.102,-49.805
1678024424.765,-46.387,-21.484,-23.438,7.812,-75.684
1678024424.768,-40.527,-19.531,-18.555,47.363,29.785
1678024424.772,-33.203,-17.578,-18.555,-20.508,76.172
1678024424.776,-35.645,-22.461,-20.020,-97.168,291.992
1678024424.780,-47.852,-22.949,-26.855,-92.773,158.203
1678024424.784,-58.105,-17.578,-27.832,-22.949,-93.750
1678024424.803,-62.012,-17.578,-25.391,31.250,-34.180
1678024424.807,-51.758,-22.949,-26.855,-14.648,-135.742
1678024424.811,-43.457,-24.414,-27.344,-111.816,-235.352
1678024424.815,-49.316,-24.902,-28.809,-126.953,-231.934
1678024424.819,-55.664,-23.438,-26.855,-36.133,-125.000
1678024424.823,-52.246,-22.461,-26.855,38.086,45.898
1678024424.827,-44.434,-22.949,-29.785,-3.418,30.762
1678024424.830,-37.598,-20.996,-26.367,-101.074,-153.320
1678024424.834,-37.598,-21.973,-21.484,-122.070,36.133
1678024424.838,-50.293,-24.902,-29.785,-58.105,75.195
1678024424.842,-55.664,-27.344,-35.156,11.230,-124.512
1678024424.846,-49.805,-26.855,-32.227,2.441,-49.805
1678024424.831,-41.992,-22.461,-31.738,-95.703,-8.301
1678024424.835,-41.016,-25.391,-32.715,-147.461,-162.109
1678024424.839,-43.457,-27.832,-37.598,-68.848,-197.266
1678024424.843,-37.109,-21.484,-39.062,20.996,-28.320
1678024424.847,-31.250,-19.043,-34.180,16.602,64.453
1678024424.851,-31.738,-19.531,-29.297,-72.754,-29.785
1678024424.855,-31.250,-18.066,-29.785,-135.742,-133.789
1678024424.858,-40.527,-19.043,-36.133,-81.543,-36.621
1678024424.862,-54.688,-20.508,-37.109,13.672,29.297
1678024424.866,-62.988,-23.438,-34.180,17.578,-45.410
1678024424.870,-50.293,-29.297,-33.691,-64.941,-139.648
1678024424.874,-37.598,-27.344,-37.109,-125.000,-40.039
1678024424.879,-44.922,-23.926,-41.992,-73.242,184.570
1678024424.883,-54.199,-22.461,-45.410,31.250,76.172
1678024424.887,-50.781,-20.020,-44.922,33.691,9.766
1678024424.891,-46.387,-19.531,-42.969,-62.012,30.273
1678024424.895,-41.992,-16.602,-46.875,-140.137,-145.020
1678024424.899,-57.129,-25.879,-46.875,-101.562,-205.566
1678024424.903,-72.754,-29.297,-42.480,10.742,-77.148
1678024424.906,-62.012,-24.902,-39.062,41.504,150.879
1678024424.910,-50.293,-29.297,-38.574,-45.410,123.047
1678024424.914,-47.363,-29.785,-39.551,-138.184,-197.754
1678024424.918,-48.340,-27.832,-38.086,-111.816,-209.473
1678024424.922,-53.223,-29.297,-43.457,-20.020,-25.391
1678024424.921,-50.781,-24.902,-42.480,26.367,11.719
1678024424.925,-39.062,-23.438,-35.156,-40.527,-82.520
1678024424.929,-31.738,-22.461,-31.738,-133.789,-82.031
1678024424.933,-33.691,-19.531,-32.715,-115.234,-35.645
1678024424.937,-43.945,-23.438,-34.668,-18.555,38.086
1678024424.941,-58.105,-25.391,-32.227,44.434,83.496
1678024424.945,-59.082,-24.902,-31.250,-9.277,143.555
1678024424.948,-47.852,-25.879,-31.738,-105.469,324.219
1678024424.952,-52.734,-27.832,-34.180,-121.094,93.750
1678024424.956,-67.383,-29.785,-39.551,-46.875,-251.953
1678024424.960,-65.918,-25.879,-37.109,26.367,-148.438
1678024424.964,-55.176,-22.461,-33.203,-13.672,-104.004
1678024424.968,-51.758,-22.949,-34.180,-112.305,-200.684
1678024424.972,-49.805,-22.461,-31.738,-121.094,-232.422
1678024424.976,-50.293,-23.438,-33.203,-29.785,-125.977
1678024424.980,-50.293,-21.484,-33.691,35.156,21.484
1678024424.984,-42.969,-17.578,-33.203,-5.371,16.602
1678024424.988,-43.945,-18.066,-35.645,-99.609,-38.086
1678024424.992,-45.898,-18.555,-35.156,-119.629,193.848
1678024424.995,-45.898,-11.719,-31.250,-39.062,269.531
1678024424.999,-39.062,-10.742,-27.832,41.504,-10.742
1678024425.003,-40.527,-16.113,-31.250,20.020,-28.809
1678024425.007,-40.039,-16.602,-34.180,-83.984,2.930
1678024425.011,-41.016,-17.578,-32.227,-132.324,-151.367
1678024425.011,-53.223,-18.555,-30.273,-59.082,-225.098
1678024425.015,-58.105,-19.043,-35.645,34.668,-20.508
1678024425.019,-49.805,-14.648,-34.668,27.344,82.031
1678024425.023,-39.062,-16.113,-31.738,-71.777,-103.027
1678024425.027,-47.363,-21.484,-34.668,-126.465,-156.250
1678024425.031,-49.805,-19.531,-29.297,-57.617,19.043
1678024425.035,-53.223,-19.531,-26.855,41.992,246.094
1678024425.038,-59.082,-18.555,-31.738,25.391,92.285
1678024425.042,-49.805,-18.555,-35.645,-82.031,-191.895
1678024425.046,-50.293,-21.484,-35.156,-129.883,18.555
1678024425.050,-51.270,-19.043,-34.180,-68.848,163.086
1678024425.054,-53.711,-18.555,-35.645,17.578,-49.316
1678024425.071,-56.641,-24.902,-36.621,15.137,-51.758
1678024425.075,-48.828,-23.438,-40.039,-71.777,-64.941
1678024425.079,-43.457,-26.855,-43.457,-145.020,-147.461
1678024425.083,-45.898,-27.832,-42.969,-116.211,-139.160
1678024425.087,-56.641,-23.926,-44.434,-15.137,-51.758
1678024425.091,-60.059,-23.926,-42.969,29.785,59.570
1678024425.095,-52.734,-22.949,-36.133,-43.457,44.922
1678024425.098,-44.434,-24.414,-30.273,-136.719,-117.676
1678024425.102,-48.340,-29.297,-33.203,-110.352,-169.434
1678024425.106,-69.824,-33.691,-36.133,-5.371,132.324
1678024425.110,-72.754,-34.180,-35.156,48.340,140.625
1678024425.114,-65.430,-30.273,-37.109,-22.949,-56.152
1678024425.121,-58.105,-27.832,-37.109,-125.977,-12.695
1678024425.125,-50.293,-31.250,-39.062,-117.188,9.766
1678024425.129,-62.988,-32.227,-40.527,-24.414,-9.277
1678024425.133,-63.477,-29.785,-41.504,24.902,-6.348
1678024425.137,-48.828,-26.367,-39.551,-20.996,115.723
1678024425.141,-41.504,-25.391,-37.109,-108.887,141.113
1678024425.145,-42.969,-27.344,-38.086,-116.699,-47.363
1678024425.148,-54.199,-30.273,-39.062,-24.414,-28.809
1678024425.152,-59.082,-33.203,-41.504,39.551,135.254
1678024425.156,-52.246,-34.180,-40.039,-0.488,242.676
1678024425.160,-46.387,-31.250,-34.180,-94.238,-119.629
1678024425.164,-50.293,-30.762,-33.203,-123.535,-281.738
1678024425.164,-54.199,-31.738,-35.156,-38.574,-107.422
1678024425.168,-47.363,-27.344,-27.344,53.711,14.648
1678024425.172,-41.992,-18.066,-24.902,26.855,20.996
1678024425.176,-39.551,-11.719,-24.902,-86.914,-106.445
1678024425.180,-45.410,-19.531,-20.020,-132.324,-130.859
1678024425.184,-62.012,-21.484,-20.020,-46.387,-5.371
1678024425.188,-72.266,-15.137,-28.809,41.016,147.461
1678024425.191,-64.941,-21.973,-19.531,12.695,73.242
1678024425.195,-76.660,-29.785,-11.230,-106.445,90.332
1678024425.199,-112.305,-39.551,-16.113,-187.988,134.766
1678024425.203,-123.535,-32.715,3.906,-128.906,-126.953
1678024425.207,-137.207,-12.207,10.742,-44.922,-123.047
1678024425.206,-173.828,-10.742,4.395,-102.051,-29.785
1678024425.210,-209.961,-8.301,7.812,-243.164,-159.180
1678024425.214,-232.910,4.395,7.324,-323.242,-301.270
1678024425.218,-260.254,15.137,7.812,-294.434,-223.633
1678024425.222,-287.598,21.484,0.488,-215.332,21.973
1678024425.226,-287.109,29.785,-9.766,-207.031,81.055
1678024425.230,-269.531,40.527,-10.742,-295.898,-77.148
1678024425.233,-264.160,48.340,-9.766,-358.887,-50.781
1678024425.237,-270.020,47.363,-11.719,-292.969,273.926
1678024425.241,-282.715,42.480,-26.855,-202.148,225.098
1678024425.245,-262.695,45.898,-30.762,-189.941,-116.699
1678024425.249,-236.328,52.734,-28.320,-263.672,-184.570
1678024425.253,-240.723,53.223,-34.668,-339.844,-238.770
1678024425.257,-237.793,54.199,-43.457,-298.340,-298.828
1678024425.261,-234.375,56.641,-49.805,-179.199,-234.375
1678024425.265,-221.680,48.340,-54.199,-132.324,-112.305
1678024425.269,-190.430,41.992,-60.547,-200.684,-80.566
1678024425.273,-181.152,47.363,-61.523,-274.414,-155.762
1678024425.277,-183.105,39.551,-69.824,-252.930,-195.801
1678024425.280,-168.945,31.250,-77.148,-136.230,167.969
1678024425.284,-146.484,29.297,-74.707,-61.035,250.000
1678024425.288,-112.793,19.043,-73.730,-117.188,-141.602
1678024425.292,-97.656,11.719,-72.754,-187.500,-202.148
1678024425.296,-101.562,12.207,-71.289,-173.828,-159.180
1678024425.296,-91.797,14.648,-72.266,-81.055,-112.305
1678024425.300,-68.848,14.160,-69.824,1.953,-111.816
1678024425.304,-55.664,11.719,-62.988,-19.531,-87.402
1678024425.308,-43.945,7.324,-67.383,-113.281,-193.359
1678024425.312,-37.598,2.441,-73.730,-127.441,-245.117
1678024425.316,-43.457,-3.418,-70.312,-32.715,-113.281
1678024425.320,-41.992,-4.883,-70.312,47.852,83.984
1678024425.323,-30.762,-10.254,-69.336,29.785,404.297
1678024425.327,-20.020,-12.695,-65.430,-69.336,153.809
1678024425.331,-25.391,-11.230,-66.406,-113.281,-229.980
1678024425.335,-31.250,-15.625,-66.895,-15.137,-72.754
1678024425.339,-27.344,-21.484,-60.547,91.309,84.473
1678024425.343,-19.531,-22.949,-60.547,66.895,-22.461
1678024425.347,-2.441,-27.344,-61.035,-27.832,-131.348
1678024425.351,9.766,-25.391,-54.688,-55.664,-232.422
1678024425.355,1.953,-26.855,-54.199,22.949,-163.086
1678024425.359,0.000,-36.133,-58.105,112.305,-23.926
1678024425.363,7.812,-35.156,-60.547,95.215,14.648
1678024425.367,30.762,-36.133,-62.012,-2.441,187.500
1678024425.370,36.621,-37.109,-63.965,-41.992,95.703
1678024425.374,23.438,-39.062,-56.641,29.785,-176.270
1678024425.378,14.160,-46.387,-50.293,112.793,-61.523
1678024425.382,17.578,-53.711,-54.199,100.586,42.480
1678024425.386,31.738,-52.734,-55.176,12.207,-53.223
1678024425.386,46.387,-51.270,-55.176,-46.387,-241.699
1678024425.390,44.922,-49.316,-51.758,1.465,-158.691
1678024425.394,31.738,-42.969,-52.246,114.746,28.320
1678024425.398,45.410,-37.598,-52.246,133.301,-18.555
1678024425.402,55.664,-34.668,-49.316,30.762,-167.969
1678024425.406,48.828,-38.574,-50.781,-47.852,-14.160
1678024425.410,41.992,-42.969,-50.781,-7.324,263.184
1678024425.413,38.574,-40.039,-50.781,87.402,57.617
1678024425.417,46.387,-39.551,-49.805,116.211,-121.582
1678024425.421,46.875,-44.434,-52.246,32.227,-82.031
1678024425.425,41.504,-42.480,-49.805,-44.434,-98.145
1678024425.429,41.016,-44.922,-46.875,-16.113,-227.051
1678024425.446,37.109,-45.410,-45.898,75.195,-179.199
1678024425.450,42.969,-40.039,-41.016,127.441,42.969
1678024425.454,44.434,-40.039,-37.598,55.664,-18.555
1678024425.458,46.387,-39.551,-36.621,-45.410,-155.762
1678024425.462,45.898,-40.039,-35.156,-29.785,-172.363
1678024425.466,37.109,-35.645,-31.250,78.613,80.078
1678024425.470,33.691,-32.715,-34.180,123.047,215.820
1678024425.473,33.203,-37.598,-37.109,50.293,-40.039
1678024425.477,34.668,-38.574,-35.645,-38.086,-192.383
1678024425.481,20.996,-38.574,-41.016,-33.203,-91.309
1678024425.485,3.418,-39.551,-41.504,54.199,-79.590
1678024425.489,-5.371,-41.992,-36.621,120.117,-112.305
1678024425.491,-1.953,-42.969,-32.227,67.383,-12.207
1678024425.495,5.371,-39.062,-29.785,-42.969,-104.980
1678024425.499,12.207,-38.574,-35.156,-57.129,-191.406
1678024425.503,9.277,-36.621,-39.551,38.086,-150.879
1678024425.507,-0.488,-35.645,-36.621,117.676,108.887
1678024425.511,1.465,-36.621,-34.668,81.543,379.883
1678024425.515,9.766,-37.109,-35.645,-34.180,119.141
1678024425.518,16.602,-38.086,-31.738,-69.824,-166.992
1678024425.522,8.789,-43.457,-31.250,19.043,-28.809
1678024425.526,10.254,-41.504,-32.227,113.770,179.688
1678024425.530,20.020,-33.691,-29.785,88.867,9.766
1678024425.534,18.066,-33.691,-27.344,-26.367,-191.406
1678024425.538,6.348,-39.551,-25.391,-78.125,-242.676
1678024425.542,-3.418,-42.480,-29.785,-9.766,-200.195
1678024425.546,-5.371,-41.992,-31.250,82.031,-117.188
1678024425.550,0.488,-39.062,-29.297,72.266,-89.844
1678024425.554,1.953,-36.621,-35.156,-29.785,-121.094
1678024425.558,0.488,-33.203,-37.598,-80.566,-126.953
1678024425.562,1.465,-29.297,-33.691,-13.672,-60.547
1678024425.565,-2.930,-35.156,-33.691,78.125,-0.488
1678024425.569,4.395,-35.645,-35.645,89.355,193.359
1678024425.573,10.742,-29.297,-35.645,-15.625,216.309
1678024425.577,4.883,-31.738,-35.645,-102.051,-215.332
1678024425.581,3.906,-35.156,-37.598,-52.246,-221.191
1678024425.581,5.371,-31.250,-40.527,52.734,-11.230
1678024425.585,-3.906,-33.691,-41.016,77.637,-30.762
1678024425.589,-22.461,-33.691,-37.109,-13.184,-170.410
1678024425.593,-26.855,-34.180,-32.715,-109.375,-196.777
1678024425.597,-29.785,-34.668,-30.273,-68.359,-95.215
1678024425.601,-40.039,-33.203,-29.785,49.805,14.648
1678024425.605,-41.504,-36.621,-33.203,80.566,36.133
1678024425.608,-26.855,-33.691,-29.297,0.488,111.328
1678024425.612,-23.926,-38.086,-28.320,-86.914,383.301
1678024425.616,-41.992,-40.527,-35.156,-70.801,216.797
1678024425.620,-55.664,-39.062,-32.715,33.691,-72.266
1678024425.624,-55.176,-38.086,-25.879,73.730,-80.078
1678024425.628,-44.434,-38.086,-26.855,-2.930,-145.508
1678024425.632,-32.715,-38.574,-28.320,-101.074,-256.836
1678024425.636,-32.715,-37.109,-26.855,-95.703,-255.859
1678024425.640,-41.016,-42.480,-28.320,8.301,-146.484
1678024425.644,-33.691,-42.480,-26.367,71.289,-61.523
1678024425.648,-30.273,-38.574,-23.438,12.207,21.484
1678024425.652,-30.762,-46.387,-29.297,-100.586,-51.758
1678024425.655,-9.277,-45.898,-32.227,-88.379,52.246
1678024425.659,-25.391,-35.156,-31.738,-2.441,116.211
1678024425.663,-57.129,-43.457,-35.156,24.902,-104.980
1678024425.667,-53.223,-48.828,-37.109,-22.461,17.578
1678024425.671,-50.781,-40.039,-32.715,-119.141,47.852
1678024425.671,-55.664,-37.598,-30.273,-150.391,-139.160
1678024425.675,-63.477,-41.504,-30.762,-69.336,-178.223
1678024425.679,-63.965,-41.016,-33.691,5.859,-37.598
1678024425.683,-56.641,-35.645,-38.574,-24.902,15.137
1678024425.687,-50.293,-31.738,-45.898,-142.578,-128.906
1678024425.691,-44.922,-31.250,-42.969,-176.270,-181.641
1678024425.695,-51.758,-32.227,-39.062,-79.590,54.199
1678024425.698,-55.176,-31.250,-39.551,14.648,378.418
1678024425.702,-40.527,-35.645,-41.504,-8.789,179.199
1678024425.706,-17.578,-35.645,-44.434,-118.164,-175.781
1678024425.710,-15.625,-37.598,-41.504,-148.438,-203.613
1678024425.714,-43.457,-41.992,-36.133,-64.941,-188.477
1678024425.720,-57.129,-39.062,-37.109,27.344,-158.203
1678024425.724,-43.457,-37.109,-40.039,42.969,-69.336
1678024425.728,-28.320,-34.668,-39.551,-54.688,18.066
1678024425.732,-20.020,-35.645,-41.504,-139.160,-76.172
1678024425.736,-25.391,-37.598,-39.062,-79.590,-206.055
1678024425.740,-26.367,-35.156,-34.668,30.273,-49.316
1678024425.744,-18.555,-34.180,-33.203,42.969,322.754
1678024425.747,-20.508,-33.691,-37.598,-56.641,223.145
1678024425.751,-15.625,-32.715,-42.480,-129.883,-165.039
1678024425.755,-18.555,-33.691,-38.574,-75.195,-125.000
1678024425.759,-22.461,-36.133,-39.551,24.902,32.227
1678024425.763,-19.043,-32.715,-37.598,47.852,-11.719
1678024425.761,-17.578,-33.203,-29.297,-43.457,-148.438
1678024425.765,-10.742,-39.062,-28.809,-131.348,-174.316
1678024425.769,-16.113,-40.039,-30.273,-98.145,-132.812
1678024425.773,-28.809,-37.598,-30.273,12.695,-18.555
1678024425.777,-26.367,-37.598,-35.156,46.875,42.969
1678024425.781,-17.578,-38.086,-39.062,-42.969,37.109
1678024425.785,-18.066,-36.133,-38.086,-128.418,274.414
1678024425.788,-24.902,-36.133,-40.527,-105.957,175.781
1678024425.792,-35.645,-35.156,-38.086,-15.137,-94.238
1678024425.796,-34.180,-35.645,-39.062,35.156,-47.363
1678024425.800,-27.344,-40.527,-41.504,-30.273,-86.914
1678024425.804,-27.832,-35.645,-33.203,-127.930,-200.195
1678024425.821,-30.273,-33.203,-32.715,-120.117,-220.703
1678024425.825,-33.203,-41.016,-36.133,-12.695,-113.770
1678024425.829,-34.180,-43.457,-37.109,56.152,-6.836
1678024425.833,-29.785,-42.969,-38.086,-4.395,-91.309
1678024425.837,-26.855,-37.598,-37.109,-105.469,-156.250
1678024425.841,-29.297,-34.668,-33.691,-107.910,-70.801
1678024425.845,-39.062,-41.016,-30.762,-22.949,-29.785
1678024425.848,-41.504,-45.410,-35.645,44.922,2.441
1678024425.852,-29.785,-47.852,-33.691,4.395,-51.270
1678024425.856,-26.855,-51.270,-28.320,-98.145,80.078
1678024425.860,-37.109,-48.828,-30.762,-121.582,85.938
1678024425.864,-42.480,-49.316,-31.738,-27.832,-192.871
1678024425.866,-36.133,-50.781,-26.855,66.895,-101.074
1678024425.870,-35.645,-47.852,-24.414,40.039,-51.270
1678024425.874,-32.715,-48.340,-25.391,-68.848,-163.574
1678024425.878,-31.738,-52.734,-31.738,-119.141,-280.273
1678024425.882,-38.086,-53.223,-34.668,-46.387,-51.758
1678024425.886,-47.363,-53.223,-32.715,53.711,197.266
1678024425.890,-37.598,-45.898,-35.156,39.551,101.562
1678024425.893,-29.297,-43.945,-39.551,-65.430,28.320
1678024425.897,-28.320,-45.410,-38.574,-114.746,35.645
1678024425.901,-32.227,-40.039,-36.621,-39.551,266.113
1678024425.905,-45.410,-38.086,-40.527,63.477,203.613
1678024425.909,-38.086,-39.551,-37.598,52.246,-14.160
1678024425.913,-19.531,-41.992,-36.621,-51.270,-81.543
1678024425.917,-8.789,-39.551,-40.039,-114.258,-157.715
1678024425.921,-19.043,-41.016,-40.527,-62.500,-160.156
1678024425.925,-38.086,-42.480,-40.039,46.387,-56.152
1678024425.929,-42.480,-35.645,-41.016,60.547,-4.395
1678024425.933,-31.250,-34.668,-41.992,-42.969,-8.789
1678024425.937,-26.367,-34.180,-41.016,-121.582,1.465
1678024425.940,-29.785,-34.180,-40.039,-75.195,-26.367
1678024425.944,-36.133,-35.156,-39.062,38.086,165.039
1678024425.948,-34.668,-32.227,-37.598,62.012,216.309
1678024425.952,-24.902,-30.273,-40.039,-30.762,-92.773
1678024425.956,-26.367,-33.691,-40.039,-123.535,-180.664
1678024425.956,-39.062,-38.574,-41.016,-96.191,-59.570
1678024425.960,-44.922,-35.645,-40.039,21.484,-45.898
1678024425.964,-37.598,-34.668,-34.180,78.125,-49.316
1678024425.968,-30.273,-34.668,-31.250,6.348,-8.789
1678024425.972,-20.020,-30.273,-25.879,-99.121,-50.781
1678024425.976,-21.973,-33.691,-26.367,-95.215,-47.363
1678024425.980,-35.645,-37.598,-30.273,14.648,22.461
1678024425.983,-30.273,-31.738,-29.785,77.148,97.168
1678024425.987,-29.785,-31.738,-27.832,10.254,326.172
1678024425.991,-32.227,-31.250,-33.203,-95.703,126.953
1678024425.995,-30.273,-28.320,-34.668,-100.586,-185.547
1678024425.999,-45.410,-33.691,-29.297,0.977,-62.012
1678024426.003,-50.293,-36.133,-32.715,77.637,15.625
1678024426.007,-38.574,-36.133,-36.133,15.625,-87.891
1678024426.011,-32.715,-44.434,-37.109,-101.562,-186.523
1678024426.015,-33.691,-44.434,-36.133,-115.234,-181.152
1678024426.019,-37.109,-39.062,-31.738,-29.297,-173.828
1678024426.023,-33.691,-37.109,-28.320,52.734,-164.551
1678024426.027,-27.832,-31.738,-23.438,19.531,-68.359
1678024426.030,-26.367,-29.785,-24.414,-81.543,77.637
1678024426.034,-28.809,-35.156,-30.273,-106.445,18.066
1678024426.038,-40.039,-35.156,-33.203,-23.926,-152.344
1678024426.042,-41.504,-35.645,-30.762,58.105,-26.855
1678024426.046,-32.227,-39.062,-29.785,40.039,-20.508
1678024426.048,-24.902,-35.156,-30.762,-64.453,-144.043
1678024426.052,-25.879,-37.109,-28.809,-116.211,-300.293
1678024426.056,-33.203,-40.039,-30.273,-35.645,-121.094
1678024426.060,-44.434,-39.062,-37.109,62.988,114.746
1678024426.064,-41.504,-35.156,-38.086,48.828,-29.297
1678024426.068,-26.855,-30.273,-36.133,-57.617,-99.609
1678024426.072,-30.273,-30.762,-36.133,-121.094,-40.527
1678024426.075,-47.852,-37.109,-38.574,-48.340,290.527
1678024426.079,-58.105,-43.457,-39.062,50.781,314.941
1678024426.083,-50.293,-38.086,-32.715,53.223,7.812
1678024426.087,-41.992,-39.551,-33.203,-44.922,-67.871
1678024426.091,-38.086,-41.504,-37.109,-128.906,-131.836
1678024426.093,-38.086,-34.668,-36.133,-63.965,-217.773
1678024426.097,-42.480,-35.645,-34.668,40.527,-145.020
1678024426.101,-42.480,-39.062,-29.785,45.898,-111.328
1678024426.105,-32.715,-36.133,-29.297,-35.156,-129.395
1678024426.109,-24.902,-33.691,-30.273,-124.023,-146.484
1678024426.113,-35.156,-31.738,-30.762,-97.168,-250.977
1678024426.117,-48.340,-34.180,-32.227,22.461,124.512
1678024426.120,-40.039,-36.621,-31.250,58.105,465.332
1678024426.124,-32.715,-31.250,-27.344,-50.293,-6.836
1678024426.128,-32.227,-34.668,-31.738,-147.949,-249.512
1678024426.132,-40.527,-37.109,-34.180,-119.141,-140.137
1678024426.136,-50.293,-31.738,-34.668,-15.625,-126.953
1678024426.136,-49.316,-34.668,-32.715,28.809,-82.031
1678024426.140,-41.992,-38.086,-24.902,-40.527,-14.648
1678024426.144,-37.598,-38.086,-28.320,-136.230,-93.750
1678024426.148,-44.434,-38.086,-33.203,-126.465,-198.242
1678024426.152,-53.711,-40.039,-32.715,-22.949,-118.652
1678024426.156,-58.594,-40.039,-34.180,39.551,170.410
1678024426.160,-53.223,-34.668,-35.156,-16.113,396.973
1678024426.163,-48.828,-39.551,-35.156,-126.953,65.918
1678024426.167,-53.711,-41.504,-34.668,-136.719,-289.551
1678024426.171,-55.664,-38.086,-31.250,-24.414,-21.484
1678024426.175,-58.105,-42.480,-31.738,47.363,239.258
1678024426.179,-56.641,-41.992,-38.086,-8.789,-44.434
1678024426.196,-47.363,-38.086,-38.086,-108.887,-235.840
1678024426.200,-53.223,-43.457,-38.086,-131.836,-194.336
1678024426.204,-66.406,-42.480,-34.180,-48.828,-205.566
1678024426.208,-66.406,-38.574,-26.367,35.156,-116.699
1678024426.212,-65.430,-36.621,-26.855,-6.836,-34.668
1678024426.216,-63.477,-32.715,-28.320,-122.070,-114.746
1678024426.220,-65.918,-33.203,-26.855,-162.109,-142.090
1678024426.223,-73.730,-33.691,-28.320,-75.684,-152.344
1678024426.227,-73.242,-29.297,-22.949,22.949,-118.164
1678024426.231,-68.848,-21.484,-8.789,-0.977,201.660
1678024426.235,-64.453,-19.531,-11.719,-116.699,186.523
1678024426.239,-74.707,-29.785,-24.414,-175.293,-199.707
1678024426.241,-96.191,-28.809,-15.625,-117.188,-160.156
1678024426.245,-114.746,-21.484,-9.277,-36.133,-44.434
1678024426.249,-126.953,-18.555,-12.695,-59.082,-96.680
1678024426.253,-141.113,-8.789,-7.812,-183.105,-241.699
1678024426.257,-172.852,-12.207,0.488,-270.020,-62.012
1678024426.261,-219.727,-2.930,3.906,-245.605,127.930
1678024426.265,-257.324,5.859,-1.953,-181.152,54.199
1678024426.268,-272.461,4.395,8.301,-192.383,24.414
1678024426.272,-288.086,4.883,26.367,-304.199,15.625
1678024426.276,-313.477,0.000,24.414,-395.020,134.766
1678024426.280,-314.941,10.742,19.043,-353.027,-58.105
1678024426.284,-325.195,11.230,19.043,-251.465,-125.977
1678024426.289,-319.824,10.254,29.785,-209.961,104.004
1678024426.293,-304.688,4.883,32.227,-298.828,16.113
1678024426.297,-303.711,-3.906,25.391,-388.672,-244.629
1678024426.301,-291.016,0.488,29.785,-338.379,-263.672
1678024426.305,-285.156,-10.254,26.367,-217.285,-87.891
1678024426.309,-280.273,-15.625,20.508,-157.715,77.637
1678024426.313,-253.418,-14.648,15.137,-217.773,-15.625
1678024426.316,-232.422,-19.531,14.648,-308.105,-207.031
1678024426.320,-220.703,-20.996,13.672,-279.785,7.812
1678024426.324,-209.961,-28.809,2.441,-156.738,130.859
1678024426.328,-194.824,-35.645,2.930,-83.984,-80.566
1678024426.332,-171.387,-39.551,1.465,-144.531,-106.445
1678024426.332,-154.297,-50.293,-10.742,-240.234,-128.906
1678024426.336,-140.137,-54.199,-13.184,-209.473,-216.797
1678024426.340,-130.371,-51.758,-14.648,-83.984,-112.793
1678024426.344,-118.652,-51.758,-20.996,-11.719,36.621
1678024426.348,-104.004,-52.734,-24.902,-62.012,46.875
1678024426.352,-95.703,-52.246,-33.691,-154.297,-129.395
1678024426.356,-87.402,-52.734,-35.645,-150.879,-125.488
1678024426.359,-86.914,-48.340,-32.715,-29.297,87.891
1678024426.363,-75.195,-43.945,-38.086,72.266,327.637
1678024426.367,-58.594,-50.781,-43.457,21.973,208.984
1678024426.371,-46.875,-49.805,-39.062,-91.309,-89.844
1678024426.375,-40.039,-50.781,-40.527,-104.492,-175.781
1678024426.378,-42.969,-53.223,-42.969,-0.488,-179.199
1678024426.382,-32.227,-43.945,-41.504,103.027,-145.020
1678024426.386,-19.531,-44.434,-41.992,71.777,-78.613
1678024426.390,-13.672,-55.176,-44.922,-42.480,-44.434
1678024426.394,-11.719,-58.594,-47.852,-74.219,-83.984
1678024426.398,-13.672,-54.688,-52.246,8.789,-6.348
1678024426.402,-20.508,-55.664,-52.734,98.145,-12.695
1678024426.405,-8.789,-59.570,-50.781,91.797,228.516
1678024426.409,1.465,-57.617,-51.758,-13.672,294.922
1678024426.413,0.488,-55.664,-55.176,-72.266,-125.488
1678024426.417,1.465,-53.223,-53.711,4.395,-152.832
1678024426.421,-2.441,-51.758,-50.781,107.910,9.766
1678024426.421,1.465,-53.711,-50.293,113.770,-3.418
1678024426.425,8.301,-56.152,-50.293,12.695,-89.355
1678024426.429,13.672,-57.129,-53.223,-58.594,-133.789
1678024426.433,2.441,-56.641,-57.617,-1.465,-134.277
1678024426.437,-11.719,-55.664,-54.688,110.352,-1.465
1678024426.441,-9.766,-54.199,-51.270,123.047,130.859
1678024426.445,5.371,-52.734,-53.711,23.438,145.508
1678024426.448,27.832,-54.688,-57.129,-39.551,348.145
1678024426.452,31.738,-51.758,-56.152,9.277,282.227
1678024426.456,23.926,-49.316,-50.781,112.793,-17.578
1678024426.460,27.344,-50.293,-48.340,135.254,-37.109
1678024426.464,39.551,-48.828,-50.781,39.062,-127.930
1678024426.498,39.551,-47.852,-52.246,-52.246,-296.875
1678024426.502,34.180,-45.898,-45.410,-17.090,-260.742
1678024426.506,23.926,-47.852,-43.457,95.215,-126.953
1678024426.510,17.090,-49.316,-46.387,137.207,-21.484
1678024426.514,23.438,-48.828,-44.922,52.246,-42.480
1678024426.518,30.273,-48.828,-41.016,-52.734,-162.598
1678024426.522,32.227,-52.734,-39.062,-19.043,75.684
1678024426.525,27.832,-54.199,-41.016,97.168,188.477
1678024426.529,22.949,-53.223,-43.945,143.066,-35.645
1678024426.533,29.297,-53.223,-41.992,79.102,-7.324
1678024426.537,45.898,-47.852,-41.992,-21.484,-51.758
1678024426.541,44.434,-44.434,-41.504,-21.973,-241.699
1678024426.511,30.762,-45.898,-41.016,85.449,-223.633
1678024426.515,34.668,-44.434,-40.527,155.762,-32.227
1678024426.519,47.852,-41.992,-38.086,99.609,-9.766
1678024426.523,47.363,-46.387,-42.969,-15.137,-190.430
1678024426.527,40.039,-48.828,-45.410,-34.668,-119.629
1678024426.531,26.367,-46.875,-46.387,53.711,79.102
1678024426.535,20.020,-45.898,-45.898,126.465,136.230
1678024426.538,32.227,-42.480,-41.992,87.891,59.082
1678024426.542,43.457,-47.852,-46.387,-24.414,-105.957
1678024426.546,39.551,-48.340,-42.969,-58.594,-75.195
1678024426.550,22.461,-44.434,-37.598,20.996,-74.707
1678024426.554,20.996,-42.969,-37.109,104.980,-122.070
1678024426.559,39.551,-37.109,-31.250,84.961,-106.445
1678024426.563,39.062,-40.039,-24.902,-20.020,8.301
1678024426.567,22.461,-43.457,-23.438,-66.406,335.449
1678024426.571,10.742,-40.527,-24.414,13.672,226.562
1678024426.575,13.184,-34.668,-24.902,115.234,-10.742
1678024426.579,25.391,-32.227,-27.344,95.215,84.961
1678024426.583,27.344,-37.109,-30.762,-20.020,25.879
1678024426.586,29.785,-39.062,-29.785,-75.684,-166.504
1678024426.590,21.484,-41.992,-35.645,-14.160,-201.660
1678024426.594,11.230,-44.922,-35.645,94.238,89.355
1678024426.598,15.625,-39.551,-31.738,99.609,87.402
1678024426.602,30.273,-32.715,-30.762,-12.695,-179.688
1678024426.646,28.809,-30.273,-27.832,-79.590,-207.520
1678024426.650,9.766,-35.645,-31.738,-20.020,-135.254
1678024426.654,-2.930,-40.039,-35.156,84.961,-26.855
1678024426.658,-8.789,-43.945,-32.227,90.820,-78.613
1678024426.662,2.930,-44.434,-28.320,-6.348,-68.359
1678024426.666,3.906,-41.504,-30.762,-82.031,154.785
1678024426.670,-18.066,-43.945,-34.180,-50.293,73.242
1678024426.673,-26.367,-41.504,-32.227,51.270,-112.305
1678024426.677,-14.160,-31.250,-26.855,97.656,36.621
1678024426.681,-4.395,-29.297,-26.367,22.461,111.328
1678024426.685,-0.488,-27.832,-27.344,-78.125,-140.625
1678024426.689,-4.395,-34.180,-26.855,-60.547,-233.398
1678024426.662,-15.137,-42.480,-30.762,35.156,-111.328
1678024426.666,-18.066,-34.668,-26.367,81.543,60.059
1678024426.670,-4.395,-25.879,-25.391,14.648,24.902
1678024426.674,3.418,-26.855,-35.645,-87.402,-178.711
1678024426.678,-3.906,-31.738,-35.156,-76.660,-204.590
1678024426.682,-1.953,-25.879,-27.832,33.691,-28.809
1678024426.686,-3.906,-23.926,-31.250,88.867,6.348
1678024426.689,-1.953,-26.367,-33.691,24.902,-90.332
1678024426.693,5.371,-20.996,-27.832,-69.336,-147.461
1678024426.697,-0.488,-25.879,-24.902,-76.660,-188.965
1678024426.701,-13.672,-36.621,-24.902,16.602,-137.695
1678024426.705,-19.043,-37.598,-26.367,92.285,-49.805
1678024426.706,-5.859,-34.180,-24.414,40.527,15.625
1678024426.710,-4.883,-35.645,-24.414,-75.684,-89.844
1678024426.714,-22.949,-35.156,-26.855,-116.699,-187.012
1678024426.718,-32.227,-39.062,-22.949,-29.297,-113.770
1678024426.722,-37.598,-42.480,-23.438,63.965,312.988
1678024426.726,-37.598,-35.156,-28.320,21.973,446.777
1678024426.730,-31.250,-34.668,-25.879,-92.773,49.316
1678024426.733,-33.691,-38.574,-28.320,-126.465,-18.066
1678024426.737,-47.363,-38.574,-30.762,-36.621,300.293
1678024426.741,-51.270,-37.109,-28.320,60.059,219.727
1678024426.745,-40.527,-32.715,-26.367,36.133,-82.520
1678024426.749,-31.738,-27.832,-24.414,-73.730,-78.125
1678024426.753,-27.344,-29.785,-22.949,-117.188,-149.414
1678024426.757,-32.227,-33.203,-25.879,-41.016,-175.293
1678024426.761,-30.762,-30.762,-25.391,52.734,-95.215
1678024426.765,-16.602,-24.902,-20.996,48.340,-35.645
1678024426.769,-12.695,-22.949,-25.879,-58.594,-88.379
1678024426.773,-19.043,-29.785,-31.250,-126.953,-90.820
1678024426.777,-26.855,-31.250,-26.367,-62.012,-37.109
1678024426.780,-28.320,-26.855,-20.020,52.734,218.750
1678024426.784,-24.414,-27.832,-20.508,62.500,304.688
1678024426.788,-15.625,-30.273,-23.926,-49.316,-98.633
1678024426.792,-14.648,-32.715,-20.996,-123.535,-199.707
1678024426.796,-30.762,-40.039,-20.020,-80.078,-41.992
1678024426.796,-35.156,-41.504,-24.902,24.414,-18.066
1678024426.800,-29.297,-34.180,-23.926,50.293,-49.316
1678024426.804,-24.902,-31.250,-23.926,-41.504,-83.984
1678024426.808,-23.438,-35.645,-28.809,-128.418,-174.805
1678024426.812,-34.180,-41.992,-27.832,-91.797,-222.168
1678024426.816,-50.293,-46.875,-29.297,24.902,-118.652
1678024426.820,-50.781,-43.945,-26.367,57.129,151.855
1678024426.823,-43.457,-44.922,-29.297,-41.992,395.996
1678024426.827,-35.645,-42.969,-31.738,-140.137,103.027
1678024426.831,-34.180,-35.156,-21.973,-113.770,-179.199
1678024426.835,-40.039,-33.691,-23.926,-5.859,-16.113
1678024426.839,-23.438,-38.086,-28.320,58.594,63.965
1678024426.843,-13.184,-48.828,-17.090,7.812,-60.547
1678024426.847,-27.832,-45.410,-8.301,-98.633,-141.113
1678024426.851,-37.109,-48.340,-4.883,-109.375,-78.613
1678024426.855,-37.598,-57.129,0.977,1.953,-76.660
1678024426.859,-38.574,-54.688,9.277,68.848,-124.023
1678024426.863,-41.016,-58.105,10.742,-1.953,-128.906
1678024426.867,-42.969,-58.594,17.090,-97.168,58.594
1678024426.870,-46.387,-58.105,21.973,-108.887,47.363
1678024426.874,-57.617,-67.871,20.508,-22.949,-210.938
1678024426.878,-69.336,-78.613,25.879,47.363,-79.590
1678024426.882,-57.129,-80.566,28.320,7.324,13.672
1678024426.886,-47.363,-75.684,30.273,-90.820,-109.863
1678024426.887,-51.758,-77.148,31.738,-118.164,-237.793
1678024426.891,-59.082,-81.055,35.645,-27.344,-83.984
1678024426.895,-62.500,-81.543,30.762,59.570,109.375
1678024426.899,-55.664,-84.473,25.879,33.203,-9.277
1678024426.903,-42.480,-83.984,30.762,-72.754,-113.770
1678024426.907,-39.062,-81.055,26.367,-113.281,-32.715
1678024426.911,-48.828,-82.031,20.508,-19.531,225.586
1678024426.914,-51.758,-85.449,24.414,70.801,146.484
1678024426.918,-47.852,-85.938,24.414,30.273,-146.484
1678024426.922,-41.992,-87.402,20.508,-62.988,-99.609
1678024426.926,-37.109,-88.379,16.602,-96.191,-83.984
1678024426.930,-48.828,-82.520,17.090,-37.598,-253.418
1678024426.949,-54.688,-74.707,11.719,45.898,-159.668
1678024426.953,-50.781,-75.195,-0.488,34.668,-3.906
1678024426.957,-46.387,-73.242,-1.465,-62.988,-62.012
1678024426.961,-41.504,-63.965,0.488,-118.164,-114.258
1678024426.965,-48.340,-59.570,-2.930,-64.453,-92.285
1678024426.969,-51.758,-59.570,-7.324,42.969,165.039
1678024426.973,-42.480,-58.594,-12.207,57.617,310.547
1678024426.976,-35.645,-60.059,-15.625,-47.363,-79.102
1678024426.980,-33.203,-65.430,-16.113,-115.723,-235.352
1678024426.984,-29.297,-61.523,-12.207,-63.965,-162.598
1678024426.988,-33.203,-56.152,-16.113,40.039,-92.285
1678024426.992,-30.762,-52.734,-17.090,70.801,-73.730
1678024426.991,-22.949,-49.316,-11.719,-9.277,-47.363
1678024426.995,-24.414,-50.781,-17.090,-90.332,-70.801
1678024426.999,-27.344,-51.270,-19.043,-61.523,-141.113
1678024427.003,-27.344,-49.805,-17.578,36.621,-115.234
1678024427.007,-16.113,-42.969,-17.090,82.520,41.504
1678024427.011,-7.324,-38.086,-20.508,6.348,125.000
1678024427.015,-6.348,-34.180,-25.391,-83.008,-53.223
1678024427.018,-7.812,-28.809,-25.879,-65.430,-62.500
1678024427.022,-13.672,-34.180,-24.414,38.574,123.535
1678024427.026,-12.695,-35.156,-24.414,95.703,334.961
1678024427.030,-8.301,-32.227,-20.996,20.508,107.422
1678024427.034,-5.371,-27.344,-18.555,-76.660,-276.367
1678024427.038,-7.812,-26.367,-20.020,-74.219,-256.348
1678024427.042,-12.695,-30.762,-28.320,2.441,-175.293
1678024427.046,-13.672,-27.832,-31.250,58.594,-124.023
1678024427.050,-16.113,-25.879,-31.250,14.648,-71.289
1678024427.054,-14.648,-23.926,-36.133,-79.102,-95.215
1678024427.058,-14.160,-17.578,-35.156,-90.332,-39.062
1678024427.062,-20.996,-15.137,-35.645,-20.996,-13.672
1678024427.065,-23.438,-17.090,-40.039,46.387,-105.469
1678024427.069,-20.508,-20.996,-39.062,21.973,173.828
1678024427.073,-18.066,-16.602,-41.992,-75.684,201.660
1678024427.077,-20.996,-16.113,-45.898,-114.258,-243.652
1678024427.081,-22.461,-18.555,-43.457,-36.133,-182.617
1678024427.081,-22.461,-18.066,-44.434,54.688,-9.766
1678024427.085,-19.531,-21.973,-44.922,27.832,-44.434
1678024427.089,-18.066,-20.508,-41.992,-70.312,-169.922
1678024427.093,-21.973,-12.207,-41.992,-105.957,-152.832
1678024427.097,-24.414,-15.625,-44.434,-46.875,-2.441
1678024427.101,-22.461,-19.531,-43.945,18.066,26.855
1678024427.105,-24.414,-17.090,-43.457,12.207,-9.766
1678024427.108,-28.809,-18.066,-44.434,-56.152,-15.137
1678024427.112,-35.156,-20.508,-41.992,-85.449,216.309
1678024427.116,-38.086,-20.020,-45.898,-39.062,97.656
1678024427.120,-31.250,-20.508,-49.805,25.391,-99.609
1678024427.124,-28.809,-18.066,-40.039,26.855,76.172
1678024427.129,-27.344,-15.625,-31.738,-53.711,-4.883
1678024427.133,-34.180,-25.879,-26.855,-95.215,-228.516
1678024427.137,-41.504,-34.668,-19.043,-47.363,-215.332
1678024427.141,-50.781,-34.180,-14.648,14.648,-91.309
1678024427.145,-53.223,-42.969,-13.672,21.973,-105.469
1678024427.149,-50.781,-46.387,-11.719,-47.363,-78.125
1678024427.153,-52.246,-48.828,-7.812,-108.398,-81.055
1678024427.156,-63.965,-59.570,-0.488,-76.172,67.871
1678024427.160,-78.613,-64.453,6.348,13.184,159.668
1678024427.164,-70.312,-63.477,5.371,41.016,-60.059
1678024427.168,-74.219,-65.918,6.836,-39.062,-83.008
1678024427.172,-86.914,-68.848,14.160,-115.723,-137.207
1678024427.172,-80.566,-68.359,15.625,-90.820,-189.453
1678024427.176,-81.055,-65.430,18.066,-10.254,-147.949
1678024427.180,-91.797,-66.895,26.855,33.203,-55.664
1678024427.184,-94.727,-69.824,27.832,-26.855,-25.879
1678024427.188,-99.609,-68.359,22.949,-104.492,-115.723
1678024427.192,-107.422,-68.848,21.973,-98.145,-71.289
1678024427.196,-104.004,-66.406,20.020,-34.668,170.410
1678024427.199,-106.934,-62.012,19.531,19.043,530.762
1678024427.203,-114.258,-63.477,17.090,-19.043,349.121
1678024427.207,-107.422,-65.430,13.672,-96.191,-87.891
1678024427.211,-103.027,-61.035,13.184,-99.609,-153.320
1678024427.215,-107.422,-56.152,10.742,-35.156,-152.344
1678024427.218,-104.004,-53.223,8.789,17.578,-126.953
1678024427.222,-98.145,-45.898,6.836,-6.348,-108.398
1678024427.226,-96.680,-41.504,3.418,-71.777,-143.066
1678024427.230,-96.191,-36.621,2.441,-84.473,-149.902
1678024427.234,-100.586,-36.621,4.883,-24.902,-112.793
1678024427.238,-95.703,-45.898,2.441,35.156,-75.195
1678024427.242,-83.496,-46.875,-5.371,13.672,191.406
1678024427.245,-81.055,-43.945,-12.695,-66.406,269.531
1678024427.249,-83.984,-40.527,-13.672,-100.098,-119.629
1678024427.253,-86.914,-42.480,-16.602,-41.016,-184.570
1678024427.257,-81.543,-37.598,-12.207,21.484,-70.801
1678024427.261,-74.707,-30.273,-8.301,13.672,-123.535
1678024427.261,-73.730,-30.762,-10.254,-64.453,-168.457
1678024427.265,-74.707,-32.715,-10.742,-100.098,-156.738
1678024427.269,-68.848,-33.691,-12.695,-36.621,-122.559
1678024427.273,-60.547,-31.250,-10.742,30.273,-116.699
1678024427.277,-67.871,-34.668,-13.184,21.484,-83.984
1678024427.281,-79.590,-33.691,-15.625,-35.645,53.711
1678024427.285,-86.914,-27.832,-18.066,-70.312,260.254
1678024427.288,-89.355,-29.785,-21.973,-41.016,114.746
1678024427.292,-80.078,-26.855,-21.973,17.578,-118.164
1678024427.296,-79.102,-23.926,-20.508,22.949,16.113
1678024427.300,-93.262,-28.320,-19.043,-36.133,96.680
1678024427.304,-99.609,-28.809,-22.461,-92.285,-239.746
1678024427.321,-88.867,-28.809,-19.531,-61.035,-265.137
1678024427.325,-94.238,-29.785,-15.625,11.230,-87.891
1678024427.329,-104.980,-22.949,-5.859,27.344,-62.012
1678024427.333,-104.004,-22.949,-0.488,-40.039,-149.902
1678024427.337,-111.328,-27.344,-4.395,-111.816,-208.008
1678024427.341,-110.352,-25.391,6.836,-94.727,-118.164
1678024427.345,-122.070,-25.391,13.672,-52.246,24.414
1678024427.348,-127.930,-26.367,23.438,-55.176,8.301
1678024427.352,-140.625,-24.414,43.945,-110.352,-155.273
1678024427.356,-198.242,-24.414,47.852,-204.590,89.844
1678024427.360,-228.027,-34.180,52.246,-229.980,156.738
1678024427.364,-236.328,-31.738,52.734,-197.754,-201.660
1678024427.366,-266.602,-4.395,44.434,-203.125,-88.379
1678024427.370,-288.086,9.766,48.340,-261.719,-38.574
1678024427.374,-295.410,15.625,56.152,-338.867,-149.902
1678024427.378,-315.918,19.531,50.781,-355.469,-186.523
1678024427.382,-310.059,21.973,39.551,-289.062,-1.465
1678024427.386,-281.738,32.227,33.203,-230.957,187.988
1678024427.390,-287.109,42.969,24.414,-266.602,-13.672
1678024427.393,-302.246,45.410,18.066,-337.891,-36.133
1678024427.397,-295.898,45.410,16.602,-343.750,47.363
1678024427.401,-296.875,41.992,11.719,-276.855,168.457
1678024427.405,-304.199,37.598,3.906,-228.516,49.805
1678024427.409,-288.086,43.945,1.953,-240.234,-156.250
1678024427.413,-278.809,40.039,-0.977,-293.457,-85.938
1678024427.417,-274.414,29.297,-2.441,-313.477,-104.980
1678024427.421,-248.535,31.250,-6.348,-244.141,-187.988
1678024427.425,-222.656,30.273,-18.555,-163.086,-122.070
1678024427.429,-204.590,24.414,-29.785,-154.785,-117.676
1678024427.433,-197.266,21.484,-32.715,-202.148,-124.023
1678024427.437,-194.824,15.137,-33.203,-203.613,-101.074
1678024427.440,-191.406,2.930,-43.945,-136.719,-142.090
1678024427.444,-174.805,-8.789,-52.246,-74.707,114.258
1678024427.448,-160.156,-12.695,-51.270,-76.660,221.191
1678024427.452,-167.480,-5.371,-56.152,-138.672,-115.234
1678024427.456,-157.715,-7.812,-59.082,-153.809,-175.293
1678024427.456,-134.277,-16.602,-52.246,-93.262,-18.066
1678024427.460,-115.723,-15.137,-54.199,-25.879,-37.598
1678024427.464,-116.211,-18.555,-62.012,-17.578,-185.059
1678024427.468,-120.117,-22.461,-59.570,-77.148,-116.211
1678024427.472,-100.098,-27.832,-58.594,-103.516,19.043
1678024427.476,-80.078,-35.156,-64.453,-62.500,-41.992
1678024427.480,-59.570,-38.574,-63.477,8.301,-43.457
1678024427.483,-41.504,-42.480,-60.059,37.598,42.969
1678024427.487,-32.227,-41.016,-63.477,0.488,328.613
1678024427.491,-19.531,-37.109,-65.430,-52.246,116.699
1678024427.495,-1.465,-39.062,-62.988,-23.438,-252.441
1678024427.499,19.531,-41.992,-65.918,45.898,-132.324
1678024427.503,28.809,-45.410,-68.848,71.289,-46.387
1678024427.507,22.461,-49.805,-69.824,36.133,-118.652
1678024427.511,25.879,-48.828,-65.918,-7.812,-148.926
1678024427.515,39.062,-45.898,-62.988,19.043,-34.668
1678024427.519,51.758,-44.922,-64.941,81.543,-46.875
1678024427.523,62.012,-46.387,-64.453,102.051,-87.891
1678024427.527,65.918,-44.922,-60.547,65.918,-58.594
1678024427.530,63.477,-38.574,-62.988,8.789,174.316
1678024427.534,71.777,-33.691,-70.801,0.977,194.336
1678024427.538,85.449,-35.645,-70.801,50.781,-77.148
1678024427.542,90.332,-35.645,-70.312,78.125,-1.953
1678024427.546,83.496,-37.598,-74.219,41.992,21.973
1678024427.546,80.566,-44.434,-74.219,-8.301,-113.281
1678024427.550,84.961,-41.504,-69.824,-4.395,-169.922
1678024427.554,90.332,-41.016,-64.941,53.711,-53.223
1678024427.558,93.750,-41.016,-64.453,93.262,-28.320
1678024427.562,93.262,-37.109,-66.406,60.059,-84.961
1678024427.566,91.309,-32.227,-65.918,-6.836,-119.141
1678024427.570,93.750,-25.879,-59.082,-4.395,22.949
1678024427.573,96.680,-31.250,-58.105,61.523,392.578
1678024427.577,104.004,-32.715,-62.012,94.238,270.508
1678024427.581,106.445,-29.297,-56.641,58.594,-53.223
1678024427.585,94.238,-31.250,-51.270,-10.742,-86.426
1678024427.589,88.867,-34.180,-57.129,-34.668,-146.484
1678024427.593,90.820,-35.645,-61.523,10.742,-123.047
1678024427.597,94.238,-34.668,-63.477,65.918,-85.938
1678024427.601,88.379,-34.668,-64.453,59.570,-101.074
1678024427.605,77.148,-34.180,-60.059,-16.602,-91.797
1678024427.609,70.312,-30.273,-60.059,-43.945,-140.137
1678024427.613,69.336,-26.855,-61.035,0.977,-77.637
1678024427.617,72.754,-27.344,-62.988,44.434,203.613
1678024427.620,76.172,-26.367,-59.570,39.551,246.582
1678024427.624,70.801,-26.855,-57.617,-20.508,-107.910
1678024427.628,62.500,-26.855,-60.547,-42.969,-207.520
1678024427.632,55.664,-28.320,-59.570,-5.371,-118.652
1678024427.636,55.664,-31.738,-60.059,46.875,-115.234
1678024427.636,55.664,-32.227,-60.059,51.270,-154.297
1678024427.640,36.621,-31.250,-58.105,1.465,-85.938
1678024427.644,25.391,-34.180,-56.152,-44.922,-79.102
1678024427.648,31.250,-38.086,-57.129,-21.484,-125.000
1678024427.652,34.180,-37.109,-56.641,45.410,-49.316
1678024427.656,34.668,-34.180,-53.223,52.734,80.566
1678024427.660,27.832,-34.180,-50.293,2.441,275.391
1678024427.663,18.555,-34.668,-46.875,-52.734,66.895
1678024427.667,19.043,-35.645,-44.922,-34.180,-192.871
1678024427.671,25.879,-36.133,-44.434,42.480,69.824
1678024427.675,28.809,-35.645,-45.410,58.105,246.582
1678024427.679,17.578,-35.156,-50.293,-2.930,-70.312
1678024427.696,14.160,-30.273,-48.340,-56.641,-229.980
1678024427.700,7.812,-32.715,-46.875,-38.086,-134.766
1678024427.704,5.371,-32.227,-45.898,15.625,-75.684
1678024427.708,1.465,-29.297,-45.410,37.598,-71.777
1678024427.712,-9.277,-33.203,-46.875,-3.906,-82.520
1678024427.716,-15.137,-36.621,-44.434,-59.082,-25.879
1678024427.720,-21.484,-35.645,-47.852,-56.641,-2.441
1678024427.723,-21.484,-36.133,-47.852,-7.324,-108.887
1678024427.727,-16.113,-40.527,-38.574,33.691,-73.730
1678024427.731,-22.461,-39.062,-38.086,0.977,81.055
1678024427.735,-33.691,-37.598,-38.574,-56.641,20.020
1678024427.739,-31.738,-40.527,-30.273,-56.152,-163.574
1678024427.741,-21.484,-35.156,-26.367,-3.906,-120.605
1678024427.745,-10.254,-33.203,-29.785,28.320,6.836
1678024427.749,-17.090,-39.062,-27.832,-0.488,-52.734
1678024427.753,-28.809,-33.691,-28.320,-59.082,-166.992
1678024427.757,-31.738,-32.715,-31.738,-66.406,-37.598
1678024427.761,-27.832,-34.180,-30.762,1.465,156.738
1678024427.765,-22.461,-31.250,-31.250,41.992,63.965
1678024427.768,-31.738,-31.250,-36.621,17.578,-27.832
1678024427.772,-47.852,-38.086,-34.180,-42.480,5.371
1678024427.776,-41.504,-44.922,-33.691,-57.129,130.859
1678024427.780,-21.484,-25.879,-41.016,-8.301,-41.016
1678024427.784,-21.973,-10.254,-45.410,20.508,-168.945
1678024427.789,-23.926,-13.672,-48.340,11.719,-95.215
1678024427.793,-25.391,-16.113,-51.270,-31.250,-132.324
1678024427.797,-23.438,-12.207,-60.547,-50.293,-103.516
1678024427.801,-8.301,-3.418,-63.477,-18.555,-63.477
1678024427.805,2.441,-2.930,-64.453,32.227,-51.758
1678024427.809,3.418,-0.977,-72.754,41.992,40.527
1678024427.813,-3.906,0.000,-74.707,-4.883,3.906
1678024427.816,-11.230,-3.418,-79.102,-57.129,-179.199
1678024427.820,-2.441,-2.441,-83.984,-29.785,-4.883
1678024427.824,17.578,2.930,-87.891,26.367,114.258
1678024427.828,17.090,4.883,-92.773,28.809,-130.859
1678024427.832,2.441,0.488,-91.309,-16.113,-185.547
1678024427.831,1.953,-2.441,-91.797,-57.129,-186.523
1678024427.835,7.324,0.977,-89.844,-30.762,-227.051
1678024427.839,11.230,2.441,-84.473,23.926,-179.199
1678024427.843,14.648,0.977,-78.613,31.250,-43.945
1678024427.847,8.301,0.000,-73.730,-20.508,122.559
1678024427.851,-1.953,2.441,-66.895,-65.430,8.301
1678024427.855,-0.488,-1.953,-63.965,-42.969,-83.496
1678024427.858,12.207,-6.836,-67.871,19.043,157.227
1678024427.862,16.113,-2.930,-65.430,46.387,467.285
1678024427.866,8.789,-1.953,-62.012,4.883,287.109
1678024427.870,1.465,-5.859,-66.406,-60.059,-161.133
1678024427.874,3.418,-9.766,-66.895,-64.453,-173.828
1678024427.878,7.812,-8.789,-65.918,-11.230,-88.379
1678024427.882,7.812,-10.742,-66.895,14.648,-109.375
1678024427.886,3.906,-14.648,-62.012,-15.625,-131.836
1678024427.890,-5.859,-16.113,-55.176,-63.965,-73.242
1678024427.894,-11.719,-15.625,-54.199,-67.871,-111.328
1678024427.898,-3.418,-12.695,-53.711,-12.695,-83.008
1678024427.902,-0.977,-16.602,-53.223,24.902,-8.301
1678024427.905,-7.812,-19.531,-52.246,-5.859,114.258
1678024427.909,-15.137,-19.531,-51.270,-58.105,161.621
1678024427.913,-14.160,-21.484,-55.664,-61.035,-119.141
1678024427.917,-4.395,-20.996,-52.734,-8.789,-136.719
1678024427.921,0.000,-20.508,-49.805,31.738,8.789
1678024427.921,-0.977,-25.879,-51.270,12.695,-27.832
1678024427.925,-6.348,-29.297,-47.852,-50.781,-173.340
1678024427.929,-10.254,-24.414,-44.434,-64.941,-162.109
