timestamps,TP9,AF7,AF8,TP10,Right AUX
1678024386.251,-28.809,-30.762,-31.250,-72.754,-43.945
1678024386.255,-52.246,-33.691,-33.203,-71.777,-40.527
1678024386.259,-68.359,-32.715,-32.715,-34.180,-95.215
1678024386.263,-58.105,-32.715,-27.344,-13.672,4.883
1678024386.267,-44.434,-37.109,-26.855,-47.852,-14.648
1678024386.271,-46.387,-36.133,-31.738,-86.914,-144.531
1678024386.275,-63.477,-41.504,-34.180,-86.426,-95.215
1678024386.278,-76.660,-48.340,-34.668,-40.039,123.535
1678024386.282,-64.941,-40.039,-38.574,-17.578,125.000
1678024386.286,-43.945,-35.156,-33.203,-53.223,-186.523
1678024386.290,-35.156,-32.715,-28.320,-82.520,-203.125
1678024386.294,-46.875,-26.367,-25.391,-66.406,-101.562
1678024386.294,-46.875,-26.367,-25.391,-66.406,-101.562
1678024386.296,-58.105,-18.555,-19.043,-23.438,-122.070
1678024386.300,-47.852,-18.555,-16.113,-9.277,-137.695
1678024386.304,-33.203,-21.973,-8.789,-42.480,-20.020
1678024386.308,-39.062,-16.602,-15.625,-99.609,0.000
1678024386.312,-59.570,-15.625,-20.996,-106.934,-157.715
1678024386.316,-86.914,-16.602,-7.812,-65.918,-164.551
1678024386.320,-104.004,-12.695,7.324,-53.711,42.480
1678024386.323,-111.816,-4.883,16.113,-95.215,410.645
1678024386.327,-142.578,-5.859,22.949,-179.199,193.359
1678024386.331,-194.336,2.930,21.484,-226.562,-171.875
1678024386.335,-257.324,12.207,29.785,-213.379,-38.086
1678024386.339,-295.898,14.160,40.039,-218.750,31.250
1678024386.341,-315.430,21.484,34.668,-281.250,-88.867
1678024386.345,-319.336,21.484,44.434,-338.867,-180.664
1678024386.349,-321.777,19.531,49.805,-342.285,-166.992
1678024386.353,-359.375,14.160,54.688,-324.707,-126.465
1678024386.357,-364.258,14.160,55.664,-297.852,-92.773
1678024386.361,-323.242,18.555,52.734,-295.898,-102.539
1678024386.365,-311.035,15.625,57.129,-329.102,159.180
1678024386.368,-323.242,9.766,58.105,-342.773,183.594
1678024386.372,-330.078,9.766,58.594,-304.688,-141.113
1678024386.376,-341.309,-0.488,55.664,-261.230,-163.574
1678024386.380,-316.406,-6.836,51.270,-258.301,-20.020
1678024386.384,-278.320,-3.418,47.852,-292.969,-77.637
1678024386.386,-274.902,-4.395,46.387,-297.852,-232.910
1678024386.390,-297.363,-12.207,47.363,-264.160,-171.387
1678024386.394,-298.340,-18.555,43.945,-219.727,-57.617
1678024386.398,-271.973,-20.020,35.645,-202.637,-52.246
1678024386.402,-254.883,-19.531,28.809,-243.652,-64.453
1678024386.406,-248.047,-19.531,30.762,-266.113,18.066
1678024386.410,-253.418,-23.438,33.203,-223.145,142.578
1678024386.413,-244.629,-23.926,39.551,-167.480,78.613
1678024386.417,-208.984,-24.902,40.039,-149.414,-34.180
1678024386.421,-170.410,-29.785,30.273,-168.945,38.574
1678024386.425,-163.086,-33.691,24.902,-193.359,261.719
1678024386.429,-173.340,-39.062,18.555,-177.734,45.898
1678024386.446,-163.086,-43.945,16.602,-110.352,-155.762
1678024386.450,-142.090,-45.898,18.066,-82.031,-51.270
1678024386.454,-105.957,-50.293,14.160,-104.492,-35.156
1678024386.458,-79.590,-51.758,5.371,-124.512,-113.770
1678024386.462,-85.938,-52.734,-5.859,-100.586,-92.773
1678024386.466,-85.449,-53.711,-12.695,-44.434,51.270
1678024386.470,-62.012,-49.805,-18.066,-21.973,81.055
1678024386.473,-36.133,-46.387,-22.461,-35.156,-35.156
1678024386.477,-34.180,-54.199,-22.461,-63.477,-165.039
1678024386.481,-51.758,-60.547,-23.438,-57.129,22.461
1678024386.485,-60.059,-59.082,-30.762,-12.207,70.312
1678024386.489,-41.992,-59.082,-36.133,15.137,-144.531
1678024386.490,-6.836,-54.688,-36.133,-2.441,-75.684
1678024386.494,8.301,-50.781,-38.574,-43.945,38.086
1678024386.498,-4.395,-53.223,-43.457,-36.133,-85.449
1678024386.502,-22.949,-55.664,-49.316,16.602,-152.832
1678024386.506,-18.555,-56.641,-54.688,45.898,-51.758
1678024386.510,11.719,-57.129,-55.664,30.273,19.531
1678024386.514,25.391,-56.152,-56.641,-1.465,8.301
1678024386.517,14.648,-57.129,-58.594,-6.348,-41.992
1678024386.521,0.977,-55.664,-59.570,38.086,30.273
1678024386.525,7.324,-51.270,-62.500,80.566,306.641
1678024386.529,33.691,-47.852,-63.477,57.617,127.441
1678024386.533,54.688,-47.852,-61.035,17.090,-160.645
1678024386.536,44.922,-53.711,-62.012,16.602,-17.090
1678024386.540,22.461,-56.641,-65.430,50.293,-17.578
1678024386.544,21.484,-51.758,-67.871,87.402,-108.887
1678024386.548,40.039,-49.805,-68.848,84.961,-148.926
1678024386.552,56.152,-53.223,-68.848,45.898,-111.328
1678024386.556,55.176,-55.176,-67.383,25.391,6.348
1678024386.560,32.227,-55.664,-67.871,49.316,35.645
1678024386.563,26.367,-52.734,-66.895,89.355,-41.992
1678024386.567,57.129,-53.711,-63.965,105.469,94.238
1678024386.571,76.660,-53.223,-62.988,68.848,97.656
1678024386.575,72.754,-48.828,-62.500,36.621,-196.289
1678024386.579,56.152,-45.410,-58.105,66.406,-162.109
1678024386.582,48.340,-42.480,-56.152,117.188,-76.660
1678024386.586,66.895,-42.480,-55.664,128.418,-132.812
1678024386.590,90.820,-41.504,-54.199,84.961,-105.469
1678024386.594,89.844,-40.039,-53.223,51.270,11.230
1678024386.598,63.477,-39.551,-52.734,71.289,66.895
1678024386.602,42.480,-38.574,-53.711,109.375,34.668
1678024386.606,53.223,-43.457,-54.688,109.375,0.488
1678024386.609,75.195,-42.480,-56.152,62.500,-53.711
1678024386.613,80.078,-38.086,-55.176,36.621,163.086
1678024386.617,54.199,-41.016,-58.105,54.199,46.387
1678024386.621,40.039,-40.039,-58.105,91.797,-195.801
1678024386.625,61.523,-33.203,-50.781,114.746,-104.980
1678024386.626,88.379,-27.832,-50.781,89.844,-64.453
1678024386.630,96.191,-25.879,-55.176,43.945,-84.473
1678024386.634,70.801,-27.832,-57.617,39.551,-123.535
1678024386.638,49.805,-31.738,-56.641,76.660,-114.258
1678024386.642,61.035,-28.320,-53.711,99.121,-6.348
1678024386.646,83.008,-26.855,-55.664,71.777,56.152
1678024386.650,80.078,-30.762,-57.617,21.484,-37.109
1678024386.653,54.199,-31.738,-54.688,20.508,170.898
1678024386.657,37.598,-30.762,-56.152,64.453,291.016
1678024386.661,38.574,-32.715,-55.664,94.238,-68.848
1678024386.665,60.547,-38.086,-54.199,73.242,-136.230
1678024386.669,71.289,-38.574,-54.199,27.832,-94.727
1678024386.671,43.457,-41.016,-51.758,19.043,-189.453
1678024386.675,13.672,-39.062,-50.781,46.875,-195.312
1678024386.679,11.719,-37.109,-49.316,66.895,-81.543
1678024386.683,31.738,-39.062,-47.852,54.199,-57.617
1678024386.687,43.945,-33.203,-46.875,15.625,-80.566
1678024386.691,21.973,-35.645,-47.363,-7.324,-69.824
1678024386.695,-1.465,-38.086,-48.828,31.250,71.289
1678024386.698,-0.977,-37.598,-45.410,72.266,327.637
1678024386.702,15.137,-38.086,-42.480,50.781,163.574
1678024386.706,27.344,-40.039,-45.410,-1.953,-105.957
1678024386.710,9.277,-39.551,-42.480,-19.043,-47.363
1678024386.714,-18.555,-39.062,-38.086,19.531,35.645
1678024386.716,-21.484,-44.922,-39.062,44.922,-112.305
1678024386.720,2.441,-44.434,-37.598,35.645,-99.121
1678024386.724,15.137,-41.992,-38.574,-2.930,-89.844
1678024386.728,4.395,-42.480,-40.039,-31.250,-133.301
1678024386.732,-13.184,-41.992,-36.621,3.418,-118.652
1678024386.736,-23.438,-41.016,-33.203,48.828,-119.629
1678024386.740,-1.465,-39.062,-33.691,47.852,209.473
1678024386.743,16.602,-38.574,-36.133,-1.953,260.254
1678024386.747,3.906,-38.086,-34.180,-38.574,-106.934
1678024386.751,-16.602,-38.086,-33.203,-14.648,-87.891
1678024386.755,-27.832,-35.156,-35.156,24.414,-19.043
1678024386.759,-17.578,-33.691,-39.062,21.973,-87.891
1678024386.761,5.371,-38.086,-40.527,-16.602,-144.531
1678024386.765,7.324,-38.574,-37.598,-47.363,-126.953
1678024386.769,-14.648,-34.668,-35.156,-30.762,-107.910
1678024386.773,-28.320,-35.156,-33.691,15.137,-106.445
1678024386.777,-21.484,-39.062,-33.203,22.461,-162.109
1678024386.781,-7.324,-40.527,-35.645,-12.207,-25.879
1678024386.785,-4.883,-37.109,-38.086,-44.434,100.098
1678024386.788,-27.344,-36.133,-37.109,-41.016,-85.938
1678024386.792,-46.875,-36.621,-39.551,-3.906,-165.527
1678024386.796,-37.109,-39.062,-39.551,17.578,-41.504
1678024386.800,-19.043,-44.922,-36.133,-9.766,149.902
1678024386.804,-5.371,-42.969,-36.621,-42.480,-45.410
1678024386.821,-13.672,-28.320,-36.621,-45.410,-128.906
1678024386.825,-47.363,-18.066,-45.898,-26.855,-11.719
1678024386.829,-54.199,-21.973,-53.223,-8.789,45.410
1678024386.833,-24.414,-23.926,-49.316,-27.832,-19.531
1678024386.837,-16.602,-23.438,-46.387,-70.312,-112.793
1678024386.841,-39.062,-25.879,-44.922,-76.172,-21.973
1678024386.845,-51.270,-27.832,-45.898,-36.133,83.496
1678024386.848,-45.898,-31.250,-47.363,-12.695,-21.484
1678024386.852,-22.461,-27.832,-40.039,-24.414,-156.250
1678024386.856,-9.277,-25.879,-37.598,-50.293,-10.742
1678024386.860,-29.785,-30.762,-37.109,-57.617,-25.391
1678024386.864,-50.293,-31.250,-34.180,-17.090,-160.156
1678024386.881,-46.387,-34.668,-35.156,16.113,-66.895
1678024386.885,-23.926,-41.016,-37.598,-3.906,54.199
1678024386.889,-12.207,-41.504,-40.039,-48.828,-15.137
1678024386.893,-24.902,-39.062,-38.574,-67.383,-148.926
1678024386.897,-46.387,-34.668,-35.645,-29.297,14.648
1678024386.901,-53.223,-29.297,-37.109,14.648,167.480
1678024386.905,-33.203,-29.785,-39.062,0.977,-7.812
1678024386.908,-17.090,-34.180,-35.156,-50.781,-115.723
1678024386.912,-33.203,-37.598,-31.738,-71.777,-4.395
1678024386.916,-62.988,-35.645,-34.180,-37.109,237.793
1678024386.920,-63.477,-28.809,-35.645,4.883,71.289
1678024386.924,-40.527,-30.762,-36.133,-7.812,-166.504
1678024386.911,-21.484,-32.715,-37.598,-54.199,-114.746
1678024386.915,-30.762,-31.250,-36.621,-72.266,-205.566
1678024386.919,-57.617,-31.250,-34.180,-43.457,-275.879
1678024386.923,-67.383,-27.832,-31.250,0.000,-169.434
1678024386.927,-50.781,-30.273,-28.320,9.766,-43.945
1678024386.931,-24.414,-33.203,-31.250,-33.691,-41.992
1678024386.935,-25.391,-31.250,-31.738,-69.824,-12.207
1678024386.938,-55.664,-34.180,-29.785,-54.199,-96.680
1678024386.942,-66.895,-36.133,-30.762,-6.348,-92.773
1678024386.946,-50.293,-31.738,-30.273,11.230,-96.680
1678024386.950,-34.668,-35.156,-32.227,-31.250,-211.426
1678024386.954,-36.133,-36.621,-28.809,-74.707,-209.961
1678024386.956,-51.270,-34.180,-27.344,-54.688,107.910
1678024386.960,-63.477,-31.738,-36.621,-15.137,188.965
1678024386.964,-55.176,-30.273,-39.062,-15.137,-88.867
1678024386.968,-44.434,-36.133,-37.598,-49.316,-102.539
1678024386.972,-51.758,-36.133,-36.133,-80.078,-109.375
1678024386.976,-76.660,-34.668,-32.227,-65.918,-92.773
1678024386.980,-93.262,-38.086,-33.691,-26.855,-9.766
1678024386.983,-72.754,-38.574,-33.691,-1.953,94.238
1678024386.987,-47.852,-35.645,-31.250,-26.855,425.293
1678024386.991,-45.410,-33.691,-33.203,-71.289,315.918
1678024386.995,-63.965,-37.109,-41.016,-76.660,-140.625
1678024386.999,-85.449,-38.574,-41.992,-41.016,-159.180
1678024387.001,-74.219,-36.133,-39.551,-12.207,-126.953
1678024387.005,-51.270,-34.668,-41.504,-35.156,-205.078
1678024387.009,-45.410,-36.133,-40.527,-86.914,-211.426
1678024387.013,-57.617,-35.645,-35.645,-87.402,-126.465
1678024387.017,-71.777,-36.621,-34.180,-37.109,-117.676
1678024387.021,-66.406,-37.598,-33.203,-3.418,-76.172
1678024387.025,-41.992,-37.598,-33.203,-15.625,-1.953
1678024387.028,-26.855,-36.621,-35.645,-53.223,104.004
1678024387.032,-44.922,-33.691,-37.109,-64.453,109.375
1678024387.036,-70.312,-38.086,-35.645,-41.504,-88.867
1678024387.040,-66.895,-36.133,-31.738,-13.672,-94.727
1678024387.044,-41.016,-26.855,-32.715,-12.695,-7.812
1678024387.046,-21.484,-31.250,-34.180,-56.152,-87.402
1678024387.050,-27.344,-30.762,-31.250,-76.660,-152.344
1678024387.054,-53.711,-31.738,-32.715,-47.852,-77.148
1678024387.058,-58.594,-39.551,-34.180,-13.184,-33.203
1678024387.062,-36.621,-38.574,-32.715,-14.160,-47.852
1678024387.066,-23.926,-38.574,-34.180,-55.176,-79.590
1678024387.070,-36.621,-39.062,-33.203,-78.125,14.160
1678024387.073,-58.105,-33.691,-29.785,-43.945,246.094
1678024387.077,-62.988,-28.320,-28.809,-1.953,67.871
1678024387.081,-44.434,-33.203,-30.273,-8.789,-136.719
1678024387.085,-22.461,-33.691,-29.297,-49.805,25.391
1678024387.089,-23.926,-32.715,-30.762,-77.148,20.996
1678024387.091,-44.922,-40.039,-36.621,-56.152,-187.012
1678024387.095,-47.852,-34.668,-34.180,-11.230,-160.156
1678024387.099,-25.879,-31.738,-28.320,-8.301,-66.895
1678024387.103,-8.789,-40.039,-30.273,-49.805,-22.461
1678024387.107,-10.254,-39.062,-27.344,-77.637,-151.855
1678024387.111,-29.785,-36.621,-22.949,-54.199,-126.953
1678024387.115,-40.527,-37.598,-25.391,-0.488,267.090
1678024387.118,-21.973,-35.156,-22.949,11.230,233.887
1678024387.122,-1.953,-31.738,-22.461,-34.180,-160.156
1678024387.126,-4.395,-28.809,-25.879,-64.453,-128.418
1678024387.130,-25.391,-31.738,-27.832,-48.828,-67.383
1678024387.134,-41.992,-38.574,-27.344,-6.348,-174.805
1678024387.137,-22.949,-37.598,-26.367,14.648,-148.438
1678024387.141,4.883,-31.250,-24.902,-6.348,-9.766
1678024387.145,0.977,-32.715,-28.320,-48.828,11.230
1678024387.149,-25.391,-36.621,-30.762,-57.129,-157.227
1678024387.153,-44.434,-35.156,-29.297,-21.484,-233.887
1678024387.157,-39.551,-36.133,-29.785,3.418,45.410
1678024387.161,-16.113,-34.180,-28.809,-20.020,226.562
1678024387.164,-8.789,-32.227,-27.832,-66.406,-23.438
1678024387.168,-27.344,-33.203,-27.832,-68.848,-173.340
1678024387.172,-42.969,-36.133,-29.297,-20.020,-8.301
1678024387.176,-31.738,-33.691,-29.785,15.137,132.812
1678024387.180,-7.324,-29.785,-32.227,-15.137,-26.367
1678024387.196,3.906,-26.367,-32.715,-55.664,-123.535
1678024387.200,-12.695,-26.367,-29.785,-55.176,-165.039
1678024387.204,-39.551,-31.738,-29.785,-26.367,-157.715
1678024387.208,-38.574,-32.715,-29.785,6.836,-79.590
1678024387.212,-14.648,-30.762,-25.879,-10.254,-50.293
1678024387.216,-7.324,-30.762,-21.973,-53.711,166.992
1678024387.220,-24.414,-28.320,-25.879,-62.988,161.133
1678024387.223,-49.316,-26.367,-30.762,-41.016,-160.645
1678024387.227,-51.758,-32.227,-25.391,-6.836,-151.367
1678024387.231,-28.809,-32.715,-25.879,-12.695,-40.527
1678024387.235,-13.672,-32.227,-29.785,-62.500,-27.344
1678024387.239,-26.855,-36.133,-27.832,-80.566,-119.629
1678024387.241,-50.293,-37.598,-27.344,-45.410,-126.465
1678024387.245,-51.270,-34.180,-23.438,2.441,-50.293
1678024387.249,-26.855,-33.691,-22.461,2.441,-44.434
1678024387.253,-10.254,-36.133,-27.832,-48.828,-108.887
1678024387.257,-18.555,-37.598,-29.297,-73.242,-126.953
1678024387.261,-42.969,-36.133,-28.320,-45.410,-20.508
1678024387.265,-52.734,-33.203,-26.855,-2.930,-8.301
1678024387.268,-30.273,-29.785,-26.367,1.953,-73.730
1678024387.272,-4.395,-30.273,-26.367,-42.969,46.875
1678024387.276,-13.184,-34.668,-29.785,-64.941,331.055
1678024387.280,-40.527,-31.738,-31.738,-45.898,182.617
1678024387.284,-46.875,-28.320,-31.250,-11.719,-129.883
1678024387.286,-27.344,-28.320,-29.785,0.977,-79.590
1678024387.290,-5.371,-27.344,-20.020,-37.598,-63.965
1678024387.294,-7.812,-26.855,-21.484,-71.289,-186.523
1678024387.298,-32.715,-28.320,-26.855,-56.152,-186.523
1678024387.302,-56.152,-27.832,-29.297,-19.531,-93.750
1678024387.306,-48.828,-30.762,-34.180,-6.836,14.160
1678024387.310,-21.484,-32.227,-32.227,-34.180,22.461
1678024387.313,-16.602,-31.250,-29.297,-75.195,-176.758
1678024387.317,-48.828,-20.996,-24.414,-61.035,112.305
1678024387.321,-73.242,-23.438,-18.555,-15.625,267.090
1678024387.325,-63.965,-27.832,-16.602,-9.766,-106.445
1678024387.329,-48.828,-25.391,-19.531,-48.340,-91.309
1678024387.331,-45.898,-18.066,-15.625,-98.633,-68.848
1678024387.335,-82.520,-11.719,-10.742,-111.328,-133.789
1678024387.339,-128.906,-11.230,-6.348,-90.332,-134.766
1678024387.343,-155.273,10.742,0.977,-101.074,-58.594
1678024387.347,-170.898,11.719,2.441,-175.781,-16.113
1678024387.351,-204.590,6.348,4.395,-263.184,-30.762
1678024387.355,-261.230,14.160,2.930,-301.758,-70.801
1678024387.358,-307.129,14.648,14.160,-280.762,51.270
1678024387.362,-323.242,17.090,20.508,-259.766,325.195
1678024387.366,-316.406,16.602,13.184,-309.082,171.875
1678024387.370,-297.852,17.578,14.648,-358.398,-142.578
1678024387.374,-302.246,15.625,13.184,-346.680,-11.719
1678024387.376,-319.336,13.184,15.625,-303.223,26.367
1678024387.380,-310.547,9.277,21.973,-267.578,-113.770
1678024387.384,-276.855,2.930,18.555,-274.414,-110.840
1678024387.388,-249.512,2.441,12.207,-312.988,-98.633
1678024387.392,-251.953,1.465,8.789,-320.312,-134.766
1678024387.396,-264.648,-3.418,8.789,-264.160,-61.035
1678024387.400,-249.512,-4.395,4.883,-212.891,-33.691
1678024387.403,-208.008,-13.672,-2.441,-204.102,158.691
1678024387.407,-177.734,-21.973,-1.465,-229.004,166.504
1678024387.411,-172.852,-21.973,-1.953,-231.934,-169.434
1678024387.415,-179.688,-28.320,-9.277,-183.594,-153.809
1678024387.419,-169.434,-30.762,-15.137,-130.859,-75.195
1678024387.422,-130.371,-28.809,-20.508,-115.234,-73.242
1678024387.426,-98.145,-31.250,-25.879,-140.137,-43.945
1678024387.430,-94.727,-31.250,-29.297,-152.344,27.832
1678024387.434,-106.445,-33.691,-30.762,-112.793,47.852
1678024387.438,-102.051,-38.086,-31.738,-61.035,-40.039
1678024387.442,-75.684,-42.480,-35.645,-47.363,-55.176
1678024387.446,-49.316,-46.875,-43.945,-79.102,61.035
1678024387.449,-46.387,-47.852,-46.875,-98.633,257.812
1678024387.453,-60.547,-46.875,-47.852,-70.312,74.707
1678024387.457,-62.500,-48.828,-45.410,-25.391,-147.949
1678024387.461,-40.039,-55.664,-44.434,-9.766,36.133
1678024387.465,-9.766,-57.617,-49.316,-41.504,39.551
1678024387.466,2.930,-54.688,-49.316,-72.266,-166.016
1678024387.470,-20.020,-60.059,-49.805,-54.688,-161.133
1678024387.474,-40.527,-62.988,-52.734,-2.441,-124.023
1678024387.478,-16.602,-60.059,-50.293,20.020,-59.082
1678024387.482,19.043,-55.176,-51.270,-6.348,10.742
1678024387.486,27.344,-53.711,-56.152,-42.480,-77.637
1678024387.490,5.859,-55.664,-55.176,-25.391,145.020
1678024387.493,-5.859,-54.688,-55.176,32.227,233.887
1678024387.497,7.812,-51.758,-52.246,53.711,-98.145
1678024387.501,28.809,-53.223,-49.805,28.809,-144.043
1678024387.505,44.434,-54.199,-49.316,0.000,-120.605
1678024387.509,36.621,-49.316,-51.270,2.441,-170.410
1678024387.511,20.020,-47.363,-48.828,38.086,-129.883
1678024387.515,25.391,-51.270,-48.340,64.941,-38.574
1678024387.519,50.781,-46.387,-47.852,48.828,-56.641
1678024387.523,59.570,-45.410,-50.781,13.184,-103.027
1678024387.527,38.086,-46.387,-49.805,12.695,-130.371
1678024387.531,23.926,-44.922,-45.410,55.664,20.996
1678024387.535,26.855,-49.316,-48.828,77.637,270.508
1678024387.538,45.410,-48.828,-49.316,53.223,149.902
1678024387.542,54.688,-45.898,-45.898,10.254,-65.430
1678024387.546,36.133,-52.246,-44.434,0.000,-21.484
1678024387.550,12.695,-52.734,-50.293,36.621,239.258
1678024387.554,15.625,-47.363,-51.270,66.895,80.566
1678024387.571,39.062,-45.410,-48.340,51.270,-167.969
1678024387.575,51.270,-43.945,-45.410,2.930,-172.363
1678024387.579,38.086,-43.457,-42.480,-23.438,-216.797
1678024387.583,14.648,-46.875,-47.852,13.184,-225.098
1678024387.587,19.043,-46.387,-52.734,57.129,-125.000
1678024387.591,42.480,-44.922,-46.875,55.664,31.250
1678024387.595,52.246,-44.434,-46.387,12.207,48.340
1678024387.598,45.898,-47.852,-51.270,-12.207,-90.332
1678024387.602,34.668,-47.852,-45.898,24.414,-128.418
1678024387.606,28.320,-47.363,-42.969,76.660,169.434
1678024387.610,34.180,-46.387,-45.410,69.336,223.145
1678024387.614,41.504,-45.410,-43.457,15.137,-138.672
1678024387.616,29.785,-47.852,-41.504,-12.207,-153.320
1678024387.620,12.695,-44.434,-41.016,14.648,-60.547
1678024387.624,5.371,-43.945,-42.969,57.129,-52.734
1678024387.628,20.508,-41.504,-43.945,58.105,-98.145
1678024387.632,42.969,-34.180,-41.504,20.996,-78.613
1678024387.636,43.945,-34.668,-42.480,-7.324,40.039
1678024387.640,22.461,-36.621,-39.551,13.184,6.348
1678024387.643,5.371,-37.109,-36.621,47.852,-53.223
1678024387.647,14.648,-36.621,-38.574,62.988,65.918
1678024387.651,35.645,-33.691,-37.109,35.156,303.711
1678024387.655,33.691,-30.273,-40.527,-8.301,179.199
1678024387.659,13.672,-31.738,-43.945,-9.277,-166.504
1678024387.661,0.488,-31.738,-37.598,31.738,-100.098
1678024387.665,7.812,-31.738,-34.180,61.523,-4.883
1678024387.669,26.367,-32.227,-37.598,18.555,-120.117
1678024387.673,27.344,-33.203,-35.156,-35.645,-202.637
1678024387.677,10.254,-32.715,-32.227,-25.391,-172.363
1678024387.681,-8.789,-32.227,-38.574,10.742,-76.660
1678024387.685,-7.324,-36.133,-40.039,33.203,0.000
1678024387.688,20.996,-37.109,-38.574,14.648,-36.133
1678024387.692,27.832,-32.715,-36.621,-24.414,113.281
1678024387.696,4.883,-32.227,-34.180,-16.602,98.145
1678024387.700,-14.160,-30.273,-34.668,18.555,-172.363
1678024387.704,-11.719,-32.227,-39.062,26.855,-79.102
1678024387.706,11.719,-34.180,-38.086,3.418,-57.129
1678024387.710,16.113,-32.227,-32.715,-33.691,-154.297
1678024387.714,-9.277,-36.133,-36.133,-41.016,-204.102
1678024387.718,-30.762,-37.598,-42.480,-2.930,-134.766
1678024387.722,-24.414,-36.621,-45.898,24.414,45.410
1678024387.726,-2.441,-34.668,-42.480,2.930,-18.066
1678024387.730,3.418,-33.203,-40.039,-37.598,-145.996
1678024387.733,-12.695,-32.715,-40.527,-50.293,13.672
1678024387.737,-36.133,-35.156,-41.992,-10.254,331.055
1678024387.741,-36.621,-38.086,-44.922,17.578,184.570
1678024387.745,-11.230,-36.133,-40.527,1.465,-96.680
1678024387.749,2.930,-37.598,-37.109,-32.227,-81.543
1678024387.751,-11.230,-39.551,-44.434,-49.316,-136.230
1678024387.755,-30.273,-39.062,-41.504,-15.137,-195.312
1678024387.759,-28.320,-33.691,-35.645,19.043,-114.746
1678024387.763,-12.695,-32.715,-38.574,8.301,57.129
1678024387.767,5.859,-32.227,-36.133,-28.809,15.625
1678024387.771,0.000,-30.762,-35.156,-48.828,-161.621
1678024387.775,-25.391,-31.250,-34.668,-15.625,-134.766
1678024387.778,-27.344,-34.180,-34.180,37.598,147.949
1678024387.782,-12.695,-38.574,-43.457,41.016,110.352
1678024387.786,3.418,-37.598,-42.969,-4.395,-215.820
1678024387.790,-0.977,-35.156,-40.039,-47.852,-205.566
1678024387.794,-20.996,-32.227,-43.457,-31.738,-158.691
1678024387.796,-22.461,-34.180,-37.598,27.832,-160.645
1678024387.800,-12.695,-40.527,-30.273,33.203,-147.949
1678024387.804,3.418,-35.645,-31.250,-18.066,-108.398
1678024387.808,-4.883,-33.691,-30.273,-59.082,-67.871
1678024387.812,-33.203,-37.598,-25.879,-43.457,-108.398
1678024387.816,-41.992,-33.691,-24.902,8.301,-87.402
1678024387.820,-32.227,-33.203,-27.344,30.273,107.910
1678024387.823,-14.160,-32.227,-23.926,-2.441,337.891
1678024387.827,-6.836,-26.367,-27.832,-45.410,151.367
1678024387.831,-25.879,-33.203,-41.016,-41.992,-163.574
1678024387.835,-40.527,-35.645,-36.133,3.906,3.906
1678024387.839,-37.598,-32.715,-26.367,28.320,153.809
1678024387.841,-23.926,-33.203,-26.855,-7.812,-127.441
1678024387.845,-22.949,-33.691,-20.996,-48.828,-197.754
1678024387.849,-37.598,-33.691,-17.090,-45.410,-122.559
1678024387.853,-47.852,-38.574,-27.344,-9.277,-106.445
1678024387.857,-47.363,-38.574,-33.691,16.113,-159.668
1678024387.861,-31.738,-37.109,-34.180,-20.020,-139.648
1678024387.865,-22.949,-38.086,-33.203,-58.105,164.062
1678024387.868,-36.621,-35.156,-34.668,-44.922,195.801
1678024387.872,-51.758,-30.273,-36.133,-17.090,-101.562
1678024387.876,-53.711,-29.785,-36.133,1.953,-86.914
1678024387.880,-29.297,-32.227,-40.527,-14.160,41.016
1678024387.884,-14.160,-30.762,-40.527,-59.570,-92.285
1678024387.886,-34.668,-32.227,-40.039,-75.195,-208.984
1678024387.890,-53.711,-39.551,-37.109,-33.691,-77.637
1678024387.894,-47.852,-37.598,-34.180,9.766,-44.434
1678024387.898,-19.531,-33.691,-30.273,-0.488,-117.188
1678024387.902,-7.812,-35.645,-29.297,-48.828,-137.695
1678024387.906,-25.879,-34.668,-26.855,-59.570,28.320
1678024387.910,-41.992,-32.227,-25.879,-31.250,207.031
1678024387.913,-34.668,-24.902,-26.855,-6.836,35.156
1678024387.917,-15.137,-23.926,-25.391,-9.277,-108.887
1678024387.921,-12.207,-26.367,-27.344,-41.504,40.039
1678024387.925,-25.879,-29.785,-26.855,-55.664,370.117
1678024387.929,-44.434,-35.645,-32.715,-42.969,122.070
1678024387.946,-44.922,-33.203,-37.598,-11.230,-186.035
1678024387.950,-23.438,-30.273,-31.250,-2.930,-116.699
1678024387.954,-19.531,-33.203,-27.344,-51.758,-161.621
1678024387.958,-31.250,-35.156,-27.344,-73.242,-241.699
1678024387.962,-43.457,-31.250,-25.879,-38.086,-213.867
1678024387.966,-51.758,-31.250,-27.344,-9.766,-62.988
1678024387.970,-40.039,-30.762,-34.180,-11.230,13.184
1678024387.973,-31.250,-30.762,-37.598,-45.410,-141.602
1678024387.977,-42.969,-32.227,-35.645,-76.660,-210.938
1678024387.981,-65.430,-32.227,-35.645,-65.918,36.621
1678024387.985,-65.430,-29.785,-38.086,-32.715,72.266
1678024387.989,-39.062,-27.832,-32.227,-14.160,-114.258
1678024387.991,-25.391,-29.785,-23.438,-39.062,-88.867
1678024387.995,-25.391,-32.227,-24.414,-75.195,-69.824
1678024387.999,-43.945,-34.668,-29.785,-63.965,-159.180
1678024388.003,-55.664,-33.203,-34.180,-29.785,-180.664
1678024388.007,-45.898,-28.809,-37.109,-15.137,-64.453
1678024388.011,-32.715,-28.809,-37.598,-36.621,45.410
1678024388.015,-26.855,-31.738,-37.598,-70.801,-78.613
1678024388.018,-44.434,-28.320,-34.180,-69.336,-140.137
1678024388.022,-64.941,-30.762,-33.691,-41.016,7.812
1678024388.026,-49.805,-32.715,-37.109,-9.766,307.617
1678024388.030,-24.902,-28.809,-36.621,-32.227,180.176
1678024388.034,-25.391,-27.344,-30.273,-80.078,-182.129
1678024388.037,-40.527,-29.297,-31.738,-77.148,-172.363
1678024388.041,-54.199,-29.785,-37.598,-40.527,-171.875
1678024388.045,-44.922,-30.762,-38.574,-11.230,-108.887
1678024388.049,-26.855,-32.715,-35.645,-22.461,-86.426
1678024388.053,-17.578,-30.762,-35.645,-55.176,-32.227
1678024388.057,-27.832,-26.367,-32.715,-66.895,-47.363
1678024388.061,-49.805,-22.461,-30.273,-39.551,-91.797
1678024388.064,-41.504,-19.531,-31.738,-10.742,-114.258
1678024388.068,-22.461,-23.926,-33.203,-22.461,54.688
1678024388.072,-16.602,-28.809,-36.133,-62.988,90.820
1678024388.076,-20.508,-24.902,-33.691,-74.219,-181.641
1678024388.080,-37.598,-21.973,-34.668,-42.480,-109.375
1678024388.081,-41.504,-26.367,-36.133,-11.719,-23.438
1678024388.085,-23.438,-28.320,-36.133,-12.695,-90.332
1678024388.089,-20.020,-26.855,-38.086,-53.223,-170.410
1678024388.093,-34.180,-25.391,-34.668,-76.172,-153.320
1678024388.097,-54.688,-26.855,-30.273,-56.641,-27.344
1678024388.101,-61.523,-30.762,-26.855,-26.855,14.648
1678024388.105,-38.574,-25.879,-20.996,-19.531,62.988
1678024388.108,-20.020,-25.879,-19.531,-49.805,108.398
1678024388.112,-30.273,-31.738,-25.879,-66.406,387.207
1678024388.116,-45.898,-26.855,-31.250,-46.875,312.988
1678024388.120,-49.316,-22.461,-25.391,-17.578,-128.418
1678024388.124,-38.086,-23.438,-22.461,-18.555,-143.555
1678024388.126,-27.344,-23.926,-28.320,-58.594,-105.957
1678024388.130,-29.297,-24.902,-28.320,-83.008,-202.637
1678024388.134,-49.805,-24.414,-29.785,-62.500,-170.410
1678024388.138,-59.082,-22.949,-33.203,-26.367,-57.617
1678024388.142,-35.156,-22.461,-36.133,-15.625,-11.719
1678024388.146,-20.020,-26.367,-36.621,-47.363,18.066
1678024388.150,-28.809,-26.367,-31.738,-83.496,-57.129
1678024388.153,-44.434,-28.320,-36.133,-66.895,118.652
1678024388.157,-46.875,-26.855,-39.062,-28.809,261.719
1678024388.161,-28.809,-25.391,-37.109,-19.531,-88.867
1678024388.165,-11.719,-26.855,-36.621,-42.969,-176.758
1678024388.169,-18.555,-29.785,-35.645,-79.102,-111.328
1678024388.171,-38.574,-30.273,-32.715,-71.777,-143.555
1678024388.175,-47.852,-26.367,-28.809,-29.785,-161.133
1678024388.179,-39.062,-28.320,-26.855,-4.395,-34.180
1678024388.183,-20.996,-25.879,-26.367,-25.879,26.367
1678024388.187,-18.555,-23.926,-26.855,-68.848,-84.473
1678024388.191,-36.133,-23.926,-27.344,-68.359,-66.406
1678024388.195,-54.199,-24.414,-33.203,-30.762,94.238
1678024388.198,-55.664,-29.297,-35.156,-8.301,377.930
1678024388.202,-42.969,-34.180,-30.762,-31.738,191.895
1678024388.206,-33.691,-33.203,-26.367,-75.195,-68.359
1678024388.210,-41.016,-31.250,-28.320,-75.195,128.906
1678024388.214,-59.082,-30.273,-34.180,-43.945,92.285
1678024388.216,-54.688,-29.785,-33.203,-24.414,-106.934
1678024388.220,-30.762,-29.785,-32.227,-31.250,-86.914
1678024388.224,-25.391,-27.344,-28.809,-62.012,-63.965
1678024388.228,-44.922,-27.832,-22.949,-72.754,-115.234
1678024388.232,-67.383,-34.180,-21.484,-48.828,-139.648
1678024388.236,-59.570,-36.133,-21.484,-25.879,-77.637
1678024388.240,-39.551,-34.180,-26.367,-32.227,265.625
1678024388.243,-32.227,-34.180,-31.738,-64.941,227.539
1678024388.247,-43.945,-32.715,-33.203,-74.707,-130.859
1678024388.251,-65.430,-34.180,-34.180,-43.457,-106.934
1678024388.255,-60.059,-34.180,-35.156,-17.578,-74.219
1678024388.259,-34.180,-31.250,-30.762,-21.484,-63.477
1678024388.262,-21.973,-29.297,-30.762,-56.641,-113.770
1678024388.266,-31.250,-30.762,-35.156,-74.707,-149.414
1678024388.270,-53.223,-35.645,-34.180,-44.434,-24.414
1678024388.274,-56.641,-35.156,-30.762,-13.184,-76.172
1678024388.278,-37.109,-33.691,-29.297,-21.484,-177.246
1678024388.282,-22.949,-35.156,-29.785,-55.664,-11.230
1678024388.286,-27.832,-36.133,-32.227,-79.590,55.176
1678024388.289,-47.363,-38.574,-28.809,-66.895,-47.852
1678024388.293,-60.059,-38.574,-23.926,-28.809,-57.129
1678024388.297,-45.898,-33.203,-22.461,-7.324,86.914
1678024388.301,-32.227,-26.367,-18.555,-28.320,255.371
1678024388.305,-46.387,-24.902,-22.949,-75.684,-66.895
1678024388.321,-62.012,-24.902,-24.414,-66.406,-237.305
1678024388.325,-70.801,-31.250,-23.926,-34.180,-128.418
1678024388.329,-62.988,-24.902,-22.949,-35.156,-67.871
1678024388.333,-47.363,-15.137,-17.090,-71.777,-50.293
1678024388.337,-67.383,-13.184,-14.160,-115.234,-136.719
1678024388.341,-110.840,1.465,-16.113,-118.652,123.535
1678024388.345,-139.160,0.000,-18.555,-103.516,318.848
1678024388.348,-131.348,1.953,-19.043,-103.516,-32.227
1678024388.352,-139.648,1.953,-10.254,-151.855,-140.625
1678024388.356,-182.129,11.230,-5.371,-207.031,-63.965
1678024388.360,-217.773,23.438,-4.395,-229.980,-102.539
1678024388.364,-257.812,25.879,5.371,-237.793,-111.328
1678024388.366,-291.504,28.320,6.348,-249.512,-61.523
1678024388.370,-292.969,21.484,9.766,-287.109,-58.594
1678024388.374,-294.434,28.809,18.066,-332.520,-95.703
1678024388.378,-316.406,23.926,19.043,-345.703,-158.203
1678024388.382,-321.289,8.789,16.113,-293.457,-23.926
1678024388.386,-300.293,11.230,21.484,-244.141,166.992
1678024388.390,-287.598,6.348,17.578,-270.020,54.199
1678024388.393,-279.297,-0.488,11.230,-296.387,-51.270
1678024388.397,-280.273,-1.465,14.648,-277.344,44.434
1678024388.401,-294.922,-2.930,15.137,-239.746,320.801
1678024388.405,-275.391,-5.371,15.137,-205.566,145.020
1678024388.409,-228.516,-4.883,11.230,-201.660,-208.984
1678024388.411,-204.102,-2.441,3.906,-217.773,-162.598
1678024388.415,-202.637,-11.719,-5.371,-215.820,-165.039
1678024388.419,-201.172,-20.020,-12.207,-177.246,-234.863
1678024388.423,-181.152,-27.832,-15.625,-129.883,-174.316
1678024388.427,-138.184,-33.203,-17.090,-111.816,-101.074
1678024388.431,-104.980,-34.180,-21.973,-127.930,-62.500
1678024388.435,-103.516,-40.527,-27.344,-127.441,-99.609
1678024388.438,-115.234,-43.457,-29.297,-91.309,-108.887
1678024388.442,-103.027,-45.410,-27.344,-37.598,151.855
1678024388.446,-71.289,-46.387,-27.344,-26.367,227.539
1678024388.450,-49.316,-45.410,-29.297,-59.082,-75.195
1678024388.454,-48.828,-47.363,-31.738,-70.801,-175.781
1678024388.456,-50.781,-49.316,-31.738,-33.203,-110.840
1678024388.460,-45.898,-48.340,-33.203,18.066,-102.539
1678024388.464,-28.809,-49.805,-37.109,22.949,-67.383
1678024388.468,-3.418,-56.641,-35.156,-6.348,-64.941
1678024388.472,-6.836,-58.105,-36.133,-26.855,-144.531
1678024388.476,-19.043,-53.711,-34.668,-7.324,-79.102
1678024388.480,-13.672,-53.223,-34.668,28.809,-51.758
1678024388.483,3.906,-51.758,-43.945,37.598,54.199
1678024388.487,23.926,-50.293,-38.574,18.555,379.883
1678024388.491,20.996,-56.152,-40.527,-12.695,166.504
1678024388.495,5.859,-52.734,-50.293,-4.395,-173.340
1678024388.499,3.418,-49.805,-51.758,38.574,-76.172
1678024388.501,20.508,-51.270,-46.387,57.617,-32.715
1678024388.505,41.504,-50.293,-41.504,39.062,-143.066
1678024388.509,42.480,-51.758,-43.457,16.113,-161.621
1678024388.513,20.996,-56.641,-45.410,24.902,-117.188
1678024388.517,12.695,-54.199,-40.527,62.500,-104.492
1678024388.521,27.344,-50.781,-40.039,71.777,-24.902
1678024388.525,43.457,-52.734,-49.805,37.109,-26.367
1678024388.528,47.852,-51.270,-51.270,14.648,88.867
1678024388.532,28.809,-47.852,-43.457,28.809,88.867
1678024388.536,18.555,-46.875,-42.969,56.641,-128.906
1678024388.540,31.250,-45.898,-46.387,78.613,-73.730
1678024388.544,51.270,-40.039,-42.969,71.777,-46.387
1678024388.546,64.941,-34.668,-39.551,36.621,-120.605
1678024388.550,44.922,-37.598,-40.527,25.391,-215.820
1678024388.554,22.461,-43.945,-40.527,51.758,-122.070
1678024388.558,33.203,-47.363,-42.969,70.801,9.766
1678024388.562,48.340,-43.945,-44.922,49.316,-98.145
1678024388.566,44.922,-43.945,-42.480,20.020,-95.215
1678024388.570,29.785,-44.922,-41.992,19.043,32.227
1678024388.573,15.625,-41.016,-41.504,42.480,349.609
1678024388.577,17.578,-41.016,-37.109,59.082,196.289
1678024388.581,39.062,-42.480,-32.227,49.316,-159.180
1678024388.585,45.898,-42.480,-33.691,14.648,-75.684
1678024388.589,27.832,-42.969,-37.109,0.000,-73.242
1678024388.592,11.230,-42.480,-35.645,33.203,-155.273
1678024388.596,17.578,-42.480,-37.598,61.035,-112.793
1678024388.600,42.480,-41.016,-36.621,57.129,71.289
1678024388.604,53.711,-41.016,-38.086,15.625,9.766
1678024388.608,39.551,-41.992,-41.016,-7.324,-118.164
1678024388.612,18.066,-42.969,-32.715,20.996,-85.938
1678024388.616,11.230,-45.410,-32.227,53.223,144.531
1678024388.619,26.855,-46.387,-35.645,48.340,190.918
1678024388.623,41.016,-43.945,-29.785,16.113,-121.094
1678024388.627,39.551,-39.551,-25.391,1.953,-118.164
1678024388.631,13.672,-42.969,-27.344,16.602,-58.105
1678024388.635,1.465,-49.316,-33.203,49.805,-54.199
1678024388.636,22.461,-49.316,-37.598,57.617,-69.336
1678024388.640,27.832,-50.293,-38.574,17.578,-88.867
1678024388.644,15.625,-43.945,-35.156,-10.254,-57.129
1678024388.648,-1.465,-44.922,-34.668,5.859,-127.441
1678024388.652,-12.207,-47.363,-37.109,38.574,-145.508
1678024388.656,1.465,-40.039,-33.203,41.504,56.152
1678024388.660,15.137,-40.039,-33.203,9.277,453.125
1678024388.663,1.953,-42.969,-39.062,-26.855,289.062
1678024388.667,-22.949,-43.945,-37.598,-27.832,-164.551
1678024388.671,-32.715,-45.410,-35.156,18.555,-23.438
1678024388.675,-17.578,-41.016,-33.203,42.480,102.051
1678024388.679,1.465,-34.668,-29.297,6.836,-107.910
1678024388.696,1.465,-34.668,-28.809,-30.273,-162.109
1678024388.700,-19.043,-35.156,-31.250,-18.066,-144.043
1678024388.704,-31.738,-36.133,-31.738,20.508,-127.930
1678024388.708,-14.160,-34.668,-26.367,35.645,-145.508
1678024388.712,7.812,-30.273,-22.949,7.812,-179.199
1678024388.716,5.371,-28.809,-25.391,-26.855,-60.059
1678024388.720,-14.648,-30.762,-26.855,-30.273,35.645
1678024388.723,-30.273,-31.738,-27.832,-1.465,45.898
1678024388.727,-29.297,-32.715,-23.926,20.508,-37.598
1678024388.731,-14.648,-37.109,-20.508,5.859,123.535
1678024388.735,-15.625,-36.621,-24.414,-29.297,177.734
1678024388.739,-22.461,-32.227,-25.391,-27.344,-138.672
1678024388.741,-32.227,-32.227,-21.484,14.160,-119.629
1678024388.745,-25.879,-33.203,-21.973,32.227,-13.672
1678024388.749,1.953,-32.227,-23.438,13.672,-41.016
1678024388.753,7.324,-32.227,-23.438,-30.273,-145.996
1678024388.757,-5.371,-30.273,-25.391,-39.062,-175.293
1678024388.761,-17.090,-27.832,-23.926,-7.324,-74.707
1678024388.765,-16.602,-25.391,-21.484,22.461,-29.297
1678024388.768,0.488,-27.832,-22.461,6.348,-56.641
1678024388.772,10.254,-34.180,-25.879,-28.320,89.355
1678024388.776,-5.371,-32.715,-24.414,-26.855,350.098
1678024388.780,-24.902,-31.250,-23.438,-4.395,211.914
1678024388.784,-30.762,-33.691,-27.344,18.555,-62.500
1678024388.801,-14.648,-34.180,-27.344,12.695,-113.770
1678024388.805,6.836,-30.273,-24.902,-19.531,-113.281
1678024388.809,-0.488,-28.320,-29.785,-44.434,-89.844
1678024388.813,-27.832,-26.367,-32.227,-26.367,-111.328
1678024388.817,-35.645,-24.414,-28.809,9.277,-110.352
1678024388.821,-18.066,-27.832,-28.809,3.418,-1.953
1678024388.825,-5.371,-28.320,-25.391,-34.180,37.598
1678024388.828,-19.043,-28.809,-22.461,-47.852,-141.113
1678024388.832,-40.039,-28.809,-21.484,-19.043,34.668
1678024388.836,-44.922,-33.203,-24.902,10.254,155.762
1678024388.840,-23.926,-37.109,-27.344,7.324,-121.582
1678024388.844,-5.371,-38.086,-30.273,-20.996,-134.277
1678024388.831,-7.324,-38.574,-36.621,-42.480,-46.875
1678024388.835,-28.809,-31.250,-35.156,-28.320,-119.629
1678024388.839,-45.898,-28.809,-35.156,-0.488,-119.629
1678024388.843,-30.762,-30.762,-31.738,9.766,-50.781
1678024388.847,-15.625,-29.297,-29.297,-13.184,-67.383
1678024388.851,-25.391,-29.297,-28.320,-43.457,-85.449
1678024388.855,-43.457,-29.785,-26.855,-34.668,-96.680
1678024388.858,-52.246,-34.668,-30.762,-8.301,26.367
1678024388.862,-41.504,-31.250,-32.715,0.488,55.664
1678024388.866,-27.344,-26.855,-32.227,-25.879,-104.492
1678024388.870,-27.344,-27.344,-32.715,-59.082,-193.848
1678024388.874,-42.480,-25.879,-27.832,-48.828,-25.391
1678024388.877,-54.199,-26.367,-28.809,-10.742,302.246
1678024388.881,-46.875,-27.832,-29.297,3.906,108.398
1678024388.885,-34.180,-32.227,-23.438,-22.461,-165.527
1678024388.889,-28.809,-33.691,-22.949,-56.152,-29.297
1678024388.893,-43.457,-29.785,-24.414,-59.082,-37.109
1678024388.897,-56.641,-31.738,-20.996,-18.555,-123.535
1678024388.901,-51.758,-37.109,-18.066,1.953,1.465
1678024388.904,-41.016,-36.133,-18.555,-24.414,197.266
1678024388.908,-31.250,-33.203,-18.066,-54.199,115.723
1678024388.912,-40.527,-35.156,-19.531,-59.570,-178.711
1678024388.916,-61.035,-33.203,-23.438,-39.062,-146.973
1678024388.920,-60.547,-27.344,-20.996,-14.160,-71.289
1678024388.921,-42.969,-34.180,-20.508,-16.602,-117.188
1678024388.925,-42.480,-42.969,-28.320,-62.500,-144.043
1678024388.929,-59.570,-39.062,-28.809,-78.125,-128.418
1678024388.933,-75.195,-35.156,-29.297,-45.410,-89.844
1678024388.937,-67.383,-36.133,-32.227,-20.996,-71.777
1678024388.941,-47.363,-36.621,-29.297,-25.879,-33.691
1678024388.945,-39.551,-35.645,-27.832,-53.223,-21.484
1678024388.948,-46.387,-31.738,-27.832,-62.988,302.734
1678024388.952,-57.617,-27.832,-28.809,-44.434,345.215
1678024388.956,-53.223,-27.832,-28.809,-17.578,-43.945
1678024388.960,-35.645,-27.344,-25.879,-12.695,-62.988
1678024388.964,-22.461,-30.273,-26.855,-49.316,-93.262
1678024388.966,-24.902,-34.668,-28.809,-73.242,-198.242
1678024388.970,-43.457,-32.715,-23.926,-50.781,-152.344
1678024388.974,-53.711,-38.574,-24.902,-15.625,-66.895
1678024388.978,-29.785,-38.086,-29.297,-13.184,-55.176
1678024388.982,-13.184,-35.645,-28.809,-37.109,-83.984
1678024388.986,-29.297,-40.527,-28.320,-50.781,-125.488
1678024388.990,-48.340,-38.086,-27.832,-27.344,144.531
1678024388.993,-57.617,-38.574,-28.809,0.000,267.090
1678024388.997,-42.969,-41.992,-28.320,-5.371,-64.941
1678024389.001,-21.484,-41.992,-30.762,-33.203,-175.781
1678024389.005,-26.367,-42.969,-35.156,-67.871,-99.609
1678024389.009,-53.711,-41.016,-32.715,-57.129,-89.844
1678024389.011,-65.430,-39.551,-32.227,-16.602,-174.805
1678024389.015,-48.828,-43.457,-34.180,-1.465,-69.824
1678024389.019,-25.879,-36.621,-30.762,-27.832,-8.301
1678024389.023,-25.879,-29.785,-31.250,-59.082,-117.676
1678024389.027,-42.969,-32.227,-27.832,-43.457,-147.949
1678024389.031,-59.082,-35.156,-27.344,-9.766,16.113
1678024389.035,-58.594,-35.156,-33.691,-3.906,71.289
1678024389.038,-38.574,-35.645,-31.250,-29.297,-68.359
1678024389.042,-33.691,-40.039,-29.785,-62.012,-48.340
1678024389.046,-52.734,-45.898,-34.668,-60.059,13.184
1678024389.050,-68.848,-47.363,-33.203,-15.137,255.859
1678024389.054,-58.594,-46.875,-32.227,0.000,176.270
1678024389.071,-34.668,-42.480,-33.691,-32.227,-121.582
1678024389.075,-29.297,-39.551,-28.320,-60.059,-123.047
1678024389.079,-46.387,-41.992,-29.785,-59.082,-106.934
1678024389.083,-69.336,-42.480,-32.227,-33.203,-117.676
1678024389.087,-63.477,-38.086,-30.762,-4.883,-62.500
1678024389.091,-38.574,-37.598,-32.227,-14.160,-23.438
1678024389.095,-36.621,-37.109,-35.156,-56.641,-3.906
1678024389.098,-51.758,-30.273,-31.738,-61.523,-33.691
1678024389.102,-60.059,-37.109,-28.320,-26.367,-129.883
1678024389.106,-57.129,-41.504,-31.738,3.418,100.098
1678024389.110,-34.180,-37.109,-34.180,-12.207,181.152
1678024389.114,-18.066,-34.668,-30.273,-52.246,-85.449
1678024389.115,-36.133,-34.668,-32.715,-63.965,-117.676
1678024389.119,-58.105,-37.109,-43.945,-38.086,-38.574
1678024389.123,-55.176,-34.180,-41.992,-8.301,-60.059
1678024389.127,-29.785,-31.250,-38.574,-12.207,-116.699
1678024389.131,-11.230,-28.809,-37.109,-45.898,-76.660
1678024389.135,-19.043,-27.832,-32.227,-58.105,44.922
1678024389.139,-39.062,-31.738,-33.203,-27.344,54.199
1678024389.142,-52.246,-37.598,-28.809,5.859,-27.832
1678024389.146,-40.527,-38.086,-31.250,-2.930,22.461
1678024389.150,-26.367,-39.062,-38.574,-36.133,256.348
1678024389.154,-37.598,-37.598,-33.691,-57.129,70.312
1678024389.158,-58.105,-32.227,-33.203,-46.875,-223.145
1678024389.161,-65.918,-33.691,-31.738,-7.324,-142.090
1678024389.165,-46.875,-34.668,-33.203,1.465,-32.715
1678024389.169,-29.297,-32.227,-33.691,-34.180,-113.281
1678024389.173,-35.645,-28.809,-30.762,-62.500,-183.594
1678024389.177,-57.617,-31.738,-36.621,-44.922,-44.434
1678024389.181,-67.871,-28.809,-40.039,-11.719,-13.184
1678024389.185,-52.246,-27.832,-37.109,-8.789,-36.133
1678024389.188,-30.273,-31.738,-37.598,-36.621,-62.500
1678024389.192,-32.715,-35.645,-37.109,-63.965,56.152
1678024389.196,-59.570,-36.133,-40.527,-51.758,41.992
1678024389.200,-76.172,-33.691,-42.480,-8.301,-174.316
1678024389.204,-63.477,-33.691,-39.551,5.371,-81.055
1678024389.206,-39.062,-35.645,-42.480,-31.738,-123.535
1678024389.210,-33.203,-35.156,-42.480,-63.477,-192.383
1678024389.214,-51.270,-33.691,-39.551,-59.570,-148.926
1678024389.218,-60.059,-37.109,-33.691,-20.508,30.762
1678024389.222,-46.387,-41.016,-31.738,1.953,183.594
1678024389.226,-21.973,-37.109,-31.738,-26.367,89.355
1678024389.230,-17.090,-33.203,-30.273,-54.199,-34.180
1678024389.233,-38.574,-33.203,-28.809,-50.293,-16.602
1678024389.237,-55.664,-39.551,-25.391,-12.207,277.344
1678024389.241,-46.387,-44.922,-28.809,13.184,163.574
1678024389.245,-33.691,-49.316,-31.250,-14.160,-187.500
1678024389.249,-29.297,-46.387,-24.902,-45.410,-115.723
1678024389.251,-39.062,-41.992,-24.902,-41.016,-91.309
1678024389.255,-57.129,-44.922,-29.297,-11.719,-170.410
1678024389.259,-51.270,-45.410,-28.809,9.277,-122.559
1678024389.263,-28.809,-40.039,-30.762,-13.672,-64.453
1678024389.267,-21.973,-34.668,-31.250,-46.387,-107.910
1678024389.271,-32.715,-37.598,-31.250,-45.898,-69.336
1678024389.275,-45.898,-39.551,-34.668,-20.508,-35.645
1678024389.278,-47.852,-35.645,-31.250,12.695,192.871
1678024389.282,-35.156,-34.180,-24.902,7.812,316.895
1678024389.286,-21.484,-32.715,-22.949,-34.668,-64.453
1678024389.290,-33.203,-35.156,-25.879,-55.664,-188.965
1678024389.294,-54.199,-37.109,-31.250,-33.691,-114.258
1678024389.295,-51.758,-32.227,-33.203,-8.789,-131.348
1678024389.299,-35.156,-32.227,-30.273,-12.695,-129.883
1678024389.303,-28.809,-30.762,-27.344,-48.340,-87.891
1678024389.307,-42.969,-32.227,-26.367,-74.707,-96.680
1678024389.311,-62.988,-34.180,-26.855,-57.617,-151.855
1678024389.315,-70.312,-27.344,-22.949,-25.391,-84.961
1678024389.319,-49.805,-21.484,-14.648,-21.484,44.922
1678024389.322,-37.109,-20.996,-19.043,-61.523,218.750
1678024389.326,-60.059,-25.879,-21.484,-99.609,86.914
1678024389.330,-98.633,-19.043,-12.207,-106.445,-141.113
1678024389.334,-125.000,-7.324,-2.930,-98.633,-78.613
1678024389.338,-138.184,-8.789,-5.371,-123.047,-83.496
1678024389.341,-165.527,5.859,-1.953,-196.777,-174.316
1678024389.345,-219.727,11.719,6.348,-263.184,-219.238
1678024389.349,-269.531,15.625,8.301,-271.973,-57.617
1678024389.353,-302.734,18.066,11.230,-271.484,54.199
1678024389.357,-309.570,17.578,22.461,-282.715,-91.309
1678024389.361,-307.129,27.344,29.297,-321.289,-64.453
1678024389.365,-320.312,27.832,23.926,-360.840,204.590
1678024389.368,-323.730,29.785,28.809,-335.449,182.617
1678024389.372,-330.078,24.414,27.344,-298.340,-148.438
1678024389.376,-322.754,16.113,32.227,-281.738,-142.090
1678024389.380,-300.781,16.602,28.320,-300.781,-80.078
1678024389.384,-292.969,17.090,16.602,-327.637,-130.859
1678024389.386,-295.898,11.719,19.043,-315.430,-194.824
1678024389.390,-299.316,3.906,12.695,-270.996,-159.180
1678024389.394,-275.391,1.465,4.395,-232.422,-77.148
1678024389.398,-236.816,-1.465,6.836,-248.535,-115.234
1678024389.402,-224.609,-3.906,5.859,-279.785,-171.875
1678024389.406,-221.680,-5.371,-3.906,-256.348,-25.879
1678024389.410,-214.355,-9.277,-6.348,-200.195,166.016
1678024389.413,-203.125,-19.043,-14.160,-174.316,71.289
1678024389.417,-162.598,-28.809,-22.461,-180.176,-18.066
1678024389.421,-129.883,-32.227,-21.973,-187.012,63.477
1678024389.425,-139.648,-38.086,-29.297,-170.898,185.547
1678024389.429,-142.578,-41.992,-35.156,-130.371,24.902
1678024389.432,-113.770,-39.062,-35.156,-95.215,-47.363
1678024389.436,-85.938,-45.410,-40.527,-99.121,75.195
1678024389.440,-64.453,-47.363,-41.992,-118.164,-44.922
1678024389.444,-60.059,-46.875,-43.457,-114.746,-172.852
1678024389.448,-78.125,-48.828,-43.945,-64.941,-105.957
1678024389.452,-81.055,-48.828,-44.434,-19.531,-36.133
1678024389.456,-55.664,-52.734,-49.805,-22.461,21.484
1678024389.459,-35.156,-54.199,-49.805,-50.293,-67.871
1678024389.463,-37.598,-52.246,-42.480,-57.129,-169.434
1678024389.467,-53.711,-54.688,-45.898,-21.973,55.664
1678024389.471,-47.363,-54.688,-48.828,12.695,112.793
1678024389.475,-20.020,-53.223,-42.480,6.348,-106.445
1678024389.492,0.488,-50.781,-45.898,-29.297,-150.391
1678024389.496,0.000,-47.852,-52.734,-37.598,-119.141
1678024389.500,-21.973,-49.805,-53.711,-7.812,-132.324
1678024389.504,-26.855,-43.457,-51.270,21.973,-69.336
1678024389.508,1.953,-40.039,-43.945,31.250,105.469
1678024389.512,26.855,-41.504,-43.457,3.418,233.887
1678024389.516,28.320,-39.551,-49.316,-21.973,30.273
1678024389.519,12.695,-36.621,-47.852,4.883,-150.391
1678024389.523,6.836,-35.156,-50.293,40.527,1.953
1678024389.527,33.203,-34.180,-52.246,54.688,290.527
1678024389.531,52.246,-41.992,-56.152,18.066,66.895
1678024389.535,40.527,-48.340,-60.059,-12.695,-179.199
1678024389.536,23.438,-46.387,-55.176,18.066,-96.191
1678024389.540,17.578,-48.340,-51.758,50.293,-63.477
1678024389.544,32.227,-45.898,-52.246,57.129,-44.434
1678024389.548,50.781,-44.922,-51.758,29.785,-69.336
1678024389.552,44.922,-43.945,-56.152,-7.324,-52.246
1678024389.556,29.297,-41.992,-59.082,4.883,-20.996
1678024389.560,21.973,-47.852,-52.246,41.992,37.109
1678024389.563,27.344,-48.340,-51.270,57.129,58.105
1678024389.567,45.410,-43.457,-54.199,37.598,154.297
1678024389.571,49.805,-46.387,-51.758,5.859,188.965
1678024389.575,36.621,-47.852,-51.270,10.742,-60.547
1678024389.579,19.043,-47.852,-53.223,49.316,-33.691
1678024389.581,20.508,-43.945,-51.270,72.266,35.156
1678024389.585,39.551,-43.945,-51.270,52.246,-76.660
1678024389.589,43.457,-48.340,-55.664,19.043,-194.336
1678024389.593,23.926,-47.363,-59.570,22.461,-181.152
1678024389.597,4.883,-49.316,-59.082,50.293,-130.371
1678024389.601,9.766,-48.340,-53.223,77.148,-40.039
1678024389.605,30.762,-43.945,-50.293,60.547,7.324
1678024389.608,40.039,-41.016,-52.246,17.578,-10.742
1678024389.612,25.879,-44.922,-52.734,9.766,269.043
1678024389.616,9.766,-45.410,-50.781,40.039,253.906
1678024389.620,11.719,-39.062,-46.387,64.941,-120.117
1678024389.624,31.738,-41.504,-44.922,55.176,-202.637
1678024389.626,41.504,-40.039,-50.781,14.648,-168.457
1678024389.630,26.855,-37.598,-54.199,-4.395,-177.734
1678024389.634,10.254,-38.574,-46.875,25.879,-157.715
1678024389.638,9.277,-36.133,-44.922,59.082,-79.102
1678024389.642,29.785,-36.133,-43.945,53.223,-97.656
1678024389.646,39.551,-38.574,-41.992,8.789,-106.445
1678024389.650,22.461,-37.109,-43.457,-4.883,-91.309
1678024389.653,3.418,-36.621,-45.898,25.879,92.285
1678024389.657,6.348,-38.086,-48.340,52.246,133.301
1678024389.661,25.879,-37.598,-49.316,44.434,-33.691
1678024389.665,31.738,-38.574,-49.316,3.418,-63.965
1678024389.669,26.855,-41.016,-49.805,-15.137,-81.055
1678024389.671,12.207,-44.434,-49.805,5.859,-96.191
1678024389.675,0.000,-47.363,-47.852,37.109,-118.164
1678024389.679,18.555,-41.992,-43.945,48.828,-63.965
1678024389.683,26.855,-43.945,-43.945,6.836,-80.566
1678024389.687,11.719,-48.828,-41.992,-22.461,-166.504
1678024389.691,-5.371,-41.992,-34.668,-3.418,-101.562
1678024389.695,-12.207,-37.109,-34.180,30.762,-30.273
1678024389.698,2.441,-37.598,-36.621,52.734,321.777
1678024389.702,23.926,-39.551,-38.086,17.578,274.414
1678024389.706,25.391,-39.551,-37.598,-20.020,-127.441
1678024389.710,-0.977,-40.527,-38.574,0.000,-80.078
1678024389.714,-16.113,-43.457,-35.645,41.992,-72.266
1678024389.717,-3.418,-42.969,-29.297,57.129,-145.996
1678024389.721,9.277,-47.363,-34.668,14.648,-193.359
1678024389.725,0.977,-49.316,-39.551,-22.461,-125.977
1678024389.729,-22.461,-47.363,-35.156,-13.672,-114.258
1678024389.733,-28.809,-45.410,-31.250,20.020,-147.461
1678024389.737,-15.625,-40.039,-30.273,37.598,-68.359
1678024389.741,0.977,-39.062,-33.203,13.184,177.246
1678024389.744,1.953,-38.086,-36.133,-31.738,183.594
1678024389.748,-23.438,-43.945,-34.668,-37.598,-135.254
1678024389.752,-48.340,-41.504,-33.691,3.906,-121.582
1678024389.756,-37.598,-35.156,-33.691,25.879,-60.547
1678024389.760,-17.578,-36.133,-31.250,0.977,-116.211
1678024389.776,-17.090,-39.062,-35.645,-39.551,-142.578
1678024389.780,-32.715,-39.551,-40.039,-44.922,-108.887
1678024389.784,-48.340,-36.621,-35.645,-12.207,-56.641
1678024389.788,-34.668,-40.527,-36.621,16.602,-67.871
1678024389.792,-6.836,-33.691,-41.504,0.000,-120.117
1678024389.796,-0.977,-25.879,-32.715,-40.527,-45.410
1678024389.800,-17.578,-27.344,-24.414,-34.180,279.785
1678024389.803,-37.598,-27.832,-31.738,-1.465,246.582
1678024389.807,-39.062,-29.785,-35.156,16.602,-33.203
1678024389.811,-20.020,-32.227,-28.320,13.672,35.645
1678024389.815,-13.672,-33.691,-29.297,-27.832,91.309
1678024389.819,-34.180,-31.738,-32.715,-55.664,-112.793
1678024389.821,-55.176,-33.691,-33.203,-27.344,-129.395
1678024389.825,-50.781,-39.551,-36.133,9.766,-47.852
1678024389.829,-28.809,-35.156,-36.621,5.371,-23.926
1678024389.833,-13.672,-33.691,-33.203,-27.344,-104.980
1678024389.837,-23.438,-39.551,-29.297,-41.504,-95.703
1678024389.841,-50.781,-39.062,-32.227,-24.414,77.637
1678024389.845,-46.875,-34.180,-31.738,8.301,67.871
1678024389.848,-20.996,-32.227,-29.785,9.766,-17.090
1678024389.852,-13.672,-34.180,-29.297,-28.809,-115.234
1678024389.856,-25.879,-38.086,-30.762,-44.922,72.266
1678024389.860,-43.457,-36.621,-38.086,-28.320,144.043
1678024389.864,-45.898,-33.691,-37.598,-6.348,-128.906
1678024389.866,-29.297,-32.715,-31.738,-0.977,-124.023
1678024389.870,-10.254,-29.785,-31.250,-28.809,-89.355
1678024389.874,-9.766,-25.879,-31.250,-55.664,-137.207
1678024389.878,-23.926,-24.902,-29.297,-41.504,-189.453
1678024389.882,-31.250,-26.367,-26.855,-1.465,-105.469
1678024389.886,-15.625,-31.250,-28.320,13.672,55.176
1678024389.890,5.371,-32.227,-29.785,-15.625,0.977
1678024389.893,0.977,-32.715,-28.320,-48.340,-116.211
1678024389.897,-26.855,-34.668,-29.297,-32.715,2.441
1678024389.901,-36.621,-31.738,-26.855,1.953,374.023
1678024389.905,-26.855,-29.297,-20.996,14.648,321.777
1678024389.909,-17.090,-36.133,-24.414,-17.090,-89.844
1678024389.911,-18.066,-37.598,-27.344,-57.129,-188.477
1678024389.915,-39.551,-35.645,-29.785,-58.105,-127.930
1678024389.919,-51.758,-33.203,-32.715,-20.020,-109.375
1678024389.923,-31.738,-32.227,-31.250,5.371,-62.012
1678024389.927,-11.719,-30.762,-30.762,-21.484,-54.199
1678024389.931,-16.602,-32.227,-26.855,-49.316,-30.762
1678024389.935,-34.668,-28.320,-26.855,-47.852,-34.180
1678024389.938,-47.852,-24.414,-33.691,-27.344,-179.199
1678024389.942,-43.945,-30.273,-34.180,-0.977,53.223
1678024389.946,-23.926,-33.691,-34.180,-14.648,199.707
1678024389.950,-15.137,-28.320,-32.715,-57.617,-95.215
1678024389.954,-38.086,-28.320,-31.250,-63.965,-159.180
1678024389.956,-61.035,-32.715,-30.273,-26.367,-31.738
1678024389.960,-60.547,-37.109,-30.273,-0.977,-24.902
1678024389.964,-42.969,-38.086,-34.180,-13.672,-89.355
1678024389.968,-36.621,-33.691,-32.715,-55.664,-52.246
1678024389.972,-48.828,-28.809,-30.762,-69.824,-33.203
1678024389.976,-61.035,-26.367,-30.762,-29.297,-23.926
1678024389.980,-56.152,-28.320,-31.738,-4.395,37.598
1678024389.983,-24.414,-24.902,-26.855,-7.812,90.332
1678024389.987,-9.277,-20.996,-22.461,-30.762,288.086
1678024389.991,-39.062,-24.902,-27.832,-57.617,121.582
1678024389.995,-57.129,-28.809,-33.203,-33.203,-224.609
1678024389.999,-52.246,-29.297,-31.250,11.719,-44.434
1678024390.001,-30.273,-28.320,-25.391,5.859,0.977
1678024390.005,-7.812,-31.250,-24.902,-41.016,-166.504
1678024390.009,-18.066,-33.691,-29.785,-61.523,-179.688
1678024390.013,-42.969,-30.762,-31.250,-37.598,-120.605
1678024390.017,-47.852,-31.250,-29.297,-7.324,-42.480
1678024390.021,-29.785,-31.250,-27.832,-4.883,-41.016
1678024390.025,-13.184,-26.855,-25.391,-44.434,38.086
1678024390.028,-24.902,-28.809,-31.738,-71.289,178.223
1678024390.032,-40.527,-31.738,-38.574,-50.293,151.367
1678024390.036,-44.922,-33.691,-40.527,-27.344,-21.484
1678024390.040,-35.156,-34.180,-43.457,-20.508,-38.574
1678024390.044,-22.461,-31.738,-43.457,-50.293,-53.711
1678024390.047,-28.809,-36.621,-42.969,-75.684,-138.184
1678024390.051,-41.992,-38.574,-39.551,-61.523,-145.020
1678024390.055,-50.781,-35.156,-38.086,-28.809,18.555
1678024390.059,-48.828,-36.133,-38.086,-8.301,46.387
1678024390.063,-42.480,-40.527,-32.227,-36.621,-142.090
1678024390.067,-46.875,-39.551,-28.320,-64.453,-168.945
1678024390.071,-65.918,-38.574,-29.785,-48.828,-79.590
1678024390.074,-80.566,-42.480,-33.203,-6.348,306.641
1678024390.078,-63.477,-42.480,-32.715,4.883,277.344
1678024390.082,-36.133,-40.527,-34.668,-39.551,-113.281
1678024390.086,-39.551,-35.645,-40.039,-76.660,-63.477
1678024390.090,-54.688,-31.250,-35.156,-63.477,-48.340
1678024390.091,-58.105,-30.273,-29.297,-23.438,-131.836
1678024390.095,-50.293,-30.762,-28.809,-4.883,-140.625
1678024390.099,-34.668,-25.879,-30.762,-26.855,-3.418
1678024390.103,-31.738,-24.414,-31.738,-70.312,-30.273
1678024390.107,-46.387,-30.762,-36.133,-65.430,-125.488
1678024390.111,-59.082,-34.668,-39.062,-25.879,-117.676
1678024390.115,-51.270,-34.668,-38.086,-2.930,87.402
1678024390.118,-28.320,-35.645,-36.133,-14.648,249.512
1678024390.122,-17.578,-36.621,-32.715,-56.152,-84.961
1678024390.126,-33.203,-37.109,-34.668,-74.219,-125.488
1678024390.130,-52.734,-38.086,-35.645,-38.086,-37.109
1678024390.134,-42.480,-37.109,-34.180,-6.348,-158.203
1678024390.151,-18.555,-38.574,-36.133,-18.066,-183.105
1678024390.155,-17.578,-38.574,-36.621,-45.898,-157.227
1678024390.159,-27.344,-38.574,-33.691,-64.941,-107.422
1678024390.163,-39.551,-38.574,-34.668,-41.016,-155.762
1678024390.167,-33.691,-34.180,-33.691,-7.324,-207.031
1678024390.171,-12.207,-33.203,-33.691,-13.184,42.969
1678024390.175,-2.930,-32.715,-35.156,-51.758,185.059
1678024390.178,-14.648,-29.297,-32.715,-71.777,-17.090
1678024390.182,-35.156,-31.250,-30.762,-45.898,-51.758
1678024390.186,-32.227,-34.180,-30.762,-7.812,42.480
1678024390.190,-14.648,-37.109,-34.668,-2.441,256.348
1678024390.194,-3.906,-41.504,-39.062,-41.504,81.543
1678024390.196,-12.207,-36.621,-34.180,-65.918,-228.516
1678024390.200,-31.250,-31.738,-26.367,-37.109,-143.555
1678024390.204,-39.062,-28.809,-26.367,0.488,-83.008
1678024390.208,-21.484,-26.855,-29.297,3.418,-183.594
1678024390.212,-9.277,-33.203,-33.691,-34.180,-162.109
1678024390.216,-24.414,-36.621,-34.668,-56.152,15.137
1678024390.220,-48.340,-36.133,-33.691,-37.109,69.824
1678024390.223,-53.711,-40.039,-38.086,-2.441,-40.039
1678024390.227,-39.551,-40.039,-38.086,9.766,-167.969
1678024390.231,-26.855,-36.621,-35.156,-29.297,48.828
1678024390.235,-28.320,-40.039,-37.598,-65.430,104.004
1678024390.239,-44.434,-38.086,-35.645,-53.223,-199.707
1678024390.241,-47.852,-34.668,-33.203,-11.719,-172.363
1678024390.245,-34.180,-38.574,-33.691,3.906,-127.930
1678024390.249,-26.367,-38.086,-30.273,-29.785,-200.195
1678024390.253,-28.320,-35.645,-32.715,-62.012,-217.773
1678024390.257,-42.480,-34.668,-35.156,-48.828,-116.699
1678024390.261,-54.199,-40.039,-39.551,-13.672,41.504
1678024390.265,-42.969,-42.480,-43.457,-1.953,112.793
1678024390.268,-22.949,-38.574,-41.016,-27.832,97.656
1678024390.272,-18.555,-41.992,-38.086,-67.383,61.035
1678024390.276,-39.062,-41.016,-38.086,-67.871,258.789
1678024390.280,-51.270,-35.645,-37.598,-32.227,167.480
1678024390.284,-36.133,-32.227,-37.109,-17.578,-101.562
1678024390.286,-18.555,-33.203,-37.598,-34.180,14.648
1678024390.290,-17.090,-34.180,-36.133,-70.312,-42.480
1678024390.294,-35.645,-30.762,-37.109,-77.148,-178.223
1678024390.298,-52.246,-34.180,-34.668,-40.039,-188.965
1678024390.302,-43.457,-35.156,-29.785,-20.996,-153.809
1678024390.306,-25.879,-32.227,-29.297,-50.293,-78.613
1678024390.310,-24.414,-31.250,-29.785,-95.703,-108.887
1678024390.313,-41.504,-28.809,-26.367,-110.352,-174.316
1678024390.317,-66.406,-26.855,-30.762,-72.266,90.332
1678024390.321,-65.918,-30.762,-38.574,-48.828,204.590
1678024390.325,-39.551,-33.203,-37.109,-70.312,-81.055
1678024390.329,-30.762,-32.227,-34.668,-111.328,-113.770
1678024390.332,-46.875,-37.109,-38.574,-133.789,-110.840
1678024390.336,-62.988,-38.086,-34.180,-109.375,-80.078
1678024390.340,-60.059,-31.250,-27.832,-73.730,-85.938
1678024390.344,-50.781,-28.809,-28.320,-84.961,-73.730
1678024390.348,-51.270,-25.879,-27.832,-136.719,-31.738
1678024390.352,-68.848,-27.832,-25.879,-166.992,-9.766
1678024390.356,-95.215,-36.133,-26.855,-150.391,4.395
1678024390.359,-100.586,-19.531,-20.020,-124.023,87.402
1678024390.363,-99.121,-12.695,-14.160,-142.578,385.742
1678024390.367,-114.746,-8.301,-15.137,-212.402,185.059
1678024390.371,-142.578,-1.465,-5.371,-254.883,-147.949
1678024390.375,-185.059,-2.441,-4.395,-263.184,-112.793
1678024390.376,-218.750,8.789,-10.254,-267.578,-68.848
1678024390.380,-221.680,19.043,6.836,-280.762,-116.211
1678024390.384,-240.723,20.020,11.230,-349.609,-142.578
1678024390.388,-269.043,20.996,6.836,-402.832,-58.105
1678024390.392,-281.250,30.273,23.926,-378.906,-83.984
1678024390.396,-303.711,20.996,26.855,-343.262,10.742
1678024390.400,-299.316,15.137,26.367,-346.191,95.215
1678024390.403,-268.066,17.578,29.785,-362.305,104.004
1678024390.407,-261.230,17.578,29.297,-378.418,132.324
1678024390.411,-283.203,18.066,30.762,-373.047,-82.031
1678024390.415,-295.410,10.742,29.297,-339.355,-84.473
1678024390.419,-265.137,11.719,32.715,-307.129,-41.016
1678024390.421,-248.535,1.953,30.273,-337.891,-104.980
1678024390.425,-243.164,1.465,30.273,-362.793,-189.941
1678024390.429,-249.023,0.977,20.996,-336.426,-158.691
1678024390.433,-267.090,-2.930,14.160,-305.664,-98.145
1678024390.437,-248.047,0.000,21.484,-279.297,-116.211
1678024390.441,-213.867,-3.418,19.043,-289.551,-16.113
1678024390.445,-208.496,-7.324,14.160,-317.871,51.270
1678024390.448,-227.539,-7.812,16.602,-301.270,221.191
1678024390.452,-242.188,-11.230,16.113,-254.395,134.277
1678024390.456,-225.586,-17.578,10.254,-230.957,-172.852
1678024390.460,-192.383,-10.742,7.812,-237.305,-56.641
1678024390.464,-168.945,-8.301,5.371,-248.047,34.180
1678024390.466,-180.176,-24.414,1.465,-246.582,-169.434
1678024390.470,-190.430,-22.461,-0.977,-208.496,-212.402
1678024390.474,-176.270,-21.484,-1.953,-168.945,-129.883
1678024390.478,-143.555,-22.949,-3.906,-162.109,-109.863
1678024390.482,-122.070,-25.879,-4.395,-177.246,-101.074
1678024390.486,-127.441,-35.645,-3.418,-180.176,-128.418
1678024390.490,-134.766,-35.156,-10.254,-141.113,128.418
1678024390.493,-132.324,-38.574,-20.020,-104.980,205.078
1678024390.497,-100.586,-46.387,-24.902,-108.887,-72.266
1678024390.501,-72.754,-47.852,-26.367,-130.371,-112.305
1678024390.505,-77.637,-46.387,-31.738,-133.301,-63.965
1678024390.509,-85.938,-49.316,-40.039,-96.680,-63.965
1678024390.511,-67.383,-54.199,-45.898,-57.129,-134.766
1678024390.515,-40.527,-55.664,-47.363,-65.918,-107.422
1678024390.519,-33.203,-58.594,-51.270,-90.820,-81.055
1678024390.523,-40.039,-61.035,-56.152,-85.938,-162.598
1678024390.527,-49.805,-59.570,-56.641,-47.363,-181.641
1678024390.531,-51.758,-60.059,-54.199,-0.488,0.977
1678024390.535,-32.227,-55.176,-48.828,7.812,191.895
1678024390.538,-2.441,-51.758,-50.781,-28.809,20.996
1678024390.542,1.953,-52.246,-56.152,-44.922,-195.312
1678024390.546,-18.555,-53.711,-55.664,-9.766,-62.500
1678024390.550,-24.414,-58.105,-54.688,35.645,234.863
1678024390.554,3.906,-54.688,-54.688,25.879,45.898
1678024390.570,25.391,-47.852,-51.758,-17.090,-218.262
1678024390.574,16.113,-51.758,-52.246,-21.484,-46.875
1678024390.578,0.977,-57.129,-55.664,11.230,-17.090
1678024390.582,-3.906,-57.129,-53.223,53.711,-186.035
1678024390.586,19.531,-56.152,-47.852,81.543,-136.719
1678024390.590,39.551,-57.129,-47.852,52.734,-26.367
1678024390.594,42.480,-48.340,-51.758,14.160,-46.387
1678024390.597,33.203,-44.434,-52.734,17.578,-152.344
1678024390.601,21.973,-47.363,-51.758,44.922,-166.016
1678024390.605,39.551,-47.363,-53.223,55.664,74.707
1678024390.609,68.848,-43.945,-54.199,24.902,96.680
1678024390.613,64.453,-47.363,-53.711,-8.301,-132.324
1678024390.616,44.922,-48.828,-54.688,11.230,-101.074
1678024390.620,38.574,-44.434,-52.246,49.805,-86.426
1678024390.624,48.340,-46.387,-52.246,65.430,-98.145
1678024390.628,72.266,-43.457,-47.363,41.016,-162.598
1678024390.632,82.031,-37.109,-42.480,4.395,-133.301
1678024390.636,60.059,-38.574,-47.363,3.418,-22.949
1678024390.640,41.504,-42.480,-48.340,39.062,-77.637
1678024390.643,47.852,-42.480,-50.781,62.012,-55.176
1678024390.647,62.012,-37.598,-49.805,39.062,17.090
1678024390.651,62.012,-39.062,-47.852,2.441,273.926
1678024390.655,45.898,-42.969,-54.199,-17.578,174.805
1678024390.659,33.691,-38.086,-54.688,8.301,-143.066
1678024390.661,40.527,-37.109,-49.316,41.992,-69.336
1678024390.665,61.523,-39.551,-45.898,25.879,-63.477
1678024390.669,69.336,-39.062,-45.898,-14.648,-156.250
1678024390.673,43.945,-35.156,-41.016,-17.578,-79.590
1678024390.677,23.926,-30.762,-36.621,18.555,82.520
1678024390.681,30.762,-29.785,-35.645,50.293,112.793
1678024390.685,47.363,-30.273,-37.598,42.480,35.156
1678024390.688,60.547,-32.715,-39.551,-4.395,-124.512
1678024390.692,46.387,-32.715,-39.062,-16.113,14.160
1678024390.696,15.625,-36.621,-41.504,16.602,157.227
1678024390.700,10.254,-39.551,-43.945,37.598,-42.480
1678024390.704,32.227,-32.227,-42.969,34.180,-59.082
1678024390.706,48.340,-24.902,-36.621,3.418,-103.516
1678024390.710,33.691,-23.926,-36.621,-20.020,-152.832
1678024390.714,8.301,-27.832,-36.133,-1.465,-164.551
1678024390.718,7.812,-34.668,-33.203,23.438,-107.422
1678024390.722,28.809,-35.156,-36.133,19.531,73.242
1678024390.726,45.410,-35.645,-37.109,-11.230,31.250
1678024390.730,41.504,-41.992,-38.086,-29.297,-83.496
1678024390.733,11.719,-43.945,-41.504,-10.742,62.500
1678024390.737,-2.441,-41.016,-36.621,25.391,402.832
1678024390.741,17.578,-36.621,-34.668,27.832,270.020
1678024390.745,31.738,-32.227,-40.527,-8.301,-144.531
1678024390.749,27.344,-29.785,-41.016,-22.949,-72.266
1678024390.751,8.301,-29.785,-41.016,-4.883,-17.090
1678024390.755,-2.441,-33.203,-41.504,33.691,-156.250
1678024390.759,12.207,-32.715,-40.527,62.988,-91.797
1678024390.763,29.785,-33.203,-44.434,38.574,-9.766
1678024390.767,27.344,-32.715,-41.016,9.277,-91.797
1678024390.771,3.906,-30.762,-35.645,23.438,-119.629
1678024390.775,-13.672,-28.809,-37.598,62.012,-93.262
1678024390.778,-3.906,-33.203,-39.551,86.914,142.578
1678024390.782,18.555,-34.668,-38.086,56.152,251.465
1678024390.786,26.855,-32.227,-34.668,18.066,-104.004
1678024390.790,8.301,-34.180,-31.250,23.926,-192.871
1678024390.794,-16.602,-32.715,-30.762,56.641,-64.453
1678024390.796,-10.254,-30.273,-34.180,79.102,-79.590
1678024390.800,17.578,-34.668,-34.668,64.453,-149.414
1678024390.804,21.973,-35.156,-34.668,33.203,-91.797
1678024390.808,-4.883,-36.133,-37.598,28.320,-73.730
1678024390.812,-25.391,-41.504,-40.039,60.547,-126.465
1678024390.816,-14.648,-41.016,-41.016,90.820,-26.855
1678024390.820,7.324,-41.992,-41.504,69.824,111.328
1678024390.823,13.184,-42.969,-38.574,29.785,351.074
1678024390.827,-8.789,-42.969,-36.621,7.812,173.828
1678024390.831,-34.180,-42.969,-41.992,21.973,-189.453
1678024390.835,-36.621,-44.434,-46.875,57.617,-23.438
1678024390.839,-16.113,-49.805,-45.898,50.293,58.105
1678024390.841,-4.883,-46.875,-42.969,8.789,-163.086
1678024390.845,-21.484,-43.945,-41.504,-1.465,-196.777
1678024390.849,-43.945,-44.434,-39.551,27.832,-185.547
1678024390.853,-42.969,-38.574,-41.016,54.688,-136.719
1678024390.857,-17.578,-33.203,-41.992,44.922,-68.848
1678024390.861,0.000,-31.250,-38.086,9.766,-6.348
1678024390.865,-17.090,-31.738,-39.062,-10.254,208.496
1678024390.868,-47.852,-37.109,-42.480,-4.883,254.883
1678024390.872,-49.316,-38.574,-41.992,20.020,-72.266
1678024390.876,-24.414,-38.086,-40.039,20.996,-145.996
1678024390.880,-5.371,-36.621,-36.621,-19.531,-137.695
1678024390.884,-15.625,-35.645,-35.156,-32.715,-112.793
1678024390.887,-34.180,-35.156,-37.598,-2.441,-73.730
1678024390.891,-37.109,-35.645,-38.574,29.297,-47.852
1678024390.895,-18.066,-36.621,-36.133,36.133,20.020
1678024390.899,1.953,-34.668,-36.133,5.371,-49.316
1678024390.903,-6.348,-34.668,-32.227,-19.531,-177.734
1678024390.907,-29.297,-34.668,-26.855,4.395,-28.809
1678024390.911,-40.527,-34.180,-25.879,42.969,101.562
1678024390.914,-19.531,-29.785,-26.367,47.363,28.320
1678024390.918,10.742,-28.809,-29.297,10.742,-42.480
1678024390.922,-0.977,-31.738,-32.227,-21.973,50.781
1678024390.926,-34.180,-32.227,-37.109,-5.371,250.488
1678024390.930,-41.992,-30.762,-35.645,27.344,11.230
1678024390.946,-30.762,-28.809,-30.762,31.250,-133.301
1678024390.950,-22.949,-30.762,-38.086,-8.301,-46.875
1678024390.954,-21.973,-31.738,-42.480,-44.434,-88.379
1678024390.958,-38.574,-33.691,-40.039,-32.715,-120.605
1678024390.962,-56.641,-39.062,-38.574,0.000,-183.105
1678024390.966,-42.480,-37.598,-32.227,27.832,122.559
1678024390.970,-19.043,-34.180,-30.762,7.324,347.168
1678024390.973,-16.113,-33.691,-29.785,-39.062,-81.543
1678024390.977,-33.691,-33.203,-32.227,-31.250,-212.402
1678024390.981,-48.340,-33.691,-38.086,4.883,-50.781
1678024390.985,-39.062,-33.203,-34.180,20.996,-44.922
1678024390.989,-14.160,-31.738,-31.738,6.836,-108.398
1678024390.991,-1.953,-28.320,-33.691,-26.855,-111.816
1678024390.995,-19.043,-30.273,-36.133,-31.738,-76.172
1678024390.999,-37.109,-33.691,-40.039,3.906,-57.617
1678024391.003,-36.133,-31.250,-40.527,31.738,-137.207
1678024391.007,-14.160,-26.367,-33.203,15.137,-116.211
1678024391.011,-1.465,-29.297,-29.297,-22.461,-24.414
1678024391.015,-27.344,-36.133,-29.297,-33.203,-40.039
1678024391.018,-49.805,-33.691,-26.855,-11.230,-35.645
1678024391.022,-50.293,-33.691,-29.297,9.766,51.758
1678024391.026,-29.785,-36.133,-31.738,-2.441,310.059
1678024391.030,-14.648,-34.180,-37.598,-54.688,247.070
1678024391.034,-29.297,-34.668,-41.992,-78.125,-116.211
1678024391.036,-45.410,-37.109,-35.645,-37.109,-155.273
1678024391.040,-40.527,-37.598,-29.297,-3.906,-49.316
1678024391.044,-18.066,-38.574,-30.273,-17.090,-117.676
1678024391.048,-11.719,-35.645,-34.180,-51.758,-167.969
1678024391.052,-29.785,-31.738,-28.809,-66.895,-123.535
1678024391.056,-53.711,-35.645,-27.832,-46.387,-69.336
1678024391.060,-61.523,-32.715,-31.250,-14.160,-20.020
1678024391.063,-41.992,-28.809,-26.855,-10.742,-83.496
1678024391.067,-24.414,-25.879,-22.949,-40.039,105.957
1678024391.071,-36.621,-26.367,-30.273,-62.988,267.578
1678024391.075,-65.918,-33.691,-35.645,-45.410,-35.645
1678024391.079,-71.289,-37.598,-36.621,-7.812,-119.629
1678024391.081,-48.340,-35.645,-41.992,-3.418,-18.066
1678024391.085,-33.203,-34.180,-41.016,-45.410,-121.582
1678024391.089,-41.016,-35.156,-33.203,-72.754,-166.504
1678024391.093,-63.477,-36.133,-32.715,-51.758,-95.703
1678024391.097,-69.336,-34.668,-28.320,-20.508,-78.613
1678024391.101,-53.711,-36.133,-22.949,-9.766,-51.270
1678024391.105,-34.180,-41.016,-28.809,-30.762,-35.645
1678024391.108,-38.086,-43.457,-33.203,-61.035,-81.543
1678024391.112,-68.848,-45.410,-32.715,-51.758,162.598
1678024391.116,-86.426,-41.016,-34.668,-10.742,185.547
1678024391.120,-73.730,-37.109,-38.574,-5.859,-129.395
1678024391.124,-46.875,-38.574,-42.480,-30.762,-54.688
1678024391.126,-41.992,-38.086,-42.969,-54.688,13.672
1678024391.130,-64.941,-37.109,-42.480,-56.641,-177.734
1678024391.134,-72.754,-35.645,-43.457,-22.461,-200.195
1678024391.138,-59.570,-38.574,-44.922,-2.930,-87.891
1678024391.142,-38.086,-38.574,-43.457,-26.855,-81.543
1678024391.146,-31.250,-33.203,-33.691,-56.641,-36.133
1678024391.150,-41.016,-29.297,-32.227,-54.199,-6.348
1678024391.153,-49.316,-32.715,-38.086,-14.648,132.324
1678024391.157,-47.363,-35.645,-38.086,0.977,159.180
1678024391.161,-22.949,-35.156,-40.039,-23.438,-77.148
1678024391.165,-14.160,-36.621,-38.086,-56.152,-120.117
1678024391.169,-37.598,-34.668,-34.180,-61.035,-137.695
1678024391.171,-52.734,-33.203,-34.668,-20.996,-128.906
1678024391.175,-47.852,-37.109,-35.156,7.324,-125.488
1678024391.179,-26.855,-37.109,-36.133,-14.160,-56.641
1678024391.183,-14.648,-35.156,-35.156,-49.805,43.945
1678024391.187,-34.668,-41.992,-40.527,-62.500,-27.344
1678024391.191,-57.617,-44.922,-43.457,-36.621,-96.191
1678024391.195,-49.805,-40.039,-39.551,1.953,41.504
1678024391.198,-27.832,-38.086,-35.156,1.465,379.395
1678024391.202,-12.207,-38.086,-34.668,-41.992,255.859
1678024391.206,-27.832,-34.180,-34.180,-66.895,-135.742
1678024391.210,-58.594,-32.715,-33.691,-36.133,-93.262
1678024391.214,-60.059,-34.180,-32.715,-2.441,-46.387
1678024391.217,-37.598,-31.738,-28.809,-16.113,-114.258
1678024391.221,-22.949,-30.762,-35.156,-56.152,-150.879
1678024391.225,-34.668,-31.738,-41.016,-72.266,2.441
1678024391.229,-54.199,-30.273,-38.086,-50.781,-8.789
1678024391.233,-52.246,-25.391,-37.109,-7.812,-156.738
1678024391.237,-40.039,-29.297,-40.527,-0.977,-61.035
1678024391.241,-32.715,-34.668,-41.504,-37.109,224.609
1678024391.244,-37.598,-28.809,-38.086,-63.477,280.273
1678024391.248,-59.082,-28.809,-35.156,-51.270,-77.148
1678024391.252,-62.988,-30.762,-34.668,-10.254,-211.426
1678024391.256,-39.062,-26.855,-35.156,-10.254,-124.023
1678024391.260,-22.949,-28.320,-36.133,-51.270,-134.766
1678024391.261,-29.785,-32.227,-38.574,-82.520,-235.840
1678024391.265,-50.781,-30.273,-38.086,-61.523,-190.918
1678024391.269,-61.035,-30.762,-37.598,-17.090,-86.914
1678024391.273,-43.457,-27.344,-36.133,-10.254,-119.629
1678024391.277,-21.973,-26.367,-34.668,-40.039,-133.301
1678024391.281,-26.367,-34.668,-35.645,-71.777,-37.598
1678024391.285,-55.664,-40.039,-38.086,-63.477,158.691
1678024391.288,-67.871,-39.551,-37.109,-31.250,33.203
1678024391.292,-52.734,-40.039,-39.062,-17.090,-67.871
1678024391.296,-33.691,-37.109,-38.574,-36.621,76.660
1678024391.300,-26.855,-35.645,-38.086,-67.383,102.051
1678024391.304,-40.527,-31.250,-36.133,-64.941,-59.570
1678024391.304,-40.527,-31.250,-36.133,-64.941,-59.570
1678024391.321,-49.805,-26.855,-28.320,-26.367,-147.949
1678024391.325,-41.016,-28.809,-26.855,-9.277,-76.660
1678024391.329,-18.066,-25.391,-23.926,-33.203,-44.922
1678024391.333,-16.113,-25.879,-26.367,-68.848,-171.387
1678024391.337,-44.434,-24.902,-29.785,-69.336,-171.387
1678024391.341,-65.918,-23.926,-28.809,-27.832,0.488
1678024391.345,-61.523,-27.344,-30.762,-4.883,54.199
1678024391.348,-41.992,-28.320,-31.250,-31.250,11.230
1678024391.352,-35.156,-31.250,-30.273,-70.801,-127.930
1678024391.356,-52.734,-31.250,-28.809,-68.848,21.484
1678024391.360,-75.195,-31.250,-32.227,-35.156,155.762
1678024391.364,-61.523,-32.715,-28.809,-7.324,-132.812
1678024391.366,-24.902,-31.250,-24.414,-9.766,-117.676
1678024391.370,-10.254,-25.391,-27.832,-41.016,-86.914
1678024391.374,-26.367,-23.926,-27.344,-53.223,-156.250
1678024391.378,-51.270,-28.320,-23.438,-29.297,-189.941
1678024391.382,-51.270,-32.227,-27.344,2.930,-77.637
1678024391.386,-33.203,-31.738,-28.809,-4.395,22.461
1678024391.390,-11.719,-24.902,-22.461,-42.480,-16.113
1678024391.393,-10.254,-20.508,-22.461,-65.430,-48.340
1678024391.397,-36.133,-19.531,-25.391,-41.992,-29.785
1678024391.401,-41.992,-17.090,-17.578,11.719,341.309
1678024391.405,-21.973,-18.555,-15.625,9.277,366.211
1678024391.409,-10.742,-21.973,-21.484,-44.434,-96.191
1678024391.411,-29.785,-29.785,-20.020,-67.383,-157.227
1678024391.415,-69.824,-30.273,-21.484,-62.500,-92.285
1678024391.419,-96.191,-18.066,-16.602,-52.734,-135.742
1678024391.423,-98.633,0.977,0.000,-75.684,-135.254
1678024391.427,-117.188,8.301,7.812,-147.461,-63.965
1678024391.431,-162.109,-1.465,4.395,-202.148,-57.129
1678024391.435,-216.309,-2.441,5.371,-206.055,-106.934
1678024391.438,-247.559,0.488,7.812,-187.988,-97.656
1678024391.442,-255.371,0.977,11.230,-204.102,98.633
1678024391.446,-268.066,6.836,14.160,-270.020,126.465
1678024391.450,-285.645,12.695,14.160,-308.594,-137.695
1678024391.454,-313.965,23.438,14.648,-299.805,-140.137
1678024391.456,-325.195,22.949,19.043,-264.648,-53.711
1678024391.460,-304.199,10.254,22.461,-252.441,-105.469
1678024391.464,-280.762,14.648,14.648,-288.086,-189.453
1678024391.468,-260.254,12.695,12.207,-305.176,-205.566
1678024391.472,-272.949,4.883,7.812,-289.551,-186.523
1678024391.476,-282.715,7.812,9.766,-238.770,-104.004
1678024391.480,-260.742,7.812,13.184,-210.449,-1.465
1678024391.483,-233.887,5.859,5.859,-234.863,52.734
1678024391.487,-219.727,3.418,0.977,-255.859,263.184
1678024391.491,-224.121,-1.465,-1.953,-245.117,133.301
1678024391.495,-224.609,-0.977,1.953,-194.336,-187.012
1678024391.499,-203.125,1.953,-2.930,-154.297,-73.730
1678024391.502,-166.992,1.953,-16.602,-162.598,-60.547
1678024391.506,-140.625,0.977,-23.438,-183.105,-67.383
1678024391.510,-142.090,-0.488,-30.273,-174.316,-33.203
1678024391.514,-154.297,-6.836,-31.738,-129.883,4.395
1678024391.518,-133.301,-17.090,-33.203,-96.191,-42.480
1678024391.522,-92.773,-20.508,-39.551,-106.445,-134.277
1678024391.526,-82.520,-25.391,-40.039,-130.371,-105.469
1678024391.529,-91.797,-22.461,-35.645,-120.117,86.426
1678024391.533,-94.727,-28.320,-37.109,-68.359,85.449
1678024391.537,-81.055,-40.039,-41.504,-33.203,-175.293
1678024391.541,-48.340,-43.457,-38.086,-43.457,-148.926
1678024391.545,-30.273,-46.387,-36.621,-74.219,-77.637
1678024391.546,-39.551,-48.340,-41.504,-82.031,-116.211
1678024391.550,-56.641,-48.340,-46.387,-49.316,-108.887
1678024391.554,-46.387,-42.969,-43.945,0.977,-67.871
1678024391.558,-18.066,-43.945,-42.480,2.441,-17.090
1678024391.562,0.488,-47.852,-42.480,-33.691,16.113
1678024391.566,2.441,-52.246,-43.945,-31.250,-23.926
1678024391.570,-6.348,-55.176,-43.945,9.277,47.852
1678024391.573,-0.977,-54.688,-40.527,48.340,430.176
1678024391.577,13.672,-57.129,-41.992,43.457,372.559
1678024391.581,27.344,-57.617,-38.574,5.859,-128.418
1678024391.585,26.855,-52.734,-34.180,-4.883,-196.777
1678024391.589,10.742,-51.270,-37.598,20.996,-129.883
1678024391.591,5.859,-51.270,-38.574,55.176,-197.754
1678024391.595,30.273,-49.316,-34.668,60.059,-189.453
1678024391.599,49.805,-44.434,-35.645,28.809,-120.117
1678024391.603,42.480,-44.434,-41.504,4.395,-130.371
1678024391.607,24.902,-49.316,-42.969,29.785,-115.723
1678024391.611,20.996,-52.734,-41.992,63.477,-91.309
1678024391.615,40.527,-51.270,-40.039,61.523,168.945
1678024391.618,55.664,-50.781,-42.969,33.203,293.945
1678024391.622,46.387,-48.340,-45.410,-3.418,-66.406
1678024391.626,23.438,-44.922,-43.945,12.207,-204.590
1678024391.630,15.137,-44.434,-43.457,55.664,-86.914
1678024391.634,34.668,-47.363,-43.945,70.801,-85.938
1678024391.636,59.570,-45.898,-42.480,41.504,-214.355
1678024391.640,62.988,-44.434,-41.992,11.719,-195.312
1678024391.644,36.621,-46.875,-42.480,20.996,-110.840
1678024391.648,16.602,-47.852,-43.945,58.594,-113.770
1678024391.652,27.344,-48.340,-47.852,74.707,-147.949
1678024391.656,52.246,-49.805,-49.316,48.828,26.367
1678024391.660,61.523,-45.410,-48.828,11.719,207.031
1678024391.663,39.062,-39.551,-47.363,5.371,7.812
1678024391.667,21.973,-41.992,-47.852,44.434,-90.820
1678024391.671,25.879,-43.457,-50.781,70.801,24.902
1678024391.675,42.480,-40.527,-50.293,54.199,261.230
1678024391.679,49.316,-42.480,-50.293,8.789,98.145
1678024391.696,26.855,-43.457,-52.246,-3.906,-186.523
1678024391.700,7.324,-41.992,-52.734,28.320,-119.629
1678024391.704,14.160,-41.016,-52.246,50.781,-81.543
1678024391.708,32.715,-41.504,-49.316,40.039,-106.934
1678024391.712,48.340,-41.992,-47.363,0.488,-147.949
1678024391.716,38.574,-38.086,-42.480,-9.277,-34.668
1678024391.720,17.578,-41.016,-39.551,29.297,105.469
1678024391.723,14.648,-40.527,-37.109,54.199,-35.156
1678024391.727,30.762,-39.062,-39.551,34.668,-147.949
1678024391.731,42.480,-39.551,-41.992,4.395,83.496
1678024391.735,25.879,-37.598,-40.527,0.977,70.312
1678024391.739,2.441,-41.504,-45.410,23.438,-154.297
1678024391.741,1.953,-41.992,-44.922,48.340,-117.676
1678024391.745,21.484,-42.969,-43.457,35.645,-20.508
1678024391.749,38.086,-39.062,-45.410,-8.301,-83.984
1678024391.753,25.391,-34.180,-42.480,-22.949,-127.930
1678024391.757,-1.465,-41.016,-41.992,6.836,-75.195
1678024391.761,-5.859,-41.504,-42.480,44.922,7.324
1678024391.765,11.719,-39.551,-37.109,44.922,3.906
1678024391.768,24.414,-40.527,-36.133,8.301,-62.012
1678024391.772,17.090,-43.457,-36.133,-10.254,7.812
1678024391.776,-7.812,-43.945,-30.273,18.066,261.719
1678024391.780,-11.230,-41.504,-33.691,50.781,169.434
1678024391.784,10.254,-35.156,-35.645,51.270,-142.578
1678024391.786,20.020,-34.180,-34.668,16.113,-153.809
1678024391.790,15.625,-32.227,-37.109,-9.766,-89.844
1678024391.794,-7.324,-28.320,-37.598,7.812,-92.285
1678024391.798,-23.438,-35.645,-36.133,38.574,-147.461
1678024391.802,-9.766,-34.668,-31.250,51.758,-6.836
1678024391.806,16.602,-32.227,-28.809,19.531,50.781
1678024391.810,15.137,-31.250,-32.715,-27.344,-58.594
1678024391.813,-11.719,-31.250,-35.156,-20.508,-199.219
1678024391.817,-24.414,-32.715,-32.227,26.367,42.480
1678024391.821,-6.836,-30.273,-30.762,43.945,208.496
1678024391.825,13.184,-27.832,-31.250,9.766,-90.332
1678024391.829,7.812,-27.344,-31.250,-24.902,-166.992
1678024391.831,-9.277,-25.879,-36.133,-10.742,-112.305
1678024391.835,-19.043,-27.344,-34.180,32.227,-134.766
1678024391.839,-8.301,-29.297,-26.367,43.457,-146.484
1678024391.843,12.207,-24.902,-25.391,18.555,0.977
1678024391.847,6.836,-27.344,-28.809,-13.184,41.016
1678024391.851,-14.648,-32.715,-31.250,-24.414,-45.410
1678024391.855,-25.391,-26.855,-32.715,0.488,-86.914
1678024391.858,-19.043,-24.414,-28.809,26.367,40.527
1678024391.862,4.883,-22.949,-24.902,19.531,352.051
1678024391.866,12.695,-19.531,-27.832,-24.902,228.516
1678024391.870,-13.184,-21.484,-27.832,-41.992,-155.273
1678024391.874,-33.691,-23.926,-29.785,-1.465,-114.258
1678024391.876,-26.367,-22.949,-30.762,17.090,-38.086
1678024391.880,-1.953,-22.461,-28.320,-2.441,-106.445
1678024391.884,5.371,-22.949,-25.879,-38.574,-213.867
1678024391.888,-15.625,-22.461,-28.809,-54.199,-212.891
1678024391.892,-38.574,-24.902,-28.809,-18.066,-106.934
1678024391.896,-38.574,-33.691,-25.879,11.230,-33.691
1678024391.900,-19.531,-36.133,-27.832,2.930,-45.410
1678024391.903,-8.301,-34.668,-34.180,-20.508,147.949
1678024391.907,-24.414,-36.621,-38.574,-35.156,217.285
1678024391.911,-50.781,-29.785,-31.738,-17.090,-99.121
1678024391.915,-52.734,-27.344,-31.738,13.184,-115.234
1678024391.919,-26.855,-25.879,-35.156,9.277,-83.008
1678024391.921,-11.230,-20.020,-32.227,-34.180,-129.395
1678024391.925,-24.902,-20.020,-33.691,-61.523,-148.438
1678024391.929,-44.434,-21.484,-33.203,-31.738,-150.391
1678024391.933,-52.734,-22.461,-31.738,5.859,-58.105
1678024391.937,-33.691,-20.996,-31.250,8.789,-26.367
1678024391.941,-10.742,-21.484,-31.250,-26.367,-25.879
1678024391.945,-17.090,-23.438,-31.738,-54.199,92.773
1678024391.948,-38.574,-30.762,-30.273,-35.156,281.250
1678024391.952,-42.969,-29.297,-33.203,0.977,221.680
1678024391.956,-26.367,-23.438,-34.180,0.488,-102.051
1678024391.960,-10.742,-28.320,-33.203,-38.086,-98.145
1678024391.964,-14.160,-34.180,-34.668,-50.293,31.250
1678024391.966,-41.504,-33.203,-40.527,-34.180,-143.555
1678024391.970,-58.105,-34.180,-41.504,-10.742,-187.988
1678024391.974,-37.598,-38.086,-42.480,2.441,-76.660
1678024391.978,-12.207,-35.156,-45.410,-24.902,-129.883
1678024391.982,-20.996,-30.762,-45.410,-55.664,-195.801
1678024391.986,-37.598,-28.809,-47.363,-44.434,-81.055
1678024391.990,-46.387,-30.762,-47.363,-11.719,83.008
1678024391.993,-40.039,-30.762,-45.410,7.324,82.031
1678024391.997,-26.855,-30.273,-42.480,-22.949,-142.090
1678024392.001,-31.738,-31.738,-41.016,-64.453,-169.434
1678024392.005,-49.316,-33.691,-41.504,-54.199,-158.203
1678024392.009,-59.570,-34.180,-40.039,-15.137,-79.590
1678024392.011,-39.062,-27.344,-33.203,13.184,-109.375
1678024392.015,-14.648,-25.391,-35.645,-1.465,-130.859
1678024392.019,-20.020,-31.250,-32.715,-39.062,9.766
1678024392.023,-40.039,-30.273,-31.250,-39.062,-120.117
1678024392.027,-45.898,-24.902,-40.039,4.395,-164.551
1678024392.031,-28.320,-22.949,-33.691,39.062,41.016
1678024392.035,-7.324,-23.438,-31.250,19.531,255.371
1678024392.038,-2.441,-26.367,-32.227,-21.484,162.598
1678024392.042,-23.926,-29.297,-31.250,-30.273,-103.516
1678024392.046,-42.480,-30.762,-34.180,-0.977,16.113
1678024392.050,-42.969,-30.762,-30.273,26.855,178.711
1678024392.054,-28.320,-31.738,-33.203,11.230,-18.555
1678024392.057,-15.625,-33.203,-36.621,-28.320,-123.535
1678024392.061,-26.855,-31.250,-33.203,-37.109,-8.789
1678024392.065,-39.551,-31.738,-37.598,-4.883,-18.555
1678024392.069,-36.133,-32.227,-41.504,16.602,-137.207
1678024392.073,-20.020,-30.762,-42.480,2.930,-133.301
1678024392.077,-7.324,-32.227,-43.945,-34.180,88.379
1678024392.081,-20.508,-34.180,-44.922,-47.363,96.680
1678024392.084,-43.945,-35.645,-45.410,-24.902,-127.441
1678024392.088,-38.574,-34.668,-42.480,3.418,-165.527
1678024392.092,-13.184,-38.574,-41.016,1.465,31.250
1678024392.096,0.977,-41.016,-45.410,-37.598,41.504
1678024392.100,-10.742,-31.250,-41.992,-53.711,-124.512
1678024392.116,-36.133,-29.297,-36.133,-26.855,-105.469
1678024392.120,-39.551,-28.809,-38.574,11.230,-80.566
1678024392.124,-20.996,-19.531,-39.551,12.695,-47.852
1678024392.128,-12.695,-23.926,-43.945,-36.133,-100.586
1678024392.132,-18.066,-31.738,-44.434,-58.105,-42.480
1678024392.136,-38.574,-32.715,-43.457,-32.715,81.543
1678024392.140,-45.898,-31.738,-43.457,4.395,16.113
1678024392.143,-33.203,-28.809,-45.898,7.812,-36.621
1678024392.147,-19.043,-32.227,-47.852,-31.738,-1.465
1678024392.151,-15.625,-29.297,-49.805,-49.316,256.348
1678024392.155,-34.668,-29.785,-49.805,-36.621,164.551
1678024392.159,-46.387,-36.133,-43.457,-1.953,-126.953
1678024392.161,-40.039,-30.273,-39.062,13.672,-44.922
1678024392.165,-25.879,-32.227,-40.039,-25.391,-31.250
1678024392.169,-28.320,-39.551,-40.527,-58.594,-118.652
1678024392.173,-49.805,-40.527,-36.621,-44.434,-143.555
1678024392.177,-57.617,-38.574,-36.621,-7.324,-90.820
1678024392.181,-40.039,-38.086,-37.109,-1.465,25.879
1678024392.185,-23.438,-38.574,-33.691,-35.156,4.395
1678024392.188,-25.879,-38.086,-32.227,-65.918,-65.430
1678024392.192,-45.410,-35.645,-33.203,-58.594,110.840
1678024392.196,-61.035,-38.574,-37.598,-20.508,209.961
1678024392.200,-62.988,-44.922,-38.086,-6.348,-10.742
1678024392.204,-44.922,-45.410,-39.551,-39.062,-139.648
1678024392.206,-36.133,-39.062,-41.016,-74.707,-167.969
1678024392.210,-50.781,-36.621,-41.016,-64.453,-170.410
1678024392.214,-71.777,-36.621,-40.527,-28.809,-129.395
1678024392.218,-61.035,-33.203,-35.156,-4.883,-60.547
1678024392.222,-23.438,-30.273,-39.062,-12.695,-10.742
1678024392.226,-20.020,-32.715,-42.480,-48.340,-34.668
1678024392.230,-42.969,-34.180,-39.062,-58.105,-18.555
1678024392.233,-62.500,-32.715,-38.574,-23.926,20.020
1678024392.237,-57.129,-33.691,-38.574,14.160,397.461
1678024392.241,-40.039,-32.715,-41.992,-8.789,407.227
1678024392.245,-35.645,-35.156,-45.898,-63.477,-71.777
1678024392.249,-42.480,-39.062,-43.945,-73.242,-192.871
1678024392.251,-61.523,-36.621,-37.109,-42.480,-178.223
1678024392.255,-61.523,-36.621,-33.203,-3.418,-184.570
1678024392.259,-30.273,-38.086,-30.273,-3.418,-149.414
1678024392.263,-16.602,-36.133,-33.203,-40.039,-110.840
1678024392.267,-41.016,-37.598,-37.598,-64.941,-187.500
1678024392.271,-68.359,-35.645,-33.691,-51.270,-169.922
1678024392.275,-67.383,-31.250,-29.785,-14.160,-56.641
1678024392.278,-50.293,-32.227,-31.738,-9.277,180.176
1678024392.282,-37.109,-32.715,-34.668,-56.152,157.715
1678024392.286,-43.945,-36.621,-37.109,-86.914,-128.906
1678024392.290,-60.547,-34.180,-33.691,-58.594,-132.324
1678024392.294,-62.012,-31.250,-38.574,-14.160,-42.480
1678024392.296,-43.457,-28.320,-39.551,-10.254,-22.949
1678024392.300,-17.090,-22.949,-30.762,-41.992,-147.949
1678024392.304,-20.996,-24.902,-33.203,-71.289,-175.781
1678024392.308,-47.363,-27.344,-34.180,-67.383,-100.098
1678024392.312,-56.152,-28.320,-31.250,-36.621,-74.707
1678024392.316,-40.039,-27.832,-27.344,-28.809,-57.129
1678024392.320,-26.855,-26.855,-31.738,-66.406,-2.930
1678024392.323,-29.297,-27.344,-38.086,-90.332,232.910
1678024392.327,-46.875,-27.832,-40.039,-84.961,97.656
1678024392.331,-61.035,-31.250,-41.016,-63.477,-209.473
1678024392.335,-46.387,-28.320,-39.551,-42.480,-139.160
1678024392.339,-26.367,-19.043,-36.133,-71.777,-96.680
1678024392.342,-29.297,-19.531,-36.621,-116.699,-170.898
1678024392.346,-48.340,-22.949,-42.969,-113.770,-197.266
1678024392.350,-65.918,-22.949,-41.504,-83.008,-75.195
1678024392.354,-53.223,-19.043,-34.668,-66.895,10.742
1678024392.358,-29.297,-16.602,-31.738,-89.355,-81.055
1678024392.362,-30.762,-17.578,-34.180,-124.023,-86.426
1678024392.366,-52.246,-23.438,-37.109,-116.211,189.453
1678024392.369,-71.289,-26.855,-38.574,-82.520,196.289
1678024392.373,-58.105,-23.438,-36.133,-61.523,-123.047
1678024392.377,-28.809,-27.344,-32.227,-70.312,-161.133
1678024392.381,-25.879,-30.762,-30.273,-92.285,-187.988
1678024392.385,-45.410,-28.809,-31.250,-94.238,-218.750
1678024392.386,-56.641,-28.320,-37.598,-66.895,-155.762
1678024392.390,-54.199,-29.785,-44.434,-43.945,-70.312
1678024392.394,-37.598,-33.203,-45.898,-60.547,14.160
1678024392.398,-24.414,-34.668,-42.480,-94.238,-25.879
1678024392.402,-40.527,-36.133,-39.062,-109.863,-198.242
1678024392.406,-60.059,-36.133,-39.551,-72.266,-56.641
1678024392.410,-52.734,-33.203,-36.621,-30.762,294.922
1678024392.413,-25.391,-26.855,-33.691,-43.457,209.961
1678024392.417,-16.602,-25.391,-33.203,-78.613,-155.273
1678024392.421,-28.320,-24.414,-26.855,-84.473,-69.336
1678024392.425,-53.223,-24.414,-27.832,-54.199,74.707
1678024392.429,-62.500,-31.738,-32.227,-28.809,-81.055
1678024392.446,-41.504,-34.180,-30.762,-28.809,-194.336
1678024392.450,-22.949,-31.738,-31.738,-67.871,-128.418
1678024392.454,-31.738,-31.250,-36.621,-83.984,-49.805
1678024392.458,-45.410,-26.367,-35.156,-53.223,-111.328
1678024392.462,-37.598,-22.949,-29.785,-24.902,-71.777
1678024392.466,-14.648,-23.438,-29.297,-35.156,23.926
1678024392.470,-0.488,-25.879,-32.227,-81.055,1.465
1678024392.473,-8.789,-27.832,-27.832,-98.145,-33.203
1678024392.477,-32.227,-23.926,-23.926,-75.684,-120.605
1678024392.481,-43.457,-21.973,-24.902,-42.480,65.918
1678024392.485,-23.438,-26.367,-24.414,-30.762,253.906
1678024392.489,-4.883,-26.855,-26.367,-71.777,-93.750
1678024392.491,-13.672,-29.297,-31.738,-104.004,-206.543
1678024392.495,-31.738,-31.250,-30.273,-81.543,-96.191
1678024392.499,-38.574,-27.344,-31.250,-47.363,-101.562
1678024392.503,-24.414,-25.391,-31.738,-36.621,-137.695
1678024392.507,-5.859,-22.461,-29.297,-63.477,-104.004
1678024392.511,-5.859,-17.578,-32.715,-91.797,-41.016
1678024392.515,-31.738,-14.648,-33.691,-82.520,-101.562
1678024392.518,-47.852,-13.672,-25.391,-46.387,-70.312
1678024392.522,-36.621,-17.090,-22.949,-41.992,130.859
1678024392.526,-25.391,-14.648,-25.391,-77.148,384.766
1678024392.530,-35.156,-13.184,-21.484,-108.398,255.859
1678024392.534,-62.988,-26.367,-21.484,-111.816,-111.816
1678024392.536,-82.031,-23.926,-20.996,-81.055,-123.047
1678024392.540,-90.820,-15.625,-19.043,-69.336,-91.797
1678024392.544,-86.914,-14.648,-4.395,-104.004,-136.719
1678024392.548,-104.492,-3.418,4.395,-159.180,-137.695
1678024392.552,-160.645,-1.953,2.930,-190.918,-74.707
1678024392.556,-202.148,-5.859,10.742,-180.664,-11.719
1678024392.560,-215.332,-10.254,11.230,-179.199,-7.812
1678024392.563,-208.008,-2.930,3.418,-223.145,-87.891
1678024392.567,-230.957,21.484,5.859,-300.293,32.227
1678024392.571,-289.551,29.785,14.160,-343.262,106.934
1678024392.575,-314.453,33.203,17.090,-317.383,-104.980
1678024392.579,-310.059,32.227,11.719,-297.363,-135.254
1678024392.581,-280.273,34.668,3.418,-309.570,-39.551
1678024392.585,-259.766,44.922,0.000,-344.727,-94.727
1678024392.589,-279.297,43.945,-8.301,-360.352,-197.266
1678024392.593,-287.109,32.227,-21.973,-315.430,-79.102
1678024392.597,-263.672,33.203,-27.832,-268.066,36.133
1678024392.601,-227.051,36.621,-33.691,-270.996,14.648
1678024392.605,-206.055,32.227,-39.062,-302.734,-66.406
1678024392.608,-199.707,33.691,-42.480,-292.480,-14.160
1678024392.612,-198.730,31.738,-49.805,-241.211,268.066
1678024392.616,-194.824,25.391,-49.805,-201.172,211.426
1678024392.620,-168.945,25.879,-49.805,-193.359,-47.363
1678024392.624,-156.738,19.531,-57.617,-226.562,-7.812
1678024392.626,-159.668,4.395,-64.453,-235.352,-28.320
1678024392.630,-162.598,-2.930,-68.848,-200.195,-133.789
1678024392.634,-154.297,1.953,-68.359,-165.527,-149.902
1678024392.638,-124.023,-0.977,-68.848,-150.879,-44.922
1678024392.642,-86.914,-11.719,-62.500,-160.645,-86.914
1678024392.646,-72.754,-14.160,-57.129,-154.297,-122.070
1678024392.650,-97.168,-10.742,-64.453,-123.535,-99.609
1678024392.653,-100.586,-13.184,-62.012,-83.496,81.055
1678024392.657,-60.059,-18.066,-64.941,-60.547,195.312
1678024392.661,-26.855,-20.508,-71.289,-84.961,-117.676
1678024392.665,-22.461,-20.020,-67.871,-91.309,-207.031
1678024392.669,-33.203,-21.973,-66.406,-49.316,-122.070
1678024392.672,-38.086,-25.879,-67.871,0.000,-79.590
1678024392.676,-13.672,-29.297,-66.895,25.391,-128.906
1678024392.680,18.066,-27.344,-64.453,14.160,2.930
1678024392.684,16.113,-31.250,-68.359,-4.883,111.328
1678024392.688,-10.254,-35.645,-75.684,-0.977,-57.129
1678024392.692,-13.184,-36.621,-78.613,35.645,-22.949
1678024392.696,3.906,-41.504,-76.172,52.734,-9.277
1678024392.699,34.180,-38.086,-72.266,42.969,291.992
1678024392.703,45.410,-37.109,-75.195,15.625,252.930
1678024392.707,20.020,-42.969,-80.078,13.672,-230.469
1678024392.711,9.766,-47.363,-81.543,54.199,-144.531
1678024392.715,22.461,-47.363,-78.613,71.289,3.418
1678024392.716,43.457,-47.363,-74.219,49.316,-111.328
1678024392.720,52.734,-46.875,-70.312,22.949,-170.410
1678024392.724,41.016,-51.270,-71.289,25.391,-69.336
1678024392.728,31.738,-53.223,-72.754,65.918,-72.266
1678024392.732,38.086,-50.781,-65.430,97.656,-33.203
1678024392.736,68.848,-53.223,-61.035,78.613,-11.230
1678024392.740,90.332,-45.898,-57.617,50.781,186.035
1678024392.743,64.453,-40.527,-55.176,49.316,345.703
1678024392.747,35.645,-41.016,-56.152,69.824,-27.832
1678024392.751,48.340,-38.574,-57.129,102.539,-180.664
1678024392.755,78.125,-37.598,-57.129,100.586,-98.145
1678024392.759,84.473,-38.574,-55.176,58.594,-125.977
1678024392.761,73.730,-31.250,-47.852,45.898,-195.801
1678024392.765,51.270,-28.809,-42.969,82.031,-145.508
1678024392.769,52.246,-31.738,-41.016,111.328,-95.703
1678024392.773,74.219,-26.855,-40.039,96.680,-100.586
1678024392.777,83.496,-25.879,-40.039,49.805,-126.465
1678024392.781,65.918,-30.762,-38.574,35.156,-11.230
1678024392.785,31.738,-32.227,-33.203,47.363,196.777
1678024392.788,21.484,-33.203,-31.738,62.500,2.441
1678024392.792,42.480,-36.133,-38.574,54.199,-137.695
1678024392.796,51.270,-36.621,-39.551,8.789,-23.438
1678024392.800,29.297,-37.109,-40.527,-18.066,104.980
1678024392.804,2.441,-45.410,-44.922,-13.672,-91.797
1678024392.821,0.488,-48.340,-37.598,17.090,-280.762
1678024392.825,22.949,-45.898,-31.738,19.531,-117.676
1678024392.829,35.156,-47.852,-36.133,-23.926,-54.199
1678024392.833,27.832,-50.293,-34.180,-44.434,-128.418
1678024392.837,7.812,-51.270,-28.320,-24.414,-116.699
1678024392.841,0.488,-45.898,-26.855,9.277,-19.531
1678024392.845,10.742,-42.480,-23.926,12.207,84.473
1678024392.848,20.020,-45.410,-24.902,-40.039,-39.062
1678024392.852,17.090,-40.039,-26.367,-72.754,-177.734
1678024392.856,-1.953,-36.133,-23.438,-55.664,150.879
1678024392.860,-18.555,-38.086,-24.414,-26.367,277.344
1678024392.864,-7.812,-39.551,-25.879,-10.742,-78.613
1678024392.866,9.277,-42.969,-29.297,-42.969,-107.910
1678024392.870,1.953,-51.270,-36.133,-97.168,-90.332
1678024392.874,-13.184,-47.363,-33.691,-86.426,-91.309
1678024392.878,-20.508,-42.969,-33.203,-37.109,-3.906
1678024392.882,-6.348,-42.480,-37.109,-20.508,37.109
1678024392.886,14.648,-41.016,-32.227,-44.434,27.832
1678024392.890,14.648,-38.086,-24.414,-65.918,6.348
1678024392.893,-6.836,-36.133,-26.367,-56.641,-62.012
1678024392.897,-20.508,-42.969,-33.691,-27.344,-55.176
1678024392.901,-22.461,-41.504,-32.715,-1.465,222.168
1678024392.905,-11.230,-36.621,-33.691,-20.996,152.344
1678024392.909,-3.418,-36.621,-36.133,-62.988,-144.531
1678024392.911,-24.414,-38.574,-37.598,-64.941,-33.203
1678024392.915,-26.367,-41.016,-36.133,-35.156,-99.609
1678024392.919,-22.461,-38.574,-32.715,-4.883,-190.918
1678024392.923,-20.996,-37.109,-32.227,-16.113,-176.758
1678024392.927,-4.395,-41.016,-32.227,-46.875,-191.895
1678024392.931,-1.465,-30.273,-24.902,-54.688,-134.277
1678024392.935,-31.738,-23.438,-23.438,-42.480,-84.961
1678024392.938,-40.527,-28.809,-31.250,-30.273,-187.012
1678024392.942,-10.254,-24.902,-31.738,-25.879,-3.906
1678024392.946,0.000,-20.508,-35.645,-65.918,86.426
1678024392.950,-21.484,-21.484,-35.156,-101.562,-199.219
1678024392.954,-46.387,-20.508,-37.109,-69.824,-167.969
1678024392.957,-45.898,-20.996,-42.480,-31.250,4.395
1678024392.961,-29.297,-18.555,-46.387,-42.480,-15.625
1678024392.965,-16.113,-17.090,-51.758,-87.891,-79.102
1678024392.969,-21.973,-17.578,-51.758,-102.051,-62.012
1678024392.973,-41.016,-15.625,-54.199,-56.152,36.621
1678024392.977,-39.551,-11.719,-57.129,-20.996,34.180
1678024392.981,-23.438,-9.766,-56.641,-37.598,-6.348
1678024392.984,-10.254,-11.719,-55.176,-82.031,10.742
1678024392.988,-17.090,-16.113,-54.688,-103.516,289.062
1678024392.992,-40.527,-21.484,-61.523,-83.496,202.637
1678024392.996,-35.156,-20.508,-61.523,-37.109,-137.207
1678024393.000,-11.230,-17.578,-58.105,-19.531,-87.402
1678024393.001,2.441,-18.066,-54.688,-62.988,-93.750
1678024393.005,2.441,-22.461,-47.852,-93.262,-212.402
1678024393.009,-14.648,-29.297,-45.410,-70.801,-196.289
1678024393.013,-23.438,-24.902,-42.480,-16.113,-76.172
1678024393.017,-1.953,-18.555,-41.504,-4.395,-41.016
1678024393.021,15.137,-23.926,-41.504,-50.781,-19.531
1678024393.025,13.184,-26.855,-36.621,-74.707,-10.254
1678024393.028,-8.789,-23.926,-39.062,-43.945,96.191
1678024393.032,-23.438,-21.484,-41.504,11.719,211.914
1678024393.036,6.348,-20.020,-36.133,28.320,-26.855
1678024393.040,33.691,-20.996,-32.715,-8.301,-187.988
1678024393.044,26.855,-27.832,-36.133,-56.641,-143.555
1678024393.046,4.395,-32.227,-38.086,-56.152,-164.062
1678024393.050,-8.789,-31.250,-35.645,-11.719,-184.082
1678024393.054,-1.465,-32.715,-35.645,5.859,-78.613
1678024393.058,19.043,-38.574,-34.180,-25.879,6.836
1678024393.062,30.273,-37.598,-32.227,-64.941,-76.660
1678024393.066,2.930,-36.133,-37.598,-53.223,-108.887
1678024393.070,-14.160,-37.109,-37.598,-8.301,42.969
1678024393.073,-6.348,-36.621,-33.691,19.043,435.547
1678024393.077,6.348,-34.180,-34.180,-5.371,351.562
1678024393.081,17.090,-29.785,-28.320,-49.805,-132.812
1678024393.085,-7.324,-34.180,-26.367,-50.781,-120.117
1678024393.089,-36.621,-37.598,-32.715,-10.742,-16.602
1678024393.091,-31.250,-36.621,-34.668,13.672,-166.016
1678024393.095,-3.418,-30.762,-26.367,-13.672,-202.148
1678024393.099,3.906,-31.738,-24.902,-54.688,-116.699
1678024393.103,-16.602,-36.133,-27.832,-55.176,-140.137
1678024393.107,-41.016,-37.598,-29.297,-24.902,-175.781
1678024393.111,-41.992,-39.551,-33.691,3.418,-75.195
1678024393.115,-14.160,-38.086,-33.691,-2.441,240.723
1678024393.118,-9.277,-39.062,-31.250,-51.270,247.559
1678024393.122,-30.762,-33.203,-30.762,-73.242,-123.047
1678024393.126,-52.734,-27.344,-34.668,-33.691,-118.164
1678024393.130,-61.523,-31.738,-37.598,1.465,-34.180
1678024393.134,-37.109,-36.133,-36.133,-11.230,-122.559
1678024393.136,-16.113,-36.621,-33.691,-64.941,-194.336
1678024393.140,-34.668,-35.645,-33.691,-85.449,-208.008
1678024393.144,-58.594,-35.645,-31.250,-44.434,-100.098
1678024393.148,-59.570,-36.133,-32.715,-5.859,-76.660
1678024393.152,-43.457,-40.527,-40.527,-18.066,-129.395
1678024393.156,-24.414,-40.039,-43.457,-41.016,-14.648
1678024393.160,-31.250,-36.133,-26.855,-33.203,106.934
1678024393.163,-85.449,-39.062,-11.230,-34.668,7.812
1678024393.167,-108.398,-39.062,-15.625,-13.672,-135.254
1678024393.171,-75.195,-39.551,-12.207,1.465,-11.719
1678024393.175,-62.012,-46.387,-2.441,-54.199,182.129
1678024393.179,-72.266,-49.805,-2.930,-97.168,-1.953
1678024393.182,-95.703,-55.176,2.930,-75.195,-165.527
1678024393.186,-96.680,-55.176,7.812,-15.137,1.465
1678024393.190,-77.637,-52.246,8.301,-0.977,93.262
1678024393.194,-62.012,-53.711,11.719,-49.805,-83.496
1678024393.198,-73.730,-54.688,13.184,-82.031,-137.207
1678024393.202,-106.934,-62.988,12.695,-60.547,-59.570
1678024393.206,-118.652,-62.988,10.254,-29.785,-57.617
1678024393.209,-107.422,-58.105,6.836,-29.297,-122.070
1678024393.213,-73.730,-63.477,7.812,-63.965,-197.266
1678024393.217,-63.477,-64.453,7.812,-88.379,-16.602
1678024393.221,-87.891,-59.082,1.465,-63.965,51.270
1678024393.225,-105.957,-59.082,-4.883,-28.809,-159.180
1678024393.241,-83.984,-58.105,-1.465,-2.441,-179.688
1678024393.245,-52.246,-51.270,-0.977,-20.996,-106.934
1678024393.249,-47.363,-46.875,-3.418,-63.477,-137.207
1678024393.253,-65.430,-43.945,-5.859,-57.129,-167.480
1678024393.257,-82.520,-41.016,-10.742,-11.230,26.367
1678024393.261,-72.754,-42.480,-12.695,12.207,166.016
1678024393.265,-46.387,-41.992,-12.695,-14.648,63.477
1678024393.268,-35.645,-41.016,-12.207,-61.035,-29.297
1678024393.272,-58.105,-43.945,-14.648,-67.871,-48.340
1678024393.276,-82.520,-45.410,-15.625,-18.555,187.988
1678024393.280,-75.684,-43.945,-16.113,7.812,198.242
1678024393.284,-53.223,-41.992,-19.043,-25.391,-157.227
1678024393.286,-39.551,-42.480,-18.555,-72.266,-179.688
1678024393.290,-49.316,-40.039,-16.113,-83.496,-79.590
1678024393.294,-73.242,-36.621,-18.066,-37.109,-105.469
1678024393.298,-71.289,-39.551,-18.066,9.766,-82.031
1678024393.302,-49.805,-41.504,-20.508,-11.230,73.730
1678024393.306,-35.156,-39.551,-21.484,-59.082,78.613
1678024393.310,-44.922,-34.180,-20.508,-63.477,25.391
1678024393.313,-68.359,-32.715,-16.602,-34.668,-113.281
1678024393.317,-68.359,-37.109,-18.555,-3.418,-1.465
1678024393.321,-44.434,-36.133,-24.902,-11.230,178.711
1678024393.325,-22.461,-38.574,-28.809,-67.383,-62.500
1678024393.329,-27.832,-39.551,-28.320,-76.172,-153.320
1678024393.331,-56.641,-32.715,-26.367,-24.902,-92.285
1678024393.335,-69.824,-30.762,-28.320,20.020,-51.270
1678024393.339,-52.246,-30.762,-29.785,23.926,-57.617
1678024393.343,-31.738,-35.156,-25.391,-11.230,-57.129
1678024393.347,-40.039,-33.203,-22.949,-35.156,-50.293
1678024393.351,-68.359,-27.832,-27.832,-10.254,-70.801
1678024393.355,-84.473,-34.180,-30.762,25.879,-52.246
1678024393.358,-68.848,-40.039,-30.273,21.973,-39.551
1678024393.362,-55.176,-39.551,-31.738,-18.555,309.570
1678024393.366,-69.824,-35.645,-30.273,-52.734,313.477
1678024393.370,-94.727,-32.715,-27.344,-38.574,-151.367
1678024393.374,-107.910,-37.598,-28.320,3.906,-162.109
1678024393.375,-91.309,-35.645,-24.414,22.949,-88.379
1678024393.379,-76.660,-28.320,-22.949,-22.949,-118.652
1678024393.383,-92.285,-20.508,-20.996,-76.660,-154.297
1678024393.387,-119.141,-19.043,-23.926,-63.477,-162.109
1678024393.391,-144.531,-26.367,-27.832,-27.344,-162.109
1678024393.395,-147.949,-22.461,-21.973,-30.273,-122.070
1678024393.399,-134.277,-6.836,-12.207,-78.613,-9.766
1678024393.402,-153.320,3.906,-12.695,-131.348,145.508
1678024393.406,-190.430,3.906,-16.602,-139.160,192.383
1678024393.410,-236.816,4.395,-2.930,-123.535,-0.488
1678024393.414,-275.879,16.113,9.277,-144.531,-60.547
1678024393.418,-280.762,21.973,16.113,-204.102,16.113
1678024393.421,-293.945,23.438,27.832,-267.090,-35.645
1678024393.425,-335.449,17.578,31.250,-289.551,-125.488
1678024393.429,-355.957,12.695,37.109,-246.582,-66.895
1678024393.433,-346.680,5.859,41.992,-216.797,-12.207
1678024393.437,-312.988,0.000,39.551,-234.375,-52.734
1678024393.441,-289.551,-0.488,49.316,-264.160,-81.055
1678024393.445,-303.711,-3.418,54.199,-270.020,94.727
1678024393.448,-306.641,-6.348,47.852,-223.145,419.434
1678024393.452,-287.109,-13.672,46.875,-182.129,316.895
1678024393.456,-262.207,-21.973,44.922,-189.453,-128.906
1678024393.460,-242.188,-32.715,40.527,-211.914,-84.473
1678024393.464,-236.816,-35.645,46.387,-201.660,48.340
1678024393.466,-239.258,-38.086,48.340,-155.762,-113.770
1678024393.470,-232.910,-51.270,39.551,-119.629,-127.930
1678024393.474,-199.219,-57.617,35.156,-111.328,38.086
1678024393.478,-149.414,-57.129,30.762,-126.465,31.738
1678024393.482,-146.973,-63.477,28.809,-132.812,-109.375
1678024393.486,-188.477,-67.871,25.879,-102.051,-8.301
1678024393.490,-181.641,-68.848,13.672,-48.340,294.434
1678024393.493,-136.719,-74.707,7.324,-27.832,240.234
1678024393.497,-120.117,-82.520,7.812,-75.684,-157.227
1678024393.501,-116.211,-84.961,9.277,-89.844,-148.926
1678024393.505,-115.234,-81.543,-0.977,-45.410,-87.402
1678024393.509,-105.957,-72.266,-7.812,-3.906,-120.605
1678024393.512,-80.566,-69.824,-8.789,-5.371,-88.867
1678024393.516,-56.641,-76.660,-11.719,-38.086,-13.184
1678024393.520,-53.223,-74.219,-14.160,-45.410,11.230
1678024393.524,-77.637,-68.359,-15.625,-8.789,-75.684
1678024393.528,-88.867,-73.242,-14.648,23.926,-124.023
1678024393.532,-60.059,-77.148,-21.484,32.227,-14.160
1678024393.536,-30.273,-69.824,-22.461,5.371,185.059
1678024393.539,-26.367,-67.871,-22.949,-30.762,77.148
1678024393.543,-41.504,-64.453,-25.879,-9.277,-145.508
1678024393.547,-45.898,-56.641,-26.367,46.875,-47.363
1678024393.551,-22.949,-55.176,-27.344,76.172,145.996
1678024393.555,-6.836,-60.547,-33.691,28.809,-20.996
1678024393.571,0.488,-60.059,-37.109,-20.508,-227.051
1678024393.575,-9.766,-58.594,-40.039,-18.066,-167.969
1678024393.579,-21.973,-63.477,-43.457,10.254,-117.676
1678024393.583,-7.324,-64.453,-40.527,27.832,-81.055
1678024393.587,19.043,-60.059,-42.480,5.859,-12.695
1678024393.591,37.109,-53.223,-42.480,-18.066,144.043
1678024393.595,23.438,-53.711,-44.922,-4.883,211.914
1678024393.598,2.441,-53.223,-47.363,31.250,-52.734
1678024393.602,9.766,-50.781,-47.363,43.457,-154.785
1678024393.606,35.156,-53.711,-45.410,12.695,-12.207
1678024393.610,49.805,-55.176,-46.387,-35.645,-37.109
1678024393.614,34.668,-52.734,-51.758,-36.133,-177.734
1678024393.616,12.207,-49.316,-49.805,12.695,-20.508
1678024393.620,18.066,-50.781,-46.875,23.438,-7.324
1678024393.624,40.527,-50.781,-47.852,-2.441,-90.332
1678024393.628,50.781,-51.270,-47.363,-45.898,-113.281
1678024393.632,40.039,-51.270,-43.945,-54.688,-119.141
1678024393.636,12.207,-50.293,-45.410,-16.602,-13.672
1678024393.640,8.301,-47.363,-41.504,3.906,-22.461
1678024393.643,34.668,-47.363,-42.480,-9.277,-57.617
1678024393.647,52.734,-46.875,-48.340,-49.805,44.434
1678024393.651,41.992,-44.922,-43.945,-54.199,272.461
1678024393.655,19.043,-45.410,-47.852,-29.785,220.703
1678024393.659,28.809,-41.504,-51.270,-11.719,-58.594
1678024393.661,49.316,-43.945,-47.852,-21.484,-80.566
1678024393.665,51.270,-48.828,-49.316,-58.105,-145.508
1678024393.669,43.945,-48.340,-47.852,-63.477,-180.176
1678024393.673,22.949,-50.781,-47.852,-38.574,-143.066
1678024393.677,15.625,-54.688,-51.758,-6.836,-71.289
1678024393.681,41.016,-50.781,-48.828,-7.812,68.848
1678024393.685,62.012,-47.852,-44.922,-50.293,46.387
1678024393.688,51.758,-51.270,-53.223,-67.383,-157.227
1678024393.692,33.691,-49.805,-43.457,-11.230,60.547
1678024393.696,29.297,-50.781,-34.180,43.945,195.312
1678024393.700,47.852,-50.781,-36.621,23.438,-150.391
1678024393.704,67.871,-43.945,-31.738,-22.949,-216.797
1678024393.706,59.570,-49.805,-35.156,-47.363,-187.012
1678024393.710,32.715,-53.223,-42.480,-31.250,-193.359
1678024393.714,20.508,-47.852,-38.086,5.859,-151.855
1678024393.718,35.156,-43.945,-35.645,14.160,-29.785
1678024393.722,55.664,-44.434,-37.109,-27.344,-3.418
1678024393.726,54.688,-44.434,-36.621,-62.012,-63.965
1678024393.730,27.832,-41.992,-37.109,-40.039,-62.988
1678024393.733,8.301,-45.410,-37.109,11.230,-47.363
1678024393.737,17.090,-48.828,-32.715,40.527,293.457
1678024393.741,31.738,-45.410,-35.645,4.883,248.535
1678024393.745,37.109,-41.504,-36.133,-31.738,-121.094
1678024393.749,9.766,-44.434,-30.273,-9.766,-11.230
1678024393.751,-19.043,-47.852,-32.715,26.855,19.043
1678024393.755,-5.371,-46.387,-33.691,45.898,-118.164
1678024393.759,20.996,-42.480,-32.715,22.461,-158.691
1678024393.763,25.391,-41.016,-37.109,-24.902,-137.207
1678024393.767,-1.465,-40.039,-34.668,-23.926,-159.180
1678024393.771,-18.555,-38.086,-32.227,11.230,-144.531
1678024393.775,-5.371,-37.598,-32.227,28.320,-17.578
1678024393.778,10.254,-32.715,-26.367,12.207,169.434
1678024393.782,11.719,-25.879,-27.344,-28.809,162.598
1678024393.786,-5.859,-25.879,-29.297,-36.133,-141.602
1678024393.790,-30.762,-30.273,-30.762,0.488,-217.285
1678024393.794,-24.414,-30.273,-29.785,26.855,-128.418
1678024393.797,-5.859,-30.273,-27.832,2.441,-56.152
1678024393.801,-5.859,-33.691,-29.297,-46.875,-108.398
1678024393.805,-12.207,-33.203,-28.809,-49.316,-147.461
1678024393.809,-28.809,-34.668,-28.809,-12.207,-39.062
1678024393.813,-31.738,-37.109,-33.203,16.602,-27.832
1678024393.817,-7.324,-32.715,-36.133,7.812,-31.250
1678024393.821,-0.977,-34.668,-36.621,-30.762,28.320
1678024393.824,-20.020,-41.016,-38.574,-30.762,316.406
1678024393.828,-35.156,-37.109,-40.039,-10.742,253.418
1678024393.832,-33.203,-34.180,-33.691,3.418,-149.414
1678024393.836,-14.160,-34.668,-32.227,-8.301,-77.637
1678024393.840,1.465,-39.551,-33.691,-39.062,-80.566
1678024393.841,7.324,-32.227,-29.297,-32.715,-228.027
1678024393.845,-31.250,-18.555,-30.762,-30.273,-256.348
1678024393.849,-66.895,-17.578,-28.809,-11.719,-191.406
1678024393.853,-50.293,-20.020,-32.227,-2.930,-71.289
1678024393.857,-37.598,-16.602,-41.504,-54.199,-100.098
1678024393.861,-39.062,-14.160,-38.086,-78.613,-113.770
1678024393.865,-53.223,-12.695,-43.457,-51.270,163.574
1678024393.868,-75.195,-13.184,-50.781,-28.320,247.559
1678024393.872,-62.988,-12.207,-53.711,-40.039,-86.426
1678024393.876,-34.668,-13.672,-54.688,-72.754,-191.406
1678024393.880,-37.598,-19.043,-52.246,-102.051,-115.723
1678024393.884,-64.941,-20.508,-52.246,-84.961,-106.934
1678024393.886,-72.754,-21.973,-49.316,-34.180,-158.203
1678024393.890,-55.176,-23.926,-46.875,-16.113,-131.836
1678024393.894,-25.879,-23.926,-45.410,-47.852,-83.496
1678024393.898,-16.602,-22.461,-45.410,-80.078,-138.184
1678024393.902,-33.691,-20.020,-46.875,-61.523,-213.379
1678024393.906,-48.340,-20.020,-47.852,-13.672,-41.504
1678024393.910,-36.621,-23.926,-45.898,5.371,218.262
1678024393.913,-11.719,-25.879,-38.086,-25.391,84.961
1678024393.917,-7.812,-26.855,-38.086,-61.523,-83.008
1678024393.921,-27.344,-25.391,-40.039,-49.805,-26.367
1678024393.925,-42.480,-27.832,-35.645,-10.742,245.117
1678024393.929,-30.762,-31.738,-38.086,-0.977,109.375
1678024393.946,-5.371,-27.832,-41.992,-25.391,-154.785
1678024393.950,3.418,-25.391,-39.062,-60.059,-46.875
1678024393.954,-16.113,-27.344,-36.133,-59.082,-79.102
1678024393.958,-31.250,-26.855,-32.227,-10.254,-192.871
1678024393.962,-20.996,-29.297,-28.320,20.996,-141.602
1678024393.966,-3.418,-30.273,-26.367,-1.953,38.574
1678024393.970,3.906,-28.809,-28.809,-40.039,54.199
1678024393.973,-14.648,-37.598,-36.621,-50.293,-82.031
1678024393.977,-35.156,-40.527,-32.715,-7.812,-73.242
1678024393.981,-22.949,-34.180,-26.855,29.785,-43.457
1678024393.985,-3.418,-33.203,-26.367,17.090,-61.035
1678024393.989,4.395,-27.344,-27.832,-20.020,-98.633
1678024393.991,-1.953,-21.973,-26.855,-32.715,-136.230
1678024393.995,-31.738,-24.414,-23.438,7.812,108.398
1678024393.999,-29.297,-25.879,-22.461,37.109,197.754
1678024394.003,-3.418,-23.438,-23.438,15.137,-80.078
1678024394.007,0.000,-26.367,-27.832,-25.879,-111.328
1678024394.011,-15.625,-27.832,-33.691,-34.180,10.254
1678024394.015,-47.852,-24.414,-33.691,-2.441,22.949
1678024394.018,-49.316,-28.809,-36.621,26.855,-27.832
1678024394.022,-19.531,-25.391,-41.016,24.414,22.461
1678024394.026,-19.531,-23.438,-37.109,-5.859,272.461
1678024394.030,-33.691,-27.344,-39.551,-35.645,244.629
1678024394.034,-43.945,-30.273,-39.551,-13.184,-163.574
1678024394.036,-51.758,-35.156,-37.109,35.156,-60.059
1678024394.040,-46.387,-32.227,-35.645,37.109,46.387
1678024394.044,-23.926,-29.297,-38.574,-6.836,-129.883
1678024394.048,-21.484,-27.344,-39.551,-32.227,-176.270
1678024394.052,-47.852,-29.297,-39.551,-13.184,-88.379
1678024394.056,-57.129,-33.203,-41.992,23.926,1.465
1678024394.060,-35.156,-39.062,-45.410,33.203,0.488
1678024394.063,-2.441,-35.156,-43.457,0.000,-112.793
1678024394.067,-8.789,-28.320,-37.109,-35.156,13.672
1678024394.071,-35.156,-33.691,-41.992,-19.531,124.512
1678024394.075,-36.133,-34.668,-44.922,26.367,-104.492
1678024394.079,-19.043,-36.621,-40.039,43.457,-113.281
1678024394.081,-3.418,-43.945,-39.551,9.766,-69.336
1678024394.085,-0.977,-42.480,-28.320,-23.438,-131.836
1678024394.089,-13.672,-39.551,-23.926,-15.625,-178.223
1678024394.093,-21.973,-40.527,-30.273,27.344,-73.730
1678024394.097,-12.207,-43.945,-24.902,51.270,56.152
1678024394.101,21.484,-43.945,-23.438,21.484,49.805
1678024394.105,32.227,-36.133,-21.484,-22.949,-21.973
1678024394.108,-1.953,-35.645,-23.438,-24.902,-57.129
1678024394.112,-11.719,-32.715,-26.855,29.297,215.332
1678024394.116,2.441,-28.809,-26.855,46.875,149.414
1678024394.120,14.648,-22.949,-22.949,-4.395,-157.715
1678024394.124,13.672,-19.043,-19.531,-48.828,-130.859
1678024394.127,-10.742,-23.926,-20.020,-53.711,-125.488
1678024394.131,-33.203,-26.855,-17.578,-21.484,-162.598
1678024394.135,-19.531,-21.973,-17.578,6.348,-83.496
1678024394.139,7.812,-21.973,-20.508,-23.926,123.047
1678024394.143,11.230,-26.367,-22.949,-77.637,-15.625
1678024394.147,-7.324,-27.344,-23.926,-87.891,-180.664
1678024394.151,-24.902,-25.879,-24.414,-54.688,-74.707
1678024394.154,-22.949,-23.926,-24.414,-13.184,122.559
1678024394.158,0.000,-23.926,-29.297,-20.996,148.438
1678024394.162,7.324,-30.273,-31.738,-83.008,-137.695
1678024394.166,-4.883,-30.273,-27.344,-100.098,-170.410
1678024394.170,-24.902,-28.809,-26.855,-61.523,-66.406
1678024394.171,-28.809,-26.367,-25.879,-25.391,-31.738
1678024394.175,-6.348,-23.438,-22.461,-38.574,-126.953
1678024394.179,-4.395,-23.926,-27.344,-88.379,-137.207
1678024394.183,-23.926,-25.879,-32.227,-103.516,-81.543
1678024394.187,-46.387,-26.367,-31.738,-73.730,-122.559
1678024394.191,-46.387,-25.879,-32.227,-32.227,-120.605
1678024394.195,-21.973,-24.902,-32.227,-37.109,8.789
1678024394.198,-8.301,-20.996,-30.762,-68.848,328.613
1678024394.202,-15.137,-23.438,-25.391,-83.984,221.191
1678024394.206,-38.574,-27.832,-26.367,-73.242,-170.898
1678024394.210,-45.410,-23.926,-29.297,-34.668,-67.383
1678024394.214,-26.367,-19.043,-28.320,-25.391,123.535
1678024394.216,-10.254,-16.602,-24.902,-79.102,-131.348
1678024394.220,-28.809,-24.902,-30.762,-114.258,-285.645
1678024394.224,-55.176,-30.273,-37.109,-85.938,-155.762
1678024394.228,-56.641,-30.273,-35.156,-35.645,-43.945
1678024394.232,-41.504,-30.762,-38.086,-25.391,-56.152
1678024394.236,-22.949,-32.227,-36.621,-61.523,-144.531
1678024394.240,-22.949,-33.691,-35.156,-80.566,105.469
1678024394.243,-44.922,-31.250,-37.109,-61.035,234.863
1678024394.247,-60.059,-30.762,-38.086,-29.785,-134.277
1678024394.251,-43.945,-28.809,-38.086,-12.207,-181.641
1678024394.255,-14.648,-26.855,-41.504,-38.574,-44.434
1678024394.259,-13.672,-31.250,-40.039,-73.730,-78.613
1678024394.261,-41.504,-35.156,-36.621,-53.711,-210.449
1678024394.265,-65.918,-38.086,-40.039,-13.672,-151.855
1678024394.269,-50.293,-32.715,-35.645,3.418,-82.520
1678024394.273,-21.484,-34.180,-34.180,-24.902,-100.586
1678024394.277,-7.324,-37.598,-35.156,-57.617,-142.090
1678024394.281,-23.926,-33.203,-32.715,-56.152,-83.984
1678024394.285,-41.992,-24.902,-32.715,-8.789,158.691
1678024394.288,-23.438,-17.090,-29.297,25.391,76.172
1678024394.292,4.883,-18.555,-25.391,-11.719,-135.254
1678024394.296,6.836,-24.902,-26.855,-59.570,-3.418
1678024394.300,-18.066,-29.297,-32.227,-57.617,254.883
1678024394.304,-31.250,-29.785,-30.273,-27.832,22.461
1678024394.321,-25.879,-27.344,-29.297,-4.883,-175.293
1678024394.325,-19.043,-31.738,-33.691,-20.996,-97.168
1678024394.329,-16.113,-35.156,-33.691,-65.430,-106.934
1678024394.333,-29.297,-31.250,-27.344,-71.289,-217.773
1678024394.337,-51.758,-31.250,-27.344,-41.016,-198.242
1678024394.341,-54.199,-36.621,-34.668,-14.648,4.883
1678024394.345,-40.039,-39.062,-35.156,-29.785,32.715
1678024394.348,-34.180,-35.156,-32.227,-71.289,-110.352
1678024394.352,-40.527,-39.551,-34.668,-85.938,-202.148
1678024394.356,-57.617,-41.016,-41.016,-56.152,12.207
1678024394.360,-53.711,-35.645,-34.668,-24.414,110.840
1678024394.364,-27.344,-33.691,-28.320,-29.297,-14.648
1678024394.366,-20.508,-30.273,-27.832,-67.871,2.441
1678024394.370,-33.691,-27.832,-26.367,-86.914,21.484
1678024394.374,-56.152,-29.297,-26.367,-51.758,-18.066
1678024394.378,-50.781,-28.320,-27.832,-18.555,-72.754
1678024394.382,-25.879,-30.273,-23.926,-24.902,-20.020
1678024394.386,-12.695,-33.691,-22.949,-74.707,-23.438
1678024394.390,-21.484,-32.715,-27.832,-103.516,-45.410
1678024394.393,-44.922,-33.691,-28.809,-76.172,-65.430
1678024394.397,-37.109,-34.668,-19.531,-31.250,-79.102
1678024394.401,-17.578,-33.203,-18.555,-11.230,257.812
1678024394.405,-19.043,-34.668,-24.414,-49.805,219.238
1678024394.409,-23.438,-33.203,-27.344,-88.379,-130.371
1678024394.412,-43.945,-32.227,-31.250,-73.730,-71.289
1678024394.416,-53.711,-34.668,-29.785,-27.344,-83.984
1678024394.420,-27.832,-30.762,-29.785,-10.742,-39.062
1678024394.424,-1.953,-26.855,-30.273,-51.270,-49.805
1678024394.428,-6.348,-23.926,-28.809,-79.102,-10.254
1678024394.432,-33.203,-27.344,-30.762,-58.105,108.887
1678024394.436,-46.875,-30.762,-32.227,-22.461,-14.648
1678024394.439,-31.738,-28.320,-35.645,-11.230,-106.445
1678024394.443,-10.254,-23.926,-36.621,-28.809,80.078
1678024394.447,-7.324,-16.602,-26.367,-55.176,132.324
1678024394.451,-16.602,-8.301,-15.137,-50.781,-163.574
1678024394.455,-25.879,-1.953,-10.742,-3.418,-125.000
1678024394.456,-11.230,0.488,-2.930,22.461,-8.301
1678024394.460,15.625,-2.441,-3.906,-12.207,-30.273
1678024394.464,34.668,4.883,0.488,-49.805,-90.820
1678024394.468,39.062,24.902,19.531,-31.738,-57.129
1678024394.472,28.320,32.715,29.297,14.160,-18.555
1678024394.476,33.203,34.180,31.738,57.617,1.465
1678024394.480,53.223,35.645,31.738,54.688,-48.340
1678024394.483,58.105,33.203,31.738,17.578,-8.301
1678024394.487,37.109,30.762,28.320,19.043,307.617
1678024394.491,19.043,25.391,26.367,51.758,309.570
1678024394.495,22.949,23.438,22.949,68.848,-62.500
1678024394.499,42.969,26.367,20.996,58.105,-73.242
1678024394.501,53.711,21.973,22.949,20.020,-14.160
1678024394.505,36.133,20.996,22.461,3.418,-145.508
1678024394.509,11.230,17.090,19.043,39.062,-171.387
1678024394.513,13.672,11.719,12.695,71.289,-62.500
1678024394.517,37.598,13.184,7.324,67.871,-34.180
1678024394.521,40.039,11.230,5.371,16.113,-60.547
1678024394.525,20.996,11.719,2.930,-9.277,-133.789
1678024394.528,-7.812,7.324,5.371,33.203,88.379
1678024394.532,-11.230,4.883,2.441,80.078,324.219
1678024394.536,16.113,10.254,0.000,68.359,-34.180
1678024394.540,19.043,3.418,1.953,-1.953,-203.125
1678024394.544,-1.953,0.488,-1.953,-46.387,-130.371
1678024394.546,-15.137,3.906,-3.906,-16.113,-159.180
1678024394.550,-18.066,9.277,-0.977,18.555,-128.418
1678024394.554,-2.441,13.672,-7.324,7.324,-37.598
1678024394.558,12.695,6.348,-13.672,-42.969,-19.043
1678024394.562,-0.488,5.371,-15.625,-74.707,-150.879
1678024394.566,-25.879,8.301,-15.137,-48.828,-182.617
1678024394.570,-40.039,2.930,-10.742,2.930,2.441
1678024394.573,-29.785,-0.977,-9.766,16.113,381.836
1678024394.577,-10.254,-3.906,-11.230,-28.320,206.543
1678024394.581,-7.812,-4.883,-14.160,-59.570,-203.125
1678024394.585,-33.691,-6.836,-22.461,-41.016,-86.914
1678024394.589,-53.711,-10.254,-20.020,-0.977,33.691
1678024394.591,-39.551,-13.184,-20.020,6.836,-106.445
1678024394.595,-11.719,-13.672,-22.461,-29.785,-154.297
1678024394.599,-12.207,-12.207,-26.855,-57.129,-117.188
1678024394.603,-39.551,-13.672,-32.715,-45.410,-139.648
1678024394.607,-56.152,-17.090,-31.738,-2.930,-143.066
1678024394.611,-53.711,-19.531,-30.762,13.672,-84.473
1678024394.615,-39.062,-19.531,-24.414,-19.043,152.344
1678024394.618,-36.133,-19.043,-23.438,-58.594,201.172
1678024394.622,-52.734,-23.438,-25.391,-66.895,-125.000
1678024394.626,-67.871,-13.184,-14.648,-19.531,-167.969
1678024394.630,-72.266,-16.113,-20.020,-3.418,-145.508
1678024394.634,-66.895,-28.809,-31.738,-52.734,-182.617
1678024394.637,-68.848,-17.578,-23.438,-103.516,-196.289
1678024394.641,-89.844,-6.348,-19.043,-105.957,-147.949
1678024394.645,-121.582,-10.254,-13.184,-70.801,-0.488
1678024394.649,-135.254,2.930,-6.836,-70.801,-41.016
1678024394.653,-128.906,7.812,-6.348,-121.582,-216.309
1678024394.657,-144.531,8.789,-5.371,-187.500,-152.344
1678024394.661,-204.590,14.648,-2.441,-223.145,141.602
1678024394.664,-251.953,15.625,6.836,-209.961,39.551
1678024394.668,-277.832,30.273,4.883,-220.215,-205.078
1678024394.672,-283.203,35.156,3.906,-268.066,-77.148
1678024394.676,-284.180,33.691,4.883,-313.477,83.984
1678024394.680,-305.176,30.273,-2.441,-329.102,-98.145
1678024394.682,-323.242,29.297,2.441,-288.086,-229.492
1678024394.686,-317.871,31.250,0.977,-255.371,-92.285
1678024394.690,-288.574,29.297,-1.953,-273.438,-19.531
1678024394.694,-259.277,32.227,1.465,-298.340,-168.945
1678024394.698,-251.953,32.227,2.441,-288.086,-258.789
1678024394.702,-257.324,27.344,-3.418,-244.141,109.863
1678024394.706,-251.953,24.414,-9.277,-200.195,342.773
1678024394.709,-222.656,12.695,-11.230,-200.684,-5.371
1678024394.713,-179.688,7.812,-14.160,-224.121,-177.246
1678024394.717,-166.504,8.301,-19.531,-229.492,-79.590
1678024394.721,-178.711,-1.465,-26.855,-184.082,-86.426
1678024394.725,-168.457,-11.719,-29.297,-112.793,-101.562
1678024394.741,-129.883,-14.648,-28.320,-94.727,-19.043
1678024394.745,-97.656,-20.508,-31.738,-127.930,-41.016
1678024394.749,-93.262,-26.367,-35.156,-137.207,-93.750
1678024394.753,-100.098,-29.297,-36.621,-95.703,-173.340
1678024394.757,-103.516,-33.691,-39.551,-48.340,-55.176
1678024394.761,-75.684,-32.715,-38.574,-31.738,208.008
1678024394.765,-37.109,-30.273,-38.086,-62.988,59.082
1678024394.768,-28.809,-33.203,-41.504,-94.238,-122.070
1678024394.772,-43.945,-35.156,-40.527,-65.430,-45.898
1678024394.776,-55.664,-36.621,-36.621,-14.160,204.102
1678024394.780,-36.621,-39.062,-31.250,7.812,69.824
1678024394.784,-2.441,-35.645,-30.762,-20.020,-226.562
1678024394.786,7.812,-38.574,-39.062,-60.547,-148.926
1678024394.790,-8.789,-47.363,-43.457,-43.457,-133.789
1678024394.794,-13.672,-49.316,-42.480,4.883,-181.152
1678024394.798,2.930,-48.340,-40.039,25.391,-166.992
1678024394.802,25.391,-48.340,-44.922,0.977,-39.551
1678024394.806,31.738,-49.316,-49.316,-35.645,78.613
1678024394.810,20.996,-50.293,-46.875,-36.621,-1.953
1678024394.813,11.230,-52.246,-53.223,2.441,-96.191
1678024394.817,21.973,-52.246,-56.641,41.992,106.934
1678024394.821,44.434,-49.805,-49.805,29.297,307.617
1678024394.825,51.758,-46.387,-44.434,-11.719,-1.465
1678024394.829,38.574,-48.340,-46.387,-17.578,-208.984
1678024394.831,22.949,-52.734,-46.387,19.531,-76.660
1678024394.835,31.250,-51.270,-42.480,52.734,-10.254
1678024394.839,59.082,-47.852,-40.527,33.691,-79.590
1678024394.843,74.707,-42.480,-38.086,-13.672,-86.426
1678024394.847,62.500,-40.527,-36.621,-12.695,-109.863
1678024394.851,37.598,-40.527,-36.133,29.297,-57.129
1678024394.855,37.109,-44.922,-39.062,56.641,21.973
1678024394.858,63.965,-44.434,-39.062,46.875,6.836
