timestamps,TP9,AF7,AF8,TP10,Right AUX
1678024320.162,-236.816,-5.371,-0.977,-288.574,-166.016
1678024320.166,-248.535,-6.348,-1.465,-238.281,-177.734
1678024320.170,-209.961,-7.812,-2.441,-168.457,-87.891
1678024320.174,-175.293,-13.672,-4.883,-158.691,57.617
1678024320.178,-157.715,-18.066,-13.672,-192.871,-69.336
1678024320.182,-145.020,-24.414,-24.414,-186.035,-93.262
1678024320.186,-139.160,-37.598,-27.344,-131.348,46.875
1678024320.189,-121.094,-45.410,-29.297,-69.336,212.402
1678024320.193,-90.820,-47.852,-28.320,-55.664,22.461
1678024320.197,-75.684,-47.852,-28.320,-94.727,-162.109
1678024320.201,-80.566,-50.293,-33.203,-109.375,-120.605
1678024320.205,-84.473,-54.688,-36.133,-79.102,-153.320
1678024320.209,-36.133,-62.012,-43.457,-20.508,-180.664
1678024320.213,-41.504,-68.359,-47.852,-45.898,-97.656
1678024320.217,-41.504,-71.777,-48.340,-66.895,-80.078
1678024320.221,-44.922,-72.266,-46.875,-43.945,-136.230
1678024320.225,-43.457,-74.219,-50.781,-0.488,-61.523
1678024320.229,-25.391,-73.242,-55.176,19.043,109.375
1678024320.232,-3.906,-68.848,-56.641,-8.301,298.828
1678024320.236,-14.648,-66.895,-62.012,-46.387,25.391
1678024320.240,-34.668,-63.477,-69.336,-28.809,-191.406
1678024320.244,-19.531,-64.941,-72.754,20.020,50.781
1678024320.248,9.766,-65.918,-71.777,34.180,126.953
1678024320.250,23.438,-60.059,-71.289,7.812,-77.637
1678024320.254,20.996,-60.059,-75.684,-14.648,-83.984
1678024320.258,8.301,-58.105,-77.148,-3.418,-41.992
1678024320.262,12.207,-54.199,-72.754,30.762,-96.191
1678024320.266,35.645,-51.758,-68.359,50.293,-105.469
1678024320.270,47.363,-45.410,-64.453,32.227,-9.766
1678024320.274,37.109,-44.922,-63.965,2.930,182.129
1678024320.277,27.344,-51.270,-70.801,-4.395,107.910
1678024320.281,19.531,-50.293,-74.707,22.949,-62.500
1678024320.285,24.414,-48.828,-69.336,52.734,-32.227
1678024320.289,42.969,-43.457,-67.871,43.945,104.980
1678024320.293,45.898,-36.621,-67.383,1.465,-66.895
1678024320.295,29.297,-34.180,-66.406,-6.348,-202.637
1678024320.299,22.461,-35.645,-69.824,35.156,-66.406
1678024320.303,32.227,-35.156,-72.266,66.895,-13.672
1678024320.307,39.551,-36.133,-73.730,48.828,-79.590
1678024320.311,40.039,-40.039,-71.777,6.348,-110.352
1678024320.315,32.715,-35.645,-72.754,-8.301,-25.879
1678024320.319,20.996,-34.180,-76.660,20.020,97.168
1678024320.322,32.227,-37.109,-75.195,58.594,46.875
1678024320.326,48.340,-38.086,-76.660,48.828,-96.191
1678024320.330,40.527,-39.062,-74.219,18.066,39.551
1678024320.334,37.109,-33.691,-66.406,17.090,304.688
1678024320.338,30.273,-34.668,-68.359,30.762,-14.648
1678024320.355,19.531,-39.551,-68.359,56.152,-181.641
1678024320.359,32.227,-41.504,-66.406,61.523,-41.504
1678024320.363,42.480,-36.621,-65.430,26.855,-119.141
1678024320.367,28.809,-29.785,-61.035,14.160,-126.465
1678024320.371,19.531,-31.250,-58.594,33.691,-75.684
1678024320.375,20.508,-33.203,-62.988,58.105,23.926
1678024320.379,32.715,-31.738,-67.871,62.012,4.883
1678024320.382,42.969,-31.738,-67.383,31.738,-102.051
1678024320.386,29.297,-30.762,-65.918,4.883,-111.816
1678024320.390,5.371,-31.250,-63.477,24.414,109.863
1678024320.394,8.301,-26.855,-62.500,52.734,21.973
1678024320.398,27.832,-23.926,-60.059,54.199,-117.676
1678024320.400,25.879,-27.344,-59.082,24.414,35.645
1678024320.404,19.043,-26.367,-62.012,-9.277,33.203
1678024320.408,0.000,-23.926,-63.477,-3.906,-138.184
1678024320.412,2.441,-30.273,-62.012,29.297,-107.422
1678024320.416,22.461,-35.156,-60.059,48.340,6.348
1678024320.420,19.531,-32.715,-64.453,16.113,39.551
1678024320.424,0.488,-34.668,-66.895,-20.996,70.801
1678024320.427,-16.602,-37.598,-65.918,-21.973,-43.457
1678024320.431,-15.625,-35.645,-67.871,9.277,75.684
1678024320.435,-3.906,-37.109,-63.477,29.297,326.172
1678024320.439,3.418,-41.504,-64.453,-5.859,30.762
1678024320.443,-5.371,-37.109,-68.359,-44.922,-220.703
1678024320.446,-20.996,-30.762,-62.988,-41.504,-155.273
1678024320.450,-21.484,-29.785,-59.570,-10.742,-109.375
1678024320.454,-7.812,-29.297,-61.523,2.930,-59.570
1678024320.458,3.906,-27.344,-64.453,-18.555,-8.301
1678024320.462,-8.789,-30.762,-62.500,-50.293,51.270
1678024320.466,-29.297,-32.715,-60.059,-52.734,-76.660
1678024320.470,-37.109,-32.227,-58.105,-26.367,-143.066
1678024320.473,-16.113,-36.133,-55.176,-1.465,-36.133
1678024320.477,-6.836,-37.598,-57.129,-7.324,150.391
1678024320.481,-24.414,-37.598,-58.105,-42.969,10.742
1678024320.485,-34.668,-40.527,-54.688,-51.758,-134.766
1678024320.489,-40.527,-37.598,-55.176,-30.273,-112.305
1678024320.490,-32.715,-33.203,-57.617,-2.930,-75.684
1678024320.494,-13.672,-29.297,-58.594,-4.883,-128.418
1678024320.498,-17.090,-32.715,-54.688,-38.086,-182.617
1678024320.502,-39.551,-38.574,-57.129,-55.664,-67.383
1678024320.506,-46.875,-38.086,-58.105,-39.062,9.277
1678024320.510,-38.086,-40.039,-50.781,-14.160,3.418
1678024320.514,-28.320,-38.574,-49.316,-25.391,48.340
1678024320.517,-24.414,-38.086,-54.199,-49.316,189.453
1678024320.521,-33.203,-34.668,-49.316,-50.781,410.645
1678024320.525,-50.293,-29.297,-46.387,-38.574,157.715
1678024320.529,-46.387,-29.785,-49.316,-8.789,-80.566
1678024320.533,-23.926,-28.809,-47.852,3.418,-24.902
1678024320.535,-15.625,-29.297,-51.758,-35.156,-81.543
1678024320.539,-27.344,-30.273,-54.688,-55.176,-112.793
1678024320.543,-41.016,-31.738,-47.852,-30.273,-71.777
1678024320.547,-43.945,-35.156,-48.340,-11.230,-22.461
1678024320.551,-28.320,-32.715,-47.852,-1.465,-64.941
1678024320.555,-23.926,-33.691,-44.434,-26.367,-45.410
1678024320.559,-36.621,-36.621,-42.480,-60.059,22.461
1678024320.562,-46.387,-40.039,-42.969,-48.340,262.207
1678024320.566,-43.457,-37.598,-41.504,-16.602,134.277
1678024320.570,-31.738,-34.668,-40.527,-14.160,-183.105
1678024320.574,-20.020,-36.133,-43.457,-34.180,-181.152
1678024320.578,-25.391,-38.086,-42.480,-59.570,-147.461
1678024320.580,-50.781,-37.109,-47.363,-61.523,-233.398
1678024320.584,-55.664,-39.062,-47.852,-31.250,-195.801
1678024320.588,-39.551,-39.551,-42.969,-13.184,-100.098
1678024320.592,-40.527,-41.016,-43.945,-39.062,-68.359
1678024320.596,-49.805,-38.086,-44.434,-69.336,-22.949
1678024320.600,-50.293,-30.273,-41.504,-62.988,-80.566
1678024320.604,-48.340,-30.762,-41.504,-32.227,29.297
1678024320.607,-42.480,-33.203,-39.551,-9.766,264.648
1678024320.611,-37.109,-33.203,-39.062,-28.320,53.223
1678024320.615,-43.945,-30.762,-40.527,-64.453,-93.750
1678024320.619,-60.547,-35.645,-43.945,-63.965,8.301
1678024320.623,-67.871,-38.574,-43.945,-32.227,36.133
1678024320.625,-44.434,-37.109,-43.945,-16.113,-99.609
1678024320.629,-20.508,-35.645,-46.387,-28.320,-127.441
1678024320.633,-31.250,-36.133,-49.316,-62.012,14.160
1678024320.637,-51.758,-39.551,-49.805,-74.219,-24.414
1678024320.641,-60.547,-39.551,-44.922,-51.270,-136.719
1678024320.645,-56.641,-39.551,-42.969,-31.250,-31.250
1678024320.649,-36.133,-39.551,-41.504,-33.691,200.684
1678024320.652,-41.016,-42.969,-41.992,-62.500,1.953
1678024320.656,-58.594,-45.898,-42.480,-71.777,-195.801
1678024320.660,-54.199,-41.992,-40.039,-39.551,-122.559
1678024320.664,-52.734,-44.922,-41.016,-28.809,-85.938
1678024320.668,-48.828,-50.293,-42.480,-50.293,-60.547
1678024320.686,-59.570,-46.387,-39.062,-73.730,-19.531
1678024320.690,-75.195,-42.969,-37.598,-89.844,-45.410
1678024320.694,-73.730,-47.363,-41.016,-69.824,-48.340
1678024320.698,-63.965,-43.945,-43.457,-33.691,-112.793
1678024320.702,-40.527,-38.086,-41.504,-38.086,-24.902
1678024320.706,-25.879,-41.504,-44.434,-77.148,177.246
1678024320.710,-53.711,-44.434,-49.316,-89.355,126.465
1678024320.713,-78.125,-46.875,-49.805,-69.824,5.371
1678024320.717,-64.453,-46.387,-47.852,-48.828,-57.617
1678024320.721,-39.551,-41.016,-44.922,-39.551,74.219
1678024320.725,-40.527,-49.316,-48.828,-64.941,201.660
1678024320.729,-64.453,-56.152,-56.152,-101.074,-123.535
1678024320.730,-72.266,-49.805,-52.246,-89.844,-256.348
1678024320.734,-64.941,-48.340,-48.828,-52.246,-130.371
1678024320.738,-61.035,-52.246,-51.270,-49.805,-10.742
1678024320.742,-53.223,-51.270,-48.340,-79.102,-115.234
1678024320.746,-59.570,-47.363,-47.363,-97.168,-166.992
1678024320.750,-72.266,-45.898,-49.805,-87.402,13.672
1678024320.754,-71.289,-55.664,-49.805,-63.477,25.879
1678024320.757,-64.941,-54.688,-48.340,-52.246,-77.148
1678024320.761,-49.805,-45.410,-48.828,-66.895,-66.895
1678024320.765,-58.105,-43.945,-47.852,-85.938,209.961
1678024320.769,-69.336,-47.363,-45.898,-84.473,118.164
1678024320.773,-69.824,-49.805,-47.363,-62.500,-153.320
1678024320.775,-62.500,-55.664,-46.875,-47.852,-136.230
1678024320.779,-50.293,-55.176,-45.898,-67.871,-120.605
1678024320.783,-58.594,-52.734,-49.316,-95.215,-137.695
1678024320.787,-80.078,-56.641,-48.340,-97.656,-214.844
1678024320.791,-89.355,-55.664,-50.293,-64.453,-62.500
1678024320.795,-63.965,-53.711,-53.223,-40.527,131.348
1678024320.799,-43.457,-50.781,-47.852,-55.176,9.766
1678024320.802,-60.059,-53.223,-46.387,-83.496,-50.781
1678024320.806,-80.078,-58.594,-50.293,-87.891,94.238
1678024320.810,-85.449,-60.059,-51.758,-48.828,261.230
1678024320.814,-68.848,-62.500,-52.734,-31.250,29.785
1678024320.818,-50.781,-60.547,-52.246,-42.480,-110.352
1678024320.820,-52.734,-60.059,-58.594,-68.848,-105.469
1678024320.824,-57.617,-61.523,-60.547,-80.566,-160.156
1678024320.828,-81.055,-64.453,-59.082,-56.152,-178.223
1678024320.832,-88.379,-66.406,-62.988,-28.320,-130.859
1678024320.836,-58.594,-63.477,-60.059,-32.715,-35.645
1678024320.840,-62.500,-61.035,-50.781,-70.801,-20.996
1678024320.844,-87.891,-61.523,-49.316,-91.309,-83.984
1678024320.847,-96.191,-66.406,-54.199,-75.684,-85.449
1678024320.851,-88.379,-66.406,-52.246,-37.598,228.516
1678024320.855,-74.707,-64.453,-53.711,-40.039,218.750
1678024320.859,-66.895,-63.965,-56.641,-90.820,-121.094
1678024320.863,-81.055,-64.941,-56.641,-108.398,-144.043
1678024320.865,-105.469,-67.871,-60.059,-83.496,-129.395
1678024320.869,-99.609,-67.871,-60.547,-52.734,-102.051
1678024320.873,-73.242,-65.918,-56.152,-47.363,-67.383
1678024320.877,-70.312,-64.453,-54.688,-80.566,-148.438
1678024320.881,-88.867,-65.918,-58.594,-106.445,-164.062
1678024320.885,-105.469,-70.312,-59.570,-88.379,-67.383
1678024320.889,-99.609,-70.801,-55.176,-55.176,-22.461
1678024320.892,-76.660,-66.406,-51.270,-47.852,127.930
1678024320.896,-78.613,-67.383,-54.199,-74.219,351.074
1678024320.900,-100.586,-72.754,-59.570,-107.422,127.441
1678024320.904,-107.910,-64.941,-59.082,-91.797,-85.449
1678024320.908,-97.656,-56.152,-47.363,-56.152,21.484
1678024320.910,-99.121,-55.664,-42.969,-67.383,-46.387
1678024320.914,-100.586,-48.828,-41.992,-101.074,-135.742
1678024320.918,-107.910,-53.223,-38.574,-129.883,-119.141
1678024320.922,-134.277,-49.316,-43.457,-137.695,-131.836
1678024320.926,-165.039,-42.969,-29.785,-128.906,-113.770
1678024320.930,-185.059,-42.480,-22.461,-143.555,-79.102
1678024320.934,-211.426,-30.273,-31.250,-205.078,-45.410
1678024320.937,-245.605,-22.949,-26.855,-261.230,130.859
1678024320.941,-293.457,-18.555,-10.254,-295.410,-44.434
1678024320.945,-343.262,-18.555,-0.977,-317.383,-228.516
1678024320.949,-369.141,-23.926,7.324,-334.473,-84.473
1678024320.953,-381.348,-24.902,13.184,-378.418,62.500
1678024320.955,-390.137,-26.855,21.973,-412.109,-72.266
1678024320.959,-395.996,-18.555,34.180,-404.785,-177.246
1678024320.963,-413.574,-23.438,26.855,-378.906,-78.125
1678024320.967,-397.461,-33.691,22.949,-345.703,-54.199
1678024320.971,-353.516,-30.762,26.855,-351.074,-136.230
1678024320.975,-346.191,-32.715,23.926,-382.812,-107.422
1678024320.979,-359.375,-28.809,25.391,-361.328,133.789
1678024320.982,-360.840,-33.691,18.066,-330.078,372.070
1678024320.986,-332.031,-36.133,17.090,-307.129,57.617
1678024320.990,-303.223,-31.738,18.555,-295.898,-126.953
1678024320.994,-302.246,-35.156,13.184,-324.219,1.465
1678024320.998,-313.477,-41.504,17.090,-320.312,-115.723
1678024321.001,-308.594,-42.969,14.160,-270.508,-230.469
1678024321.005,-276.367,-53.223,13.184,-230.469,-91.797
1678024321.009,-253.906,-56.152,12.695,-236.328,86.426
1678024321.013,-244.629,-51.758,6.836,-259.277,-88.867
1678024321.017,-240.723,-56.152,4.395,-252.930,-251.465
1678024321.021,-227.539,-56.641,-1.953,-218.262,-117.676
1678024321.025,-205.566,-58.594,-10.742,-167.969,142.578
1678024321.028,-183.105,-62.500,-13.184,-166.016,33.691
1678024321.032,-165.039,-62.012,-16.113,-198.730,-177.246
1678024321.036,-168.457,-68.359,-25.391,-192.871,-135.254
1678024321.040,-172.363,-74.219,-36.133,-156.250,-72.266
1678024321.044,-148.926,-74.219,-38.574,-113.770,-132.812
1678024321.045,-114.258,-77.148,-41.992,-104.980,-99.121
1678024321.049,-98.633,-81.055,-46.387,-124.512,-92.773
1678024321.053,-107.910,-81.543,-47.363,-130.859,-126.953
1678024321.057,-107.910,-85.449,-53.711,-115.234,-101.074
1678024321.061,-95.215,-91.309,-58.594,-73.730,-118.164
1678024321.065,-73.242,-93.262,-58.594,-55.664,112.793
1678024321.069,-55.176,-96.191,-59.082,-80.078,333.496
1678024321.072,-68.359,-100.098,-63.477,-107.910,88.379
1678024321.076,-73.730,-97.656,-63.965,-79.590,-86.914
1678024321.080,-54.688,-90.332,-59.570,-27.832,34.180
1678024321.084,-29.297,-90.332,-57.617,-9.277,56.641
1678024321.088,-20.508,-90.332,-61.035,-34.180,-138.672
1678024321.105,-27.344,-92.285,-64.453,-56.152,-115.234
1678024321.109,-34.668,-90.332,-66.406,-41.992,-28.809
1678024321.113,-30.273,-87.891,-69.336,-4.883,-80.078
1678024321.117,-15.625,-90.332,-76.660,13.672,-120.117
1678024321.121,-9.766,-92.285,-78.125,-8.301,-47.363
1678024321.125,-12.695,-88.867,-79.102,-31.738,22.949
1678024321.129,-17.578,-88.379,-83.984,-17.578,-15.137
1678024321.132,-11.719,-88.379,-84.473,25.879,-59.082
1678024321.136,4.395,-81.055,-80.566,43.945,-49.805
1678024321.140,20.996,-80.566,-76.660,21.973,183.105
1678024321.144,8.301,-90.332,-82.520,-18.555,160.156
1678024321.148,-6.836,-89.844,-85.449,-19.531,-94.727
1678024321.150,-15.137,-84.961,-83.496,22.949,-84.473
1678024321.154,0.000,-86.914,-77.148,47.852,22.949
1678024321.158,17.578,-90.820,-77.148,27.344,-1.953
1678024321.162,11.719,-87.891,-78.613,-14.160,-64.941
1678024321.166,1.953,-82.031,-80.078,-15.137,-55.664
1678024321.170,-4.883,-83.984,-83.984,27.832,-26.855
1678024321.174,12.207,-86.426,-83.984,50.781,-12.207
1678024321.177,27.344,-85.938,-84.473,34.668,-3.418
1678024321.181,12.695,-86.914,-89.355,-2.930,111.328
1678024321.185,-6.348,-89.355,-89.355,-2.441,326.660
1678024321.189,-8.789,-89.355,-83.008,29.785,137.695
1678024321.193,1.953,-88.867,-82.520,46.875,-81.055
1678024321.195,11.230,-88.867,-83.496,27.832,-44.922
1678024321.199,18.555,-85.938,-80.078,-10.742,-101.074
1678024321.203,2.441,-85.449,-81.055,-31.738,-197.266
1678024321.207,-21.484,-83.984,-81.543,1.953,-159.668
1678024321.211,-20.508,-87.891,-79.102,38.086,-45.898
1678024321.215,-8.789,-85.938,-78.613,10.742,-7.812
1678024321.219,-3.418,-82.031,-75.684,-31.738,-68.359
1678024321.222,-18.066,-84.473,-73.730,-41.016,-104.492
1678024321.226,-30.762,-84.961,-76.660,-10.254,155.273
1678024321.230,-29.297,-85.449,-81.543,18.555,109.375
1678024321.234,-4.395,-83.008,-81.543,12.207,-76.172
1678024321.238,-0.977,-86.914,-87.402,-36.621,-32.227
1678024321.240,-30.762,-87.891,-94.727,-57.129,-38.086
1678024321.244,-46.387,-83.496,-91.309,-30.273,-135.254
1678024321.248,-41.016,-83.496,-85.938,3.418,-106.445
1678024321.252,-19.043,-84.473,-85.449,6.836,-58.105
1678024321.256,-12.695,-84.473,-87.891,-40.039,-59.082
1678024321.260,-37.109,-84.961,-91.797,-65.918,7.324
1678024321.264,-57.617,-86.426,-87.891,-37.109,-62.500
1678024321.267,-54.199,-85.449,-82.031,3.906,49.805
1678024321.271,-37.109,-84.473,-81.055,19.531,354.004
1678024321.275,-23.926,-88.867,-79.590,-22.461,69.824
1678024321.279,-44.922,-93.750,-83.496,-66.895,-191.406
1678024321.283,-76.660,-95.215,-84.473,-51.270,-80.078
1678024321.286,-79.590,-94.238,-81.055,-13.672,-48.340
1678024321.290,-54.688,-93.750,-80.566,-15.137,-86.914
1678024321.294,-38.086,-94.238,-78.125,-43.945,-56.641
1678024321.298,-55.664,-91.797,-76.172,-67.383,9.766
1678024321.302,-76.172,-92.773,-83.008,-58.594,-85.449
1678024321.306,-83.496,-93.750,-87.402,-25.879,-78.613
1678024321.310,-66.895,-92.285,-82.031,-11.719,70.801
1678024321.313,-47.852,-90.820,-76.660,-41.504,199.707
1678024321.317,-59.570,-95.215,-73.730,-90.332,37.598
1678024321.321,-77.637,-95.703,-67.871,-76.660,-215.332
1678024321.325,-84.961,-95.703,-68.848,-31.250,-164.062
1678024321.329,-71.777,-95.703,-76.660,-15.137,-38.574
1678024321.330,-60.059,-93.262,-78.125,-50.293,-80.078
1678024321.334,-64.453,-91.309,-70.801,-99.609,-178.711
1678024321.338,-86.914,-92.773,-72.754,-93.750,-165.039
1678024321.342,-102.051,-95.215,-79.590,-51.270,-46.875
1678024321.346,-87.891,-93.750,-77.148,-28.809,-75.684
1678024321.350,-74.707,-98.633,-80.078,-60.547,-60.547
1678024321.354,-81.055,-96.680,-80.566,-105.469,78.125
1678024321.357,-99.121,-89.844,-78.125,-102.539,352.539
1678024321.361,-112.793,-92.285,-84.473,-75.195,229.004
1678024321.365,-98.633,-94.727,-82.031,-44.922,-68.359
1678024321.369,-79.590,-94.238,-75.195,-57.129,-24.902
1678024321.373,-79.590,-96.680,-78.125,-108.887,-80.566
1678024321.375,-81.543,-91.797,-80.078,-112.793,-236.328
1678024321.379,-85.449,-91.309,-76.172,-63.477,-183.594
1678024321.383,-79.102,-95.215,-75.684,-20.508,0.977
1678024321.387,-79.590,-98.633,-76.172,-35.156,-23.438
1678024321.391,-83.008,-100.098,-73.730,-77.148,-147.461
1678024321.395,-75.684,-90.820,-73.730,-83.496,-40.039
1678024321.399,-92.285,-84.473,-84.473,-61.523,201.172
1678024321.402,-95.703,-88.379,-84.473,-34.180,131.836
1678024321.406,-84.961,-97.168,-81.055,-48.828,-50.293
1678024321.410,-87.402,-98.633,-83.008,-94.238,-4.395
1678024321.414,-102.051,-93.262,-86.426,-111.328,81.543
1678024321.418,-110.840,-91.309,-82.031,-86.914,-62.012
1678024321.420,-108.398,-96.191,-77.148,-55.176,-101.562
1678024321.424,-102.539,-104.492,-86.426,-61.035,-20.020
1678024321.428,-97.656,-104.980,-90.332,-95.703,3.418
1678024321.432,-109.375,-111.816,-88.379,-130.859,-94.238
1678024321.436,-127.441,-111.328,-84.961,-113.281,-161.621
1678024321.440,-120.605,-110.840,-83.008,-62.012,-47.852
1678024321.444,-112.305,-113.281,-80.078,-56.152,132.324
1678024321.447,-113.281,-105.469,-81.055,-105.469,107.422
1678024321.451,-113.770,-103.027,-79.590,-131.836,-56.641
1678024321.455,-124.512,-102.051,-77.637,-108.887,-41.504
1678024321.459,-121.094,-99.121,-81.543,-58.105,240.234
1678024321.463,-105.957,-101.562,-81.055,-41.504,84.961
1678024321.480,-94.238,-100.098,-78.613,-81.055,-57.129
1678024321.484,-96.680,-99.121,-71.289,-121.094,-0.977
1678024321.488,-112.793,-103.516,-77.637,-108.398,-114.258
1678024321.492,-116.211,-104.980,-85.449,-59.082,-157.715
1678024321.496,-101.074,-99.121,-82.031,-42.480,-5.371
1678024321.500,-91.797,-92.773,-86.914,-94.238,130.371
1678024321.504,-102.051,-91.309,-90.332,-141.113,-19.531
1678024321.507,-109.375,-88.379,-85.449,-126.465,-117.188
1678024321.511,-113.770,-85.938,-78.613,-76.172,-3.418
1678024321.515,-106.934,-85.449,-72.754,-41.504,257.324
1678024321.519,-94.238,-90.820,-74.707,-82.031,130.371
1678024321.523,-101.562,-92.285,-76.660,-147.461,-125.488
1678024321.526,-118.164,-91.797,-75.684,-140.137,-78.613
1678024321.530,-125.977,-100.586,-77.148,-93.262,50.293
1678024321.534,-111.816,-99.609,-75.684,-64.941,-36.621
1678024321.538,-103.027,-94.727,-71.777,-85.449,-136.719
1678024321.542,-116.699,-95.215,-71.777,-139.160,-78.613
1678024321.546,-125.488,-95.215,-74.707,-142.090,-17.578
1678024321.550,-125.488,-94.238,-71.289,-88.867,10.254
1678024321.553,-126.465,-98.633,-73.730,-62.988,-51.758
1678024321.557,-121.094,-96.680,-75.684,-93.750,119.629
1678024321.561,-117.188,-97.168,-80.078,-138.184,354.492
1678024321.565,-128.906,-101.074,-78.613,-157.715,12.207
1678024321.569,-147.461,-104.004,-76.660,-119.629,-155.762
1678024321.570,-137.695,-106.445,-81.543,-75.684,36.621
1678024321.574,-111.816,-105.957,-76.172,-86.914,3.418
1678024321.578,-108.887,-102.051,-70.312,-134.277,-167.480
1678024321.582,-127.441,-104.980,-76.172,-156.250,-171.875
1678024321.586,-139.648,-108.398,-78.125,-112.793,0.488
1678024321.590,-122.070,-106.445,-74.219,-59.082,55.664
1678024321.594,-103.516,-102.539,-73.242,-76.172,-10.742
1678024321.597,-100.098,-99.121,-70.312,-130.859,-36.133
1678024321.601,-109.375,-101.562,-71.289,-152.832,150.879
1678024321.605,-123.535,-99.121,-70.801,-119.629,98.633
1678024321.609,-110.840,-93.262,-68.848,-62.012,-154.297
1678024321.613,-91.309,-93.750,-68.359,-63.477,-114.746
1678024321.615,-96.191,-90.820,-68.848,-126.953,-114.258
1678024321.619,-107.422,-90.820,-71.777,-156.250,-115.723
1678024321.623,-123.535,-93.262,-73.242,-122.559,-80.078
1678024321.627,-131.836,-91.309,-73.730,-69.336,4.395
1678024321.631,-120.605,-98.145,-79.590,-74.707,-32.227
1678024321.635,-104.004,-96.191,-76.172,-136.230,-130.859
1678024321.639,-107.910,-90.820,-69.824,-174.316,-143.555
1678024321.642,-132.812,-94.727,-71.289,-143.066,14.160
1678024321.646,-137.695,-90.820,-72.266,-82.520,282.227
1678024321.650,-125.000,-89.355,-77.637,-74.707,20.508
1678024321.654,-114.258,-94.727,-77.148,-122.070,-126.465
1678024321.658,-114.258,-91.309,-75.684,-166.016,-124.512
1678024321.660,-122.559,-91.309,-79.102,-146.973,-236.816
1678024321.664,-123.047,-88.867,-76.172,-79.590,-183.105
1678024321.668,-120.117,-90.820,-73.730,-73.242,-92.285
1678024321.672,-121.582,-93.750,-76.660,-125.977,14.648
1678024321.676,-125.488,-93.262,-74.707,-165.039,-42.480
1678024321.680,-131.348,-93.262,-71.777,-145.996,-119.629
1678024321.684,-125.488,-88.867,-68.359,-86.426,67.871
1678024321.687,-109.863,-90.332,-65.918,-57.617,447.754
1678024321.691,-97.168,-94.727,-68.848,-95.703,235.352
1678024321.695,-92.773,-93.262,-63.965,-150.879,-179.199
1678024321.699,-111.816,-94.727,-60.547,-143.555,-197.266
1678024321.703,-124.512,-99.121,-65.430,-91.797,-100.586
1678024321.705,-112.793,-95.703,-67.871,-54.199,-23.926
1678024321.709,-100.098,-94.727,-66.895,-80.566,-84.473
1678024321.713,-97.168,-97.656,-66.406,-143.066,-78.613
1678024321.717,-115.234,-98.145,-70.312,-150.879,-30.273
1678024321.721,-124.023,-95.703,-72.266,-91.797,-71.289
1678024321.725,-107.422,-97.168,-76.660,-55.664,-46.387
1678024321.729,-99.609,-95.703,-80.078,-81.543,191.406
1678024321.732,-113.281,-92.285,-79.102,-134.766,292.480
1678024321.736,-132.812,-92.285,-82.031,-152.832,-33.203
1678024321.740,-138.672,-90.332,-80.566,-111.328,-151.367
1678024321.744,-129.395,-89.355,-80.078,-67.871,18.555
1678024321.748,-115.723,-89.844,-84.473,-91.797,57.617
1678024321.750,-112.793,-90.820,-82.031,-156.250,-155.273
1678024321.754,-126.465,-92.285,-77.148,-173.340,-191.406
1678024321.758,-142.578,-92.773,-81.543,-126.465,-69.336
1678024321.762,-132.324,-94.238,-86.914,-80.078,-50.293
1678024321.766,-108.398,-98.145,-83.496,-91.797,-105.469
1678024321.770,-109.863,-101.562,-84.473,-139.648,-1.953
1678024321.774,-124.512,-97.656,-86.914,-151.367,177.734
1678024321.777,-140.137,-95.703,-83.496,-122.559,12.695
1678024321.781,-132.324,-99.609,-83.496,-76.660,-151.367
1678024321.785,-109.375,-102.539,-81.543,-65.430,-124.023
1678024321.789,-100.586,-98.633,-77.148,-122.070,-43.457
1678024321.793,-113.281,-91.309,-82.031,-169.922,-115.234
1678024321.795,-124.512,-92.285,-87.891,-145.020,-247.559
1678024321.799,-117.676,-94.727,-90.332,-92.285,-146.484
1678024321.803,-113.770,-94.238,-90.332,-90.820,-33.203
1678024321.807,-109.863,-94.727,-88.379,-140.625,-101.074
1678024321.811,-112.793,-94.238,-82.031,-172.363,-168.457
1678024321.815,-129.395,-93.750,-80.566,-148.438,-62.500
1678024321.819,-130.371,-93.262,-82.031,-91.797,75.195
1678024321.822,-117.676,-94.238,-82.520,-84.473,27.344
1678024321.826,-108.398,-92.285,-81.543,-137.207,-57.617
1678024321.830,-115.723,-90.820,-80.078,-168.945,22.461
1678024321.834,-126.953,-93.262,-84.961,-151.367,169.922
1678024321.838,-125.488,-97.656,-89.355,-101.562,-34.180
1678024321.855,-116.211,-98.633,-88.379,-73.242,-54.688
1678024321.859,-107.910,-94.727,-86.426,-115.723,92.285
1678024321.863,-115.723,-97.656,-85.938,-159.668,-73.242
1678024321.867,-134.277,-103.027,-81.055,-140.137,-227.051
1678024321.871,-139.648,-99.609,-82.520,-90.820,-144.043
1678024321.875,-125.977,-96.680,-81.543,-63.477,79.102
1678024321.879,-114.258,-101.074,-82.520,-103.516,42.480
1678024321.882,-114.746,-98.633,-83.984,-164.062,-186.523
1678024321.886,-123.535,-94.238,-84.473,-154.297,-148.438
1678024321.890,-133.789,-96.680,-88.379,-102.539,182.617
1678024321.894,-119.629,-96.191,-88.867,-75.684,101.074
1678024321.898,-102.051,-95.215,-85.449,-106.934,-116.699
1678024321.901,-104.004,-94.238,-87.402,-165.039,-145.996
1678024321.905,-111.328,-89.355,-87.891,-159.668,-177.734
1678024321.909,-116.699,-87.891,-85.449,-101.562,-124.023
1678024321.913,-109.375,-94.238,-88.867,-66.895,-91.309
1678024321.917,-92.285,-96.680,-85.938,-88.379,-8.789
1678024321.921,-89.844,-93.750,-83.496,-131.348,72.754
1678024321.925,-100.098,-91.309,-85.449,-142.578,51.758
1678024321.928,-106.934,-86.426,-84.961,-108.887,43.945
1678024321.932,-98.633,-83.984,-82.031,-66.406,114.258
1678024321.936,-87.402,-83.984,-84.473,-73.242,315.918
1678024321.940,-88.379,-82.031,-88.379,-132.324,81.055
1678024321.944,-95.703,-81.055,-86.426,-153.320,-149.414
1678024321.945,-100.586,-87.402,-86.426,-105.469,-87.402
1678024321.949,-89.844,-88.867,-84.473,-50.781,-87.402
1678024321.953,-80.566,-80.078,-76.660,-58.594,-89.844
1678024321.957,-83.984,-81.055,-75.195,-124.512,-149.902
1678024321.961,-96.191,-83.984,-83.008,-158.203,-129.395
1678024321.965,-108.398,-79.102,-77.637,-122.559,-20.508
1678024321.969,-113.281,-78.125,-74.219,-80.566,33.203
1678024321.972,-107.422,-83.496,-76.172,-83.984,-16.602
1678024321.976,-109.375,-85.449,-68.848,-137.207,193.848
1678024321.980,-130.859,-94.727,-73.242,-181.152,121.582
1678024321.984,-146.973,-91.797,-66.895,-157.715,-200.684
1678024321.988,-164.062,-85.938,-57.129,-125.000,-177.734
1678024321.990,-178.711,-83.008,-47.363,-140.625,-108.398
1678024321.994,-203.613,-75.195,-36.133,-208.496,-128.418
1678024321.998,-249.512,-68.848,-36.133,-277.344,-147.949
1678024322.002,-292.969,-64.941,-37.598,-289.551,-62.500
1678024322.006,-312.500,-67.383,-27.344,-269.531,-93.262
1678024322.010,-315.918,-62.500,-24.902,-272.949,-68.359
1678024322.014,-338.867,-63.477,-29.785,-333.984,-29.297
1678024322.017,-348.145,-62.012,-26.367,-383.301,56.152
1678024322.021,-356.934,-56.152,-18.066,-366.699,325.195
1678024322.025,-365.234,-46.387,-19.043,-319.824,115.234
1678024322.029,-348.145,-51.270,-15.137,-290.039,-170.410
1678024322.033,-334.961,-56.641,-19.531,-315.430,-121.582
1678024322.035,-329.102,-58.105,-26.367,-358.398,-166.504
1678024322.039,-326.660,-59.082,-22.461,-346.680,-227.539
1678024322.043,-330.078,-60.059,-24.414,-290.039,-135.742
1678024322.047,-314.453,-60.059,-23.926,-245.605,-14.648
1678024322.051,-288.574,-67.871,-26.855,-262.207,-20.508
1678024322.055,-275.879,-71.777,-32.227,-311.523,-94.238
1678024322.059,-278.320,-70.801,-38.574,-308.105,-67.383
1678024322.062,-268.555,-73.242,-42.480,-235.840,208.008
1678024322.066,-235.840,-82.031,-45.898,-187.988,117.676
1678024322.070,-214.844,-90.820,-50.293,-200.195,-145.020
1678024322.074,-209.961,-97.168,-56.641,-229.492,-104.980
1678024322.078,-193.848,-99.609,-62.988,-219.238,-55.664
1678024322.080,-178.711,-95.215,-60.059,-165.039,-181.641
1678024322.084,-166.992,-89.355,-63.477,-115.234,-146.484
1678024322.088,-143.066,-94.238,-72.266,-121.094,-84.961
1678024322.092,-125.488,-101.074,-81.543,-162.109,-145.508
1678024322.096,-122.070,-93.262,-86.426,-163.086,-167.969
1678024322.100,-115.723,-92.285,-87.402,-107.422,-105.469
1678024322.104,-104.492,-100.586,-90.820,-52.246,88.379
1678024322.107,-86.914,-100.586,-94.238,-56.641,297.363
1678024322.111,-64.941,-98.633,-95.215,-103.516,-27.832
1678024322.115,-65.918,-98.145,-94.727,-116.211,-220.703
1678024322.119,-73.242,-97.656,-97.656,-66.895,-14.648
1678024322.123,-62.012,-96.680,-96.680,-11.230,41.016
1678024322.126,-43.945,-98.633,-97.168,-14.160,-79.590
1678024322.130,-37.598,-100.098,-98.145,-60.547,-112.305
1678024322.134,-43.945,-95.215,-101.562,-75.684,-5.371
1678024322.138,-47.363,-97.168,-104.492,-43.945,-119.629
1678024322.142,-37.598,-97.656,-102.539,-3.906,-234.863
1678024322.146,-14.648,-95.215,-101.074,11.230,-28.320
1678024322.150,-2.441,-91.797,-105.469,-24.902,216.797
1678024322.153,-12.207,-87.402,-108.398,-69.824,-4.395
1678024322.157,-24.414,-86.426,-107.422,-45.410,-198.730
1678024322.161,-23.438,-82.520,-106.445,13.184,-96.680
1678024322.165,-4.883,-80.078,-103.516,33.691,-60.059
1678024322.169,15.137,-78.125,-100.586,-2.930,-68.359
1678024322.171,9.277,-77.637,-95.703,-45.410,-110.352
1678024322.175,-11.719,-78.613,-98.633,-32.715,-115.723
1678024322.179,-9.277,-82.031,-104.004,13.184,6.836
1678024322.183,5.859,-82.031,-105.469,32.227,-67.871
1678024322.187,15.625,-78.613,-104.492,-0.488,-180.664
1678024322.191,6.348,-78.613,-102.051,-39.062,12.695
1678024322.195,-17.578,-78.613,-101.074,-31.250,348.145
1678024322.198,-23.438,-75.195,-104.004,3.906,148.438
1678024322.202,-5.859,-74.219,-106.445,20.996,-27.832
1678024322.206,11.719,-70.801,-98.633,-3.906,91.309
1678024322.210,4.883,-72.266,-98.633,-42.969,49.316
1678024322.214,-5.859,-73.242,-101.562,-43.945,-187.012
1678024322.230,-8.301,-67.871,-103.516,1.465,-144.043
1678024322.234,8.301,-67.383,-107.910,34.668,-31.738
1678024322.238,20.020,-67.383,-104.004,10.742,-55.664
1678024322.242,8.301,-62.988,-101.562,-40.527,-157.227
1678024322.246,-0.977,-63.477,-104.492,-44.434,-109.863
1678024322.250,-4.395,-65.430,-107.422,-1.465,100.586
1678024322.254,-0.977,-70.801,-108.887,25.879,48.828
1678024322.257,7.324,-74.707,-102.539,12.207,-63.965
1678024322.261,6.836,-73.242,-101.074,-35.645,-52.246
1678024322.265,-2.441,-71.289,-99.121,-47.852,113.770
1678024322.269,-9.766,-69.336,-95.215,-10.742,-20.996
1678024322.273,0.488,-67.871,-97.168,26.855,-133.301
1678024322.275,13.672,-70.312,-103.027,10.742,-86.914
1678024322.279,8.789,-70.312,-104.004,-41.504,-83.008
1678024322.283,-18.066,-69.824,-97.168,-55.176,-76.172
1678024322.287,-31.250,-69.824,-93.262,-24.414,-95.703
1678024322.291,-21.973,-70.312,-95.703,8.301,-63.965
1678024322.295,-7.812,-67.871,-96.191,4.395,84.473
1678024322.299,-4.395,-67.383,-92.773,-38.574,72.754
1678024322.302,-18.555,-67.383,-85.938,-62.012,-31.738
1678024322.306,-25.879,-67.383,-83.984,-26.855,84.961
1678024322.310,-17.578,-64.453,-86.426,18.555,389.648
1678024322.314,-5.859,-64.941,-88.379,8.789,146.484
1678024322.318,-5.859,-63.477,-89.355,-34.668,-158.691
1678024322.320,-22.949,-60.547,-92.773,-59.570,-72.266
1678024322.324,-39.062,-62.988,-92.773,-41.992,-94.238
1678024322.328,-33.203,-65.430,-91.309,-6.836,-143.066
1678024322.332,-20.508,-68.848,-87.891,1.953,-82.520
1678024322.336,-20.508,-68.848,-87.402,-26.367,-66.406
1678024322.340,-32.227,-65.918,-91.309,-57.617,-58.594
1678024322.344,-39.551,-63.965,-90.332,-43.457,-107.422
1678024322.347,-41.016,-62.500,-87.891,-6.836,-74.219
1678024322.351,-35.156,-64.453,-93.750,3.418,194.824
1678024322.355,-30.762,-67.383,-95.703,-34.180,78.613
1678024322.359,-34.668,-67.871,-90.820,-78.613,-213.379
1678024322.363,-41.016,-68.359,-88.379,-68.848,-191.895
1678024322.365,-50.293,-68.359,-94.238,-26.367,-67.383
1678024322.369,-40.039,-64.941,-95.703,-16.602,-96.680
1678024322.373,-35.156,-64.453,-91.309,-39.551,-127.441
1678024322.377,-51.758,-65.430,-89.844,-74.219,-88.867
1678024322.381,-59.082,-63.477,-89.355,-80.566,-95.703
1678024322.385,-54.199,-59.082,-88.867,-32.715,-12.207
1678024322.389,-43.945,-56.152,-90.332,-8.301,-4.395
1678024322.392,-24.902,-55.664,-88.867,-36.621,97.168
1678024322.396,-26.367,-56.641,-83.496,-76.172,405.762
1678024322.400,-58.105,-61.035,-85.449,-87.402,91.797
1678024322.404,-73.242,-61.035,-88.379,-51.758,-192.871
1678024322.408,-56.641,-61.035,-86.914,-20.508,-20.996
1678024322.410,-41.504,-59.570,-85.938,-41.016,-114.746
1678024322.414,-41.992,-59.570,-82.520,-83.984,-252.930
1678024322.418,-51.270,-58.594,-79.590,-85.938,-167.969
1678024322.422,-50.293,-60.547,-82.520,-58.105,7.812
1678024322.426,-42.969,-62.988,-84.961,-32.227,-74.219
1678024322.430,-33.203,-62.500,-84.473,-36.621,-96.191
1678024322.434,-32.227,-67.383,-85.938,-71.289,50.781
1678024322.437,-52.246,-65.430,-88.867,-71.289,195.312
1678024322.441,-63.965,-60.547,-86.914,-41.992,30.273
1678024322.445,-52.734,-60.547,-82.031,-16.602,-196.777
1678024322.449,-41.016,-61.035,-85.938,-11.719,-146.973
1678024322.453,-44.922,-63.477,-85.938,-36.133,-79.590
1678024322.456,-54.199,-67.871,-83.008,-69.824,-119.141
1678024322.460,-66.406,-68.359,-82.520,-61.035,-111.816
1678024322.464,-63.477,-68.848,-81.543,-30.762,6.348
1678024322.468,-47.852,-67.383,-83.496,-32.227,55.664
1678024322.472,-46.387,-60.547,-84.961,-58.594,-59.082
1678024322.476,-61.523,-59.082,-84.961,-75.195,-120.605
1678024322.480,-69.824,-58.105,-87.891,-61.523,50.781
1678024322.483,-64.941,-60.547,-88.867,-31.250,414.062
1678024322.487,-44.434,-61.523,-86.914,-24.414,139.160
1678024322.491,-34.180,-58.105,-87.402,-54.199,-187.988
1678024322.495,-52.734,-60.547,-83.984,-76.172,20.508
1678024322.499,-66.406,-62.012,-80.566,-66.406,5.371
1678024322.500,-67.383,-59.082,-78.125,-30.762,-114.258
1678024322.504,-58.105,-60.547,-79.590,-20.996,-67.871
1678024322.508,-51.758,-59.082,-77.148,-49.805,-96.191
1678024322.512,-54.688,-58.594,-77.148,-88.379,-117.676
1678024322.516,-62.988,-59.570,-79.590,-83.008,-55.176
1678024322.520,-68.848,-56.152,-73.242,-47.363,-1.953
1678024322.524,-51.758,-46.875,-67.383,-22.461,270.020
1678024322.527,-39.062,-46.387,-69.336,-39.062,199.707
1678024322.531,-44.922,-52.246,-71.289,-82.031,-151.367
1678024322.535,-56.641,-50.781,-72.266,-82.520,-140.137
1678024322.539,-59.570,-48.828,-70.801,-44.922,-43.457
1678024322.543,-43.945,-51.270,-69.336,-22.461,-33.691
1678024322.545,-34.668,-50.781,-66.406,-37.109,-88.867
1678024322.549,-42.480,-51.758,-70.801,-70.801,-78.613
1678024322.553,-54.688,-50.781,-72.266,-74.707,-44.922
1678024322.557,-55.664,-49.805,-67.871,-41.504,-111.328
1678024322.561,-52.246,-56.641,-75.195,-20.996,-99.609
1678024322.565,-50.293,-60.059,-82.520,-35.645,6.348
1678024322.569,-49.805,-59.082,-78.613,-61.035,68.848
1678024322.572,-56.641,-59.082,-73.242,-70.312,20.020
1678024322.576,-61.523,-60.547,-72.266,-51.270,-82.520
1678024322.580,-43.457,-60.547,-71.777,-10.742,106.445
1678024322.584,-30.273,-60.547,-71.777,-8.789,398.438
1678024322.588,-36.133,-58.594,-72.266,-43.945,60.059
1678024322.605,-41.992,-57.617,-70.312,-54.199,-189.453
1678024322.609,-55.664,-58.594,-68.359,-36.133,-104.492
1678024322.613,-55.176,-57.617,-70.312,-19.043,-103.516
1678024322.617,-38.574,-54.199,-70.312,-22.949,-115.234
1678024322.621,-37.109,-49.805,-72.754,-50.293,-105.957
1678024322.625,-52.246,-51.758,-69.824,-64.941,-20.020
1678024322.629,-63.477,-57.129,-68.359,-52.246,-22.461
1678024322.632,-48.828,-58.105,-71.777,-26.855,-82.031
1678024322.636,-30.273,-57.129,-75.684,-18.555,-43.945
1678024322.640,-36.621,-59.570,-75.684,-34.668,257.812
1678024322.644,-52.246,-63.965,-73.730,-59.082,151.367
1678024322.648,-58.105,-64.941,-70.312,-58.105,-104.492
1678024322.650,-51.758,-62.988,-73.242,-35.156,-71.777
1678024322.654,-41.504,-62.012,-73.730,-25.879,-13.672
1678024322.658,-35.645,-59.082,-64.941,-45.410,-24.414
1678024322.662,-43.457,-54.688,-62.012,-70.312,-57.617
1678024322.666,-53.711,-53.223,-61.035,-57.617,-72.266
1678024322.670,-46.875,-48.340,-61.523,-26.367,2.441
1678024322.674,-33.203,-47.852,-67.383,-14.648,6.348
1678024322.677,-35.156,-51.758,-74.707,-30.273,-50.293
1678024322.681,-48.828,-54.688,-77.148,-57.617,114.258
1678024322.685,-63.477,-58.105,-71.777,-55.664,299.316
1678024322.689,-64.941,-61.523,-67.383,-33.691,81.055
1678024322.693,-50.781,-62.500,-68.359,-27.832,-85.938
1678024322.695,-41.992,-63.477,-69.336,-38.574,1.465
1678024322.699,-47.363,-59.570,-66.895,-63.477,-125.488
1678024322.703,-51.758,-57.129,-63.477,-58.105,-250.977
1678024322.707,-48.340,-58.594,-60.059,-16.602,-130.371
1678024322.711,-34.180,-57.617,-63.965,-14.160,-46.387
1678024322.715,-28.320,-54.688,-67.383,-36.133,-71.289
1678024322.719,-40.527,-53.711,-66.406,-62.012,-129.883
1678024322.722,-50.293,-53.223,-62.012,-69.336,-147.461
1678024322.726,-54.199,-51.270,-57.129,-45.898,127.441
1678024322.730,-49.316,-50.293,-63.965,-34.180,106.445
1678024322.734,-33.691,-48.828,-63.477,-40.039,-92.285
1678024322.738,-37.109,-44.434,-57.617,-61.035,-119.141
1678024322.741,-57.617,-43.457,-58.594,-78.125,-165.039
1678024322.745,-59.570,-45.898,-57.617,-59.570,-83.984
1678024322.749,-44.922,-50.781,-60.059,-35.645,-106.934
1678024322.753,-36.133,-52.734,-56.641,-40.039,-91.797
1678024322.757,-46.875,-51.270,-55.176,-62.500,20.020
1678024322.761,-65.430,-55.176,-61.035,-72.266,-31.738
1678024322.765,-71.777,-57.617,-60.059,-59.082,-39.062
1678024322.768,-58.594,-54.688,-60.547,-34.668,154.297
1678024322.772,-42.969,-48.828,-60.547,-28.809,324.219
1678024322.776,-38.574,-49.316,-56.641,-58.594,-17.090
1678024322.780,-47.363,-49.316,-58.105,-76.660,-212.891
1678024322.784,-65.918,-50.293,-62.988,-63.965,-89.355
1678024322.785,-59.570,-54.199,-63.965,-40.527,-139.160
1678024322.789,-36.133,-52.246,-63.477,-35.156,-176.758
1678024322.793,-33.691,-45.898,-58.594,-55.176,-97.656
1678024322.797,-42.480,-44.922,-55.176,-74.219,-24.902
1678024322.801,-62.500,-48.828,-54.688,-63.477,-38.574
1678024322.805,-63.965,-45.898,-49.316,-31.250,39.551
1678024322.809,-39.062,-44.434,-48.340,-27.832,98.633
1678024322.812,-39.551,-48.340,-48.828,-48.828,208.984
1678024322.816,-64.941,-50.293,-48.340,-77.148,118.164
1678024322.820,-73.730,-51.270,-53.223,-78.125,-166.992
1678024322.824,-62.012,-46.387,-55.664,-47.852,-133.301
1678024322.828,-49.805,-43.457,-50.293,-33.691,-63.965
1678024322.830,-40.527,-41.504,-43.945,-48.828,-176.758
1678024322.834,-43.457,-34.180,-42.480,-80.566,-230.469
1678024322.838,-56.641,-33.203,-39.551,-78.125,-168.457
1678024322.842,-58.105,-30.762,-35.645,-46.875,-78.125
1678024322.846,-59.082,-36.133,-32.227,-42.969,-28.320
1678024322.850,-69.824,-44.922,-38.574,-72.266,17.578
1678024322.854,-82.520,-33.203,-44.434,-108.398,95.703
1678024322.857,-103.516,-25.879,-34.668,-108.398,288.574
1678024322.861,-127.930,-20.020,-31.738,-104.492,96.680
1678024322.865,-139.160,-13.672,-33.203,-121.582,-115.723
1678024322.869,-150.391,-23.438,-18.066,-155.273,34.180
1678024322.873,-196.289,-12.207,-17.578,-216.309,32.715
1678024322.875,-246.094,2.441,-20.996,-256.348,-249.023
1678024322.879,-275.391,-3.906,-7.324,-253.418,-209.961
1678024322.883,-295.898,-1.465,-6.348,-266.113,-33.691
1678024322.887,-294.922,2.441,-5.371,-295.898,-67.871
1678024322.891,-301.270,10.742,-1.465,-329.590,-152.344
1678024322.895,-318.359,14.648,1.953,-340.820,-44.922
1678024322.899,-317.383,2.930,4.883,-312.988,257.324
1678024322.902,-291.504,-2.441,1.465,-275.879,100.098
1678024322.906,-273.926,-0.488,9.277,-264.160,-134.277
1678024322.910,-272.461,0.977,10.254,-279.785,-21.484
1678024322.914,-274.414,2.441,-1.465,-271.973,22.949
1678024322.918,-274.414,2.441,-5.859,-250.488,-128.906
1678024322.920,-254.395,4.395,-5.859,-218.750,-150.391
1678024322.924,-227.539,-0.977,-5.859,-205.566,-75.684
1678024322.928,-214.355,-10.254,-7.812,-228.516,-83.496
1678024322.932,-215.332,-5.859,-14.648,-248.047,-149.414
1678024322.936,-213.867,-9.766,-24.414,-233.398,-195.312
1678024322.940,-184.082,-18.066,-27.344,-181.152,-26.367
1678024322.944,-151.855,-21.484,-30.762,-162.109,54.199
1678024322.947,-145.508,-26.367,-32.715,-181.641,-23.926
1678024322.951,-142.578,-29.297,-34.180,-182.129,-31.738
1678024322.955,-135.254,-35.156,-36.133,-143.555,14.648
1678024322.959,-116.699,-36.133,-38.574,-93.750,308.594
1678024322.963,-95.215,-34.668,-44.922,-89.355,175.293
1678024322.980,-81.543,-37.109,-45.410,-115.234,-82.520
1678024322.984,-79.590,-39.062,-47.363,-116.699,-80.078
1678024322.988,-97.168,-44.434,-46.875,-93.750,-157.715
1678024322.992,-94.238,-51.270,-45.898,-53.711,-225.586
1678024322.996,-71.289,-54.688,-45.898,-38.574,-137.207
1678024323.000,-52.734,-54.199,-45.898,-53.711,-30.762
1678024323.004,-39.062,-52.246,-42.969,-64.453,-26.855
1678024323.007,-48.828,-62.012,-44.434,-59.082,-136.230
1678024323.011,-39.062,-64.941,-47.363,-21.973,-113.281
1678024323.015,-17.090,-58.594,-45.898,3.906,118.652
1678024323.019,-11.230,-61.035,-46.387,-12.207,-31.250
1678024323.023,-17.578,-67.871,-50.293,-34.668,-227.539
1678024323.025,-18.555,-69.824,-49.805,-20.020,-158.691
1678024323.029,-11.230,-69.824,-44.922,21.973,-57.617
1678024323.033,2.441,-68.848,-44.922,36.133,-123.047
1678024323.037,18.555,-65.430,-43.457,20.996,-174.316
1678024323.041,15.625,-65.918,-40.527,2.930,-111.328
1678024323.045,8.301,-62.012,-46.387,18.066,-20.508
1678024323.049,21.484,-57.129,-46.875,53.223,9.766
1678024323.052,46.875,-59.570,-44.922,64.941,31.250
1678024323.056,65.918,-58.105,-44.922,49.805,77.637
1678024323.060,48.340,-54.688,-45.410,26.367,294.922
1678024323.064,15.137,-54.688,-44.922,12.207,17.090
1678024323.068,15.625,-58.594,-47.363,37.109,-209.961
1678024323.070,34.668,-57.617,-47.852,67.383,-30.762
1678024323.074,47.363,-55.176,-45.898,57.617,-105.957
1678024323.078,39.551,-57.617,-46.875,30.273,-221.191
1678024323.082,32.715,-55.664,-47.852,24.414,-122.070
1678024323.086,36.133,-53.711,-48.340,52.734,32.227
1678024323.090,40.527,-57.129,-47.363,69.336,31.250
1678024323.094,47.363,-57.129,-48.828,55.664,-84.473
1678024323.097,43.945,-60.059,-53.711,23.926,-74.707
1678024323.101,27.832,-63.965,-54.199,19.531,196.777
1678024323.105,21.484,-64.453,-52.734,41.992,116.699
1678024323.109,39.551,-64.941,-52.246,61.035,-119.629
1678024323.113,54.199,-62.500,-54.199,53.223,-97.656
1678024323.115,50.293,-56.641,-56.152,25.879,-96.680
1678024323.119,37.109,-56.641,-55.664,20.996,-116.699
1678024323.123,26.367,-56.641,-53.711,51.758,-135.254
1678024323.127,32.715,-56.152,-49.805,82.520,-96.191
1678024323.131,40.527,-56.641,-48.340,78.125,-33.203
1678024323.135,34.180,-58.105,-54.199,40.527,-47.852
1678024323.139,22.461,-58.594,-57.617,18.066,-116.699
1678024323.142,17.578,-54.688,-48.828,33.203,-27.832
1678024323.146,29.297,-53.711,-42.480,68.848,430.664
1678024323.150,48.340,-55.664,-44.434,76.660,274.414
1678024323.154,50.781,-51.758,-42.969,44.434,-171.387
1678024323.158,30.762,-54.199,-41.992,18.066,-138.672
1678024323.160,14.160,-58.594,-45.898,30.762,-150.879
1678024323.164,19.531,-56.641,-43.945,67.871,-166.992
1678024323.168,41.992,-54.199,-37.598,72.754,-68.848
1678024323.172,43.457,-56.641,-40.527,32.227,-27.344
1678024323.176,30.762,-53.223,-38.086,14.648,-98.145
1678024323.180,20.508,-50.293,-34.668,36.133,-115.234
1678024323.184,14.160,-49.805,-40.527,69.336,-29.297
1678024323.187,26.367,-47.363,-40.527,82.031,233.887
1678024323.191,34.180,-49.805,-38.086,45.410,161.133
1678024323.195,32.715,-47.852,-36.133,14.648,-151.855
1678024323.199,20.508,-47.363,-39.551,25.879,-150.391
1678024323.203,14.160,-48.340,-40.039,61.035,-57.129
1678024323.205,31.738,-49.316,-38.574,69.336,-57.617
1678024323.209,37.109,-48.828,-41.016,37.109,-162.598
1678024323.213,24.414,-52.246,-41.016,15.625,-149.902
1678024323.217,17.090,-54.688,-36.621,26.855,-118.652
1678024323.221,9.766,-54.199,-33.691,57.617,-132.812
1678024323.225,16.113,-53.711,-32.227,72.266,-57.617
1678024323.229,15.625,-54.688,-29.785,40.039,141.113
1678024323.232,1.465,-59.570,-32.715,4.395,346.191
1678024323.236,-8.301,-60.547,-40.527,1.465,14.648
1678024323.240,-6.836,-58.594,-41.016,22.949,-196.777
1678024323.244,4.883,-56.641,-40.039,48.828,112.793
1678024323.248,0.488,-54.688,-47.363,32.715,47.852
1678024323.250,-2.930,-50.293,-47.363,-8.789,-271.484
1678024323.254,-11.230,-46.875,-41.504,-8.789,-215.332
1678024323.258,-24.414,-48.340,-39.551,15.625,-126.953
1678024323.262,-17.578,-50.293,-36.621,38.086,-156.738
1678024323.266,-9.277,-51.758,-35.645,17.578,-148.438
1678024323.270,-7.324,-49.316,-38.086,-24.902,-17.090
1678024323.274,-13.672,-41.016,-38.574,-16.113,176.270
1678024323.277,-20.020,-43.457,-41.016,9.277,47.852
1678024323.281,-10.742,-51.270,-41.504,26.855,-115.723
1678024323.285,9.277,-52.246,-36.621,18.555,-109.863
1678024323.289,-0.977,-52.246,-37.109,-20.020,-107.422
1678024323.293,-23.438,-52.246,-40.039,-30.273,-137.695
1678024323.296,-26.855,-52.734,-38.086,-4.395,-126.465
1678024323.300,-17.578,-55.664,-37.598,17.090,-16.602
1678024323.304,-5.859,-52.246,-40.527,5.371,7.324
1678024323.308,-7.812,-48.828,-41.016,-38.086,-145.020
1678024323.312,-16.602,-48.828,-40.039,-61.523,-250.977
1678024323.316,-29.785,-47.363,-44.922,-26.855,-53.223
1678024323.320,-29.785,-44.434,-43.457,16.113,144.043
1678024323.323,-14.648,-42.480,-38.086,6.348,24.902
1678024323.327,-11.230,-43.457,-37.109,-35.156,-138.184
1678024323.331,-24.902,-43.945,-36.621,-53.223,-28.809
1678024323.335,-35.156,-43.457,-28.809,-18.555,220.703
1678024323.339,-28.320,-42.480,-26.367,21.973,7.812
1678024323.356,-14.160,-44.434,-27.832,18.555,-129.883
1678024323.360,-15.625,-48.828,-29.785,-27.344,-99.609
1678024323.364,-27.832,-50.293,-29.785,-54.199,-146.973
1678024323.368,-28.809,-43.457,-25.879,-31.738,-187.012
1678024323.372,-36.133,-42.480,-28.320,2.930,-136.719
1678024323.376,-37.109,-43.945,-26.367,13.184,227.539
1678024323.380,-26.367,-36.621,-20.996,-21.973,188.965
1678024323.383,-29.785,-37.598,-25.391,-58.105,-153.320
1678024323.387,-41.992,-41.016,-27.832,-41.504,-121.094
1678024323.391,-40.527,-39.062,-25.879,7.812,78.613
1678024323.395,-23.438,-38.574,-22.949,22.949,-72.266
1678024323.399,-17.578,-41.504,-26.367,-11.230,-192.871
1678024323.400,-34.180,-42.969,-26.855,-55.176,-146.973
1678024323.404,-44.434,-40.039,-24.414,-49.805,-134.766
1678024323.408,-37.109,-34.668,-26.855,-3.418,-111.328
1678024323.412,-25.391,-35.156,-23.926,20.996,-84.961
1678024323.416,-20.996,-37.598,-20.996,-11.230,-84.961
1678024323.420,-35.645,-42.969,-22.949,-53.223,-58.105
1678024323.424,-57.617,-44.922,-23.438,-54.199,22.461
1678024323.427,-57.617,-41.504,-24.902,-13.672,43.457
1678024323.431,-39.062,-43.945,-26.855,17.090,117.676
1678024323.435,-24.414,-46.875,-28.809,-0.977,362.305
1678024323.439,-31.738,-49.316,-33.203,-50.293,169.922
1678024323.443,-49.805,-46.875,-36.133,-61.523,-136.230
1678024323.445,-46.387,-45.410,-37.598,-22.461,-117.188
1678024323.449,-35.645,-47.852,-38.086,6.836,-57.129
1678024323.453,-28.320,-44.922,-32.715,-15.625,-125.977
1678024323.457,-25.879,-40.039,-31.738,-62.988,-136.719
1678024323.461,-43.457,-41.504,-32.227,-64.941,-83.496
1678024323.465,-49.316,-44.434,-27.344,-20.508,-129.395
1678024323.469,-37.598,-45.898,-25.391,17.578,-35.645
1678024323.472,-25.391,-45.898,-25.879,3.906,54.199
1678024323.476,-17.578,-41.992,-21.484,-39.062,202.637
1678024323.480,-32.227,-40.527,-26.367,-55.664,154.785
1678024323.484,-45.898,-39.551,-32.227,-26.367,-130.859
1678024323.488,-38.086,-36.621,-21.973,17.578,-176.270
1678024323.490,-20.996,-36.133,-16.113,7.324,-129.883
1678024323.494,-16.602,-34.180,-19.043,-40.039,-139.648
1678024323.498,-36.621,-37.598,-20.020,-59.570,-140.137
1678024323.502,-49.316,-39.062,-20.508,-31.250,-151.367
1678024323.506,-46.875,-41.016,-22.949,7.812,-84.961
1678024323.510,-37.109,-53.223,-19.043,6.836,51.270
1678024323.514,-12.695,-50.781,-23.438,-18.555,37.598
1678024323.517,-23.926,-30.762,-34.180,-43.945,39.062
1678024323.521,-54.199,-23.926,-34.180,-26.367,246.094
1678024323.525,-55.176,-18.555,-39.062,-0.977,176.758
1678024323.529,-50.293,-10.742,-41.504,-25.391,-39.062
1678024323.533,-53.711,-4.395,-41.016,-82.031,21.973
1678024323.535,-66.406,3.418,-48.828,-120.117,4.395
1678024323.539,-77.148,4.395,-52.734,-96.680,-172.363
1678024323.543,-79.590,1.465,-54.199,-49.805,-123.535
1678024323.547,-61.035,6.348,-62.012,-43.945,-7.324
1678024323.551,-61.523,11.230,-64.453,-101.562,-111.328
1678024323.555,-82.520,11.230,-64.453,-138.184,-198.730
1678024323.559,-90.332,13.184,-68.848,-104.980,9.766
1678024323.562,-83.984,17.578,-73.242,-51.758,279.297
1678024323.566,-63.477,18.066,-77.148,-50.293,100.098
1678024323.570,-43.945,20.020,-80.078,-95.215,-153.320
1678024323.574,-47.852,25.879,-83.008,-129.883,-169.922
1678024323.578,-55.176,18.555,-83.008,-105.957,-55.176
1678024323.581,-57.129,9.766,-86.914,-58.594,38.574
1678024323.585,-46.387,3.906,-92.285,-50.293,-26.855
1678024323.589,-28.320,-1.465,-88.867,-74.219,-15.625
1678024323.593,-25.879,1.465,-85.449,-109.863,-25.879
1678024323.597,-39.551,0.000,-83.984,-106.934,-165.039
1678024323.601,-41.992,-2.441,-79.102,-36.133,-151.855
1678024323.605,-22.949,-1.465,-74.219,15.625,92.285
1678024323.608,-9.766,-1.465,-65.430,-16.602,434.570
1678024323.612,-17.090,-7.812,-63.477,-79.102,87.891
1678024323.616,-26.367,-11.230,-64.941,-71.777,-214.355
1678024323.620,-32.715,-10.742,-59.570,-14.160,-4.395
1678024323.624,-26.367,-13.184,-53.223,19.043,69.336
1678024323.626,-12.695,-16.602,-51.270,-19.531,-33.691
1678024323.630,-11.719,-20.020,-53.223,-76.172,-61.523
1678024323.634,-20.996,-21.973,-51.270,-70.312,50.781
1678024323.638,-33.691,-25.391,-49.805,-23.438,9.277
1678024323.642,-28.320,-26.855,-48.340,9.277,-127.930
1678024323.646,-6.348,-25.879,-42.969,-6.836,42.969
1678024323.650,-5.371,-24.414,-41.504,-47.852,304.199
1678024323.653,-22.949,-19.531,-46.875,-71.289,80.078
1678024323.657,-25.879,-20.020,-49.316,-40.039,-193.848
1678024323.661,-16.602,-17.578,-44.434,10.254,-52.734
1678024323.665,0.488,-13.672,-40.039,3.418,2.441
1678024323.669,1.953,-19.043,-41.992,-51.270,-141.602
1678024323.670,-7.324,-23.438,-41.016,-73.730,-192.383
1678024323.674,-18.555,-22.461,-40.039,-31.738,-110.352
1678024323.678,-23.438,-28.320,-41.504,11.719,-66.406
1678024323.682,-8.789,-34.668,-41.016,6.348,-63.965
1678024323.686,4.395,-28.809,-37.109,-43.457,-80.078
1678024323.690,-4.883,-22.461,-35.156,-73.730,70.801
1678024323.694,-24.902,-26.855,-36.621,-36.621,327.148
1678024323.697,-21.484,-31.738,-38.574,16.113,143.066
1678024323.701,-6.836,-33.203,-37.598,16.602,3.906
1678024323.705,-4.395,-31.250,-33.691,-36.621,45.898
1678024323.709,-14.648,-27.344,-33.203,-70.312,79.102
1678024323.713,-30.273,-27.832,-34.668,-42.969,-126.953
1678024323.730,-27.344,-29.297,-34.180,10.254,-148.438
1678024323.734,-14.160,-30.273,-31.250,20.020,-76.660
1678024323.738,-12.207,-36.133,-31.738,-24.902,-116.211
1678024323.742,-14.648,-36.621,-31.250,-58.105,-217.773
1678024323.746,-35.645,-36.133,-32.715,-41.992,-180.664
1678024323.750,-40.039,-36.621,-35.156,13.184,39.062
1678024323.754,-15.137,-31.250,-31.250,36.621,79.102
1678024323.757,-6.836,-31.738,-27.344,-8.789,-38.574
1678024323.761,-22.461,-33.203,-28.320,-56.152,-83.496
1678024323.765,-34.180,-37.598,-30.273,-38.086,189.941
1678024323.769,-37.598,-37.109,-28.320,13.672,125.977
1678024323.773,-27.832,-34.668,-29.297,28.809,-99.609
1678024323.775,-20.508,-40.039,-33.203,-11.719,-78.613
1678024323.779,-22.949,-34.180,-30.762,-58.105,-100.586
1678024323.783,-37.598,-30.273,-29.785,-55.176,-124.023
1678024323.787,-43.457,-32.227,-32.227,-0.977,-122.070
1678024323.791,-24.414,-33.203,-32.715,28.320,-50.781
1678024323.795,-10.742,-36.133,-34.180,-9.277,0.488
1678024323.799,-26.367,-37.598,-34.180,-59.082,-6.836
1678024323.802,-47.852,-34.668,-33.691,-56.641,-18.066
1678024323.806,-54.199,-32.227,-33.203,0.000,41.504
1678024323.810,-44.434,-37.109,-32.715,35.156,321.777
1678024323.814,-26.367,-35.156,-30.273,-3.906,155.762
1678024323.818,-18.555,-33.691,-30.273,-67.871,-170.410
1678024323.820,-32.227,-33.691,-29.297,-70.801,-145.996
1678024323.824,-40.527,-31.738,-31.250,-20.508,-165.039
1678024323.828,-35.156,-37.598,-35.645,19.043,-177.734
1678024323.832,-23.438,-37.598,-35.645,0.977,-132.812
1678024323.836,-24.902,-36.621,-35.645,-51.758,-92.285
1678024323.840,-30.762,-35.645,-34.668,-58.594,-47.363
1678024323.844,-35.645,-33.203,-29.297,-15.137,-43.945
1678024323.847,-38.574,-35.156,-32.227,21.484,-64.941
1678024323.851,-23.438,-36.133,-33.691,10.254,99.609
1678024323.855,-20.996,-38.086,-26.855,-43.945,27.832
1678024323.859,-38.574,-39.551,-27.344,-72.266,-214.844
1678024323.863,-47.852,-38.574,-28.320,-33.691,-95.215
1678024323.865,-44.922,-41.992,-27.832,14.160,43.945
1678024323.869,-26.855,-42.480,-26.855,-5.371,-20.996
1678024323.873,-21.973,-40.527,-31.250,-65.918,-84.961
1678024323.877,-37.598,-37.109,-32.715,-91.309,-167.969
1678024323.881,-48.828,-36.133,-30.273,-59.082,-148.438
1678024323.885,-46.387,-41.016,-31.250,-7.812,-45.898
1678024323.889,-26.855,-37.109,-30.273,-3.906,-33.691
1678024323.892,-20.020,-20.020,-20.508,-50.781,7.324
1678024323.896,-46.387,-23.438,-18.555,-88.867,274.414
1678024323.900,-77.148,-24.414,-20.508,-82.520,130.859
1678024323.904,-81.543,-18.555,-23.438,-41.504,-144.531
1678024323.908,-79.102,-25.391,-28.809,-39.551,-76.172
1678024323.911,-83.984,-10.742,-16.602,-97.656,-81.543
1678024323.915,-112.793,3.906,-7.812,-167.480,-197.266
1678024323.919,-155.762,6.836,-17.090,-170.898,-104.492
1678024323.923,-186.523,6.348,-21.973,-144.531,21.973
1678024323.927,-196.777,4.395,-14.160,-159.668,-22.949
1678024323.931,-202.637,19.531,0.000,-217.773,-8.301
1678024323.935,-261.230,21.973,7.812,-314.941,-14.160
1678024323.938,-322.754,28.809,12.207,-335.938,76.660
1678024323.942,-319.336,41.992,3.418,-279.785,14.160
1678024323.946,-304.199,26.855,3.906,-269.043,-195.801
1678024323.950,-293.457,26.367,20.996,-300.293,-254.883
1678024323.954,-301.270,32.715,20.508,-352.539,-174.316
1678024323.955,-316.406,24.902,16.602,-339.844,-133.789
1678024323.959,-307.617,28.320,12.207,-267.578,-166.992
1678024323.963,-293.945,22.949,9.277,-245.117,-138.672
1678024323.967,-270.508,20.020,10.254,-270.508,-64.453
1678024323.971,-254.883,20.508,7.812,-311.035,-25.879
1678024323.975,-257.812,14.648,8.301,-301.270,-114.258
1678024323.979,-252.441,11.719,5.371,-233.398,30.762
1678024323.982,-234.375,8.301,-0.977,-183.105,460.449
1678024323.986,-212.891,9.766,-2.441,-205.078,295.410
1678024323.990,-197.266,9.277,-9.277,-249.512,-119.141
1678024323.994,-195.801,-0.488,-14.648,-233.398,-143.555
1678024323.998,-187.012,-3.906,-12.695,-160.156,-132.324
1678024324.000,-156.250,-3.906,-20.508,-108.887,-150.879
1678024324.004,-119.141,-7.812,-28.320,-123.047,-97.656
1678024324.008,-105.469,-13.184,-24.414,-153.320,-41.016
1678024324.012,-104.004,-17.578,-26.855,-143.555,-120.605
1678024324.016,-109.375,-18.066,-38.574,-102.051,-239.746
1678024324.020,-88.867,-23.926,-37.109,-44.434,-78.613
1678024324.024,-56.641,-25.879,-32.227,-30.762,255.371
1678024324.027,-55.664,-28.809,-38.086,-88.379,143.555
1678024324.031,-66.406,-30.762,-43.457,-113.281,-147.949
1678024324.035,-69.824,-32.227,-43.457,-67.383,-111.328
1678024324.039,-59.570,-37.109,-43.945,-1.465,86.914
1678024324.043,-38.574,-38.086,-46.387,-2.930,-9.277
1678024324.045,-31.250,-40.527,-48.828,-63.477,-165.527
1678024324.049,-39.062,-47.363,-51.270,-78.125,-150.879
1678024324.053,-48.340,-52.734,-53.711,-40.527,-133.789
1678024324.057,-41.504,-54.199,-52.734,7.324,-106.934
1678024324.061,-20.996,-55.176,-54.688,17.090,-111.816
1678024324.065,1.465,-54.199,-54.199,-24.902,-58.105
1678024324.069,4.883,-52.246,-55.664,-49.805,-9.277
1678024324.072,-1.953,-50.781,-56.641,-20.020,-7.324
1678024324.076,4.395,-52.246,-49.805,28.809,-4.883
1678024324.080,20.508,-52.734,-47.852,40.527,28.809
1678024324.084,34.180,-52.734,-53.711,3.418,240.234
1678024324.088,34.180,-54.199,-55.664,-37.598,-20.508
1678024324.105,19.531,-53.223,-52.734,-9.277,-257.324
1678024324.109,15.625,-49.805,-50.781,40.527,-82.031
1678024324.113,36.133,-49.805,-53.223,57.129,-75.195
1678024324.117,51.758,-50.781,-53.223,29.785,-143.066
1678024324.121,49.316,-50.781,-49.805,-11.230,-113.281
1678024324.125,42.480,-51.270,-48.340,2.930,-24.902
1678024324.129,34.180,-46.387,-44.922,64.941,-16.602
1678024324.132,47.363,-44.434,-41.504,89.355,-69.824
1678024324.136,70.801,-45.898,-42.480,46.387,-104.980
1678024324.140,63.965,-47.363,-42.969,4.395,85.938
1678024324.144,46.875,-47.363,-45.410,5.371,7.812
1678024324.148,44.922,-41.504,-45.410,51.270,-124.512
1678024324.150,57.129,-40.039,-47.363,88.867,-43.457
1678024324.154,72.266,-39.551,-47.852,64.941,43.457
1678024324.158,73.242,-38.574,-43.457,13.184,-99.609
1678024324.162,62.500,-37.109,-40.039,14.648,-229.492
1678024324.166,45.410,-35.156,-35.645,65.430,-129.395
1678024324.170,42.969,-36.133,-35.156,96.680,12.207
1678024324.174,59.570,-35.156,-35.645,73.730,35.156
1678024324.177,69.336,-36.621,-35.156,24.902,-52.734
1678024324.181,48.828,-39.062,-35.156,16.113,5.859
1678024324.185,30.273,-43.945,-33.203,58.105,257.324
1678024324.189,46.875,-41.504,-29.785,91.309,89.355
1678024324.193,58.105,-36.621,-30.762,74.219,-95.215
1678024324.196,47.363,-37.598,-30.273,21.484,-15.137
1678024324.200,35.645,-35.156,-30.762,-0.488,-25.879
1678024324.204,28.809,-33.691,-32.227,38.574,-143.066
1678024324.208,31.250,-38.086,-35.645,79.590,-162.598
1678024324.212,43.945,-40.039,-35.156,72.754,31.250
1678024324.216,48.828,-40.527,-29.297,13.672,24.414
1678024324.220,38.574,-44.922,-31.250,-22.461,-17.578
1678024324.223,34.180,-45.410,-32.715,12.207,-21.973
1678024324.227,23.926,-42.969,-29.297,60.059,157.227
1678024324.231,25.391,-40.527,-30.762,56.152,122.070
1678024324.235,45.898,-35.645,-34.180,3.906,-103.027
1678024324.239,28.320,-35.156,-39.551,-27.344,-121.094
1678024324.240,10.254,-35.156,-43.945,-5.859,-107.422
1678024324.244,10.254,-36.621,-46.875,35.645,-108.887
1678024324.248,21.484,-38.086,-43.945,50.293,-161.621
1678024324.252,38.574,-38.574,-40.527,8.789,-98.633
1678024324.256,34.668,-36.133,-41.016,-28.320,-108.887
1678024324.260,24.414,-33.203,-36.621,-1.953,-123.047
1678024324.264,26.367,-35.645,-37.598,45.410,-90.820
1678024324.267,35.645,-30.762,-43.945,54.688,42.969
1678024324.271,40.039,-28.809,-44.434,20.508,341.797
1678024324.275,39.551,-30.273,-38.574,-30.273,126.953
1678024324.279,30.762,-31.250,-35.156,-22.949,-156.738
1678024324.283,23.438,-31.738,-34.668,38.086,-46.875
1678024324.285,36.133,-28.320,-34.180,60.059,-38.574
1678024324.289,44.434,-28.320,-29.785,26.855,-102.539
1678024324.293,35.645,-26.367,-25.391,-17.578,-141.602
1678024324.297,16.113,-23.926,-28.809,-22.461,-138.672
1678024324.301,7.812,-20.996,-21.973,22.949,-86.914
1678024324.305,15.625,-21.973,-20.996,52.246,-36.133
1678024324.309,20.508,-27.344,-25.391,23.438,-30.762
1678024324.312,10.742,-31.738,-22.949,-14.648,203.125
1678024324.316,-8.789,-32.227,-24.902,-19.043,156.738
1678024324.320,-20.508,-31.250,-26.855,5.371,-124.023
1678024324.324,-0.488,-34.180,-29.297,46.875,-93.750
1678024324.328,33.691,-29.297,-20.508,33.691,-91.797
1678024324.330,10.742,-29.297,-11.230,-40.527,-142.578
1678024324.334,-36.621,-33.203,-16.113,-62.012,-200.195
1678024324.338,-73.730,-33.203,-25.391,-38.574,-167.480
1678024324.342,-76.172,-38.574,-23.438,-5.859,-97.656
1678024324.346,-55.664,-39.062,-20.020,-22.461,-91.309
1678024324.350,-57.129,-41.016,-25.879,-91.797,-152.832
1678024324.354,-79.102,-44.922,-27.344,-115.234,-38.574
1678024324.357,-94.727,-44.434,-27.832,-76.172,249.023
1678024324.361,-87.402,-45.898,-33.691,-36.621,62.988
1678024324.365,-78.613,-52.734,-33.691,-52.734,-186.523
1678024324.369,-76.172,-52.734,-25.391,-93.262,-20.020
1678024324.373,-75.195,-49.316,-21.484,-104.980,42.969
1678024324.375,-74.707,-47.363,-30.273,-69.336,-196.777
1678024324.379,-62.500,-46.387,-30.762,-10.254,-178.711
1678024324.383,-47.852,-51.270,-27.832,-4.395,-72.266
1678024324.387,-33.691,-48.828,-29.297,-59.570,-104.492
1678024324.391,-33.203,-47.852,-28.809,-90.820,-195.312
1678024324.395,-47.363,-49.316,-34.668,-42.480,-60.547
1678024324.399,-46.875,-51.270,-33.203,15.625,210.938
1678024324.402,-32.227,-54.199,-28.809,9.766,29.785
1678024324.406,-17.578,-53.223,-31.250,-32.715,-179.199
1678024324.410,-20.508,-49.805,-30.273,-42.969,-163.574
1678024324.414,-27.832,-46.387,-26.855,-8.789,-43.945
1678024324.418,-23.926,-42.480,-27.344,36.133,-52.734
1678024324.421,-6.348,-38.574,-26.855,53.711,-147.461
1678024324.425,4.395,-39.551,-29.785,13.184,-65.918
1678024324.429,-5.859,-43.457,-29.785,-28.320,-15.137
1678024324.433,-27.832,-45.898,-23.926,-0.488,-133.789
1678024324.437,-30.762,-45.898,-24.902,60.547,-225.586
1678024324.441,-21.973,-47.852,-31.250,75.684,-9.766
1678024324.445,-15.137,-46.387,-30.273,42.480,203.613
1678024324.448,-5.371,-44.922,-25.391,7.812,-31.738
1678024324.452,-25.391,-44.434,-31.250,5.859,-144.043
1678024324.456,-34.180,-45.898,-30.762,51.270,56.641
1678024324.460,-7.812,-42.480,-22.461,86.914,154.297
1678024324.464,12.207,-34.668,-19.531,57.129,-70.312
1678024324.480,10.254,-27.344,-17.578,18.555,-104.492
1678024324.484,-0.488,-25.879,-17.578,16.602,30.273
1678024324.488,-4.883,-27.344,-18.555,58.594,-7.812
1678024324.492,4.883,-24.414,-21.484,84.961,-98.145
1678024324.496,10.742,-25.879,-26.367,56.152,-59.082
1678024324.500,10.742,-28.320,-25.879,22.461,131.836
1678024324.504,2.441,-28.320,-27.832,0.977,59.082
1678024324.507,2.930,-36.133,-34.668,39.062,-138.672
1678024324.511,31.738,-40.527,-20.996,104.492,-53.223
1678024324.515,16.113,-33.691,-10.742,64.941,119.141
1678024324.519,-5.371,-30.762,-15.137,-0.977,8.789
1678024324.523,-17.578,-39.062,-15.625,-6.836,-90.820
1678024324.525,-41.992,-41.504,-13.184,23.438,-70.312
1678024324.529,-50.293,-37.109,-5.859,58.594,-68.848
1678024324.533,-35.156,-39.551,-3.906,43.945,-45.898
1678024324.537,-27.832,-41.504,-4.395,-11.230,-19.531
1678024324.541,-51.758,-41.992,1.953,-36.133,-44.434
1678024324.545,-69.336,-39.062,3.418,-5.371,-48.828
1678024324.549,-62.012,-38.086,1.953,31.250,-41.504
1678024324.552,-45.898,-40.039,4.395,34.180,-11.230
1678024324.556,-37.109,-38.086,0.000,-2.441,49.805
1678024324.560,-41.504,-35.156,-5.859,-19.043,266.602
1678024324.564,-50.781,-35.156,-10.254,19.043,103.027
1678024324.568,-46.387,-33.203,-15.137,64.941,-69.824
1678024324.570,-21.973,-34.180,-17.578,70.801,62.012
1678024324.574,-5.859,-35.645,-16.602,36.133,4.395
1678024324.578,-20.996,-34.668,-17.090,9.277,-131.348
1678024324.582,-40.039,-38.086,-14.160,36.621,-104.980
1678024324.586,-38.574,-37.598,-14.160,77.637,11.719
1678024324.590,-16.113,-36.621,-18.066,77.148,58.105
1678024324.594,-4.395,-34.668,-17.090,38.574,31.250
1678024324.597,-12.695,-28.809,-20.996,10.742,31.250
1678024324.601,-26.367,-28.320,-26.855,33.691,256.348
1678024324.605,-19.043,-29.785,-21.484,79.102,168.945
1678024324.609,-4.883,-32.227,-23.438,90.820,-126.465
1678024324.613,3.418,-33.691,-26.367,62.500,-137.695
1678024324.615,0.488,-30.762,-21.973,28.320,-79.590
1678024324.619,-8.789,-27.344,-18.555,39.551,-86.426
1678024324.623,-6.348,-24.414,-19.043,83.008,-154.297
1678024324.627,0.488,-25.879,-23.438,94.727,-121.582
1678024324.631,14.160,-26.855,-20.996,65.430,-106.934
1678024324.635,14.160,-23.438,-20.996,26.855,-118.164
1678024324.639,2.441,-22.461,-25.391,29.297,-51.270
1678024324.642,-10.254,-20.020,-25.391,55.176,33.203
1678024324.646,-4.395,-17.578,-27.832,78.125,373.535
1678024324.650,14.648,-20.996,-34.668,57.617,204.102
1678024324.654,16.602,-21.484,-35.645,15.625,-154.297
1678024324.658,7.812,-20.020,-32.715,20.996,-39.062
1678024324.660,0.977,-19.043,-33.691,53.223,-34.668
1678024324.664,6.348,-17.090,-36.133,66.895,-85.449
1678024324.668,19.043,-19.043,-34.180,53.223,-41.016
1678024324.672,16.602,-19.531,-32.227,19.531,-44.922
1678024324.676,-0.488,-17.090,-33.691,2.441,-95.215
1678024324.680,-9.277,-19.531,-31.250,40.527,-42.480
1678024324.684,-14.648,-28.320,-34.180,74.219,66.406
1678024324.687,-10.742,-32.715,-35.645,59.570,220.703
1678024324.691,-3.418,-24.414,-32.227,8.789,73.730
1678024324.695,-13.672,-20.020,-32.715,-18.555,-166.504
1678024324.699,-29.297,-24.902,-33.203,7.324,-133.789
1678024324.703,-26.855,-24.414,-33.203,41.016,-30.273
1678024324.705,-11.719,-27.344,-31.250,37.598,-68.848
1678024324.709,-18.066,-32.227,-27.832,0.488,-117.676
1678024324.713,-31.250,-29.785,-24.902,-21.484,-117.676
1678024324.717,-37.598,-28.320,-28.320,0.000,-102.539
1678024324.721,-39.551,-25.879,-23.926,41.504,-124.512
1678024324.725,-21.484,-30.762,-18.555,42.969,-139.160
1678024324.729,-11.230,-34.180,-24.902,4.883,77.148
1678024324.732,-25.391,-30.762,-25.391,-20.020,312.012
1678024324.736,-38.574,-26.855,-24.902,-7.324,22.949
1678024324.740,-36.621,-25.391,-27.344,21.484,-113.281
1678024324.744,-23.926,-26.855,-28.809,28.320,44.434
1678024324.748,-6.836,-23.438,-28.320,0.000,-10.742
1678024324.751,-10.742,-24.902,-29.785,-35.645,-81.055
1678024324.755,-30.273,-28.320,-28.320,-32.715,-118.652
1678024324.759,-34.668,-26.855,-25.879,5.859,-27.832
1678024324.763,-19.531,-26.367,-24.902,19.043,-83.496
1678024324.767,4.395,-21.973,-24.902,-9.766,-184.570
1678024324.771,-5.859,-19.531,-28.320,-40.527,-62.988
1678024324.775,-32.715,-24.902,-29.785,-28.320,172.363
1678024324.778,-36.621,-24.902,-30.762,3.906,117.676
1678024324.782,-18.555,-19.531,-30.762,12.207,-92.773
1678024324.786,-7.324,-20.996,-26.855,-13.184,-31.738
1678024324.790,-17.090,-20.020,-28.320,-48.340,47.852
1678024324.794,-26.367,-17.090,-30.762,-43.945,0.977
1678024324.811,-39.551,-15.137,-23.926,-8.789,-42.969
1678024324.815,-41.016,-16.602,-22.949,0.488,-34.180
1678024324.819,-28.809,-12.207,-13.672,-21.484,-57.617
1678024324.823,-46.387,-10.742,-12.207,-70.312,-98.633
1678024324.827,-79.102,-17.090,-19.043,-90.820,-156.250
1678024324.831,-94.238,-12.207,-13.184,-58.594,-5.859
1678024324.835,-97.168,-10.254,-12.695,-41.992,325.684
1678024324.838,-107.910,-10.254,-20.020,-85.938,155.273
1678024324.842,-131.836,-5.859,-6.348,-134.766,-141.602
1678024324.846,-176.270,-3.906,18.555,-146.973,-23.926
1678024324.850,-218.750,5.859,23.926,-153.320,166.016
1678024324.854,-242.676,-4.395,21.973,-173.340,-56.152
1678024324.855,-241.211,-3.906,27.832,-191.895,-121.582
1678024324.859,-248.047,-0.488,39.551,-236.328,-40.527
1678024324.863,-281.250,-11.719,48.828,-278.320,-124.023
1678024324.867,-306.641,-11.230,54.688,-259.766,-130.371
1678024324.871,-302.246,-15.625,64.941,-229.980,-56.641
1678024324.875,-291.992,-17.578,70.801,-246.094,34.668
1678024324.879,-291.992,-14.648,72.266,-274.902,-10.254
1678024324.882,-296.875,-13.184,78.125,-279.785,-80.078
1678024324.886,-299.316,-20.508,79.102,-252.441,-101.562
1678024324.890,-274.414,-27.832,82.520,-194.336,176.758
1678024324.894,-252.441,-29.785,84.473,-190.430,141.113
1678024324.898,-243.652,-34.180,77.148,-235.352,-122.559
1678024324.900,-234.863,-36.133,74.707,-232.910,-103.516
1678024324.904,-241.699,-39.551,76.660,-203.125,-61.035
1678024324.908,-242.188,-50.781,73.242,-173.828,-57.617
1678024324.912,-219.727,-54.199,63.965,-165.527,-99.121
1678024324.916,-192.383,-48.828,61.035,-188.965,-106.934
1678024324.920,-186.035,-51.758,64.941,-199.707,-88.379
1678024324.924,-192.383,-62.988,64.941,-166.992,-91.797
1678024324.927,-177.246,-61.523,60.547,-108.398,-82.031
1678024324.931,-141.602,-61.035,55.176,-87.402,84.473
1678024324.935,-119.629,-72.754,51.758,-106.934,351.562
1678024324.939,-118.164,-76.660,50.293,-119.629,173.340
1678024324.943,-119.141,-79.590,44.434,-88.379,-127.930
1678024324.945,-93.750,-86.426,33.691,-38.086,-107.910
1678024324.949,-69.336,-88.379,32.715,-14.160,-97.168
1678024324.953,-63.965,-88.379,28.320,-39.062,-179.199
1678024324.957,-61.523,-91.309,20.020,-57.617,-152.344
1678024324.961,-58.105,-96.680,15.137,-33.203,-36.133
1678024324.965,-57.617,-95.215,8.301,13.672,26.367
1678024324.969,-50.781,-94.727,7.324,33.203,-8.789
1678024324.972,-23.438,-100.586,3.906,20.020,-49.316
1678024324.976,3.906,-94.238,-1.953,12.695,112.793
1678024324.980,-12.695,-85.938,-6.348,4.883,45.898
1678024324.984,-33.691,-89.844,-13.184,35.156,-94.238
1678024324.988,0.000,-86.426,-20.020,78.613,-45.898
1678024324.990,26.367,-80.078,-21.484,63.477,42.480
1678024324.994,12.207,-80.078,-26.855,11.719,-88.379
1678024324.998,6.348,-79.102,-35.156,11.719,-207.520
1678024325.002,9.766,-72.266,-37.598,57.129,-162.598
1678024325.006,12.207,-70.801,-40.039,70.312,-138.672
1678024325.010,37.598,-74.707,-47.852,56.641,-31.738
1678024325.014,62.500,-68.848,-47.852,38.574,-74.707
1678024325.017,49.316,-57.617,-46.387,32.227,40.527
1678024325.021,39.551,-50.293,-51.270,69.336,378.418
1678024325.025,55.664,-44.922,-59.570,100.098,100.098
1678024325.029,75.684,-41.016,-61.035,96.680,-82.031
1678024325.033,73.730,-40.527,-60.059,69.336,0.000
1678024325.035,70.312,-41.016,-62.988,62.012,-10.742
1678024325.039,62.988,-40.039,-61.035,95.215,-55.176
1678024325.043,62.500,-43.457,-61.035,121.582,-109.375
1678024325.047,84.961,-44.922,-65.918,112.305,22.461
1678024325.051,82.031,-35.645,-65.918,68.848,-27.832
1678024325.055,63.965,-31.250,-62.988,44.922,-92.285
1678024325.059,49.316,-34.668,-65.918,66.895,35.645
1678024325.062,44.922,-38.086,-70.312,97.168,241.211
1678024325.066,56.152,-40.527,-72.754,72.754,144.531
1678024325.070,62.500,-39.551,-71.777,29.297,-122.559
1678024325.074,46.875,-41.992,-70.312,20.996,-123.047
1678024325.078,27.344,-42.969,-68.848,37.109,-95.215
1678024325.081,21.973,-45.410,-67.871,57.617,-140.625
1678024325.085,27.832,-48.340,-66.406,59.570,-122.559
1678024325.089,36.133,-44.922,-60.547,38.086,13.184
1678024325.093,22.461,-43.945,-59.570,10.254,-9.277
1678024325.097,2.930,-45.410,-56.641,20.020,-120.117
1678024325.101,6.836,-37.109,-50.781,54.688,-117.188
1678024325.105,20.020,-38.086,-53.223,62.988,69.824
1678024325.108,33.691,-43.945,-54.199,45.898,347.656
1678024325.112,31.738,-41.992,-53.223,16.113,94.727
1678024325.116,9.277,-39.062,-54.199,13.184,-173.828
1678024325.120,12.207,-34.668,-53.223,44.434,-104.004
1678024325.124,38.574,-34.180,-55.176,56.641,-115.723
1678024325.125,44.434,-34.180,-57.129,25.391,-173.828
1678024325.129,39.062,-31.738,-56.152,-5.371,-119.629
1678024325.133,30.273,-31.738,-57.129,0.488,-49.316
1678024325.137,21.484,-33.203,-54.688,20.996,-104.004
1678024325.141,29.785,-31.250,-51.758,36.621,-114.746
1678024325.145,40.039,-30.762,-53.711,26.367,34.668
1678024325.149,26.855,-33.203,-51.270,4.395,294.922
1678024325.152,3.418,-30.762,-48.340,6.348,231.445
1678024325.156,-0.488,-28.809,-48.340,28.320,-47.852
1678024325.160,12.207,-28.320,-48.828,46.387,-19.531
1678024325.164,22.949,-29.297,-50.781,30.273,31.738
1678024325.168,14.160,-29.297,-52.734,-7.324,-82.031
1678024325.170,-5.371,-27.832,-52.734,-22.949,-109.863
1678024325.174,-15.137,-31.738,-56.641,-4.883,-25.879
1678024325.178,-7.812,-35.645,-58.105,20.508,-15.137
1678024325.182,1.465,-38.086,-60.547,-0.488,-55.176
1678024325.186,0.488,-42.969,-61.523,-39.062,-96.680
1678024325.190,-13.184,-40.527,-55.176,-32.715,-35.645
1678024325.194,-21.973,-36.621,-50.781,0.000,63.965
1678024325.197,-5.371,-27.344,-44.434,28.809,17.090
1678024325.201,1.953,-20.020,-44.434,20.508,-9.766
1678024325.205,-3.906,-23.926,-46.875,-22.949,23.438
1678024325.209,-15.137,-27.344,-46.875,-37.109,183.594
1678024325.213,-23.438,-30.762,-47.852,-20.020,-78.613
1678024325.230,-14.648,-34.668,-45.898,10.254,-138.672
1678024325.234,-5.859,-36.133,-46.387,7.812,-30.273
1678024325.238,-16.602,-34.180,-46.875,-30.762,-125.488
1678024325.242,-31.738,-30.762,-39.551,-53.711,-150.391
1678024325.246,-39.062,-31.250,-38.086,-38.574,-104.980
1678024325.250,-34.668,-36.133,-42.969,-11.719,38.574
1678024325.254,-18.555,-36.621,-39.062,-22.949,29.785
1678024325.257,-10.742,-34.668,-36.621,-54.199,-126.953
1678024325.261,-30.762,-40.527,-39.062,-68.848,-91.797
1678024325.265,-42.969,-46.875,-38.086,-41.016,224.609
1678024325.269,-21.484,-42.480,-35.645,4.395,139.648
1678024325.273,-5.371,-28.320,-37.109,-4.395,-67.871
1678024325.275,-3.418,-24.902,-36.621,-44.922,-63.477
1678024325.279,-2.441,-28.320,-39.062,-60.547,-86.426
1678024325.283,-14.160,-29.297,-43.457,-31.738,-76.172
1678024325.287,-7.812,-30.273,-41.992,2.930,-112.305
1678024325.291,20.996,-23.438,-40.039,7.324,-31.250
1678024325.295,24.902,-24.414,-44.922,-23.438,42.480
1678024325.299,5.371,-25.879,-41.016,-60.547,-37.109
1678024325.302,-9.766,-24.902,-38.086,-52.734,-108.887
1678024325.306,-6.836,-28.320,-34.668,-9.277,-5.371
1678024325.310,0.977,-30.273,-34.180,12.695,303.223
1678024325.314,-0.977,-38.574,-37.109,-29.785,69.336
1678024325.318,-9.277,-41.016,-33.691,-62.500,-168.457
1678024325.320,-22.949,-32.227,-29.297,-45.410,21.484
1678024325.324,-27.344,-33.203,-31.738,-18.555,-34.180
1678024325.328,-12.207,-35.645,-34.180,1.953,-185.547
1678024325.332,-11.230,-38.086,-34.180,-17.090,-132.324
1678024325.336,-18.066,-37.109,-34.668,-51.758,-83.984
1678024325.340,-37.109,-33.691,-36.133,-53.223,-58.594
1678024325.344,-45.410,-35.645,-35.156,-21.484,-32.227
1678024325.347,-29.785,-35.645,-35.645,-8.301,-25.391
1678024325.351,-17.090,-29.785,-34.668,-27.344,187.500
1678024325.355,-22.949,-29.297,-29.297,-61.523,74.707
1678024325.359,-35.645,-32.715,-28.809,-65.918,-163.086
1678024325.363,-44.434,-33.203,-27.832,-34.180,-96.680
1678024325.366,-43.945,-33.203,-30.762,-21.973,-61.035
1678024325.370,-30.762,-34.180,-30.273,-37.109,-79.590
1678024325.374,-30.762,-32.715,-29.785,-69.336,-46.387
1678024325.378,-46.387,-38.574,-30.762,-73.730,-63.965
1678024325.382,-50.293,-36.133,-26.855,-42.480,-69.336
1678024325.386,-42.969,-31.250,-28.320,-19.043,-28.320
1678024325.390,-20.996,-32.227,-28.809,-26.855,-28.320
1678024325.393,-20.508,-29.297,-24.414,-63.477,9.766
1678024325.397,-36.621,-25.391,-23.438,-73.242,261.230
1678024325.401,-40.527,-33.203,-27.344,-46.875,93.262
1678024325.405,-36.621,-37.598,-23.926,-25.879,-109.375
1678024325.409,-27.344,-36.621,-24.414,-39.062,20.508
1678024325.410,-24.414,-41.504,-30.762,-81.055,-61.523
1678024325.414,-35.645,-40.039,-28.809,-93.750,-190.918
1678024325.418,-51.270,-42.969,-31.738,-71.777,-150.879
1678024325.422,-44.922,-46.875,-32.227,-39.551,-37.598
1678024325.426,-28.320,-43.457,-29.297,-25.391,49.316
1678024325.430,-30.762,-38.574,-32.227,-68.848,-30.273
1678024325.434,-50.781,-37.109,-29.785,-100.098,-123.535
1678024325.437,-61.035,-42.480,-25.391,-65.430,145.996
1678024325.441,-50.781,-42.969,-31.250,-28.320,183.594
1678024325.445,-34.180,-41.992,-40.039,-39.062,-114.258
1678024325.449,-29.297,-41.016,-33.691,-69.336,-134.766
1678024325.453,-40.039,-40.039,-30.762,-92.285,-177.734
1678024325.455,-47.852,-40.527,-29.785,-72.266,-219.238
1678024325.459,-57.129,-40.527,-27.344,-26.855,-189.941
1678024325.463,-45.898,-40.039,-26.855,-20.020,-138.672
1678024325.467,-36.621,-40.039,-22.461,-52.246,-80.566
1678024325.471,-40.527,-33.691,-18.066,-77.148,-117.188
1678024325.475,-53.223,-32.227,-17.090,-67.383,-133.789
1678024325.479,-62.500,-38.086,-23.926,-40.039,5.371
1678024325.482,-50.781,-34.668,-22.949,-20.508,333.984
1678024325.486,-45.410,-32.715,-20.996,-43.945,157.715
1678024325.490,-55.176,-32.227,-20.508,-87.891,-139.160
1678024325.494,-69.336,-33.203,-23.438,-79.590,-13.672
1678024325.498,-75.195,-36.621,-28.809,-41.016,118.164
1678024325.500,-62.012,-40.039,-30.273,-35.156,-48.340
1678024325.504,-52.734,-42.480,-31.250,-61.523,-61.035
1678024325.508,-67.383,-46.875,-37.598,-108.887,-57.129
1678024325.512,-79.590,-41.504,-35.156,-108.398,-95.215
1678024325.516,-84.961,-38.086,-29.785,-64.941,-91.797
1678024325.520,-65.918,-39.551,-26.367,-37.109,-0.488
1678024325.524,-36.621,-33.203,-17.090,-47.852,273.438
1678024325.527,-38.574,-36.621,-20.020,-88.867,73.242
1678024325.531,-58.105,-41.016,-22.461,-98.633,-248.535
1678024325.535,-58.594,-40.527,-23.438,-58.594,-73.242
1678024325.539,-45.410,-42.480,-27.344,-34.180,78.125
1678024325.543,-44.434,-43.945,-26.855,-54.199,-36.133
1678024325.545,-42.480,-39.551,-23.438,-89.844,-132.812
1678024325.549,-52.734,-40.527,-20.020,-102.051,-107.910
1678024325.553,-68.848,-43.945,-24.414,-76.172,-45.898
1678024325.557,-55.176,-43.457,-26.855,-48.828,-91.797
1678024325.561,-31.250,-39.062,-21.973,-64.453,-125.977
1678024325.565,-35.156,-37.598,-24.902,-101.074,45.898
1678024325.569,-60.547,-44.434,-30.762,-110.840,140.137
1678024325.572,-65.918,-46.387,-28.809,-87.402,-55.664
1678024325.576,-56.641,-40.527,-28.809,-47.852,-128.418
1678024325.580,-49.805,-40.039,-31.738,-42.969,78.613
1678024325.584,-48.340,-41.992,-31.250,-82.031,232.422
1678024325.588,-62.012,-41.992,-30.273,-107.422,5.371
1678024325.620,-73.730,-43.457,-30.273,-84.473,-82.520
1678024325.624,-66.895,-42.969,-26.367,-42.480,17.090
1678024325.628,-49.805,-41.016,-25.391,-44.434,-20.020
1678024325.632,-39.551,-43.457,-29.297,-83.496,-167.480
1678024325.636,-49.316,-46.387,-30.273,-100.098,-186.035
1678024325.640,-57.129,-50.293,-27.344,-67.871,-91.309
1678024325.644,-41.016,-47.852,-31.738,-20.020,-44.922
1678024325.647,-25.391,-37.109,-39.062,-16.113,-107.910
1678024325.651,-26.367,-36.133,-40.039,-62.500,-127.441
1678024325.655,-40.039,-38.574,-36.621,-88.867,87.891
1678024325.659,-57.617,-39.551,-33.691,-70.801,6.836
1678024325.663,-46.387,-45.898,-33.691,-29.297,-146.484
1678024325.650,-27.344,-42.969,-31.738,-18.066,-92.285
1678024325.654,-31.738,-42.969,-30.762,-54.199,-12.207
1678024325.658,-40.039,-47.852,-34.668,-84.473,-92.773
1678024325.662,-48.340,-42.969,-35.156,-62.988,-163.574
1678024325.666,-48.828,-45.898,-36.133,-14.160,-36.621
1678024325.670,-38.086,-49.316,-37.598,-7.812,134.277
1678024325.674,-35.156,-42.969,-34.180,-47.363,40.039
1678024325.677,-42.480,-43.945,-29.297,-79.102,-22.949
1678024325.681,-52.734,-50.781,-27.344,-69.824,14.160
1678024325.685,-49.805,-50.781,-30.273,-34.668,-24.902
1678024325.689,-41.016,-53.223,-31.250,-15.625,-72.266
1678024325.693,-33.691,-50.781,-29.297,-40.039,-145.996
1678024325.695,-42.969,-46.875,-26.367,-74.707,-40.527
1678024325.699,-58.594,-46.387,-27.344,-62.988,244.141
1678024325.703,-60.547,-44.434,-30.273,-23.438,51.270
1678024325.707,-50.781,-43.945,-28.809,-9.277,-108.398
1678024325.711,-38.574,-40.039,-23.438,-30.762,56.152
1678024325.715,-45.410,-38.086,-20.508,-72.266,-22.949
1678024325.719,-58.594,-39.062,-23.926,-74.219,-79.590
1678024325.722,-57.617,-43.945,-20.508,-29.297,-54.688
1678024325.726,-49.316,-49.805,-19.531,2.930,83.008
1678024325.730,-42.969,-47.852,-27.344,-22.949,41.016
1678024325.734,-44.922,-48.340,-25.879,-70.801,-142.090
1678024325.738,-52.246,-49.316,-26.855,-78.613,-159.180
1678024325.740,-59.570,-46.875,-26.855,-44.922,-126.465
1678024325.744,-52.734,-48.340,-26.855,-13.184,-122.559
1678024325.748,-38.574,-47.852,-27.344,-23.438,-98.633
1678024325.752,-45.898,-46.875,-29.297,-64.453,-100.098
1678024325.756,-63.965,-50.293,-38.086,-88.867,-156.738
1678024325.760,-60.059,-50.293,-37.598,-47.852,-77.148
1678024325.764,-55.176,-51.270,-34.180,-5.859,-45.410
1678024325.767,-49.805,-53.223,-38.574,-18.066,56.152
1678024325.771,-40.527,-51.758,-36.133,-56.641,417.969
1678024325.775,-51.758,-50.293,-34.668,-83.984,164.062
1678024325.779,-56.152,-44.434,-37.598,-54.199,-196.289
1678024325.783,-47.363,-40.039,-32.227,-11.719,-75.195
1678024325.785,-36.621,-41.992,-30.273,-14.160,-27.344
1678024325.789,-29.297,-39.062,-33.691,-51.758,-83.496
1678024325.793,-41.504,-35.645,-30.273,-77.148,-124.023
1678024325.797,-48.340,-37.109,-28.809,-56.641,-50.293
1678024325.801,-35.156,-35.156,-26.367,-19.043,-97.168
1678024325.805,-24.414,-31.250,-22.949,-14.160,-106.445
1678024325.809,-14.160,-35.645,-21.973,-45.410,-43.945
1678024325.812,-20.996,-38.086,-16.602,-62.012,155.762
1678024325.816,-43.457,-37.598,-19.531,-54.199,122.559
1678024325.820,-40.527,-38.574,-21.973,-13.184,-136.719
1678024325.824,-23.926,-35.156,-19.531,11.719,-111.328
1678024325.828,-21.973,-36.133,-22.949,-30.273,27.344
1678024325.831,-37.598,-39.062,-25.391,-74.219,-102.539
1678024325.835,-48.828,-36.621,-25.391,-57.129,-197.266
1678024325.839,-50.293,-37.598,-25.879,-13.672,-94.238
1678024325.843,-31.738,-38.086,-25.879,-8.789,-37.109
1678024325.847,-25.879,-38.086,-22.461,-56.641,-90.332
1678024325.851,-49.316,-36.133,-22.949,-95.703,-82.520
1678024325.855,-58.105,-34.668,-27.344,-76.660,58.594
1678024325.858,-50.293,-39.062,-29.785,-25.391,340.332
1678024325.862,-47.852,-38.574,-33.691,-7.812,154.297
1678024325.866,-39.062,-29.785,-31.250,-48.828,-186.035
1678024325.870,-41.016,-28.320,-27.832,-88.867,-64.453
1678024325.874,-62.988,-32.715,-27.832,-81.055,-40.039
1678024325.875,-63.477,-23.438,-23.438,-41.992,-132.324
1678024325.879,-51.270,-24.414,-23.926,-31.738,-57.129
1678024325.883,-52.734,-26.367,-20.508,-61.035,22.949
1678024325.887,-70.801,-24.902,-18.555,-107.910,-71.289
1678024325.891,-92.285,-35.156,-17.578,-116.211,-177.246
1678024325.895,-106.934,-39.551,-4.883,-83.008,-45.410
1678024325.899,-124.023,-39.551,0.000,-81.055,269.531
1678024325.902,-141.602,-31.250,6.348,-133.789,164.062
1678024325.906,-176.270,-29.297,13.184,-218.750,-145.508
1678024325.910,-231.934,-21.973,18.555,-266.602,-209.473
1678024325.914,-265.625,-20.020,27.344,-254.395,-190.918
1678024325.918,-274.902,-13.184,36.621,-253.906,-119.629
1678024325.921,-280.273,-4.395,41.504,-283.203,-45.410
1678024325.925,-297.852,-10.254,40.527,-319.824,7.324
1678024325.929,-305.664,-8.789,38.574,-333.008,-11.230
1678024325.933,-298.828,-0.488,26.367,-306.152,-128.906
1678024325.937,-306.641,-0.977,14.648,-275.391,-167.480
1678024325.941,-298.828,-2.441,21.484,-272.949,-6.836
1678024325.945,-278.320,-0.977,23.926,-302.246,115.723
1678024325.948,-282.715,2.930,21.484,-312.988,4.395
1678024325.952,-280.273,3.906,19.043,-276.367,-143.066
1678024325.956,-249.023,2.441,18.555,-213.867,23.926
1678024325.960,-217.285,-1.465,20.020,-200.684,294.922
1678024325.964,-208.008,-2.441,15.137,-240.723,-14.160
1678024325.980,-213.379,-1.953,15.625,-256.836,-200.195
1678024325.984,-208.008,-9.277,8.301,-217.773,-75.195
1678024325.988,-187.012,-18.066,-2.441,-152.832,-71.777
1678024325.992,-159.668,-26.367,-1.465,-126.953,-111.816
1678024325.996,-136.719,-31.250,-10.742,-161.133,-110.840
1678024326.000,-125.977,-34.180,-16.602,-169.922,175.293
1678024326.004,-127.930,-36.133,-13.184,-136.230,208.496
1678024326.007,-123.535,-39.062,-19.043,-97.656,-137.207
1678024326.011,-94.727,-45.410,-20.508,-65.918,-139.160
1678024326.015,-75.195,-47.852,-27.832,-84.961,115.723
1678024326.019,-80.078,-49.316,-34.180,-114.258,-65.918
1678024326.023,-79.102,-50.293,-32.715,-85.938,-233.887
1678024326.025,-64.941,-47.852,-33.203,-47.852,-164.551
1678024326.029,-44.922,-47.852,-35.156,-36.621,-74.707
1678024326.033,-31.250,-51.758,-38.574,-54.688,-104.004
1678024326.037,-34.180,-59.082,-44.922,-78.125,-175.293
1678024326.041,-36.133,-59.570,-46.387,-62.012,-144.531
1678024326.045,-31.738,-57.617,-52.246,-11.719,-28.809
1678024326.049,-20.508,-58.105,-55.176,11.719,57.129
1678024326.052,-7.812,-60.059,-51.270,-15.137,44.434
1678024326.056,-5.859,-59.570,-49.805,-49.316,74.707
1678024326.060,-10.742,-57.617,-55.664,-42.969,340.820
1678024326.064,-11.230,-56.641,-57.617,-0.977,215.820
1678024326.068,5.371,-57.617,-62.012,27.832,-106.445
1678024326.070,34.180,-56.641,-62.012,14.648,-80.078
1678024326.074,32.715,-56.152,-61.035,-23.926,-131.348
1678024326.078,12.207,-56.152,-67.383,-26.367,-174.316
1678024326.082,10.742,-58.594,-65.918,13.184,-145.020
1678024326.086,15.137,-57.617,-58.594,45.898,-109.375
1678024326.090,30.273,-51.758,-55.664,35.645,31.250
1678024326.094,36.621,-52.246,-57.617,-2.930,-7.812
1678024326.097,16.113,-50.781,-57.617,-7.812,-132.324
1678024326.101,7.324,-49.316,-57.129,41.992,231.934
1678024326.105,25.879,-50.781,-59.082,71.289,300.293
1678024326.109,42.969,-43.945,-62.988,47.363,-72.266
1678024326.113,40.527,-40.039,-62.500,9.277,-161.621
1678024326.115,31.250,-40.527,-59.082,-7.324,-178.711
1678024326.119,19.531,-43.457,-60.547,14.648,-234.863
1678024326.123,23.926,-46.875,-60.059,54.688,-207.520
1678024326.127,40.527,-48.340,-60.059,49.316,-167.480
1678024326.131,31.738,-47.363,-61.035,-4.395,-181.152
1678024326.135,16.602,-48.828,-57.617,-27.832,-165.039
1678024326.139,12.695,-41.016,-50.781,-0.488,-195.801
1678024326.142,5.371,-35.156,-53.711,32.227,25.879
1678024326.146,15.625,-33.203,-56.152,43.457,320.312
1678024326.150,28.320,-29.297,-58.105,5.371,58.105
1678024326.154,16.113,-30.273,-64.453,-31.738,-168.945
1678024326.158,3.906,-27.344,-60.547,-9.277,-42.969
1678024326.160,-0.977,-27.832,-58.105,37.598,-22.949
1678024326.164,16.602,-29.297,-57.129,44.922,-111.328
1678024326.168,33.691,-25.879,-54.688,12.695,-154.785
1678024326.172,18.066,-26.367,-51.270,-20.996,-168.457
1678024326.176,-0.488,-28.809,-52.246,-19.043,-151.855
1678024326.180,-0.977,-30.273,-61.035,12.695,-89.844
1678024326.184,12.695,-34.668,-60.059,29.297,-21.973
1678024326.187,20.020,-31.250,-54.688,4.395,161.133
1678024326.191,11.230,-31.250,-55.176,-28.320,47.363
1678024326.195,-2.441,-34.668,-55.176,-17.578,-111.328
1678024326.199,-6.836,-34.180,-51.758,18.066,-87.402
1678024326.203,-1.465,-31.250,-47.363,34.180,-84.961
1678024326.206,8.789,-28.320,-48.828,12.207,-8.301
1678024326.210,5.371,-27.832,-51.270,-31.738,-51.758
1678024326.214,-5.859,-26.367,-46.387,-27.832,-115.723
1678024326.218,-12.207,-30.762,-44.434,10.254,4.883
1678024326.222,-3.418,-27.832,-45.410,34.668,-83.008
1678024326.226,9.277,-25.391,-46.875,22.949,-152.832
1678024326.230,2.441,-34.180,-49.316,-23.438,55.176
1678024326.233,-12.207,-38.574,-47.363,-27.832,339.355
1678024326.237,-22.461,-41.016,-48.828,-2.441,83.984
1678024326.241,-18.066,-40.527,-48.828,17.090,-138.184
1678024326.245,0.000,-37.109,-41.992,1.465,-24.414
1678024326.249,4.395,-35.645,-37.109,-39.062,-83.496
1678024326.250,-14.160,-38.574,-37.598,-40.527,-196.777
1678024326.254,-30.273,-41.992,-46.875,-3.418,-152.344
1678024326.258,-21.973,-36.133,-50.293,18.555,-23.926
1678024326.262,-4.883,-39.551,-45.898,5.859,62.500
1678024326.266,-7.324,-45.410,-43.457,-35.156,-106.934
1678024326.270,-22.461,-39.551,-41.504,-56.641,-125.488
1678024326.274,-27.344,-35.156,-40.527,-21.484,253.906
1678024326.277,-18.555,-39.062,-42.480,17.090,281.738
1678024326.281,-2.930,-41.504,-46.875,-0.488,-93.262
1678024326.285,-6.348,-39.551,-42.969,-41.016,-178.223
1678024326.289,-25.391,-39.062,-45.410,-52.246,-189.453
1678024326.293,-37.598,-39.551,-46.875,-26.367,-204.590
1678024326.295,-31.738,-41.016,-43.457,-0.488,-162.598
1678024326.299,-18.555,-39.062,-44.922,-3.418,-114.258
1678024326.303,-16.602,-36.133,-48.340,-37.598,-75.684
1678024326.307,-28.809,-38.574,-47.363,-70.801,-147.949
1678024326.311,-38.086,-38.574,-47.852,-55.176,-136.719
1678024326.315,-31.738,-35.645,-48.340,-12.695,-12.695
1678024326.319,-20.996,-43.457,-45.410,-3.418,112.793
1678024326.322,-29.785,-49.805,-40.527,-33.691,16.113
1678024326.326,-47.363,-45.898,-38.086,-65.918,-91.797
1678024326.330,-57.129,-41.992,-37.109,-53.711,-18.555
1678024326.334,-60.547,-37.109,-42.480,-22.949,234.863
1678024326.338,-43.945,-34.668,-47.363,-20.508,74.707
1678024326.355,-36.133,-36.621,-38.086,-42.480,-181.641
1678024326.359,-61.523,-36.133,-37.109,-79.590,-134.277
1678024326.363,-82.520,-39.062,-45.410,-75.684,-137.695
1678024326.367,-76.172,-40.039,-40.039,-35.645,-183.105
1678024326.371,-64.941,-30.762,-32.715,-25.391,-131.836
1678024326.375,-62.500,-31.250,-34.180,-54.199,23.926
1678024326.379,-62.500,-38.086,-33.203,-90.820,-4.395
1678024326.382,-72.266,-36.133,-35.645,-92.285,-8.301
1678024326.386,-81.543,-31.250,-37.109,-62.988,-51.270
1678024326.390,-64.941,-33.203,-37.109,-43.457,116.211
1678024326.394,-45.898,-34.180,-42.969,-60.547,103.027
1678024326.398,-42.969,-34.668,-39.551,-87.402,-150.879
1678024326.400,-48.828,-34.668,-32.715,-85.938,-143.555
1678024326.404,-47.363,-35.645,-37.598,-54.688,-160.645
1678024326.408,-31.250,-37.109,-43.945,-24.902,-183.594
1678024326.412,-11.719,-36.133,-37.109,-37.598,-156.738
1678024326.416,-10.742,-41.016,-33.691,-80.078,-146.973
1678024326.420,-27.832,-40.039,-37.598,-90.332,-60.547
1678024326.424,-49.805,-37.109,-41.016,-55.176,-36.621
1678024326.427,-56.641,-39.062,-42.969,-27.832,-43.945
1678024326.431,-36.621,-37.598,-41.016,-41.992,7.324
1678024326.435,-32.715,-34.668,-42.969,-77.637,195.801
1678024326.439,-48.340,-40.039,-50.781,-92.285,66.406
1678024326.443,-53.223,-39.062,-42.480,-69.824,-163.086
1678024326.445,-54.199,-36.621,-37.598,-34.668,-48.828
1678024326.449,-35.156,-33.203,-43.457,-39.551,-38.574
1678024326.453,-23.926,-35.645,-41.992,-79.102,-145.996
1678024326.457,-51.270,-37.109,-44.922,-104.004,-181.152
1678024326.461,-71.289,-34.668,-43.457,-80.078,-109.375
1678024326.465,-61.523,-35.156,-36.621,-38.086,18.066
1678024326.469,-41.992,-33.203,-42.480,-33.203,-84.961
1678024326.472,-34.180,-33.203,-45.410,-66.406,-218.750
1678024326.476,-46.875,-33.203,-42.480,-89.355,-0.488
1678024326.480,-65.430,-40.039,-44.434,-78.613,-55.176
1678024326.484,-63.965,-38.086,-43.457,-41.016,-269.531
1678024326.488,-45.410,-31.738,-41.016,-33.203,-205.566
1678024326.490,-37.598,-36.621,-43.945,-71.777,-138.184
1678024326.494,-48.828,-38.086,-43.457,-102.051,-165.527
1678024326.498,-69.336,-38.086,-41.504,-98.633,-245.117
1678024326.502,-75.684,-38.086,-41.992,-60.059,-152.344
1678024326.506,-62.500,-41.016,-42.480,-39.551,-2.441
1678024326.510,-47.852,-40.527,-42.480,-74.707,-53.223
1678024326.514,-54.199,-39.062,-45.898,-105.469,-120.117
1678024326.517,-69.824,-41.016,-48.828,-83.496,3.418
1678024326.521,-68.359,-35.156,-46.387,-44.434,306.641
1678024326.525,-47.363,-32.227,-45.898,-36.621,110.352
1678024326.529,-33.203,-30.762,-43.945,-61.035,-194.336
1678024326.533,-41.016,-28.320,-46.387,-83.496,-135.742
1678024326.536,-54.688,-30.762,-49.316,-75.195,-177.734
1678024326.540,-57.617,-30.762,-45.410,-42.969,-297.852
1678024326.544,-44.434,-34.668,-39.062,-14.160,-156.738
1678024326.548,-29.785,-38.574,-37.598,-24.902,74.219
1678024326.552,-36.133,-42.480,-39.062,-75.195,-51.758
1678024326.556,-51.758,-42.969,-35.645,-85.938,-148.926
1678024326.560,-57.617,-38.086,-38.574,-49.805,-123.047
1678024326.563,-53.223,-42.480,-40.527,-24.414,101.074
1678024326.567,-45.898,-47.852,-40.527,-48.340,42.969
1678024326.571,-42.480,-39.551,-38.574,-87.891,-198.242
1678024326.575,-57.617,-34.668,-33.691,-83.496,-166.016
1678024326.579,-74.219,-33.691,-35.156,-52.246,-105.957
1678024326.580,-69.336,-37.109,-37.598,-24.902,-122.559
1678024326.584,-52.246,-40.527,-37.598,-29.297,-138.184
1678024326.588,-46.387,-39.551,-37.109,-73.242,-82.031
1678024326.592,-64.941,-43.945,-41.992,-86.914,-101.074
1678024326.596,-84.473,-47.852,-45.898,-57.617,-59.082
1678024326.600,-66.895,-44.434,-43.945,-25.879,3.418
1678024326.604,-40.039,-41.992,-38.086,-26.367,62.012
1678024326.607,-44.922,-43.457,-41.504,-53.711,406.738
1678024326.611,-50.781,-41.016,-42.480,-66.895,198.242
1678024326.615,-55.664,-42.969,-40.527,-46.387,-193.848
1678024326.619,-53.711,-40.039,-41.992,-4.883,-70.312
1678024326.623,-33.691,-27.344,-35.156,-1.465,8.789
1678024326.625,-21.484,-23.438,-31.250,-45.410,-122.559
1678024326.629,-34.180,-31.738,-36.621,-76.172,-197.754
1678024326.633,-59.082,-41.504,-43.945,-62.500,-135.254
1678024326.637,-65.918,-40.039,-48.828,-26.855,-60.059
1678024326.641,-49.316,-34.180,-45.410,-15.137,-86.426
1678024326.645,-41.016,-30.273,-38.574,-36.621,-76.172
1678024326.649,-46.387,-28.809,-35.645,-61.523,189.453
1678024326.652,-60.547,-28.809,-43.945,-53.223,239.746
1678024326.656,-64.941,-30.273,-44.434,-17.578,-38.086
1678024326.660,-51.270,-35.645,-38.086,-5.371,-71.289
1678024326.664,-39.062,-34.180,-35.645,-32.715,58.594
1678024326.668,-40.527,-35.156,-33.203,-55.176,-33.691
1678024326.670,-59.570,-41.992,-34.180,-46.875,-91.309
1678024326.674,-75.195,-41.992,-39.062,-11.719,-62.988
1678024326.678,-59.570,-42.480,-40.527,3.418,8.301
1678024326.682,-40.039,-41.992,-37.598,-25.879,-49.316
1678024326.686,-43.945,-40.527,-37.598,-63.965,-144.531
1678024326.690,-55.664,-40.039,-37.109,-55.664,-31.738
1678024326.694,-62.500,-41.992,-38.086,-16.113,62.988
1678024326.697,-49.805,-45.410,-37.598,-1.465,35.156
1678024326.701,-31.250,-44.922,-35.156,-19.531,-55.664
1678024326.705,-31.250,-46.387,-32.715,-48.828,-14.160
1678024326.709,-54.688,-40.527,-31.250,-41.992,256.836
1678024326.713,-67.383,-38.086,-31.250,-7.812,20.996
1678024326.730,-51.758,-41.992,-28.809,10.254,-207.031
1678024326.734,-35.645,-43.457,-28.809,-5.859,-165.527
1678024326.738,-37.109,-42.969,-34.668,-50.781,-209.473
1678024326.742,-54.688,-39.551,-37.598,-63.477,-238.281
1678024326.746,-63.477,-38.086,-37.598,-34.180,-168.945
1678024326.750,-49.316,-36.133,-33.203,-4.395,-26.855
1678024326.754,-36.133,-37.598,-33.691,-14.648,-0.977
1678024326.757,-33.691,-38.574,-39.551,-46.387,-83.008
1678024326.761,-41.504,-33.203,-41.016,-56.152,-124.512
1678024326.765,-58.105,-30.762,-37.109,-27.344,154.297
1678024326.769,-50.781,-29.785,-36.133,6.836,112.305
1678024326.773,-37.109,-32.227,-38.574,-10.742,-60.059
1678024326.775,-35.645,-29.297,-41.992,-54.199,10.254
1678024326.779,-46.875,-31.738,-43.457,-62.012,81.055
1678024326.783,-62.500,-42.969,-41.504,-40.527,2.441
1678024326.787,-56.152,-42.480,-41.992,-7.324,-137.207
1678024326.791,-47.363,-40.527,-41.992,-4.883,-106.934
1678024326.795,-41.992,-37.598,-43.945,-44.434,-12.207
1678024326.799,-46.875,-32.715,-41.992,-59.570,-46.387
1678024326.802,-61.523,-34.668,-39.551,-38.086,-62.988
1678024326.806,-51.758,-31.250,-42.480,-8.789,12.207
1678024326.810,-33.691,-33.203,-43.945,-0.977,293.945
1678024326.814,-32.715,-38.086,-47.852,-35.156,74.219
1678024326.818,-47.363,-38.574,-49.316,-69.336,-200.684
1678024326.821,-60.059,-38.086,-48.340,-56.641,-100.586
1678024326.825,-55.176,-35.156,-44.922,-22.949,-69.336
1678024326.829,-44.434,-33.691,-43.457,-14.160,-68.848
1678024326.833,-40.039,-31.250,-46.875,-43.945,-96.191
1678024326.837,-37.109,-31.738,-47.852,-69.336,-9.277
1678024326.841,-44.434,-33.691,-43.457,-44.922,90.820
1678024326.845,-49.316,-37.109,-41.016,-7.812,113.770
1678024326.848,-33.203,-38.574,-39.062,3.418,100.098
1678024326.852,-26.367,-36.621,-42.969,-15.137,240.723
1678024326.856,-38.574,-32.715,-51.270,-45.898,150.879
1678024326.860,-54.199,-31.250,-47.852,-44.922,-110.840
1678024326.864,-56.152,-34.180,-49.316,-12.207,-121.582
1678024326.865,-47.363,-41.016,-57.129,-6.348,-58.594
1678024326.869,-41.504,-44.434,-52.246,-28.320,-85.449
1678024326.873,-48.340,-44.434,-49.316,-50.293,-149.414
1678024326.877,-58.594,-43.945,-49.805,-45.410,-139.648
1678024326.881,-57.617,-46.875,-48.340,-13.184,36.621
1678024326.885,-52.246,-54.688,-54.688,0.000,63.477
1678024326.889,-49.805,-52.734,-56.152,-32.715,-77.148
1678024326.892,-52.246,-47.852,-49.316,-67.383,-71.289
1678024326.896,-67.871,-44.922,-45.898,-52.734,234.375
1678024326.900,-77.148,-43.945,-45.410,-25.879,170.410
1678024326.904,-62.012,-46.387,-43.945,-13.672,-153.320
1678024326.908,-47.363,-45.410,-40.039,-36.621,-141.113
1678024326.910,-67.383,-42.969,-37.109,-83.496,-133.301
1678024326.914,-104.492,-48.340,-32.715,-98.145,-223.633
1678024326.918,-123.047,-48.340,-34.180,-80.566,-202.637
1678024326.922,-117.676,-37.598,-31.738,-63.477,-94.727
1678024326.926,-125.488,-33.203,-13.672,-99.609,-132.812
1678024326.930,-147.461,-30.762,-10.742,-158.691,-104.492
1678024326.934,-188.965,-37.598,-8.789,-187.012,-18.066
1678024326.937,-227.539,-40.039,4.883,-174.805,176.270
1678024326.941,-229.004,-21.484,0.977,-156.738,219.238
1678024326.945,-242.676,-18.066,-4.395,-210.938,-100.586
1678024326.949,-268.066,-14.160,8.301,-275.879,-196.777
1678024326.953,-293.945,-4.395,11.719,-294.922,-138.672
1678024326.955,-313.965,-1.953,2.441,-286.621,-162.109
1678024326.959,-307.617,3.418,6.836,-258.789,-159.668
1678024326.963,-300.293,8.301,10.254,-264.648,-96.191
1678024326.967,-291.016,13.184,2.930,-292.480,-71.777
1678024326.971,-289.062,17.578,-3.418,-296.875,-113.770
1678024326.975,-290.039,13.184,-14.160,-275.879,-131.836
1678024326.979,-268.555,16.602,-23.926,-230.957,12.207
1678024326.982,-240.723,18.555,-27.832,-203.125,395.508
1678024326.986,-226.074,13.672,-30.762,-232.422,162.598
1678024326.990,-221.680,13.672,-40.039,-245.605,-228.027
1678024326.994,-224.121,14.160,-46.387,-212.402,-33.203
1678024326.998,-212.402,10.742,-50.781,-177.734,-5.371
1678024327.000,-174.805,5.859,-61.035,-162.109,-151.367
1678024327.004,-152.832,10.254,-72.266,-183.594,-161.133
1678024327.008,-160.645,2.441,-74.707,-205.566,-95.703
1678024327.012,-166.504,-8.789,-72.754,-175.781,-81.055
1678024327.016,-149.414,-3.906,-74.219,-121.582,-155.273
1678024327.020,-118.164,-3.906,-75.684,-108.887,-63.965
1678024327.024,-103.516,-8.301,-76.172,-121.094,136.719
1678024327.027,-97.656,-5.859,-77.637,-128.418,1.953
1678024327.031,-95.703,0.488,-76.660,-122.070,-169.434
1678024327.035,-97.656,-12.695,-84.473,-95.215,-172.852
1678024327.039,-72.266,-22.461,-84.473,-52.246,-134.766
1678024327.043,-47.852,-20.996,-75.684,-61.523,-62.988
1678024327.046,-59.082,-24.902,-79.102,-97.168,-85.938
1678024327.050,-63.965,-28.809,-82.520,-79.102,-80.566
1678024327.054,-47.363,-32.227,-77.637,-44.434,20.020
1678024327.058,-39.551,-41.016,-77.148,-28.320,-14.648
1678024327.062,-34.180,-44.434,-77.637,-38.086,-90.332
1678024327.066,-40.527,-45.898,-74.219,-65.430,-13.184
1678024327.070,-56.152,-55.664,-68.359,-62.012,146.973
1678024327.073,-45.898,-60.059,-62.988,-20.508,113.770
1678024327.077,-29.785,-58.594,-60.547,2.441,-77.148
1678024327.081,-17.578,-58.105,-60.059,-2.441,-61.523
1678024327.085,-11.719,-57.617,-63.477,-34.180,113.770
1678024327.089,-16.113,-55.664,-62.988,-43.945,-84.961
1678024327.105,-18.555,-54.199,-59.570,0.000,-149.414
1678024327.109,-6.836,-55.664,-58.594,30.273,51.758
1678024327.113,7.324,-59.570,-62.012,21.973,13.184
1678024327.117,3.418,-62.988,-62.500,-18.555,-174.805
1678024327.121,-4.395,-68.359,-60.547,-33.691,-134.277
1678024327.125,-4.395,-68.848,-57.617,12.695,129.395
1678024327.129,3.906,-62.988,-56.152,46.387,178.711
1678024327.132,18.066,-66.406,-56.152,34.180,-137.207
1678024327.136,21.484,-66.895,-52.734,2.441,-131.836
1678024327.140,17.090,-61.523,-50.781,-4.883,10.742
1678024327.144,10.254,-64.453,-55.176,18.555,-109.863
1678024327.148,14.160,-64.941,-61.035,50.293,-158.203
1678024327.150,24.902,-59.570,-59.570,45.898,-120.605
1678024327.154,23.926,-62.012,-58.105,6.348,-81.543
1678024327.158,15.137,-62.988,-60.547,-5.371,-102.539
1678024327.162,4.883,-54.199,-55.176,27.344,-143.555
1678024327.166,9.766,-49.805,-51.270,62.500,-84.473
1678024327.170,23.438,-51.758,-51.270,61.035,102.539
1678024327.174,30.273,-55.176,-50.293,23.926,103.027
1678024327.177,23.438,-53.711,-49.316,-5.859,-57.617
1678024327.181,15.625,-49.805,-46.875,14.648,-4.395
1678024327.185,14.160,-52.246,-47.363,57.129,238.281
1678024327.189,17.578,-54.199,-50.293,52.246,97.168
1678024327.193,24.902,-50.293,-49.805,10.742,-148.926
1678024327.195,20.020,-45.410,-50.781,-10.254,-184.570
1678024327.199,2.930,-50.293,-53.711,3.906,-128.906
1678024327.203,-0.488,-56.152,-61.035,35.156,-120.117
1678024327.207,18.066,-54.688,-57.617,49.316,-73.730
1678024327.211,25.391,-55.664,-51.270,15.137,5.859
1678024327.215,14.160,-49.316,-50.293,-12.695,-10.254
1678024327.219,3.906,-47.852,-47.363,-5.371,4.395
1678024327.222,5.859,-49.316,-44.434,26.855,51.758
1678024327.226,14.648,-47.363,-43.945,49.805,190.430
1678024327.230,17.578,-49.805,-43.457,25.879,175.781
1678024327.234,15.137,-48.828,-42.480,-16.113,-129.883
1678024327.238,2.930,-46.875,-41.016,-13.184,-231.445
1678024327.240,0.000,-44.922,-38.086,30.762,-137.207
1678024327.244,10.742,-45.410,-39.551,48.828,-134.766
1678024327.248,12.695,-48.340,-39.551,21.973,-131.836
1678024327.252,13.672,-41.504,-35.156,-12.695,-79.590
1678024327.256,0.977,-41.992,-36.133,-7.324,-94.238
1678024327.260,-9.766,-47.852,-36.133,19.531,-62.988
1678024327.264,-2.441,-47.363,-31.250,30.273,-27.832
1678024327.267,1.465,-50.293,-34.180,9.277,57.617
1678024327.271,-2.930,-50.293,-40.527,-24.414,376.953
1678024327.275,-20.020,-49.805,-46.875,-27.832,309.082
1678024327.279,-30.273,-48.828,-43.945,1.953,-64.941
1678024327.283,-11.230,-47.363,-38.574,32.227,-139.648
1678024327.285,-1.953,-48.828,-38.086,17.090,-116.699
1678024327.289,-11.719,-47.852,-37.109,-28.809,-189.941
1678024327.293,-24.414,-46.875,-37.598,-41.016,-205.078
1678024327.297,-41.504,-54.199,-40.039,-15.625,-105.469
1678024327.301,-39.551,-60.547,-42.480,13.184,-159.180
1678024327.305,-20.508,-52.246,-45.898,-1.953,-119.141
1678024327.309,-11.230,-48.340,-41.992,-38.086,22.949
1678024327.312,-23.438,-51.758,-42.480,-41.504,140.137
1678024327.316,-31.738,-51.758,-49.316,-17.090,57.129
1678024327.320,-20.020,-42.969,-40.527,13.184,-148.926
1678024327.324,-6.836,-41.504,-36.621,8.789,-70.312
1678024327.328,-3.418,-46.875,-36.621,-31.250,38.574
1678024327.330,-15.137,-48.828,-34.180,-48.828,-143.066
1678024327.334,-30.762,-53.223,-31.738,-10.742,-208.496
1678024327.338,-25.879,-54.688,-33.203,22.949,-77.637
1678024327.342,-16.602,-57.617,-37.109,14.648,-59.082
1678024327.346,-24.414,-59.570,-37.598,-19.531,-88.867
1678024327.350,-41.992,-55.664,-34.668,-47.852,-78.613
1678024327.354,-51.758,-52.734,-32.715,-29.785,29.297
1678024327.357,-46.387,-51.758,-35.645,16.602,360.840
1678024327.361,-31.250,-54.688,-38.574,9.277,165.527
1678024327.365,-21.484,-56.641,-39.551,-38.086,-95.703
1678024327.369,-39.551,-57.129,-42.969,-67.871,-42.969
1678024327.373,-61.523,-57.617,-42.969,-59.570,-83.496
1678024327.376,-62.500,-58.105,-40.527,-15.625,-150.391
1678024327.380,-55.664,-59.082,-43.457,-2.441,-96.191
1678024327.384,-46.875,-56.641,-43.457,-28.809,111.328
1678024327.388,-50.293,-58.594,-42.480,-62.012,15.625
1678024327.392,-62.500,-63.477,-39.062,-63.965,-126.465
1678024327.396,-58.105,-62.988,-37.598,-20.508,-41.992
1678024327.400,-32.227,-61.523,-42.969,0.977,223.633
1678024327.403,-21.484,-57.129,-38.574,-26.855,185.059
1678024327.407,-35.156,-53.223,-35.156,-66.895,-62.988
1678024327.411,-50.293,-54.199,-41.016,-59.570,-60.547
1678024327.415,-50.293,-52.246,-38.574,-17.578,-53.711
1678024327.419,-40.527,-52.246,-37.598,-2.441,-36.133
1678024327.420,-29.297,-53.711,-40.527,-31.250,-19.043
1678024327.424,-32.715,-47.852,-34.180,-63.477,-74.219
1678024327.428,-45.898,-46.387,-34.668,-62.500,-137.207
1678024327.432,-49.316,-50.781,-41.016,-32.227,-60.547
1678024327.436,-44.434,-49.316,-43.457,-6.836,-27.832
1678024327.440,-38.574,-50.781,-41.016,-19.043,122.070
1678024327.444,-41.504,-51.270,-42.480,-53.223,360.840
1678024327.447,-58.105,-52.246,-47.852,-69.336,81.543
1678024327.451,-66.406,-56.152,-47.852,-40.039,-155.273
1678024327.455,-49.316,-53.711,-41.504,0.488,67.383
1678024327.459,-41.504,-55.664,-36.621,-10.742,214.355
1678024327.463,-54.688,-60.059,-41.016,-61.035,-108.398
1678024327.480,-58.594,-61.035,-38.086,-58.105,-245.605
1678024327.484,-61.523,-60.547,-39.551,-22.949,-90.820
1678024327.488,-60.547,-63.477,-52.734,-8.301,-62.012
1678024327.492,-53.223,-66.406,-56.641,-21.484,-53.711
1678024327.496,-52.734,-60.547,-54.688,-62.988,-0.488
1678024327.500,-67.871,-62.012,-55.664,-75.195,10.254
1678024327.504,-75.684,-62.012,-54.199,-35.645,7.812
1678024327.507,-66.406,-57.129,-49.316,-0.977,-7.812
1678024327.511,-51.270,-58.594,-45.898,-13.184,-89.844
1678024327.515,-52.246,-57.129,-42.480,-47.363,112.793
1678024327.519,-68.848,-52.246,-46.387,-62.988,109.375
1678024327.523,-73.730,-51.758,-49.805,-24.902,-140.625
1678024327.525,-56.641,-49.805,-46.387,19.043,-101.562
1678024327.529,-38.574,-48.828,-42.969,14.160,-67.383
1678024327.533,-42.480,-51.758,-42.480,-37.109,-90.820
1678024327.537,-50.781,-48.340,-44.434,-70.312,-145.508
1678024327.541,-40.039,-38.574,-45.898,-31.738,-130.859
1678024327.545,-35.156,-38.574,-43.945,13.184,-36.621
1678024327.549,-34.668,-43.457,-37.598,8.789,-25.391
1678024327.552,-33.203,-44.434,-37.109,-35.156,-46.387
1678024327.556,-39.062,-48.340,-41.992,-63.477,8.301
1678024327.560,-40.527,-51.270,-45.898,-36.133,291.504
1678024327.564,-34.668,-51.270,-43.945,3.906,256.348
1678024327.568,-31.250,-55.664,-45.410,2.930,-102.051
1678024327.570,-36.133,-54.199,-48.340,-36.133,-166.992
1678024327.574,-47.363,-51.270,-48.340,-76.172,-155.762
1678024327.578,-52.734,-50.781,-47.363,-58.105,-145.020
1678024327.582,-44.922,-47.852,-43.457,-5.859,-155.762
1678024327.586,-25.879,-48.828,-41.016,21.973,-107.910
1678024327.590,-20.020,-47.852,-43.457,-12.207,-44.434
1678024327.594,-45.410,-50.293,-45.898,-69.336,-77.637
1678024327.597,-61.035,-48.828,-43.945,-59.082,-80.566
1678024327.601,-50.293,-45.898,-43.457,-6.836,169.922
1678024327.605,-37.109,-48.828,-44.434,10.254,160.156
1678024327.609,-24.414,-47.852,-42.480,-12.695,-63.965
1678024327.613,-34.668,-43.457,-36.621,-51.270,-41.016
1678024327.615,-53.711,-41.992,-40.527,-50.781,26.855
1678024327.619,-50.293,-36.133,-39.062,-9.766,-25.391
1678024327.623,-35.156,-29.297,-34.180,7.324,-64.453
1678024327.627,-28.809,-32.227,-37.598,-21.484,-41.992
1678024327.631,-31.250,-33.203,-38.574,-59.082,-58.105
1678024327.635,-45.898,-33.203,-39.062,-66.406,-8.789
1678024327.639,-53.223,-37.109,-41.016,-33.203,2.930
1678024327.642,-35.645,-36.133,-41.504,0.488,106.934
1678024327.646,-18.555,-32.227,-38.086,-5.371,403.320
1678024327.650,-26.855,-30.273,-39.062,-60.059,115.723
1678024327.654,-46.875,-34.180,-41.016,-79.590,-230.469
1678024327.658,-56.152,-38.086,-34.180,-44.434,-166.992
1678024327.661,-41.992,-36.133,-31.250,-17.090,-22.949
1678024327.665,-33.691,-38.574,-37.109,-27.344,12.695
1678024327.669,-31.738,-42.969,-35.156,-68.359,-129.883
1678024327.673,-42.969,-39.551,-37.598,-83.496,-59.082
1678024327.677,-67.871,-37.109,-46.875,-51.270,-116.699
1678024327.681,-64.453,-40.527,-46.387,-14.160,-133.301
1678024327.685,-42.480,-43.457,-40.039,-19.043,-12.207
1678024327.688,-37.109,-41.992,-34.180,-46.387,135.254
1678024327.692,-47.363,-43.945,-35.156,-60.547,47.852
1678024327.696,-45.410,-41.016,-35.156,-43.945,-131.836
1678024327.700,-38.086,-35.156,-35.645,-10.254,-89.844
1678024327.704,-30.762,-32.227,-42.480,-15.625,-34.180
1678024327.705,-23.438,-28.809,-41.016,-53.223,-74.219
1678024327.709,-34.180,-29.785,-36.133,-68.848,-130.371
1678024327.713,-47.363,-30.273,-41.992,-55.176,-64.453
1678024327.717,-36.133,-31.250,-45.410,-21.973,-8.301
1678024327.721,-30.273,-32.715,-41.992,-10.254,-23.438
1678024327.725,-39.551,-35.645,-45.898,-55.664,-46.875
1678024327.729,-45.898,-41.016,-45.898,-86.914,-15.625
1678024327.732,-54.199,-41.504,-41.504,-53.223,327.148
1678024327.736,-58.594,-38.574,-45.898,-24.902,271.973
1678024327.740,-36.133,-35.156,-43.945,-14.648,-108.398
1678024327.744,-21.973,-34.668,-28.809,-34.668,-106.934
1678024327.748,-49.805,-36.621,-24.414,-84.961,-129.883
1678024327.750,-69.336,-41.504,-26.367,-78.613,-226.562
1678024327.754,-75.684,-45.898,-20.020,-43.945,-191.406
1678024327.758,-66.895,-47.363,-14.160,-38.086,-46.387
1678024327.762,-58.594,-51.270,-5.859,-63.965,-72.754
1678024327.766,-77.148,-57.129,-6.836,-113.770,-179.688
1678024327.770,-99.121,-64.941,-10.742,-109.375,-108.887
1678024327.774,-109.863,-65.430,-6.348,-53.223,178.223
1678024327.777,-101.074,-63.965,-6.348,-36.133,235.840
1678024327.781,-93.750,-64.941,-3.906,-75.195,-35.156
1678024327.785,-101.074,-71.777,1.465,-118.164,-70.312
1678024327.789,-116.699,-77.148,-2.930,-113.770,128.418
1678024327.793,-114.746,-76.660,-10.254,-79.590,38.574
1678024327.795,-92.285,-73.730,-12.695,-55.176,-76.660
1678024327.799,-85.449,-68.848,-16.602,-68.848,-77.148
1678024327.803,-95.703,-64.453,-14.648,-104.004,-133.301
1678024327.807,-99.121,-63.477,-11.230,-104.492,-182.617
1678024327.811,-96.680,-66.406,-16.602,-70.312,-189.453
1678024327.815,-77.637,-67.871,-16.602,-34.668,73.730
1678024327.819,-60.547,-62.988,-13.184,-44.922,291.992
1678024327.822,-62.988,-61.035,-13.184,-88.379,27.344
1678024327.826,-67.871,-58.594,-13.672,-97.168,-146.484
1678024327.830,-63.477,-53.223,-14.648,-54.688,52.734
1678024327.834,-51.758,-51.270,-15.625,-8.789,297.852
1678024327.838,-41.504,-50.293,-18.066,-28.320,39.062
1678024327.855,-47.852,-53.711,-22.461,-74.219,-155.273
1678024327.859,-59.082,-50.781,-20.996,-88.379,-141.113
1678024327.863,-53.223,-46.875,-20.508,-51.758,-145.508
1678024327.867,-37.598,-45.898,-24.902,-8.789,-111.816
1678024327.871,-24.414,-45.410,-26.855,-32.227,-162.598
1678024327.875,-28.320,-51.270,-27.832,-72.754,-4.395
1678024327.879,-44.922,-49.316,-27.344,-87.402,10.254
1678024327.882,-54.688,-43.945,-27.344,-62.500,-192.383
1678024327.886,-43.945,-41.504,-27.832,-18.555,-109.375
1678024327.890,-29.297,-39.062,-26.855,-13.184,205.566
1678024327.894,-26.855,-37.109,-27.832,-59.570,121.094
1678024327.898,-37.109,-37.598,-28.320,-88.379,-183.594
1678024327.900,-50.293,-43.457,-29.297,-64.453,-100.586
1678024327.904,-45.410,-48.340,-38.574,-33.203,56.641
1678024327.908,-29.297,-47.363,-38.086,-29.785,-69.336
1678024327.912,-20.020,-42.480,-35.645,-54.199,-147.461
1678024327.916,-34.180,-40.527,-38.574,-77.148,-118.164
1678024327.920,-41.992,-36.133,-38.574,-58.105,-104.980
1678024327.924,-30.762,-34.668,-36.133,-21.484,-49.316
1678024327.927,-24.902,-40.039,-36.133,-16.602,-88.867
1678024327.931,-27.344,-41.504,-36.621,-40.527,16.602
1678024327.935,-34.668,-39.551,-36.621,-69.824,231.934
1678024327.939,-48.340,-39.062,-42.480,-69.336,27.832
1678024327.943,-43.945,-39.551,-42.969,-30.273,-163.574
1678024327.945,-34.180,-44.922,-39.062,-15.137,-42.969
1678024327.949,-39.551,-44.922,-37.598,-54.199,-59.082
1678024327.953,-48.828,-41.504,-32.715,-91.797,-197.754
1678024327.957,-59.082,-41.504,-29.785,-80.078,-212.402
1678024327.961,-56.641,-39.062,-28.809,-33.691,-65.430
1678024327.965,-45.898,-37.109,-25.391,-12.695,-3.906
1678024327.969,-50.293,-42.969,-27.832,-44.434,-41.016
1678024327.972,-76.172,-48.828,-30.762,-101.562,-101.562
1678024327.976,-100.098,-42.969,-32.227,-115.723,97.168
1678024327.980,-104.980,-36.133,-20.996,-85.938,82.031
1678024327.984,-114.258,-32.227,-13.672,-92.285,-137.695
1678024327.988,-138.184,-23.438,-13.672,-138.672,-138.184
1678024327.991,-169.434,-17.090,-5.859,-193.359,-109.375
1678024327.995,-200.684,-13.672,-3.906,-232.910,-180.664
1678024327.999,-232.910,-13.184,2.930,-241.211,-144.043
1678024328.003,-263.184,-6.836,16.113,-248.535,14.160
1678024328.007,-279.297,-6.348,19.531,-281.738,20.508
1678024328.011,-291.504,-12.207,26.855,-324.707,-4.395
1678024328.015,-311.035,-19.043,28.320,-335.938,-9.277
1678024328.018,-313.477,-22.461,28.320,-298.828,22.461
1678024328.022,-292.480,-15.137,28.809,-259.277,304.688
1678024328.026,-270.996,-5.371,20.508,-270.508,95.215
1678024328.030,-261.230,-1.465,21.973,-304.199,-257.812
1678024328.034,-264.648,-4.395,26.367,-311.035,-205.078
1678024328.035,-263.672,-6.836,20.020,-271.973,-153.320
1678024328.039,-248.047,-16.113,13.184,-231.445,-162.109
1678024328.043,-224.121,-21.973,9.766,-221.191,-123.047
1678024328.047,-205.566,-20.508,5.859,-227.539,-46.387
1678024328.051,-207.031,-21.973,-0.488,-232.910,-106.445
1678024328.055,-201.172,-29.785,-6.348,-204.590,-137.207
1678024328.059,-167.969,-35.645,-20.508,-163.086,-63.965
1678024328.062,-141.113,-38.086,-32.715,-145.508,230.957
1678024328.066,-132.812,-41.504,-32.227,-154.297,270.020
1678024328.070,-133.301,-44.922,-37.598,-175.293,-73.730
1678024328.074,-123.535,-43.945,-41.992,-152.344,-192.383
1678024328.078,-101.074,-40.527,-36.133,-97.168,-124.023
1678024328.080,-76.172,-40.527,-37.109,-69.824,-79.102
1678024328.084,-52.734,-39.551,-45.410,-88.867,-91.797
1678024328.088,-62.988,-38.086,-45.410,-109.375,-112.793
1678024328.092,-87.402,-44.922,-45.898,-89.355,-101.074
1678024328.096,-70.801,-51.270,-51.270,-43.945,-57.617
1678024328.100,-44.434,-46.387,-49.316,-23.438,0.977
1678024328.104,-32.715,-44.434,-43.945,-47.852,105.469
1678024328.107,-38.574,-55.176,-50.293,-71.289,321.777
1678024328.111,-49.316,-59.082,-57.129,-57.617,169.434
1678024328.115,-36.621,-56.152,-53.223,-15.137,-64.453
1678024328.119,-3.906,-54.199,-52.246,23.438,5.371
1678024328.123,13.672,-55.664,-54.688,11.719,91.797
1678024328.125,4.883,-52.734,-56.641,-29.297,-111.816
1678024328.129,-5.371,-55.664,-61.523,-25.879,-209.473
1678024328.133,1.465,-58.594,-62.500,22.461,-121.094
1678024328.137,15.625,-52.734,-57.129,55.176,-103.027
1678024328.141,33.203,-55.176,-56.152,38.574,-127.441
1678024328.145,24.902,-59.570,-62.500,2.930,-106.934
1678024328.149,18.066,-55.176,-68.359,12.695,67.871
1678024328.152,32.227,-48.828,-67.871,43.457,36.133
1678024328.156,48.828,-42.480,-60.547,67.871,-167.480
1678024328.160,63.965,-42.480,-54.688,64.941,-74.219
1678024328.164,60.059,-46.875,-59.082,27.832,104.004
1678024328.168,40.527,-41.992,-61.035,24.902,-38.574
1678024328.170,40.039,-43.945,-61.035,53.711,-145.996
1678024328.174,54.199,-45.898,-63.477,79.590,-89.844
1678024328.178,53.711,-41.504,-62.988,67.383,-99.121
1678024328.182,43.945,-41.504,-60.547,25.391,-177.246
1678024328.186,33.691,-46.875,-60.547,14.160,-226.562
1678024328.190,20.996,-49.805,-63.477,40.039,8.301
1678024328.194,23.926,-44.434,-61.523,68.848,188.477
1678024328.197,37.109,-37.109,-59.570,55.664,35.156
1678024328.201,37.109,-35.156,-62.988,6.836,-90.820
1678024328.205,29.297,-37.598,-65.918,-13.184,-44.434
1678024328.209,22.949,-38.086,-65.430,15.137,153.809
1678024328.213,31.250,-37.598,-64.453,42.480,-20.996
1678024328.230,47.363,-40.527,-61.035,45.410,-138.672
1678024328.234,44.922,-43.457,-62.988,12.207,-46.387
1678024328.238,25.391,-41.016,-66.895,-17.090,-78.613
1678024328.242,15.625,-40.039,-68.848,0.488,-218.262
1678024328.246,20.020,-40.039,-66.895,36.133,-189.941
1678024328.250,28.809,-38.086,-57.617,46.387,-0.977
1678024328.254,33.691,-42.480,-56.641,14.648,-1.953
1678024328.257,22.949,-37.109,-55.176,-13.672,-104.980
1678024328.261,19.531,-32.227,-52.246,-1.465,-144.043
1678024328.265,20.996,-36.133,-56.641,31.738,99.609
1678024328.269,27.344,-38.574,-59.570,42.480,58.105
1678024328.273,34.668,-35.645,-59.570,17.090,-138.672
1678024328.276,20.996,-32.715,-56.152,-11.719,-130.859
1678024328.280,12.695,-29.785,-58.105,-3.906,-127.441
1678024328.284,19.531,-29.297,-52.734,41.504,-35.156
1678024328.288,36.621,-32.227,-44.434,56.641,-80.078
1678024328.292,41.992,-29.297,-48.340,21.484,-104.492
1678024328.296,27.344,-27.344,-49.805,-13.672,43.457
1678024328.300,13.184,-31.738,-51.270,-19.531,-11.719
1678024328.303,18.555,-33.691,-52.734,11.230,-107.910
1678024328.307,27.832,-31.738,-53.711,37.109,12.695
1678024328.311,29.785,-30.762,-48.340,17.578,276.367
1678024328.315,25.391,-37.109,-49.316,-23.438,31.738
1678024328.319,16.602,-39.551,-51.270,-20.508,-259.766
1678024328.320,12.695,-36.621,-46.387,14.648,-121.094
1678024328.324,27.344,-36.621,-42.969,36.621,-42.969
1678024328.328,42.969,-37.598,-38.574,19.043,-156.738
1678024328.332,31.738,-36.621,-33.203,-13.184,-197.754
1678024328.336,17.578,-41.016,-39.062,-10.742,-56.152
1678024328.340,10.742,-43.457,-44.922,15.137,3.906
1678024328.344,10.254,-38.574,-39.062,25.879,-5.859
1678024328.347,20.996,-33.691,-37.598,11.719,15.625
1678024328.351,20.996,-31.738,-38.086,-10.742,193.848
1678024328.355,3.906,-33.203,-39.062,-21.484,198.730
1678024328.359,-3.906,-28.320,-35.156,-2.930,-96.191
1678024328.363,0.977,-33.203,-33.203,23.926,-104.492
1678024328.365,11.719,-32.715,-34.180,17.578,-80.078
1678024328.369,12.695,-24.902,-33.691,-12.695,-154.785
1678024328.373,-5.371,-26.367,-36.133,-23.926,-207.031
1678024328.377,-14.160,-27.832,-35.645,-0.977,-183.105
1678024328.381,-7.812,-30.762,-36.621,20.996,-91.797
1678024328.385,0.977,-31.738,-31.250,6.348,-40.039
1678024328.389,-4.395,-34.180,-28.809,-35.156,-94.727
1678024328.392,-24.414,-39.551,-33.691,-58.105,-70.312
1678024328.396,-35.645,-35.645,-32.715,-28.809,349.121
1678024328.400,-23.926,-36.621,-35.645,7.812,310.059
1678024328.404,-11.230,-44.434,-34.668,6.836,-40.527
1678024328.408,-9.766,-40.039,-35.645,-20.508,-70.801
1678024328.411,-10.254,-35.156,-33.203,-39.551,-143.555
1678024328.415,-22.461,-41.504,-29.785,-22.461,-188.965
1678024328.419,-26.367,-42.969,-28.809,8.301,-134.277
1678024328.423,-14.160,-39.062,-26.855,19.531,-36.133
1678024328.427,3.418,-37.109,-27.832,-5.859,-75.195
1678024328.431,-6.348,-39.062,-33.203,-36.621,-130.859
1678024328.435,-22.949,-40.527,-38.086,-27.832,-51.270
1678024328.438,-18.066,-33.691,-32.227,8.301,173.340
1678024328.442,-10.742,-31.738,-32.715,16.602,113.281
1678024328.446,-6.348,-34.668,-39.062,-12.695,-60.547
1678024328.450,-13.672,-32.227,-40.039,-44.922,-47.852
1678024328.454,-33.203,-31.738,-38.086,-45.898,0.000
1678024328.455,-34.668,-31.738,-37.598,-20.996,-52.246
1678024328.459,-20.996,-27.832,-37.598,-1.953,-63.965
1678024328.463,-5.859,-25.879,-38.574,-19.531,-53.223
1678024328.467,-10.742,-23.438,-39.551,-51.270,-99.609
1678024328.471,-40.039,-22.949,-36.621,-59.082,-148.438
1678024328.475,-44.434,-23.438,-39.062,-34.668,-150.391
1678024328.479,-23.926,-23.438,-40.527,-10.742,6.836
1678024328.482,-10.254,-26.855,-38.574,-22.949,373.047
1678024328.486,-24.414,-26.367,-32.715,-50.293,166.504
1678024328.490,-33.691,-23.438,-29.297,-49.805,-208.984
1678024328.494,-32.715,-28.809,-35.156,-20.996,-129.883
1678024328.498,-32.227,-35.156,-41.016,4.395,2.930
1678024328.501,-16.602,-37.109,-35.645,-1.953,-61.523
1678024328.505,-20.020,-35.156,-32.715,-36.133,-167.969
1678024328.509,-39.551,-34.180,-34.668,-49.316,-47.363
1678024328.513,-45.898,-35.645,-38.086,-31.250,-62.012
1678024328.517,-31.250,-33.203,-41.504,-3.418,-125.488
1678024328.521,-13.184,-30.762,-38.574,-1.953,-63.477
1678024328.525,-22.461,-35.645,-32.227,-30.762,106.934
1678024328.528,-45.898,-39.551,-31.738,-50.781,75.684
1678024328.532,-52.734,-38.086,-29.785,-30.762,-143.066
1678024328.536,-36.133,-36.133,-25.879,-6.836,-141.602
1678024328.540,-24.902,-35.156,-26.367,-20.508,-102.051
1678024328.544,-40.039,-34.668,-30.762,-47.363,-147.461
1678024328.546,-54.199,-36.621,-28.809,-61.523,-227.051
1678024328.550,-59.570,-35.156,-28.320,-44.922,-131.348
1678024328.554,-58.594,-31.738,-33.203,-22.461,41.992
1678024328.558,-48.828,-35.645,-37.109,-28.809,-31.250
1678024328.562,-46.387,-43.945,-42.969,-61.035,-147.949
1678024328.566,-56.152,-44.434,-41.504,-81.543,-0.977
1678024328.570,-77.637,-47.363,-42.969,-62.988,209.961
1678024328.573,-81.055,-46.387,-42.480,-34.180,-9.766
1678024328.577,-59.570,-43.945,-37.598,-25.391,-115.234
1678024328.581,-49.316,-43.457,-42.969,-43.457,11.719
1678024328.585,-59.082,-37.109,-42.480,-57.617,145.508
1678024328.589,-66.895,-34.180,-39.062,-50.781,-97.168
1678024328.605,-42.480,-34.668,-39.551,-25.391,-153.809
1678024328.609,-18.066,-33.203,-40.039,-17.578,-13.672
1678024328.613,-22.461,-35.645,-40.527,-34.668,-74.219
1678024328.617,-27.832,-36.133,-38.574,-54.199,-159.668
1678024328.621,-29.785,-32.227,-38.086,-37.109,-76.660
1678024328.625,-24.902,-36.133,-38.086,-4.883,187.500
1678024328.629,-4.395,-37.109,-34.668,3.906,224.609
1678024328.632,11.230,-32.715,-29.785,-15.625,-37.598
1678024328.636,7.812,-32.227,-27.832,-34.668,-94.238
1678024328.640,-8.789,-29.785,-26.855,-28.320,40.527
1678024328.644,-16.602,-26.855,-24.902,-12.695,-57.617
1678024328.648,-8.301,-24.414,-23.438,-3.906,-170.410
1678024328.665,1.953,-21.973,-25.391,-18.555,-153.809
1678024328.669,-5.859,-25.391,-23.926,-48.828,-72.754
1678024328.673,-30.762,-26.855,-22.949,-53.223,-61.035
1678024328.677,-35.645,-26.855,-30.273,-32.715,-176.758
1678024328.681,-22.949,-26.367,-29.297,-10.254,-60.059
1678024328.685,-9.277,-22.461,-19.531,-12.207,84.473
1678024328.689,-1.465,-17.090,-17.578,-40.039,28.809
1678024328.692,-19.043,-22.461,-20.996,-50.781,-17.090
1678024328.696,-36.133,-26.367,-25.391,-26.855,87.891
1678024328.700,-20.996,-22.461,-27.832,7.324,351.074
1678024328.704,-5.859,-24.902,-28.320,-8.789,197.266
1678024328.708,-24.414,-27.832,-30.273,-58.594,-150.391
1678024328.695,-41.016,-34.180,-35.645,-58.105,-142.090
1678024328.699,-45.898,-36.621,-39.551,-30.273,-129.883
1678024328.703,-34.180,-31.250,-41.992,-15.137,-128.418
1678024328.707,-16.602,-25.879,-41.016,-15.625,-133.789
1678024328.711,-26.367,-29.785,-41.992,-48.340,-92.285
1678024328.715,-44.434,-35.156,-41.504,-64.941,-40.527
1678024328.719,-59.082,-41.016,-41.992,-49.805,-70.801
1678024328.722,-50.781,-41.992,-38.574,-18.555,-120.605
1678024328.726,-32.715,-37.109,-35.645,-12.695,95.215
1678024328.730,-31.250,-32.227,-37.109,-43.457,64.941
