timestamps,TP9,AF7,AF8,TP10,Right AUX
1678024357.879,-21.973,-32.227,-20.996,-11.719,-149.414
1678024357.883,-28.809,-33.691,-20.508,-42.969,-73.730
1678024357.887,-47.363,-38.086,-19.531,-52.246,-105.957
1678024357.891,-49.805,-39.062,-20.020,-23.438,-106.445
1678024357.895,-32.715,-36.621,-20.020,8.789,-93.262
1678024357.899,-19.043,-37.109,-18.066,8.301,100.586
1678024357.903,-34.180,-40.527,-20.508,-32.227,262.207
1678024357.906,-51.758,-41.504,-22.949,-54.688,-92.773
1678024357.910,-49.805,-33.691,-26.367,-23.438,-238.770
1678024357.914,-37.598,-31.738,-20.508,13.184,-27.832
1678024357.918,-30.273,-34.668,-19.531,8.301,14.160
1678024357.922,-31.250,-37.109,-25.391,-32.227,-110.840
1678024357.951,-41.504,-41.016,-22.461,-49.316,-146.484
1678024357.955,-49.316,-39.062,-19.531,-29.785,-143.555
1678024357.959,-38.086,-34.668,-17.090,-4.395,-145.020
1678024357.963,-23.926,-34.180,-13.672,2.441,-166.992
1678024357.967,-29.297,-41.016,-18.066,-28.809,-89.844
1678024357.971,-45.410,-44.434,-23.926,-54.688,63.965
1678024357.975,-51.270,-39.062,-24.902,-46.875,80.078
1678024357.978,-44.922,-33.691,-23.438,-23.438,-36.621
1678024357.982,-29.297,-34.668,-21.973,-11.719,-35.156
1678024357.986,-22.949,-36.621,-18.066,-34.180,162.598
1678024357.990,-33.203,-34.668,-18.066,-59.082,30.762
1678024357.994,-41.016,-32.715,-20.020,-54.688,-261.230
1678024357.952,-38.086,-32.715,-18.555,-29.785,-153.320
1678024357.956,-22.461,-28.809,-18.555,-16.602,-94.727
1678024357.960,-15.625,-25.879,-20.020,-50.781,-195.801
1678024357.964,-27.832,-29.785,-21.484,-85.938,-222.656
1678024357.968,-40.039,-26.855,-19.043,-84.473,-145.020
1678024357.972,-33.203,-25.391,-18.066,-59.570,-56.641
1678024357.976,-19.531,-30.762,-19.043,-46.875,-40.527
1678024357.979,-22.949,-34.180,-17.090,-77.637,-37.598
1678024357.983,-35.645,-34.668,-18.555,-123.047,96.680
1678024357.987,-53.223,-34.180,-18.066,-121.582,194.824
1678024357.991,-54.688,-40.527,-20.996,-71.777,-27.344
1678024357.995,-40.039,-45.898,-22.461,-37.598,-157.715
1678024357.990,-28.809,-41.992,-13.672,-45.410,-76.660
1678024357.994,-32.715,-41.504,-8.789,-80.566,-42.480
1678024357.998,-50.293,-43.457,-7.324,-94.238,-98.145
1678024358.002,-47.363,-39.551,-9.277,-67.871,-83.984
1678024358.006,-32.227,-41.016,-13.184,-60.059,-48.828
1678024358.010,-29.297,-41.992,-10.254,-78.125,-48.828
1678024358.014,-33.691,-35.645,-11.719,-109.863,-59.570
1678024358.017,-45.898,-31.738,-16.113,-123.535,-51.758
1678024358.021,-50.781,-29.297,-14.648,-92.773,261.719
1678024358.025,-37.598,-25.879,-14.160,-64.941,360.840
1678024358.029,-20.996,-22.949,-13.672,-78.125,-16.602
1678024358.033,-28.809,-26.367,-19.531,-124.512,-121.582
1678024358.035,-51.758,-33.203,-24.902,-153.809,-161.621
1678024358.039,-53.711,-29.297,-22.949,-134.766,-205.566
1678024358.043,-31.250,-24.414,-22.949,-101.074,-159.668
1678024358.047,-23.926,-28.809,-19.531,-113.770,-162.109
1678024358.051,-42.480,-31.250,-12.695,-154.785,-104.492
1678024358.055,-58.594,-32.227,-9.766,-146.973,-65.918
1678024358.059,-60.059,-32.227,-12.207,-105.469,-125.000
1678024358.062,-50.781,-25.879,-14.160,-66.406,61.035
1678024358.066,-39.551,-27.832,-16.602,-48.828,129.395
1678024358.070,-41.992,-32.227,-19.043,-76.172,-81.055
1678024358.074,-54.688,-28.809,-21.484,-82.031,-110.840
1678024358.078,-60.059,-22.949,-29.785,-52.246,-14.648
1678024358.080,-51.758,-23.926,-25.391,-21.484,-44.922
1678024358.084,-34.180,-30.273,-23.926,-5.859,-102.051
1678024358.088,-29.785,-32.715,-23.438,-19.531,-91.309
1678024358.092,-52.734,-35.156,-28.809,-47.363,-128.418
1678024358.096,-67.871,-37.109,-31.738,-32.227,-109.375
1678024358.100,-55.664,-35.645,-26.367,6.348,-25.391
1678024358.104,-41.016,-35.645,-28.809,15.137,34.668
1678024358.107,-38.574,-37.109,-25.879,0.488,250.000
1678024358.111,-50.781,-35.645,-28.809,-21.973,231.445
1678024358.115,-63.965,-33.691,-31.738,-26.855,-150.879
1678024358.119,-58.105,-35.645,-28.809,1.953,-161.133
1678024358.123,-40.527,-38.574,-34.180,24.902,-38.574
1678024358.127,-40.039,-38.574,-30.762,6.836,-138.672
1678024358.131,-52.734,-38.574,-25.391,-17.578,-142.090
1678024358.135,-62.988,-31.250,-24.414,-3.906,-16.602
1678024358.139,-57.617,-29.297,-22.949,20.020,-73.242
1678024358.143,-35.156,-29.785,-22.461,34.180,-103.516
1678024358.147,-23.438,-32.715,-24.414,17.578,-90.332
1678024358.151,-38.574,-36.621,-30.273,-9.277,78.613
1678024358.154,-54.199,-29.785,-30.762,-5.371,119.629
1678024358.158,-53.223,-28.320,-27.832,12.695,-184.082
1678024358.162,-38.086,-31.250,-25.879,31.738,-120.605
1678024358.166,-26.367,-30.762,-24.902,21.484,-97.168
1678024358.170,-33.203,-28.809,-23.438,-15.625,-166.504
1678024358.171,-50.293,-35.645,-26.367,-27.832,-154.785
1678024358.175,-53.223,-36.621,-29.297,-4.395,-151.367
1678024358.179,-39.551,-29.297,-29.785,15.137,-96.680
1678024358.183,-37.598,-31.250,-32.227,5.859,-82.520
1678024358.187,-41.016,-27.832,-35.645,-22.461,-148.926
1678024358.191,-53.711,-21.973,-36.621,-40.527,-104.492
1678024358.195,-59.082,-21.973,-41.016,-15.625,276.367
1678024358.198,-44.922,-23.926,-40.039,13.184,392.090
1678024358.202,-37.109,-27.832,-41.016,-3.418,59.570
1678024358.206,-40.527,-27.832,-42.480,-39.062,-22.461
1678024358.210,-55.664,-29.785,-48.340,-51.270,83.984
1678024358.214,-64.941,-36.133,-50.293,-38.574,-60.547
1678024358.231,-56.641,-36.133,-44.922,-19.531,-108.887
1678024358.235,-41.992,-28.809,-39.551,-9.766,16.602
1678024358.239,-37.109,-27.832,-36.621,-30.273,-2.441
1678024358.243,-47.363,-33.691,-40.527,-54.688,-153.320
1678024358.247,-63.477,-35.156,-42.480,-41.992,-156.250
1678024358.251,-56.641,-34.180,-39.062,-15.137,-23.438
1678024358.255,-31.738,-30.273,-34.668,-3.906,82.031
1678024358.258,-31.250,-28.320,-33.691,-28.809,16.602
1678024358.262,-45.898,-30.273,-33.203,-48.828,-143.066
1678024358.266,-51.758,-33.691,-36.621,-34.180,97.168
1678024358.270,-45.410,-33.691,-38.086,-13.184,272.461
1678024358.274,-25.879,-28.320,-40.039,-3.418,8.789
1678024358.276,-12.207,-24.414,-37.598,-16.113,-56.152
1678024358.280,-17.578,-22.461,-31.250,-34.180,-68.359
1678024358.284,-36.133,-20.020,-32.227,-25.879,-104.004
1678024358.288,-37.598,-24.902,-33.691,-2.441,-118.164
1678024358.292,-10.742,-19.531,-29.785,16.113,-100.098
1678024358.296,-0.488,-8.789,-33.203,-0.488,23.438
1678024358.300,-26.367,-15.625,-40.527,-38.574,-32.715
1678024358.303,-37.598,-21.484,-39.551,-38.574,-105.469
1678024358.307,-33.691,-24.902,-38.086,-15.137,21.484
1678024358.311,-20.996,-23.438,-35.156,2.441,264.160
1678024358.315,-13.184,-21.484,-37.598,-10.254,282.715
1678024358.319,-30.762,-21.973,-40.039,-40.527,-37.598
1678024358.321,-44.922,-19.043,-43.945,-44.434,-147.461
1678024358.325,-40.527,-20.020,-41.504,-26.855,-116.699
1678024358.329,-24.414,-20.020,-29.785,-4.395,-157.715
1678024358.333,-21.973,-24.414,-34.180,-16.113,-138.672
1678024358.337,-38.086,-27.344,-41.504,-50.781,-87.891
1678024358.341,-47.852,-19.043,-35.645,-52.246,-106.445
1678024358.345,-41.504,-18.555,-38.086,-31.738,-0.977
1678024358.348,-28.320,-26.367,-38.574,-15.625,-18.555
1678024358.352,-22.461,-22.461,-32.227,-21.973,65.918
1678024358.356,-30.762,-24.902,-38.574,-51.270,138.672
1678024358.360,-44.434,-27.344,-33.203,-65.430,-141.602
1678024358.364,-51.270,-10.254,-20.508,-53.223,-226.562
1678024358.366,-46.875,-12.695,-25.391,-33.203,-97.168
1678024358.370,-45.410,-24.414,-28.320,-36.621,-82.031
1678024358.374,-57.129,-20.508,-19.531,-72.266,-193.848
1678024358.378,-83.496,0.000,-15.625,-99.609,-182.617
1678024358.382,-110.840,2.930,-3.906,-102.539,-148.438
1678024358.386,-121.094,-0.488,4.395,-104.980,-44.434
1678024358.390,-132.324,5.371,-0.977,-124.512,-12.695
1678024358.393,-163.086,7.812,10.254,-163.574,-45.410
1678024358.397,-219.238,15.137,24.902,-218.262,227.051
1678024358.401,-276.367,13.184,26.367,-255.859,203.613
1678024358.405,-301.270,15.137,27.344,-273.926,-110.840
1678024358.409,-309.570,27.832,29.297,-289.551,-91.797
1678024358.411,-317.871,43.457,31.250,-316.895,-10.254
1678024358.415,-338.379,33.691,38.086,-344.727,-90.332
1678024358.419,-342.773,19.043,37.109,-335.449,-177.246
1678024358.423,-327.637,21.484,30.273,-300.781,-6.836
1678024358.427,-308.594,21.973,29.297,-277.832,73.730
1678024358.431,-292.480,20.996,24.902,-286.133,-36.133
1678024358.435,-280.762,17.578,24.902,-291.016,-96.191
1678024358.438,-273.926,16.113,26.367,-270.996,57.617
1678024358.442,-255.371,15.137,21.973,-238.281,133.789
1678024358.446,-225.098,9.766,19.531,-212.402,-128.418
1678024358.450,-206.543,6.836,12.695,-212.891,-143.555
1678024358.454,-204.102,-0.977,6.836,-225.098,-75.195
1678024358.455,-204.102,-4.883,0.977,-212.402,-88.379
1678024358.459,-188.477,-7.324,-13.184,-175.293,-88.379
1678024358.463,-162.598,-13.184,-18.066,-143.066,-45.410
1678024358.467,-142.578,-14.160,-20.020,-140.625,52.734
1678024358.471,-135.742,-14.160,-26.367,-153.320,-19.531
1678024358.475,-135.742,-22.461,-29.297,-140.137,-97.656
1678024358.479,-131.836,-34.180,-35.645,-118.652,-91.309
1678024358.482,-113.770,-37.109,-43.945,-94.727,298.828
1678024358.486,-97.656,-34.668,-44.434,-87.402,412.598
1678024358.490,-90.820,-30.762,-41.016,-104.980,-13.184
1678024358.494,-88.379,-28.809,-39.551,-95.703,-98.633
1678024358.498,-83.496,-36.621,-43.457,-70.801,-58.594
1678024358.501,-62.988,-45.410,-50.293,-55.664,-78.613
1678024358.505,-39.551,-49.316,-49.805,-49.316,-115.723
1678024358.509,-37.109,-54.199,-50.781,-61.035,-76.660
1678024358.513,-44.922,-50.781,-52.246,-63.477,-86.426
1678024358.517,-34.180,-47.363,-49.316,-36.621,-194.336
1678024358.521,-12.695,-48.828,-47.363,-6.348,-114.746
1678024358.525,7.324,-50.781,-46.875,5.371,175.293
1678024358.528,12.207,-48.340,-47.363,-1.465,214.844
1678024358.532,-2.441,-49.316,-44.434,-5.859,-92.773
1678024358.536,-7.812,-49.805,-40.039,19.531,-196.777
1678024358.540,7.324,-56.641,-37.598,46.875,-122.559
1678024358.544,18.555,-59.082,-40.527,48.828,-107.422
1678024358.546,17.578,-52.734,-46.387,26.367,-122.559
1678024358.550,5.371,-53.223,-44.922,14.648,-115.234
1678024358.554,-3.418,-56.641,-48.340,30.762,-127.930
1678024358.558,18.066,-55.176,-53.223,53.223,-135.742
1678024358.562,36.133,-53.223,-52.246,56.641,-150.879
1678024358.566,36.133,-52.734,-52.246,45.898,-108.887
1678024358.570,30.273,-44.922,-53.223,35.156,119.629
1678024358.573,25.391,-44.922,-47.852,34.668,90.332
1678024358.577,32.227,-48.828,-47.363,53.711,-50.781
1678024358.581,43.945,-48.340,-50.781,66.895,-3.418
1678024358.585,48.340,-45.898,-50.293,57.617,196.777
1678024358.589,36.133,-52.246,-53.223,41.992,60.547
1678024358.590,24.414,-49.316,-53.223,47.363,-185.059
1678024358.594,30.273,-39.062,-52.246,65.430,-104.004
1678024358.598,42.480,-44.922,-51.758,69.824,-78.125
1678024358.602,51.758,-49.805,-52.246,51.270,-108.398
1678024358.606,45.898,-47.363,-52.246,34.668,-134.277
1678024358.610,31.250,-43.945,-50.781,40.527,-14.160
1678024358.614,31.250,-43.457,-54.688,59.082,46.387
1678024358.617,41.504,-41.504,-53.223,67.871,-76.660
1678024358.621,40.039,-40.039,-49.316,52.734,-155.762
1678024358.625,30.762,-44.434,-52.734,40.039,61.523
1678024358.629,20.020,-44.434,-49.316,42.969,144.531
1678024358.633,21.973,-37.598,-45.410,51.758,-97.168
1678024358.650,39.062,-37.109,-47.363,69.336,-123.047
1678024358.654,42.969,-37.109,-49.316,61.523,-70.801
1678024358.658,34.180,-32.715,-48.828,35.156,-94.238
1678024358.662,20.508,-28.320,-52.734,27.832,-132.324
1678024358.666,17.578,-25.879,-55.664,45.410,-97.656
1678024358.670,37.109,-25.879,-54.688,61.035,28.809
1678024358.674,45.898,-24.902,-53.711,50.781,157.227
1678024358.677,30.762,-24.902,-48.828,33.691,112.793
1678024358.681,13.672,-30.762,-46.387,22.949,9.277
1678024358.685,14.648,-29.785,-45.898,47.852,231.934
1678024358.689,30.762,-22.949,-46.875,71.777,203.613
1678024358.693,38.086,-27.832,-49.316,49.316,-135.254
1678024358.696,23.438,-34.180,-45.898,26.855,-15.137
1678024358.700,5.859,-34.668,-43.945,12.695,31.250
1678024358.704,-3.418,-36.621,-49.316,9.766,-165.527
1678024358.708,3.906,-41.016,-52.734,29.297,-207.520
1678024358.712,20.020,-39.062,-52.246,35.156,-121.582
1678024358.716,22.461,-39.551,-51.270,13.184,5.371
1678024358.720,8.789,-40.527,-50.781,5.859,23.438
1678024358.723,-3.418,-37.109,-53.223,10.742,-102.539
1678024358.727,2.441,-37.109,-54.199,19.043,66.895
1678024358.731,12.695,-39.062,-53.223,32.227,216.797
1678024358.735,7.324,-41.016,-51.758,14.648,-83.008
1678024358.739,-13.672,-39.551,-53.711,-10.742,-200.195
1678024358.742,-14.648,-34.668,-53.711,-4.395,-72.754
1678024358.746,-6.348,-37.109,-49.805,12.695,-36.621
1678024358.750,-7.812,-39.062,-48.828,13.672,-106.934
1678024358.754,-11.230,-38.086,-46.387,4.395,-59.570
1678024358.758,-22.461,-39.551,-44.922,-9.766,21.484
1678024358.762,-26.367,-40.039,-39.551,-7.812,4.395
1678024358.766,-21.484,-43.457,-35.645,15.137,-62.988
1678024358.769,-5.371,-38.574,-36.621,20.996,-37.109
1678024358.773,1.465,-31.738,-35.156,8.789,284.180
1678024358.777,-14.160,-26.855,-32.227,-1.465,237.305
1678024358.781,-21.484,-25.879,-34.668,0.488,-123.047
1678024358.785,-18.555,-27.832,-40.039,15.625,-118.164
1678024358.785,-9.766,-27.344,-42.969,22.949,-82.031
1678024358.789,-0.488,-29.297,-42.969,5.859,-136.719
1678024358.793,-6.348,-31.738,-41.016,-19.043,-168.457
1678024358.797,-20.020,-34.180,-37.109,-15.137,-141.113
1678024358.801,-16.113,-31.738,-35.156,-0.488,-63.965
1678024358.805,-4.395,-34.668,-36.621,5.859,-82.031
1678024358.809,-7.324,-40.039,-44.922,-14.648,-111.328
1678024358.812,-18.555,-34.668,-46.875,-39.551,65.918
1678024358.816,-29.785,-31.738,-38.574,-34.180,213.379
1678024358.820,-32.227,-37.109,-39.062,-21.484,-25.879
1678024358.824,-19.531,-36.133,-39.551,-12.207,-127.930
1678024358.828,-14.160,-33.691,-42.480,-13.672,-84.961
1678024358.831,-24.414,-33.691,-39.062,-28.809,-132.812
1678024358.835,-37.109,-34.668,-31.250,-40.039,-173.828
1678024358.839,-40.527,-32.715,-29.297,-23.438,-180.176
1678024358.843,-30.762,-34.180,-28.320,1.953,-72.266
1678024358.847,-21.973,-37.598,-32.715,-7.324,-72.266
1678024358.851,-25.879,-34.180,-29.297,-29.785,-71.289
1678024358.855,-38.086,-29.785,-23.438,-37.109,-4.395
1678024358.858,-44.434,-28.809,-29.297,-16.113,183.594
1678024358.862,-34.668,-34.180,-34.668,5.371,214.355
1678024358.866,-21.484,-32.715,-28.809,-1.953,-77.148
1678024358.870,-26.367,-30.762,-26.855,-20.508,-73.242
1678024358.874,-34.668,-32.715,-27.344,-28.320,20.996
1678024358.875,-37.109,-31.250,-26.855,-20.996,-120.605
1678024358.879,-33.203,-33.203,-31.250,-1.465,-150.391
1678024358.883,-21.973,-34.180,-33.203,5.371,-106.445
1678024358.887,-28.320,-33.691,-32.715,-11.230,-121.582
1678024358.891,-44.922,-37.109,-25.879,-20.020,-118.164
1678024358.895,-50.293,-41.504,-29.785,-9.277,-95.703
1678024358.899,-35.645,-39.551,-32.227,19.043,208.984
1678024358.902,-14.648,-33.203,-23.438,28.320,272.461
1678024358.906,-18.066,-38.086,-22.949,3.906,-66.895
1678024358.910,-27.344,-43.945,-23.926,-6.836,-39.062
1678024358.914,-24.414,-40.527,-24.902,10.742,87.891
1678024358.918,-18.066,-31.738,-26.855,23.438,41.992
1678024358.920,-7.324,-27.344,-30.762,17.578,-70.312
1678024358.924,-2.930,-30.762,-36.133,2.441,-92.285
1678024358.928,-16.113,-31.250,-38.574,-10.254,-100.098
1678024358.932,-28.809,-27.832,-41.504,-6.836,-121.094
1678024358.936,-18.555,-26.367,-41.016,10.742,-159.180
1678024358.940,-4.395,-24.902,-34.180,20.508,-36.133
1678024358.944,-1.953,-21.484,-32.227,5.371,189.941
1678024358.947,-10.742,-22.461,-33.203,-16.113,74.707
1678024358.951,-22.461,-27.832,-29.297,-12.695,-119.141
1678024358.955,-19.531,-25.879,-28.320,8.789,-39.551
1678024358.959,-14.160,-22.949,-31.738,14.160,112.793
1678024358.963,-10.254,-23.926,-32.227,-8.301,-0.488
1678024358.967,-11.230,-22.949,-34.180,-25.879,-133.789
1678024358.971,-18.555,-21.973,-31.738,-20.508,-31.250
1678024358.975,-17.578,-26.855,-30.762,0.977,43.457
1678024358.979,-11.230,-28.320,-36.621,10.742,-72.754
1678024358.983,-7.324,-24.902,-36.621,-6.348,-132.812
1678024358.987,-14.648,-25.879,-36.133,-18.555,-51.270
1678024358.991,-27.832,-30.273,-39.062,-20.508,82.031
1678024358.994,-29.297,-31.738,-39.062,-11.230,-12.695
1678024358.998,-17.578,-29.785,-34.668,6.836,-159.180
1678024359.002,-12.207,-28.809,-34.180,1.465,91.309
1678024359.006,-21.484,-28.320,-35.156,-26.367,127.441
1678024359.010,-33.203,-25.391,-28.809,-38.574,-191.406
1678024359.026,-27.344,-26.367,-22.949,-18.066,-174.805
1678024359.030,-14.160,-29.297,-23.926,-0.488,-18.555
1678024359.034,-15.625,-28.320,-21.973,-10.254,59.570
1678024359.038,-24.902,-24.902,-21.484,-34.668,-55.664
1678024359.042,-30.762,-24.902,-25.391,-48.340,-73.242
1678024359.046,-31.250,-29.785,-24.414,-29.297,171.875
1678024359.050,-24.902,-34.180,-23.438,-11.719,101.562
1678024359.053,-21.484,-36.133,-27.832,-25.879,-76.660
1678024359.057,-25.391,-33.203,-26.855,-47.852,-14.648
1678024359.061,-36.133,-35.156,-28.320,-58.105,217.285
1678024359.065,-40.527,-36.133,-30.762,-47.852,85.449
1678024359.069,-32.227,-29.297,-30.762,-26.855,-143.066
1678024359.070,-23.438,-30.273,-29.297,-24.414,-44.434
1678024359.074,-20.020,-29.297,-31.250,-46.875,-60.059
1678024359.078,-33.691,-26.855,-36.133,-62.500,-150.879
1678024359.082,-44.922,-30.273,-32.715,-61.523,-171.875
1678024359.086,-31.738,-31.738,-31.250,-38.086,19.531
1678024359.090,-20.996,-32.715,-31.738,-30.762,92.285
1678024359.094,-28.809,-31.738,-33.691,-65.430,-37.109
1678024359.097,-41.504,-35.645,-38.086,-79.590,-130.371
1678024359.101,-48.828,-40.527,-41.016,-56.641,-0.488
1678024359.105,-46.387,-37.598,-37.598,-31.250,172.852
1678024359.109,-31.250,-35.156,-36.133,-25.391,-72.754
1678024359.113,-26.855,-41.992,-38.574,-49.316,-161.133
1678024359.115,-37.109,-41.504,-36.621,-67.871,-95.703
1678024359.119,-42.480,-37.598,-35.645,-58.105,-106.445
1678024359.123,-30.762,-36.621,-31.738,-34.668,-127.930
1678024359.127,-19.043,-32.227,-24.902,-19.531,-71.289
1678024359.131,-26.367,-37.598,-27.344,-44.922,-14.160
1678024359.135,-41.992,-38.086,-26.367,-58.105,9.277
1678024359.139,-49.805,-30.762,-24.414,-28.809,-50.293
1678024359.142,-40.039,-28.320,-24.902,-5.859,-11.230
1678024359.146,-26.367,-24.414,-24.414,6.348,335.449
1678024359.150,-23.926,-29.297,-26.855,-18.066,299.805
1678024359.154,-34.668,-30.273,-25.879,-55.664,-92.285
1678024359.158,-43.945,-30.273,-28.809,-49.805,-157.715
1678024359.160,-39.062,-32.227,-31.250,-18.066,-103.027
1678024359.164,-22.949,-28.320,-31.738,1.953,-124.023
1678024359.168,-21.484,-29.785,-40.039,-16.113,-106.445
1678024359.172,-34.668,-29.785,-37.598,-40.039,-52.246
1678024359.176,-41.992,-30.762,-29.297,-37.598,-126.465
1678024359.180,-37.598,-33.691,-23.438,-11.230,-118.164
1678024359.184,-25.879,-35.156,-23.438,0.000,-7.324
1678024359.187,-18.555,-35.156,-26.855,-16.113,142.578
1678024359.191,-28.809,-39.551,-24.902,-41.016,190.430
1678024359.195,-41.504,-37.598,-26.855,-46.875,-99.609
1678024359.199,-35.645,-32.715,-27.344,-21.973,-148.438
1678024359.203,-25.391,-41.504,-28.320,-6.348,-15.625
1678024359.205,-19.531,-41.992,-27.344,-20.020,-1.953
1678024359.209,-27.344,-34.668,-27.344,-41.016,-126.465
1678024359.213,-49.805,-40.527,-32.227,-46.387,-166.016
1678024359.217,-57.129,-38.574,-31.738,-29.785,-97.656
1678024359.221,-40.527,-34.180,-30.273,-7.324,-92.773
1678024359.225,-28.320,-38.086,-34.668,-10.254,-82.031
1678024359.229,-33.691,-37.109,-30.273,-32.715,-30.762
1678024359.232,-46.875,-34.668,-27.344,-26.855,276.367
1678024359.236,-52.734,-37.598,-32.715,-7.812,247.559
1678024359.240,-35.645,-37.598,-31.250,0.000,-147.461
1678024359.244,-19.043,-38.086,-33.203,2.441,-48.828
1678024359.248,-23.926,-41.504,-36.133,-25.879,-0.488
1678024359.250,-36.133,-35.156,-30.762,-37.598,-184.570
1678024359.254,-38.574,-32.227,-30.273,-13.184,-266.602
1678024359.258,-25.391,-32.227,-31.738,14.160,-79.102
1678024359.262,-9.766,-32.227,-30.762,16.602,9.766
1678024359.266,-18.066,-35.156,-26.855,-15.137,-124.512
1678024359.270,-33.203,-33.691,-22.949,-24.414,-186.523
1678024359.274,-35.645,-28.809,-19.531,0.000,43.945
1678024359.277,-25.879,-26.367,-15.137,24.414,194.336
1678024359.281,-9.277,-26.367,-17.578,22.949,-92.773
1678024359.285,-11.719,-25.879,-21.484,-0.488,-129.883
1678024359.289,-22.949,-25.391,-23.438,-14.648,-112.305
1678024359.293,-29.785,-28.320,-23.926,-7.324,-116.211
1678024359.297,-31.250,-30.273,-27.832,9.277,-62.988
1678024359.301,-14.648,-33.203,-31.250,16.602,-89.355
1678024359.305,-11.230,-33.203,-32.227,-7.812,-11.230
1678024359.309,-27.344,-31.738,-31.738,-29.785,-39.062
1678024359.313,-29.297,-35.645,-29.297,-19.531,-129.395
1678024359.317,-22.949,-36.133,-27.832,7.324,14.648
1678024359.321,-10.742,-30.762,-28.320,14.648,229.492
1678024359.324,-13.672,-34.180,-28.320,-13.184,130.371
1678024359.328,-24.902,-39.062,-30.273,-37.109,-144.531
1678024359.332,-31.738,-34.668,-33.691,-25.879,-113.770
1678024359.336,-32.715,-30.273,-28.809,3.906,90.332
1678024359.340,-14.160,-28.809,-27.344,16.113,24.902
1678024359.340,-15.137,-28.809,-28.809,-11.719,-99.121
1678024359.344,-22.949,-24.414,-20.020,-42.969,-105.469
1678024359.348,-46.387,-28.320,-23.926,-45.898,-89.844
1678024359.352,-62.988,-35.645,-28.320,-20.996,-83.008
1678024359.356,-58.594,-30.762,-19.043,-14.160,-55.664
1678024359.360,-60.059,-14.160,-6.348,-41.016,132.812
1678024359.364,-77.148,-16.113,-2.930,-66.895,322.754
1678024359.367,-111.328,-19.531,-4.395,-95.215,18.555
1678024359.371,-135.254,-13.672,0.977,-105.469,-145.996
1678024359.375,-152.832,-9.277,15.625,-127.930,-37.598
1678024359.379,-176.270,-10.254,21.973,-175.293,-13.672
1678024359.383,-219.727,-8.789,23.438,-232.422,-114.746
1678024359.400,-249.512,2.930,39.551,-244.141,-124.512
1678024359.404,-257.812,1.465,41.504,-228.516,-93.750
1678024359.408,-260.742,2.930,37.598,-228.516,-138.672
1678024359.412,-255.859,7.324,42.480,-245.117,-148.438
1678024359.416,-274.902,-2.441,33.203,-290.527,-112.305
1678024359.420,-294.434,8.789,24.414,-302.246,-73.242
1678024359.424,-279.785,23.438,27.344,-267.090,-42.480
1678024359.427,-261.719,22.461,36.133,-241.211,-13.672
1678024359.431,-262.695,19.531,39.062,-242.188,61.035
1678024359.435,-258.301,5.371,37.598,-250.000,302.246
1678024359.439,-253.418,5.371,28.320,-252.930,218.750
1678024359.443,-251.465,6.348,25.391,-234.863,-142.578
1678024359.445,-241.699,1.953,25.391,-211.914,-85.449
1678024359.449,-232.422,5.371,21.973,-216.309,-15.137
1678024359.453,-227.539,6.836,23.926,-238.281,-183.105
1678024359.457,-225.098,6.836,19.531,-250.488,-204.590
1678024359.461,-223.633,5.371,14.648,-226.074,-107.910
1678024359.465,-210.449,1.465,17.090,-179.688,2.930
1678024359.469,-181.152,-2.930,7.812,-163.086,1.465
1678024359.472,-165.039,-6.348,-6.836,-183.594,-179.688
1678024359.476,-163.086,-12.695,-10.742,-187.988,45.898
1678024359.480,-149.414,-19.531,-16.602,-153.809,313.965
1678024359.484,-129.395,-22.461,-23.438,-114.258,-60.059
1678024359.488,-125.000,-38.086,-25.879,-107.422,-157.715
1678024359.490,-114.258,-46.387,-29.785,-118.164,-95.703
1678024359.494,-96.191,-41.016,-27.832,-115.234,-174.805
1678024359.498,-91.797,-43.457,-26.367,-93.750,-225.586
1678024359.502,-83.008,-43.457,-34.180,-68.848,-169.434
1678024359.506,-55.664,-44.434,-36.621,-56.641,-45.410
1678024359.510,-41.504,-49.316,-37.109,-67.383,-45.898
1678024359.514,-48.828,-53.223,-39.062,-78.125,-114.258
1678024359.517,-48.828,-52.246,-36.133,-60.547,-28.809
1678024359.521,-38.086,-55.664,-41.504,-24.414,321.289
1678024359.525,-17.578,-61.035,-48.828,-1.465,270.996
1678024359.529,7.324,-60.059,-46.875,-14.160,-145.996
1678024359.533,13.672,-55.664,-46.387,-26.367,-68.359
1678024359.535,6.836,-54.688,-47.363,-11.719,-26.855
1678024359.539,9.277,-61.523,-48.340,8.301,-192.383
1678024359.543,35.156,-57.617,-47.363,38.574,-148.438
1678024359.547,55.176,-53.223,-46.387,37.109,-106.934
1678024359.551,39.551,-56.641,-51.758,-0.977,-155.762
1678024359.555,15.625,-54.199,-56.641,-6.348,-153.320
1678024359.559,16.602,-55.176,-54.199,22.461,-167.480
1678024359.562,36.133,-51.758,-51.758,54.688,-18.066
1678024359.566,36.133,-52.246,-54.688,34.668,91.797
1678024359.570,23.438,-55.664,-60.547,-10.742,-159.180
1678024359.574,21.484,-49.316,-63.477,-12.207,-224.609
1678024359.578,20.508,-47.852,-59.082,16.113,-202.637
1678024359.582,22.461,-54.199,-58.594,41.504,-203.613
1678024359.586,28.809,-59.082,-62.012,28.809,-134.277
1678024359.590,33.691,-55.664,-61.035,0.488,-117.676
1678024359.594,18.066,-51.758,-59.082,-2.441,-145.020
1678024359.598,7.812,-48.340,-59.570,13.184,-167.480
1678024359.602,24.902,-45.410,-59.570,33.691,-109.375
1678024359.606,38.086,-41.992,-55.664,30.273,-89.844
1678024359.609,28.809,-45.898,-52.246,10.254,160.156
1678024359.613,15.137,-46.387,-50.293,-1.465,172.852
1678024359.617,9.766,-40.039,-48.340,14.648,-141.113
1678024359.621,13.184,-37.598,-52.246,33.691,-117.676
1678024359.625,26.367,-40.039,-55.176,20.996,-85.938
1678024359.625,27.832,-43.457,-51.758,-0.488,-199.707
1678024359.629,13.184,-41.504,-52.734,-7.324,-300.781
1678024359.633,6.836,-39.551,-54.688,10.254,-198.242
1678024359.637,19.531,-37.109,-53.711,32.715,-75.684
1678024359.641,30.273,-40.039,-55.176,30.762,-82.031
1678024359.645,30.273,-41.504,-56.641,10.742,-126.953
1678024359.649,24.414,-35.645,-55.664,5.859,-22.461
1678024359.652,20.020,-30.762,-53.711,20.996,124.023
1678024359.656,25.879,-32.227,-58.105,38.086,-145.020
1678024359.660,40.527,-32.227,-56.152,47.363,-223.633
1678024359.664,41.992,-29.785,-46.387,14.160,-62.012
1678024359.668,33.691,-31.250,-44.434,-18.066,-161.133
1678024359.670,26.367,-32.227,-47.363,-7.812,-246.582
1678024359.674,21.484,-32.715,-47.363,21.973,-179.688
1678024359.678,25.879,-31.738,-47.852,30.273,-133.301
1678024359.682,30.273,-24.902,-47.363,5.859,-212.402
1678024359.686,18.066,-24.902,-48.340,-23.438,-213.867
1678024359.690,2.441,-29.785,-49.316,-8.301,-50.781
1678024359.694,3.906,-29.785,-48.828,35.156,122.559
1678024359.697,16.113,-26.367,-45.898,40.527,58.105
1678024359.701,16.113,-25.391,-43.945,15.137,-85.938
1678024359.705,10.742,-24.902,-46.875,-2.930,-106.934
1678024359.709,3.906,-25.391,-47.852,-1.465,103.516
1678024359.713,3.906,-32.227,-46.387,10.254,76.660
1678024359.715,18.555,-39.551,-45.410,16.602,-157.227
1678024359.719,24.902,-34.180,-44.922,11.230,-143.555
1678024359.723,19.531,-27.344,-40.527,-15.625,-118.652
1678024359.727,12.695,-25.879,-41.992,-17.090,-166.992
1678024359.731,14.648,-25.391,-48.828,20.508,-175.781
1678024359.735,33.691,-26.367,-50.293,53.223,10.254
1678024359.739,39.062,-26.367,-50.781,44.434,49.805
1678024359.742,21.973,-30.762,-55.176,11.230,-89.844
1678024359.746,17.090,-34.668,-53.223,4.395,-171.875
1678024359.750,15.137,-31.250,-53.711,29.785,96.680
1678024359.754,16.113,-28.809,-55.664,43.457,298.340
1678024359.758,28.809,-30.273,-51.270,29.785,-40.527
1678024359.776,21.973,-28.320,-51.270,-0.488,-121.582
1678024359.780,0.488,-30.762,-53.223,-13.672,-84.473
1678024359.784,1.465,-31.738,-48.828,16.602,-152.344
1678024359.788,14.160,-25.879,-43.945,36.133,-200.195
1678024359.792,17.090,-26.367,-42.969,20.020,-107.422
1678024359.796,11.719,-27.344,-41.016,-8.789,63.477
1678024359.800,-3.418,-28.320,-38.086,-32.227,1.953
1678024359.803,-11.230,-31.738,-41.016,-18.066,-71.289
1678024359.807,-4.883,-32.715,-41.504,14.160,-73.730
1678024359.811,1.465,-36.621,-41.504,19.531,196.777
1678024359.815,-1.953,-35.156,-41.016,-13.672,216.309
1678024359.819,-15.137,-32.227,-36.621,-35.645,-168.945
1678024359.821,-19.531,-33.203,-41.016,-8.789,-130.859
1678024359.825,-9.277,-30.273,-43.457,20.020,29.297
1678024359.829,5.371,-35.645,-38.574,16.113,-57.129
1678024359.833,11.230,-36.621,-33.203,-10.254,-127.441
1678024359.837,3.418,-30.762,-30.273,-25.879,-137.207
1678024359.841,-4.883,-30.762,-27.344,-1.953,-33.691
1678024359.845,5.371,-34.180,-28.809,32.715,-23.926
1678024359.848,11.719,-37.598,-34.668,31.738,-113.770
1678024359.852,0.488,-38.086,-30.273,-7.324,97.168
1678024359.856,-15.137,-38.086,-29.785,-20.508,146.484
1678024359.860,-21.484,-36.133,-31.738,-14.648,-123.535
1678024359.864,-15.625,-36.621,-28.809,-3.418,-194.824
1678024359.866,-0.977,-34.668,-27.832,17.090,-101.074
1678024359.870,0.488,-28.320,-31.738,-9.277,-81.055
1678024359.874,-18.555,-31.250,-31.250,-41.504,-205.566
1678024359.878,-24.414,-36.621,-25.391,-34.180,-158.691
1678024359.882,-17.578,-38.086,-29.785,-10.742,27.832
1678024359.886,-18.066,-38.574,-32.715,3.906,83.496
1678024359.890,-14.160,-41.992,-27.832,-17.578,4.883
1678024359.893,-6.348,-44.922,-30.273,-45.898,-19.043
1678024359.897,-9.277,-38.086,-34.668,-31.250,272.949
1678024359.901,-11.230,-31.738,-28.809,-1.465,268.066
1678024359.905,-9.277,-35.645,-25.391,0.000,-73.242
1678024359.909,-6.836,-33.691,-28.809,-14.648,-61.523
1678024359.910,-18.066,-32.227,-28.809,-43.945,-107.422
1678024359.914,-27.832,-33.691,-27.344,-42.969,-214.355
1678024359.918,-24.414,-34.668,-29.785,-9.766,-186.035
1678024359.922,-3.906,-31.738,-26.855,13.184,13.184
1678024359.926,-0.977,-28.320,-23.926,2.441,48.340
1678024359.930,-36.621,-37.109,-26.855,-36.133,-69.336
1678024359.934,-51.270,-41.504,-29.785,-40.527,-124.023
1678024359.937,-40.039,-36.133,-30.273,2.930,5.371
1678024359.941,-28.320,-31.250,-26.367,37.598,173.340
1678024359.945,-16.602,-30.273,-30.273,20.996,-60.547
1678024359.949,-22.461,-34.668,-34.668,-23.438,-174.805
1678024359.953,-37.109,-38.574,-40.039,-52.734,-138.184
1678024359.955,-32.227,-37.598,-41.504,-23.926,-157.715
1678024359.959,-20.996,-39.551,-35.156,8.789,-135.742
1678024359.963,-7.812,-37.109,-35.156,-5.859,-72.266
1678024359.967,-4.883,-30.762,-36.133,-43.457,-36.621
1678024359.971,-19.043,-28.809,-35.156,-56.641,-113.281
1678024359.975,-21.973,-28.320,-31.738,-28.320,-206.543
1678024359.979,-6.836,-25.391,-25.879,12.695,-89.844
1678024359.982,-0.488,-22.949,-24.414,15.625,316.895
1678024359.986,-15.137,-26.855,-28.809,-38.574,342.773
1678024359.990,-28.320,-30.273,-35.156,-79.102,-110.352
1678024359.994,-32.715,-29.785,-35.156,-55.176,-78.125
1678024359.998,-22.461,-30.273,-34.668,-13.672,145.996
1678024360.015,-11.719,-27.832,-33.203,-16.602,-30.762
1678024360.019,-25.879,-26.855,-33.203,-53.223,-145.020
1678024360.023,-49.805,-33.203,-31.738,-74.707,-94.238
1678024360.027,-65.918,-37.109,-27.344,-57.129,-84.961
1678024360.031,-59.082,-31.250,-28.320,-21.973,-121.582
1678024360.035,-43.945,-21.973,-24.902,-15.137,-130.371
1678024360.039,-49.316,-26.855,-22.461,-43.457,78.613
1678024360.042,-59.082,-28.320,-26.367,-75.684,217.285
1678024360.046,-70.801,-24.414,-29.785,-75.684,-93.262
1678024360.050,-69.336,-25.391,-31.250,-33.203,-212.891
1678024360.054,-64.941,-26.855,-33.203,-22.461,-59.570
1678024360.058,-68.359,-29.297,-33.691,-64.453,-69.824
1678024360.045,-70.801,-34.180,-28.809,-97.168,-196.289
1678024360.049,-75.684,-30.762,-29.297,-84.961,-250.000
1678024360.053,-72.266,-31.250,-33.203,-41.992,-198.730
1678024360.057,-59.570,-35.156,-35.645,-26.367,-95.703
1678024360.061,-56.152,-36.133,-34.180,-55.176,-154.785
1678024360.065,-68.359,-37.598,-37.109,-95.703,-128.418
1678024360.069,-79.590,-37.109,-36.133,-92.285,50.781
1678024360.072,-75.195,-35.156,-33.691,-46.387,-16.602
1678024360.076,-60.059,-32.715,-35.156,-27.832,-136.230
1678024360.080,-47.852,-38.086,-33.203,-60.547,-70.801
1678024360.084,-46.387,-37.109,-31.250,-93.750,267.578
1678024360.088,-53.711,-32.227,-29.297,-91.309,256.348
1678024360.090,-55.176,-32.227,-26.855,-58.105,-112.793
1678024360.094,-45.898,-34.668,-26.855,-35.156,-142.578
1678024360.098,-38.086,-35.645,-29.785,-61.035,-134.277
1678024360.102,-41.016,-29.297,-32.227,-96.191,-187.988
1678024360.106,-42.480,-26.855,-26.855,-99.609,-211.426
1678024360.110,-46.387,-25.879,-23.926,-61.523,-94.238
1678024360.114,-46.875,-23.926,-25.391,-17.578,65.430
1678024360.117,-39.551,-28.320,-28.809,-38.574,-42.969
1678024360.121,-47.363,-34.180,-29.785,-89.844,-226.562
1678024360.125,-59.082,-36.133,-28.809,-93.750,-71.777
1678024360.129,-66.406,-34.180,-32.227,-52.734,-1.465
1678024360.133,-54.199,-30.762,-28.320,-18.555,-153.809
1678024360.150,-35.156,-23.926,-23.926,-23.926,-77.148
1678024360.154,-40.039,-24.902,-26.367,-59.570,-7.324
1678024360.158,-57.617,-28.809,-25.879,-85.449,-87.402
1678024360.162,-57.129,-24.902,-25.391,-60.059,-146.484
1678024360.166,-47.852,-20.996,-29.297,-15.137,-81.055
1678024360.170,-49.316,-20.996,-29.297,-16.602,33.203
1678024360.174,-53.711,-25.391,-28.320,-62.500,38.574
1678024360.177,-55.176,-25.391,-27.344,-72.266,-67.871
1678024360.181,-62.988,-25.879,-25.879,-40.527,-34.668
1678024360.185,-57.129,-28.809,-30.273,-2.930,48.828
1678024360.189,-44.922,-29.785,-35.645,6.836,-67.871
1678024360.193,-50.293,-30.762,-35.156,-35.645,-166.992
1678024360.196,-53.711,-29.297,-34.668,-72.754,-54.199
1678024360.200,-65.918,-33.203,-33.203,-52.734,196.289
1678024360.204,-69.336,-36.133,-33.203,-15.137,157.227
1678024360.208,-51.758,-33.203,-35.645,-14.648,-66.895
1678024360.212,-50.293,-35.156,-34.180,-53.711,-37.598
1678024360.216,-56.641,-33.691,-31.738,-85.938,75.684
1678024360.220,-62.500,-27.832,-33.203,-67.383,9.766
1678024360.223,-59.570,-28.809,-31.738,-16.113,-116.699
1678024360.227,-43.457,-30.762,-27.344,-4.883,112.793
1678024360.231,-30.762,-28.809,-29.297,-43.945,265.137
1678024360.235,-42.480,-30.273,-34.668,-84.473,-89.844
1678024360.239,-63.477,-32.715,-33.691,-83.496,-171.875
1678024360.240,-56.641,-26.367,-23.926,-28.809,-101.074
1678024360.244,-48.340,-27.832,-23.926,2.441,-105.469
1678024360.248,-42.480,-31.250,-32.715,-36.133,-133.301
1678024360.252,-41.992,-28.809,-31.250,-69.824,-166.016
1678024360.256,-59.082,-25.391,-29.297,-58.105,-89.844
1678024360.260,-58.594,-19.043,-32.715,-22.949,23.438
1678024360.264,-41.992,-19.531,-32.715,-4.395,25.391
1678024360.267,-38.574,-21.973,-31.738,-32.227,29.785
1678024360.271,-42.969,-24.414,-32.227,-73.730,287.598
1678024360.275,-51.270,-23.438,-28.320,-69.824,360.352
1678024360.279,-56.641,-23.926,-29.297,-39.551,-27.344
1678024360.283,-44.434,-23.926,-32.715,-18.066,-121.094
1678024360.285,-28.809,-20.996,-29.785,-28.320,-66.895
1678024360.289,-31.738,-23.438,-29.785,-69.824,-156.738
1678024360.293,-48.828,-22.461,-35.156,-76.172,-191.406
1678024360.297,-57.617,-21.973,-40.527,-29.297,-143.555
1678024360.301,-47.363,-22.949,-41.504,-0.977,-96.680
1678024360.305,-39.062,-22.949,-40.527,-31.738,-47.852
1678024360.309,-43.945,-25.391,-39.062,-78.125,-97.656
1678024360.312,-58.105,-27.344,-40.039,-89.844,4.395
1678024360.316,-57.129,-23.438,-41.016,-54.199,164.551
1678024360.320,-49.316,-22.949,-39.551,-17.578,-119.141
1678024360.324,-42.480,-24.902,-33.203,-33.203,-173.340
1678024360.328,-46.387,-25.879,-34.180,-81.055,-118.652
1678024360.330,-55.664,-27.832,-38.574,-93.750,-181.152
1678024360.334,-58.594,-25.879,-35.156,-64.941,-209.473
1678024360.338,-57.129,-23.926,-34.180,-25.879,-134.277
1678024360.342,-52.734,-30.273,-31.738,-23.926,-77.148
1678024360.346,-54.199,-30.762,-31.738,-67.383,-169.922
1678024360.350,-62.012,-30.762,-32.227,-91.309,-161.621
1678024360.354,-61.035,-34.668,-33.203,-65.918,-24.414
1678024360.357,-55.176,-28.809,-33.203,-27.832,298.340
1678024360.361,-48.828,-26.855,-35.156,-22.949,313.965
1678024360.365,-46.387,-29.785,-35.156,-63.477,-94.727
1678024360.369,-61.523,-29.297,-31.250,-85.938,-128.418
1678024360.373,-54.688,-28.809,-25.391,-61.035,-13.672
1678024360.375,-44.922,-30.762,-24.902,-22.461,-180.664
1678024360.379,-49.316,-31.250,-30.273,-14.648,-212.891
1678024360.383,-46.875,-35.156,-29.785,-49.316,-118.164
1678024360.387,-52.246,-34.180,-33.691,-81.543,-142.578
1678024360.391,-57.129,-24.902,-33.203,-71.289,-192.871
1678024360.395,-54.688,-26.855,-30.762,-39.062,-212.891
1678024360.399,-41.016,-30.273,-32.227,-10.742,17.090
1678024360.402,-36.133,-23.926,-30.273,-30.273,187.500
1678024360.406,-45.410,-20.508,-29.785,-83.496,-115.234
1678024360.410,-58.594,-22.949,-32.715,-78.613,-266.113
1678024360.414,-64.453,-22.949,-37.598,-45.898,-111.328
1678024360.418,-52.246,-20.020,-35.645,-34.180,-27.344
1678024360.421,-40.527,-16.602,-31.250,-44.434,-61.523
1678024360.425,-42.480,-14.648,-32.227,-71.289,-109.375
1678024360.429,-54.199,-17.578,-32.715,-69.824,-83.008
1678024360.433,-60.059,-21.973,-32.227,-36.621,-72.266
1678024360.437,-43.457,-16.113,-32.715,-13.184,-133.301
1678024360.441,-28.809,-21.484,-33.691,-28.320,-22.461
1678024360.445,-28.809,-26.367,-32.715,-61.523,174.805
1678024360.448,-39.062,-20.996,-34.180,-70.312,22.461
1678024360.452,-47.852,-21.484,-31.250,-40.039,-166.504
1678024360.456,-35.156,-12.207,-27.832,-3.418,-125.488
1678024360.460,-20.020,-6.836,-32.715,-11.719,44.434
1678024360.464,-29.785,-5.859,-22.949,-47.363,-23.926
1678024360.480,-46.387,-14.160,-19.043,-64.941,-180.664
1678024360.484,-51.270,-9.277,-17.090,-58.594,-122.070
1678024360.488,-51.270,0.488,-4.883,-31.738,5.859
1678024360.492,-54.199,-12.207,-12.695,-46.387,-73.242
1678024360.496,-70.801,-3.418,-10.742,-100.586,-229.980
1678024360.500,-91.797,3.906,-4.395,-119.629,-2.930
1678024360.504,-116.211,-5.859,-10.742,-104.004,245.605
1678024360.507,-136.230,-1.465,-3.418,-94.727,45.898
1678024360.511,-142.090,13.672,5.371,-135.254,-111.816
1678024360.515,-167.480,16.113,9.277,-202.148,-74.707
1678024360.519,-216.309,1.953,11.719,-238.770,-100.586
1678024360.523,-242.676,0.000,20.020,-237.305,-218.262
1678024360.525,-256.836,2.930,26.855,-214.355,-182.617
1678024360.529,-269.531,15.625,28.320,-234.863,-138.672
1678024360.533,-278.809,15.625,36.621,-285.645,-155.762
1678024360.537,-289.551,4.883,38.086,-311.523,-156.738
1678024360.541,-301.270,14.160,31.250,-303.223,-97.656
1678024360.545,-303.223,19.531,33.691,-264.160,68.848
1678024360.549,-286.133,10.742,37.109,-245.117,80.566
1678024360.552,-260.742,15.625,39.551,-264.648,-23.926
1678024360.556,-257.812,12.207,33.203,-289.062,-54.688
1678024360.560,-273.438,3.906,26.855,-266.602,141.113
1678024360.564,-271.973,6.348,23.438,-221.680,162.598
1678024360.568,-230.469,8.789,20.996,-193.848,-140.625
1678024360.570,-208.984,4.395,17.090,-202.637,-84.473
1678024360.574,-219.238,-1.465,14.648,-221.680,-69.336
1678024360.578,-225.098,-4.883,6.836,-222.168,-185.547
1678024360.582,-215.332,-9.277,0.488,-206.055,-219.727
1678024360.586,-174.805,-9.766,-2.930,-178.711,-118.164
1678024360.590,-151.367,-16.602,-10.742,-179.199,-14.160
1678024360.594,-144.531,-24.414,-18.066,-197.266,-63.477
1678024360.597,-142.090,-30.762,-25.391,-184.570,-130.859
1678024360.601,-127.441,-33.691,-27.832,-119.629,38.574
1678024360.605,-87.402,-30.273,-30.762,-77.637,252.441
1678024360.609,-63.477,-32.715,-38.086,-101.074,-36.133
1678024360.613,-67.871,-35.156,-40.527,-130.859,-187.012
1678024360.616,-77.148,-38.086,-44.922,-131.348,-106.445
1678024360.620,-73.730,-43.457,-49.805,-83.984,-140.625
1678024360.624,-56.152,-36.133,-46.875,-39.551,-148.926
1678024360.628,-47.363,-37.109,-48.340,-46.875,-64.941
1678024360.632,-41.504,-45.410,-49.316,-76.660,-85.449
1678024360.636,-41.504,-45.410,-48.828,-65.918,-99.609
1678024360.640,-40.039,-49.316,-50.293,-22.461,13.184
1678024360.643,-18.555,-51.270,-49.316,15.625,-4.395
1678024360.647,6.836,-42.969,-49.316,24.902,258.789
1678024360.651,21.484,-41.016,-52.246,-4.395,329.102
1678024360.655,21.484,-50.293,-51.758,-20.996,-71.289
1678024360.659,9.277,-51.270,-50.781,13.672,-99.609
1678024360.660,10.254,-52.734,-52.246,54.199,-8.301
1678024360.664,34.180,-54.199,-51.758,51.270,-32.227
1678024360.668,46.387,-50.293,-50.781,27.344,-91.309
1678024360.672,23.926,-54.199,-53.711,11.719,-74.219
1678024360.676,15.625,-51.270,-53.711,30.273,-92.285
1678024360.680,33.203,-47.852,-51.758,69.824,-74.219
1678024360.684,66.895,-57.129,-52.734,78.613,14.160
1678024360.687,70.801,-57.617,-51.270,49.316,119.629
1678024360.691,33.691,-53.711,-50.293,35.645,163.086
1678024360.695,16.113,-50.293,-50.293,57.617,-106.445
1678024360.699,26.367,-49.316,-45.898,86.426,-116.211
1678024360.703,46.875,-51.270,-45.898,91.797,36.621
1678024360.706,61.523,-47.852,-47.363,73.730,-84.473
1678024360.710,43.945,-45.898,-46.387,48.828,-182.129
1678024360.714,21.973,-45.410,-44.922,48.340,-97.656
1678024360.718,27.344,-44.434,-46.387,73.730,-62.988
1678024360.722,43.457,-47.852,-48.340,86.426,-64.941
1678024360.726,52.734,-48.828,-51.270,54.199,-50.781
1678024360.730,39.062,-46.387,-53.223,27.832,-83.984
1678024360.733,21.484,-40.039,-51.270,48.340,214.844
1678024360.737,15.625,-44.434,-53.223,73.242,281.738
1678024360.741,31.250,-42.969,-54.688,73.730,-104.492
1678024360.745,47.852,-37.109,-56.152,46.875,-139.648
1678024360.749,35.156,-40.527,-57.129,20.020,-110.840
1678024360.752,10.254,-41.504,-62.500,15.625,-169.434
1678024360.756,14.160,-44.922,-64.941,41.016,-82.520
1678024360.760,41.504,-41.992,-57.129,68.848,132.812
1678024360.764,50.293,-31.738,-54.199,57.129,63.477
1678024360.768,41.504,-32.227,-53.711,30.762,-135.742
1678024360.772,33.203,-34.180,-51.270,25.391,-147.949
1678024360.776,25.391,-33.691,-55.176,46.875,108.398
1678024360.779,31.738,-34.668,-53.711,71.289,247.070
1678024360.783,52.734,-29.297,-51.270,52.246,-78.125
1678024360.787,45.410,-28.320,-56.641,13.184,-182.129
1678024360.791,22.949,-35.645,-54.688,6.348,-155.273
1678024360.795,8.301,-34.668,-49.316,29.785,-168.457
1678024360.795,6.836,-30.762,-48.340,49.805,-125.977
1678024360.799,23.926,-34.180,-47.852,43.457,-45.410
1678024360.803,28.809,-36.621,-44.434,9.277,-70.801
1678024360.807,4.883,-36.133,-46.875,-16.113,-84.961
1678024360.811,-12.695,-32.715,-46.875,3.906,31.250
1678024360.815,-11.719,-29.785,-42.480,35.156,77.148
1678024360.819,1.953,-30.762,-42.969,32.715,407.715
1678024360.822,2.441,-33.691,-46.387,-4.883,519.531
1678024360.826,-19.043,-36.133,-48.340,-36.133,26.855
1678024360.830,-24.414,-28.809,-46.387,-18.066,-58.594
1678024360.834,-7.812,-28.809,-45.410,14.648,49.316
1678024360.838,14.648,-34.668,-42.969,8.301,-8.789
1678024360.840,16.113,-27.344,-40.039,-19.043,-64.453
1678024360.844,-0.977,-22.461,-40.039,-28.320,-104.004
1678024360.848,-12.695,-27.344,-40.039,-19.043,-123.535
1678024360.852,-5.859,-29.785,-38.574,6.348,-86.914
1678024360.856,3.906,-29.785,-35.156,14.648,3.418
1678024360.860,5.371,-33.203,-32.715,-11.719,111.816
1678024360.864,-4.883,-33.691,-35.645,-33.203,76.172
1678024360.867,-11.719,-31.738,-37.598,-26.367,-5.371
1678024360.871,-10.742,-31.250,-33.691,2.930,-65.430
1678024360.875,-8.789,-28.809,-32.715,12.695,86.914
1678024360.879,-1.953,-27.832,-40.039,-14.648,252.441
1678024360.883,-8.301,-28.809,-37.109,-42.480,-91.309
1678024360.901,-30.762,-31.738,-31.250,-35.645,-218.262
1678024360.905,-31.250,-31.738,-33.203,-7.812,-100.586
1678024360.909,-18.555,-34.180,-31.738,5.859,-30.762
1678024360.913,-18.066,-40.527,-33.203,-25.879,-145.020
1678024360.917,-27.344,-38.574,-33.691,-62.012,-183.105
1678024360.921,-42.480,-36.621,-35.645,-54.688,-15.137
1678024360.925,-48.340,-39.551,-38.574,-32.227,18.066
1678024360.928,-29.297,-41.504,-36.133,-14.648,-22.949
1678024360.932,-17.578,-41.992,-39.551,-28.320,15.625
1678024360.936,-35.156,-43.457,-40.527,-53.223,313.965
1678024360.940,-56.152,-47.852,-40.527,-52.246,295.898
1678024360.944,-66.895,-48.828,-42.969,-21.484,-82.031
1678024360.945,-59.082,-48.828,-42.480,5.371,-113.770
1678024360.949,-37.109,-44.922,-40.527,-19.043,-112.305
1678024360.953,-29.297,-41.992,-35.156,-52.246,-162.598
1678024360.957,-45.410,-42.480,-37.109,-58.594,-198.242
1678024360.961,-57.617,-41.016,-40.039,-41.992,-157.715
1678024360.965,-40.039,-44.434,-40.039,-19.531,-15.137
1678024360.969,-21.484,-51.758,-37.598,-24.902,30.273
1678024360.972,-14.648,-47.363,-34.180,-47.363,-131.348
1678024360.976,-27.832,-30.762,-36.621,-58.594,-16.113
1678024360.980,-56.152,-27.832,-40.039,-48.340,128.906
1678024360.984,-46.387,-34.668,-39.062,-29.297,-135.742
1678024360.988,-31.738,-34.180,-35.156,-40.527,-176.270
1678024360.990,-29.297,-33.691,-35.645,-67.383,-100.586
1678024360.994,-40.527,-35.645,-41.992,-75.195,-94.238
1678024360.998,-53.711,-39.551,-43.457,-55.176,-158.691
1678024361.002,-46.387,-42.480,-40.039,-27.832,-130.371
1678024361.006,-26.855,-35.156,-36.621,-23.438,-14.648
1678024361.010,-16.113,-26.855,-36.621,-52.246,5.859
1678024361.014,-36.621,-29.297,-42.480,-73.242,-74.707
1678024361.017,-53.711,-31.738,-44.434,-53.711,-103.516
1678024361.021,-48.828,-34.668,-41.016,-17.090,158.691
1678024361.025,-30.762,-38.574,-38.086,-16.602,270.020
1678024361.029,-19.043,-30.273,-35.645,-57.129,-82.031
1678024361.033,-26.367,-25.879,-37.109,-76.660,-122.559
1678024361.037,-38.574,-26.855,-39.062,-54.199,-64.941
1678024361.041,-42.480,-25.879,-37.598,-15.137,-100.098
1678024361.045,-37.598,-27.344,-39.062,-3.418,-92.285
1678024361.049,-28.320,-23.438,-33.203,-31.738,24.414
1678024361.053,-45.898,-25.879,-30.273,-60.059,115.723
1678024361.057,-77.148,-28.809,-31.250,-49.805,-36.621
1678024361.061,-61.035,-20.508,-24.902,-11.719,-109.375
1678024361.064,-31.250,-24.902,-26.855,0.000,145.508
1678024361.068,-20.996,-30.273,-30.273,-34.180,178.223
1678024361.072,-23.438,-30.762,-26.855,-55.664,-112.305
1678024361.076,-54.199,-39.062,-27.832,-44.434,-144.043
1678024361.080,-78.125,-38.574,-29.785,-20.508,-91.797
1678024361.080,-55.176,-38.574,-32.715,-12.207,-64.941
1678024361.084,4.395,-37.598,-35.156,-32.227,-86.426
1678024361.088,21.973,-33.203,-32.227,-51.270,-179.199
1678024361.092,-21.973,-39.062,-29.297,-45.898,-96.680
1678024361.096,-29.785,-42.969,-25.879,-9.766,-45.898
1678024361.100,-25.879,-44.434,-20.996,11.230,-20.508
1678024361.104,-32.227,-47.852,-16.113,-10.742,0.000
1678024361.107,-46.875,-50.781,-17.090,-53.711,232.422
1678024361.111,-97.168,-57.617,-19.043,-68.848,384.277
1678024361.115,-87.402,-55.664,-18.066,-16.602,-25.391
1678024361.119,-19.043,-34.668,-23.438,29.785,-152.344
1678024361.123,-6.348,-21.973,-26.855,-18.555,-81.055
1678024361.125,12.695,-18.555,-27.344,-92.773,-200.195
1678024361.129,7.324,-14.648,-32.715,-90.820,-218.750
1678024361.133,-63.477,-9.277,-38.086,-53.711,-101.562
1678024361.137,-51.758,0.000,-44.434,-55.664,-67.383
1678024361.141,-59.570,3.906,-50.293,-86.914,-123.047
1678024361.145,-90.820,14.648,-41.504,-130.371,-154.297
1678024361.149,-94.727,23.438,-40.527,-152.832,71.289
1678024361.152,-132.324,18.066,-54.688,-131.348,267.578
1678024361.156,-132.324,20.996,-55.664,-113.770,-89.844
1678024361.160,-79.102,25.391,-53.223,-138.672,-284.668
1678024361.164,-54.199,32.227,-60.547,-205.566,-212.891
1678024361.168,-78.613,46.875,-53.223,-228.516,-249.512
1678024361.170,-124.023,55.664,-49.805,-205.078,-253.906
1678024361.174,-146.484,52.246,-62.988,-201.172,-198.242
1678024361.178,-159.180,58.105,-59.570,-234.863,-131.836
1678024361.182,-179.199,68.359,-51.270,-297.852,-141.113
1678024361.186,-235.840,67.871,-58.594,-319.336,-220.703
1678024361.190,-292.969,64.453,-65.430,-291.504,-145.508
1678024361.194,-291.504,59.570,-66.895,-266.602,87.891
1678024361.197,-228.516,66.895,-67.383,-297.852,51.270
1678024361.201,-158.203,67.871,-62.012,-366.699,-136.719
1678024361.205,-125.488,76.172,-47.852,-372.070,-135.254
1678024361.209,-145.020,68.359,-47.363,-303.711,40.527
1678024361.213,-207.520,52.246,-54.199,-233.398,-47.363
1678024361.215,-196.289,54.688,-52.246,-246.094,-270.020
1678024361.219,-86.426,54.688,-57.617,-317.383,-268.555
1678024361.223,-104.492,47.363,-62.988,-355.957,-363.770
1678024361.227,-190.430,40.039,-61.035,-329.590,-397.949
1678024361.231,-207.520,36.621,-58.105,-234.863,-327.637
1678024361.235,-201.660,35.645,-54.688,-206.543,-90.820
1678024361.239,-130.859,34.668,-56.152,-283.203,-22.461
1678024361.242,-161.621,22.461,-62.500,-338.379,-319.824
1678024361.246,-201.660,15.137,-67.871,-280.273,-412.598
1678024361.250,-171.875,20.020,-61.523,-172.363,-128.906
1678024361.254,-132.812,19.531,-52.734,-165.527,40.527
1678024361.258,-42.480,17.578,-53.223,-238.770,-209.961
1678024361.276,15.625,11.719,-60.547,-282.227,-412.109
1678024361.280,-12.207,16.602,-55.664,-190.918,-307.129
1678024361.284,-109.375,9.277,-48.340,-53.223,-183.594
1678024361.288,-93.262,0.977,-51.270,-68.848,-240.234
1678024361.292,-9.277,3.418,-58.594,-222.656,-308.105
1678024361.296,75.684,-0.977,-59.570,-315.918,-224.121
1678024361.300,23.926,1.465,-57.617,-239.258,-227.051
1678024361.303,-98.633,3.906,-55.176,-120.117,-290.527
1678024361.307,-111.816,-4.883,-55.176,-40.039,-244.141
1678024361.311,-112.305,-14.160,-59.082,-41.504,83.496
1678024361.315,-113.770,-10.742,-67.871,-162.598,13.184
1678024361.319,-56.152,-6.348,-70.312,-190.918,-375.000
1678024361.320,-8.301,0.977,-62.988,-8.789,-238.281
1678024361.324,-41.016,1.465,-66.406,99.609,-130.859
1678024361.328,-50.781,-11.719,-74.219,-3.906,-256.348
1678024361.332,27.344,-5.371,-81.543,-167.480,-341.797
1678024361.336,5.859,-6.836,-82.520,-178.223,-256.836
1678024361.340,-132.324,-25.879,-79.590,-60.059,-78.613
1678024361.344,-116.211,-24.902,-85.449,-6.836,-60.547
1678024361.347,-85.938,-20.508,-86.426,-81.055,-239.258
1678024361.351,-31.250,-27.344,-88.867,-173.828,-182.617
1678024361.355,43.457,-28.809,-88.379,-114.746,-68.848
1678024361.359,69.824,-18.066,-89.355,53.223,-232.910
1678024361.363,79.590,-25.879,-91.309,189.941,-186.523
1678024361.365,98.145,-35.156,-90.332,94.238,-144.043
1678024361.369,166.504,-24.414,-94.238,-58.105,-243.652
1678024361.373,106.934,-24.902,-84.961,-23.926,-317.383
1678024361.377,24.902,-39.551,-72.754,117.188,-209.961
1678024361.381,45.410,-39.062,-78.125,248.047,9.766
1678024361.385,105.469,-42.969,-78.613,212.891,91.797
1678024361.389,123.535,-41.992,-78.125,131.836,-11.719
1678024361.392,109.375,-14.648,-72.754,127.441,-228.027
1678024361.396,105.469,-24.414,-59.082,306.641,67.383
1678024361.400,50.293,-51.758,-58.105,524.902,298.340
1678024361.404,91.309,-41.016,-65.430,519.043,-0.977
1678024361.408,177.246,-31.250,-65.430,396.484,-149.414
1678024361.410,182.617,-35.645,-68.848,436.523,-220.215
1678024361.414,183.594,-40.039,-69.336,618.164,-223.633
1678024361.418,176.270,-49.805,-57.129,820.312,-25.879
1678024361.422,82.031,-53.711,-50.781,882.324,78.613
1678024361.426,112.305,-49.805,-58.105,713.379,-76.172
1678024361.430,214.355,-47.363,-61.035,630.859,-188.965
1678024361.434,130.859,-53.223,-49.316,834.961,-104.492
1678024361.437,89.844,-52.734,-43.457,976.074,187.012
1678024361.441,155.762,-51.270,-46.875,971.191,413.574
1678024361.445,161.621,-53.223,-45.898,937.500,101.074
1678024361.449,178.223,-49.805,-43.945,883.789,-216.797
1678024361.453,133.301,-59.082,-36.621,944.336,-121.094
1678024361.455,87.402,-65.430,-30.762,975.098,44.434
1678024361.459,82.520,-50.293,-33.203,965.332,28.809
1678024361.463,122.070,-37.109,-30.762,968.750,-81.055
1678024361.467,111.328,-62.988,-26.367,968.750,-181.641
1678024361.471,85.449,-69.336,-32.227,968.262,-170.410
1678024361.475,119.141,-40.527,-41.504,963.867,-17.578
1678024361.479,107.910,-43.457,-39.062,979.980,220.703
1678024361.482,67.383,-57.129,-32.227,894.531,197.754
1678024361.486,17.090,-67.871,-34.668,780.273,10.254
1678024361.490,39.062,-71.289,-36.621,837.402,-161.133
1678024361.494,8.789,-68.359,-30.273,937.988,-166.504
1678024361.498,7.812,-71.289,-24.902,981.934,310.059
1678024361.500,104.004,-82.031,-30.273,878.418,291.504
1678024361.504,69.336,-83.984,-31.738,713.867,-196.777
1678024361.508,10.254,-76.172,-27.832,712.402,-242.188
1678024361.512,14.160,-73.242,-25.879,808.594,-64.453
1678024361.516,54.199,-70.312,-20.996,843.750,49.805
1678024361.520,98.145,-80.566,-14.648,755.859,11.719
1678024361.524,79.102,-81.055,-7.812,561.523,123.047
1678024361.527,36.133,-69.336,-11.230,453.125,135.254
1678024361.531,51.758,-70.312,-15.137,581.055,-65.430
1678024361.535,43.457,-74.219,-9.766,725.098,9.277
1678024361.539,22.461,-71.777,-11.719,618.164,84.961
1678024361.543,38.086,-64.941,-17.578,376.465,-68.359
1678024361.545,74.707,-73.730,-16.602,309.082,-227.539
1678024361.549,24.902,-86.426,-18.555,440.918,-159.180
1678024361.553,-56.641,-87.402,-19.531,570.312,3.906
1678024361.557,5.859,-80.078,-20.020,500.977,20.996
1678024361.561,35.156,-76.172,-19.531,248.535,-134.277
1678024361.565,7.812,-75.195,-18.555,180.664,-210.449
1678024361.569,42.480,-62.500,-21.973,319.824,143.066
1678024361.572,14.648,-59.082,-17.578,448.242,324.707
1678024361.576,-24.414,-73.242,-11.230,433.105,81.543
1678024361.580,15.625,-75.195,-13.184,256.348,-93.750
1678024361.584,11.230,-73.242,-12.695,191.406,-81.543
1678024361.588,-45.410,-72.266,-15.137,255.371,-109.863
1678024361.592,-75.684,-69.336,-15.625,313.477,32.715
1678024361.596,-60.547,-66.895,-11.230,323.242,239.258
1678024361.600,17.578,-60.547,-9.766,184.082,106.934
1678024361.604,54.199,-63.477,-10.742,48.828,-219.727
1678024361.608,16.113,-65.430,-14.648,134.766,-253.418
1678024361.612,-14.160,-62.500,-12.207,300.781,94.727
1678024361.616,-31.250,-65.430,-8.789,298.828,289.062
1678024361.619,-39.062,-74.219,-6.836,140.625,-13.184
1678024361.623,0.488,-65.430,-9.766,10.742,-320.801
1678024361.627,-11.719,-54.688,-16.602,48.828,-80.566
1678024361.631,-23.926,-57.617,-19.043,193.848,180.664
1678024361.635,22.461,-55.664,-19.043,181.152,3.418
1678024361.651,-39.551,-56.152,-15.137,15.137,-104.004
1678024361.655,-72.266,-54.199,-9.277,-59.570,-156.738
1678024361.659,-81.055,-57.129,-14.160,-18.066,-84.961
1678024361.663,-91.797,-55.664,-17.090,105.957,58.594
1678024361.667,-49.316,-48.828,-10.254,160.645,96.191
1678024361.671,-25.391,-45.898,-10.254,33.691,230.469
1678024361.675,-21.484,-46.875,-9.766,-75.195,84.473
1678024361.678,-14.648,-50.781,-13.672,-21.484,-112.793
1678024361.682,-25.879,-55.176,-14.648,129.883,11.719
1678024361.686,-59.570,-55.664,-12.207,195.312,329.590
1678024361.690,19.043,-45.410,-17.090,62.012,296.387
1678024361.694,70.801,-43.945,-16.602,-81.543,-169.434
1678024361.695,-102.539,-53.711,-12.207,-63.477,-216.797
1678024361.699,-142.578,-57.129,-12.695,66.895,-54.688
1678024361.703,18.555,-49.805,-18.066,142.090,15.625
1678024361.707,44.434,-50.293,-20.020,21.484,-31.738
1678024361.711,-8.301,-57.129,-16.113,-141.602,-117.188
1678024361.715,-94.727,-57.617,-11.719,-95.215,-99.121
1678024361.719,-171.875,-60.059,-5.859,81.543,6.348
1678024361.722,-81.543,-50.293,-3.906,185.547,148.438
1678024361.726,-21.484,-41.504,-8.789,75.195,208.496
1678024361.730,-39.062,-39.551,-14.648,-101.074,140.625
1678024361.734,-53.223,-35.645,-15.625,-98.145,-149.414
1678024361.738,-65.430,-42.480,-14.160,44.922,-193.359
1678024361.740,-92.285,-46.387,-15.137,116.699,4.395
1678024361.744,-85.938,-36.621,-14.648,-3.906,36.133
1678024361.748,-58.594,-32.227,-18.555,-159.668,-164.551
1678024361.752,-49.805,-37.109,-25.879,-176.758,-278.809
1678024361.756,-14.160,-44.922,-26.855,-59.570,-147.461
1678024361.760,-14.648,-41.992,-26.367,62.988,75.684
1678024361.764,-45.410,-38.086,-19.043,38.574,169.922
1678024361.767,-81.543,-42.480,-15.625,-118.164,20.020
1678024361.771,-122.559,-45.898,-13.184,-176.758,227.539
1678024361.775,-76.660,-39.551,-10.742,-62.988,353.516
1678024361.779,-54.688,-37.109,-8.789,86.914,67.383
1678024361.783,-26.367,-36.621,-11.230,78.613,110.352
1678024361.785,-17.578,-33.203,-11.230,-20.996,35.156
1678024361.789,-81.543,-37.598,-11.230,-138.184,-189.941
1678024361.793,-77.637,-45.898,-18.066,-135.254,-202.148
1678024361.797,-87.402,-45.898,-18.066,36.621,-20.508
1678024361.801,-69.336,-40.039,-12.695,64.453,94.238
1678024361.805,-51.758,-43.457,-14.648,-71.289,50.781
1678024361.809,-10.742,-40.527,-19.531,-187.012,-150.879
1678024361.812,-4.883,-35.156,-12.695,-97.656,-60.059
1678024361.816,-62.500,-40.527,-14.160,78.613,198.730
1678024361.820,-44.434,-44.922,-20.020,83.496,89.844
1678024361.824,-18.555,-39.551,-18.555,-77.637,-26.367
1678024361.828,-49.316,-35.156,-14.160,-177.246,-121.094
1678024361.831,-114.746,-38.574,-10.742,-107.910,-157.227
1678024361.835,-119.141,-46.875,-15.625,9.277,-100.586
1678024361.839,-26.367,-45.410,-17.578,54.199,6.836
1678024361.843,8.301,-40.039,-16.602,-35.156,-40.527
1678024361.847,-57.129,-41.504,-14.648,-147.461,-214.355
1678024361.851,-84.473,-38.086,-13.184,-131.348,-164.062
1678024361.855,-60.059,-35.156,-11.230,15.137,-5.371
1678024361.858,-58.594,-39.551,-11.230,77.637,343.262
1678024361.862,-76.660,-45.898,-14.160,-45.898,324.707
1678024361.866,-101.074,-47.852,-15.625,-173.828,-277.344
1678024361.870,-90.332,-44.434,-14.648,-139.648,-274.414
1678024361.874,-78.125,-50.293,-13.672,11.719,85.938
1678024361.876,-74.219,-51.270,-15.137,67.383,126.465
1678024361.880,-48.340,-49.805,-20.508,-30.762,-60.547
1678024361.884,15.625,-47.363,-21.484,-163.574,-100.098
1678024361.888,32.227,-46.387,-22.461,-162.598,-98.145
1678024361.892,-46.387,-51.758,-20.020,-40.039,-122.559
1678024361.896,-111.328,-52.734,-14.160,69.336,-24.902
1678024361.900,-70.801,-51.270,-17.090,6.348,207.031
1678024361.903,-16.113,-46.875,-25.879,-187.012,170.898
1678024361.907,-99.121,-48.340,-26.855,-219.238,-156.250
1678024361.911,-128.906,-49.316,-21.973,-56.152,-105.469
1678024361.915,-37.109,-43.945,-23.926,44.434,40.527
1678024361.919,-7.812,-40.039,-24.902,-1.465,3.906
1678024361.937,-39.551,-36.133,-22.949,-132.324,-172.852
1678024361.941,-66.406,-35.645,-15.137,-198.730,-232.910
1678024361.945,-86.426,-36.621,-13.672,-78.613,-6.836
1678024361.949,-92.285,-43.457,-18.555,56.641,109.863
1678024361.953,-55.664,-47.852,-14.648,20.996,53.223
1678024361.957,-22.461,-38.086,-17.090,-146.484,-23.926
1678024361.961,-8.789,-33.691,-22.461,-196.777,125.488
1678024361.964,-23.438,-31.738,-25.391,-90.820,191.406
1678024361.968,-12.695,-22.949,-31.250,38.086,24.902
1678024361.972,12.207,-22.461,-35.645,46.387,104.492
1678024361.976,-19.531,-22.461,-40.527,-94.727,137.207
1678024361.980,-21.973,-16.113,-42.969,-182.129,-144.531
1678024361.965,8.301,-9.766,-48.828,-130.859,-234.863
1678024361.969,-56.641,-9.277,-49.805,15.625,50.781
1678024361.973,-72.754,-13.184,-47.363,54.199,178.711
1678024361.977,-26.367,-13.184,-58.105,-104.004,-23.926
1678024361.981,-13.184,-15.137,-61.035,-217.285,-179.688
1678024361.985,-47.363,-18.555,-55.664,-120.117,-34.668
1678024361.989,-85.449,-21.484,-54.688,44.922,147.461
1678024361.992,-41.016,-22.949,-51.758,77.148,114.258
1678024361.996,20.996,-18.555,-49.316,-47.852,-108.398
1678024362.000,31.250,-16.113,-44.434,-172.363,-47.852
1678024362.004,29.297,-16.113,-41.504,-110.352,167.969
1678024362.008,41.992,-22.949,-45.898,28.320,-6.836
1678024362.025,-27.832,-26.855,-43.457,65.918,-23.926
1678024362.029,-103.027,-25.391,-41.016,-41.504,0.977
1678024362.033,-58.105,-29.297,-43.945,-175.293,-220.215
1678024362.037,23.438,-28.320,-46.387,-155.273,-297.852
1678024362.041,-47.363,-28.320,-42.969,18.066,-97.168
1678024362.045,-94.727,-35.156,-45.410,100.586,160.156
1678024362.049,-26.367,-35.645,-46.387,-23.438,66.895
1678024362.052,-5.859,-29.785,-40.527,-157.715,-146.973
1678024362.056,13.672,-20.508,-39.551,-158.691,-53.223
1678024362.060,-3.418,-20.020,-42.969,-23.438,338.867
1678024362.064,-10.254,-25.879,-42.480,80.078,442.871
1678024362.068,-4.395,-28.809,-35.645,5.371,63.965
1678024362.070,-48.828,-29.785,-34.668,-155.762,-180.664
1678024362.074,-59.082,-28.809,-34.180,-211.914,-211.426
1678024362.078,-49.316,-31.250,-30.273,-73.242,-176.270
1678024362.082,-38.574,-22.461,-26.367,49.805,15.625
1678024362.086,-2.441,-18.555,-25.391,-23.926,118.164
1678024362.090,8.789,-24.902,-31.738,-188.477,23.926
1678024362.094,-22.461,-29.297,-36.133,-248.047,-36.133
1678024362.097,-30.273,-28.320,-36.621,-135.742,-120.117
1678024362.101,8.789,-26.367,-34.180,-0.488,69.824
1678024362.105,-13.184,-27.832,-32.227,-35.645,327.637
1678024362.109,-25.391,-22.949,-28.809,-186.523,-24.902
1678024362.113,-17.578,-16.602,-22.461,-234.863,-334.961
1678024362.115,-55.664,-12.207,-30.273,-147.461,-255.859
1678024362.119,-56.641,-15.137,-37.598,-28.320,-44.434
1678024362.123,-52.246,-18.555,-33.203,-41.992,2.930
1678024362.127,-28.809,-11.719,-40.039,-212.402,-90.820
1678024362.131,-3.906,1.465,-37.598,-310.547,-164.062
1678024362.135,-67.871,8.301,-44.434,-208.984,-135.742
1678024362.139,-125.488,6.836,-51.270,-56.641,-58.105
1678024362.142,-111.816,6.348,-40.527,-69.336,57.617
1678024362.146,-116.699,11.230,-23.438,-234.863,234.863
1678024362.150,-156.738,19.531,-20.508,-333.496,92.285
1678024362.154,-223.633,12.207,-24.414,-300.781,-208.984
1678024362.158,-257.324,14.648,-9.277,-199.707,31.738
1678024362.160,-284.180,24.902,0.000,-203.613,238.281
1678024362.164,-297.363,24.902,16.602,-375.977,-29.785
1678024362.168,-316.406,20.508,29.297,-511.230,-231.934
1678024362.172,-333.008,7.324,39.551,-459.961,-175.781
1678024362.176,-338.379,1.953,60.547,-294.434,-29.297
1678024362.180,-353.027,-3.906,72.754,-238.281,106.445
1678024362.184,-343.750,-9.277,68.848,-383.301,40.527
1678024362.187,-348.633,-22.461,71.289,-544.922,-46.387
1678024362.191,-343.750,-25.391,83.008,-525.391,35.156
1678024362.195,-332.520,-25.391,88.867,-361.816,1.953
1678024362.199,-321.289,-29.785,90.332,-293.457,38.574
1678024362.203,-264.648,-27.344,84.473,-417.969,27.344
1678024362.206,-255.859,-28.320,78.613,-543.457,-165.527
1678024362.210,-298.340,-42.480,83.984,-518.555,-240.234
1678024362.214,-305.664,-51.270,86.914,-350.586,-60.059
1678024362.218,-304.688,-53.711,83.008,-236.816,217.773
1678024362.222,-292.969,-57.129,87.891,-317.383,157.227
1678024362.226,-280.762,-60.059,93.750,-463.379,-84.961
1678024362.230,-282.227,-69.336,83.984,-456.055,-149.414
1678024362.233,-259.766,-80.078,81.055,-261.230,232.910
1678024362.237,-241.211,-77.148,85.938,-145.996,431.152
1678024362.241,-216.309,-74.219,84.961,-252.441,21.973
1678024362.245,-203.613,-80.078,86.914,-401.855,-166.504
1678024362.249,-209.961,-85.449,84.473,-450.684,-254.883
1678024362.250,-213.379,-80.078,86.426,-316.406,-179.199
1678024362.254,-207.031,-88.867,91.797,-181.641,33.691
1678024362.258,-184.082,-93.262,90.332,-251.465,83.496
1678024362.262,-169.434,-89.355,89.355,-442.383,-47.363
1678024362.266,-178.223,-96.191,82.520,-530.762,-208.984
1678024362.270,-190.918,-99.609,72.266,-404.297,-90.820
1678024362.274,-188.965,-98.633,68.359,-252.930,267.578
1678024362.277,-162.598,-95.703,71.289,-259.277,490.234
1678024362.281,-145.020,-88.867,67.871,-360.352,95.703
1678024362.285,-147.949,-89.355,57.617,-382.812,-219.238
1678024362.289,-143.066,-92.773,58.594,-223.145,-129.883
1678024362.293,-137.207,-89.844,54.199,-32.227,-2.441
1678024362.295,-130.859,-88.379,49.805,-20.020,73.242
1678024362.299,-130.371,-91.309,50.293,-139.160,-17.090
1678024362.303,-119.141,-86.426,52.734,-179.199,-125.488
1678024362.307,-109.375,-81.543,46.387,-60.547,-113.770
1678024362.311,-116.699,-89.355,41.992,106.934,-35.645
1678024362.315,-103.516,-93.262,45.410,154.785,95.215
1678024362.319,-64.941,-92.773,42.480,5.371,277.832
1678024362.322,-57.129,-96.191,39.551,-129.883,144.043
1678024362.326,-83.496,-98.633,39.551,-51.758,-18.555
1678024362.330,-85.449,-103.516,35.156,114.746,102.051
1678024362.334,-68.848,-109.863,29.785,162.598,354.004
1678024362.338,-47.852,-111.328,28.320,53.711,166.016
1678024362.340,-41.504,-115.234,25.879,-53.711,-225.586
1678024362.344,-33.691,-110.840,27.832,-9.766,-188.965
1678024362.348,-38.574,-111.328,24.902,124.023,-48.828
1678024362.352,-41.992,-119.629,17.090,152.832,65.430
1678024362.356,-12.695,-116.699,14.648,20.996,-13.672
1678024362.360,-4.883,-115.234,14.648,-78.125,25.391
1678024362.364,-20.020,-118.652,13.184,-5.859,119.141
1678024362.367,-36.621,-122.559,5.371,122.070,46.387
1678024362.371,-15.137,-120.117,2.930,157.227,104.492
1678024362.375,11.719,-116.699,0.977,73.730,302.246
1678024362.379,2.930,-120.117,-5.859,-57.129,184.570
1678024362.383,-0.488,-125.000,-12.207,-40.527,-155.762
1678024362.400,-3.418,-125.488,-7.324,116.699,-23.926
1678024362.404,9.277,-123.047,-2.441,199.219,98.145
1678024362.408,41.504,-114.746,-1.465,139.648,1.465
1678024362.412,54.199,-113.281,1.465,30.273,-86.914
1678024362.416,38.086,-113.770,-4.395,52.734,-69.824
1678024362.420,25.391,-111.328,-6.836,207.520,158.691
1678024362.424,36.133,-112.793,-4.883,269.043,229.004
1678024362.427,60.547,-112.793,-15.137,187.988,174.316
1678024362.431,92.285,-110.352,-20.996,64.453,58.105
1678024362.435,82.520,-105.957,-20.508,50.293,219.238
1678024362.439,61.035,-99.121,-23.926,178.223,314.453
1678024362.443,57.617,-94.727,-26.855,231.934,76.172
1678024362.445,64.941,-96.680,-29.785,153.809,185.547
1678024362.449,103.027,-95.215,-33.203,58.594,189.453
1678024362.453,101.074,-90.820,-33.691,36.621,-42.969
1678024362.457,68.359,-85.449,-33.691,121.094,-77.148
1678024362.461,87.402,-85.938,-31.738,221.680,74.707
1678024362.465,98.633,-86.914,-26.855,202.148,150.391
1678024362.469,102.539,-81.055,-28.320,94.727,-29.297
1678024362.472,103.516,-78.125,-34.180,46.387,-142.578
1678024362.476,82.520,-75.195,-35.645,114.258,96.191
1678024362.480,67.383,-70.312,-31.250,226.562,311.523
1678024362.484,83.984,-68.848,-29.297,218.262,119.629
1678024362.488,111.816,-67.871,-35.645,101.074,11.719
1678024362.491,107.422,-68.359,-35.645,21.973,-31.738
1678024362.495,80.078,-68.359,-33.203,70.801,29.297
1678024362.499,62.500,-70.801,-34.180,167.480,82.520
1678024362.503,70.312,-69.336,-37.598,195.312,78.125
1678024362.507,84.473,-62.012,-43.945,117.188,98.145
1678024362.511,87.402,-58.594,-45.410,36.621,31.250
1678024362.515,81.543,-57.129,-49.805,58.594,18.555
1678024362.518,72.754,-49.805,-56.152,134.277,52.246
1678024362.522,68.359,-45.410,-58.594,156.250,392.578
1678024362.526,71.777,-46.875,-61.523,102.539,393.066
1678024362.530,75.684,-40.039,-63.965,10.742,-33.203
1678024362.534,50.781,-30.762,-66.406,0.488,-44.922
1678024362.535,25.879,-33.691,-71.289,71.777,-14.160
1678024362.539,39.551,-35.645,-67.383,93.750,-25.391
1678024362.543,61.035,-28.320,-63.477,42.969,-23.926
1678024362.547,45.898,-25.391,-75.684,-29.297,4.395
1678024362.551,20.508,-27.344,-80.078,-30.762,44.434
1678024362.555,18.555,-24.414,-74.707,45.410,112.793
1678024362.559,27.344,-20.508,-81.055,80.566,180.176
1678024362.562,38.086,-20.508,-85.938,24.414,208.984
1678024362.566,35.156,-14.648,-87.891,-68.359,265.137
1678024362.570,19.531,-13.672,-89.355,-83.008,-6.348
1678024362.574,8.789,-16.602,-88.379,-26.855,-83.008
1678024362.578,26.855,-13.672,-89.844,12.695,53.711
1678024362.580,26.855,-14.160,-88.867,-10.254,8.789
1678024362.584,9.766,-15.625,-88.379,-77.637,-46.875
1678024362.588,6.836,-10.254,-89.844,-94.727,-20.996
1678024362.592,4.883,-8.789,-88.379,-42.480,22.461
1678024362.596,11.719,-10.254,-93.750,3.906,40.039
1678024362.600,18.066,-12.695,-97.168,-12.207,12.695
1678024362.604,28.320,-8.789,-92.285,-62.012,-48.340
1678024362.607,7.812,-2.930,-83.008,-66.895,276.367
1678024362.611,-9.766,-4.395,-86.914,-36.621,467.285
1678024362.615,-2.930,-5.859,-91.797,-2.930,81.055
1678024362.619,13.672,0.000,-85.938,-7.812,28.320
1678024362.623,18.555,4.395,-83.008,-81.543,72.266
1678024362.625,9.277,5.859,-80.078,-115.723,-122.070
1678024362.629,3.906,5.859,-76.172,-70.312,-134.766
1678024362.633,-10.254,0.977,-76.172,-16.602,3.418
1678024362.637,1.465,0.977,-82.520,-21.973,54.199
1678024362.641,15.137,4.883,-84.473,-85.938,-35.156
1678024362.645,0.488,3.418,-76.660,-116.211,-47.363
1678024362.649,-23.438,4.395,-71.777,-76.172,162.109
1678024362.652,-24.414,6.348,-75.195,-48.828,300.781
1678024362.656,-5.859,6.836,-82.031,-59.082,67.383
1678024362.660,0.977,6.836,-78.613,-97.168,-88.867
1678024362.664,-6.348,8.301,-73.242,-133.301,21.973
1678024362.668,-10.742,6.836,-72.754,-118.652,4.883
1678024362.671,-11.230,1.465,-72.266,-68.359,-66.406
1678024362.675,-7.324,3.418,-74.707,-40.527,5.859
1678024362.679,-0.977,1.953,-77.148,-75.684,22.949
1678024362.683,-5.371,1.465,-74.219,-116.211,-45.410
1678024362.687,-11.719,7.812,-68.848,-104.492,-106.445
1678024362.691,-15.625,3.418,-68.848,-67.871,-21.484
1678024362.695,-10.742,-3.906,-69.336,-50.293,189.941
1678024362.698,-7.812,-3.418,-68.359,-87.891,229.004
1678024362.702,-15.625,4.883,-69.824,-144.043,-37.598
1678024362.706,-19.043,6.348,-68.848,-129.883,-106.934
1678024362.710,-18.555,3.418,-66.406,-74.219,138.672
1678024362.714,-6.348,4.395,-66.895,-52.734,67.871
1678024362.716,6.348,1.953,-67.383,-77.148,-150.879
1678024362.720,-7.812,0.000,-64.941,-117.188,-65.918
1678024362.724,-27.832,-1.953,-64.453,-119.629,52.246
1678024362.728,-31.250,-5.371,-64.453,-87.402,-28.809
1678024362.732,-30.273,-10.254,-66.895,-61.035,-153.809
1678024362.736,-8.301,-11.230,-67.383,-59.082,84.473
1678024362.740,0.977,-7.812,-63.477,-90.332,221.680
1678024362.743,-21.973,-8.301,-60.547,-104.980,-6.836
1678024362.747,-31.738,-11.230,-63.477,-84.473,-76.660
1678024362.751,-22.461,-8.301,-62.988,-63.477,81.543
1678024362.755,-8.301,-11.230,-61.035,-61.523,159.180
1678024362.759,-16.602,-15.625,-63.965,-95.215,-67.383
1678024362.775,-31.250,-11.719,-56.641,-95.215,-131.348
1678024362.779,-29.785,-7.812,-55.664,-69.336,-73.242
1678024362.783,-18.555,-2.930,-63.965,-45.898,-41.016
1678024362.787,5.371,-6.836,-61.035,-35.645,-65.430
1678024362.791,4.395,-9.766,-49.805,-55.176,-76.660
1678024362.795,-27.344,-6.348,-51.270,-70.312,67.871
1678024362.799,-41.016,-10.742,-52.246,-54.688,5.371
1678024362.802,-16.602,-8.301,-47.852,-23.438,-44.434
1678024362.806,7.324,1.465,-50.781,-28.320,23.438
1678024362.810,-3.418,1.465,-52.246,-59.082,228.516
1678024362.814,-20.996,-4.395,-54.199,-80.566,241.699
1678024362.818,-20.996,-7.812,-54.688,-86.914,-83.008
1678024362.820,-7.812,-5.859,-51.270,-63.965,-94.238
1678024362.824,-6.348,-5.859,-52.246,-43.945,-29.785
1678024362.828,-6.348,-3.906,-49.805,-55.664,-122.070
1678024362.832,-12.695,-3.418,-45.898,-60.059,-133.301
1678024362.836,-31.250,-9.766,-43.945,-48.828,0.488
1678024362.840,-22.461,-8.789,-38.574,-37.109,82.031
1678024362.844,-7.324,-7.324,-41.016,-46.387,-26.367
1678024362.847,-3.906,-7.324,-45.410,-79.590,-181.641
1678024362.851,-1.953,-6.836,-43.457,-90.332,-36.621
1678024362.855,-12.207,-8.301,-43.945,-77.637,162.598
1678024362.859,-17.090,-13.184,-43.457,-51.270,-84.961
1678024362.863,-9.766,-15.625,-46.387,-30.762,-149.414
1678024362.865,-10.254,-13.184,-53.711,-58.105,-68.359
1678024362.869,-25.879,-22.949,-58.594,-94.238,-93.262
1678024362.873,-37.109,-28.809,-52.734,-100.586,-161.133
1678024362.877,-35.645,-25.391,-46.875,-81.055,-147.949
1678024362.881,-14.648,-25.391,-48.828,-60.547,-34.668
1678024362.885,-9.766,-24.902,-44.922,-64.941,25.879
1678024362.889,-36.133,-26.367,-43.945,-89.355,-41.992
1678024362.892,-43.945,-24.414,-42.969,-93.262,-119.141
1678024362.896,-43.457,-19.531,-40.527,-66.406,242.188
1678024362.900,-38.574,-25.879,-42.969,-55.664,422.852
1678024362.904,-24.414,-28.320,-43.457,-61.035,8.789
1678024362.908,-21.973,-22.461,-39.551,-83.984,-137.695
1678024362.910,-35.156,-23.438,-38.086,-89.844,-92.773
1678024362.914,-49.316,-25.391,-37.109,-61.035,-79.102
1678024362.918,-41.504,-26.855,-34.180,-42.480,-60.547
1678024362.922,-30.762,-27.344,-36.621,-46.875,-22.461
1678024362.926,-33.203,-22.461,-38.574,-81.543,-46.875
1678024362.930,-35.645,-20.508,-36.133,-89.844,-72.266
1678024362.934,-39.062,-25.879,-34.668,-72.754,-85.938
1678024362.937,-38.574,-25.879,-39.062,-58.105,88.867
1678024362.941,-33.203,-24.414,-42.969,-43.457,366.211
1678024362.945,-31.738,-23.438,-42.969,-71.777,102.051
1678024362.949,-28.320,-20.020,-39.551,-88.867,-142.090
1678024362.953,-31.250,-26.367,-37.598,-63.477,-148.438
1678024362.955,-30.762,-25.879,-39.551,-36.621,-91.797
1678024362.959,-30.273,-20.996,-42.969,-37.598,-115.234
1678024362.963,-24.414,-21.973,-44.434,-63.965,-138.184
1678024362.967,-24.902,-21.973,-40.039,-75.195,-107.910
1678024362.971,-36.621,-18.066,-40.039,-62.012,-116.699
1678024362.975,-31.738,-21.484,-44.922,-39.551,-29.297
1678024362.979,-10.742,-27.344,-41.992,-19.531,-37.598
1678024362.982,-10.254,-24.414,-43.945,-24.414,292.480
1678024362.986,-26.367,-22.949,-45.898,-39.551,422.363
1678024362.990,-22.461,-26.367,-39.062,-35.156,-108.887
1678024362.994,-14.160,-32.227,-39.551,-9.766,-105.957
1678024362.998,-5.371,-29.785,-40.527,8.301,-8.789
1678024363.001,-8.789,-27.344,-42.480,-20.996,-134.766
1678024363.005,-26.367,-29.785,-46.875,-54.199,-207.520
1678024363.009,-34.180,-30.273,-42.969,-54.688,-250.488
1678024363.013,-27.832,-30.273,-42.480,-26.367,-184.082
1678024363.017,-14.648,-30.762,-50.781,-3.906,-112.793
1678024363.021,-16.113,-29.297,-52.246,-22.949,-59.082
1678024363.025,-24.414,-29.297,-42.969,-51.758,107.910
1678024363.028,-26.367,-29.297,-40.527,-63.477,173.340
1678024363.032,-25.391,-34.668,-41.504,-57.617,-96.680
1678024363.036,-6.836,-33.691,-38.086,-35.156,-156.250
1678024363.040,2.930,-26.367,-38.086,-27.832,-62.500
1678024363.044,-10.254,-27.344,-38.086,-40.039,-77.637
1678024363.047,-32.715,-33.691,-36.621,-50.781,-139.160
1678024363.051,-32.227,-29.785,-37.109,-34.668,-110.840
1678024363.055,-19.043,-27.344,-39.062,-12.695,-13.184
1678024363.059,-16.602,-28.320,-39.062,-17.578,-23.926
1678024363.063,-17.578,-23.926,-37.109,-36.621,-169.922
1678024363.067,-28.320,-19.531,-38.086,-51.270,-215.820
1678024363.071,-34.668,-21.973,-37.109,-38.086,141.602
1678024363.074,-20.508,-27.344,-35.156,-16.113,200.684
1678024363.078,-13.672,-26.367,-33.203,-23.438,-80.566
1678024363.082,-22.461,-22.949,-31.738,-53.711,-125.488
1678024363.086,-37.109,-22.949,-36.133,-59.570,39.551
1678024363.090,-45.410,-21.973,-33.203,-47.852,-42.969
1678024363.090,-32.715,-18.066,-29.297,-37.109,-189.941
1678024363.094,-18.555,-18.066,-33.691,-36.133,-92.285
1678024363.098,-25.879,-24.902,-36.133,-60.059,-61.523
1678024363.102,-41.992,-26.855,-35.645,-78.125,-105.469
1678024363.106,-48.828,-24.902,-33.691,-84.473,-181.641
1678024363.110,-31.250,-25.391,-25.391,-70.312,26.367
1678024363.114,-21.973,-27.344,-24.414,-49.805,298.828
1678024363.117,-28.809,-28.809,-28.809,-73.242,59.082
1678024363.121,-36.621,-22.949,-27.344,-92.773,-111.328
1678024363.125,-46.387,-23.438,-32.227,-85.449,60.547
1678024363.129,-44.922,-30.273,-36.621,-79.590,21.484
1678024363.133,-43.457,-32.715,-36.621,-66.406,-206.055
1678024363.150,-39.551,-30.273,-30.762,-55.176,-161.621
1678024363.154,-42.480,-28.809,-25.879,-59.082,-85.938
1678024363.158,-73.242,-27.344,-25.879,-98.633,-143.555
1678024363.162,-94.727,-26.367,-29.785,-132.812,-275.879
1678024363.166,-66.406,-29.785,-33.203,-97.656,-189.941
1678024363.170,-27.832,-29.785,-30.762,-25.879,83.984
1678024363.174,-21.973,-27.832,-30.273,-14.648,118.164
1678024363.177,-59.570,-31.738,-35.156,-81.543,2.441
1678024363.181,-94.238,-34.668,-39.551,-131.348,-37.109
1678024363.185,-72.754,-33.691,-40.527,-95.215,182.129
1678024363.189,-27.344,-33.691,-44.434,-24.902,265.137
1678024363.193,-17.578,-31.738,-45.898,-16.602,-1.953
1678024363.195,-49.316,-29.785,-37.598,-70.312,-98.633
1678024363.199,-76.660,-28.320,-37.598,-113.281,-151.367
1678024363.203,-60.547,-23.926,-39.551,-85.449,-254.395
1678024363.207,-23.438,-23.438,-33.203,-28.320,-184.570
1678024363.211,-8.301,-20.020,-29.297,-12.207,-23.926
1678024363.215,-39.551,-15.137,-28.809,-52.246,-85.938
1678024363.219,-73.730,-16.602,-32.227,-103.516,-146.973
1678024363.222,-66.895,-22.461,-29.785,-87.891,-144.043
1678024363.226,-27.344,-20.020,-24.902,-23.926,26.367
1678024363.230,-12.695,-20.020,-28.809,3.418,366.211
1678024363.234,-50.781,-19.043,-32.715,-57.129,128.418
1678024363.238,-89.355,-16.602,-20.508,-125.000,-211.914
1678024363.240,-92.773,-20.020,-8.301,-119.629,-230.469
1678024363.244,-59.082,-8.301,-14.160,-70.312,-158.203
1678024363.248,-41.016,-1.953,-26.855,-44.922,-101.074
1678024363.252,-83.496,-1.953,-24.414,-100.586,-108.398
1678024363.256,-143.555,12.695,-15.137,-185.547,-117.188
1678024363.260,-176.270,11.230,-11.230,-218.750,-153.320
1678024363.264,-184.570,25.391,-16.113,-205.566,-113.770
1678024363.267,-208.496,47.363,-23.438,-216.797,-20.508
1678024363.271,-266.602,43.945,-19.531,-271.484,261.230
1678024363.275,-347.168,37.598,-11.719,-368.652,255.859
1678024363.279,-379.395,39.062,-11.719,-423.340,-160.645
1678024363.283,-345.703,41.016,-10.742,-375.488,-206.055
1678024363.285,-318.848,34.180,-9.766,-326.660,-23.926
1678024363.289,-337.891,26.367,-11.230,-345.215,-112.793
1678024363.293,-373.535,31.250,-10.254,-396.973,-225.098
1678024363.297,-389.160,33.203,-7.812,-418.457,-248.535
1678024363.301,-347.656,27.344,-10.742,-354.980,-191.406
1678024363.305,-272.949,21.973,-12.207,-281.738,-91.309
1678024363.309,-271.484,22.461,-7.324,-289.062,-88.867
1678024363.312,-321.289,16.113,0.488,-342.773,-13.184
1678024363.316,-324.219,12.207,-4.883,-362.793,48.340
1678024363.320,-264.648,10.254,-12.695,-298.828,-146.484
1678024363.324,-203.125,6.348,-10.254,-212.402,-146.973
1678024363.328,-183.594,1.465,-16.113,-199.707,-72.754
1678024363.330,-202.148,-4.395,-24.902,-238.281,-130.859
1678024363.334,-205.078,-4.883,-27.832,-250.488,-185.547
1678024363.338,-150.391,-6.836,-25.391,-184.082,-126.465
1678024363.342,-86.426,-15.625,-30.273,-93.750,8.301
1678024363.346,-71.777,-21.973,-41.992,-74.707,8.789
1678024363.350,-104.492,-31.738,-42.969,-117.676,-35.156
1678024363.354,-126.465,-36.133,-42.480,-148.926,-51.758
1678024363.357,-96.191,-44.434,-46.387,-103.516,242.676
1678024363.361,-38.086,-53.223,-46.387,-23.926,342.285
1678024363.365,-1.953,-52.246,-44.922,0.977,-41.992
1678024363.369,-29.297,-60.547,-42.969,-44.434,-153.320
1678024363.373,-65.918,-62.012,-46.387,-83.984,-166.016
1678024363.377,-40.039,-56.641,-50.293,-52.246,-180.176
1678024363.381,17.578,-59.570,-49.316,24.902,-112.305
1678024363.385,42.969,-60.547,-49.316,62.500,48.340
1678024363.389,11.719,-60.547,-51.758,18.555,73.242
1678024363.393,-14.648,-62.500,-54.199,-44.922,-170.898
1678024363.397,3.906,-64.941,-52.734,-37.109,-229.980
1678024363.401,44.434,-62.012,-51.758,41.016,83.496
1678024363.404,67.871,-62.500,-46.875,87.891,209.473
1678024363.408,46.875,-65.430,-46.387,47.852,-80.566
1678024363.412,14.160,-59.570,-44.434,-2.441,-224.121
1678024363.416,27.832,-57.129,-40.039,10.742,-198.242
1678024363.420,76.660,-57.129,-39.062,73.242,-105.957
1678024363.420,98.145,-56.641,-42.969,103.516,-101.562
1678024363.424,69.824,-59.082,-49.316,64.941,-107.910
1678024363.428,25.879,-59.082,-48.828,-5.371,-147.949
1678024363.432,22.949,-57.617,-49.316,-17.578,-175.293
1678024363.436,67.871,-54.688,-47.852,52.734,-90.332
1678024363.440,108.887,-55.664,-44.922,100.586,-41.504
1678024363.444,90.332,-56.152,-45.898,83.496,265.137
1678024363.447,31.738,-56.152,-50.293,17.578,322.266
1678024363.451,16.113,-55.664,-51.758,-10.742,-106.445
1678024363.455,56.152,-53.711,-49.316,45.410,-142.090
1678024363.459,92.773,-50.781,-49.805,98.145,70.312
1678024363.463,69.824,-52.246,-52.246,72.266,-41.504
1678024363.465,22.949,-52.734,-44.922,8.301,-196.289
1678024363.469,13.672,-47.852,-41.016,-23.438,-180.664
1678024363.473,42.969,-48.828,-46.387,18.066,-110.352
1678024363.477,73.242,-50.781,-48.340,73.730,-21.973
1678024363.481,72.266,-42.969,-42.969,60.547,-112.793
1678024363.485,25.391,-39.062,-38.574,7.324,24.902
1678024363.489,3.906,-40.527,-38.086,-20.508,115.723
1678024363.492,35.645,-45.410,-42.480,17.578,-124.512
1678024363.496,65.918,-47.852,-42.969,78.125,-176.270
1678024363.500,57.617,-48.340,-42.480,75.195,42.969
1678024363.504,12.695,-50.293,-43.457,11.719,173.340
1678024363.508,-17.090,-48.828,-43.457,-28.809,-105.469
1678024363.525,5.371,-50.293,-41.992,1.465,-241.211
1678024363.529,45.410,-51.758,-40.039,55.176,-87.891
1678024363.533,58.105,-44.922,-40.039,61.035,-81.055
1678024363.537,21.973,-38.086,-37.598,-3.418,-200.684
1678024363.541,-23.438,-40.527,-43.945,-62.012,-198.730
1678024363.545,-2.441,-45.410,-44.922,-32.715,-50.293
1678024363.549,48.828,-41.504,-41.992,32.715,13.184
1678024363.552,56.641,-41.504,-41.504,45.410,30.762
1678024363.556,24.902,-42.480,-37.109,-7.324,-17.578
1678024363.560,-20.020,-41.016,-40.039,-51.758,186.035
1678024363.564,-20.020,-39.062,-46.875,-34.180,313.965
1678024363.568,30.273,-39.062,-44.434,17.090,-69.336
1678024363.570,47.363,-42.969,-35.645,45.410,-76.172
1678024363.574,5.859,-44.434,-35.645,-5.371,-25.391
1678024363.578,-36.133,-45.410,-41.016,-75.195,-172.363
1678024363.582,-25.879,-44.434,-42.480,-67.871,-225.586
1678024363.586,15.625,-38.574,-39.551,-2.441,-105.469
1678024363.590,34.180,-39.062,-34.180,37.598,25.391
1678024363.594,-1.465,-43.457,-33.691,-11.719,-20.508
1678024363.597,-49.316,-46.387,-38.574,-79.102,-146.484
1678024363.601,-38.086,-42.969,-38.574,-67.383,17.578
1678024363.605,3.418,-37.109,-35.645,-8.301,242.188
1678024363.609,22.461,-40.039,-39.551,6.836,33.691
1678024363.613,-1.465,-37.109,-40.039,-15.625,-51.758
1678024363.615,-46.875,-33.691,-38.574,-58.105,-9.277
1678024363.619,-52.246,-34.668,-38.086,-73.730,-118.652
1678024363.623,-8.301,-30.762,-40.039,-25.391,-181.152
1678024363.627,27.832,-28.809,-38.574,29.785,-91.309
1678024363.631,10.254,-30.762,-34.180,4.395,-42.969
1678024363.635,-43.945,-34.180,-36.621,-64.453,-54.688
1678024363.639,-57.617,-32.715,-35.156,-75.684,-99.121
1678024363.642,-12.695,-35.156,-34.668,-20.020,-74.707
1678024363.646,15.625,-35.645,-38.086,38.574,254.395
1678024363.650,-1.465,-33.691,-33.203,27.344,321.777
1678024363.654,-40.527,-38.086,-33.691,-52.734,-120.117
1678024363.658,-68.359,-41.016,-38.086,-82.520,-198.242
1678024363.661,-44.922,-41.992,-37.109,-28.320,-39.551
1678024363.665,-5.371,-41.992,-32.227,24.902,0.000
1678024363.669,-6.348,-40.527,-32.715,11.230,39.062
1678024363.673,-46.387,-37.598,-39.062,-52.734,60.059
1678024363.677,-73.730,-37.109,-35.156,-89.844,-36.621
1678024363.681,-39.551,-41.504,-31.738,-42.480,-95.703
1678024363.685,10.254,-40.527,-35.645,26.855,-60.059
1678024363.688,4.883,-39.551,-40.527,16.602,42.480
1678024363.692,-37.109,-38.086,-39.551,-36.133,136.230
1678024363.696,-60.059,-35.156,-36.133,-74.219,-104.492
1678024363.700,-41.992,-37.598,-37.109,-43.945,-207.031
1678024363.704,5.371,-38.574,-37.109,20.020,-123.047
1678024363.705,10.254,-37.598,-34.180,33.691,-93.262
1678024363.709,-32.227,-33.203,-34.668,-25.391,-127.441
1678024363.713,-61.523,-32.715,-36.133,-85.449,-192.383
1678024363.717,-47.363,-38.086,-36.133,-61.035,-163.574
1678024363.721,-8.301,-39.551,-33.203,5.371,17.578
1678024363.725,1.953,-38.086,-31.250,27.832,77.637
1678024363.729,-33.203,-39.062,-32.715,-18.555,-11.719
1678024363.732,-68.848,-38.086,-29.297,-71.289,214.355
1678024363.736,-52.246,-32.227,-31.738,-55.664,421.875
1678024363.740,0.000,-29.297,-32.227,8.789,33.691
1678024363.744,19.043,-32.227,-31.250,24.902,-110.840
1678024363.748,-21.973,-28.320,-31.738,-32.227,-88.379
1678024363.750,-68.848,-29.297,-30.762,-91.797,-251.465
1678024363.754,-65.430,-34.180,-32.715,-91.309,-263.672
1678024363.758,-23.926,-32.715,-30.762,-27.344,-117.676
1678024363.762,0.000,-33.691,-28.320,2.441,22.461
1678024363.766,-30.762,-37.598,-29.297,-37.109,-32.715
1678024363.770,-74.707,-39.551,-34.668,-95.703,-129.395
1678024363.774,-76.660,-40.039,-33.691,-97.656,57.129
1678024363.777,-39.062,-40.527,-32.227,-31.738,276.855
1678024363.781,-5.371,-39.062,-34.180,6.836,46.387
1678024363.785,-27.832,-39.062,-29.297,-27.344,-159.180
1678024363.789,-67.383,-38.574,-28.809,-82.031,-136.719
1678024363.793,-66.406,-33.691,-25.879,-93.262,-172.363
1678024363.795,-33.691,-34.180,-28.320,-35.156,-165.527
1678024363.799,-1.465,-35.156,-29.785,17.090,-86.914
1678024363.803,-20.508,-33.203,-29.297,-12.695,-96.191
1678024363.807,-67.871,-32.715,-33.203,-70.312,-172.363
1678024363.811,-78.613,-33.691,-35.156,-81.543,-188.477
1678024363.815,-41.016,-36.621,-40.527,-42.969,-114.258
1678024363.819,-1.465,-35.645,-40.527,9.766,212.402
1678024363.822,-5.371,-34.180,-36.133,2.441,248.047
1678024363.826,-52.734,-38.086,-35.645,-69.336,-121.582
1678024363.830,-85.449,-41.992,-35.156,-102.539,-175.293
1678024363.834,-55.176,-40.527,-37.598,-50.293,158.203
1678024363.838,-9.277,-39.551,-41.992,9.766,168.457
1678024363.840,-15.137,-38.086,-38.574,0.000,-97.656
1678024363.844,-54.199,-35.156,-37.598,-61.523,-122.070
1678024363.848,-76.172,-33.691,-39.062,-107.910,-141.113
1678024363.852,-50.781,-36.621,-36.621,-68.359,-186.035
1678024363.856,0.000,-32.715,-31.738,-0.977,-176.270
1678024363.860,9.277,-27.832,-30.273,13.672,129.883
1678024363.864,-36.621,-33.203,-25.391,-42.969,234.375
1678024363.867,-71.777,-30.273,-19.531,-101.562,-83.496
1678024363.871,-53.711,-30.273,-22.949,-68.848,-240.234
1678024363.875,-8.301,-33.691,-26.367,-4.883,-34.668
1678024363.879,2.930,-30.273,-23.438,7.812,85.938
1678024363.883,-36.133,-31.738,-23.926,-45.898,-29.785
1678024363.900,-80.078,-31.738,-26.855,-110.840,-156.250
1678024363.904,-75.195,-31.738,-28.320,-91.309,-154.785
1678024363.908,-28.809,-34.668,-29.785,-21.973,-67.383
1678024363.912,-12.695,-32.227,-28.809,-1.465,-112.793
1678024363.916,-50.293,-30.762,-30.762,-58.105,-125.488
1678024363.920,-91.797,-35.645,-30.273,-122.559,-79.102
1678024363.924,-80.566,-34.180,-27.344,-96.191,-104.492
1678024363.927,-31.738,-29.297,-26.367,-22.949,1.953
1678024363.931,-11.719,-28.320,-26.855,-7.812,-3.906
1678024363.935,-43.945,-26.855,-31.250,-51.270,132.812
1678024363.939,-84.961,-30.273,-31.738,-104.492,152.344
1678024363.943,-75.684,-33.203,-33.691,-110.352,-184.082
1678024363.945,-27.344,-25.879,-29.297,-42.480,-164.062
1678024363.949,-2.441,-25.391,-31.250,5.859,-42.480
1678024363.953,-32.227,-28.320,-40.527,-31.738,-91.309
1678024363.957,-77.637,-28.320,-42.480,-97.656,-247.070
1678024363.961,-85.449,-32.715,-44.434,-104.004,-140.137
1678024363.965,-37.109,-35.156,-41.016,-45.898,88.379
1678024363.969,0.977,-38.086,-42.480,-5.859,53.711
1678024363.972,-23.926,-40.527,-47.363,-41.504,-51.270
1678024363.976,-67.383,-41.016,-37.598,-105.469,-30.762
1678024363.980,-74.707,-39.062,-36.133,-107.910,98.145
1678024363.984,-38.574,-39.062,-43.457,-56.641,-73.242
1678024363.988,-0.977,-39.062,-41.016,-17.578,-106.445
1678024363.990,-9.766,-39.551,-37.109,-40.039,-16.113
1678024363.994,-56.641,-36.133,-36.133,-102.051,-84.961
1678024363.998,-83.984,-35.645,-32.715,-123.535,-238.770
1678024364.002,-49.805,-43.457,-34.180,-72.266,-134.766
1678024364.006,-2.441,-40.527,-34.180,-12.207,61.523
1678024364.010,-10.254,-35.156,-29.297,-7.324,10.742
1678024364.014,-55.664,-34.180,-27.344,-74.707,-116.699
1678024364.017,-83.496,-34.668,-35.156,-119.141,-249.023
1678024364.021,-59.570,-39.062,-41.992,-73.242,92.285
1678024364.025,-17.578,-36.133,-41.504,-22.461,289.551
1678024364.029,-21.484,-35.645,-39.062,-31.738,0.000
1678024364.033,-69.336,-38.086,-40.039,-93.750,-131.836
1678024364.035,-91.797,-39.062,-39.551,-133.301,-173.828
1678024364.039,-59.570,-36.133,-32.227,-94.238,-209.961
1678024364.043,-14.160,-25.879,-30.273,-26.855,-197.754
1678024364.047,-16.113,-31.738,-34.668,-20.508,-37.598
1678024364.051,-61.523,-37.598,-32.715,-86.426,-22.461
1678024364.055,-89.844,-27.832,-26.855,-132.812,-183.105
1678024364.059,-75.195,-25.879,-24.414,-108.887,-243.164
1678024364.062,-32.227,-16.602,-28.809,-42.969,30.273
1678024364.066,-29.297,-7.812,-22.949,-23.926,350.098
1678024364.070,-88.867,-11.230,-15.625,-95.215,62.988
1678024364.074,-144.531,-4.395,-18.555,-174.805,-196.777
1678024364.078,-135.254,0.000,-13.184,-165.039,-165.039
1678024364.080,-106.445,6.348,-7.324,-116.211,-114.746
1678024364.084,-111.816,6.348,-6.348,-115.723,-104.004
1678024364.088,-167.969,7.324,-1.465,-190.918,-114.258
1678024364.092,-243.652,14.648,0.000,-277.344,-126.465
1678024364.096,-270.020,18.555,-2.930,-292.480,-125.000
1678024364.100,-251.953,25.391,-1.465,-261.230,-36.133
1678024364.104,-239.746,18.066,2.441,-242.676,25.391
1678024364.107,-276.367,16.602,3.906,-273.926,225.586
1678024364.111,-337.402,21.973,4.883,-337.891,350.586
1678024364.115,-334.473,29.297,13.672,-356.934,-49.805
1678024364.119,-290.527,30.762,11.719,-300.293,-99.121
1678024364.123,-258.789,20.020,10.742,-246.582,25.879
1678024364.125,-261.230,37.598,9.277,-273.438,-120.605
1678024364.129,-309.082,41.016,5.859,-335.938,-236.816
1678024364.133,-319.336,17.090,6.348,-328.125,-179.688
1678024364.137,-265.137,16.602,4.883,-254.395,-122.070
1678024364.141,-218.750,18.555,-0.977,-215.332,-70.312
1678024364.145,-227.539,11.719,-8.789,-238.281,-35.156
1678024364.149,-264.160,10.254,-1.953,-272.949,112.793
1678024364.152,-268.555,12.695,-0.977,-277.832,232.422
1678024364.156,-220.703,8.789,-7.812,-229.004,-46.875
1678024364.160,-150.879,2.441,-11.230,-162.109,-169.434
1678024364.164,-139.648,-6.836,-13.672,-156.250,-23.438
1678024364.168,-180.664,-15.137,-14.160,-196.777,13.184
1678024364.170,-183.594,-17.578,-19.043,-208.984,-142.090
1678024364.174,-129.883,-19.043,-22.949,-143.066,-226.562
1678024364.178,-78.613,-24.414,-25.879,-59.082,-78.125
1678024364.182,-75.684,-23.926,-27.832,-56.641,-6.836
1678024364.186,-105.469,-24.902,-33.691,-102.539,-94.727
1678024364.190,-115.723,-30.762,-41.992,-125.488,-85.449
1678024364.194,-72.754,-31.250,-44.434,-83.496,219.238
1678024364.197,-20.996,-33.691,-43.945,-8.301,311.035
1678024364.201,-13.184,-39.062,-46.387,3.906,-0.488
1678024364.205,-53.711,-46.875,-47.363,-55.176,-116.211
1678024364.209,-88.867,-50.781,-50.293,-95.703,-48.340
1678024364.213,-53.223,-47.363,-54.199,-54.199,-103.516
1678024364.216,5.371,-44.922,-53.223,14.648,-147.949
1678024364.220,16.113,-47.363,-54.688,39.062,25.879
1678024364.224,-14.160,-47.363,-55.664,-5.371,90.820
1678024364.228,-33.691,-46.387,-50.781,-57.617,-145.996
1678024364.232,-8.789,-42.969,-49.316,-37.109,-195.801
1678024364.236,40.527,-42.969,-50.293,41.992,172.852
1678024364.240,66.406,-46.875,-48.828,79.590,326.172
1678024364.243,31.250,-44.922,-44.922,30.273,-2.930
1678024364.247,-8.301,-41.504,-47.363,-27.344,-173.828
1678024364.251,9.277,-40.527,-51.758,-2.930,-32.715
1678024364.255,52.734,-40.039,-51.758,69.824,87.402
1678024364.259,70.801,-41.992,-50.293,87.891,-12.207
1678024364.275,34.668,-45.898,-54.199,29.785,-94.727
1678024364.279,-0.977,-45.410,-56.152,-27.832,-111.328
1678024364.283,14.160,-45.898,-52.246,-16.602,-145.508
1678024364.287,55.664,-48.340,-52.246,41.504,-95.703
1678024364.291,72.754,-49.316,-52.246,73.730,-55.176
1678024364.295,41.016,-48.340,-54.688,44.922,223.633
1678024364.299,0.488,-46.387,-55.664,-18.555,247.070
1678024364.302,3.418,-46.387,-50.293,-31.250,-46.387
1678024364.306,46.875,-44.434,-54.688,31.250,-69.336
1678024364.310,80.566,-42.480,-53.711,81.543,78.613
1678024364.314,51.758,-42.480,-46.875,57.617,-4.395
1678024364.318,-0.977,-44.434,-44.922,-9.277,-232.422
1678024364.320,-2.930,-43.945,-45.898,-29.297,-183.105
1678024364.324,42.480,-46.387,-45.410,30.762,-162.598
1678024364.328,81.543,-51.758,-43.945,87.891,-187.500
1678024364.332,62.988,-49.805,-43.457,84.473,-160.156
1678024364.336,10.742,-48.340,-41.016,16.602,-62.012
1678024364.340,-2.441,-46.875,-42.969,-19.531,-55.664
1678024364.344,33.203,-47.852,-41.504,27.832,-74.219
1678024364.347,58.594,-49.316,-38.086,81.055,38.086
1678024364.351,47.852,-43.457,-36.133,63.965,169.922
1678024364.355,1.953,-43.945,-33.203,3.906,211.426
1678024364.359,-18.066,-47.363,-36.133,-33.691,-60.547
1678024364.363,21.973,-49.316,-41.992,1.953,-191.406
1678024364.365,60.547,-45.410,-39.551,67.383,-73.242
1678024364.369,52.734,-43.945,-41.016,63.965,-58.105
1678024364.373,8.789,-53.711,-47.363,-1.465,-104.492
1678024364.377,-13.672,-54.688,-44.922,-37.109,-179.199
1678024364.381,18.555,-48.340,-39.062,1.465,-172.363
1678024364.385,57.617,-45.410,-39.062,60.547,17.578
1678024364.389,52.246,-44.922,-43.945,61.523,103.027
1678024364.392,4.883,-45.410,-41.992,2.930,-26.367
1678024364.396,-26.855,-43.457,-37.598,-32.715,116.211
1678024364.400,-11.230,-42.969,-35.156,-15.137,319.336
1678024364.404,33.691,-38.574,-33.203,40.039,54.199
1678024364.408,44.434,-37.109,-29.785,58.105,-71.289
1678024364.411,0.000,-40.039,-29.297,9.277,-48.828
1678024364.415,-28.809,-42.969,-32.227,-43.945,-184.570
1678024364.419,-3.906,-43.457,-32.227,-33.203,-265.625
1678024364.423,35.156,-37.598,-31.738,28.809,-141.602
1678024364.427,46.875,-33.203,-23.926,55.176,-1.465
1678024364.431,3.418,-34.668,-18.555,5.371,3.906
1678024364.435,-40.527,-33.203,-23.438,-50.293,-127.930
1678024364.438,-25.879,-35.156,-24.902,-42.480,-82.520
1678024364.442,15.625,-40.527,-29.297,12.695,172.852
1678024364.446,41.992,-38.574,-30.762,35.156,10.742
1678024364.450,11.230,-33.691,-26.367,-22.461,-69.336
1678024364.454,-40.527,-30.762,-24.902,-87.891,12.695
1678024364.455,-36.133,-35.645,-29.785,-79.590,-83.496
1678024364.459,5.371,-41.504,-31.250,-15.625,-161.133
1678024364.463,30.762,-35.156,-24.902,29.297,-95.703
1678024364.467,1.465,-30.762,-23.438,-3.418,-80.566
1678024364.471,-41.504,-33.691,-26.367,-72.754,-192.383
1678024364.475,-41.504,-31.250,-22.949,-73.242,-164.551
1678024364.479,-9.766,-28.320,-17.090,-2.930,-33.691
1678024364.482,20.996,-30.762,-15.625,53.711,248.047
1678024364.486,-1.953,-31.250,-12.695,23.438,311.523
1678024364.490,-47.363,-29.785,-14.648,-56.152,-120.605
1678024364.494,-58.594,-29.297,-23.438,-79.102,-228.516
1678024364.498,-23.438,-31.250,-27.344,-25.391,-94.238
1678024364.501,15.625,-32.227,-26.367,18.066,-94.727
1678024364.505,0.000,-31.738,-25.879,-4.883,-130.371
1678024364.509,-37.598,-33.203,-28.809,-56.152,-106.934
1678024364.513,-55.664,-36.133,-33.203,-85.449,-103.516
1678024364.517,-34.180,-31.738,-36.133,-46.387,-128.906
1678024364.521,6.348,-28.320,-32.715,13.672,-61.035
1678024364.525,-3.906,-34.668,-32.715,10.742,168.457
1678024364.528,-53.223,-31.250,-38.086,-48.340,260.742
1678024364.532,-72.754,-28.320,-33.203,-94.727,-130.371
1678024364.536,-37.109,-31.738,-29.297,-58.105,-233.887
1678024364.540,5.859,-29.297,-31.738,7.812,-104.004
1678024364.544,-2.441,-29.785,-33.203,2.930,-61.523
1678024364.545,-51.758,-26.367,-30.273,-54.199,-118.652
1678024364.549,-76.172,-24.414,-29.297,-89.355,-232.910
1678024364.553,-48.828,-29.297,-29.297,-61.523,-191.895
1678024364.557,-5.371,-27.832,-26.855,-2.930,-9.277
1678024364.561,1.953,-27.344,-28.320,10.742,-2.930
1678024364.565,-45.898,-30.273,-26.367,-42.969,-16.602
1678024364.569,-80.566,-33.691,-28.809,-89.844,182.617
1678024364.572,-58.594,-40.527,-32.227,-65.430,204.102
1678024364.576,-14.648,-45.410,-29.785,-12.207,-36.133
1678024364.580,7.812,-39.551,-25.391,-3.418,-57.129
1678024364.584,-27.832,-31.250,-24.414,-53.223,39.062
1678024364.588,-83.984,-33.203,-32.715,-105.957,-82.520
1678024364.590,-71.777,-36.621,-34.180,-85.449,-200.195
1678024364.594,-11.719,-32.227,-28.809,-7.812,-56.152
1678024364.598,2.930,-26.367,-29.297,20.508,23.926
1678024364.602,-37.109,-29.297,-30.273,-26.367,-50.781
1678024364.606,-72.754,-26.367,-31.250,-77.148,-132.324
1678024364.610,-59.082,-30.762,-30.273,-63.965,-25.879
1678024364.614,-15.137,-36.133,-30.273,-9.277,142.090
1678024364.617,7.324,-31.738,-34.180,17.090,47.852
1678024364.621,-28.320,-29.785,-35.156,-19.531,-114.746
1678024364.625,-77.148,-29.297,-38.574,-80.566,5.371
1678024364.629,-75.195,-30.273,-41.992,-72.266,131.836
1678024364.633,-26.855,-31.738,-39.551,-2.441,-92.773
1678024364.650,12.207,-30.273,-39.062,35.645,-74.707
1678024364.654,-14.160,-30.762,-40.527,9.766,12.207
1678024364.658,-67.871,-34.180,-35.645,-48.828,-55.176
1678024364.662,-63.965,-32.227,-33.691,-70.312,-189.941
1678024364.666,-20.020,-28.320,-28.809,-7.324,-126.465
1678024364.670,11.230,-27.344,-25.879,57.129,194.336
1678024364.674,-5.371,-30.273,-26.855,28.809,179.199
1678024364.677,-63.965,-37.109,-25.879,-43.457,-70.801
1678024364.681,-75.684,-39.551,-27.832,-65.918,-158.203
1678024364.685,-29.297,-38.574,-27.832,-12.207,133.301
1678024364.689,5.371,-36.621,-29.297,44.434,337.402
1678024364.693,-13.672,-31.738,-30.273,29.785,19.043
1678024364.695,-59.570,-28.809,-27.832,-34.668,-22.949
1678024364.699,-75.684,-31.738,-25.391,-63.477,0.000
1678024364.703,-40.039,-32.227,-29.297,-20.020,-144.043
1678024364.707,10.254,-28.320,-27.344,33.691,-38.086
1678024364.711,12.695,-25.879,-25.879,29.785,58.105
1678024364.715,-53.711,-29.785,-31.738,-44.434,12.695
1678024364.719,-91.797,-33.203,-33.691,-93.750,-104.004
1678024364.722,-52.734,-31.738,-29.297,-53.223,-124.023
1678024364.726,-7.324,-28.320,-30.762,11.230,62.988
1678024364.730,-8.789,-26.855,-34.668,20.020,268.555
1678024364.734,-52.246,-25.879,-36.133,-38.086,54.199
1678024364.738,-82.031,-20.508,-36.133,-82.031,-222.168
1678024364.740,-60.059,-23.926,-37.598,-57.617,-191.895
1678024364.744,-5.371,-24.414,-34.668,9.766,-55.176
1678024364.748,1.953,-22.461,-27.344,27.832,-77.148
1678024364.752,-49.316,-27.832,-27.832,-29.785,-132.812
1678024364.756,-91.309,-32.227,-36.133,-82.520,-153.320
1678024364.760,-71.777,-35.156,-38.574,-60.547,-177.246
1678024364.764,-18.066,-31.738,-30.273,14.648,-52.246
1678024364.767,-3.906,-32.715,-31.738,33.691,4.395
1678024364.771,-45.410,-36.621,-35.156,-27.832,183.594
1678024364.775,-87.402,-36.621,-31.250,-87.402,205.078
1678024364.779,-71.777,-35.645,-31.250,-80.078,-169.434
1678024364.783,-12.695,-35.645,-31.250,-9.766,-125.488
1678024364.785,5.371,-37.109,-33.203,28.320,21.484
1678024364.789,-44.434,-38.086,-32.715,-22.949,-54.199
1678024364.793,-100.586,-36.133,-27.832,-87.891,-196.777
1678024364.797,-97.168,-33.691,-26.855,-87.402,-138.184
1678024364.801,-41.504,-32.715,-25.391,-27.344,49.805
1678024364.805,-11.230,-30.762,-23.926,9.766,12.695
1678024364.809,-34.668,-30.273,-25.391,-30.273,22.949
1678024364.812,-76.172,-31.250,-23.926,-91.797,57.129
1678024364.816,-85.449,-27.344,-23.438,-94.727,96.191
1678024364.820,-31.250,-28.809,-26.855,-35.645,-59.570
1678024364.824,5.859,-28.320,-28.809,9.766,-132.812
1678024364.828,-27.344,-25.391,-29.297,-22.949,-46.387
1678024364.832,-83.496,-29.297,-32.715,-83.984,-133.789
1678024364.836,-98.633,-35.645,-33.203,-103.027,-210.938
1678024364.840,-51.270,-41.504,-30.762,-47.852,-58.594
1678024364.844,-13.184,-42.480,-27.344,8.301,106.445
1678024364.848,-34.180,-42.480,-27.344,-20.508,41.992
1678024364.852,-85.938,-45.898,-30.273,-85.938,-72.266
1678024364.856,-104.004,-47.363,-34.180,-115.723,-116.211
1678024364.859,-57.617,-44.434,-34.180,-65.918,166.504
1678024364.863,-22.949,-40.527,-32.715,-4.883,265.625
1678024364.867,-40.039,-36.621,-33.691,-30.273,-139.648
1678024364.871,-86.426,-39.062,-32.715,-100.586,-184.570
1678024364.875,-107.422,-42.480,-30.762,-118.164,-175.293
1678024364.875,-51.270,-40.527,-32.227,-67.383,-179.199
1678024364.879,1.465,-42.969,-29.785,-11.719,-82.520
1678024364.883,-17.578,-40.039,-21.973,-5.859,-66.406
1678024364.887,-71.289,-35.156,-22.461,-62.012,-48.340
1678024364.891,-94.238,-36.133,-25.879,-105.469,-133.301
1678024364.895,-59.570,-37.109,-25.879,-71.777,-184.570
1678024364.899,-10.742,-38.574,-25.879,-1.953,84.473
1678024364.902,0.000,-36.621,-26.855,4.883,416.504
1678024364.906,-47.363,-41.016,-34.180,-74.707,63.965
1678024364.910,-89.355,-41.992,-36.133,-117.676,-270.508
1678024364.914,-54.199,-37.109,-35.645,-68.359,-181.641
1678024364.918,-6.836,-41.504,-37.598,-11.230,-79.102
1678024364.920,-7.812,-43.457,-35.156,4.395,-52.734
1678024364.924,-42.480,-36.133,-37.109,-45.898,-50.781
1678024364.928,-79.102,-40.527,-37.598,-89.355,-103.516
1678024364.932,-68.359,-45.898,-41.504,-64.453,-185.059
1678024364.936,-14.160,-44.434,-41.016,-7.324,-146.973
1678024364.940,8.301,-44.434,-33.691,11.230,34.668
1678024364.944,-34.180,-42.969,-29.785,-33.203,295.410
1678024364.947,-78.613,-41.016,-30.762,-92.773,192.871
1678024364.951,-70.312,-39.551,-35.645,-88.379,-58.105
1678024364.955,-20.508,-37.598,-34.668,-28.809,-70.801
1678024364.959,4.883,-36.133,-31.738,5.371,118.652
1678024364.963,-31.738,-35.645,-35.156,-37.109,71.289
1678024364.965,-87.402,-36.621,-39.062,-99.609,-194.824
1678024364.969,-85.449,-39.551,-38.086,-88.867,-184.570
1678024364.973,-34.180,-43.945,-40.039,-24.902,-162.109
1678024364.977,-8.789,-43.457,-36.621,10.742,-135.742
1678024364.981,-29.785,-39.062,-30.273,-22.949,-200.195
1678024364.985,-72.754,-43.457,-33.203,-78.613,-104.004
1678024364.989,-86.914,-38.574,-39.062,-78.125,50.293
1678024364.992,-33.691,-31.738,-39.551,-27.344,-92.773
1678024364.996,0.488,-36.621,-37.598,8.789,-140.137
1678024365.000,-31.738,-39.551,-36.133,-11.719,99.121
1678024365.004,-81.543,-37.109,-39.062,-76.172,161.133
1678024365.008,-87.402,-40.039,-42.480,-96.680,-164.551
1678024365.025,-35.645,-40.527,-38.574,-39.062,-228.516
1678024365.029,6.836,-34.180,-36.133,11.719,-86.426
1678024365.033,-18.555,-35.156,-37.598,-6.348,-54.199
1678024365.037,-58.105,-34.180,-39.062,-69.824,-188.477
1678024365.041,-65.918,-31.250,-36.621,-83.008,-200.684
1678024365.045,-42.969,-34.180,-35.156,-36.621,-19.531
1678024365.049,1.465,-35.645,-33.691,12.695,100.098
1678024365.052,-7.324,-35.645,-35.645,5.371,79.590
1678024365.056,-62.012,-36.621,-38.574,-59.570,-49.805
1678024365.060,-86.426,-41.504,-38.574,-84.961,174.316
1678024365.064,-52.246,-39.062,-31.738,-47.852,214.355
1678024365.068,-0.488,-31.738,-24.902,-4.395,-110.840
1678024365.070,-0.977,-28.809,-24.902,-4.883,6.348
1678024365.074,-50.293,-27.832,-27.344,-58.105,13.672
1678024365.078,-88.867,-30.762,-29.785,-102.051,-208.496
1678024365.082,-64.453,-35.156,-26.855,-77.148,-225.098
1678024365.086,-17.090,-39.062,-25.879,-15.137,-76.172
1678024365.090,-21.484,-39.551,-29.785,-7.812,58.105
1678024365.094,-69.824,-35.645,-29.785,-71.289,59.082
1678024365.097,-106.445,-35.645,-31.250,-115.234,-217.285
1678024365.101,-81.055,-33.691,-29.297,-72.754,-98.633
1678024365.105,-21.484,-34.180,-26.367,-8.789,222.168
1678024365.109,0.977,-30.273,-29.785,-5.859,-13.672
1678024365.113,-41.016,-29.297,-30.273,-52.734,-222.656
1678024365.117,-89.355,-34.668,-29.785,-96.191,-190.430
1678024365.121,-77.637,-37.109,-31.250,-87.891,-184.570
1678024365.125,-27.832,-33.203,-28.809,-42.480,-167.969
1678024365.129,-7.324,-33.203,-29.297,-17.578,-89.844
1678024365.133,-44.434,-27.344,-33.203,-41.504,-42.969
1678024365.137,-88.379,-19.531,-35.156,-82.520,-62.988
1678024365.141,-81.543,-29.297,-35.645,-88.379,-114.258
1678024365.144,-39.551,-24.902,-37.109,-46.875,-42.480
1678024365.148,-17.578,-16.602,-29.297,-5.859,268.066
1678024365.152,-58.105,-21.973,-34.180,-44.922,255.371
1678024365.156,-116.699,-14.160,-35.156,-118.164,-142.578
1678024365.160,-114.258,-5.371,-21.973,-119.141,-199.707
1678024365.160,-72.266,-9.277,-22.461,-75.684,-91.309
1678024365.164,-55.664,-3.418,-25.391,-60.059,-86.426
1678024365.168,-105.957,3.418,-19.043,-102.051,-104.492
1678024365.172,-171.875,3.906,-14.648,-165.527,-121.094
1678024365.176,-186.523,-3.418,-16.113,-200.684,-108.398
1678024365.180,-155.762,3.418,-12.695,-168.945,-87.891
1678024365.184,-144.531,9.766,-17.578,-144.043,-31.250
1678024365.187,-183.105,3.418,-13.184,-178.711,59.570
1678024365.191,-252.930,1.465,-4.883,-239.258,219.727
1678024365.195,-284.180,2.441,-7.812,-287.109,-26.855
1678024365.199,-242.188,3.906,-3.906,-255.371,-291.504
1678024365.203,-206.543,3.906,-3.906,-202.637,-131.348
1678024365.205,-219.238,-1.953,-2.930,-214.355,-59.570
1678024365.209,-246.094,-7.324,1.953,-261.719,-158.691
1678024365.213,-259.277,-11.230,-3.906,-270.996,-206.543
1678024365.217,-225.586,-15.137,-18.066,-225.098,-177.734
1678024365.221,-164.551,-14.160,-20.020,-165.527,-167.480
1678024365.225,-154.297,-14.648,-16.113,-152.832,-48.340
1678024365.229,-187.500,-21.484,-19.531,-194.336,-42.969
1678024365.232,-193.359,-27.344,-25.391,-205.078,167.480
1678024365.236,-145.508,-28.809,-34.668,-152.344,393.066
1678024365.240,-89.355,-31.250,-39.551,-81.055,76.172
1678024365.244,-76.660,-38.086,-42.480,-73.730,-49.316
1678024365.248,-102.539,-40.039,-43.945,-125.000,-2.930
1678024365.250,-121.582,-32.715,-45.898,-141.113,-163.574
1678024365.254,-86.914,-30.273,-49.805,-89.355,-190.430
1678024365.258,-32.715,-38.574,-45.898,-17.090,-24.902
1678024365.262,-7.324,-45.410,-47.852,-0.977,-23.926
1678024365.266,-40.527,-45.898,-56.641,-51.270,-139.160
1678024365.270,-81.055,-44.922,-53.711,-75.195,-185.547
1678024365.274,-53.711,-44.922,-48.828,-35.156,2.930
1678024365.277,5.859,-46.875,-51.270,21.973,198.730
1678024365.281,26.855,-51.270,-54.199,41.504,-2.441
1678024365.285,-6.348,-49.805,-55.176,0.977,-8.301
1678024365.289,-46.387,-50.781,-54.688,-42.969,35.645
1678024365.293,-30.762,-56.152,-52.734,-23.438,-46.387
1678024365.295,32.715,-54.199,-50.293,44.434,-100.098
1678024365.299,56.641,-57.129,-47.852,72.266,-83.008
1678024365.303,14.648,-56.152,-49.805,34.180,-55.176
1678024365.307,-21.973,-49.316,-49.805,-21.484,-91.309
1678024365.311,-15.137,-53.223,-49.805,-20.996,-165.527
1678024365.315,27.344,-56.152,-50.293,36.621,-112.793
1678024365.319,60.547,-49.316,-46.875,77.637,213.867
1678024365.322,37.109,-47.363,-47.363,41.992,211.914
1678024365.326,-12.207,-48.340,-49.316,-24.414,-108.887
1678024365.330,-20.020,-50.293,-46.875,-22.461,-135.742
1678024365.334,22.461,-51.270,-44.922,40.039,45.898
1678024365.338,57.129,-49.805,-46.875,59.082,63.477
1678024365.342,26.855,-47.852,-46.387,24.902,-103.516
1678024365.346,-18.555,-44.922,-45.898,-17.578,-108.398
1678024365.350,-26.855,-46.387,-49.316,-21.973,-57.617
1678024365.354,0.977,-46.875,-45.898,13.672,-101.562
1678024365.358,30.762,-41.504,-38.574,34.668,-54.199
1678024365.362,3.906,-37.109,-38.086,10.742,169.922
1678024365.366,-53.711,-35.156,-36.133,-45.898,162.598
1678024365.369,-67.871,-34.180,-33.691,-66.406,-135.742
1678024365.373,-40.527,-28.809,-31.250,-32.715,-160.645
1678024365.377,-17.090,-15.625,-22.461,-6.348,-2.930
1678024365.381,-46.387,-17.578,-23.926,-48.340,1.953
1678024365.385,-108.398,-23.438,-20.020,-109.375,-186.035
1678024365.400,-156.250,-20.020,-14.648,-145.508,-201.660
1678024365.404,-158.691,-14.648,-5.371,-145.508,-112.305
1678024365.408,-130.371,-5.859,1.465,-128.906,-43.457
1678024365.412,-157.715,5.371,6.348,-170.898,-37.109
1678024365.416,-220.215,3.906,19.043,-243.652,-139.160
1678024365.420,-273.438,-1.953,19.531,-268.066,-6.836
1678024365.424,-274.414,1.953,18.555,-248.047,123.047
1678024365.427,-240.234,0.000,14.648,-229.980,-6.836
1678024365.431,-234.863,0.488,9.277,-227.051,-22.949
1678024365.435,-276.855,0.000,19.043,-274.414,116.699
1678024365.439,-296.875,-0.977,23.438,-306.152,24.902
1678024365.443,-264.160,0.977,11.230,-274.902,-239.746
1678024365.445,-210.938,1.465,10.254,-220.215,-115.234
1678024365.449,-182.129,-2.930,14.160,-210.938,-36.621
1678024365.453,-215.820,-4.395,10.254,-249.512,-112.305
1678024365.457,-247.070,-5.371,-2.441,-268.555,-133.301
1678024365.461,-217.773,-9.277,-12.207,-219.727,-2.441
1678024365.465,-153.809,-14.160,-5.371,-142.090,162.598
1678024365.469,-116.699,-21.484,-7.812,-106.934,76.660
1678024365.472,-137.207,-28.809,-17.578,-127.930,-84.473
1678024365.476,-162.109,-37.109,-25.879,-155.273,-66.406
1678024365.480,-136.230,-48.828,-42.969,-133.789,68.848
1678024365.484,-77.148,-51.758,-43.945,-83.496,-70.801
1678024365.488,-51.758,-47.852,-39.551,-51.758,-151.367
1678024365.490,-79.102,-49.316,-46.875,-70.312,-165.039
1678024365.494,-98.145,-56.641,-50.781,-96.191,-204.590
1678024365.498,-82.520,-59.082,-50.293,-66.895,-254.883
1678024365.502,-43.457,-64.453,-54.688,-20.020,-226.074
1678024365.506,-2.441,-62.012,-54.688,-14.648,-151.855
1678024365.510,-5.859,-55.664,-49.316,-34.668,-130.371
1678024365.514,-46.875,-55.176,-46.387,-57.129,-162.598
1678024365.517,-38.574,-57.617,-48.340,-40.527,-132.812
1678024365.521,11.719,-60.547,-53.711,13.672,254.395
1678024365.525,39.062,-59.082,-49.316,46.387,460.938
1678024365.529,30.273,-60.059,-48.828,30.762,18.555
1678024365.533,7.324,-64.453,-49.805,-0.488,-208.984
1678024365.535,3.906,-70.312,-53.711,7.324,-118.164
1678024365.539,30.273,-72.266,-59.570,46.387,-126.953
1678024365.543,64.453,-71.289,-61.035,55.176,-154.297
1678024365.547,51.758,-70.801,-61.523,33.203,-39.551
1678024365.551,17.090,-68.848,-62.988,12.207,-37.598
1678024365.555,20.508,-58.105,-64.453,29.785,-98.633
1678024365.559,59.570,-55.664,-66.406,74.707,-62.500
1678024365.562,84.473,-57.129,-65.430,80.078,17.578
1678024365.566,69.336,-59.082,-61.523,65.918,143.555
1678024365.570,45.410,-63.477,-59.570,47.363,-50.293
1678024365.574,49.316,-61.523,-58.594,58.594,-199.707
1678024365.578,73.730,-58.105,-60.547,91.309,-31.250
1678024365.580,87.891,-57.617,-60.547,92.285,37.598
1678024365.584,82.031,-59.570,-59.082,71.777,-62.988
1678024365.588,61.523,-61.035,-62.500,49.805,-111.328
1678024365.592,47.852,-55.664,-60.547,62.012,-75.684
1678024365.596,62.012,-51.270,-58.105,83.984,-54.688
1678024365.600,87.891,-53.223,-56.152,83.008,-76.660
1678024365.604,84.473,-53.223,-57.129,72.754,-78.613
1678024365.607,55.176,-54.688,-62.500,54.688,238.281
1678024365.611,40.527,-57.617,-64.453,56.641,339.355
1678024365.615,57.617,-55.176,-63.965,81.055,-97.168
1678024365.619,78.613,-56.152,-62.012,89.355,-98.633
1678024365.623,75.684,-55.176,-58.105,74.707,15.625
1678024365.625,43.945,-55.664,-60.059,62.012,-123.047
1678024365.629,18.555,-62.012,-60.547,62.012,-176.758
1678024365.633,35.156,-64.941,-59.082,68.359,-150.879
1678024365.637,69.336,-62.988,-60.547,83.984,-41.016
1678024365.641,69.336,-60.547,-59.082,72.754,-86.426
1678024365.645,34.180,-58.594,-59.082,51.270,-127.441
1678024365.649,10.742,-58.594,-60.059,49.316,58.594
1678024365.652,21.484,-57.129,-58.594,64.941,192.383
1678024365.656,50.781,-52.734,-53.711,80.566,-47.852
1678024365.660,56.641,-51.270,-47.363,68.359,-133.789
1678024365.664,36.621,-55.664,-48.340,40.527,-60.547
1678024365.668,15.137,-54.199,-49.805,40.527,-87.891
1678024365.672,12.207,-49.805,-45.410,54.199,-146.484
1678024365.676,39.062,-49.316,-47.363,65.430,-139.648
1678024365.680,54.688,-51.270,-50.781,52.734,9.766
1678024365.684,30.762,-51.270,-48.340,27.832,-0.488
1678024365.688,2.930,-48.340,-47.363,24.902,-126.465
1678024365.692,13.184,-46.387,-52.246,48.340,-98.633
1678024365.696,31.250,-44.434,-55.664,68.848,200.684
1678024365.699,33.203,-43.457,-52.734,43.457,217.285
1678024365.703,11.719,-41.504,-51.270,0.488,-32.227
1678024365.707,-9.277,-42.969,-46.387,-0.488,-63.477
1678024365.711,-7.324,-44.922,-46.875,23.438,110.840
1678024365.715,11.230,-41.016,-46.875,32.715,70.801
1678024365.715,16.113,-40.527,-45.898,7.324,-113.770
1678024365.719,6.348,-41.992,-42.969,-12.207,-62.988
1678024365.723,-8.301,-41.016,-43.945,-2.441,-51.270
1678024365.727,-5.859,-41.504,-48.340,20.020,-94.727
1678024365.731,10.254,-41.992,-44.922,36.133,-31.250
1678024365.735,20.508,-40.039,-40.039,21.484,112.793
1678024365.739,9.766,-39.062,-35.645,0.977,326.660
1678024365.742,-5.859,-42.480,-39.551,1.465,149.414
1678024365.746,-1.465,-41.016,-39.551,15.625,-182.129
1678024365.750,0.000,-41.504,-39.551,20.508,-121.582
1678024365.754,3.906,-43.945,-32.227,3.906,-62.012
1678024365.758,3.418,-44.922,-31.738,-20.996,-145.508
1678024365.775,-13.672,-42.480,-35.156,-6.836,-135.742
1678024365.779,-15.137,-38.574,-32.715,24.902,-105.469
1678024365.783,1.953,-34.180,-33.203,29.297,-113.770
1678024365.787,0.488,-40.527,-36.621,6.836,-96.191
1678024365.791,-15.137,-44.434,-38.086,-22.949,-103.027
1678024365.795,-17.578,-37.109,-36.133,-14.648,78.125
1678024365.799,-21.484,-35.156,-40.039,4.395,97.168
1678024365.802,-17.578,-41.016,-38.574,12.695,-20.996
1678024365.806,-6.348,-39.551,-28.809,1.465,-20.020
1678024365.810,-9.766,-35.156,-28.809,-19.531,172.363
1678024365.814,-20.508,-41.992,-34.668,-15.625,326.660
1678024365.818,-25.879,-47.852,-33.691,-4.395,18.066
1678024365.820,-22.949,-43.945,-30.762,6.348,-60.547
1678024365.824,-9.277,-40.039,-32.227,4.883,10.742
1678024365.828,-13.672,-40.527,-33.691,-27.344,-119.141
1678024365.832,-29.785,-39.062,-28.809,-41.016,-175.781
1678024365.836,-38.574,-38.574,-24.902,-16.602,-134.277
1678024365.840,-30.273,-38.574,-29.785,0.000,9.766
1678024365.844,-5.371,-36.133,-31.250,-7.324,22.461
1678024365.847,-6.348,-36.621,-29.785,-36.621,-97.168
1678024365.851,-19.531,-41.016,-26.855,-37.109,43.945
1678024365.855,-28.320,-38.574,-30.273,-2.930,278.320
1678024365.859,-18.066,-36.133,-36.133,14.160,42.480
1678024365.863,-2.930,-40.527,-32.227,4.395,-169.922
1678024365.865,-12.207,-41.992,-34.668,-25.879,-186.523
1678024365.869,-19.531,-41.504,-38.574,-38.086,-229.004
1678024365.873,-26.367,-43.945,-36.621,-28.809,-160.645
1678024365.877,-31.250,-43.457,-38.574,-5.859,-85.449
1678024365.881,-16.602,-42.480,-39.551,-3.906,-34.180
1678024365.885,-17.090,-45.898,-39.551,-39.551,-0.977
1678024365.889,-25.879,-42.969,-38.086,-53.711,-76.660
1678024365.892,-24.414,-34.668,-36.133,-37.109,-79.590
1678024365.896,-25.879,-32.715,-37.109,-15.625,229.004
1678024365.900,-25.391,-37.598,-37.598,-10.254,280.762
1678024365.904,-17.578,-41.016,-35.645,-29.297,-79.102
1678024365.908,-24.902,-43.457,-36.621,-40.527,-124.512
1678024365.911,-41.016,-42.969,-38.086,-27.832,-39.551
1678024365.915,-41.504,-41.016,-38.574,-7.324,-95.703
1678024365.919,-30.762,-44.922,-40.527,-10.742,-139.648
1678024365.923,-30.762,-43.945,-43.457,-37.598,-95.215
1678024365.927,-42.480,-39.551,-42.480,-54.199,-96.680
1678024365.931,-48.828,-38.086,-39.551,-46.387,-74.707
1678024365.935,-42.969,-38.086,-39.551,-26.367,39.062
1678024365.938,-30.762,-37.598,-43.457,-11.719,125.488
1678024365.942,-30.762,-38.086,-43.945,-35.156,192.383
1678024365.946,-35.645,-40.527,-38.086,-59.570,-62.988
1678024365.950,-42.969,-42.969,-37.598,-45.898,-188.965
1678024365.954,-53.711,-42.480,-37.109,-30.273,-140.625
1678024365.957,-38.086,-38.086,-40.527,-13.672,-94.238
1678024365.961,-28.809,-37.109,-46.875,-38.574,-130.859
1678024365.965,-28.809,-39.062,-46.875,-64.941,-174.316
1678024365.969,-42.969,-35.645,-48.340,-47.852,-74.707
1678024365.973,-56.641,-38.086,-46.875,-26.367,-35.156
1678024365.977,-32.227,-41.992,-42.969,-15.137,-84.961
1678024365.981,-14.648,-38.574,-45.898,-33.691,-83.008
1678024365.984,-20.020,-42.969,-49.316,-47.852,216.309
1678024365.988,-43.945,-41.504,-46.875,-40.039,309.570
1678024365.992,-52.734,-39.062,-43.457,-34.180,-70.801
1678024365.996,-31.738,-40.527,-44.922,-24.414,-126.465
1678024366.000,-21.484,-35.645,-46.387,-22.461,-130.859
1678024366.000,-32.715,-32.715,-47.363,-41.504,-200.195
1678024366.004,-41.504,-38.574,-46.387,-56.641,-196.289
1678024366.008,-46.875,-37.598,-40.527,-36.133,-143.555
1678024366.012,-43.945,-39.062,-33.691,-12.207,-83.984
1678024366.016,-27.344,-43.945,-37.598,-26.855,-125.488
1678024366.020,-28.320,-41.504,-37.598,-53.711,-125.488
1678024366.024,-42.480,-41.992,-38.574,-57.617,24.414
1678024366.027,-46.387,-39.551,-40.039,-27.344,250.000
1678024366.031,-29.785,-36.621,-35.156,-0.977,82.031
1678024366.035,-21.484,-40.039,-38.574,-16.602,-152.344
1678024366.039,-28.320,-40.039,-36.133,-44.434,-93.750
1678024366.043,-29.297,-31.250,-32.715,-51.758,-78.125
1678024366.045,-35.156,-32.715,-36.621,-39.551,-126.465
1678024366.049,-31.250,-42.969,-36.621,-17.578,-142.578
1678024366.053,-20.996,-46.875,-38.086,-14.648,-23.926
1678024366.057,-18.066,-39.062,-35.645,-44.434,8.301
1678024366.061,-27.344,-38.574,-31.738,-65.918,-97.168
1678024366.065,-43.945,-42.480,-30.762,-45.898,-134.766
1678024366.069,-41.504,-40.039,-35.156,-15.137,170.898
1678024366.072,-21.484,-40.527,-40.039,-9.277,256.348
1678024366.076,-24.414,-39.551,-35.645,-43.945,-45.898
1678024366.080,-32.715,-37.109,-34.180,-66.895,-123.535
1678024366.084,-30.273,-33.691,-30.762,-43.945,102.051
1678024366.088,-25.879,-33.691,-28.320,-14.648,72.266
1678024366.090,-21.973,-38.086,-28.809,-2.441,-195.801
1678024366.094,-18.555,-38.086,-27.832,-12.207,-90.332
1678024366.098,-21.484,-36.133,-25.879,-35.156,-8.789
1678024366.102,-41.504,-40.039,-27.832,-36.133,-58.594
1678024366.106,-41.992,-43.457,-31.738,-19.531,-173.340
1678024366.110,-25.879,-39.062,-33.691,-7.812,25.391
1678024366.114,-27.344,-35.645,-31.738,-20.508,229.004
1678024366.117,-39.062,-36.133,-31.738,-58.594,4.883
1678024366.121,-45.410,-36.621,-30.762,-58.594,-97.168
1678024366.125,-44.434,-36.621,-34.180,-20.996,-7.812
1678024366.129,-33.203,-31.250,-35.645,-2.930,75.684
1678024366.133,-24.414,-27.344,-33.691,-22.461,-143.066
1678024366.150,-30.273,-26.367,-35.645,-50.293,-194.824
1678024366.154,-39.551,-30.273,-41.016,-61.035,-116.211
1678024366.158,-40.527,-37.598,-46.875,-44.922,-93.262
1678024366.162,-25.879,-38.086,-48.340,-25.391,-119.629
1678024366.166,-29.297,-38.086,-41.016,-36.621,-136.230
1678024366.170,-56.152,-39.551,-37.598,-68.848,-17.578
1678024366.174,-65.430,-37.109,-37.109,-76.660,0.488
1678024366.177,-58.105,-36.133,-41.504,-47.363,-57.617
1678024366.181,-41.016,-34.668,-43.457,-29.785,-105.957
1678024366.185,-38.086,-31.738,-39.062,-33.203,183.105
1678024366.189,-43.457,-35.645,-37.598,-59.570,298.828
1678024366.193,-50.781,-38.574,-37.109,-75.195,-83.496
1678024366.196,-55.176,-38.574,-34.668,-47.363,-131.348
1678024366.200,-48.828,-39.062,-35.156,-24.414,-77.148
1678024366.204,-45.410,-40.527,-37.598,-34.180,-132.324
1678024366.208,-43.457,-43.457,-37.598,-65.430,-184.570
1678024366.212,-46.387,-41.016,-38.574,-71.289,-136.230
1678024366.216,-57.129,-32.227,-39.551,-44.922,-25.391
1678024366.220,-51.758,-31.738,-42.969,-13.672,11.230
1678024366.223,-41.504,-33.691,-43.457,-16.602,-45.898
1678024366.227,-27.832,-38.086,-43.945,-41.016,0.488
1678024366.231,-39.551,-40.527,-46.875,-52.734,104.492
1678024366.235,-58.594,-37.109,-44.922,-46.387,-122.070
1678024366.239,-49.805,-34.668,-41.504,-26.367,-166.992
1678024366.240,-41.504,-38.574,-41.504,-27.344,-41.016
1678024366.244,-46.387,-43.457,-49.316,-58.105,-85.449
1678024366.248,-55.176,-42.969,-50.293,-71.777,-174.805
1678024366.252,-58.105,-36.621,-41.504,-46.387,-159.668
1678024366.256,-56.152,-36.133,-41.992,-17.578,-111.328
1678024366.260,-45.898,-40.039,-45.898,-20.508,-64.453
1678024366.264,-36.133,-40.039,-45.898,-44.434,12.207
1678024366.267,-42.480,-41.504,-44.434,-57.129,2.441
1678024366.271,-50.781,-40.039,-45.410,-44.434,142.578
1678024366.275,-45.410,-35.645,-47.363,-19.043,254.883
1678024366.279,-28.320,-36.621,-42.480,-17.090,-21.484
1678024366.283,-24.414,-34.180,-37.109,-38.574,-141.113
1678024366.286,-36.133,-32.715,-35.156,-49.805,-142.578
1678024366.290,-51.758,-28.809,-29.297,-46.875,-176.758
1678024366.294,-58.594,-23.438,-25.391,-29.297,-124.512
1678024366.298,-57.129,-31.738,-28.809,-19.043,32.715
1678024366.302,-68.848,-30.273,-26.367,-45.410,22.949
1678024366.306,-72.266,-13.672,-26.855,-66.406,-63.965
1678024366.310,-99.121,-4.883,-29.785,-81.543,-106.445
1678024366.313,-132.812,-9.277,-26.855,-79.590,-7.324
1678024366.317,-133.789,-9.766,-20.996,-93.262,115.723
1678024366.321,-147.949,0.000,-16.602,-154.297,-108.887
1678024366.325,-190.430,13.672,-7.324,-208.008,-206.055
1678024366.329,-240.234,13.672,0.000,-234.863,-171.875
1678024366.330,-275.879,17.578,2.930,-248.047,-197.754
1678024366.334,-297.852,16.113,9.766,-263.184,-207.520
1678024366.338,-302.734,10.742,26.367,-284.180,-177.246
1678024366.342,-322.754,20.020,29.785,-322.754,-121.582
1678024366.346,-343.262,22.461,24.414,-340.820,-66.406
1678024366.350,-369.629,11.719,23.926,-337.891,-9.766
1678024366.354,-364.746,10.742,30.273,-325.195,-36.133
1678024366.357,-341.309,7.324,30.762,-309.082,228.027
1678024366.361,-329.590,7.324,34.180,-312.500,499.512
1678024366.365,-323.730,2.441,37.109,-328.613,49.805
1678024366.369,-313.965,-1.465,32.715,-309.570,-177.246
1678024366.373,-286.621,-1.953,35.156,-269.531,-74.707
1678024366.375,-284.668,-17.090,32.715,-268.066,-169.922
1678024366.379,-288.574,-17.090,34.180,-292.969,-185.547
1678024366.383,-288.574,-17.090,37.598,-302.734,-66.406
1678024366.387,-280.273,-27.832,36.133,-283.203,-14.648
1678024366.391,-254.883,-22.461,32.715,-248.535,-50.293
1678024366.395,-224.609,-18.555,18.066,-235.352,-55.664
1678024366.399,-198.242,-28.320,16.602,-241.211,82.520
1678024366.402,-188.477,-29.785,19.043,-234.375,321.289
1678024366.406,-184.570,-29.785,11.230,-208.496,95.215
1678024366.410,-168.945,-30.273,9.766,-163.086,-141.113
1678024366.414,-142.578,-34.668,5.371,-130.859,-77.148
1678024366.418,-111.328,-39.062,-1.953,-124.023,-65.918
1678024366.420,-104.980,-40.039,-7.324,-125.488,-151.855
1678024366.424,-103.516,-42.969,-12.695,-119.141,-126.465
1678024366.428,-82.031,-41.992,-20.020,-77.637,-67.871
1678024366.432,-63.477,-41.016,-26.367,-41.504,-88.867
1678024366.436,-53.711,-41.016,-27.832,-69.824,-155.273
