timestamps,TP9,AF7,AF8,TP10,Right AUX
1678024450.003,-49.805,-33.203,-26.367,-72.754,105.469
1678024450.007,-52.246,-36.133,-31.250,14.160,349.121
1678024450.011,-43.457,-34.180,-27.344,38.086,31.250
1678024450.015,-36.133,-29.785,-24.902,-27.832,-153.320
1678024450.019,-24.414,-26.367,-25.879,-90.820,-142.578
1678024450.023,-30.762,-31.250,-24.902,-60.547,-114.258
1678024450.027,-49.805,-33.691,-25.391,2.930,-140.137
1678024450.030,-42.969,-33.691,-32.227,20.996,-55.176
1678024450.034,-37.109,-33.203,-38.574,-23.926,157.715
1678024450.038,-38.574,-31.250,-31.738,-105.957,44.922
1678024450.042,-42.480,-35.156,-32.715,-107.422,-166.016
1678024450.046,-50.293,-34.668,-34.180,-20.020,-66.406
1678024450.046,-43.945,-33.691,-27.832,45.410,-17.578
1678024450.050,-32.715,-32.227,-31.250,1.953,-161.621
1678024450.054,-26.367,-28.320,-31.738,-83.496,-208.008
1678024450.058,-27.832,-33.203,-27.832,-109.863,-199.707
1678024450.062,-41.016,-39.551,-34.180,-47.852,-62.988
1678024450.066,-44.434,-32.715,-37.598,25.391,54.199
1678024450.070,-33.203,-29.297,-29.785,-3.906,5.371
1678024450.073,-26.367,-33.203,-32.227,-93.262,97.656
1678024450.077,-32.227,-29.785,-36.133,-110.840,201.660
1678024450.081,-40.527,-33.203,-34.668,-41.504,-60.547
1678024450.085,-33.691,-37.109,-33.203,34.668,-116.211
1678024450.089,-18.555,-33.691,-30.273,25.879,-11.719
1678024450.094,-12.207,-31.738,-32.227,-59.570,-89.844
1678024450.098,-15.137,-40.039,-33.203,-106.445,-143.066
1678024450.102,-25.879,-41.504,-32.715,-48.828,-71.777
1678024450.106,-35.645,-36.133,-36.621,33.203,92.773
1678024450.110,-36.133,-35.645,-35.156,20.508,61.523
1678024450.114,-31.250,-40.527,-34.180,-69.824,-80.566
1678024450.118,-33.203,-39.551,-35.156,-121.094,-94.238
1678024450.121,-40.039,-36.133,-32.227,-67.383,79.102
1678024450.125,-38.086,-37.598,-32.227,14.160,-0.977
1678024450.129,-33.203,-38.086,-33.203,20.508,-134.277
1678024450.133,-26.367,-36.621,-34.180,-53.223,-107.910
1678024450.137,-20.996,-30.762,-29.785,-103.027,-127.930
1678024450.136,-19.043,-26.367,-28.809,-64.941,-190.918
1678024450.140,-25.879,-30.273,-30.273,14.160,-125.000
1678024450.144,-25.879,-28.809,-27.832,33.203,9.277
1678024450.148,-18.555,-29.785,-27.832,-39.062,-19.043
1678024450.152,-18.555,-31.738,-24.902,-96.191,-72.754
1678024450.156,-22.949,-31.250,-27.344,-58.105,-97.656
1678024450.160,-25.879,-29.785,-30.273,41.016,190.918
1678024450.163,-27.344,-29.297,-26.367,80.078,535.156
1678024450.167,-17.578,-27.344,-32.227,9.277,191.406
1678024450.171,-10.742,-29.785,-34.668,-63.477,-193.848
1678024450.175,-25.391,-33.691,-30.762,-52.734,-176.270
1678024450.179,-34.668,-30.273,-34.180,26.367,-95.703
1678024450.183,-37.109,-31.250,-35.645,61.523,-119.629
1678024450.187,-31.738,-29.297,-31.738,-2.930,-142.090
1678024450.191,-18.066,-20.996,-32.715,-83.496,-151.855
1678024450.195,-21.484,-23.438,-34.180,-85.938,-230.469
1678024450.199,-26.855,-24.414,-30.762,-9.766,-204.102
1678024450.203,-33.691,-27.344,-29.297,36.621,29.297
1678024450.207,-35.645,-33.691,-31.738,-1.953,168.945
1678024450.210,-27.832,-28.809,-32.715,-83.008,-10.742
1678024450.214,-29.297,-26.855,-35.645,-103.027,-177.734
1678024450.218,-37.109,-30.762,-34.668,-13.672,-69.824
1678024450.222,-38.086,-35.156,-32.227,62.988,184.082
1678024450.226,-39.062,-37.109,-30.273,22.949,1.465
1678024450.256,-34.180,-32.227,-24.902,-61.523,-208.496
1678024450.260,-29.297,-30.273,-24.902,-77.148,-145.020
1678024450.264,-37.109,-33.691,-26.855,-12.207,-67.871
1678024450.268,-39.551,-37.109,-28.320,57.129,-64.453
1678024450.272,-37.598,-33.203,-27.832,32.715,-87.402
1678024450.276,-39.062,-29.785,-21.973,-58.594,159.180
1678024450.280,-40.527,-30.762,-20.996,-82.520,214.844
1678024450.283,-40.039,-28.320,-25.879,-20.996,-101.562
1678024450.287,-31.250,-27.344,-30.762,38.574,-103.027
1678024450.291,-26.367,-31.250,-31.738,20.508,180.664
1678024450.295,-26.855,-32.715,-34.180,-64.941,131.836
1678024450.299,-21.484,-30.762,-35.156,-107.910,-212.891
1678024450.287,-21.973,-31.250,-33.203,-47.363,-194.824
1678024450.291,-27.344,-33.691,-33.691,34.180,-84.961
1678024450.295,-26.367,-31.250,-34.668,30.762,-60.059
1678024450.299,-15.137,-25.879,-33.203,-47.852,-138.184
1678024450.303,-11.230,-24.414,-32.715,-86.914,-131.836
1678024450.307,-26.367,-26.367,-34.180,-39.062,8.789
1678024450.311,-35.645,-28.809,-35.156,40.527,18.066
1678024450.314,-27.344,-30.762,-33.691,56.641,-28.320
1678024450.318,-26.855,-32.227,-32.715,-12.207,-7.812
1678024450.322,-37.598,-29.785,-35.645,-70.312,-58.594
1678024450.326,-38.086,-31.250,-37.598,-49.316,-121.582
1678024450.330,-36.133,-33.203,-38.574,25.879,-99.121
1678024450.331,-36.133,-33.203,-34.668,47.852,-14.160
1678024450.335,-34.668,-35.645,-36.133,-28.809,186.035
1678024450.339,-34.668,-39.062,-40.039,-98.633,-27.832
1678024450.343,-33.203,-37.109,-35.156,-57.129,-205.078
1678024450.347,-26.367,-29.297,-37.598,26.855,-87.402
1678024450.351,-26.367,-26.855,-39.551,41.504,61.035
1678024450.355,-37.598,-32.715,-33.691,-26.367,43.945
1678024450.358,-40.039,-34.668,-37.109,-78.613,-146.484
1678024450.362,-34.668,-29.297,-41.992,-50.781,47.852
1678024450.366,-40.527,-26.367,-41.992,17.578,254.395
1678024450.370,-42.480,-25.879,-36.133,52.734,-25.391
1678024450.374,-35.156,-23.438,-29.785,0.488,-180.664
1678024450.379,-32.715,-28.809,-34.180,-84.961,-105.469
1678024450.383,-39.551,-34.180,-34.668,-78.613,-126.465
1678024450.387,-47.852,-35.645,-35.156,2.441,-224.121
1678024450.391,-38.086,-37.109,-39.551,52.734,-130.371
1678024450.395,-29.297,-32.715,-38.574,14.648,-22.461
1678024450.399,-29.297,-28.320,-37.109,-68.359,-69.336
1678024450.403,-28.320,-24.414,-33.691,-84.473,-145.508
1678024450.406,-32.227,-29.785,-32.227,-11.230,-54.199
1678024450.410,-37.109,-34.668,-35.156,48.828,168.457
1678024450.414,-36.133,-29.297,-36.621,8.301,-4.883
1678024450.418,-25.879,-28.809,-39.062,-84.961,-215.332
1678024450.422,-19.043,-26.367,-34.668,-97.656,-220.703
1678024450.421,-24.902,-27.832,-29.785,-18.555,-131.836
1678024450.425,-32.227,-34.180,-31.250,47.363,-27.832
1678024450.429,-30.273,-31.250,-29.297,19.531,-86.426
1678024450.433,-25.391,-27.832,-30.273,-69.824,-79.102
1678024450.437,-25.879,-32.715,-37.598,-104.980,-32.715
1678024450.441,-33.691,-35.156,-41.504,-35.645,-5.859
1678024450.445,-38.574,-34.180,-41.992,39.062,32.227
1678024450.448,-35.156,-31.250,-38.574,31.250,179.199
1678024450.452,-29.297,-30.273,-38.086,-41.992,312.500
1678024450.456,-31.250,-31.738,-40.527,-92.773,-47.852
1678024450.460,-35.156,-30.762,-39.062,-43.457,-187.988
1678024450.464,-40.039,-33.203,-35.156,35.156,-5.371
1678024450.468,-35.156,-32.715,-30.273,34.668,-28.320
1678024450.472,-20.508,-27.832,-30.762,-43.457,-159.668
1678024450.476,-22.461,-29.297,-35.156,-87.402,-154.785
1678024450.480,-33.691,-34.180,-33.691,-54.688,-104.004
1678024450.484,-38.086,-37.598,-34.180,10.742,-65.918
1678024450.488,-34.180,-30.762,-33.203,38.574,-28.320
1678024450.492,-20.020,-25.879,-22.949,-20.996,46.387
1678024450.495,-25.391,-34.180,-21.973,-78.613,301.758
1678024450.499,-47.363,-35.645,-27.832,-63.965,119.629
1678024450.503,-52.734,-31.738,-31.250,0.977,-120.117
1678024450.507,-39.551,-29.297,-30.762,33.691,42.969
1678024450.511,-29.785,-26.855,-30.273,-35.645,26.367
1678024450.511,-32.715,-25.391,-32.227,-109.375,-143.555
1678024450.515,-41.992,-29.297,-33.203,-87.402,-207.520
1678024450.519,-47.852,-34.180,-37.109,-9.277,-114.258
1678024450.523,-43.457,-29.297,-38.086,31.738,-38.574
1678024450.527,-39.062,-26.367,-36.133,-27.344,-13.184
1678024450.531,-42.969,-25.879,-39.062,-115.234,-94.727
1678024450.535,-43.945,-25.879,-38.574,-103.027,52.734
1678024450.538,-49.316,-29.297,-34.668,-10.254,356.445
1678024450.542,-40.527,-25.391,-22.949,33.203,83.984
1678024450.546,-31.738,-18.555,-18.066,-19.531,-151.367
1678024450.550,-34.668,-28.809,-22.461,-113.281,-87.402
1678024450.554,-41.504,-32.227,-17.578,-128.418,-110.840
1678024450.558,-75.684,-26.367,-14.160,-66.895,-190.430
1678024450.562,-92.773,-25.391,-6.836,-20.020,-140.625
1678024450.566,-100.586,-27.344,0.000,-58.594,-60.547
1678024450.570,-115.234,-27.344,12.207,-153.809,-132.812
1678024450.574,-136.719,-25.391,13.184,-202.148,-209.961
1678024450.578,-180.664,-18.066,14.648,-160.156,-16.602
1678024450.582,-214.844,-8.301,29.785,-114.258,218.750
1678024450.585,-234.863,-16.113,32.715,-178.711,39.551
1678024450.589,-259.277,-9.766,27.832,-300.781,-169.922
1678024450.593,-292.480,-2.441,27.832,-347.168,-84.473
1678024450.597,-311.035,-6.348,32.715,-291.016,57.129
1678024450.601,-299.316,2.441,39.551,-218.262,-33.691
1678024450.616,-298.828,8.301,44.434,-230.469,-122.070
1678024450.620,-302.246,8.789,45.898,-312.012,-78.613
1678024450.624,-282.715,6.348,39.062,-343.262,-108.398
1678024450.628,-265.137,0.488,33.691,-281.250,-134.277
1678024450.632,-266.602,-2.441,33.691,-202.637,-33.203
1678024450.636,-256.836,-4.883,31.738,-190.430,242.188
1678024450.640,-234.375,-13.184,28.809,-252.930,340.820
1678024450.643,-215.820,-20.996,28.320,-295.898,-87.402
1678024450.647,-203.613,-22.949,20.020,-228.516,-242.676
1678024450.651,-185.547,-26.855,12.207,-125.000,18.066
1678024450.655,-157.227,-36.133,11.719,-104.980,29.297
1678024450.659,-135.254,-37.598,3.906,-168.457,-189.941
1678024450.661,-126.465,-41.016,-11.230,-202.148,-220.215
1678024450.665,-119.141,-42.480,-15.625,-138.184,-106.934
1678024450.669,-108.398,-36.621,-17.090,-57.617,-70.312
1678024450.673,-91.309,-37.109,-22.949,-24.902,-92.285
1678024450.677,-68.359,-41.992,-22.949,-63.965,-24.414
1678024450.681,-51.270,-45.410,-24.414,-119.141,-51.758
1678024450.685,-39.551,-38.574,-25.391,-88.379,-41.504
1678024450.688,-33.203,-36.621,-26.367,4.395,-70.801
1678024450.692,-28.320,-41.504,-31.250,44.922,21.973
1678024450.696,-13.184,-39.551,-30.762,-1.953,190.918
1678024450.700,-0.488,-40.039,-30.273,-75.195,-137.207
1678024450.704,-7.812,-40.527,-36.621,-58.594,-256.348
1678024450.707,-7.324,-36.133,-33.691,31.250,-32.715
1678024450.711,8.789,-36.133,-27.832,74.707,36.621
1678024450.715,15.625,-37.598,-32.227,30.762,-83.496
1678024450.719,8.301,-41.504,-37.598,-45.410,-192.383
1678024450.723,2.441,-41.992,-41.504,-45.898,76.660
1678024450.727,-1.953,-40.527,-41.992,33.691,312.988
1678024450.731,2.930,-44.434,-42.480,83.008,97.168
1678024450.734,3.906,-43.457,-42.969,40.039,-62.500
1678024450.738,5.859,-36.133,-40.039,-35.156,18.555
1678024450.742,12.695,-33.691,-40.039,-36.133,18.066
1678024450.746,12.207,-34.180,-43.945,34.668,-255.371
1678024450.750,21.484,-28.320,-46.875,99.121,-178.711
1678024450.753,35.156,-26.367,-41.016,77.148,-29.785
1678024450.757,38.086,-31.738,-40.039,-10.742,-96.680
1678024450.761,37.109,-32.715,-43.457,-41.016,-253.906
1678024450.765,36.133,-30.762,-44.922,41.992,-205.566
1678024450.769,41.992,-27.344,-43.945,115.723,-20.508
1678024450.773,50.781,-25.879,-42.480,86.914,-15.137
1678024450.777,47.852,-24.414,-41.016,0.977,-51.270
1678024450.780,43.457,-23.926,-37.598,-33.203,-55.664
1678024450.784,32.715,-30.273,-38.574,23.926,226.562
1678024450.788,32.227,-32.715,-45.898,88.379,195.312
1678024450.792,47.363,-29.297,-45.898,85.938,-42.480
1678024450.796,51.270,-30.273,-43.457,5.859,-22.461
1678024450.796,47.363,-26.855,-49.805,-46.875,-148.438
1678024450.800,46.875,-24.414,-52.246,9.766,-210.449
1678024450.804,50.781,-26.367,-50.781,106.445,-74.219
1678024450.808,35.645,-23.926,-51.270,102.539,6.836
1678024450.812,35.645,-24.902,-51.270,9.277,-27.344
1678024450.816,42.480,-27.832,-56.152,-37.109,-70.801
1678024450.820,25.391,-27.832,-59.570,11.230,-0.488
1678024450.823,21.973,-25.391,-50.293,100.586,195.801
1678024450.827,39.062,-19.043,-40.039,132.812,456.055
1678024450.831,50.781,-16.113,-40.039,64.453,195.801
1678024450.835,59.570,-19.043,-43.457,-17.090,-122.070
1678024450.839,54.688,-20.508,-44.922,-0.977,-52.246
1678024450.843,39.062,-18.555,-45.898,79.590,-70.801
1678024450.847,32.715,-20.508,-47.852,94.727,-95.215
1678024450.851,26.855,-22.461,-45.898,17.578,-116.699
1678024450.855,22.461,-23.438,-38.086,-51.270,-149.902
1678024450.859,9.277,-26.367,-32.227,-26.367,-186.035
1678024450.863,-7.812,-24.414,-31.250,67.383,-70.801
1678024450.867,-8.789,-22.949,-28.809,107.422,136.230
1678024450.870,-6.836,-25.879,-33.203,44.922,217.285
1678024450.874,-11.719,-25.879,-37.109,-43.457,-83.496
1678024450.878,-18.555,-28.809,-34.180,-41.504,-172.363
1678024450.882,-30.273,-42.480,-31.250,49.316,96.680
1678024450.886,-1.465,-41.992,-38.086,107.910,122.559
1678024450.886,18.555,-19.043,-45.410,60.059,-35.645
1678024450.890,-18.066,-15.137,-44.434,-64.941,-114.746
1678024450.894,-36.133,-22.461,-46.387,-80.566,-96.191
1678024450.898,-62.012,-20.020,-54.199,19.043,-96.191
1678024450.902,-79.102,-18.555,-63.477,65.918,-31.738
1678024450.906,-70.312,-12.695,-65.430,-3.418,-48.828
1678024450.910,-51.758,-2.930,-65.918,-107.422,36.133
1678024450.913,-72.266,0.000,-73.242,-141.113,233.398
1678024450.917,-108.398,-2.441,-75.195,-91.309,-54.688
1678024450.921,-107.422,-0.488,-81.543,-43.945,-184.082
1678024450.925,-109.375,5.859,-82.520,-88.867,-45.898
1678024450.929,-114.258,9.766,-74.707,-175.293,-157.227
1678024450.934,-129.395,10.254,-77.637,-219.238,-251.465
1678024450.938,-142.578,15.625,-78.613,-166.992,-141.602
1678024450.942,-140.625,16.113,-83.008,-100.098,26.367
1678024450.946,-129.395,14.160,-86.914,-117.188,-20.020
1678024450.950,-125.977,23.438,-88.379,-206.055,-195.801
1678024450.954,-123.535,22.949,-89.844,-244.141,-88.867
1678024450.958,-130.859,15.625,-84.473,-183.594,110.840
1678024450.961,-142.090,13.184,-85.449,-112.305,13.672
1678024450.965,-116.699,11.719,-93.750,-100.098,-93.750
1678024450.969,-94.238,18.066,-90.332,-180.176,-37.109
1678024450.973,-77.148,16.602,-83.984,-226.562,-121.582
1678024450.977,-88.867,12.207,-84.473,-149.414,-279.297
1678024450.992,-109.375,19.043,-80.078,-41.016,-103.027
1678024450.996,-104.492,26.367,-75.684,-18.066,42.969
1678024451.000,-110.352,22.461,-82.031,-102.051,-22.949
1678024451.004,-107.910,10.254,-76.660,-164.062,-166.016
1678024451.008,-90.332,15.625,-79.102,-124.023,-139.648
1678024451.012,-84.473,21.484,-85.449,-40.039,223.145
1678024451.016,-86.426,33.203,-80.078,-19.043,424.805
1678024451.019,-104.980,35.645,-82.520,-112.305,86.426
1678024451.023,-115.234,19.531,-85.449,-202.148,-171.387
1678024451.027,-127.441,31.738,-71.289,-178.711,-14.648
1678024451.031,-171.387,55.176,-65.430,-93.262,68.848
1678024451.035,-212.402,49.805,-71.289,-74.707,-6.348
1678024451.037,-237.793,47.852,-62.988,-171.875,-62.500
1678024451.041,-241.699,50.293,-46.387,-269.531,-92.773
1678024451.045,-248.535,44.922,-37.598,-245.605,-135.742
1678024451.049,-243.164,49.316,-35.645,-152.832,-99.609
1678024451.053,-233.398,48.828,-36.133,-114.258,59.082
1678024451.057,-203.125,44.922,-41.504,-170.410,161.133
1678024451.061,-176.758,44.434,-45.410,-246.582,12.695
1678024451.064,-171.387,39.062,-50.781,-232.422,-151.367
1678024451.068,-156.250,35.645,-56.641,-117.188,-1.953
1678024451.072,-144.531,31.738,-52.246,-29.785,287.598
1678024451.076,-137.695,23.438,-54.199,-74.219,107.910
1678024451.080,-141.602,23.926,-61.523,-136.230,-148.438
1678024451.081,-133.301,22.461,-64.453,-134.277,-165.527
1678024451.085,-120.117,12.207,-62.500,-49.316,-69.336
1678024451.089,-97.168,13.672,-64.941,39.551,-76.172
1678024451.093,-54.688,12.695,-71.289,6.348,-108.887
1678024451.097,-30.762,0.000,-76.172,-83.984,-3.906
1678024451.101,-15.625,-5.371,-80.078,-91.797,-3.418
1678024451.105,8.301,-13.184,-85.449,1.953,14.160
1678024451.108,42.969,-14.160,-88.867,99.121,96.191
1678024451.112,92.285,-9.277,-85.449,84.473,242.676
1678024451.116,80.078,-16.113,-85.938,-16.602,291.504
1678024451.120,19.043,-23.438,-86.914,-37.598,-7.324
1678024451.124,-20.020,-23.438,-74.707,64.941,-160.645
1678024451.128,-27.832,-23.438,-65.918,156.738,-31.738
1678024451.132,16.113,-26.855,-64.453,140.137,-23.926
1678024451.136,46.875,-27.344,-62.500,35.645,-173.340
1678024451.140,46.875,-24.414,-58.594,-10.254,-179.688
1678024451.144,48.340,-29.297,-55.664,79.102,-131.348
1678024451.148,67.871,-34.180,-56.641,174.805,-31.738
1678024451.152,98.633,-27.832,-58.105,158.203,43.457
1678024451.155,144.043,-29.297,-56.152,39.551,-18.555
1678024451.159,129.395,-35.645,-56.641,-34.180,1.465
1678024451.163,62.500,-40.527,-56.641,40.527,-91.797
1678024451.167,44.434,-45.410,-51.758,159.180,-196.777
1678024451.171,26.367,-46.875,-45.410,183.105,-20.020
1678024451.171,51.270,-44.922,-40.039,71.289,-2.930
1678024451.175,73.730,-45.898,-41.504,-38.574,-263.672
1678024451.179,43.457,-44.922,-37.109,6.348,-288.574
1678024451.183,33.203,-46.875,-32.715,134.766,-88.867
1678024451.187,25.879,-51.758,-33.203,170.898,92.773
1678024451.191,36.621,-52.246,-25.391,64.453,-8.301
1678024451.195,62.500,-50.781,-20.996,-35.645,-156.250
1678024451.198,56.152,-51.758,-22.461,12.695,25.879
1678024451.202,38.574,-52.246,-23.926,138.184,276.855
1678024451.206,43.945,-48.828,-23.926,166.992,94.238
1678024451.210,74.219,-46.875,-16.113,66.406,-132.324
1678024451.214,95.703,-46.387,-10.254,-47.852,-220.215
1678024451.220,64.453,-46.875,-9.766,-22.461,-246.094
1678024451.224,18.555,-46.875,-7.812,106.934,-197.754
1678024451.228,7.324,-44.434,-7.324,170.410,-36.133
1678024451.232,21.973,-45.898,-6.836,91.309,13.672
1678024451.236,48.828,-43.945,-7.812,-39.062,-226.074
1678024451.240,54.199,-40.039,-10.254,-44.922,-350.586
1678024451.244,22.949,-43.457,-14.160,88.379,-110.840
1678024451.247,7.812,-43.945,-13.672,187.012,226.562
1678024451.251,16.602,-43.457,-13.184,115.723,77.148
1678024451.255,42.480,-44.434,-16.602,-37.598,-188.477
1678024451.259,47.852,-47.852,-15.625,-58.594,-223.145
1678024451.263,29.785,-52.734,-15.137,74.707,-119.629
1678024451.262,20.508,-51.270,-15.625,176.758,-85.449
1678024451.266,23.926,-47.363,-16.113,123.047,-109.863
1678024451.270,26.855,-46.387,-15.625,-28.809,-74.707
1678024451.274,20.508,-44.922,-14.648,-78.613,-185.059
1678024451.278,29.785,-42.969,-13.672,27.832,-165.527
1678024451.282,28.320,-42.480,-12.207,146.484,-21.484
1678024451.286,47.363,-41.504,-11.719,130.371,252.441
1678024451.289,79.102,-37.109,-13.184,-30.273,350.586
1678024451.293,56.152,-37.598,-11.719,-104.492,-178.711
1678024451.297,8.789,-41.504,-10.742,17.578,-333.008
1678024451.301,-11.719,-44.434,-15.625,156.250,-83.984
1678024451.305,2.930,-41.016,-13.672,148.926,-48.340
1678024451.308,24.902,-34.180,-10.742,1.465,-172.852
1678024451.312,35.156,-32.227,-10.254,-81.543,-267.090
1678024451.316,23.438,-32.227,-13.672,14.648,-219.727
1678024451.320,7.812,-35.156,-26.367,139.160,-116.699
1678024451.324,26.367,-33.203,-31.738,145.020,-25.391
1678024451.328,54.199,-31.738,-13.672,31.250,-41.016
1678024451.332,29.297,-32.227,-6.836,-88.867,191.406
1678024451.335,12.207,-34.180,-13.672,-32.715,118.164
1678024451.339,16.602,-35.645,-0.977,122.070,-159.668
1678024451.343,10.742,-41.016,7.324,148.438,17.578
1678024451.347,16.602,-45.898,7.324,26.855,-63.965
1678024451.351,18.066,-43.945,2.930,-104.004,-288.574
1678024451.366,4.883,-50.293,4.395,-50.293,-284.668
1678024451.370,-27.832,-56.641,11.230,102.051,-88.379
1678024451.374,-33.203,-64.453,7.812,151.855,1.465
1678024451.378,-18.555,-70.312,10.254,34.180,-90.332
1678024451.382,-13.672,-66.895,6.348,-106.445,-188.477
1678024451.386,-13.672,-61.523,-0.977,-70.801,13.184
1678024451.390,-20.020,-60.547,0.977,81.055,243.652
1678024451.393,-10.742,-59.570,0.977,139.648,104.980
1678024451.397,5.859,-55.664,-4.883,28.320,-41.016
1678024451.401,6.836,-51.758,-11.230,-111.816,20.020
1678024451.405,-6.836,-51.270,-11.230,-98.633,30.762
1678024451.409,-33.691,-58.105,-7.812,57.129,-113.281
1678024451.413,-38.574,-60.547,-7.812,148.438,6.348
1678024451.417,-23.926,-57.129,-7.324,58.594,-9.277
1678024451.421,-10.742,-53.711,-5.371,-95.215,-215.820
1678024451.425,7.324,-52.734,-12.207,-118.652,-337.891
1678024451.429,14.160,-54.199,-12.695,14.160,-131.348
1678024451.433,17.578,-51.758,-7.812,127.930,159.668
1678024451.437,9.277,-46.875,-10.742,56.641,107.910
1678024451.440,-11.719,-48.828,-11.230,-107.422,-160.156
1678024451.444,18.066,-52.246,-15.625,-143.555,-117.676
1678024451.448,14.160,-50.293,-15.625,0.488,337.891
1678024451.452,-33.691,-50.781,-14.648,128.906,264.648
1678024451.456,-46.387,-49.805,-15.625,79.102,-19.043
1678024451.456,-30.762,-42.480,-15.137,-78.613,-41.992
1678024451.460,-49.316,-43.457,-16.113,-135.742,-161.133
1678024451.464,-62.988,-46.387,-15.625,-15.137,-227.051
1678024451.468,-28.320,-39.551,-19.043,109.375,-66.406
1678024451.472,-8.301,-36.621,-22.461,84.473,116.211
1678024451.476,-37.109,-36.133,-18.555,-41.016,21.484
1678024451.480,-51.270,-34.668,-15.625,-102.051,-136.719
1678024451.483,-43.945,-35.156,-21.973,-23.438,-107.910
1678024451.487,-50.293,-33.691,-22.461,107.910,187.500
1678024451.491,-31.738,-32.715,-22.949,99.121,447.754
1678024451.495,-15.137,-29.297,-25.391,-69.824,3.906
1678024451.499,-20.996,-26.367,-21.973,-154.785,-213.867
1678024451.503,-30.273,-30.273,-23.926,-67.871,-3.906
1678024451.507,-39.551,-34.180,-28.809,72.754,-49.316
1678024451.511,-43.945,-35.645,-32.227,88.867,-83.984
1678024451.515,-26.367,-37.109,-34.180,-53.711,-101.562
1678024451.519,-10.254,-39.062,-31.738,-175.781,-166.016
1678024451.523,-31.250,-37.598,-23.926,-108.398,-83.984
1678024451.527,-65.918,-34.180,-19.531,63.477,-2.930
1678024451.530,-65.918,-35.645,-22.461,109.863,94.238
1678024451.534,-35.156,-37.598,-30.273,-18.066,190.918
1678024451.538,-13.184,-32.715,-30.273,-158.203,-64.941
1678024451.542,-30.273,-33.203,-22.949,-122.070,-213.867
1678024451.546,-56.641,-37.598,-27.832,46.875,-64.941
1678024451.547,-50.293,-39.062,-27.344,128.906,4.883
1678024451.551,-36.621,-37.109,-12.695,16.113,-64.453
1678024451.555,-37.598,-33.203,-12.695,-136.230,-161.621
1678024451.559,-34.668,-43.457,-10.742,-105.469,-113.770
1678024451.563,-33.691,-48.828,-7.324,56.152,98.633
1678024451.567,-23.438,-44.922,-6.348,134.277,126.465
1678024451.571,-8.789,-42.969,0.000,39.062,24.902
1678024451.574,-9.277,-41.992,2.930,-102.539,183.594
1678024451.578,-34.180,-51.270,0.977,-101.074,283.691
1678024451.582,-41.504,-54.688,0.488,54.199,-14.648
1678024451.586,-33.203,-54.199,8.301,164.551,-51.270
1678024451.590,-38.086,-59.570,8.789,63.965,-10.254
1678024451.593,-34.180,-65.918,4.883,-121.582,-158.203
1678024451.597,-21.484,-67.871,0.000,-160.645,-267.578
1678024451.601,-16.602,-64.941,-3.906,-5.371,-216.309
1678024451.605,-62.500,-67.383,-5.859,129.883,-24.414
1678024451.609,-85.938,-67.383,-5.371,65.430,75.684
1678024451.613,-50.781,-63.965,-8.301,-97.168,-67.383
1678024451.617,-37.598,-62.500,-11.230,-135.742,-126.465
1678024451.620,-40.039,-58.105,-3.418,4.395,221.680
1678024451.624,-34.668,-53.711,-0.977,156.250,286.133
1678024451.628,-15.625,-48.828,-0.488,115.723,37.598
1678024451.632,-5.371,-50.293,-0.977,-73.730,-77.637
1678024451.636,-10.742,-56.152,-5.859,-153.809,-199.707
1678024451.636,-20.996,-53.223,-6.836,-36.133,-171.875
1678024451.640,-23.926,-54.199,-3.906,118.652,-31.250
1678024451.644,-15.625,-49.316,-0.488,107.910,41.504
1678024451.648,9.766,-40.039,-1.465,-58.105,-75.684
1678024451.652,13.672,-36.133,-2.441,-147.461,-148.926
1678024451.656,-4.395,-32.715,1.465,-47.363,-67.871
1678024451.660,-9.766,-34.180,0.000,115.234,213.867
1678024451.663,-10.742,-35.645,-9.277,135.742,500.000
1678024451.667,-4.883,-33.203,-9.766,-20.020,167.969
1678024451.671,-5.859,-31.738,-5.859,-146.973,-238.770
1678024451.675,-26.855,-32.715,-12.695,-70.801,-163.086
1678024451.679,-23.926,-34.668,-15.625,94.727,-10.254
1678024451.683,-20.020,-34.668,-9.277,116.211,-29.785
1678024451.687,-20.996,-31.250,-6.836,-30.762,-95.215
1678024451.691,-10.254,-30.273,-8.789,-151.367,-133.301
1678024451.695,-30.762,-35.645,-11.719,-88.379,-188.965
1678024451.699,-43.945,-36.133,-14.648,64.453,-172.852
1678024451.703,-38.086,-38.086,-13.184,114.746,66.406
1678024451.707,-28.320,-40.527,-16.602,-8.789,299.805
1678024451.710,-23.926,-41.016,-25.879,-154.785,-16.113
1678024451.714,-30.762,-44.434,-29.785,-127.930,-221.191
1678024451.718,-42.969,-41.504,-31.250,18.066,46.875
1678024451.722,-42.480,-33.691,-24.414,101.562,274.902
1678024451.726,-36.621,-35.156,-24.414,5.371,50.781
1678024451.741,-24.902,-31.250,-27.344,-138.672,-209.473
1678024451.745,-16.113,-24.414,-22.461,-130.371,-210.449
1678024451.749,-24.414,-28.809,-27.832,14.648,-104.004
1678024451.753,-20.996,-24.902,-33.691,108.398,6.348
1678024451.757,-7.812,-22.949,-27.832,17.090,-67.383
1678024451.761,0.000,-27.832,-23.926,-134.277,-14.160
1678024451.765,-0.977,-27.832,-24.902,-149.414,59.570
1678024451.768,-7.324,-29.297,-29.785,-5.859,-94.727
1678024451.772,-17.578,-28.809,-28.809,110.840,-115.234
1678024451.776,-29.785,-32.227,-28.809,39.551,21.484
1678024451.780,-29.785,-33.691,-31.250,-106.934,-39.062
1678024451.784,-27.832,-33.691,-30.762,-149.414,-295.898
1678024451.787,-38.574,-34.668,-31.738,-23.438,-197.754
1678024451.791,-41.992,-30.273,-30.762,113.281,71.777
1678024451.795,-41.016,-29.785,-33.691,69.824,10.254
1678024451.799,-29.297,-31.250,-34.668,-90.332,-175.781
1678024451.803,-20.020,-30.273,-33.203,-150.391,-217.773
1678024451.807,-29.297,-33.691,-32.227,-33.691,-59.082
1678024451.811,-39.551,-34.180,-33.203,99.121,119.629
1678024451.814,-40.039,-29.785,-34.180,67.871,-0.977
1678024451.818,-25.879,-28.320,-29.297,-85.449,-72.266
1678024451.822,-26.367,-29.297,-32.715,-161.621,-1.953
1678024451.826,-41.504,-31.738,-33.691,-66.406,-119.141
1678024451.830,-41.992,-33.203,-30.273,83.008,-36.133
1678024451.831,-34.180,-30.273,-30.273,74.707,84.961
1678024451.835,-29.785,-27.344,-29.785,-87.891,-24.902
1678024451.839,-31.738,-28.320,-31.738,-180.176,-201.172
1678024451.843,-36.621,-25.879,-36.621,-94.727,-239.258
1678024451.847,-37.598,-26.855,-39.062,53.711,153.320
1678024451.851,-45.898,-30.762,-40.039,74.707,323.730
1678024451.855,-46.875,-30.273,-40.527,-67.383,19.043
1678024451.858,-39.551,-29.785,-38.086,-179.688,-143.066
1678024451.862,-37.598,-26.367,-39.551,-110.840,12.207
1678024451.866,-47.852,-32.715,-36.621,43.457,258.301
1678024451.870,-58.105,-36.621,-28.809,75.684,60.059
1678024451.874,-48.828,-31.738,-29.297,-52.246,-105.469
1678024451.878,-36.133,-26.855,-30.762,-184.570,-175.781
1678024451.882,-41.992,-26.367,-23.438,-132.812,-177.734
1678024451.886,-58.594,-30.273,-28.809,20.020,-113.281
1678024451.890,-65.430,-22.949,-24.902,82.031,57.129
1678024451.894,-59.570,-17.090,-15.625,-19.043,101.074
1678024451.898,-54.688,-21.484,-20.508,-168.945,-50.781
1678024451.902,-62.012,-18.555,-20.020,-160.645,-136.719
1678024451.905,-74.707,-11.230,-16.113,-19.043,-18.555
1678024451.909,-68.848,-8.301,-7.324,78.613,291.504
1678024451.913,-85.938,-3.418,-5.859,-35.645,98.633
1678024451.917,-112.305,0.977,-0.488,-219.238,-198.242
1678024451.921,-130.371,6.348,14.648,-231.934,-173.828
1678024451.921,-177.246,10.254,7.812,-125.000,-83.984
1678024451.925,-204.590,18.555,5.371,-55.664,-17.090
1678024451.929,-228.516,26.367,18.555,-161.621,-85.938
1678024451.933,-269.043,28.809,20.508,-355.957,-185.547
1678024451.937,-297.852,27.832,26.855,-408.203,-119.629
1678024451.941,-316.406,27.344,28.809,-299.805,-71.289
1678024451.945,-330.078,41.504,26.855,-198.242,-39.551
1678024451.948,-312.012,41.504,32.715,-254.395,117.676
1678024451.952,-283.203,33.203,37.109,-409.668,309.082
1678024451.956,-287.109,28.809,33.691,-438.965,39.062
1678024451.960,-316.895,26.367,24.902,-300.781,-158.203
1678024451.964,-323.730,23.926,29.785,-178.223,-10.254
1678024451.968,-289.551,18.066,39.062,-213.867,-35.645
1678024451.972,-270.508,14.648,34.180,-345.703,-217.773
1678024451.976,-286.133,17.090,28.809,-396.484,-288.574
1678024451.980,-281.250,18.555,27.832,-283.203,-171.387
1678024451.984,-260.742,11.230,25.391,-129.395,-60.059
1678024451.988,-250.488,4.395,19.043,-132.812,52.246
1678024451.992,-251.953,4.883,8.301,-268.555,116.211
1678024451.995,-245.117,-2.441,9.277,-333.008,191.406
1678024451.999,-230.957,-18.555,7.812,-232.422,14.160
1678024452.003,-205.078,-23.438,1.465,-88.867,-162.598
1678024452.007,-173.340,-25.391,1.465,-76.660,60.059
1678024452.011,-136.719,-29.297,-3.418,-201.172,31.738
1678024452.011,-138.184,-30.762,-8.789,-292.480,-271.973
1678024452.015,-137.207,-34.668,-14.648,-205.078,-239.746
1678024452.019,-114.746,-37.598,-21.973,-40.527,-30.762
1678024452.023,-98.145,-39.062,-25.391,-2.930,-10.742
1678024452.027,-77.637,-41.016,-30.273,-113.770,-70.801
1678024452.031,-62.012,-45.410,-34.180,-205.078,-119.629
1678024452.035,-64.453,-50.781,-32.715,-137.207,57.129
1678024452.038,-82.031,-51.270,-33.691,17.578,482.422
1678024452.042,-78.613,-54.199,-38.574,62.012,277.832
1678024452.046,-45.898,-55.664,-39.551,-47.363,-144.531
1678024452.050,-24.902,-53.711,-42.480,-153.809,-191.895
1678024452.054,-25.391,-57.617,-43.457,-101.562,-213.379
1678024452.058,-17.578,-61.523,-40.527,55.176,-169.434
1678024452.062,-14.648,-66.895,-47.363,111.328,-10.742
1678024452.066,1.465,-67.383,-46.387,15.137,27.832
1678024452.070,7.324,-66.406,-48.340,-103.027,-135.742
1678024452.074,-9.766,-68.848,-52.246,-84.473,-279.785
1678024452.078,-9.766,-67.871,-46.387,71.777,-27.832
1678024452.082,-12.695,-67.871,-42.480,173.828,362.305
1678024452.085,2.441,-67.383,-45.898,80.078,128.906
1678024452.089,27.344,-60.059,-51.758,-79.102,-266.113
1678024452.093,46.387,-56.641,-54.688,-89.844,-253.906
1678024452.097,46.875,-57.617,-54.199,51.758,-79.590
1678024452.101,28.320,-61.035,-53.223,163.086,-4.883
1678024452.102,31.250,-61.523,-50.293,106.445,-46.387
1678024452.106,31.738,-60.547,-50.293,-40.039,-71.289
1678024452.110,25.391,-61.035,-54.199,-71.777,-116.211
1678024452.114,32.715,-60.547,-51.758,56.152,-131.348
1678024452.118,40.039,-62.500,-49.805,177.246,29.297
1678024452.122,51.758,-59.082,-50.293,137.207,257.812
1678024452.126,56.152,-52.734,-52.246,-14.160,214.355
1678024452.129,46.875,-50.293,-53.223,-65.430,-166.016
1678024452.133,39.551,-49.316,-46.387,50.781,-240.234
1678024452.137,45.410,-43.457,-41.992,187.988,160.156
1678024452.141,53.223,-42.480,-47.363,168.945,249.023
1678024452.145,53.223,-45.898,-44.434,20.508,-130.859
1678024452.163,50.781,-44.434,-41.016,-50.781,-234.375
1678024452.167,47.363,-45.410,-48.340,51.270,-144.043
1678024452.171,46.387,-44.434,-47.363,180.664,45.410
1678024452.175,51.758,-39.062,-42.969,161.133,128.906
1678024452.179,71.289,-33.691,-44.434,23.438,-8.301
1678024452.183,71.777,-34.668,-46.875,-63.477,94.238
1678024452.187,63.965,-39.551,-55.176,10.742,40.527
1678024452.190,63.965,-39.551,-59.082,145.020,-96.191
1678024452.194,64.453,-33.203,-50.781,162.598,103.516
1678024452.198,74.707,-25.879,-53.711,34.668,119.629
1678024452.202,84.473,-27.832,-61.035,-77.637,-231.934
1678024452.206,68.359,-31.738,-56.641,-13.184,-268.555
1678024452.206,40.039,-32.715,-54.199,138.672,-63.965
1678024452.210,31.250,-36.133,-56.152,159.668,-14.160
1678024452.214,47.363,-29.297,-52.246,38.086,-88.867
1678024452.218,60.059,-27.832,-48.828,-64.453,-197.266
1678024452.222,38.086,-34.180,-48.340,-23.926,-88.379
1678024452.226,27.832,-35.645,-49.805,116.211,97.168
1678024452.230,31.738,-37.109,-51.758,172.363,111.816
1678024452.233,41.992,-34.668,-46.387,73.242,6.348
1678024452.237,49.805,-33.203,-47.852,-54.688,43.945
1678024452.241,35.156,-36.621,-53.711,-42.969,261.719
1678024452.245,22.949,-37.109,-51.758,90.332,91.309
1678024452.249,25.879,-32.227,-52.734,164.062,-86.426
1678024452.253,35.645,-29.785,-50.781,72.266,-42.969
1678024452.257,40.039,-26.367,-48.340,-69.824,-186.035
1678024452.261,26.367,-29.297,-49.805,-74.219,-328.613
1678024452.265,20.508,-34.668,-50.781,46.875,-163.574
1678024452.269,18.066,-35.156,-55.664,129.883,8.789
1678024452.273,20.508,-34.668,-53.223,53.223,-37.109
1678024452.277,28.809,-30.762,-50.293,-83.496,-109.863
1678024452.280,27.344,-30.273,-43.945,-89.844,-67.383
1678024452.284,13.672,-34.180,-43.457,40.039,265.625
1678024452.288,13.672,-38.574,-49.316,130.859,270.020
1678024452.292,28.809,-38.086,-46.875,68.848,23.438
1678024452.296,30.273,-35.645,-43.945,-62.988,-120.605
1678024452.296,17.090,-30.762,-41.016,-93.262,-216.309
1678024452.300,4.883,-27.344,-37.598,21.973,-135.254
1678024452.304,2.930,-31.250,-41.992,145.020,1.953
1678024452.308,6.836,-32.715,-39.062,108.398,37.598
1678024452.312,16.113,-30.273,-35.156,-41.504,-14.160
1678024452.316,12.695,-30.762,-37.109,-86.426,-109.863
1678024452.320,7.812,-35.156,-40.527,17.090,-136.719
1678024452.323,10.254,-32.715,-39.062,142.090,213.867
1678024452.327,8.789,-27.832,-33.691,136.230,427.246
1678024452.331,20.020,-22.949,-31.250,2.930,59.570
1678024452.335,24.902,-22.461,-31.738,-78.613,-200.684
1678024452.339,12.207,-26.855,-33.691,-13.672,-123.535
1678024452.343,10.742,-23.926,-35.645,86.914,-76.172
1678024452.347,14.160,-19.531,-32.227,81.543,-90.820
1678024452.351,19.043,-19.531,-34.668,-35.156,-83.496
1678024452.355,18.066,-17.578,-41.016,-128.418,-137.695
1678024452.359,13.184,-15.625,-39.062,-61.523,-164.062
1678024452.363,20.508,-18.555,-40.527,81.543,-23.926
1678024452.367,30.762,-19.043,-38.086,110.840,208.008
1678024452.370,26.367,-17.578,-33.203,-8.789,267.090
1678024452.374,23.438,-21.484,-34.180,-114.746,-104.004
1678024452.378,10.742,-27.344,-39.062,-62.012,-286.133
1678024452.382,-10.254,-25.879,-42.969,66.895,-48.340
1678024452.386,-18.555,-23.438,-42.480,95.703,47.363
1678024452.387,-8.789,-24.414,-39.551,-6.836,26.855
1678024452.391,10.254,-21.484,-41.992,-106.934,-150.879
1678024452.395,9.277,-21.484,-43.945,-76.660,-116.211
1678024452.399,-0.488,-24.902,-41.504,47.363,79.102
1678024452.403,3.418,-21.973,-38.574,103.516,93.750
1678024452.407,8.301,-23.438,-38.574,7.812,37.598
1678024452.411,8.301,-28.809,-34.180,-108.398,30.273
1678024452.414,3.418,-33.691,-35.645,-86.914,243.652
1678024452.418,-4.395,-34.668,-41.992,27.832,80.566
1678024452.422,-8.789,-30.762,-38.086,87.402,-26.855
1678024452.426,-0.488,-25.391,-36.621,1.465,-0.977
1678024452.430,2.441,-26.855,-40.527,-124.512,-166.016
1678024452.447,-5.371,-29.785,-38.086,-125.488,-252.930
1678024452.451,-17.090,-30.762,-34.180,-4.883,-155.273
1678024452.455,-30.762,-32.227,-38.086,83.008,64.941
1678024452.459,-33.691,-30.762,-40.039,20.020,70.312
1678024452.463,-23.438,-34.180,-38.086,-111.328,-84.961
1678024452.467,-18.555,-35.645,-36.621,-131.836,-60.547
1678024452.471,-20.508,-23.926,-39.551,-29.297,296.875
1678024452.474,-5.859,-23.438,-47.363,51.758,252.930
1678024452.478,8.301,-30.762,-41.504,16.113,-84.473
1678024452.482,-18.555,-25.879,-24.902,-103.516,-117.676
1678024452.486,-45.898,-26.367,-20.020,-151.367,-143.066
1678024452.490,-50.781,-30.762,-20.508,-60.547,-146.484
1678024452.491,-56.641,-35.645,-20.020,42.480,-79.590
1678024452.495,-61.523,-39.551,-16.113,15.625,-8.789
1678024452.499,-49.805,-41.016,-13.184,-112.305,-92.285
1678024452.503,-41.504,-40.039,-14.160,-166.992,-196.777
1678024452.507,-61.523,-44.922,-13.672,-83.008,-144.043
1678024452.511,-79.102,-48.340,-11.719,20.508,243.164
1678024452.515,-86.426,-46.387,-12.695,10.742,386.230
1678024452.518,-78.613,-47.363,-13.184,-95.703,54.199
1678024452.522,-73.242,-48.828,-15.625,-159.180,-169.434
1678024452.526,-72.266,-49.805,-20.020,-88.867,15.137
1678024452.530,-67.871,-49.805,-19.043,23.926,193.359
1678024452.534,-65.430,-41.992,-18.555,31.738,-72.266
1678024452.537,-54.688,-39.062,-17.578,-76.660,-96.680
1678024452.541,-40.527,-41.992,-19.043,-150.879,-121.094
1678024452.545,-48.340,-42.480,-22.949,-88.379,-162.598
1678024452.549,-50.293,-41.016,-20.508,22.949,-106.445
1678024452.553,-40.039,-40.039,-20.020,56.152,2.930
1678024452.557,-33.691,-36.133,-22.461,-39.551,32.715
1678024452.561,-33.203,-37.598,-26.367,-129.883,-108.398
1678024452.564,-39.551,-42.480,-33.203,-91.797,-124.023
1678024452.568,-45.898,-39.062,-33.203,23.926,25.879
1678024452.572,-45.410,-39.551,-32.715,70.312,386.230
1678024452.576,-34.668,-38.574,-32.715,-20.996,227.051
1678024452.580,-21.484,-33.691,-28.320,-113.770,-149.902
1678024452.581,-32.227,-34.668,-29.297,-80.078,-94.238
1678024452.585,-48.828,-34.180,-30.762,19.531,-42.969
1678024452.589,-41.504,-32.227,-28.320,69.336,-11.230
1678024452.593,-32.227,-34.180,-26.367,3.906,-40.039
1678024452.597,-32.227,-34.180,-28.809,-100.586,-80.566
1678024452.601,-33.691,-33.203,-29.785,-100.586,24.414
1678024452.605,-33.203,-37.109,-29.297,3.906,10.742
1678024452.608,-31.738,-36.133,-26.367,68.359,34.180
1678024452.612,-18.066,-35.645,-22.949,19.043,207.031
1678024452.616,-12.695,-30.762,-23.438,-68.848,260.254
1678024452.620,-21.484,-25.391,-23.926,-84.961,-64.941
1678024452.624,-19.043,-23.926,-21.973,-2.930,-165.039
1678024452.628,-22.461,-21.484,-16.113,57.617,22.949
1678024452.632,-22.949,-23.438,-11.719,4.395,-38.574
1678024452.636,-16.113,-26.855,-16.602,-102.051,-230.469
1678024452.640,-23.926,-29.785,-24.414,-128.418,-231.445
1678024452.644,-25.879,-31.250,-20.996,-30.273,-126.953
1678024452.648,-31.738,-32.227,-17.578,63.477,14.160
1678024452.652,-30.762,-36.133,-19.531,31.250,84.473
1678024452.655,-17.578,-32.715,-16.602,-75.684,-10.254
1678024452.659,-22.949,-29.785,-21.484,-121.094,83.496
1678024452.663,-31.738,-32.715,-27.344,-62.500,-39.062
1678024452.667,-35.156,-32.227,-22.949,36.621,-125.977
1678024452.671,-34.668,-33.203,-23.438,26.855,24.902
1678024452.671,-26.367,-35.156,-22.949,-89.355,-46.387
1678024452.675,-24.902,-37.598,-18.066,-145.508,-237.305
1678024452.679,-37.109,-33.203,-18.555,-67.871,-193.848
1678024452.683,-47.363,-28.809,-16.602,36.621,-69.824
1678024452.687,-47.363,-30.762,-16.602,21.973,-38.574
1678024452.691,-37.109,-29.785,-19.531,-92.285,-73.242
1678024452.695,-34.180,-26.855,-18.555,-161.133,-158.203
1678024452.698,-41.504,-24.414,-17.090,-104.004,-32.227
1678024452.702,-41.504,-24.902,-20.508,5.371,231.934
1678024452.706,-31.738,-29.785,-18.066,37.109,89.355
1678024452.710,-36.621,-30.762,-15.625,-53.711,-110.352
1678024452.714,-39.551,-27.344,-11.230,-143.066,-160.645
1678024452.720,-37.598,-33.203,-12.695,-101.074,-193.848
1678024452.724,-34.180,-34.668,-19.531,15.625,-114.258
1678024452.728,-21.973,-34.180,-21.484,58.105,33.203
1678024452.732,-11.719,-36.133,-26.367,-38.086,-4.883
1678024452.736,-8.789,-31.250,-24.902,-135.254,-188.477
1678024452.740,-10.742,-30.762,-22.949,-93.750,-135.254
1678024452.744,-18.066,-35.645,-27.832,26.367,64.453
1678024452.747,-33.691,-32.715,-24.902,76.660,224.609
1678024452.751,-37.109,-31.738,-20.508,-14.160,-83.496
1678024452.755,-27.344,-32.715,-21.973,-118.652,-330.566
1678024452.759,-33.691,-32.227,-22.949,-100.098,-213.379
1678024452.763,-43.945,-28.809,-22.461,11.719,-119.141
1678024452.761,-38.574,-30.762,-23.926,67.871,-70.801
1678024452.765,-28.809,-34.668,-24.414,-16.602,-77.637
1678024452.769,-18.555,-30.762,-24.414,-126.953,-127.930
1678024452.773,-19.043,-29.297,-22.949,-121.094,-164.551
1678024452.777,-32.227,-31.250,-22.949,-16.113,-65.918
1678024452.781,-38.574,-28.320,-24.414,55.176,38.086
1678024452.785,-35.645,-27.344,-23.438,-2.441,94.727
1678024452.788,-31.250,-27.344,-26.367,-105.469,345.215
1678024452.792,-36.621,-28.809,-26.855,-126.953,184.082
1678024452.796,-42.480,-29.297,-23.926,-37.109,-134.766
1678024452.800,-35.156,-22.949,-22.461,51.270,-54.199
1678024452.804,-32.715,-27.344,-20.020,5.859,-76.172
1678024452.808,-27.344,-31.738,-20.020,-104.980,-201.660
1678024452.812,-20.508,-28.320,-23.926,-128.906,-216.309
1678024452.816,-35.156,-30.762,-25.391,-48.340,-159.180
1678024452.820,-48.828,-28.809,-24.414,33.203,-94.727
1678024452.824,-41.504,-26.855,-26.855,7.812,-87.891
1678024452.828,-26.855,-28.320,-22.461,-95.215,-27.344
1678024452.832,-26.855,-23.926,-19.043,-133.301,140.137
1678024452.835,-37.598,-24.414,-22.949,-57.617,51.270
1678024452.839,-39.062,-28.320,-26.367,27.344,-133.789
1678024452.843,-34.668,-26.855,-27.344,19.531,-10.254
1678024452.847,-36.133,-27.832,-24.414,-80.566,64.453
1678024452.851,-34.180,-30.273,-28.320,-140.625,-243.164
1678024452.851,-33.691,-26.367,-32.227,-64.941,-254.883
1678024452.855,-45.410,-27.832,-29.297,37.109,-15.137
1678024452.859,-49.805,-32.227,-29.297,33.203,6.836
1678024452.863,-34.668,-18.066,-23.926,-74.219,-158.203
1678024452.867,-31.250,-16.113,-22.461,-144.531,-201.172
1678024452.871,-53.711,-25.391,-21.973,-96.680,63.477
1678024452.875,-72.266,-18.066,-17.090,7.324,262.207
1678024452.878,-75.684,-18.555,-13.184,16.602,21.484
1678024452.882,-74.707,-13.184,0.000,-87.402,-113.770
1678024452.886,-93.262,-10.742,5.859,-185.059,84.473
1678024452.890,-126.465,-21.973,1.953,-186.035,117.676
1678024452.894,-158.203,-21.484,5.859,-107.422,-102.051
1678024452.912,-199.219,-1.465,21.973,-106.934,-52.734
1678024452.916,-241.211,5.859,32.227,-242.676,-63.965
1678024452.920,-274.902,-1.953,24.902,-366.211,-213.379
1678024452.924,-291.992,17.090,25.391,-350.098,-245.605
1678024452.928,-300.781,25.879,27.832,-250.488,-89.355
1678024452.932,-304.199,12.207,27.344,-209.473,83.984
1678024452.936,-295.410,14.648,29.297,-280.273,23.926
1678024452.939,-294.434,16.113,31.250,-373.535,-173.828
1678024452.943,-292.969,13.184,28.320,-357.422,-149.902
1678024452.947,-275.879,15.625,27.832,-241.699,71.289
1678024452.951,-266.602,11.230,33.691,-186.035,-36.621
1678024452.955,-268.555,7.324,25.879,-237.793,-113.281
1678024452.956,-247.070,3.418,23.438,-307.617,-55.176
1678024452.960,-229.980,-5.859,27.344,-307.617,-69.336
1678024452.964,-230.469,-12.695,25.879,-217.285,-124.512
1678024452.968,-226.074,-15.625,29.297,-134.277,-84.473
1678024452.972,-208.008,-21.484,31.738,-165.527,14.160
1678024452.976,-179.199,-26.855,33.691,-243.652,21.973
1678024452.980,-161.133,-31.738,33.203,-251.465,-68.848
1678024452.983,-151.367,-40.039,29.785,-149.414,-177.246
1678024452.987,-141.602,-46.875,25.879,-36.133,100.098
1678024452.991,-113.281,-50.781,23.438,-44.922,349.609
1678024452.995,-83.008,-56.641,24.902,-131.348,-43.945
1678024452.999,-70.312,-68.848,23.926,-156.738,-240.234
1678024453.004,-66.406,-75.684,14.160,-63.477,-186.035
1678024453.008,-54.199,-77.637,2.930,46.387,12.207
1678024453.012,-30.273,-79.102,0.977,31.738,49.316
1678024453.016,-10.742,-80.566,0.977,-73.242,-116.699
1678024453.020,-10.742,-80.566,-3.906,-111.816,-92.285
1678024453.024,-12.695,-76.172,-7.812,-21.973,-41.504
1678024453.028,-11.719,-80.078,-12.207,83.496,-16.602
1678024453.031,-20.020,-83.496,-13.672,71.777,38.086
1678024453.035,-12.207,-81.055,-17.578,-23.926,187.500
1678024453.039,-1.953,-79.102,-22.461,-76.172,-37.109
1678024453.043,-1.465,-76.660,-21.973,-10.254,-216.309
1678024453.047,-2.930,-78.125,-25.391,98.633,-12.695
1678024453.046,-0.488,-78.125,-28.809,109.863,70.801
1678024453.050,4.395,-76.172,-27.832,19.531,-83.984
1678024453.054,18.555,-74.219,-29.297,-48.340,-274.902
1678024453.058,26.367,-73.730,-36.621,-10.254,-222.656
1678024453.062,27.344,-67.871,-42.969,98.633,-40.527
1678024453.066,33.203,-61.523,-47.852,128.418,24.414
1678024453.070,35.156,-62.988,-48.828,34.180,-76.660
1678024453.073,42.480,-64.941,-52.246,-40.527,-51.758
1678024453.077,36.621,-63.477,-56.152,-11.719,253.418
1678024453.081,32.227,-59.570,-55.664,86.426,147.949
1678024453.085,43.457,-53.711,-51.758,145.996,-103.516
1678024453.089,51.270,-50.293,-51.270,67.871,-171.875
1678024453.093,61.035,-48.340,-53.223,-44.434,-216.309
1678024453.097,58.105,-41.504,-52.734,-32.227,-208.984
1678024453.101,48.828,-38.574,-54.199,72.266,-101.562
1678024453.105,48.828,-41.504,-57.617,122.559,26.367
1678024453.109,54.199,-41.992,-62.988,62.988,-25.879
1678024453.113,58.105,-38.574,-62.988,-26.855,-81.055
1678024453.117,60.059,-41.016,-60.547,-36.133,-4.883
1678024453.120,51.758,-41.504,-58.105,78.613,382.324
1678024453.124,45.898,-35.645,-58.105,144.043,312.012
1678024453.128,50.781,-39.062,-59.570,72.754,-76.172
1678024453.132,55.176,-34.668,-60.059,-18.555,-123.535
1678024453.136,52.734,-29.785,-62.988,-35.156,-172.363
1678024453.136,46.387,-35.645,-61.035,52.734,-156.738
1678024453.140,48.340,-35.156,-59.570,132.324,-92.773
1678024453.144,48.340,-32.227,-58.105,92.285,-16.113
1678024453.148,51.758,-32.227,-56.152,-12.695,-150.391
1678024453.152,47.852,-32.715,-55.176,-42.480,-216.309
1678024453.156,40.527,-32.715,-52.246,43.457,-97.168
1678024453.160,41.992,-29.297,-52.246,129.883,171.387
1678024453.163,48.340,-25.879,-54.688,108.398,428.711
1678024453.167,49.316,-29.785,-58.105,-2.441,99.121
1678024453.171,42.969,-29.785,-58.105,-56.641,-153.320
1678024453.175,32.227,-23.438,-53.711,12.207,2.441
1678024453.179,22.949,-23.926,-52.246,97.168,59.082
1678024453.183,30.273,-25.391,-58.105,89.355,-72.754
1678024453.187,33.691,-26.367,-54.688,0.488,-124.512
1678024453.191,26.367,-32.715,-52.734,-48.828,-143.555
1678024453.195,25.391,-35.645,-54.199,7.812,-170.410
1678024453.199,21.484,-36.133,-51.758,100.586,-59.082
1678024453.203,14.648,-34.668,-56.152,102.539,78.125
1678024453.207,20.020,-32.227,-59.570,0.488,176.758
1678024453.210,24.902,-29.297,-54.688,-77.637,-74.707
1678024453.214,12.207,-26.855,-51.270,-19.531,-252.930
1678024453.218,-2.441,-28.320,-54.199,82.031,-5.859
1678024453.222,0.977,-34.180,-56.641,82.520,145.996
1678024453.226,11.230,-35.645,-59.082,-20.996,-48.340
1678024453.241,21.484,-28.320,-56.641,-85.449,-278.320
1678024453.245,16.602,-25.391,-55.664,-37.109,-184.570
1678024453.249,10.254,-31.250,-55.176,48.340,6.348
1678024453.253,18.066,-34.180,-50.781,58.105,-48.340
1678024453.257,27.832,-33.203,-47.852,-27.832,-100.586
1678024453.261,30.273,-30.273,-47.363,-94.238,80.566
1678024453.265,11.230,-30.762,-46.875,-60.547,265.137
1678024453.268,5.371,-33.203,-47.852,22.461,18.555
1678024453.272,10.742,-31.250,-46.387,62.988,-115.723
1678024453.276,10.254,-23.438,-44.922,-11.719,17.090
1678024453.280,2.930,-26.367,-45.898,-104.980,-122.070
1678024453.284,2.441,-29.785,-42.480,-76.172,-319.336
1678024453.287,14.160,-9.277,-43.945,25.879,-191.406
1678024453.291,0.488,-4.883,-43.945,46.875,-12.207
1678024453.295,-16.113,-9.766,-44.434,-34.668,-25.879
1678024453.299,-25.391,-1.953,-49.805,-130.859,-230.469
1678024453.303,-34.180,0.000,-53.711,-125.488,-212.891
1678024453.307,-46.387,1.953,-58.594,-35.156,-0.488
1678024453.311,-51.270,-0.977,-67.383,3.418,51.758
1678024453.314,-43.457,-2.930,-71.777,-56.152,-69.336
1678024453.318,-40.527,0.488,-72.754,-154.785,-91.309
1678024453.322,-43.945,5.371,-75.195,-163.574,140.625
1678024453.326,-48.828,7.812,-76.660,-84.473,26.367
1678024453.330,-43.945,0.977,-72.754,-9.277,-126.953
1678024453.331,-37.109,-1.953,-70.312,-32.715,-53.223
1678024453.335,-29.785,-4.395,-74.707,-113.281,-107.910
1678024453.339,-25.879,-8.301,-71.289,-144.531,-205.078
1678024453.343,-29.297,-6.836,-65.918,-76.660,-97.656
1678024453.347,-29.297,-6.348,-63.477,19.043,236.328
1678024453.351,-22.949,-6.836,-64.941,2.441,316.406
1678024453.355,-8.301,-6.836,-63.965,-101.562,-19.531
1678024453.358,-12.207,-11.230,-60.059,-143.555,-275.879
1678024453.362,-24.902,-12.695,-62.988,-60.547,-26.367
1678024453.366,-32.227,-15.137,-63.965,24.902,197.754
1678024453.370,-29.297,-19.043,-61.523,-0.977,-43.457
1678024453.374,-22.461,-14.648,-63.477,-87.891,-150.879
1678024453.378,-19.043,-13.184,-58.594,-137.207,-211.914
1678024453.382,-20.996,-16.602,-53.223,-90.332,-175.781
1678024453.386,-30.273,-20.996,-55.664,-2.930,-96.191
1678024453.390,-28.809,-22.461,-54.199,7.812,-41.504
1678024453.394,-22.949,-19.043,-50.293,-84.961,-14.648
1678024453.398,-22.461,-18.555,-46.875,-154.785,-90.332
1678024453.402,-29.785,-19.043,-47.363,-105.469,-126.465
1678024453.405,-39.062,-19.531,-49.805,-12.695,-1.953
1678024453.409,-41.504,-21.973,-48.828,8.301,287.109
1678024453.413,-38.574,-17.090,-49.316,-75.684,169.922
1678024453.417,-33.691,-16.113,-48.340,-138.672,-221.191
1678024453.421,-36.133,-19.043,-47.363,-101.074,-172.363
1678024453.421,-41.016,-18.555,-48.340,-21.484,-75.684
1678024453.425,-34.180,-15.625,-49.805,3.418,-81.543
1678024453.429,-23.438,-13.672,-47.363,-63.965,-52.734
1678024453.433,-22.461,-14.648,-45.898,-137.695,-39.062
1678024453.437,-26.855,-19.043,-44.922,-118.652,-3.418
1678024453.441,-25.879,-20.020,-40.527,-23.438,62.988
1678024453.445,-23.926,-19.043,-33.203,30.273,68.848
1678024453.448,-16.602,-20.508,-29.785,-36.621,181.641
1678024453.452,-16.113,-18.066,-32.227,-126.465,333.496
1678024453.456,-26.367,-20.020,-30.762,-116.211,107.910
1678024453.460,-35.645,-24.414,-35.156,-39.551,-133.301
1678024453.464,-33.203,-23.438,-37.598,21.484,-20.996
1678024453.468,-18.555,-26.367,-32.227,-20.508,-47.363
1678024453.472,-14.160,-34.180,-32.715,-124.512,-202.148
1678024453.476,-19.043,-35.156,-36.133,-139.648,-193.359
1678024453.480,-28.320,-34.180,-38.574,-42.480,-94.727
1678024453.484,-28.809,-31.738,-33.691,35.645,-33.691
1678024453.488,-21.484,-29.297,-32.227,-17.578,-34.668
1678024453.492,-21.484,-26.367,-33.691,-112.305,-31.250
1678024453.495,-30.273,-26.367,-35.645,-125.977,161.133
1678024453.499,-37.598,-26.855,-40.039,-57.617,66.406
1678024453.503,-35.645,-26.855,-39.062,17.578,-142.090
1678024453.507,-34.668,-28.809,-31.250,2.930,37.598
1678024453.511,-29.785,-30.762,-25.879,-85.449,58.594
1678024453.511,-26.855,-35.645,-25.391,-123.535,-208.008
1678024453.515,-41.992,-39.551,-31.738,-55.664,-198.242
1678024453.519,-53.711,-33.203,-35.156,20.020,-58.594
1678024453.523,-42.969,-34.180,-36.133,-1.465,-42.969
1678024453.527,-36.621,-40.527,-36.133,-99.121,-51.270
1678024453.531,-43.457,-38.574,-35.156,-140.625,-54.199
1678024453.535,-44.434,-35.645,-38.086,-63.965,183.594
1678024453.538,-44.922,-37.598,-37.598,28.809,418.457
1678024453.542,-43.457,-38.086,-37.598,30.762,105.469
1678024453.546,-36.133,-30.273,-38.086,-43.457,-183.105
1678024453.550,-30.762,-27.344,-39.062,-115.723,-218.262
1678024453.554,-30.762,-30.273,-37.598,-82.520,-190.918
1678024453.559,-41.504,-26.367,-38.574,8.301,-118.164
1678024453.563,-45.410,-29.785,-38.086,24.902,-88.379
1678024453.567,-36.133,-30.273,-35.645,-43.945,-27.344
1678024453.571,-30.762,-27.344,-35.156,-109.375,-145.020
1678024453.575,-39.551,-29.297,-32.227,-72.266,-262.207
1678024453.579,-39.551,-28.320,-35.156,19.531,-52.734
1678024453.583,-46.387,-30.762,-36.621,35.156,214.844
1678024453.586,-48.340,-29.297,-35.156,-46.387,13.672
1678024453.590,-39.551,-28.320,-38.574,-122.559,-245.117
1678024453.594,-40.527,-33.203,-38.574,-91.309,-110.840
1678024453.598,-50.781,-37.109,-37.109,-4.395,17.578
1678024453.602,-53.223,-36.133,-34.180,29.785,-15.137
1678024453.616,-25.879,-29.297,-30.762,-24.414,-66.895
1678024453.620,-15.137,-24.902,-31.250,-106.445,-118.652
1678024453.624,-34.668,-28.320,-28.809,-97.168,-91.797
1678024453.628,-43.457,-30.762,-30.273,-9.277,-43.457
1678024453.632,-41.992,-27.344,-33.691,34.668,-81.543
1678024453.636,-41.992,-27.832,-31.738,-22.949,100.586
1678024453.640,-37.109,-23.926,-29.785,-95.215,395.508
1678024453.643,-30.273,-21.484,-30.762,-98.145,116.699
1678024453.647,-35.156,-23.926,-26.367,-23.926,-142.578
1678024453.651,-43.945,-24.902,-29.785,27.832,-66.406
1678024453.655,-35.156,-23.438,-32.227,-20.020,-75.684
1678024453.659,-25.879,-19.043,-27.344,-97.656,-164.551
1678024453.662,-22.461,-22.949,-27.832,-101.562,-208.008
1678024453.666,-23.926,-21.973,-26.367,-16.113,-118.164
1678024453.670,-35.156,-18.555,-23.926,46.875,-62.988
1678024453.674,-40.527,-24.902,-27.344,-4.883,-87.891
1678024453.678,-41.992,-33.203,-27.832,-103.027,-74.707
1678024453.682,-46.387,-32.715,-26.855,-125.488,18.555
1678024453.686,-47.363,-25.391,-22.949,-50.293,62.988
1678024453.689,-43.945,-23.438,-20.020,31.738,24.902
1678024453.693,-33.203,-27.832,-19.531,19.043,13.672
1678024453.697,-25.391,-28.809,-19.531,-67.871,185.547
1678024453.701,-32.715,-29.785,-27.344,-121.094,32.227
1678024453.705,-44.922,-35.156,-29.785,-60.547,-205.078
1678024453.721,-46.387,-37.598,-26.855,29.297,-73.730
1678024453.725,-39.062,-37.109,-26.855,20.508,-81.055
1678024453.729,-35.645,-35.156,-26.855,-70.312,-188.477
1678024453.733,-28.320,-34.668,-25.391,-109.863,-244.629
1678024453.737,-34.668,-34.668,-26.855,-56.641,-125.977
1678024453.741,-38.574,-33.203,-30.273,22.461,87.891
1678024453.745,-35.645,-35.645,-26.855,41.504,92.773
1678024453.748,-39.062,-38.574,-24.414,-39.551,-116.211
1678024453.752,-33.691,-38.086,-23.926,-107.422,-51.758
1678024453.756,-37.109,-37.598,-22.949,-55.176,206.543
1678024453.760,-43.945,-31.738,-23.926,30.762,22.949
1678024453.764,-40.527,-24.414,-19.043,39.062,-129.395
1678024453.753,-31.738,-23.926,-16.602,-39.551,-79.590
1678024453.757,-24.902,-26.855,-22.461,-103.027,-166.016
1678024453.761,-32.715,-31.250,-25.391,-67.871,-221.191
1678024453.765,-40.039,-29.785,-22.461,16.602,-74.219
1678024453.769,-35.645,-29.785,-20.508,59.082,-3.418
1678024453.773,-27.832,-27.832,-20.020,-11.719,-85.449
1678024453.777,-23.438,-30.762,-24.414,-104.980,-109.375
1678024453.780,-29.785,-37.109,-34.180,-82.520,-57.129
1678024453.784,-40.527,-34.180,-33.203,10.254,23.926
1678024453.788,-40.527,-31.738,-23.438,51.270,0.000
1678024453.792,-41.504,-27.832,-19.043,-22.461,-34.668
1678024453.796,-40.527,-32.227,-21.484,-112.305,1.953
1678024453.796,-43.945,-34.180,-23.438,-92.285,225.098
1678024453.800,-52.246,-28.809,-22.461,-10.742,67.871
1678024453.804,-53.223,-29.785,-19.531,25.391,-84.473
1678024453.808,-48.340,-22.461,-21.484,-37.109,-4.883
1678024453.812,-44.434,-20.020,-21.973,-122.559,-97.168
1678024453.816,-46.875,-22.949,-13.184,-129.395,-138.184
1678024453.820,-62.988,-15.137,-9.277,-60.059,-104.492
1678024453.823,-80.078,-9.766,-9.277,-3.906,110.352
1678024453.827,-79.102,-10.254,-7.812,-40.527,296.387
1678024453.831,-82.031,-9.277,-10.254,-145.996,38.574
1678024453.835,-110.840,-5.859,-6.836,-200.195,-168.457
1678024453.839,-156.738,-1.465,3.418,-165.527,-122.070
1678024453.859,-187.500,6.836,7.324,-124.512,-21.484
1678024453.863,-200.195,11.230,9.766,-172.363,-43.945
1678024453.867,-229.004,10.742,13.184,-281.250,-166.016
1678024453.871,-252.930,10.742,18.066,-332.031,-198.242
1678024453.875,-275.879,10.254,26.855,-284.668,-149.414
1678024453.879,-294.922,13.184,20.996,-213.867,48.340
1678024453.883,-282.715,22.461,29.785,-229.980,152.344
1678024453.886,-281.738,24.902,35.645,-325.195,167.969
1678024453.890,-291.016,12.695,26.367,-376.953,-65.918
1678024453.894,-283.203,10.742,18.555,-313.477,-237.793
1678024453.898,-275.391,11.230,18.555,-218.262,-65.430
1678024453.902,-272.461,7.812,25.391,-220.703,-20.996
1678024453.902,-249.023,13.672,20.020,-298.340,-120.605
1678024453.906,-230.469,11.230,12.207,-343.262,-169.922
1678024453.910,-239.258,8.301,6.836,-285.645,-41.992
1678024453.914,-239.258,5.371,6.836,-191.406,23.926
1678024453.918,-229.980,-1.465,12.207,-181.641,42.969
1678024453.922,-222.656,-2.441,11.719,-255.371,50.781
1678024453.926,-217.773,0.488,6.836,-316.406,-59.570
1678024453.929,-208.008,0.977,5.371,-265.625,-102.539
1678024453.933,-195.312,-0.977,-5.859,-145.020,-82.031
1678024453.937,-176.758,-1.465,-16.113,-112.305,-113.281
1678024453.941,-155.762,-7.324,-15.137,-186.523,19.043
1678024453.945,-135.742,-12.207,-19.043,-232.422,230.957
1678024453.963,-127.441,-14.648,-23.926,-179.199,3.906
1678024453.967,-125.488,-22.461,-25.879,-62.988,-122.070
1678024453.971,-106.445,-28.809,-25.391,-19.531,20.996
1678024453.975,-64.453,-28.320,-27.344,-93.262,-83.496
1678024453.979,-41.992,-32.227,-29.297,-149.414,-136.719
1678024453.983,-45.410,-39.062,-31.250,-115.723,-3.418
1678024453.987,-45.410,-38.086,-33.691,-17.090,133.301
1678024453.990,-34.180,-42.480,-37.109,50.781,75.684
1678024453.994,-17.090,-50.293,-36.133,-4.395,-167.480
1678024453.998,-5.859,-48.340,-30.273,-88.379,-172.363
1678024454.002,-4.395,-46.875,-31.250,-65.918,161.621
1678024454.006,-3.418,-51.758,-39.551,23.926,69.336
1678024453.991,15.137,-50.781,-41.992,78.125,-143.555
1678024453.995,28.809,-46.875,-37.598,41.016,-54.688
1678024453.999,29.297,-48.340,-31.738,-42.480,-164.062
1678024454.003,31.250,-50.293,-30.762,-53.223,-291.016
1678024454.007,26.855,-53.223,-34.180,31.738,-207.031
1678024454.011,24.414,-54.199,-36.621,102.051,108.398
1678024454.015,39.062,-53.223,-37.598,55.176,129.883
1678024454.018,55.664,-51.270,-39.062,-39.062,-60.059
1678024454.022,62.012,-46.387,-38.086,-48.828,-82.520
1678024454.026,52.246,-47.852,-41.016,31.250,-43.457
1678024454.030,48.828,-50.781,-44.922,96.680,-3.418
1678024454.034,62.012,-45.898,-40.039,65.918,-81.055
1678024454.052,66.895,-44.434,-42.480,-26.367,-190.918
1678024454.056,62.988,-43.945,-45.410,-45.410,26.367
1678024454.060,57.617,-41.504,-43.945,32.227,284.668
1678024454.064,52.734,-39.551,-45.898,109.375,4.883
1678024454.068,48.340,-39.551,-43.457,96.680,-107.910
1678024454.072,60.547,-36.133,-41.016,7.324,-61.523
1678024454.076,61.035,-36.133,-42.969,-46.387,-173.340
1678024454.079,41.504,-38.574,-44.434,6.348,-231.445
1678024454.083,27.832,-40.527,-46.387,102.539,-84.473
1678024454.087,30.273,-43.945,-52.734,92.773,293.945
1678024454.091,49.316,-44.434,-55.664,-20.508,122.559
1678024454.095,59.082,-42.480,-55.176,-80.566,-273.926
1678024454.096,48.828,-41.016,-51.758,-17.578,-187.988
1678024454.100,35.645,-41.992,-50.781,74.219,-73.730
1678024454.104,43.457,-41.016,-51.758,80.078,-99.609
1678024454.108,49.805,-43.457,-51.758,7.812,-135.254
1678024454.112,42.969,-45.898,-50.781,-54.199,-63.477
1678024454.116,36.621,-41.504,-50.293,-12.207,35.645
1678024454.120,27.832,-40.527,-48.340,86.914,41.504
1678024454.123,30.273,-43.457,-51.270,94.727,84.473
1678024454.127,43.457,-41.016,-50.781,11.719,41.992
1678024454.131,50.781,-38.574,-48.828,-64.941,-113.770
1678024454.135,38.574,-39.062,-49.805,-35.156,-226.562
1678024454.139,24.902,-40.527,-48.828,52.734,-188.965
1678024454.158,31.250,-35.645,-47.363,90.332,177.734
1678024454.162,42.480,-32.227,-49.805,29.297,341.797
1678024454.166,47.852,-36.133,-52.246,-65.918,-107.910
1678024454.170,43.945,-33.203,-44.922,-48.340,-261.230
1678024454.174,41.504,-27.832,-42.480,47.852,-89.355
1678024454.178,45.410,-28.809,-47.852,88.867,-22.461
1678024454.182,35.645,-34.180,-50.293,17.578,-2.930
1678024454.185,30.762,-37.109,-47.363,-66.406,-62.012
1678024454.189,29.297,-40.039,-49.316,-45.410,-123.047
1678024454.193,21.484,-37.109,-51.270,40.039,-108.887
1678024454.197,25.879,-32.227,-48.828,90.820,-108.398
1678024454.201,36.621,-33.691,-48.828,44.922,-59.082
1678024454.172,37.109,-38.574,-49.805,-37.598,150.879
1678024454.176,22.949,-39.551,-44.922,-53.223,-7.324
1678024454.180,11.719,-36.133,-40.039,20.996,-118.652
1678024454.184,6.348,-37.598,-39.062,95.215,105.469
1678024454.188,5.859,-39.062,-38.086,68.359,121.582
1678024454.192,8.301,-37.598,-38.574,-25.391,-75.195
1678024454.196,11.719,-33.691,-34.668,-62.988,-125.977
1678024454.199,1.465,-31.738,-35.156,2.930,-51.758
1678024454.203,-10.742,-36.133,-42.480,80.566,-43.945
1678024454.207,-0.977,-36.133,-40.039,62.500,-94.727
1678024454.211,-1.953,-36.133,-37.109,-41.504,-125.488
1678024454.215,-8.301,-37.598,-42.480,-93.262,-135.254
1678024454.218,-11.230,-36.621,-41.016,-21.484,-154.785
1678024454.222,-20.020,-41.016,-36.133,63.477,-116.699
1678024454.226,-21.973,-43.945,-38.574,43.457,-42.969
1678024454.230,-11.719,-41.504,-38.574,-54.688,189.941
1678024454.234,-4.883,-38.086,-37.598,-103.516,271.484
1678024454.238,-0.488,-36.133,-34.180,-45.410,35.156
1678024454.242,-1.465,-37.109,-31.738,43.945,89.844
1678024454.245,-3.906,-39.062,-34.180,51.758,398.926
1678024454.249,-4.395,-41.504,-36.621,-40.039,161.133
1678024454.253,-5.859,-38.086,-32.715,-109.863,-317.383
1678024454.257,-8.789,-30.762,-30.273,-63.965,-179.688
1678024454.261,-13.672,-37.598,-34.668,30.273,-45.410
1678024454.261,-5.859,-42.969,-33.691,58.105,-169.922
1678024454.265,0.977,-35.156,-32.715,-24.902,-221.680
1678024454.269,-2.930,-32.227,-34.668,-111.328,-174.805
1678024454.273,-6.836,-31.250,-35.156,-82.031,-158.203
1678024454.277,-11.719,-30.273,-32.227,13.672,-166.504
1678024454.281,-13.184,-28.320,-30.762,41.016,-89.844
1678024454.285,-9.766,-28.320,-29.785,-34.668,77.637
1678024454.288,-5.371,-28.320,-31.250,-94.238,377.930
1678024454.292,-0.977,-24.902,-32.715,-72.754,88.867
1678024454.296,0.488,-22.461,-28.809,2.441,-155.762
1678024454.300,-13.672,-26.855,-24.902,43.945,-42.969
1678024454.304,-18.066,-32.715,-23.926,-6.348,-131.836
1678024454.310,-21.484,-36.621,-29.297,-95.215,-188.477
1678024454.314,-34.180,-38.574,-30.273,-83.984,-185.547
1678024454.318,-32.227,-31.738,-23.438,15.137,-56.152
1678024454.322,-33.203,-32.715,-26.855,52.734,14.648
1678024454.326,-21.973,-36.621,-30.762,-6.836,-101.074
1678024454.330,-15.137,-35.645,-26.367,-93.262,-56.641
1678024454.334,-29.785,-39.551,-29.297,-99.121,175.781
1678024454.337,-32.715,-36.621,-34.180,-17.578,28.320
1678024454.341,-27.832,-25.391,-28.809,56.641,-117.188
1678024454.345,-26.367,-26.367,-23.438,23.926,81.543
1678024454.349,-21.484,-31.738,-24.414,-77.148,34.668
1678024454.353,-22.461,-32.227,-29.297,-103.516,-206.055
1678024454.351,-31.738,-36.133,-30.762,-27.832,-165.039
1678024454.355,-42.480,-36.621,-31.250,41.992,41.016
1678024454.359,-39.062,-32.715,-30.762,12.695,17.578
1678024454.363,-31.738,-32.715,-29.785,-81.055,-191.406
1678024454.367,-30.762,-27.344,-31.738,-101.562,-213.867
1678024454.371,-29.297,-22.949,-34.180,-36.133,11.719
1678024454.375,-34.180,-30.762,-35.156,35.156,456.055
1678024454.378,-24.902,-35.156,-32.715,20.020,275.391
1678024454.382,-19.043,-29.297,-33.203,-81.543,-194.336
1678024454.386,-29.785,-33.203,-34.668,-126.953,-205.078
1678024454.390,-45.410,-33.203,-32.715,-52.246,-148.926
1678024454.394,-51.758,-27.344,-35.156,32.227,-15.625
1678024454.414,-35.156,-30.273,-37.109,24.902,7.812
1678024454.418,-16.113,-27.832,-34.668,-59.082,-51.758
1678024454.422,-14.160,-22.461,-32.715,-109.863,-172.852
1678024454.426,-21.484,-19.531,-32.227,-53.223,-268.066
1678024454.430,-29.785,-18.555,-33.203,36.621,-96.191
1678024454.434,-33.691,-22.949,-32.715,46.875,16.602
1678024454.438,-30.762,-24.902,-29.785,-48.828,-96.680
1678024454.441,-30.273,-30.273,-28.809,-118.652,-241.699
1678024454.445,-42.480,-32.715,-30.273,-70.312,-149.902
1678024454.449,-47.852,-29.297,-30.762,29.785,94.727
1678024454.453,-37.598,-29.297,-27.832,49.316,17.090
1678024454.457,-24.902,-26.367,-27.832,-28.320,-127.930
1678024454.457,-26.367,-27.832,-30.273,-110.840,-74.707
1678024454.461,-33.691,-36.621,-26.855,-99.609,-3.906
1678024454.465,-35.156,-41.016,-26.855,-20.508,-33.203
1678024454.469,-44.922,-45.410,-37.598,12.207,-56.641
1678024454.473,-41.992,-50.293,-43.945,-53.711,20.020
1678024454.477,-39.062,-47.852,-42.480,-125.488,-39.551
1678024454.481,-50.293,-42.480,-44.434,-101.562,-87.402
1678024454.484,-47.363,-42.969,-41.504,-15.137,-72.754
1678024454.488,-35.645,-40.039,-34.668,38.086,82.031
1678024454.492,-29.297,-36.133,-32.227,-5.859,388.672
1678024454.496,-27.832,-39.062,-35.645,-96.191,76.172
1678024454.500,-39.062,-39.062,-35.645,-108.887,-287.598
1678024454.518,-49.805,-37.109,-35.156,-21.973,-143.555
1678024454.522,-43.457,-39.062,-33.691,42.969,-55.176
1678024454.526,-42.480,-41.016,-33.203,-15.137,-96.191
1678024454.530,-43.457,-41.016,-36.621,-117.676,-125.000
1678024454.534,-42.969,-39.062,-39.551,-127.441,-103.027
1678024454.538,-47.852,-39.062,-42.480,-45.898,-18.066
1678024454.542,-47.852,-35.645,-35.645,23.926,73.242
1678024454.545,-35.645,-31.738,-28.809,-0.488,36.133
1678024454.549,-30.762,-27.832,-32.715,-89.355,151.855
1678024454.553,-42.480,-30.273,-41.504,-125.000,-5.859
1678024454.557,-46.875,-30.273,-43.945,-46.387,-202.148
1678024454.561,-44.434,-25.879,-40.039,41.504,-71.289
1678024454.546,-46.875,-30.273,-38.574,15.137,-66.406
1678024454.550,-49.805,-34.668,-36.621,-82.031,-168.945
1678024454.554,-55.664,-32.715,-33.203,-120.117,-236.328
1678024454.558,-62.500,-33.691,-33.691,-54.688,-157.227
1678024454.562,-64.453,-34.180,-34.180,34.668,22.461
1678024454.566,-60.059,-34.668,-31.250,28.320,60.059
1678024454.570,-51.270,-34.668,-29.785,-75.684,12.207
1678024454.573,-56.152,-38.574,-30.273,-134.766,40.527
1678024454.577,-66.895,-29.297,-29.297,-78.125,7.812
1678024454.581,-70.312,-19.531,-22.949,0.000,-30.762
1678024454.585,-82.520,-32.715,-31.738,-9.766,-14.160
1678024454.589,-99.121,-37.598,-31.738,-108.887,76.172
1678024454.607,-104.004,-26.855,-17.090,-181.641,268.555
1678024454.611,-107.910,-28.320,-14.648,-138.672,107.422
1678024454.615,-143.555,-25.879,-17.090,-70.312,-57.129
1678024454.619,-174.316,-20.020,-14.648,-98.633,-26.367
1678024454.623,-181.152,-12.695,-7.812,-195.312,-126.953
1678024454.627,-202.637,-3.418,4.395,-278.809,-156.250
1678024454.631,-246.582,-5.859,18.066,-273.438,7.324
1678024454.634,-285.156,1.953,23.438,-208.984,14.160
1678024454.638,-307.617,11.230,23.926,-201.172,-95.703
1678024454.642,-314.453,18.066,23.438,-289.062,-124.512
1678024454.646,-311.035,22.461,24.414,-373.535,-154.297
1678024454.650,-312.988,19.043,29.297,-341.309,-156.738
1678024454.636,-321.289,18.555,27.344,-249.512,-113.770
1678024454.640,-309.570,21.973,32.227,-204.590,-92.285
1678024454.644,-301.270,18.066,35.645,-267.090,-16.602
1678024454.648,-306.152,15.625,34.180,-351.074,112.305
1678024454.652,-302.246,19.043,29.785,-337.891,10.254
1678024454.656,-299.316,11.719,30.762,-241.211,-20.508
1678024454.660,-287.598,-6.348,29.785,-181.641,186.035
1678024454.663,-269.531,2.930,20.996,-234.375,145.020
1678024454.667,-253.418,12.207,15.137,-314.453,-194.336
1678024454.671,-247.070,-2.930,13.184,-308.105,-283.691
1678024454.675,-256.348,-6.836,17.578,-209.961,67.871
1678024454.679,-256.836,-4.883,24.414,-140.625,361.328
1678024454.683,-236.328,-8.301,24.414,-190.918,20.996
1678024454.687,-206.055,-7.812,19.531,-262.695,-153.320
1678024454.691,-189.453,-11.230,12.695,-252.930,-160.645
1678024454.695,-185.059,-22.949,10.742,-150.879,-194.336
1678024454.699,-173.340,-26.855,3.418,-65.430,-168.457
1678024454.703,-141.113,-30.762,-8.789,-94.727,-77.148
1678024454.707,-118.164,-33.203,-15.137,-171.875,45.898
1678024454.710,-118.164,-33.203,-20.996,-186.035,-75.684
1678024454.714,-113.281,-45.898,-23.438,-92.285,-194.824
1678024454.718,-104.980,-49.316,-24.414,0.977,-52.246
1678024454.722,-91.797,-47.852,-28.809,-12.207,49.805
1678024454.726,-65.918,-52.734,-35.156,-95.703,-91.797
1678024454.742,-62.988,-51.270,-44.434,-140.137,-205.566
1678024454.746,-72.754,-57.617,-49.316,-57.129,-23.926
1678024454.750,-63.965,-65.430,-45.410,46.875,83.984
1678024454.754,-45.898,-61.523,-44.922,39.551,-20.996
1678024454.758,-30.273,-56.641,-50.293,-41.504,-77.637
1678024454.762,-24.414,-58.594,-52.246,-83.984,43.457
1678024454.766,-18.066,-59.570,-55.664,-24.414,119.629
1678024454.769,-6.348,-57.617,-58.594,71.289,-13.672
1678024454.773,-3.906,-57.129,-62.500,82.520,-54.199
1678024454.777,5.371,-56.641,-61.523,9.277,46.875
1678024454.781,19.043,-60.059,-56.152,-37.598,-68.359
1678024454.785,20.020,-60.059,-56.641,9.766,-263.672
1678024454.787,16.113,-58.594,-62.988,101.562,-103.516
1678024454.791,31.738,-58.594,-63.965,120.117,0.488
1678024454.795,47.852,-54.688,-62.500,30.273,-55.664
1678024454.799,52.734,-55.664,-62.500,-41.504,-142.578
1678024454.803,64.941,-53.223,-63.965,3.906,-101.074
1678024454.807,59.570,-50.293,-65.430,93.750,65.918
1678024454.811,45.410,-54.199,-65.430,121.094,114.258
1678024454.814,55.664,-50.781,-59.570,68.848,-54.199
1678024454.818,63.965,-45.898,-57.129,-2.930,-127.441
1678024454.822,51.270,-47.852,-61.523,6.836,139.648
1678024454.826,44.434,-44.434,-59.570,94.727,121.582
1678024454.830,54.688,-43.945,-58.105,141.113,-71.777
1678024454.831,63.965,-46.875,-60.059,84.473,-34.668
1678024454.835,62.500,-44.434,-60.547,-8.301,-43.945
1678024454.839,55.664,-40.039,-59.570,-0.488,-228.027
1678024454.843,49.805,-42.480,-56.641,90.332,-216.309
1678024454.847,41.016,-45.898,-58.105,145.996,86.914
1678024454.851,48.828,-44.434,-58.105,95.215,172.363
1678024454.855,60.059,-44.922,-60.059,-4.883,-44.922
1678024454.858,48.828,-48.828,-61.035,-17.090,-99.121
1678024454.862,39.062,-52.734,-57.129,74.219,142.578
1678024454.866,38.086,-47.852,-53.711,143.066,417.480
1678024454.870,41.016,-45.898,-53.711,103.516,208.008
1678024454.874,42.480,-50.293,-58.594,16.602,-136.230
1678024454.878,53.711,-47.852,-58.594,2.441,-258.789
1678024454.882,49.805,-46.875,-56.641,76.660,-160.156
1678024454.886,38.086,-46.875,-62.012,135.742,-70.312
1678024454.890,44.922,-43.457,-65.430,101.562,-48.828
1678024454.894,46.875,-44.922,-61.035,11.719,-37.598
1678024454.898,47.363,-48.340,-55.176,-23.438,-59.570
1678024454.902,41.016,-51.758,-55.176,45.410,18.066
1678024454.905,42.480,-45.898,-53.711,125.000,26.855
1678024454.909,48.340,-40.527,-47.363,115.234,312.988
1678024454.913,38.574,-41.504,-49.805,23.438,197.266
1678024454.917,35.156,-42.969,-54.688,-28.809,-203.613
1678024454.921,34.180,-41.504,-50.781,36.133,-70.801
1678024454.921,36.133,-40.039,-46.875,121.094,13.184
1678024454.925,37.598,-41.504,-47.363,102.051,-31.250
1678024454.929,41.016,-38.574,-44.434,4.883,-81.055
1678024454.933,42.969,-38.086,-46.875,-55.176,-105.957
1678024454.937,40.039,-37.109,-47.852,2.441,26.855
1678024454.941,33.203,-37.598,-46.387,85.938,75.684
1678024454.945,22.461,-39.062,-47.852,97.656,62.988
1678024454.948,17.578,-40.039,-44.922,32.715,223.145
1678024454.952,8.789,-37.598,-44.434,-32.715,250.488
1678024454.956,2.930,-35.645,-43.945,-3.418,-59.082
1678024454.960,1.465,-35.156,-38.574,88.379,-142.090
1678024454.964,11.719,-30.273,-34.668,109.375,49.805
1678024454.969,20.508,-30.273,-36.133,20.508,-74.219
1678024454.973,17.090,-32.715,-31.250,-49.316,-260.254
1678024454.977,7.812,-34.180,-31.250,-12.695,-215.332
1678024454.981,3.418,-31.738,-36.621,76.172,-112.305
1678024454.985,-3.906,-30.273,-37.109,100.098,-87.402
1678024454.989,-5.371,-29.785,-37.598,19.043,-82.520
1678024454.993,4.395,-30.273,-39.551,-61.035,-117.676
1678024454.996,2.441,-32.715,-41.504,-41.016,55.176
1678024455.000,-5.371,-29.297,-38.574,36.133,58.594
1678024455.004,-7.812,-26.855,-38.086,72.754,-98.145
1678024455.008,-0.977,-27.832,-42.480,8.789,-104.980
1678024455.012,0.488,-25.391,-42.480,-74.219,-150.391
1678024455.012,-10.254,-30.762,-37.598,-56.641,-192.383
1678024455.016,-15.137,-33.691,-32.227,29.785,-150.879
1678024455.020,-19.531,-33.203,-32.715,75.684,43.945
1678024455.024,-14.648,-36.621,-35.156,15.625,75.195
1678024455.028,-5.371,-42.480,-31.250,-72.754,-83.496
1678024455.032,-10.254,-42.480,-30.762,-87.402,-98.633
1678024455.036,-16.113,-34.180,-30.273,-7.324,153.320
1678024455.039,-14.160,-35.156,-29.297,64.941,491.699
1678024455.043,-13.672,-39.551,-29.297,26.367,212.891
1678024455.047,-12.207,-41.992,-31.738,-64.453,-206.543
1678024455.051,-12.207,-42.969,-37.598,-77.148,-229.004
1678024455.055,-31.250,-40.039,-36.621,-9.766,-186.035
1678024455.058,-34.180,-40.039,-35.156,49.316,-122.070
1678024455.062,-13.672,-34.180,-36.621,30.273,-106.934
1678024455.066,-12.207,-33.691,-35.156,-56.152,-138.672
1678024455.070,-18.066,-38.086,-36.621,-103.027,-114.746
1678024455.074,-21.973,-36.133,-36.133,-27.344,-157.715
1678024455.078,-21.484,-30.762,-31.250,65.430,-135.742
1678024455.082,-13.184,-27.832,-27.832,53.711,265.137
1678024455.085,-4.883,-28.809,-27.344,-41.992,191.406
1678024455.089,-0.977,-30.762,-27.344,-87.891,-244.141
1678024455.093,-17.578,-39.062,-26.367,-21.484,-146.973
1678024455.097,-27.344,-41.504,-25.879,47.363,-70.312
1678024455.101,-18.555,-34.180,-25.391,40.527,-95.703
1678024455.101,-13.672,-30.762,-23.926,-38.086,-153.809
1678024455.105,-14.160,-29.785,-25.879,-101.562,-208.008
1678024455.109,-20.996,-31.250,-30.762,-61.523,-152.832
1678024455.113,-25.879,-34.668,-27.344,27.832,-78.613
1678024455.117,-25.879,-35.156,-27.344,35.645,-62.988
1678024455.121,-22.461,-33.691,-38.086,-38.086,105.957
1678024455.125,-19.043,-29.785,-32.227,-93.262,144.531
1678024455.128,-24.414,-30.762,-27.344,-65.430,-176.270
1678024455.132,-28.320,-32.227,-32.715,14.648,-190.918
1678024455.136,-28.320,-32.715,-34.668,36.621,104.980
1678024455.140,-24.414,-38.086,-34.180,-38.574,100.586
1678024455.144,-23.438,-39.062,-32.227,-112.793,-267.090
1678024455.162,-30.273,-37.109,-31.250,-79.590,-321.289
1678024455.166,-38.574,-39.551,-33.203,-1.465,-172.363
1678024455.170,-38.086,-41.992,-35.156,18.066,-105.469
1678024455.174,-34.180,-41.016,-37.598,-48.340,-181.152
1678024455.178,-33.203,-39.062,-38.086,-122.070,-156.738
1678024455.182,-37.598,-38.574,-31.738,-107.422,-50.293
1678024455.186,-42.969,-32.227,-29.785,-15.137,-58.105
1678024455.189,-43.945,-31.738,-32.227,41.504,3.418
1678024455.193,-32.715,-31.250,-29.785,-12.207,58.594
1678024455.197,-23.926,-29.785,-30.273,-94.727,177.734
1678024455.201,-31.250,-29.785,-33.203,-90.332,28.809
1678024455.205,-48.340,-31.738,-35.645,-6.836,-152.832
1678024455.236,-57.617,-32.227,-36.133,48.340,-13.672
1678024455.240,-50.293,-28.809,-33.203,7.324,-48.340
1678024455.244,-43.457,-31.738,-31.250,-88.379,-200.684
1678024455.248,-43.945,-39.062,-40.039,-115.723,-166.016
1678024455.252,-41.016,-39.062,-41.992,-33.691,20.508
1678024455.256,-40.527,-35.645,-37.109,43.457,124.512
1678024455.260,-41.992,-37.598,-37.109,13.672,119.141
1678024455.263,-37.598,-33.691,-38.574,-78.613,54.199
1678024455.267,-40.039,-32.227,-42.480,-100.586,61.035
1678024455.271,-41.016,-34.180,-35.156,-6.836,188.965
1678024455.275,-35.156,-31.250,-30.762,63.965,98.145
1678024455.279,-28.809,-28.320,-33.203,36.133,-45.410
1678024455.252,-24.414,-29.297,-30.762,-48.340,-80.566
1678024455.256,-16.113,-35.645,-32.227,-96.191,-149.414
1678024455.260,-18.066,-34.668,-36.621,-35.156,-225.098
1678024455.264,-28.809,-27.832,-31.738,60.547,-154.785
1678024455.268,-21.484,-27.344,-30.273,55.664,-87.402
1678024455.272,-11.230,-25.879,-30.273,-48.340,-33.691
1678024455.276,-17.578,-27.344,-27.832,-99.121,-111.328
1678024455.279,-33.691,-26.855,-30.273,-39.551,-135.742
1678024455.283,-39.551,-26.367,-29.297,38.086,-12.207
1678024455.287,-34.668,-29.785,-29.297,39.551,-29.785
1678024455.291,-29.297,-29.297,-29.297,-44.434,-143.555
1678024455.295,-23.926,-23.438,-31.738,-102.539,-137.207
1678024455.296,-26.367,-20.996,-31.250,-54.199,65.918
1678024455.300,-39.062,-23.926,-30.762,22.949,37.598
1678024455.304,-40.039,-32.227,-33.203,31.738,-88.379
1678024455.308,-32.227,-34.668,-35.645,-41.016,78.125
1678024455.312,-30.762,-30.762,-34.180,-96.680,310.547
1678024455.316,-44.922,-30.762,-36.133,-70.312,144.531
1678024455.320,-53.223,-31.250,-38.086,11.719,-41.016
1678024455.323,-53.711,-34.668,-38.574,47.852,156.250
1678024455.327,-48.828,-34.668,-40.039,-25.391,149.902
1678024455.331,-44.434,-36.133,-44.434,-112.793,-211.426
1678024455.335,-52.734,-32.715,-45.898,-89.844,-289.062
1678024455.339,-58.105,-29.297,-38.574,-4.395,-110.352
1678024455.343,-54.688,-34.180,-38.086,29.785,-4.883
1678024455.347,-42.969,-30.273,-39.551,-19.043,-131.836
1678024455.351,-40.039,-25.391,-37.109,-91.797,-157.715
1678024455.355,-46.387,-23.926,-38.086,-86.914,-85.938
1678024455.359,-53.711,-27.344,-37.598,-9.277,-124.023
1678024455.363,-50.293,-29.297,-34.180,33.691,-51.270
1678024455.367,-42.480,-30.762,-30.273,-4.883,66.895
1678024455.370,-44.434,-31.738,-25.879,-81.543,182.129
1678024455.374,-40.527,-28.320,-29.785,-92.285,36.621
1678024455.378,-43.457,-27.344,-31.250,-12.207,-148.926
1678024455.382,-46.875,-32.227,-27.832,51.270,6.348
1678024455.386,-35.156,-32.715,-25.391,16.113,15.137
1678024455.386,-28.809,-29.297,-22.949,-78.125,-200.684
1678024455.390,-32.715,-31.738,-24.414,-100.098,-259.766
1678024455.394,-37.598,-34.668,-29.785,-21.973,-114.258
1678024455.398,-37.598,-37.109,-29.297,50.781,-5.859
1678024455.402,-34.668,-34.668,-27.832,21.973,-57.129
1678024455.406,-38.086,-30.273,-27.832,-74.219,-130.371
1678024455.410,-44.922,-32.715,-26.367,-86.426,-2.930
1678024455.413,-44.922,-35.156,-27.344,-8.301,345.703
1678024455.417,-40.039,-32.227,-29.785,47.363,189.453
1678024455.421,-37.109,-33.691,-29.785,32.227,-112.793
1678024455.425,-27.344,-36.621,-27.344,-49.805,-74.707
1678024455.429,-23.926,-36.621,-30.273,-88.379,-128.418
1678024455.433,-35.156,-33.203,-32.227,-36.133,-133.789
1678024455.437,-37.109,-33.691,-28.809,42.969,-46.387
1678024455.441,-33.203,-34.180,-28.320,40.527,-43.945
1678024455.445,-27.832,-31.250,-33.203,-61.523,-128.906
1678024455.449,-27.344,-30.762,-32.715,-107.910,-226.074
1678024455.453,-30.762,-30.762,-29.785,-41.016,-62.988
1678024455.457,-33.691,-33.203,-31.738,34.668,191.406
1678024455.460,-41.992,-38.574,-35.645,29.785,116.211
1678024455.464,-37.109,-35.156,-35.645,-41.992,-74.219
1678024455.468,-36.621,-27.832,-33.691,-101.562,-61.523
1678024455.472,-56.641,-31.738,-36.133,-70.312,-29.297
1678024455.476,-60.059,-37.109,-40.527,22.949,-67.871
1678024455.477,-51.270,-32.227,-35.156,47.363,-62.500
1678024455.481,-42.480,-27.344,-32.715,-34.180,-6.348
1678024455.485,-38.574,-34.180,-37.598,-99.609,133.789
1678024455.489,-41.016,-33.691,-37.109,-67.383,-29.785
1678024455.493,-45.898,-34.180,-34.668,17.090,-90.332
1678024455.497,-43.457,-40.039,-31.738,57.129,229.492
1678024455.501,-35.645,-35.645,-27.832,1.465,315.430
1678024455.504,-40.039,-38.574,-28.320,-77.637,-91.797
1678024455.508,-41.992,-36.621,-30.762,-65.918,-266.602
1678024455.512,-42.480,-29.297,-34.668,19.043,59.082
1678024455.516,-41.992,-29.297,-35.156,62.988,232.910
1678024455.520,-33.203,-32.227,-34.180,2.441,-59.570
1678024455.538,-38.086,-28.320,-36.133,-78.125,-198.242
1678024455.542,-42.480,-24.414,-38.574,-68.848,-159.180
1678024455.546,-41.992,-24.902,-36.621,16.602,-65.430
1678024455.550,-50.293,-21.484,-35.645,63.965,-78.125
1678024455.554,-50.293,-21.484,-35.156,9.277,-86.914
1678024455.558,-44.434,-24.414,-32.227,-71.777,79.590
1678024455.562,-49.805,-25.391,-37.109,-85.449,28.320
1678024455.565,-57.617,-31.250,-40.039,-6.836,-87.402
1678024455.569,-57.129,-36.133,-38.086,63.965,-9.277
1678024455.573,-55.664,-34.668,-39.062,22.461,83.008
1678024455.577,-47.852,-29.785,-35.156,-70.801,-92.285
1678024455.581,-48.828,-29.785,-35.645,-91.309,-269.043
1678024455.582,-52.734,-33.203,-39.551,-20.020,-81.543
1678024455.586,-42.480,-31.250,-45.898,57.129,107.422
1678024455.590,-30.762,-32.715,-42.969,40.527,-63.477
1678024455.594,-26.855,-35.156,-27.832,-56.641,-187.988
1678024455.598,-31.250,-36.621,-24.414,-91.797,-75.195
1678024455.602,-29.297,-40.039,-24.414,-13.184,9.766
1678024455.606,-20.020,-41.992,-18.066,80.078,-18.066
1678024455.609,-15.625,-42.480,-18.555,73.730,-85.449
1678024455.613,-8.789,-43.945,-16.602,-11.230,37.598
1678024455.617,-7.324,-48.340,-9.766,-52.246,278.320
1678024455.621,-9.766,-51.270,-9.766,0.000,22.461
1678024455.625,-19.043,-53.223,-6.348,73.242,-127.441
1678024455.630,-17.090,-48.828,0.000,79.590,-63.965
1678024455.634,-9.277,-48.340,5.371,3.418,-160.645
1678024455.638,-16.113,-55.664,0.977,-63.477,-184.570
1678024455.642,-29.785,-64.453,-6.348,-28.320,-137.695
1678024455.646,-35.156,-65.918,-8.789,54.688,-39.551
1678024455.650,-26.855,-62.500,-12.695,51.270,12.695
1678024455.654,-20.020,-60.059,-9.277,-26.367,-29.785
1678024455.657,-24.902,-55.664,-7.812,-80.566,-103.516
1678024455.661,-30.273,-49.805,-9.277,-45.898,141.113
1678024455.665,-39.551,-47.852,-15.137,45.898,153.320
1678024455.669,-43.457,-47.363,-16.113,58.594,-110.840
1678024455.673,-31.250,-45.410,-11.230,-8.789,-90.820
1678024455.671,-34.180,-44.922,-7.812,-82.031,-82.520
1678024455.675,-44.434,-40.039,-10.254,-63.965,-103.027
1678024455.679,-45.410,-36.133,-13.184,21.973,-104.492
1678024455.683,-45.410,-32.715,-4.395,54.688,-43.945
1678024455.687,-41.992,-29.297,-1.465,-23.438,-2.441
1678024455.691,-36.621,-32.715,0.488,-106.934,-39.062
1678024455.695,-51.270,-36.133,5.859,-99.609,-143.555
1678024455.698,-69.824,-33.203,4.395,-28.320,115.234
1678024455.702,-78.125,-30.273,1.465,14.648,451.660
1678024455.706,-103.027,-40.039,4.395,-72.266,143.066
1678024455.710,-131.348,-26.855,5.859,-194.824,-248.047
1678024455.714,-153.320,-16.113,12.695,-212.402,-245.605
1678024455.733,-191.406,-21.973,17.090,-155.762,-134.766
1678024455.737,-228.516,-14.648,14.160,-131.348,-78.613
1678024455.741,-264.160,-13.672,23.438,-215.332,-52.734
1678024455.745,-283.203,0.977,28.809,-335.449,-12.207
1678024455.749,-294.922,2.441,23.438,-358.887,-132.812
1678024455.753,-308.594,-13.184,21.973,-288.574,-167.480
1678024455.757,-301.270,-8.789,23.438,-225.098,-1.465
1678024455.760,-283.203,-0.977,21.973,-246.582,340.820
1678024455.764,-282.227,-0.977,26.367,-332.031,215.820
1678024455.768,-291.016,-2.930,25.391,-358.398,-187.500
1678024455.772,-293.945,-9.277,15.625,-288.574,-133.301
1678024455.776,-298.828,-19.043,11.230,-199.707,21.484
1678024455.791,-270.508,-14.648,19.043,-198.242,-39.551
1678024455.795,-237.793,-11.230,22.461,-280.762,-160.156
1678024455.799,-219.727,-18.555,9.766,-311.035,-74.707
1678024455.803,-198.730,-27.832,2.930,-224.121,-29.785
1678024455.807,-177.246,-32.715,4.395,-119.141,-67.383
1678024455.811,-151.367,-35.156,-2.441,-112.305,16.602
1678024455.815,-127.441,-40.527,-9.277,-187.988,82.520
1678024455.818,-113.281,-43.457,-13.184,-235.352,-98.145
1678024455.822,-100.586,-41.992,-18.066,-159.668,-189.453
1678024455.826,-87.402,-46.387,-28.320,-52.734,-36.133
1678024455.830,-75.684,-53.223,-32.715,-36.621,110.840
1678024455.834,-57.617,-53.223,-30.273,-96.680,328.613
1678024455.881,-47.852,-58.594,-37.109,-154.785,65.430
1678024455.885,-44.434,-63.965,-42.969,-103.516,-205.078
1678024455.889,-36.621,-63.965,-38.086,7.324,-113.770
1678024455.893,-32.715,-63.965,-43.945,38.574,-56.152
1678024455.897,-27.832,-62.012,-51.270,-33.691,-120.605
1678024455.901,-20.996,-57.129,-48.340,-106.445,-153.809
1678024455.905,-17.578,-53.223,-50.293,-68.359,-3.418
1678024455.908,-9.277,-53.711,-51.758,35.156,-85.449
1678024455.912,-1.465,-55.176,-52.246,74.219,-168.457
1678024455.916,1.953,-57.617,-54.199,13.672,-74.219
1678024455.920,8.301,-56.641,-56.641,-68.359,-157.227
1678024455.924,16.113,-55.664,-57.129,-42.480,-208.496
1678024455.916,13.184,-57.617,-59.570,57.129,-140.137
1678024455.920,7.812,-57.617,-56.641,94.727,-37.109
1678024455.924,20.508,-54.199,-52.734,31.250,161.621
1678024455.928,25.391,-54.688,-56.152,-58.105,-67.871
1678024455.932,15.137,-60.547,-61.035,-53.223,-257.324
1678024455.936,10.254,-57.129,-61.523,41.992,96.191
1678024455.940,14.648,-55.664,-60.059,102.539,291.504
1678024455.943,19.043,-55.176,-60.059,37.109,-16.602
1678024455.947,23.926,-47.852,-56.641,-52.246,-268.066
1678024455.951,21.973,-46.387,-60.059,-52.246,-250.977
1678024455.955,20.020,-41.992,-58.594,32.227,-131.836
1678024455.959,23.438,-40.039,-53.223,93.750,-65.918
1678024455.944,20.996,-42.480,-54.688,45.410,-100.586
1678024455.948,16.602,-39.062,-61.523,-44.922,-133.789
1678024455.952,17.578,-37.109,-62.500,-55.664,-105.957
1678024455.956,8.789,-38.086,-59.570,16.113,-155.762
1678024455.960,0.977,-39.551,-63.965,80.078,-58.105
1678024455.964,11.230,-40.527,-61.523,52.734,123.535
1678024455.968,20.508,-41.992,-59.082,-44.922,-15.137
1678024455.971,15.137,-43.457,-58.105,-78.613,-189.453
1678024455.975,5.859,-45.410,-57.129,-1.465,-82.031
1678024455.979,13.672,-42.969,-62.988,73.730,39.062
1678024455.983,22.461,-39.551,-61.523,51.270,-27.832
1678024455.987,18.555,-39.062,-61.035,-36.621,-211.426
1678024455.947,13.184,-39.062,-55.664,-71.777,-198.242
1678024455.951,8.301,-42.480,-52.734,0.977,-54.199
1678024455.955,0.000,-40.527,-58.105,78.125,-78.125
1678024455.959,-0.488,-35.156,-55.176,77.148,-67.871
1678024455.963,-1.953,-41.016,-48.828,-5.859,-0.488
1678024455.967,-2.930,-43.945,-51.270,-70.312,-20.996
1678024455.971,0.977,-34.668,-52.246,-16.113,-3.418
1678024455.974,-4.395,-32.715,-48.828,65.430,72.266
1678024455.978,-4.395,-33.203,-52.246,54.688,220.215
1678024455.982,-2.441,-26.855,-48.828,-34.668,343.750
1678024455.986,-1.953,-24.414,-43.457,-87.891,-27.344
1678024455.990,-6.348,-30.762,-49.316,-46.387,-308.594
1678024456.003,-18.555,-36.133,-51.758,44.922,84.473
1678024456.007,-18.555,-32.227,-45.410,71.289,290.527
1678024456.011,-7.324,-29.297,-44.922,-7.324,-86.914
1678024456.015,-0.488,-23.438,-43.457,-79.102,-269.043
1678024456.019,-1.953,-17.090,-36.621,-36.621,8.789
1678024456.023,-12.207,-18.555,-39.551,55.664,520.020
1678024456.027,-10.254,-26.855,-44.922,74.707,363.770
1678024456.030,-7.324,-32.715,-46.875,-1.953,8.301
1678024456.034,-18.066,-37.109,-47.852,-81.055,-12.695
1678024456.038,-21.973,-37.598,-52.246,-60.059,-216.309
1678024456.042,-24.414,-33.203,-54.199,26.855,-264.648
1678024456.046,-28.320,-33.691,-47.363,76.172,-74.707
1678024456.046,-18.066,-36.133,-44.922,17.578,-85.938
1678024456.050,-7.324,-30.762,-50.293,-83.984,-243.652
1678024456.054,-13.184,-25.879,-54.199,-86.426,-238.770
1678024456.058,-20.508,-27.344,-55.176,7.324,-137.695
1678024456.062,-26.855,-25.879,-51.270,64.941,-94.238
1678024456.066,-27.344,-21.973,-45.898,7.812,-107.422
1678024456.070,-21.973,-27.344,-49.805,-83.008,-119.141
1678024456.073,-25.879,-26.855,-44.922,-78.613,-1.953
1678024456.077,-34.668,-24.902,-41.016,7.812,139.648
1678024456.081,-22.949,-23.438,-44.434,62.500,39.551
1678024456.085,-16.113,-16.602,-44.434,16.113,-112.305
1678024456.089,-15.625,-19.531,-47.852,-75.195,-18.066
1678024456.094,-17.090,-25.879,-46.387,-99.609,27.832
1678024456.098,-22.461,-21.973,-38.574,-20.996,-187.012
1678024456.102,-21.484,-23.438,-39.062,59.570,-94.238
1678024456.106,-21.484,-27.344,-38.574,34.180,0.488
1678024456.110,-15.625,-22.461,-32.715,-52.246,-119.141
1678024456.114,-15.625,-20.508,-35.156,-95.703,-239.258
1678024456.118,-27.344,-20.508,-41.504,-33.203,-94.727
1678024456.121,-27.832,-17.578,-43.457,58.105,247.070
1678024456.125,-27.344,-18.555,-47.363,46.387,89.844
1678024456.129,-20.020,-19.043,-47.363,-55.176,-270.020
1678024456.133,-20.996,-20.508,-48.828,-101.074,-207.031
1678024456.137,-34.668,-23.926,-49.805,-35.645,-66.406
1678024456.137,-33.203,-21.973,-44.434,41.016,-105.469
1678024456.141,-21.484,-23.438,-41.504,40.527,-173.340
1678024456.145,-22.949,-21.484,-43.945,-41.016,-95.703
1678024456.149,-37.109,-19.531,-46.875,-98.633,-27.344
1678024456.153,-46.875,-28.320,-44.922,-47.852,-35.156
1678024456.157,-52.246,-29.785,-44.922,38.086,14.160
1678024456.161,-48.340,-24.902,-42.969,39.551,167.969
1678024456.164,-41.992,-29.297,-42.969,-38.574,391.113
1678024456.168,-44.922,-29.785,-45.410,-100.098,120.605
1678024456.172,-48.340,-24.902,-49.316,-67.871,-200.684
1678024456.176,-45.898,-30.762,-51.270,14.648,-46.387
1678024456.180,-40.527,-29.785,-46.875,34.668,-47.363
1678024456.199,-40.039,-24.902,-42.969,-33.691,-154.297
1678024456.203,-39.551,-27.832,-43.945,-97.656,-168.457
1678024456.207,-40.039,-28.320,-45.898,-72.754,-163.574
1678024456.211,-52.246,-30.762,-48.340,12.207,-56.152
1678024456.215,-49.805,-33.691,-50.293,34.668,-65.430
1678024456.219,-41.504,-32.227,-47.852,-36.133,-68.359
1678024456.223,-34.668,-31.250,-43.457,-101.562,253.418
1678024456.226,-31.250,-33.203,-42.969,-98.633,209.473
1678024456.230,-40.039,-33.203,-42.480,-19.043,-132.812
1678024456.234,-47.852,-39.551,-38.086,39.062,-77.148
1678024456.238,-40.527,-41.992,-37.109,-17.090,-58.105
1678024456.242,-33.203,-37.598,-39.551,-111.816,-184.570
1678024456.226,-43.457,-37.598,-41.016,-116.699,-214.844
1678024456.230,-58.105,-41.992,-48.340,-32.715,-113.770
1678024456.234,-58.594,-40.527,-50.781,21.973,-2.930
1678024456.238,-56.641,-40.527,-51.270,-23.926,-8.301
1678024456.242,-51.758,-44.922,-49.316,-105.957,-70.801
1678024456.246,-46.387,-45.898,-42.969,-120.117,-8.301
1678024456.250,-54.688,-47.363,-43.945,-39.062,36.133
1678024456.253,-62.500,-48.340,-45.410,27.344,34.180
1678024456.257,-58.105,-47.852,-42.480,-10.742,-88.379
1678024456.261,-52.734,-47.363,-38.574,-90.820,-18.066
1678024456.265,-52.246,-47.852,-44.922,-112.793,308.594
1678024456.269,-62.012,-49.805,-51.758,-53.223,104.492
1678024456.287,-60.547,-51.270,-51.758,8.789,-136.230
1678024456.291,-50.293,-51.270,-51.270,-15.625,-133.789
1678024456.295,-48.828,-48.828,-51.270,-100.098,-193.359
1678024456.299,-54.199,-44.922,-54.688,-128.418,-265.137
1678024456.303,-65.918,-46.387,-58.594,-67.871,-144.043
1678024456.307,-74.219,-50.293,-57.129,6.348,90.332
1678024456.311,-69.824,-50.293,-56.641,-9.277,60.547
1678024456.314,-66.895,-47.852,-57.617,-108.398,-98.633
1678024456.318,-73.730,-49.316,-56.641,-151.367,-119.141
1678024456.322,-75.195,-51.758,-58.594,-81.543,145.996
1678024456.326,-70.312,-51.758,-61.035,-5.859,83.008
1678024456.330,-53.711,-48.340,-61.035,-9.766,-108.887
1678024456.331,-45.410,-45.410,-60.059,-77.148,-88.379
1678024456.335,-51.758,-44.434,-55.176,-128.418,-174.316
1678024456.339,-51.758,-42.969,-57.617,-88.867,-152.344
1678024456.343,-52.246,-48.828,-61.035,-20.020,-93.750
1678024456.347,-58.105,-51.270,-61.523,-13.672,28.809
1678024456.351,-60.059,-58.105,-64.941,-83.496,130.859
1678024456.355,-49.316,-57.129,-66.406,-135.742,4.883
1678024456.358,-45.898,-42.969,-67.383,-113.281,-51.270
1678024456.362,-55.176,-43.457,-67.871,-30.273,124.512
1678024456.366,-61.035,-42.969,-71.777,-1.465,392.090
1678024456.370,-70.312,-37.598,-77.637,-97.656,134.766
1678024456.374,-74.707,-32.715,-81.055,-176.758,-199.219
1678024456.392,-84.961,-29.785,-84.473,-148.438,-122.070
1678024456.396,-85.938,-30.273,-85.938,-70.801,-14.648
1678024456.400,-87.402,-27.344,-89.844,-52.734,-73.730
1678024456.404,-80.566,-23.926,-91.309,-115.234,-106.445
1678024456.408,-75.195,-18.555,-90.332,-179.688,-120.605
1678024456.412,-90.820,-18.066,-94.727,-168.457,-145.996
1678024456.416,-96.680,-16.602,-100.098,-101.074,-66.406
1678024456.419,-102.051,-16.602,-102.051,-66.406,5.371
1678024456.423,-94.238,-18.555,-102.051,-104.980,187.500
1678024456.427,-83.008,-13.184,-107.422,-182.617,41.504
1678024456.431,-91.309,-12.207,-114.746,-181.152,-196.777
1678024456.435,-106.445,-16.113,-115.723,-105.469,20.508
1678024456.421,-91.797,-16.113,-108.887,-56.152,109.375
1678024456.425,-79.102,-14.648,-108.398,-78.613,-29.785
1678024456.429,-86.426,-17.090,-104.980,-149.902,-117.676
1678024456.433,-78.125,-18.066,-100.586,-168.457,-101.074
1678024456.437,-69.824,-20.508,-100.098,-91.309,42.969
1678024456.441,-65.430,-24.902,-97.168,-17.578,35.645
1678024456.445,-47.852,-23.926,-96.191,-39.551,60.547
1678024456.448,-34.668,-22.949,-94.238,-112.793,98.145
1678024456.452,-34.180,-24.414,-94.238,-120.117,-76.660
1678024456.456,-33.203,-26.367,-91.797,-36.621,-177.246
1678024456.460,-26.855,-24.414,-92.773,25.391,-116.211
1678024456.464,-18.555,-21.973,-90.820,-4.883,82.520
1678024456.469,-11.719,-19.531,-80.078,-65.918,138.184
1678024456.473,-6.836,-14.648,-76.660,-98.145,-134.277
1678024456.477,-6.836,-12.695,-72.754,-55.664,-152.344
1678024456.481,-12.695,-14.160,-66.895,21.484,-18.555
1678024456.485,-5.859,-15.625,-64.941,19.043,1.465
1678024456.489,0.977,-14.160,-62.988,-61.035,-138.184
1678024456.493,-14.648,-19.043,-65.430,-123.047,-135.254
1678024456.496,-22.949,-25.391,-62.500,-77.148,100.586
1678024456.500,-23.438,-24.414,-56.641,3.418,9.766
1678024456.504,-23.438,-22.949,-51.270,12.207,-192.871
1678024456.508,-34.668,-29.785,-54.688,-63.965,-91.309
1678024456.512,-36.133,-34.180,-61.035,-127.930,-70.312
1678024456.511,-37.598,-27.832,-56.152,-81.543,-162.598
1678024456.515,-50.293,-31.738,-57.617,4.395,-98.145
1678024456.519,-47.363,-38.086,-62.012,21.484,4.883
1678024456.523,-44.922,-41.504,-57.129,-47.852,40.527
1678024456.527,-50.293,-45.898,-52.246,-126.953,-52.246
1678024456.531,-53.223,-49.805,-52.734,-111.328,-96.680
1678024456.535,-57.129,-51.758,-54.688,-32.715,85.449
1678024456.538,-53.223,-54.688,-60.547,-0.977,436.523
1678024456.542,-50.293,-56.641,-63.965,-56.641,257.812
1678024456.546,-53.223,-53.223,-58.105,-125.000,-172.363
1678024456.550,-60.547,-59.082,-59.082,-116.211,-165.527
1678024456.554,-71.289,-65.918,-62.500,-29.785,-97.656
1678024456.558,-71.777,-62.012,-55.664,7.812,-104.004
1678024456.562,-61.523,-58.594,-51.758,-49.316,-119.629
1678024456.566,-56.152,-61.523,-51.270,-114.258,-179.199
1678024456.570,-52.734,-58.594,-48.828,-113.770,-178.223
1678024456.574,-56.152,-56.641,-49.316,-49.805,-149.414
1678024456.578,-56.641,-59.082,-52.246,-9.766,-30.762
1678024456.582,-44.922,-55.664,-48.828,-48.340,206.543
1678024456.585,-40.527,-54.199,-48.828,-135.742,30.762
1678024456.589,-41.504,-53.711,-50.781,-135.742,-277.832
1678024456.593,-44.434,-56.152,-46.875,-39.551,-115.723
1678024456.597,-52.734,-62.500,-41.504,27.344,57.617
1678024456.601,-63.965,-67.383,-39.551,-16.113,-116.211
1678024456.605,-64.453,-65.430,-39.062,-106.934,-210.938
1678024456.609,-62.988,-67.383,-39.062,-118.652,-158.691
1678024456.613,-77.637,-72.266,-48.340,-58.594,-128.418
1678024456.617,-79.590,-68.359,-52.734,6.836,-105.469
1678024456.621,-74.219,-67.383,-50.293,-16.602,-84.961
1678024456.625,-73.730,-70.801,-54.199,-108.398,157.715
1678024456.629,-71.289,-69.824,-58.594,-127.930,273.438
1678024456.632,-74.707,-65.918,-58.105,-69.824,-68.848
1678024456.636,-72.266,-61.035,-58.105,-9.766,-63.477
1678024456.640,-56.152,-55.664,-59.570,-24.902,69.824
1678024456.644,-45.898,-53.711,-54.688,-106.445,-88.867
1678024456.648,-53.711,-55.664,-54.199,-139.160,-232.422
1678024456.662,-72.754,-60.547,-56.641,-80.078,-178.223
1678024456.666,-88.379,-61.523,-53.711,-8.301,-55.664
1678024456.670,-86.426,-62.500,-52.734,-16.113,-20.508
1678024456.674,-64.453,-60.059,-54.199,-100.098,-106.934
1678024456.678,-69.824,-61.523,-53.223,-147.461,-166.992
1678024456.682,-94.238,-66.406,-49.316,-100.098,164.062
1678024456.686,-96.680,-68.848,-49.316,-21.484,448.242
1678024456.689,-80.566,-71.289,-51.758,-13.184,71.777
1678024456.693,-77.148,-69.824,-47.852,-78.613,-141.113
1678024456.697,-68.359,-63.477,-45.410,-133.301,-58.594
1678024456.701,-64.453,-61.035,-50.293,-107.910,-116.211
1678024456.705,-79.590,-64.453,-56.152,-38.086,-144.531
1678024456.706,-82.520,-66.406,-51.758,-14.160,-49.316
1678024456.710,-87.891,-65.918,-49.316,-77.637,-27.832
1678024456.714,-78.613,-65.918,-48.340,-145.996,-242.188
1678024456.718,-75.684,-65.430,-47.852,-120.605,-263.184
1678024456.722,-83.496,-67.383,-48.340,-21.973,1.465
1678024456.726,-86.914,-69.336,-40.527,16.602,157.715
1678024456.730,-77.148,-67.871,-40.527,-50.781,78.613
1678024456.733,-72.266,-64.941,-39.551,-114.746,-111.328
1678024456.737,-75.684,-63.965,-39.551,-87.891,-13.672
1678024456.741,-77.148,-65.430,-44.434,0.488,249.023
1678024456.745,-64.941,-56.641,-41.992,27.832,24.414
1678024456.749,-53.223,-50.781,-45.898,-32.715,-159.180
1678024456.755,-55.664,-51.758,-46.387,-104.980,-103.027
1678024456.759,-68.848,-52.246,-43.457,-108.398,-97.656
1678024456.763,-83.008,-47.852,-40.527,-32.227,-119.141
1678024456.767,-83.984,-45.410,-31.738,21.973,-45.410
1678024456.771,-77.148,-41.992,-37.598,-28.320,40.039
1678024456.775,-84.473,-45.898,-44.434,-124.512,-31.250
1678024456.779,-97.168,-41.992,-34.668,-140.625,-113.281
1678024456.782,-104.004,-21.484,-23.926,-67.871,-32.715
1678024456.786,-136.719,-10.742,-36.621,-37.598,238.281
1678024456.790,-174.805,1.953,-54.199,-119.141,134.277
1678024456.794,-197.266,12.695,-48.828,-239.746,-163.574
1678024456.798,-218.750,20.508,-49.805,-282.715,-87.402
1678024456.811,-255.371,22.949,-62.012,-240.723,8.789
1678024456.815,-285.156,32.227,-63.965,-200.684,-0.977
1678024456.819,-291.016,33.203,-61.035,-240.234,50.293
1678024456.823,-288.574,30.762,-62.988,-340.332,86.426
1678024456.827,-277.832,32.715,-64.941,-369.629,-18.555
1678024456.831,-277.344,30.762,-67.871,-291.504,-59.570
1678024456.835,-278.809,31.250,-68.359,-196.289,-23.926
1678024456.838,-266.602,28.320,-70.312,-203.613,106.445
1678024456.842,-247.559,28.809,-76.172,-286.133,296.875
1678024456.846,-225.098,21.484,-82.520,-314.941,87.402
1678024456.850,-213.379,15.137,-86.426,-248.535,-183.105
1678024456.854,-201.172,18.555,-97.656,-160.645,-117.676
1678024456.858,-183.594,16.602,-102.051,-141.602,-13.184
1678024456.862,-159.180,8.301,-105.469,-202.637,-99.609
1678024456.866,-126.953,7.324,-107.422,-235.840,-211.914
1678024456.870,-125.488,6.836,-109.375,-168.945,-35.156
1678024456.874,-129.883,-2.930,-113.281,-76.172,68.848
1678024456.878,-105.957,-11.230,-111.328,-47.363,20.508
1678024456.882,-82.520,-7.324,-115.234,-110.352,35.156
1678024456.885,-81.543,-13.672,-113.770,-168.457,28.320
1678024456.889,-61.035,-23.438,-108.398,-101.074,-49.805
1678024456.893,-45.410,-17.578,-105.957,7.812,-48.340
1678024456.897,-49.316,-24.902,-100.586,29.297,10.742
1678024456.901,-29.785,-34.668,-96.191,-26.367,304.199
1678024456.886,-20.508,-34.668,-97.656,-101.562,145.508
1678024456.890,-30.273,-40.039,-95.703,-78.125,-214.355
1678024456.894,-32.715,-47.363,-93.262,34.668,-5.859
1678024456.898,-29.297,-43.457,-93.262,86.426,53.711
1678024456.902,-17.578,-48.828,-89.355,18.066,-51.758
1678024456.906,-7.324,-56.152,-87.402,-65.430,-90.332
1678024456.910,-7.324,-60.059,-81.543,-53.223,8.301
1678024456.913,-7.324,-63.965,-75.684,31.250,53.711
1678024456.917,-1.465,-62.500,-75.684,87.402,24.414
1678024456.921,4.395,-63.477,-77.148,29.297,-74.219
1678024456.925,13.672,-66.406,-70.801,-57.617,-45.898
1678024456.929,11.230,-70.801,-66.895,-34.668,255.371
1678024456.933,6.348,-72.754,-68.359,61.523,104.980
1678024456.937,15.137,-78.125,-63.477,121.582,-113.281
1678024456.941,17.578,-78.125,-60.059,70.801,-66.406
1678024456.945,22.461,-75.195,-59.082,-37.598,-131.348
1678024456.949,28.320,-76.172,-60.547,-50.781,-252.930
1678024456.953,20.020,-76.660,-59.082,38.574,-80.566
1678024456.957,26.367,-75.195,-53.711,114.746,279.785
1678024456.960,32.715,-69.824,-50.781,78.125,125.977
1678024456.964,17.578,-67.871,-50.781,-26.367,-236.816
1678024456.968,7.812,-73.242,-50.293,-55.664,-170.898
1678024456.972,16.113,-76.660,-46.875,29.297,16.113
1678024456.976,16.602,-79.102,-46.387,125.488,14.160
1678024457.006,16.113,-76.172,-43.457,97.168,-51.758
1678024457.010,31.250,-71.289,-36.621,-15.625,-73.242
1678024457.014,34.668,-68.848,-36.133,-55.664,-42.480
1678024457.018,17.578,-71.289,-35.645,19.531,-131.836
1678024457.022,19.531,-78.613,-33.203,102.539,-119.629
1678024457.026,19.043,-76.660,-33.691,80.566,220.703
1678024457.030,5.859,-74.219,-33.691,-19.043,375.000
1678024457.033,5.859,-75.195,-36.133,-92.773,-35.156
1678024457.037,2.930,-74.707,-38.574,-29.785,-189.453
1678024457.041,0.488,-75.684,-41.016,90.820,-2.930
1678024457.045,-15.625,-79.102,-41.016,89.844,25.391
1678024457.049,-21.484,-82.520,-40.527,-14.648,-185.547
1678024457.036,-5.371,-77.637,-44.434,-78.613,-175.293
1678024457.040,-6.348,-76.660,-41.504,-25.391,-21.973
1678024457.044,-19.043,-76.172,-39.062,78.613,-29.297
1678024457.048,-16.113,-76.172,-41.016,91.797,-50.781
1678024457.052,-12.695,-74.707,-35.645,-4.395,-91.309
1678024457.056,-8.789,-66.895,-36.621,-88.867,-95.703
1678024457.060,-14.648,-68.359,-36.133,-47.363,-104.492
1678024457.063,-25.391,-72.754,-37.598,63.965,-111.816
1678024457.067,-19.043,-70.801,-44.434,88.379,-6.348
1678024457.071,-1.465,-67.871,-42.969,-11.230,51.758
1678024457.075,-0.488,-70.312,-42.480,-116.211,-116.211
1678024457.079,-9.766,-72.266,-43.457,-88.379,-267.578
1678024457.082,-13.672,-67.871,-40.039,21.484,-39.551
1678024457.086,-19.043,-68.359,-42.480,80.566,299.805
1678024457.090,-10.254,-66.895,-45.410,7.812,164.551
1678024457.094,1.953,-61.035,-41.504,-106.445,-186.035
1678024457.098,-6.836,-63.477,-44.922,-99.609,-100.586
1678024457.102,-18.066,-65.918,-44.922,4.883,239.258
1678024457.106,-17.578,-66.406,-42.480,64.453,102.051
1678024457.109,-10.254,-62.012,-39.062,3.906,-165.527
1678024457.113,0.977,-55.176,-33.691,-94.238,-44.434
1678024457.117,1.953,-49.316,-35.645,-89.355,53.711
1678024457.121,-6.348,-44.434,-36.621,10.254,-151.367
1678024457.125,-8.789,-43.945,-33.691,78.613,-124.023
1678024457.143,-0.977,-43.945,-31.738,23.926,-37.598
1678024457.147,5.859,-45.410,-34.180,-93.262,-143.555
1678024457.151,-0.488,-48.828,-32.227,-113.770,-228.516
1678024457.155,-12.207,-45.410,-27.832,-6.348,-139.648
1678024457.159,-22.949,-45.898,-25.879,80.078,20.996
1678024457.163,-13.184,-45.410,-21.973,43.457,105.469
1678024457.167,-8.301,-49.805,-24.902,-70.312,-84.961
1678024457.170,-1.953,-56.152,-32.227,-117.188,-209.961
1678024457.174,-8.301,-52.734,-33.691,-21.973,125.977
1678024457.178,-29.297,-51.758,-32.227,75.684,216.797
1678024457.182,-28.320,-50.293,-32.715,32.715,-124.512
1678024457.186,-18.066,-52.734,-41.992,-85.449,-175.293
1678024457.171,-16.113,-54.688,-43.457,-132.812,-236.328
1678024457.175,-30.762,-53.711,-40.039,-56.641,-229.004
1678024457.179,-36.133,-51.758,-38.574,52.246,-94.727
1678024457.183,-20.020,-48.340,-37.109,42.480,-20.508
1678024457.187,-10.254,-51.270,-34.180,-65.918,-11.719
1678024457.191,-8.789,-49.316,-27.832,-120.605,-113.770
1678024457.195,-22.949,-46.875,-32.227,-64.941,-143.555
1678024457.198,-7.324,-46.875,-39.551,42.969,124.512
1678024457.202,15.625,-43.945,-32.715,74.707,208.008
1678024457.206,-6.348,-46.387,-18.066,-39.551,-65.430
1678024457.210,-25.391,-49.805,-15.137,-139.160,-259.766
1678024457.214,-42.480,-57.129,-20.508,-95.215,-83.008
1678024457.232,-48.340,-60.059,-21.973,15.137,362.305
1678024457.236,-43.457,-53.223,-16.113,36.621,205.078
1678024457.240,-40.039,-54.199,-8.301,-55.176,-104.492
1678024457.244,-37.109,-60.059,-4.883,-127.930,-108.398
1678024457.248,-47.852,-60.547,-10.742,-103.027,-83.008
1678024457.252,-58.594,-62.012,-13.184,0.000,37.598
1678024457.256,-54.199,-62.500,-11.230,43.457,151.855
1678024457.259,-46.387,-60.059,-10.254,-32.715,217.285
1678024457.263,-38.574,-58.594,-9.766,-114.746,15.625
1678024457.267,-47.363,-57.617,-11.230,-88.867,-210.938
1678024457.271,-53.711,-60.059,-15.137,10.742,25.879
1678024457.275,-52.246,-63.965,-17.578,46.875,146.973
1678024457.261,-47.363,-61.523,-20.996,-30.273,-145.508
1678024457.265,-32.227,-58.594,-27.832,-123.047,-309.082
1678024457.269,-30.762,-55.664,-29.297,-110.840,-229.492
1678024457.273,-45.410,-59.082,-28.320,-1.465,-79.590
1678024457.277,-54.688,-59.570,-33.691,65.918,-21.973
1678024457.281,-40.039,-55.664,-33.691,-4.883,-59.082
1678024457.285,-20.996,-52.734,-30.273,-110.352,16.113
1678024457.288,-34.180,-49.805,-34.180,-114.258,-19.043
1678024457.292,-54.688,-54.199,-38.086,-23.438,-167.480
1678024457.296,-47.852,-52.246,-31.738,56.641,-117.188
1678024457.300,-32.715,-48.828,-28.320,14.648,19.043
1678024457.304,-27.344,-51.758,-32.227,-95.215,171.875
1678024457.339,-40.527,-53.223,-34.668,-132.812,-53.711
1678024457.343,-53.711,-52.734,-33.203,-29.297,-147.461
1678024457.347,-52.246,-49.805,-29.785,71.289,52.734
1678024457.351,-37.109,-41.504,-28.320,20.508,-14.160
1678024457.355,-33.691,-42.480,-28.809,-100.098,-155.762
1678024457.359,-35.156,-44.434,-29.297,-138.184,-143.555
1678024457.363,-36.621,-43.945,-29.297,-44.434,81.543
1678024457.366,-43.457,-45.898,-33.691,45.410,83.496
1678024457.370,-37.598,-47.363,-30.762,24.902,-147.461
1678024457.374,-35.156,-47.363,-28.809,-74.219,-125.488
1678024457.378,-37.109,-48.340,-38.086,-133.789,-109.375
1678024457.382,-42.969,-49.805,-35.645,-67.383,-118.652
1678024457.352,-42.480,-45.410,-30.762,40.527,-59.570
1678024457.356,-21.973,-39.062,-31.738,39.551,58.105
1678024457.360,2.441,-35.645,-30.762,-66.895,21.973
1678024457.364,-4.883,-39.062,-33.691,-140.625,-197.754
1678024457.368,-9.766,-37.598,-37.598,-85.938,-189.941
1678024457.372,-19.531,-40.039,-37.598,34.180,114.258
1678024457.376,-41.992,-44.922,-32.715,51.758,191.895
1678024457.379,-39.062,-39.062,-32.227,-53.711,-8.789
1678024457.383,-44.922,-36.133,-29.297,-131.348,-163.086
1678024457.387,-50.781,-35.645,-25.879,-80.566,-93.262
1678024457.391,-54.688,-33.691,-20.020,32.715,42.969
1678024457.395,-51.270,-39.551,-24.902,58.594,5.371
1678024457.412,-32.715,-44.922,-24.902,-43.945,-102.539
1678024457.416,-27.832,-42.969,-16.602,-120.117,38.086
1678024457.420,-42.969,-41.016,-22.461,-78.125,335.938
1678024457.424,-45.898,-40.039,-23.926,20.996,131.348
1678024457.428,-27.832,-36.133,-17.090,66.406,-11.719
1678024457.432,-25.391,-35.156,-13.184,-11.719,137.695
1678024457.436,-23.438,-37.598,-18.555,-121.582,14.648
1678024457.439,-27.832,-41.016,-22.461,-105.469,-257.812
1678024457.443,-25.879,-35.156,-20.996,17.578,-222.656
1678024457.447,-10.742,-33.691,-20.508,79.102,131.836
1678024457.451,-22.949,-39.551,-19.531,5.859,63.965
1678024457.455,-18.555,-40.527,-20.508,-108.398,-217.285
1678024457.456,-33.691,-44.922,-20.996,-104.492,-112.305
1678024457.460,-78.125,-45.898,-23.438,13.184,36.621
1678024457.464,-81.055,-36.621,-22.949,91.797,-37.109
1678024457.468,-59.570,-32.227,-17.090,36.133,-107.422
1678024457.472,-51.270,-31.250,-20.996,-83.496,-89.844
1678024457.476,-54.199,-32.715,-20.996,-101.074,-110.352
1678024457.480,-59.082,-39.551,-15.625,8.789,-135.742
1678024457.483,-64.453,-42.969,-18.066,89.844,7.812
1678024457.487,-42.969,-28.320,-18.555,47.363,148.926
1678024457.491,-21.973,-18.555,-23.438,-69.824,301.758
1678024457.495,-33.691,-23.926,-30.273,-114.258,34.180
1678024457.499,-46.387,-15.137,-31.250,-8.301,-164.551
1678024457.503,-55.176,-10.254,-34.180,102.539,-22.949
1678024457.507,-41.504,-4.395,-33.203,75.684,-22.461
1678024457.511,-27.832,9.277,-31.250,-49.805,-113.281
1678024457.515,-28.809,13.672,-40.527,-96.680,-165.039
1678024457.519,-31.738,10.742,-48.340,-2.930,-86.426
1678024457.523,-42.480,4.395,-47.852,99.121,0.000
1678024457.527,-37.598,9.277,-50.293,70.801,59.082
1678024457.530,-27.344,12.695,-54.688,-61.035,-22.949
1678024457.534,-33.203,3.418,-55.176,-121.582,61.035
1678024457.538,-47.852,-1.465,-61.035,-31.738,95.703
1678024457.542,-57.617,3.418,-62.988,94.727,-54.199
1678024457.546,-43.945,4.395,-54.688,108.887,117.188
1678024457.546,-22.949,-0.977,-56.152,-21.973,119.629
1678024457.550,-19.531,0.488,-58.594,-126.465,-178.711
1678024457.554,-25.879,-3.906,-56.152,-51.270,-195.312
1678024457.558,-32.715,-8.789,-59.570,96.680,-0.977
1678024457.562,-44.922,-10.254,-62.012,113.770,93.750
1678024457.566,-40.527,-18.555,-62.988,-25.391,27.832
1678024457.570,-20.020,-18.555,-56.641,-135.254,-126.953
1678024457.573,-36.133,-20.996,-48.828,-71.777,-1.953
1678024457.577,-49.316,-17.578,-42.480,80.566,317.871
1678024457.581,-41.016,-14.648,-43.945,107.910,218.262
1678024457.585,-23.438,-19.531,-46.875,-27.344,-89.844
1678024457.589,-13.184,-17.578,-40.527,-144.043,-172.363
1678024457.593,-24.902,-19.043,-37.109,-93.750,-202.637
1678024457.597,-31.738,-17.578,-32.227,58.105,-159.668
1678024457.601,-28.809,-15.625,-28.320,129.395,-47.363
1678024457.605,-11.230,-13.184,-25.391,28.809,-56.641
1678024457.609,-7.812,-12.207,-25.879,-123.047,-196.289
1678024457.613,-15.625,-19.043,-26.855,-113.281,-111.328
1678024457.617,-25.391,-24.414,-24.414,50.781,103.027
1678024457.620,-35.645,-25.391,-26.367,154.785,322.266
1678024457.624,-25.879,-27.832,-26.367,61.035,132.324
1678024457.628,-8.301,-33.691,-22.949,-102.539,-253.418
1678024457.632,-4.395,-32.227,-21.484,-108.398,-252.441
1678024457.636,-18.066,-29.297,-20.020,39.551,-69.336
1678024457.637,-23.438,-28.809,-21.973,138.672,9.277
1678024457.641,-15.137,-30.273,-23.438,59.570,-8.789
1678024457.645,-8.301,-29.297,-21.973,-104.004,-41.016
1678024457.649,-20.020,-28.809,-21.484,-120.605,-123.047
1678024457.653,-26.855,-29.297,-21.973,26.367,-103.516
1678024457.657,-18.555,-27.832,-26.367,138.672,62.500
1678024457.661,-7.812,-34.180,-24.414,75.684,254.395
1678024457.664,-16.113,-33.203,-21.973,-83.496,334.961
1678024457.668,-24.414,-27.832,-24.902,-135.742,-57.617
1678024457.672,-29.297,-32.715,-24.414,-6.348,-240.234
1678024457.676,-33.691,-28.809,-19.531,142.090,-26.367
1678024457.680,-18.555,-23.438,-19.531,104.492,-43.457
1678024457.683,-2.441,-27.832,-20.508,-72.266,-225.586
1678024457.687,-2.930,-29.297,-19.043,-144.531,-295.410
1678024457.691,-21.484,-26.367,-19.531,-26.367,-145.996
1678024457.695,-37.109,-22.461,-16.602,122.070,25.391
1678024457.699,-33.691,-23.438,-17.578,104.004,65.430
1678024457.703,-19.043,-24.414,-21.973,-64.941,-58.105
1678024457.707,-7.324,-23.438,-21.973,-150.391,67.383
1678024457.710,-19.043,-29.297,-22.461,-35.645,105.469
1678024457.714,-27.832,-33.691,-24.414,119.141,-23.438
1678024457.718,-18.066,-29.297,-22.949,119.141,31.250
1678024457.722,-15.137,-28.809,-25.879,-52.246,-164.062
1678024457.726,-5.859,-24.902,-28.320,-159.668,-320.312
1678024457.726,1.953,-22.461,-25.391,-67.383,-186.523
1678024457.730,-13.672,-27.832,-20.996,100.586,26.855
1678024457.734,-19.531,-31.738,-20.996,121.582,35.156
1678024457.738,2.441,-31.738,-25.879,-27.832,-138.672
1678024457.742,11.719,-33.203,-25.391,-153.320,-191.895
1678024457.746,-4.395,-29.785,-23.438,-83.496,71.777
1678024457.750,-17.090,-25.879,-23.926,99.609,306.152
1678024457.753,-15.137,-25.879,-23.438,154.297,185.059
1678024457.757,6.836,-22.461,-22.461,12.695,-59.570
1678024457.761,20.508,-17.578,-25.879,-138.672,-119.141
1678024457.765,1.465,-19.531,-25.391,-102.051,-88.867
1678024457.769,-11.719,-25.391,-25.391,59.570,-190.918
1678024457.787,0.000,-20.508,-26.367,137.207,-100.098
1678024457.791,5.859,-21.484,-21.973,17.090,-98.633
1678024457.795,-2.930,-32.715,-20.508,-141.113,-267.578
1678024457.799,-8.789,-31.738,-24.414,-120.117,-339.355
1678024457.803,-18.555,-25.879,-22.461,50.293,-150.391
1678024457.807,-23.438,-21.973,-18.555,129.395,104.492
1678024457.811,-16.113,-20.508,-22.461,13.184,81.543
1678024457.814,2.930,-27.832,-28.320,-132.812,-110.352
1678024457.818,-14.648,-39.062,-12.695,-139.648,-208.496
1678024457.822,-51.270,-37.598,-8.789,-2.441,159.180
1678024457.826,-60.547,-30.762,-20.508,90.332,310.059
1678024457.830,-57.129,-34.180,-20.508,-4.883,10.254
1678024457.831,-52.734,-32.715,-16.602,-181.641,-153.809
1678024457.835,-50.781,-31.738,-19.043,-215.332,-150.879
1678024457.839,-62.988,-34.668,-23.438,-66.406,-130.859
1678024457.843,-65.430,-37.598,-23.438,63.965,-41.992
1678024457.847,-45.898,-39.551,-25.391,5.371,188.477
1678024457.851,-47.852,-39.062,-25.391,-167.480,29.785
1678024457.855,-45.898,-34.180,-25.391,-233.887,-194.824
1678024457.858,-41.992,-34.180,-21.484,-90.332,-140.625
1678024457.862,-55.176,-29.297,-15.137,79.590,140.137
1678024457.866,-36.621,-23.926,-16.113,55.176,348.145
1678024457.870,-25.879,-25.879,-13.672,-113.770,-43.945
1678024457.874,-31.738,-23.438,-9.277,-197.266,-247.070
1678024457.878,-41.992,-26.367,-12.207,-76.660,-124.512
1678024457.882,-48.828,-35.645,-14.160,85.449,-13.184
1678024457.886,-32.715,-33.203,-13.672,67.383,-6.836
1678024457.890,-20.996,-32.227,-16.113,-107.422,-120.605
1678024457.894,-10.254,-34.668,-14.160,-203.125,-217.285
1678024457.898,-18.066,-24.902,-16.113,-104.004,-144.531
1678024457.902,-30.762,-15.625,-14.648,56.152,0.000
1678024457.905,-36.133,-21.484,-8.301,69.336,47.363
1678024457.909,-34.668,-14.160,-18.555,-101.074,119.629
1678024457.913,-25.391,-2.441,-18.555,-224.609,-104.004
1678024457.917,-44.922,-7.324,-16.113,-148.926,-308.105
1678024457.921,-70.312,-3.906,-21.973,7.812,-32.715
1678024457.922,-75.195,-0.977,-23.438,32.715,123.535
1678024457.926,-74.707,6.348,-22.461,-133.789,23.926
1678024457.930,-69.824,18.555,-24.902,-278.320,-216.309
1678024457.934,-92.285,15.137,-18.066,-226.074,-173.340
1678024457.938,-151.367,16.602,4.883,-91.797,149.414
1678024457.942,-200.195,30.273,14.648,-71.289,145.020
1678024457.946,-218.262,28.320,14.648,-220.703,-25.391
1678024457.949,-229.004,32.715,34.668,-382.324,-30.762
1678024457.953,-262.695,22.949,44.434,-382.324,184.082
1678024457.957,-287.109,12.695,46.387,-238.281,68.359
1678024457.961,-283.691,16.113,64.941,-153.320,-81.055
1678024457.965,-289.551,11.719,72.754,-276.367,-87.891
1678024457.968,-297.852,-3.418,76.660,-430.664,-226.562
1678024457.972,-298.340,-1.953,84.961,-415.527,-339.355
1678024457.976,-309.570,0.977,89.844,-248.535,-224.609
1678024457.980,-320.801,-11.719,97.168,-136.230,49.316
1678024457.984,-296.875,-13.672,111.816,-224.609,57.617
1678024457.988,-271.484,-24.902,117.188,-383.789,-99.609
1678024457.992,-269.531,-34.668,115.723,-393.066,-175.293
1678024457.995,-284.180,-33.203,112.305,-235.352,139.160
1678024457.999,-281.738,-41.992,112.793,-102.539,305.664
1678024458.003,-255.371,-45.410,122.070,-149.902,-37.109
1678024458.007,-231.445,-45.898,116.699,-307.617,-167.969
1678024458.011,-224.121,-55.176,106.934,-357.910,-237.793
1678024458.011,-232.422,-62.012,112.305,-206.055,-180.664
1678024458.015,-225.098,-59.570,111.816,-46.387,-14.160
1678024458.019,-201.172,-67.871,105.957,-81.543,-19.531
1678024458.023,-167.480,-75.195,106.445,-235.840,-166.016
1678024458.027,-153.320,-74.707,101.562,-278.320,-229.004
1678024458.031,-158.203,-83.008,91.309,-139.648,-128.906
1678024458.035,-148.438,-92.773,83.984,35.645,194.336
1678024458.038,-122.559,-94.238,76.172,24.414,568.848
1678024458.042,-103.516,-95.703,67.871,-146.973,186.523
1678024458.046,-88.867,-95.703,59.570,-219.238,-260.742
1678024458.050,-87.891,-100.098,54.199,-107.910,-138.672
1678024458.054,-92.773,-103.027,47.363,43.457,-24.414
1678024458.073,-72.754,-98.633,37.598,49.805,-23.438
1678024458.077,-60.059,-96.191,28.809,-97.168,-128.418
1678024458.081,-47.363,-95.703,20.020,-180.176,-217.773
1678024458.085,-54.199,-93.750,16.113,-84.473,-177.734
1678024458.089,-56.152,-91.309,7.812,66.895,-73.730
1678024458.093,-16.602,-79.590,3.418,104.980,67.871
1678024458.097,5.859,-70.312,-5.859,-39.062,185.059
1678024458.100,-4.883,-72.266,-12.695,-166.504,-51.758
1678024458.104,-13.672,-72.754,-8.789,-83.496,-198.242
1678024458.108,-2.930,-62.500,-14.160,96.680,-14.648
1678024458.112,3.906,-59.570,-23.438,138.672,124.512
1678024458.116,21.484,-63.477,-25.879,-15.137,-19.043
1678024458.101,32.715,-56.641,-28.320,-148.926,-259.277
1678024458.105,24.902,-52.734,-34.668,-83.008,-211.914
1678024458.109,21.484,-51.758,-39.062,88.379,-32.715
1678024458.113,24.902,-47.363,-41.992,149.902,-4.395
1678024458.117,33.691,-46.387,-49.805,36.133,-29.785
1678024458.121,52.734,-42.969,-56.641,-96.680,-11.230
1678024458.125,52.734,-38.574,-58.105,-67.871,-83.008
1678024458.128,38.574,-36.133,-64.941,87.402,-80.078
1678024458.132,43.945,-35.156,-66.895,171.387,-0.488
1678024458.136,63.477,-35.645,-62.988,75.195,65.430
1678024458.140,84.473,-34.668,-64.941,-70.312,276.855
1678024458.144,87.891,-33.203,-64.941,-60.547,53.711
1678024458.162,77.148,-36.133,-65.430,85.449,-182.129
1678024458.166,62.012,-39.551,-68.359,173.828,-3.906
1678024458.170,48.828,-41.504,-69.824,83.008,-18.066
1678024458.174,63.965,-39.062,-68.848,-76.172,-246.094
1678024458.178,75.195,-36.621,-62.988,-82.031,-260.254
1678024458.182,61.523,-37.598,-59.082,72.754,-31.738
1678024458.186,49.316,-39.551,-61.035,180.664,77.148
1678024458.189,69.824,-36.133,-63.965,104.004,-15.625
1678024458.193,89.355,-27.344,-57.617,-59.082,-142.578
1678024458.197,81.055,-22.949,-52.246,-80.566,-41.992
1678024458.201,74.219,-26.367,-57.617,57.617,-36.133
1678024458.205,66.406,-27.832,-55.176,178.223,-96.680
1678024458.206,61.035,-27.344,-50.293,137.207,77.637
1678024458.210,68.848,-30.762,-50.781,-28.320,58.105
1678024458.214,74.219,-30.273,-55.176,-99.609,-187.988
1678024458.218,68.848,-27.344,-54.688,20.508,-234.375
1678024458.222,58.594,-23.926,-48.828,167.969,125.977
1678024458.226,57.129,-19.043,-45.898,143.555,318.359
1678024458.230,66.406,-20.996,-50.781,-23.926,31.738
1678024458.233,61.035,-25.879,-57.617,-109.375,-171.387
1678024458.237,39.551,-21.973,-57.617,-6.836,-30.762
1678024458.241,28.809,-16.602,-53.223,145.020,246.094
1678024458.245,33.691,-20.508,-49.316,145.996,61.523
1678024458.249,41.992,-21.973,-47.852,-17.090,-143.555
1678024458.253,41.504,-20.996,-47.363,-126.953,-237.305
1678024458.257,27.832,-23.926,-45.410,-19.043,-186.523
1678024458.261,23.926,-26.855,-46.387,149.902,-39.551
1678024458.265,37.598,-20.996,-41.992,167.480,29.297
1678024458.269,50.781,-13.672,-41.504,22.949,11.719
1678024458.273,47.363,-17.090,-44.434,-107.422,-127.930
1678024458.277,24.414,-19.531,-44.434,-51.270,-196.289
1678024458.280,14.648,-21.484,-40.039,108.398,-85.938
1678024458.284,15.137,-20.508,-36.133,156.738,261.719
1678024458.288,21.484,-19.531,-38.574,17.578,159.180
1678024458.292,39.551,-20.996,-41.504,-115.723,-212.402
1678024458.296,32.715,-27.832,-45.410,-71.777,-222.168
1678024458.296,9.766,-37.109,-46.875,72.754,-147.461
1678024458.300,5.859,-30.762,-42.480,141.602,-47.363
1678024458.304,17.090,-25.391,-40.527,31.250,-67.383
1678024458.308,23.926,-27.832,-46.875,-119.629,-165.527
1678024458.312,18.555,-27.832,-48.828,-92.773,-196.289
1678024458.316,11.230,-30.762,-45.898,60.547,-89.844
1678024458.320,16.113,-36.133,-47.852,135.742,91.309
1678024458.323,18.555,-31.738,-48.828,35.156,266.602
1678024458.327,3.418,-27.832,-47.852,-115.723,385.254
1678024458.331,1.465,-26.855,-48.828,-107.910,69.336
1678024458.335,1.953,-29.785,-48.828,38.086,-138.184
1678024458.339,-6.836,-36.621,-49.316,135.742,89.844
1678024458.343,2.441,-33.203,-47.852,42.480,58.105
1678024458.347,7.324,-33.203,-42.969,-128.906,-186.523
1678024458.351,-7.324,-35.645,-41.992,-144.531,-262.695
1678024458.355,-23.438,-31.250,-39.062,-2.441,-125.000
1678024458.359,-32.227,-32.227,-39.062,111.328,-15.137
1678024458.363,-12.207,-32.715,-42.969,48.828,19.043
1678024458.367,3.418,-29.785,-41.992,-115.723,-104.004
1678024458.370,5.859,-30.273,-40.527,-154.297,60.547
1678024458.374,1.465,-29.785,-41.504,-27.832,155.762
1678024458.378,-23.438,-31.738,-41.016,93.750,-57.617
1678024458.382,-26.367,-33.203,-41.016,60.547,7.324
1678024458.386,-15.625,-29.297,-44.434,-97.168,-105.957
1678024458.386,-14.648,-24.414,-43.457,-170.898,-330.566
1678024458.390,-25.879,-23.438,-41.992,-60.547,-250.488
1678024458.394,-45.898,-27.832,-46.387,80.566,23.438
1678024458.398,-37.598,-29.297,-44.922,65.918,41.016
1678024458.402,-15.625,-28.320,-40.527,-96.191,-137.695
1678024458.406,-11.230,-31.250,-40.039,-189.453,-174.805
1678024458.410,-25.879,-28.809,-35.156,-81.055,84.961
1678024458.413,-45.410,-26.855,-30.762,73.242,402.832
1678024458.417,-45.898,-27.832,-29.785,75.684,170.898
1678024458.421,-25.879,-27.344,-32.227,-73.242,-174.316
1678024458.425,-21.973,-31.250,-35.645,-187.500,-274.414
1678024458.429,-35.645,-33.203,-39.551,-106.934,-278.320
1678024458.433,-42.480,-34.668,-36.133,51.758,-143.066
1678024458.437,-38.086,-36.621,-30.273,70.801,-89.355
1678024458.441,-28.320,-34.668,-33.691,-67.383,-114.258
1678024458.445,-17.578,-36.621,-33.691,-182.129,-174.805
1678024458.449,-30.273,-35.645,-32.227,-122.559,-221.191
1678024458.453,-45.898,-37.598,-33.691,42.969,-6.348
1678024458.457,-36.621,-43.945,-37.109,92.285,330.566
1678024458.460,-27.344,-39.551,-40.039,-42.969,104.004
1678024458.464,-24.902,-34.668,-39.062,-177.246,-288.086
1678024458.468,-32.715,-29.785,-35.645,-131.836,-171.875
1678024458.472,-47.852,-27.832,-35.156,26.855,-27.832
1678024458.476,-46.387,-27.344,-38.086,89.355,26.855
1678024458.477,-26.855,-25.879,-38.086,-22.949,-34.180
1678024458.481,-0.488,-27.344,-35.645,-172.363,-92.773
1678024458.485,-7.324,-26.855,-32.715,-154.785,-63.477
1678024458.489,-45.410,-27.832,-33.203,-2.441,-64.453
1678024458.493,-39.551,-20.996,-33.203,89.355,-5.859
1678024458.497,-21.973,-15.625,-31.738,11.719,165.527
1678024458.501,-28.320,-20.996,-31.738,-139.648,197.266
1678024458.504,-40.039,-31.250,-39.062,-150.391,-127.930
1678024458.508,-49.316,-33.203,-39.551,-1.953,-204.102
1678024458.512,-47.363,-24.414,-33.203,100.586,57.617
1678024458.516,-39.062,-23.926,-39.062,17.090,66.406
1678024458.520,-33.203,-21.973,-50.293,-149.902,-223.145
1678024458.539,-47.363,-25.391,-45.410,-190.918,-271.973
1678024458.543,-47.852,-27.832,-37.598,-43.457,-157.715
1678024458.547,-41.992,-21.973,-37.598,82.520,66.406
1678024458.551,-32.715,-25.879,-35.645,23.926,112.793
1678024458.555,-18.555,-31.250,-32.227,-132.812,-59.082
1678024458.559,-30.762,-33.691,-28.320,-176.758,62.500
1678024458.563,-44.434,-36.133,-33.691,-51.270,96.191
1678024458.566,-44.922,-31.738,-37.109,70.312,-25.879
1678024458.570,-34.668,-34.668,-34.668,38.086,-22.949
1678024458.574,-29.297,-38.574,-36.133,-110.352,-14.160
1678024458.578,-27.344,-35.156,-41.992,-192.383,-163.086
1678024458.582,-41.016,-29.297,-43.457,-92.773,-208.496
1678024458.581,-50.781,-30.273,-41.016,58.105,-3.418
1678024458.585,-32.715,-35.156,-41.992,48.828,55.664
1678024458.589,-15.625,-36.133,-34.180,-98.145,-115.234
1678024458.593,-16.602,-35.645,-30.762,-183.594,-270.996
