timestamps,TP9,AF7,AF8,TP10,Right AUX
1678023907.686,-58.594,-22.461,6.836,-8.789,-105.469
1678023907.690,-42.969,-26.855,0.000,-24.902,6.348
1678023907.694,45.898,-25.879,3.906,-22.949,-13.184
1678023907.698,71.777,-20.508,7.324,-27.344,-157.227
1678023907.702,7.812,-25.391,3.418,-49.805,-72.754
1678023907.706,-80.078,-33.203,0.977,-58.594,149.902
1678023907.710,-65.918,-33.203,-2.441,-67.383,145.996
1678023907.713,34.180,-29.785,2.441,-80.078,-105.957
1678023907.717,67.871,-25.879,2.441,-76.660,-77.148
1678023907.721,15.137,-30.273,-9.766,-83.008,67.383
1678023907.725,-61.523,-28.320,-10.742,-99.121,-42.969
1678023907.729,-68.848,-23.438,-4.395,-109.863,-131.836
1678023907.732,13.184,-25.879,-3.906,-113.770,-110.352
1678023907.736,59.570,-22.461,-7.324,-101.562,-91.309
1678023907.740,21.484,-24.414,-8.301,-102.051,-157.715
1678023907.744,-67.871,-29.785,-10.254,-118.652,-155.762
1678023907.748,-92.773,-32.227,-12.207,-117.676,-34.668
1678023907.752,-0.977,-31.738,-13.672,-110.840,65.430
1678023907.756,61.035,-29.785,-11.230,-109.375,-12.695
1678023907.759,27.832,-28.809,-14.160,-93.750,-13.184
1678023907.763,-54.688,-29.297,-6.348,-82.031,187.500
1678023907.767,-88.867,-30.762,-0.488,-68.848,230.469
1678023907.771,-1.465,-29.297,-5.859,-61.035,5.371
1678023907.775,72.754,-26.367,-6.348,-64.453,-81.055
1678023907.777,49.316,-23.438,-3.418,-67.383,64.941
1678023907.781,-22.461,-20.020,-0.488,-77.148,5.859
1678023907.785,-75.195,-25.879,-0.977,-89.355,-134.766
1678023907.789,-22.461,-34.668,-4.883,-108.398,-26.855
1678023907.793,43.945,-33.203,-7.812,-122.070,3.418
1678023907.797,28.320,-27.832,-7.324,-120.605,24.902
1678023907.801,-44.922,-30.762,-4.395,-125.977,41.016
1678023907.804,-95.215,-27.344,-0.488,-113.281,6.836
1678023907.808,-27.832,-23.926,-1.953,-98.633,201.660
1678023907.812,64.941,-25.879,0.977,-110.352,63.965
1678023907.816,62.012,-18.555,2.930,-112.793,-209.473
1678023907.820,-25.879,-13.184,6.348,-112.793,-61.523
1678023907.821,-101.562,-15.625,9.766,-110.840,-13.672
1678023907.825,-55.664,-18.066,7.324,-123.535,-174.805
1678023907.829,21.484,-21.484,0.488,-131.348,-147.949
1678023907.833,26.367,-25.391,-1.465,-113.770,-75.195
1678023907.837,-41.992,-13.672,-1.465,-126.953,-79.590
1678023907.841,-141.113,7.812,-1.953,-173.828,-34.180
1678023907.845,-137.207,16.113,7.812,-205.078,-38.086
1678023907.848,-83.984,14.160,6.836,-236.816,111.328
1678023907.852,-95.215,19.531,4.395,-263.184,162.109
1678023907.856,-181.152,29.297,6.836,-299.805,-150.391
1678023907.860,-281.738,37.109,7.812,-330.566,-176.270
1678023907.864,-295.410,37.598,-1.465,-360.840,109.863
1678023907.866,-219.238,37.598,-7.324,-376.465,66.895
1678023907.870,-198.730,39.551,-7.324,-379.883,-177.734
1678023907.874,-261.230,39.062,-13.672,-395.996,-133.789
1678023907.878,-333.984,38.574,-22.949,-390.625,-118.164
1678023907.882,-324.219,38.086,-22.949,-385.254,-187.012
1678023907.886,-217.285,37.109,-25.391,-377.441,-161.621
1678023907.890,-145.996,33.203,-28.320,-334.961,35.645
1678023907.893,-172.852,30.762,-27.344,-303.711,214.844
1678023907.897,-248.535,28.320,-35.156,-286.133,25.879
1678023907.901,-242.676,19.531,-43.945,-273.926,-211.426
1678023907.905,-145.508,10.254,-49.805,-274.902,-174.316
1678023907.909,-86.914,7.812,-52.734,-234.863,-143.555
1678023907.913,-99.121,3.906,-53.223,-179.688,-159.180
1678023907.917,-160.645,-2.930,-60.059,-150.879,-139.160
1678023907.921,-164.551,-0.488,-70.312,-119.629,57.617
1678023907.925,-59.570,-2.441,-70.801,-89.844,61.035
1678023907.929,15.137,-1.953,-68.359,-48.340,-71.777
1678023907.933,8.301,-1.953,-61.523,-9.277,-99.121
1678023907.937,-61.523,-9.766,-52.734,7.812,61.035
1678023907.940,-102.051,-14.160,-57.617,3.418,180.176
1678023907.944,-5.859,-13.672,-58.105,8.789,-137.695
1678023907.948,77.148,-6.836,-47.852,40.527,-197.754
1678023907.952,63.965,-11.719,-49.316,59.570,-89.355
1678023907.956,-6.836,-20.020,-55.176,57.617,-140.137
1678023907.956,-58.594,-18.555,-54.688,71.777,-205.566
1678023907.960,6.836,-17.090,-51.758,85.449,-181.152
1678023907.964,88.379,-19.531,-50.781,80.078,-143.555
1678023907.968,77.148,-21.973,-53.711,71.289,-185.059
1678023907.972,6.836,-23.438,-53.711,68.848,-193.359
1678023907.976,-42.480,-26.367,-51.758,77.637,-119.629
1678023907.980,6.348,-22.461,-46.875,88.867,300.781
1678023907.983,90.332,-21.484,-44.434,91.309,241.211
1678023907.987,94.238,-24.414,-40.527,83.984,-197.266
1678023907.991,19.531,-26.855,-32.227,82.031,-188.477
1678023907.995,-43.945,-27.832,-31.738,89.355,-150.391
1678023907.999,-3.906,-34.180,-40.039,74.707,-189.453
1678023908.018,84.961,-37.109,-43.945,64.941,-203.613
1678023908.022,99.609,-32.715,-37.598,84.961,-110.840
1678023908.026,13.672,-32.715,-34.668,88.379,-103.027
1678023908.030,-69.336,-33.691,-39.551,75.684,-178.223
1678023908.034,-37.598,-33.691,-44.434,55.664,-168.945
1678023908.038,62.012,-33.691,-40.039,50.781,-39.062
1678023908.042,90.820,-34.180,-35.156,64.453,-40.039
1678023908.045,33.203,-38.086,-40.527,58.594,-64.453
1678023908.049,-42.480,-39.551,-39.551,49.805,-115.723
1678023908.053,-24.414,-36.133,-35.156,47.363,-3.906
1678023908.057,58.594,-38.574,-37.109,35.645,202.148
1678023908.061,74.707,-34.180,-34.180,38.574,4.883
1678023908.061,29.297,-32.227,-29.297,43.457,-112.793
1678023908.065,-61.523,-31.738,-26.855,32.715,-49.316
1678023908.069,-71.289,-32.227,-24.902,26.855,-125.000
1678023908.073,35.156,-33.203,-25.879,31.738,-232.910
1678023908.077,85.938,-34.668,-21.973,49.805,-135.742
1678023908.081,32.715,-37.598,-18.066,50.781,83.984
1678023908.085,-51.270,-29.785,-18.066,42.969,-35.156
1678023908.088,-66.895,-29.297,-14.160,40.527,-191.406
1678023908.092,15.137,-32.227,-12.695,37.109,-59.570
1678023908.096,78.125,-24.414,-9.277,60.547,284.180
1678023908.100,59.570,-21.973,-4.883,67.383,186.523
1678023908.104,-16.602,-19.531,-1.953,53.223,-193.359
1678023908.106,-56.641,-14.648,-6.836,51.270,-206.055
1678023908.110,27.344,-13.672,-14.160,39.551,-149.414
1678023908.114,100.586,-17.578,-15.137,27.344,-223.145
1678023908.118,64.941,-21.484,-14.648,20.020,-214.355
1678023908.122,-27.832,-20.508,-16.113,8.301,-137.207
1678023908.126,-68.359,-18.066,-17.578,4.883,-118.652
1678023908.130,5.859,-14.648,-13.184,-0.488,-123.535
1678023908.133,74.707,-16.113,-9.277,-8.789,-140.137
1678023908.137,62.012,-20.508,-12.207,-5.371,73.730
1678023908.141,-19.043,-22.949,-13.184,-9.277,174.316
1678023908.145,-78.613,-20.996,-18.066,-15.137,-87.402
1678023908.149,-18.066,-21.484,-20.020,-17.578,-140.625
1678023908.151,62.988,-20.996,-15.625,-14.160,131.348
1678023908.155,53.711,-18.555,-21.484,-19.531,104.980
1678023908.159,-23.438,-24.414,-20.996,-34.668,-184.570
1678023908.163,-84.473,-26.367,-18.555,-35.156,-150.879
1678023908.167,-37.598,-25.879,-19.043,-33.691,-54.199
1678023908.171,41.016,-27.832,-22.949,-32.227,-42.969
1678023908.175,41.992,-32.227,-22.461,-29.785,-103.027
1678023908.178,-20.508,-34.668,-25.391,-39.551,-119.629
1678023908.182,-87.402,-32.715,-29.297,-39.551,11.230
1678023908.186,-61.523,-34.180,-23.438,-43.945,-77.637
1678023908.190,20.508,-30.762,-19.043,-36.133,-168.945
1678023908.194,33.691,-26.367,-21.973,-14.648,-5.371
1678023908.198,-21.484,-22.461,-20.996,-15.137,96.191
1678023908.202,-79.102,-26.855,-18.555,-15.625,-71.289
1678023908.206,-45.898,-32.227,-16.602,2.930,-201.172
1678023908.210,43.457,-21.973,-21.484,9.766,-94.727
1678023908.214,53.711,-14.648,-31.250,1.465,-33.691
1678023908.218,-4.883,-12.695,-34.180,-2.930,-77.148
1678023908.222,-65.918,-12.695,-36.133,-0.977,-34.180
1678023908.225,-62.012,-13.184,-36.133,9.277,101.562
1678023908.229,23.438,-11.230,-41.016,17.090,101.074
1678023908.233,77.148,-8.301,-44.434,23.926,-191.895
1678023908.237,48.828,-0.488,-42.480,36.621,-118.164
1678023908.241,-33.691,0.488,-50.293,40.527,130.371
1678023908.241,-31.250,-0.977,-56.152,45.898,-32.227
1678023908.245,75.195,4.395,-51.758,51.758,-187.988
1678023908.249,111.328,-1.465,-52.734,55.664,-95.703
1678023908.253,62.500,-4.883,-57.129,62.012,-6.348
1678023908.257,-8.789,1.465,-58.105,61.035,-48.828
1678023908.261,-21.484,0.977,-64.941,54.199,-73.242
1678023908.265,63.965,-2.930,-67.383,42.480,75.684
1678023908.268,117.188,-0.488,-62.988,48.340,307.129
1678023908.272,73.242,-3.418,-61.035,49.316,156.250
1678023908.276,-3.906,-8.789,-58.594,35.156,-198.730
1678023908.280,-30.762,-12.695,-56.641,33.203,-157.715
1678023908.284,34.180,-16.602,-58.594,32.715,-114.258
1678023908.286,95.703,-8.789,-57.617,55.664,-189.453
1678023908.290,77.637,-8.789,-60.059,48.340,-201.660
1678023908.294,-7.324,-15.137,-62.500,21.484,-117.188
1678023908.298,-37.598,-12.695,-57.129,29.297,-129.883
1678023908.302,30.273,-6.348,-51.758,23.926,-200.195
1678023908.306,80.078,-1.465,-40.039,32.227,-146.973
1678023908.310,77.148,-1.953,-24.902,60.059,107.910
1678023908.313,13.184,-9.766,-20.508,58.105,268.555
1678023908.317,-50.293,-13.672,-22.461,41.504,-40.039
1678023908.321,-1.465,-5.859,-20.996,40.039,-225.586
1678023908.325,76.172,-3.418,-21.484,59.570,71.777
1678023908.329,79.590,-8.301,-27.832,64.941,126.465
1678023908.331,20.020,-12.207,-29.785,40.039,-157.227
1678023908.335,-36.133,-6.348,-18.066,39.062,-173.828
1678023908.339,-0.488,-0.488,-16.602,50.781,-148.438
1678023908.343,76.172,-4.883,-22.949,46.387,-168.457
1678023908.347,86.426,-9.277,-21.973,49.316,-147.949
1678023908.351,24.414,-7.324,-21.484,41.992,21.973
1678023908.355,-42.969,-2.930,-17.578,41.016,175.781
1678023908.358,-10.742,-3.906,-15.137,42.480,-2.930
1678023908.362,88.379,-0.977,-13.672,26.855,-120.117
1678023908.366,104.492,0.488,-7.324,41.016,-6.348
1678023908.370,28.320,1.465,0.000,53.223,89.355
1678023908.374,-49.805,4.395,1.465,34.180,-45.898
1678023908.391,-39.062,-0.488,4.395,25.391,-114.746
1678023908.395,48.340,-8.301,4.395,25.879,-76.660
1678023908.399,80.566,-15.137,-3.906,31.250,-114.746
1678023908.403,28.809,-13.672,-4.883,35.156,-181.152
1678023908.407,-60.059,-8.789,-1.953,32.715,-152.832
1678023908.411,-65.430,-2.930,3.418,37.598,18.555
1678023908.415,25.879,-1.465,5.859,35.156,103.027
1678023908.418,73.242,-1.953,5.371,40.527,55.176
1678023908.422,29.297,-6.348,3.418,36.133,-58.105
1678023908.426,-53.711,-9.277,2.441,20.996,131.348
1678023908.430,-57.617,0.488,3.418,23.438,219.727
1678023908.434,22.949,3.418,-0.977,14.648,-29.297
1678023908.436,62.988,0.977,-0.488,19.531,-150.391
1678023908.440,35.645,0.000,-5.859,35.645,59.082
1678023908.444,-46.875,-1.953,-13.672,29.297,85.938
1678023908.448,-85.449,-2.441,-10.742,27.832,-127.441
1678023908.452,-9.766,-4.883,-6.836,20.020,-70.312
1678023908.456,43.457,-1.953,-5.859,18.066,30.273
1678023908.460,23.438,-0.977,-6.836,29.297,72.266
1678023908.463,-41.016,-4.883,-9.277,22.461,-73.242
1678023908.467,-83.496,-6.348,-10.742,12.207,-62.988
1678023908.471,-25.391,-7.812,-17.090,1.953,157.227
1678023908.475,49.316,-7.324,-18.555,-2.441,-6.348
1678023908.479,39.551,-8.789,-13.184,9.277,-178.223
1678023908.482,-41.504,-13.672,-8.789,7.812,-37.109
1678023908.486,-95.703,-14.648,-3.418,8.789,9.277
1678023908.490,-41.992,-20.020,-9.766,1.953,-129.883
1678023908.494,35.156,-16.113,-16.602,0.488,-157.715
1678023908.498,14.648,-12.207,-18.555,10.254,14.648
1678023908.502,-63.965,-14.648,-22.461,-2.930,98.633
1678023908.506,-111.816,-8.789,-22.949,-5.371,8.789
1678023908.509,-71.777,-12.207,-22.949,-5.859,-111.816
1678023908.513,-3.418,-20.020,-22.949,-10.254,45.898
1678023908.517,1.953,-18.555,-22.461,-18.066,168.945
1678023908.521,-53.711,-18.066,-22.461,-55.176,21.973
1678023908.525,-104.980,-25.391,-22.949,-74.707,-38.086
1678023908.526,-54.199,-28.809,-22.949,-58.105,25.391
1678023908.530,31.250,-18.066,-24.414,-45.410,57.129
1678023908.534,45.410,-11.230,-22.461,-55.664,-56.641
1678023908.538,-10.742,-12.695,-21.484,-56.152,14.648
1678023908.542,-76.660,-12.207,-21.973,-41.504,24.414
1678023908.546,-45.410,-11.230,-32.227,-57.617,68.359
1678023908.550,41.016,-11.230,-36.621,-69.336,-31.250
1678023908.553,75.195,-4.883,-29.785,-55.664,-104.980
1678023908.557,28.809,-1.953,-29.785,-57.129,234.863
1678023908.561,-42.480,-6.348,-28.320,-72.754,188.477
1678023908.565,-33.691,-10.742,-29.785,-92.773,-128.418
1678023908.569,45.898,-13.672,-32.227,-110.352,-109.863
1678023908.572,73.730,-17.578,-35.645,-104.492,-31.738
1678023908.576,27.832,-20.020,-39.551,-113.770,-119.629
1678023908.580,-40.039,-17.578,-36.621,-134.277,-159.668
1678023908.584,-43.457,-20.020,-30.762,-138.184,-93.750
1678023908.588,39.551,-17.090,-30.273,-131.348,-71.289
1678023908.592,81.543,-11.719,-26.855,-113.770,-65.430
1678023908.596,40.527,-17.578,-28.809,-116.211,-31.738
1678023908.599,-32.227,-20.020,-30.273,-115.234,260.742
1678023908.603,-48.340,-23.438,-30.273,-101.074,340.820
1678023908.607,16.113,-18.555,-29.297,-103.027,1.465
1678023908.611,49.805,-17.090,-28.809,-106.934,-134.277
1678023908.615,19.531,-14.648,-28.320,-88.379,-5.859
1678023908.632,-60.059,-10.742,-28.320,-78.125,-22.949
1678023908.636,-93.262,-13.184,-25.391,-73.730,-149.902
1678023908.640,-22.949,-14.648,-21.484,-74.707,-73.242
1678023908.644,30.273,-16.602,-26.367,-61.035,-68.359
1678023908.648,14.160,-20.996,-27.832,-34.668,-152.344
1678023908.652,-52.246,-23.926,-29.785,-49.805,-166.504
1678023908.656,-90.820,-26.855,-29.297,-72.266,-100.098
1678023908.659,-29.785,-22.949,-27.344,-76.172,193.848
1678023908.663,42.480,-19.531,-23.926,-62.012,143.066
1678023908.667,31.738,-21.484,-17.578,-32.715,-119.141
1678023908.671,-29.297,-18.555,-18.066,-17.578,-37.109
1678023908.675,-73.242,-16.113,-23.926,4.883,-16.602
1678023908.662,-29.785,-20.996,-29.297,15.137,-73.730
1678023908.666,40.527,-22.949,-31.738,16.113,-65.918
1678023908.670,38.574,-17.578,-32.715,22.461,-30.273
1678023908.674,-39.551,-19.043,-35.156,5.859,-51.270
1678023908.678,-88.379,-21.484,-30.273,3.906,-83.984
1678023908.682,-44.922,-23.438,-23.438,9.277,0.488
1678023908.686,16.602,-26.367,-23.438,15.137,118.652
1678023908.689,26.367,-28.320,-28.809,38.086,48.340
1678023908.693,-28.320,-25.879,-28.320,37.598,-91.309
1678023908.697,-89.844,-19.043,-22.949,39.551,-88.867
1678023908.701,-62.988,-14.160,-21.973,55.664,194.824
1678023908.705,15.137,-11.719,-23.438,56.152,418.457
1678023908.708,41.992,-11.719,-23.926,61.523,82.520
1678023908.712,-4.883,-13.184,-25.391,60.547,-117.676
1678023908.716,-71.289,-17.090,-25.879,54.688,-58.594
1678023908.720,-46.875,-18.555,-24.902,50.293,-80.566
1678023908.724,30.762,-16.602,-24.414,34.668,-178.223
1678023908.728,46.387,-16.602,-24.414,44.922,-113.770
1678023908.732,4.395,-13.672,-22.949,54.199,110.352
1678023908.735,-73.730,-9.277,-20.996,51.270,-50.293
1678023908.739,-81.543,-16.113,-22.949,55.664,-239.746
1678023908.743,1.953,-16.602,-22.949,59.082,-59.570
1678023908.747,22.461,-12.695,-22.949,58.594,62.988
1678023908.751,-20.020,-18.555,-29.785,44.434,-75.195
1678023908.753,-75.195,-19.531,-24.414,41.016,-25.391
1678023908.757,-88.867,-16.113,-18.066,43.945,117.676
1678023908.761,-13.184,-15.625,-23.926,40.527,87.891
1678023908.765,35.645,-14.160,-25.879,48.828,-77.148
1678023908.769,0.488,-18.066,-26.367,59.082,-165.039
1678023908.773,-70.312,-19.043,-21.973,62.500,187.012
1678023908.777,-93.750,-21.484,-20.020,64.941,367.676
1678023908.780,-21.973,-20.508,-22.949,52.246,-42.480
1678023908.784,32.715,-19.043,-18.555,54.199,-150.879
1678023908.788,10.742,-14.648,-18.066,61.035,-11.719
1678023908.792,-52.246,-12.207,-25.391,54.199,-31.250
1678023908.796,-78.125,-17.578,-27.832,54.199,-117.188
1678023908.813,-8.301,-15.137,-23.438,39.062,-133.789
1678023908.817,37.109,-14.160,-24.414,42.480,15.625
1678023908.821,11.230,-16.602,-22.949,63.477,90.332
1678023908.825,-40.039,-15.137,-16.602,52.246,-108.398
1678023908.829,-75.195,-14.648,-6.836,50.293,-64.453
1678023908.833,-31.250,-20.996,-12.695,43.457,237.305
1678023908.837,25.879,-25.879,-24.902,27.832,127.441
1678023908.840,19.531,-21.973,-22.461,27.344,-100.586
1678023908.844,-40.039,-21.973,-25.879,22.461,-48.828
1678023908.848,-82.520,-23.438,-29.785,27.344,0.977
1678023908.852,-39.062,-20.996,-27.344,21.484,-174.805
1678023908.856,23.438,-19.043,-24.902,8.301,-231.445
1678023908.856,23.438,-18.555,-29.785,16.113,-112.793
1678023908.860,-40.527,-20.508,-33.691,18.555,-108.398
1678023908.864,-103.027,-23.926,-33.203,26.367,-130.371
1678023908.868,-74.707,-24.902,-28.809,29.785,-104.980
1678023908.872,-10.742,-25.879,-30.762,12.207,-69.336
1678023908.876,3.418,-27.344,-32.715,14.648,45.898
1678023908.880,-48.340,-27.832,-28.320,12.207,49.316
1678023908.883,-117.676,-30.762,-31.738,12.207,-67.383
1678023908.887,-100.586,-35.156,-38.086,9.766,125.488
1678023908.891,-21.484,-31.738,-36.621,-4.395,275.879
1678023908.895,5.859,-28.320,-34.180,0.488,71.777
1678023908.899,-50.293,-34.668,-36.621,7.812,-62.988
1678023908.901,-116.211,-36.621,-38.574,6.836,-13.672
1678023908.905,-102.051,-34.668,-37.109,-5.371,10.742
1678023908.909,-29.785,-36.621,-38.574,-15.625,-121.094
1678023908.913,2.441,-37.109,-42.969,-0.488,-152.344
1678023908.917,-29.785,-37.598,-44.434,7.812,-136.719
1678023908.921,-94.727,-35.156,-43.945,6.348,-41.016
1678023908.925,-92.773,-31.738,-43.457,5.859,51.758
1678023908.928,-11.230,-31.250,-43.945,-5.859,51.270
1678023908.932,3.418,-35.156,-43.945,3.418,257.324
1678023908.936,-41.992,-37.598,-40.527,9.766,122.559
1678023908.940,-93.750,-35.156,-34.668,-0.488,-160.645
1678023908.944,-100.098,-32.227,-28.320,4.883,-91.797
1678023908.946,-27.344,-25.879,-26.855,-8.301,-99.121
1678023908.950,20.020,-27.344,-29.297,-4.395,-99.609
1678023908.954,-6.836,-32.715,-28.320,12.207,-91.309
1678023908.958,-71.777,-32.227,-28.320,9.277,-9.277
1678023908.962,-94.238,-33.203,-35.156,9.277,-3.418
1678023908.966,-36.133,-32.715,-34.180,-1.465,-39.551
1678023908.970,12.695,-36.621,-34.180,-4.395,-40.039
1678023908.973,-7.812,-38.086,-39.551,12.207,130.859
1678023908.977,-70.801,-36.133,-39.062,9.277,161.133
1678023908.981,-100.098,-39.062,-40.527,7.324,-71.777
1678023908.985,-46.387,-39.551,-41.992,2.930,-77.637
1678023908.989,12.207,-39.551,-44.434,1.953,139.648
1678023908.991,13.184,-30.273,-42.480,14.648,94.238
1678023908.995,-41.016,-18.555,-32.715,20.020,-208.496
1678023908.999,-86.914,-16.602,-24.902,31.250,-173.340
1678023909.003,-46.875,-21.973,-24.902,25.391,-91.797
1678023909.007,27.344,-16.602,-23.438,23.438,-95.703
1678023909.011,23.926,-9.766,-22.461,40.039,-86.914
1678023909.015,-47.852,-13.184,-23.438,40.527,23.438
1678023909.018,-92.285,-16.602,-25.391,37.598,151.855
1678023909.022,-44.922,-14.160,-24.414,25.879,-8.789
1678023909.026,20.508,-6.836,-15.137,19.531,-183.594
1678023909.030,15.137,-1.465,-14.648,39.062,-98.633
1678023909.034,-35.645,-7.812,-14.648,41.016,-10.254
1678023909.039,-82.520,-19.043,-13.184,30.762,-50.781
1678023909.043,-48.828,-18.066,-17.090,27.344,-204.590
1678023909.047,26.367,-13.184,-14.648,34.668,-58.105
1678023909.051,42.480,-14.160,-10.254,46.387,86.914
1678023909.055,-11.719,-16.113,-9.277,38.574,-133.789
1678023909.059,-71.289,-14.648,-12.207,41.504,-177.734
1678023909.063,-47.852,-12.207,-13.184,50.781,127.930
1678023909.066,15.137,-11.230,-14.648,33.203,187.500
1678023909.070,35.645,-8.789,-19.043,36.133,-102.051
1678023909.074,19.043,-6.348,-14.648,65.918,-160.645
1678023909.078,-53.711,-3.906,-4.883,58.594,-82.520
1678023909.082,-82.031,-5.371,0.977,24.414,-128.418
1678023909.083,-24.414,-7.324,-6.836,-1.465,-213.379
1678023909.087,-9.766,-2.930,-10.254,-11.230,-167.969
1678023909.091,-58.594,-1.465,-11.230,-13.184,16.113
1678023909.095,-130.859,-2.441,-19.043,-32.227,-53.711
1678023909.099,-137.695,-7.324,-15.137,-34.180,-171.875
1678023909.103,-69.336,-2.441,-12.695,-39.551,-110.352
1678023909.107,-35.156,-2.441,-19.043,-25.391,201.172
1678023909.110,-63.477,-6.348,-24.902,-16.602,292.969
1678023909.114,-126.465,-10.742,-24.902,-33.691,-64.453
1678023909.118,-127.441,-14.160,-15.625,-18.066,-78.125
1678023909.122,-59.082,-16.113,-14.160,-20.508,-69.336
1678023909.126,-6.836,-15.137,-14.648,-16.602,-129.395
1678023909.141,-8.789,-5.859,-10.254,-1.953,-137.207
1678023909.145,-79.102,-10.742,-10.254,-7.324,-76.172
1678023909.149,-110.840,-16.113,-13.672,-0.977,-81.055
1678023909.153,-41.016,-13.184,-16.113,-5.859,-188.477
1678023909.157,18.555,-12.695,-12.207,-3.418,-163.086
1678023909.161,6.348,-13.672,-7.324,14.648,61.523
1678023909.165,-53.223,-18.066,-7.812,11.719,209.961
1678023909.168,-89.355,-19.531,-5.859,6.348,-27.832
1678023909.172,-45.898,-20.508,-10.742,-11.230,-157.227
1678023909.176,12.695,-21.484,-14.160,-12.207,-80.566
1678023909.180,2.441,-20.508,-5.371,1.465,-81.055
1678023909.184,-58.594,-18.066,-4.395,-11.230,-134.766
1678023909.186,-91.309,-15.625,-4.395,-9.277,-113.770
1678023909.190,-42.969,-19.531,1.465,-4.883,-22.949
1678023909.194,24.414,-24.414,1.953,-11.230,-53.711
1678023909.198,25.879,-24.414,-0.977,-5.859,-180.176
1678023909.202,-33.203,-21.973,-1.953,-7.324,-100.586
1678023909.206,-91.797,-20.508,-3.418,0.000,42.480
1678023909.210,-67.383,-27.832,-14.160,-14.160,20.508
1678023909.213,5.371,-29.297,-19.531,-34.180,-54.688
1678023909.217,17.090,-27.344,-18.066,-12.695,-54.688
1678023909.221,-38.086,-25.391,-16.602,9.766,267.090
1678023909.225,-88.379,-20.020,-17.090,15.625,195.312
1678023909.229,-62.012,-20.508,-18.066,1.465,-119.141
1678023909.231,4.883,-22.461,-13.672,-12.207,-77.637
1678023909.235,20.508,-25.391,-14.648,-7.324,-95.703
1678023909.239,-20.996,-23.926,-13.672,-16.602,-157.227
1678023909.243,-88.867,-25.391,-15.625,-21.484,-180.176
1678023909.247,-84.961,-28.809,-22.461,-15.137,-141.602
1678023909.251,-16.602,-30.762,-24.902,-28.320,0.977
1678023909.255,6.836,-27.832,-21.973,-27.344,9.766
1678023909.258,-25.391,-26.367,-18.066,-22.949,-139.160
1678023909.262,-90.332,-30.762,-21.484,-16.602,53.711
1678023909.266,-99.609,-34.180,-22.461,-13.672,244.141
1678023909.270,-21.484,-29.785,-21.484,-31.250,0.000
1678023909.274,18.555,-27.832,-20.996,-24.902,-94.238
1678023909.276,-18.066,-31.738,-21.484,-14.648,111.816
1678023909.280,-92.285,-34.668,-22.949,-17.578,134.766
1678023909.284,-110.840,-34.180,-27.344,-32.227,-155.273
1678023909.288,-36.621,-30.273,-30.762,-45.410,-210.449
1678023909.292,9.277,-29.785,-26.367,-36.133,-146.973
1678023909.296,-19.043,-36.133,-21.484,-24.902,-53.711
1678023909.300,-85.938,-39.062,-19.531,-19.043,-85.449
1678023909.303,-107.422,-38.086,-20.508,-26.367,-86.914
1678023909.307,-40.039,-39.062,-22.949,-44.434,125.000
1678023909.311,10.742,-42.969,-25.391,-47.852,54.688
1678023909.315,-15.625,-42.480,-24.902,-38.086,-159.180
1678023909.319,-87.402,-41.016,-24.902,-38.574,-93.750
1678023909.321,-120.117,-40.527,-29.297,-33.203,-29.785
1678023909.325,-62.012,-37.109,-26.367,-36.621,-119.141
1678023909.329,0.000,-33.691,-16.113,-30.273,-195.801
1678023909.333,-1.465,-30.273,-15.137,-20.996,-79.590
1678023909.337,-67.871,-30.273,-15.625,-24.414,-17.578
1678023909.341,-113.281,-29.297,-18.066,-14.160,-3.418
1678023909.345,-54.688,-29.297,-20.020,-23.926,-67.871
1678023909.348,7.812,-31.250,-17.090,-31.250,11.230
1678023909.352,0.000,-33.691,-23.926,-20.020,122.559
1678023909.356,-58.594,-35.156,-27.832,-24.902,-151.855
1678023909.360,-107.910,-32.715,-29.297,-23.926,-184.570
1678023909.364,-74.707,-36.133,-33.203,-32.715,-0.488
1678023909.383,-8.789,-35.645,-38.574,-49.316,13.672
1678023909.387,5.859,-33.691,-36.133,-35.645,-121.582
1678023909.391,-50.781,-34.668,-29.297,-31.738,-83.496
1678023909.395,-104.980,-33.203,-29.297,-39.551,-13.672
1678023909.399,-69.824,-33.691,-27.344,-38.086,-77.148
1678023909.403,1.953,-35.156,-26.855,-32.227,-57.617
1678023909.407,7.812,-29.785,-26.855,-17.578,9.277
1678023909.410,-52.734,-28.320,-24.902,-26.855,101.074
1678023909.414,-122.559,-34.668,-26.367,-44.922,-1.465
1678023909.418,-100.586,-33.691,-29.297,-44.434,-165.527
1678023909.422,-22.949,-30.762,-34.180,-52.734,-125.977
1678023909.426,-2.441,-32.227,-40.527,-47.852,-104.980
1678023909.411,-36.621,-28.320,-37.109,-32.227,-152.344
1678023909.415,-94.727,-21.484,-31.250,-34.668,-125.488
1678023909.419,-83.496,-20.508,-29.785,-39.551,-51.270
1678023909.423,-3.418,-18.555,-33.203,-51.758,-87.402
1678023909.427,17.090,-16.602,-31.738,-33.691,-124.512
1678023909.431,-24.902,-20.508,-27.832,-20.020,-87.402
1678023909.435,-92.773,-21.484,-28.809,-29.297,11.230
1678023909.438,-94.727,-19.531,-29.297,-33.203,-5.371
1678023909.442,-15.137,-13.672,-28.809,-37.598,-140.625
1678023909.446,22.949,-15.625,-23.438,-29.297,-210.449
1678023909.450,-10.254,-20.508,-20.508,-13.672,84.961
1678023909.454,-78.613,-20.996,-23.438,-5.859,410.645
1678023909.456,-96.680,-23.438,-30.273,-19.531,45.410
1678023909.460,-17.578,-22.949,-25.391,-29.785,-202.148
1678023909.464,34.668,-15.137,-17.090,-17.090,-125.977
1678023909.468,0.488,-14.160,-17.090,-6.836,-173.340
1678023909.472,-70.801,-16.113,-15.137,-10.742,-231.934
1678023909.476,-86.914,-13.184,-14.648,-14.648,-94.238
1678023909.480,-25.391,-18.555,-19.043,-31.250,119.141
1678023909.483,17.578,-18.066,-23.438,-37.598,-8.789
1678023909.487,6.348,-11.230,-20.996,-22.461,-178.711
1678023909.491,-60.059,-14.160,-20.996,-22.461,-105.469
1678023909.495,-105.957,-14.648,-25.391,-17.578,21.484
1678023909.499,-49.316,-14.648,-24.902,-25.879,-96.680
1678023909.501,15.625,-18.555,-26.855,-33.203,-219.727
1678023909.505,1.953,-15.625,-32.715,-23.926,-144.531
1678023909.509,-65.430,-17.578,-36.621,-30.762,-116.211
1678023909.513,-116.699,-25.879,-38.574,-28.809,-165.039
1678023909.517,-72.754,-23.438,-38.086,-44.434,-137.695
1678023909.521,-3.906,-20.996,-36.621,-48.340,97.656
1678023909.525,-2.441,-23.926,-32.715,-33.691,103.516
1678023909.528,-61.035,-21.973,-35.645,-42.480,-188.477
1678023909.532,-112.305,-21.484,-35.156,-33.691,-206.055
1678023909.536,-76.172,-18.066,-30.762,-27.832,155.762
1678023909.540,-17.090,-18.066,-36.621,-44.434,261.719
1678023909.544,-2.441,-18.066,-42.969,-46.387,-96.191
1678023909.561,-48.340,-16.113,-40.527,-42.969,-186.035
1678023909.565,-109.863,-11.719,-38.086,-36.133,-21.484
1678023909.569,-77.148,-6.348,-32.715,-30.762,-57.617
1678023909.573,-0.488,-13.184,-29.297,-41.504,-205.078
1678023909.577,7.324,-18.555,-26.855,-37.109,-101.562
1678023909.581,-36.133,-14.160,-21.973,-25.391,31.250
1678023909.585,-99.121,-17.578,-23.926,-28.320,27.344
1678023909.588,-91.309,-24.902,-23.438,-42.969,-80.078
1678023909.592,-12.695,-25.879,-24.414,-53.711,-110.840
1678023909.596,8.789,-25.879,-30.273,-41.504,80.078
1678023909.600,-32.715,-22.461,-29.785,-36.133,-1.953
1678023909.604,-90.820,-19.043,-23.438,-37.598,-139.160
1678023909.606,-95.703,-26.855,-24.414,-41.016,-44.922
1678023909.610,-19.043,-29.785,-27.344,-40.527,-5.859
1678023909.614,30.273,-21.484,-23.438,-35.156,-172.363
1678023909.618,-7.812,-18.555,-23.926,-38.574,-185.547
1678023909.622,-85.449,-19.043,-24.414,-45.410,-46.875
1678023909.626,-92.773,-22.461,-22.461,-43.945,-22.949
1678023909.630,-15.625,-24.414,-27.832,-39.062,-92.773
1678023909.633,30.273,-19.531,-29.785,-19.531,-138.672
1678023909.637,-1.953,-16.602,-19.043,-4.395,38.574
1678023909.641,-77.637,-15.625,-13.672,-18.066,165.527
1678023909.645,-85.938,-16.113,-23.438,-24.902,-41.992
1678023909.649,3.906,-3.418,-23.438,-19.043,-130.859
1678023909.652,55.176,3.906,-27.832,-14.160,-29.297
1678023909.656,32.715,0.000,-38.574,-4.395,50.293
1678023909.660,-30.762,4.395,-36.133,-5.859,-116.699
1678023909.664,-63.477,4.883,-41.992,-6.836,-119.629
1678023909.668,6.836,2.441,-50.781,-7.812,19.043
1678023909.672,72.266,4.395,-51.270,4.883,-52.246
1678023909.676,62.500,11.230,-54.199,22.949,-104.492
1678023909.679,-7.324,13.184,-52.246,15.625,-21.973
1678023909.683,-50.293,8.789,-53.223,28.320,109.863
1678023909.687,11.719,15.137,-55.664,29.785,1.953
1678023909.691,82.520,17.578,-46.875,23.926,-126.465
1678023909.695,75.195,12.207,-43.945,45.410,-88.379
1678023909.696,0.977,8.789,-45.898,44.922,-154.785
1678023909.700,-64.453,-6.836,-46.387,44.434,-160.645
1678023909.704,-12.695,-13.672,-45.410,39.062,-133.301
1678023909.708,72.754,-0.977,-46.387,25.391,-108.398
1678023909.712,71.777,-0.488,-46.875,44.434,-62.500
1678023909.716,7.812,0.488,-43.457,50.293,-89.844
1678023909.720,-54.199,0.977,-42.480,44.922,-74.707
1678023909.723,-20.508,-4.395,-42.480,32.227,41.992
1678023909.727,58.105,-9.277,-45.410,31.250,125.000
1678023909.731,61.523,-9.277,-46.387,36.133,-88.379
1678023909.735,-0.488,-10.254,-41.504,17.090,-112.793
1678023909.739,-55.176,-4.395,-36.133,23.438,109.375
1678023909.756,-37.109,0.488,-33.691,25.879,21.484
1678023909.760,30.762,-5.371,-31.250,16.602,-161.133
1678023909.764,46.875,-4.883,-25.879,26.855,-128.418
1678023909.768,5.371,-9.277,-25.391,24.902,-58.594
1678023909.772,-53.711,-11.230,-21.484,19.043,-86.426
1678023909.776,-49.316,-11.719,-15.137,18.066,-133.789
1678023909.780,31.250,-9.277,-14.160,15.625,-45.898
1678023909.783,60.059,-11.719,-15.625,30.762,332.031
1678023909.787,16.602,-11.719,-20.508,36.621,267.090
1678023909.791,-59.082,-12.695,-22.461,26.367,-115.723
1678023909.795,-70.801,-21.973,-21.484,19.531,-76.660
1678023909.799,14.160,-20.020,-21.973,6.348,-88.867
1678023909.786,56.641,-18.066,-20.020,1.465,-134.277
1678023909.790,8.301,-23.438,-21.973,-0.488,-177.246
1678023909.794,-74.707,-22.461,-26.367,3.906,-120.605
1678023909.798,-96.191,-21.484,-25.879,8.789,-139.648
1678023909.802,-12.695,-25.391,-27.344,-12.695,-245.117
1678023909.806,45.898,-27.344,-26.855,-5.859,-62.988
1678023909.810,8.301,-33.203,-26.855,4.883,143.066
1678023909.813,-70.801,-36.621,-26.367,-7.812,40.527
1678023909.817,-97.656,-37.598,-21.973,-1.953,-9.766
1678023909.821,-30.762,-33.691,-18.066,-10.254,-57.617
1678023909.825,26.855,-28.809,-17.090,-8.301,76.660
1678023909.829,12.207,-25.879,-15.137,10.742,427.246
1678023909.831,-50.781,-24.414,-17.578,3.418,125.977
1678023909.835,-91.309,-24.902,-18.066,3.418,-177.734
1678023909.839,-41.992,-25.391,-19.531,-17.578,-105.469
1678023909.843,29.297,-24.414,-21.973,-21.973,-128.906
1678023909.847,20.996,-20.508,-18.066,4.883,-182.129
1678023909.851,-41.504,-18.066,-20.020,1.953,-27.832
1678023909.855,-88.379,-20.996,-24.414,3.906,295.898
1678023909.858,-43.945,-23.926,-27.832,-7.812,78.125
1678023909.862,28.809,-17.578,-23.926,-13.184,-219.727
1678023909.866,35.156,-11.230,-16.602,6.836,-73.730
1678023909.870,-29.785,-15.625,-14.160,7.812,-2.441
1678023909.874,-79.590,-19.043,-12.695,5.859,-108.398
1678023909.891,-30.273,-16.602,-8.789,-0.977,-131.348
1678023909.895,28.320,-14.648,-5.371,-2.930,44.922
1678023909.899,32.715,-12.207,-7.812,14.160,96.191
1678023909.903,-10.742,-20.508,-11.719,13.184,-70.312
1678023909.907,-72.754,-24.414,-14.648,12.207,-156.738
1678023909.911,-47.363,-20.020,-12.207,10.742,64.941
1678023909.915,37.109,-19.531,-13.184,1.465,139.648
1678023909.918,50.781,-19.043,-15.625,5.859,-115.234
1678023909.922,-4.883,-20.020,-15.625,10.254,-186.523
1678023909.926,-72.266,-22.949,-14.160,9.766,-76.172
1678023909.930,-54.199,-26.367,-14.160,5.859,13.672
1678023909.934,28.809,-24.902,-18.066,-7.324,-84.473
1678023909.936,54.688,-27.344,-23.926,-11.230,-117.676
1678023909.940,4.883,-24.414,-20.508,-4.883,154.297
1678023909.944,-70.312,-22.461,-18.555,0.000,143.555
1678023909.948,-69.824,-29.785,-24.902,-8.301,-97.168
1678023909.952,15.625,-26.367,-24.902,-14.160,-82.031
1678023909.956,57.617,-26.855,-17.578,2.441,27.832
1678023909.960,13.184,-34.180,-12.207,-0.977,77.637
1678023909.963,-65.430,-39.062,-13.672,-13.184,-81.543
1678023909.967,-69.336,-42.480,-16.602,-10.254,-99.121
1678023909.971,7.324,-35.156,-13.672,-18.066,92.285
1678023909.975,49.805,-30.273,-7.812,-17.090,-22.461
1678023909.979,16.602,-39.062,-6.348,-14.648,-156.250
1678023909.981,-54.199,-43.457,-14.160,-23.926,-76.660
1678023909.985,-72.266,-39.062,-23.926,-29.297,-53.711
1678023909.989,-11.719,-43.457,-27.832,-44.434,-110.840
1678023909.993,42.480,-47.852,-24.902,-41.992,-100.586
1678023909.997,32.227,-37.109,-18.555,-29.785,72.754
1678023910.001,-25.879,-32.227,-16.113,-19.043,123.535
1678023910.005,-46.387,-33.203,-16.602,-7.812,-28.809
1678023910.008,1.953,-28.809,-14.160,-41.992,-149.414
1678023910.012,42.969,-26.855,-16.602,-57.617,70.312
1678023910.016,27.832,-22.949,-23.926,-45.410,190.430
1678023910.020,-37.109,-24.414,-23.438,-55.176,-10.742
1678023910.024,-85.449,-31.738,-22.461,-37.109,10.742
1678023910.026,-43.945,-32.227,-24.414,-53.223,-38.574
1678023910.030,20.508,-30.273,-25.879,-78.125,-117.676
1678023910.034,24.902,-29.785,-29.785,-60.547,-186.035
1678023910.038,-43.945,-33.203,-34.668,-58.105,-146.973
1678023910.042,-98.145,-34.668,-37.109,-56.641,38.574
1678023910.046,-38.574,-36.133,-35.156,-53.223,60.547
1678023910.050,37.109,-35.645,-31.738,-49.316,-22.949
1678023910.053,38.086,-31.250,-29.785,-40.039,20.996
1678023910.057,-18.066,-27.832,-24.902,-24.902,286.133
1678023910.061,-83.008,-37.598,-21.484,-17.090,263.672
1678023910.065,-45.410,-39.062,-19.531,-41.992,-114.746
1678023910.069,42.969,-31.738,-19.043,-56.152,-149.414
1678023910.071,44.922,-36.133,-23.438,-41.992,-29.297
1678023910.075,-24.414,-38.574,-24.414,-40.527,-100.586
1678023910.079,-93.262,-37.598,-23.926,-34.668,-156.738
1678023910.083,-60.547,-32.227,-16.602,-33.691,-56.152
1678023910.087,23.438,-28.320,-9.766,-51.758,-71.289
1678023910.091,39.551,-30.273,-13.672,-42.969,-13.672
1678023910.095,-10.742,-27.832,-19.531,-36.133,14.648
1678023910.098,-86.426,-25.879,-13.184,-28.809,127.441
1678023910.102,-86.426,-27.832,-17.090,-33.203,317.383
1678023910.106,-7.812,-31.738,-23.438,-52.734,-6.348
1678023910.110,25.391,-32.227,-27.344,-34.668,-141.113
1678023910.114,-10.742,-30.762,-29.297,-27.344,9.277
1678023910.116,-85.449,-33.203,-20.020,-26.855,-35.156
1678023910.120,-85.938,-28.809,-17.090,-22.949,-153.809
1678023910.124,3.418,-27.832,-16.602,-32.227,-94.727
1678023910.128,53.223,-32.227,-19.043,-28.320,-12.695
1678023910.132,11.230,-32.715,-16.113,-10.254,-33.203
1678023910.136,-69.824,-31.738,-17.578,-2.441,-52.246
1678023910.140,-77.148,-33.691,-22.461,4.883,73.242
1678023910.143,6.348,-32.227,-16.113,4.395,246.582
1678023910.147,57.617,-31.250,-17.578,2.930,45.898
1678023910.151,19.531,-34.668,-20.020,-0.977,-220.703
1678023910.155,-60.547,-32.715,-25.879,-16.113,-57.129
1678023910.159,-74.707,-36.133,-27.344,-0.488,100.098
1678023910.164,-10.254,-40.039,-10.742,-4.395,-49.316
1678023910.168,2.441,-41.016,-2.441,-38.574,-112.305
1678023910.172,-45.898,-41.992,-6.836,-49.316,-77.148
1678023910.176,-121.582,-51.758,-2.441,-55.176,-63.477
1678023910.180,-174.316,-56.152,10.742,-65.918,-92.285
1678023910.184,-133.301,-51.758,13.184,-88.867,-145.996
1678023910.188,-76.660,-59.082,9.277,-93.262,124.023
1678023910.191,-96.191,-61.035,15.137,-83.008,283.691
1678023910.195,-177.246,-61.035,25.391,-101.074,-30.273
1678023910.199,-219.238,-64.941,26.855,-90.332,-101.074
1678023910.203,-165.039,-65.918,25.391,-85.938,9.766
1678023910.207,-91.797,-68.359,24.414,-96.680,-11.230
1678023910.208,-84.961,-67.383,25.391,-82.520,-62.500
1678023910.212,-148.438,-64.941,21.484,-80.566,-19.043
1678023910.216,-197.266,-61.035,16.113,-67.871,-62.988
1678023910.220,-144.043,-60.059,11.719,-56.641,-123.535
1678023910.224,-61.523,-67.871,6.836,-59.570,-133.789
1678023910.228,-43.457,-68.848,3.906,-45.898,-123.047
1678023910.232,-94.238,-66.895,0.977,-29.785,289.551
1678023910.235,-160.156,-71.289,-3.906,-16.113,377.441
1678023910.239,-124.512,-71.777,-7.812,-31.250,-42.969
1678023910.243,-39.062,-71.289,-10.254,-49.316,-74.707
1678023910.247,-18.066,-70.801,-10.742,-26.367,-76.660
1678023910.251,-63.965,-61.035,-12.207,-19.531,-167.480
1678023910.267,-132.812,-55.664,-12.207,-14.160,-178.223
1678023910.271,-115.234,-56.152,-12.207,-9.766,-132.324
1678023910.275,-22.461,-50.293,-11.230,-25.879,-40.039
1678023910.279,17.578,-42.969,-7.812,-19.043,3.906
1678023910.283,-22.461,-39.551,-3.906,-13.184,-157.715
1678023910.287,-99.121,-41.016,-1.465,0.977,81.543
1678023910.291,-107.422,-43.945,-12.207,3.418,369.141
1678023910.294,-25.391,-49.805,-23.926,-22.949,-29.785
1678023910.298,16.602,-46.875,-23.438,-21.973,-204.102
1678023910.302,-20.996,-39.551,-20.996,-10.742,-71.289
1678023910.306,-94.238,-41.992,-20.020,-7.812,24.902
1678023910.310,-103.027,-50.781,-30.273,-23.926,-32.227
1678023910.311,-15.625,-50.781,-34.668,-42.969,-183.105
1678023910.315,28.809,-50.293,-29.297,-25.391,60.547
1678023910.319,-8.789,-54.199,-30.273,-13.672,155.762
1678023910.323,-78.125,-50.293,-26.855,-4.883,-151.367
1678023910.327,-115.234,-49.316,-27.344,-3.418,-137.207
1678023910.331,-46.387,-48.828,-31.738,-27.832,-25.879
1678023910.335,15.625,-41.504,-27.832,-27.344,-38.574
1678023910.338,-4.395,-34.668,-20.020,-14.160,-157.227
1678023910.342,-77.637,-31.738,-19.043,-16.602,-163.574
1678023910.346,-126.953,-34.668,-25.391,-11.719,120.605
1678023910.350,-63.965,-41.016,-32.715,-30.762,-12.207
1678023910.354,1.953,-42.480,-32.715,-43.945,-199.707
1678023910.371,-15.625,-42.480,-28.320,-33.691,-74.219
1678023910.375,-91.797,-43.457,-27.832,-37.109,-128.906
1678023910.379,-136.230,-38.086,-33.203,-24.414,-149.902
1678023910.383,-62.012,-29.785,-29.785,-20.996,-127.930
1678023910.387,7.812,-30.273,-28.320,-33.203,-142.578
1678023910.391,-14.648,-29.785,-28.320,-25.391,-27.344
1678023910.395,-86.914,-30.762,-20.996,-28.320,70.312
1678023910.398,-126.465,-33.203,-21.973,-27.344,-60.547
1678023910.402,-81.055,-31.738,-24.414,-36.621,-24.902
1678023910.406,-9.766,-26.855,-22.949,-48.828,171.875
1678023910.410,2.441,-21.973,-23.926,-40.527,8.789
1678023910.414,-62.012,-29.785,-25.879,-46.387,-86.914
1678023910.401,-125.977,-34.180,-32.227,-48.828,33.203
1678023910.405,-83.008,-25.879,-26.855,-46.387,-64.941
1678023910.409,4.395,-24.902,-24.902,-57.129,-177.734
1678023910.413,11.230,-29.785,-36.133,-59.082,-102.051
1678023910.417,-50.781,-29.785,-39.551,-54.199,-86.426
1678023910.421,-115.234,-32.715,-38.086,-39.062,10.254
1678023910.425,-83.496,-28.320,-25.879,-31.738,50.781
1678023910.428,8.789,-23.438,-19.531,-37.109,19.531
1678023910.432,34.180,-27.832,-26.367,-35.645,5.371
1678023910.436,-10.254,-26.855,-29.297,-30.273,-36.621
1678023910.440,-96.680,-29.297,-31.250,-25.391,-60.059
1678023910.444,-102.051,-35.156,-30.762,-30.273,-77.637
1678023910.448,-15.137,-35.156,-24.902,-29.297,166.992
1678023910.452,14.648,-35.156,-29.297,-30.762,45.898
1678023910.456,-27.832,-35.156,-31.250,-30.762,-180.176
1678023910.460,-105.469,-28.809,-28.320,-20.508,-49.805
1678023910.464,-101.562,-20.508,-26.855,-11.719,-68.848
1678023910.468,-4.883,-17.578,-21.484,-19.043,-58.105
1678023910.472,31.738,-20.996,-20.508,-17.090,1.953
1678023910.475,-3.418,-19.043,-19.531,-5.371,132.324
1678023910.479,-78.613,-18.066,-19.043,2.441,154.785
1678023910.483,-94.238,-21.484,-24.902,0.488,-93.750
1678023910.487,-8.789,-18.555,-22.949,-15.137,-158.691
1678023910.491,40.039,-18.066,-18.555,-16.602,94.727
1678023910.491,7.324,-19.531,-20.508,-6.836,150.391
1678023910.495,-68.848,-19.043,-20.508,-7.812,-126.953
1678023910.499,-97.656,-17.090,-18.066,-0.488,-133.301
1678023910.503,-19.043,-11.230,-22.461,-19.043,-74.707
1678023910.507,41.992,-6.348,-28.809,-26.855,-160.156
1678023910.511,14.648,-3.418,-26.367,-6.348,-192.871
1678023910.515,-62.988,-3.418,-26.367,-11.230,-111.816
1678023910.518,-92.773,-9.277,-27.832,-12.695,203.613
1678023910.522,-14.648,-8.301,-25.391,-25.391,172.363
1678023910.526,43.945,-7.812,-24.902,-39.062,-135.742
1678023910.530,20.508,-12.695,-22.949,-23.926,-120.605
1678023910.534,-53.711,-17.578,-19.043,-19.043,-80.078
1678023910.538,-104.980,-19.531,-17.578,-14.648,-120.605
1678023910.542,-44.922,-14.648,-22.949,-21.484,-187.500
1678023910.546,32.715,-11.230,-24.902,-24.902,-43.457
1678023910.550,19.043,-12.207,-26.367,-19.043,35.645
1678023910.554,-53.223,-12.207,-27.832,-29.785,-104.492
1678023910.558,-104.492,-7.812,-24.902,-24.414,-87.402
1678023910.562,-64.941,-7.812,-20.020,-26.855,125.977
1678023910.565,19.531,-17.578,-23.438,-33.691,227.539
1678023910.569,24.414,-20.020,-27.832,-36.621,15.625
1678023910.573,-55.664,-22.949,-23.438,-37.598,-83.984
1678023910.577,-112.305,-24.902,-18.555,-23.926,5.371
1678023910.581,-71.777,-23.926,-17.578,-36.133,-38.086
1678023910.582,11.719,-21.484,-20.996,-56.152,-150.391
1678023910.586,28.809,-18.066,-20.996,-47.363,-106.445
1678023910.590,-25.879,-20.996,-26.855,-35.156,-6.348
1678023910.594,-83.984,-13.184,-28.809,-23.926,-3.906
1678023910.598,-58.105,-9.766,-25.879,-25.391,-66.895
1678023910.602,20.996,-7.324,-32.227,-39.551,-54.688
1678023910.606,41.016,0.488,-36.133,-20.508,287.109
1678023910.609,-13.672,-3.906,-38.086,-10.742,233.398
1678023910.613,-88.379,-8.789,-40.039,-20.508,-145.508
1678023910.617,-83.008,-6.836,-40.039,-30.762,-89.355
1678023910.621,0.977,-7.812,-43.457,-48.340,-90.332
1678023910.625,30.762,-9.277,-42.969,-40.527,-199.707
1678023910.642,-16.602,-8.789,-46.875,-34.180,-188.477
1678023910.646,-89.355,-11.719,-49.316,-32.227,-65.918
1678023910.650,-100.586,-17.090,-43.457,-30.762,-3.418
1678023910.654,-17.090,-19.043,-37.598,-44.434,-86.914
1678023910.658,33.203,-22.461,-39.551,-47.852,-157.715
1678023910.662,-16.602,-22.949,-41.992,-38.086,-56.641
1678023910.666,-91.309,-20.020,-41.016,-44.434,22.461
1678023910.669,-106.445,-17.090,-41.992,-46.387,-88.379
1678023910.673,-43.457,-16.602,-44.434,-53.711,-156.250
1678023910.677,15.137,-21.973,-41.992,-53.223,45.898
1678023910.681,-7.324,-19.043,-45.898,-41.016,208.008
1678023910.685,-81.543,-21.973,-54.199,-42.480,-81.543
1678023910.686,-108.887,-24.902,-54.199,-36.133,-215.820
1678023910.690,-36.621,-20.508,-52.246,-42.480,-24.902
1678023910.694,20.996,-22.461,-51.270,-49.316,-38.574
1678023910.698,5.371,-20.020,-43.945,-37.109,-170.898
1678023910.702,-57.129,-13.184,-33.691,-29.785,-133.789
1678023910.706,-103.027,-18.555,-32.715,-31.250,-32.227
1678023910.710,-48.340,-26.855,-41.016,-43.945,15.137
1678023910.713,32.227,-25.879,-40.039,-45.410,-61.035
1678023910.717,19.043,-24.902,-39.551,-24.902,-115.234
1678023910.721,-64.941,-27.344,-49.316,-28.320,230.957
1678023910.725,-116.211,-26.855,-54.199,-48.340,186.523
1678023910.729,-53.711,-20.996,-47.363,-55.176,-229.980
1678023910.732,18.066,-16.602,-39.062,-48.340,-142.090
1678023910.736,20.020,-15.625,-43.457,-33.203,-78.125
1678023910.740,-39.551,-11.230,-39.551,-41.992,-185.059
1678023910.744,-116.211,-12.695,-41.992,-54.199,-206.055
1678023910.748,-71.777,-17.090,-58.594,-57.617,-127.930
1678023910.752,23.926,-19.531,-43.457,-52.246,-32.227
1678023910.756,10.742,-22.949,-24.902,-55.176,-31.250
1678023910.759,-79.102,-18.555,-24.902,-79.590,-109.863
1678023910.763,-165.527,-20.508,-12.207,-81.055,10.254
1678023910.767,-160.156,-22.949,-3.418,-100.586,81.543
1678023910.771,-95.703,-18.066,3.418,-135.742,-61.035
1678023910.775,-86.426,-15.137,21.973,-140.625,-57.129
1678023910.776,-159.668,-13.672,38.086,-149.414,137.695
1678023910.780,-258.789,-20.996,37.109,-183.105,116.699
1678023910.784,-260.742,-25.391,43.457,-209.473,-176.270
1678023910.788,-189.453,-22.949,63.965,-214.844,-118.652
1678023910.792,-186.035,-33.203,67.871,-231.445,-79.102
1678023910.796,-247.559,-38.574,66.895,-238.281,-41.992
1678023910.800,-317.383,-44.922,78.613,-233.887,-13.184
1678023910.803,-323.730,-50.781,84.961,-251.953,-25.879
1678023910.807,-236.816,-55.176,89.355,-239.746,149.902
1678023910.811,-186.035,-67.383,91.309,-208.984,52.246
1678023910.815,-219.238,-68.848,95.215,-207.031,-177.246
1678023910.819,-303.223,-75.195,96.191,-212.402,-119.141
1678023910.823,-305.176,-78.613,87.402,-214.355,-111.328
1678023910.827,-208.008,-74.219,85.938,-218.750,-160.645
1678023910.831,-164.062,-79.102,86.914,-201.660,-113.770
1678023910.835,-181.641,-80.078,83.496,-169.922,-16.602
1678023910.839,-249.512,-75.195,81.543,-163.086,-50.293
1678023910.843,-254.395,-75.195,78.125,-146.973,-106.934
1678023910.847,-152.344,-75.195,75.195,-130.371,-76.172
1678023910.850,-85.449,-74.707,74.219,-118.164,87.402
1678023910.854,-102.051,-84.961,65.430,-95.215,112.305
1678023910.858,-170.410,-89.844,59.570,-80.566,-85.938
1678023910.862,-187.500,-85.449,64.941,-66.406,9.277
1678023910.866,-109.375,-94.727,56.152,-79.102,128.418
1678023910.866,-40.527,-101.074,41.504,-73.730,35.645
1678023910.870,-37.109,-100.586,37.598,-35.645,-125.000
1678023910.874,-91.309,-101.562,37.598,-26.855,-114.258
1678023910.878,-120.605,-100.098,31.250,-33.203,-47.363
1678023910.882,-51.270,-101.562,24.414,-23.926,-51.758
1678023910.886,37.109,-99.609,20.996,4.883,-40.039
1678023910.890,41.992,-95.703,22.949,21.973,48.828
1678023910.893,-32.715,-97.656,15.625,12.207,234.375
1678023910.897,-78.125,-98.145,3.418,37.109,98.145
1678023910.901,0.488,-91.797,4.883,41.992,-160.645
1678023910.905,73.730,-85.938,9.766,19.531,-49.316
1678023910.909,66.895,-84.473,6.836,35.645,-20.996
1678023910.926,16.113,-81.055,5.859,55.664,-69.824
1678023910.930,-41.504,-79.590,6.348,50.781,-98.633
1678023910.934,8.789,-79.102,7.812,57.129,-75.195
1678023910.938,91.309,-77.148,4.883,63.965,-73.730
1678023910.942,104.980,-71.777,-9.277,72.754,-129.395
1678023910.946,50.293,-77.148,-16.113,73.730,-50.293
1678023910.950,-25.879,-79.590,-11.719,63.477,211.426
1678023910.953,7.324,-70.312,-12.695,67.383,215.820
1678023910.957,104.004,-64.453,-24.902,73.730,-73.730
1678023910.961,134.766,-61.523,-32.715,83.496,-160.645
1678023910.965,84.473,-62.500,-31.250,91.309,124.512
1678023910.969,11.230,-60.547,-29.297,97.168,494.629
1678023910.956,28.809,-57.129,-29.297,90.820,86.914
1678023910.960,120.605,-58.105,-41.992,87.891,-210.449
1678023910.964,152.344,-61.523,-51.758,98.145,-59.570
1678023910.968,103.027,-57.617,-46.387,100.586,-20.508
1678023910.972,29.785,-49.805,-47.363,91.797,-127.441
1678023910.976,29.785,-53.223,-54.199,95.215,-35.645
1678023910.980,114.746,-61.035,-57.617,97.656,125.000
1678023910.983,175.293,-55.664,-61.035,112.793,22.461
1678023910.987,141.602,-49.316,-66.406,126.465,-40.527
1678023910.991,47.852,-51.758,-70.801,92.285,-56.152
1678023910.995,24.414,-53.711,-74.219,83.008,220.215
1678023910.999,103.516,-53.223,-72.754,88.867,149.902
1678023911.001,159.180,-49.805,-61.035,95.703,-194.336
1678023911.005,130.859,-50.293,-60.059,111.816,-55.664
1678023911.009,57.617,-46.875,-68.359,88.867,-69.824
1678023911.013,32.227,-35.156,-67.383,67.383,-160.156
1678023911.017,97.168,-31.250,-67.383,70.801,-153.320
1678023911.021,162.109,-28.809,-71.289,104.492,14.160
1678023911.025,145.996,-27.344,-72.266,120.117,207.031
1678023911.028,42.969,-28.809,-72.754,82.031,13.672
1678023911.032,-7.812,-25.879,-75.684,62.012,-155.762
1678023911.036,62.500,-20.020,-75.684,75.195,48.340
1678023911.040,109.863,-18.555,-79.102,73.730,168.457
1678023911.044,92.285,-20.996,-83.008,58.594,-4.883
1678023911.061,25.391,-22.949,-82.520,43.457,-97.168
1678023911.065,-25.391,-20.508,-83.008,35.156,126.953
1678023911.069,23.438,-20.508,-91.797,20.508,192.383
1678023911.073,92.773,-24.902,-96.680,25.879,-93.262
1678023911.077,83.496,-22.949,-93.750,40.527,-89.844
1678023911.081,9.277,-25.391,-88.867,35.645,42.969
1678023911.085,-49.316,-28.809,-83.008,24.414,35.645
1678023911.088,-0.977,-24.902,-84.961,-3.906,-125.488
1678023911.092,84.473,-20.996,-81.543,8.301,-86.914
1678023911.096,82.031,-13.672,-78.613,34.180,158.691
1678023911.100,13.672,-16.113,-84.473,12.695,8.789
1678023911.104,-39.062,-18.066,-79.102,-2.930,-144.043
1678023911.106,-6.348,-7.324,-71.777,-0.488,-72.266
1678023911.110,71.289,-0.977,-70.801,9.277,-42.969
1678023911.114,87.402,-3.906,-73.242,14.160,-49.805
1678023911.118,23.926,-14.160,-80.566,0.488,-47.363
1678023911.122,-52.246,-12.207,-79.102,-18.066,109.863
1678023911.126,-38.086,-11.719,-78.125,-30.762,114.746
1678023911.130,35.156,-16.113,-78.125,-19.043,12.695
1678023911.133,57.617,-17.578,-81.055,-1.953,-41.992
1678023911.137,6.348,-16.602,-78.125,-10.254,50.781
1678023911.141,-63.965,-15.625,-73.242,-26.855,95.703
1678023911.145,-62.012,-18.066,-70.312,-41.504,-104.980
1678023911.149,4.395,-20.508,-71.777,-47.363,-113.770
1678023911.151,30.273,-19.043,-75.195,-30.273,42.480
1678023911.155,-11.230,-19.043,-80.078,-28.809,30.762
1678023911.159,-61.523,-15.137,-83.496,-51.270,-166.504
1678023911.163,-67.383,-12.695,-76.660,-49.805,-89.355
1678023911.167,-0.488,-14.160,-72.266,-27.832,-3.906
1678023911.171,36.621,-13.184,-65.918,0.000,39.551
1678023911.175,-6.348,-16.113,-65.430,-3.906,44.434
1678023911.178,-73.730,-20.020,-71.777,-41.992,-48.340
1678023911.182,-90.820,-23.438,-70.312,-41.992,80.078
1678023911.186,-15.625,-22.461,-66.406,-26.367,35.156
1678023911.190,42.969,-21.484,-63.477,-18.066,-165.527
1678023911.194,22.461,-16.113,-62.012,-9.766,-127.441
1678023911.196,-44.922,-10.742,-57.129,-25.391,-71.777
1678023911.200,-74.707,-16.113,-60.059,-38.086,-125.000
1678023911.204,-18.066,-17.578,-68.848,-30.762,-170.898
1678023911.208,41.016,-11.230,-66.406,-7.812,-71.777
1678023911.212,21.484,-10.254,-60.059,1.953,-8.301
1678023911.216,-46.387,-10.742,-53.223,-37.109,-48.828
1678023911.220,-70.312,-9.277,-48.828,-61.035,-38.574
1678023911.223,-17.578,-2.930,-45.410,-54.688,127.441
1678023911.227,37.598,3.418,-49.805,-37.109,227.539
1678023911.231,26.367,2.441,-51.758,-50.293,-32.227
1678023911.235,-33.691,3.418,-45.410,-83.008,-190.918
1678023911.239,-90.332,2.441,-42.969,-106.934,14.648
1678023911.241,-57.617,-0.977,-44.434,-106.934,50.293
1678023911.245,15.625,-0.488,-43.945,-88.867,-118.164
1678023911.249,27.344,3.418,-46.387,-104.980,-117.676
1678023911.253,-15.625,5.371,-53.711,-146.973,-67.871
1678023911.257,-52.246,-2.930,-49.805,-169.922,-62.012
1678023911.261,-33.203,-7.324,-44.434,-175.781,-75.684
1678023911.265,13.184,-7.812,-45.410,-154.297,-1.465
1678023911.268,15.137,-15.625,-48.340,-114.746,212.402
1678023911.272,-37.109,-17.578,-52.734,-122.070,117.676
1678023911.276,-89.355,-17.578,-43.457,-140.137,-175.293
1678023911.280,-55.664,-17.090,-39.062,-129.395,-154.785
1678023911.284,7.812,-19.043,-47.363,-104.980,-50.781
1678023911.286,-0.977,-23.926,-50.781,-84.961,-98.633
1678023911.290,-43.945,-22.949,-44.434,-89.355,-138.184
1678023911.294,-90.820,-17.090,-40.527,-95.215,-48.340
1678023911.298,-78.125,-13.672,-37.109,-89.844,-58.594
1678023911.302,-5.371,-16.602,-33.691,-57.617,-112.793
1678023911.306,19.531,-16.602,-31.250,-32.227,-61.523
1678023911.310,-21.973,-11.719,-29.785,-27.832,94.727
1678023911.313,-82.520,-12.695,-31.738,-57.129,152.832
1678023911.317,-77.637,-15.625,-30.273,-76.172,-118.164
1678023911.321,-8.301,-15.625,-28.809,-54.688,-137.207
1678023911.325,13.672,-19.043,-34.668,-33.203,22.461
1678023911.329,-15.625,-15.137,-34.180,-23.438,36.133
1678023911.331,-74.707,-16.113,-34.180,-57.129,-65.918
1678023911.335,-100.098,-24.414,-41.504,-81.055,-158.203
1678023911.339,-40.039,-22.949,-38.086,-52.734,-3.906
1678023911.343,5.371,-19.043,-39.551,-27.832,-4.883
1678023911.347,-13.672,-19.531,-39.551,-24.902,-123.535
1678023911.351,-70.312,-16.113,-34.668,-44.922,-98.633
1678023911.355,-101.562,-19.531,-32.715,-54.688,77.148
1678023911.358,-39.062,-22.461,-27.344,-38.086,47.852
1678023911.362,19.043,-14.160,-23.926,-11.719,-187.988
1678023911.366,-6.836,-10.742,-25.391,-3.906,-113.770
1678023911.370,-72.754,-12.695,-30.762,-36.133,-49.316
1678023911.374,-95.215,-16.113,-35.156,-47.852,-145.996
1678023911.378,-33.691,-15.137,-37.598,-37.598,-108.398
1678023911.382,18.066,-11.719,-38.086,-14.160,39.062
1678023911.386,0.000,-10.742,-36.133,-5.859,75.684
1678023911.390,-62.500,-13.184,-33.691,-38.574,-60.547
1678023911.394,-87.402,-18.066,-34.668,-52.734,-88.867
1678023911.398,-44.922,-25.879,-38.086,-42.480,13.672
1678023911.402,-3.418,-28.320,-41.992,-28.320,86.426
1678023911.405,-14.160,-23.926,-45.410,-30.273,44.434
1678023911.409,-63.477,-21.973,-42.480,-60.547,-84.473
1678023911.413,-95.215,-19.043,-37.109,-76.660,83.984
1678023911.417,-60.059,-14.160,-35.156,-51.758,187.500
1678023911.421,22.461,-15.137,-38.086,-21.484,-40.527
1678023911.436,33.203,-18.555,-42.969,-21.973,-127.930
1678023911.440,-31.738,-14.648,-41.016,-41.016,6.348
1678023911.444,-98.145,-10.254,-38.574,-39.062,7.324
1678023911.448,-89.844,-12.695,-41.992,-27.344,-94.727
1678023911.452,-14.648,-8.789,-37.598,1.953,-21.973
1678023911.456,8.789,-2.441,-32.227,18.066,112.305
1678023911.460,-48.828,2.930,-31.738,-5.371,136.719
1678023911.463,-102.051,8.789,-27.832,-23.438,-34.180
1678023911.467,-70.312,11.719,-25.391,-18.555,-52.246
1678023911.471,-13.672,9.277,-23.438,13.184,162.598
1678023911.475,4.883,13.184,-14.648,32.715,28.809
1678023911.479,-31.250,13.184,-13.184,12.695,-144.531
1678023911.496,-79.590,11.719,-18.066,-14.160,-69.336
1678023911.500,-62.988,13.672,-18.066,-26.367,-39.062
1678023911.504,2.441,13.184,-15.625,-14.160,-84.473
1678023911.508,33.691,13.672,-18.066,8.301,-41.504
1678023911.512,-18.555,8.789,-23.926,-8.789,11.719
1678023911.516,-83.496,6.836,-25.879,-55.664,-27.832
1678023911.520,-82.031,4.395,-23.438,-67.383,-21.484
1678023911.523,-36.133,5.859,-21.973,-64.453,-21.484
1678023911.527,-6.348,6.348,-22.949,-59.570,119.141
1678023911.531,-42.480,0.977,-24.414,-66.406,224.121
1678023911.535,-105.957,1.953,-24.414,-106.934,-3.906
1678023911.539,-117.188,2.441,-19.531,-125.000,-151.855
1678023911.526,-87.891,-2.930,-23.438,-93.750,2.930
1678023911.530,-46.387,-1.953,-31.250,-85.938,-54.688
1678023911.534,-61.035,-6.836,-38.574,-118.164,-239.258
1678023911.538,-138.184,-13.672,-43.945,-146.973,-171.387
1678023911.542,-166.016,-11.719,-47.852,-163.574,-155.762
1678023911.546,-116.699,-11.230,-45.410,-164.062,-146.973
1678023911.550,-71.777,-13.184,-45.410,-157.227,-116.699
1678023911.553,-89.355,-15.137,-53.711,-165.039,-54.199
1678023911.557,-146.484,-14.160,-57.617,-208.984,32.227
1678023911.561,-179.688,-20.996,-63.965,-243.164,-134.277
1678023911.565,-137.207,-23.438,-67.871,-237.793,-289.551
1678023911.569,-95.215,-24.414,-72.754,-214.355,-133.301
1678023911.572,-111.328,-29.785,-78.125,-212.891,264.648
1678023911.576,-168.945,-34.180,-84.473,-250.488,96.680
1678023911.580,-200.684,-34.180,-89.355,-266.113,-256.836
1678023911.584,-168.457,-33.203,-90.332,-245.117,-166.504
1678023911.588,-116.699,-28.320,-87.402,-216.309,-132.324
1678023911.592,-117.188,-20.508,-80.566,-196.289,-68.848
1678023911.596,-169.434,-23.926,-88.867,-221.191,-25.391
1678023911.599,-208.496,-34.668,-98.633,-247.070,123.047
1678023911.603,-185.547,-38.574,-105.469,-234.375,115.234
1678023911.607,-118.164,-40.527,-105.469,-209.961,-153.320
1678023911.611,-104.980,-40.039,-103.516,-201.172,-135.742
1678023911.615,-144.531,-36.133,-103.027,-213.867,90.332
1678023911.616,-172.852,-37.109,-104.980,-238.770,47.363
1678023911.620,-154.785,-39.551,-110.840,-246.582,-230.957
1678023911.624,-105.469,-47.363,-113.281,-212.891,-219.727
1678023911.628,-84.473,-54.199,-116.211,-181.641,-109.375
1678023911.632,-116.211,-49.805,-116.699,-179.199,-131.836
1678023911.636,-158.203,-45.898,-122.559,-202.637,-144.043
1678023911.640,-127.930,-48.828,-126.953,-195.312,-37.598
1678023911.643,-59.082,-48.828,-125.977,-150.391,195.801
1678023911.647,-38.086,-50.781,-129.395,-107.910,89.355
1678023911.651,-52.734,-50.781,-126.465,-83.496,-141.602
1678023911.655,-93.750,-44.434,-119.141,-90.332,-32.227
1678023911.659,-82.520,-42.969,-117.676,-97.656,48.828
1678023911.677,-0.977,-35.645,-110.840,-53.711,-6.348
1678023911.681,33.691,-36.133,-109.863,-7.324,-64.453
1678023911.685,11.719,-35.156,-107.422,17.090,59.082
1678023911.689,-21.484,-24.414,-95.703,9.766,133.789
1678023911.693,-39.062,-25.879,-88.867,0.977,-2.930
1678023911.697,3.906,-22.949,-80.078,41.016,2.441
1678023911.701,42.969,-20.508,-67.871,72.266,257.324
1678023911.704,12.207,-19.531,-62.012,42.480,370.117
1678023911.708,-68.359,-13.184,-55.176,-20.996,82.031
1678023911.712,-104.980,-3.418,-43.945,-57.617,20.020
1678023911.716,-82.520,-8.301,-48.340,-69.336,105.469
1678023911.720,-78.125,-23.926,-45.898,-56.641,127.441
1678023911.722,-98.633,-23.438,-34.180,-41.016,144.531
1678023911.726,-147.949,-8.301,-35.645,-64.453,125.488
1678023911.730,-174.316,-2.930,-35.156,-101.074,250.000
1678023911.734,-114.746,-10.742,-35.645,-89.355,287.598
1678023911.738,-41.504,-17.578,-30.762,-45.410,160.156
1678023911.742,-43.457,-21.484,-20.020,-17.090,187.500
1678023911.746,-111.816,-27.832,-27.344,-18.066,281.250
1678023911.749,-132.324,-33.691,-38.574,-34.668,207.031
1678023911.753,-80.566,-36.133,-31.250,-20.020,52.734
1678023911.757,-20.020,-30.273,-31.250,28.809,139.648
1678023911.761,0.000,-29.785,-39.551,75.684,431.641
1678023911.765,-33.691,-31.738,-38.086,83.008,325.195
1678023911.752,-55.176,-29.297,-38.574,52.246,63.965
1678023911.756,-3.906,-29.785,-48.340,57.129,119.629
1678023911.760,66.895,-32.715,-52.246,96.680,125.488
1678023911.764,83.496,-41.016,-56.152,112.305,52.246
1678023911.768,39.551,-41.016,-59.570,108.398,70.801
1678023911.772,7.812,-36.133,-56.152,101.562,225.586
1678023911.776,39.551,-39.062,-57.617,89.355,199.707
1678023911.779,94.727,-42.969,-62.012,103.027,156.250
1678023911.783,123.047,-37.598,-58.105,127.930,64.941
1678023911.787,81.055,-36.621,-56.152,129.883,201.172
1678023911.791,16.602,-39.062,-66.895,101.074,478.516
1678023911.795,29.297,-37.109,-67.383,72.266,187.012
1678023911.811,95.703,-31.738,-58.105,90.820,-4.883
1678023911.815,117.188,-28.320,-60.059,135.742,134.277
1678023911.819,79.102,-33.691,-57.129,137.695,103.027
1678023911.823,24.902,-33.691,-50.293,89.355,-21.973
1678023911.827,17.578,-29.785,-41.992,76.660,11.230
1678023911.831,73.730,-30.762,-38.086,91.309,104.492
1678023911.835,94.238,-37.109,-41.504,108.398,76.172
1678023911.838,58.105,-39.062,-45.410,109.863,44.434
1678023911.842,3.418,-34.668,-45.898,76.660,72.754
1678023911.846,-14.160,-37.109,-41.992,55.664,290.039
1678023911.850,46.387,-36.621,-40.527,50.781,217.285
1678023911.854,91.309,-39.062,-39.062,76.172,-42.969
1678023911.856,55.664,-46.875,-39.062,87.891,-36.621
1678023911.860,-5.859,-41.992,-33.691,57.129,-58.105
1678023911.864,-18.555,-38.086,-31.738,27.832,-120.117
1678023911.868,25.391,-36.133,-28.320,31.250,-120.605
1678023911.872,67.383,-33.203,-19.043,67.383,-55.664
1678023911.876,54.199,-32.715,-21.484,76.660,-7.324
1678023911.880,-2.441,-34.180,-21.973,40.039,4.883
1678023911.883,-41.016,-40.039,-20.508,1.953,-138.184
1678023911.887,-0.488,-40.039,-20.996,17.578,34.180
1678023911.891,45.410,-34.180,-17.578,62.012,216.309
1678023911.895,34.180,-35.156,-21.973,74.707,10.254
1678023911.899,-10.742,-34.668,-20.996,59.082,-99.121
1678023911.901,-55.664,-32.715,-12.207,44.922,96.680
1678023911.905,-24.414,-36.621,-12.695,53.223,182.617
1678023911.909,41.504,-33.203,-15.137,68.848,-61.035
1678023911.913,46.875,-29.785,-15.625,79.102,-122.070
1678023911.917,-11.230,-37.109,-20.508,47.363,-64.941
1678023911.921,-49.316,-38.574,-25.391,-4.395,-8.789
1678023911.925,-12.207,-37.109,-23.926,-10.254,17.090
1678023911.928,46.875,-34.668,-18.555,25.879,-52.246
1678023911.932,61.523,-32.715,-8.301,59.570,77.637
1678023911.936,5.371,-38.574,-5.371,44.922,24.414
1678023911.940,-63.477,-39.551,-6.836,-4.395,-246.582
1678023911.944,-47.363,-40.527,-5.371,-22.461,-138.672
1678023911.946,9.766,-41.016,-6.836,6.348,-27.344
1678023911.950,17.090,-39.551,-8.789,35.156,-94.238
1678023911.954,-18.555,-42.480,-10.254,5.859,-161.133
1678023911.958,-68.848,-40.527,-11.719,-53.223,-79.102
1678023911.962,-60.547,-37.109,-7.812,-65.430,-23.926
1678023911.966,10.254,-41.992,-7.812,-35.156,-27.344
1678023911.970,30.762,-47.363,-13.672,-14.648,-17.090
1678023911.973,-24.414,-41.016,-13.184,-22.461,73.730
1678023911.977,-88.379,-38.086,-8.789,-50.293,101.562
1678023911.981,-74.707,-44.922,-14.160,-79.590,-199.707
1678023911.985,-13.672,-42.969,-15.625,-69.336,-192.871
1678023911.989,0.488,-41.992,-11.230,-30.273,83.496
1678023911.993,-28.320,-44.434,-12.695,-35.156,9.277
1678023911.997,-77.148,-45.898,-15.137,-83.008,-196.777
1678023912.001,-92.773,-50.781,-14.648,-116.699,-82.520
1678023912.005,-38.086,-53.711,-13.184,-99.609,-52.734
1678023912.009,10.742,-48.828,-8.301,-53.711,-184.570
1678023912.013,-10.742,-37.598,-7.324,-35.645,-145.508
1678023912.017,-71.777,-33.691,-10.254,-77.148,-67.871
1678023912.020,-95.703,-38.086,-13.184,-114.258,96.680
1678023912.024,-58.594,-41.992,-17.090,-103.516,-37.109
1678023912.028,-10.254,-40.527,-20.020,-82.520,-301.270
1678023912.032,-15.137,-40.527,-22.461,-80.078,-193.848
1678023912.036,-76.172,-40.039,-14.648,-104.004,-175.293
1678023912.037,-111.816,-42.480,-6.836,-122.559,-261.230
1678023912.041,-55.176,-38.574,-5.371,-112.793,-242.188
1678023912.045,4.883,-32.227,-4.395,-77.637,-196.289
1678023912.049,-4.395,-34.668,-5.859,-37.109,-156.250
1678023912.053,-63.965,-32.227,-6.836,-56.152,-131.836
1678023912.057,-104.492,-31.738,-5.371,-102.539,-119.629
1678023912.061,-58.105,-33.691,-4.883,-104.980,23.438
1678023912.064,0.977,-33.691,-7.324,-72.266,129.395
1678023912.068,3.418,-30.762,-9.766,-56.641,-152.832
1678023912.072,-51.758,-27.344,-11.719,-85.938,-282.227
1678023912.076,-96.191,-21.973,-3.906,-111.816,20.508
1678023912.080,-65.430,-23.438,-2.930,-98.633,153.809
1678023912.081,-1.465,-31.738,-11.230,-55.176,-173.340
1678023912.085,11.719,-29.297,-12.207,-8.301,-206.543
1678023912.089,-41.504,-23.438,-9.277,-23.926,-137.695
1678023912.093,-91.797,-24.902,-8.301,-84.961,-215.332
1678023912.097,-70.801,-28.809,-9.277,-113.770,-355.469
1678023912.101,-19.043,-35.156,-11.719,-76.660,-237.305
1678023912.105,-19.531,-45.410,-12.207,-27.344,119.141
1678023912.108,-78.613,-38.574,-13.672,-37.598,81.055
1678023912.112,-125.488,-34.668,-10.254,-83.008,-262.695
1678023912.116,-95.703,-35.645,-6.836,-97.168,-241.211
1678023912.120,-34.668,-38.574,-15.137,-68.359,-26.855
1678023912.124,-9.277,-43.945,-15.137,-30.762,-129.395
1678023912.126,-51.758,-33.691,-13.672,-34.180,-262.207
1678023912.130,-120.605,-28.809,-14.160,-76.172,-210.449
1678023912.134,-104.980,-39.062,-7.812,-94.727,-148.438
1678023912.138,-40.039,-41.992,-9.766,-79.102,-189.941
1678023912.142,-32.227,-41.992,-16.113,-54.199,-180.664
1678023912.146,-73.242,-46.875,-21.973,-50.293,72.754
1678023912.150,-129.883,-46.875,-27.344,-83.496,73.242
1678023912.153,-136.230,-48.828,-23.438,-99.609,-189.453
1678023912.157,-70.801,-51.270,-14.648,-79.590,-188.965
1678023912.161,-24.902,-44.922,-12.695,-47.852,-62.500
1678023912.165,-48.340,-43.457,-14.648,-28.320,11.719
1678023912.169,-109.375,-47.852,-14.648,-55.176,-52.246
1678023912.186,-114.746,-50.781,-11.719,-68.848,-224.121
1678023912.190,-53.711,-47.852,-10.254,-40.527,-23.926
1678023912.194,-10.742,-41.016,-9.277,-4.395,222.168
1678023912.198,-12.695,-35.645,-5.859,1.465,-53.223
1678023912.202,-71.289,-35.645,-4.395,-36.133,-166.504
1678023912.206,-92.285,-38.574,-2.930,-49.805,-122.559
1678023912.210,-32.227,-40.039,-3.906,-40.039,-160.156
1678023912.213,8.789,-37.598,-7.324,-21.973,-187.012
1678023912.217,-10.742,-38.574,-13.672,-3.418,-117.188
1678023912.221,-84.473,-43.945,-18.555,-29.785,74.707
1678023912.225,-123.047,-41.504,-18.066,-68.848,-76.172
1678023912.229,-51.758,-34.668,-12.207,-62.988,-196.777
1678023912.235,9.277,-36.621,-8.789,-16.113,-55.664
1678023912.239,-6.836,-33.203,-6.348,13.672,23.438
1678023912.243,-59.082,-25.879,-3.418,-10.742,-92.773
1678023912.247,-100.098,-34.668,-5.371,-39.062,-163.086
1678023912.251,-54.199,-39.551,-9.766,-38.086,-127.930
1678023912.255,12.695,-34.668,-13.672,-15.137,-94.727
1678023912.259,11.719,-33.203,-13.184,9.766,-24.414
1678023912.262,-47.852,-37.109,-13.184,-18.555,-143.066
1678023912.266,-104.492,-42.480,-17.578,-55.664,-19.531
1678023912.270,-67.383,-38.574,-22.949,-54.199,133.301
1678023912.274,1.465,-32.227,-21.973,-23.926,-2.441
1678023912.278,11.719,-30.273,-12.695,11.230,0.977
1678023912.278,-33.203,-31.738,-14.160,1.953,-1.465
1678023912.282,-86.426,-31.738,-19.531,-34.668,-22.949
1678023912.286,-62.988,-31.250,-13.184,-47.852,-112.793
1678023912.290,7.324,-34.180,-10.254,-17.578,-167.969
1678023912.294,28.320,-34.180,-5.371,23.926,-56.641
1678023912.298,-23.926,-35.156,-3.906,13.672,-11.230
1678023912.302,-82.031,-34.668,-9.277,-29.785,-129.395
1678023912.305,-57.129,-35.156,-8.789,-47.852,-121.582
1678023912.309,-7.812,-33.203,-10.254,-10.742,183.594
1678023912.313,-1.465,-29.785,-10.254,35.156,316.406
1678023912.317,-35.645,-34.668,-16.113,25.879,-13.184
1678023912.321,-97.656,-33.203,-19.531,-14.648,-105.957
1678023912.321,-91.797,-28.320,-15.625,-40.527,-123.047
1678023912.325,-26.367,-31.738,-17.578,-28.809,-133.301
1678023912.329,-3.906,-37.109,-20.020,1.953,-105.469
1678023912.333,-38.086,-28.320,-15.137,20.020,-110.840
1678023912.337,-93.262,-24.902,-16.113,-6.836,-59.570
1678023912.341,-104.492,-30.762,-19.531,-38.086,-108.398
1678023912.345,-44.434,-31.738,-22.461,-23.438,-129.395
1678023912.348,-9.277,-35.156,-26.855,7.324,41.504
1678023912.352,-45.898,-39.551,-28.809,18.066,205.078
1678023912.356,-111.816,-41.504,-29.297,-10.254,-125.977
1678023912.360,-121.094,-37.598,-24.902,-38.574,-189.453
1678023912.364,-50.293,-30.273,-17.090,-27.344,86.914
1678023912.366,-1.465,-30.762,-17.090,8.301,25.879
1678023912.370,-23.438,-37.109,-13.184,23.926,-171.387
1678023912.374,-79.590,-39.551,-14.160,-1.465,-209.473
1678023912.378,-99.121,-38.086,-18.555,-32.227,-173.828
1678023912.382,-39.551,-38.086,-17.090,-21.484,-134.277
1678023912.386,17.090,-34.668,-16.602,12.695,-29.785
1678023912.390,5.859,-30.273,-19.043,12.695,3.906
1678023912.393,-62.012,-31.738,-21.484,-10.254,247.070
1678023912.397,-104.492,-32.227,-18.066,-36.133,196.777
1678023912.401,-37.109,-32.715,-17.090,-49.316,-198.730
1678023912.405,15.625,-35.645,-20.996,-16.602,-172.852
1678023912.409,-6.836,-36.133,-23.438,6.836,-127.930
1678023912.411,-73.730,-37.598,-21.973,-28.320,-211.426
1678023912.415,-118.652,-36.133,-20.508,-58.594,-233.398
1678023912.419,-65.430,-33.691,-20.508,-62.012,-140.625
1678023912.423,2.930,-33.203,-25.391,-42.969,-97.168
1678023912.427,0.977,-35.645,-26.855,-4.395,-132.812
1678023912.431,-61.523,-36.133,-30.273,-20.996,-213.379
1678023912.435,-115.723,-38.086,-33.691,-59.082,35.645
1678023912.438,-82.031,-40.527,-37.109,-90.820,160.645
1678023912.442,-20.020,-41.016,-40.039,-85.938,-72.266
1678023912.446,-16.113,-34.668,-36.133,-52.734,-149.902
1678023912.450,-68.359,-31.738,-33.203,-57.129,138.672
1678023912.454,-128.418,-35.645,-33.203,-87.891,270.020
1678023912.456,-102.051,-36.621,-30.762,-105.957,-132.324
1678023912.460,-29.785,-34.668,-29.297,-75.195,-193.848
1678023912.464,-24.414,-36.621,-32.227,-38.086,-94.727
1678023912.468,-69.336,-38.086,-33.691,-56.152,-82.520
1678023912.472,-122.070,-38.086,-35.156,-95.215,-132.812
1678023912.476,-108.398,-41.992,-35.156,-98.145,-84.961
1678023912.480,-30.273,-40.527,-34.180,-74.707,130.371
1678023912.483,-2.441,-36.133,-33.691,-40.527,26.855
1678023912.487,-43.945,-34.180,-31.250,-29.785,-168.457
1678023912.491,-110.840,-30.273,-28.809,-60.059,-112.793
1678023912.495,-101.074,-25.879,-23.926,-76.660,-26.855
1678023912.499,-22.461,-28.809,-28.320,-62.988,-119.141
1678023912.501,14.160,-31.738,-35.645,-26.855,-188.965
1678023912.505,-15.137,-30.762,-28.320,-10.254,-4.395
1678023912.509,-91.797,-24.902,-23.438,-27.832,75.684
1678023912.513,-97.168,-24.414,-27.832,-52.734,-102.539
1678023912.517,-13.672,-23.438,-26.367,-48.340,-160.645
1678023912.521,20.996,-16.602,-23.438,-24.902,35.645
1678023912.525,-4.395,-15.625,-27.344,-20.020,112.305
1678023912.528,-56.641,-16.113,-31.250,-44.922,-62.500
1678023912.532,-71.289,-14.160,-27.344,-60.547,-161.621
1678023912.536,1.465,-15.625,-25.879,-47.363,-24.414
1678023912.540,51.270,-22.949,-32.715,-21.484,73.730
1678023912.544,20.996,-28.809,-30.762,0.000,-121.582
1678023912.561,-47.363,-30.762,-21.484,-26.855,-237.305
1678023912.565,-78.613,-23.926,-17.578,-48.828,65.918
1678023912.569,-23.438,-16.113,-18.555,-35.156,186.035
1678023912.573,36.133,-10.742,-23.926,-11.230,-117.676
1678023912.577,37.598,-12.695,-25.391,1.953,-139.160
1678023912.581,-29.785,-18.555,-24.414,-20.996,-2.441
1678023912.585,-88.867,-20.508,-26.367,-45.410,-7.324
1678023912.588,-44.922,-22.461,-29.297,-46.875,-178.711
1678023912.592,20.020,-21.973,-27.832,-15.137,-146.484
1678023912.596,16.113,-22.461,-26.367,15.137,64.453
1678023912.600,-50.781,-25.879,-26.855,-2.930,-61.523
1678023912.604,-95.703,-24.414,-19.043,-38.086,-194.336
1678023912.607,-48.828,-22.949,-18.555,-54.688,-128.906
1678023912.611,18.066,-25.879,-31.250,-19.043,-46.387
1678023912.615,16.113,-28.809,-31.738,20.508,-70.801
1678023912.619,-51.270,-31.250,-22.461,-5.371,-115.723
1678023912.623,-109.375,-32.227,-21.484,-41.016,89.355
1678023912.627,-76.660,-38.574,-23.438,-50.293,166.016
1678023912.631,4.883,-39.551,-24.414,-34.668,-1.465
1678023912.634,8.301,-36.621,-28.809,-18.555,-116.211
1678023912.638,-45.898,-43.457,-32.227,-26.367,34.668
1678023912.642,-90.332,-43.945,-32.227,-49.805,175.781
1678023912.646,-62.012,-26.367,-17.578,-43.945,-40.527
1678023912.650,28.320,0.977,8.301,7.812,-109.863
1678023912.651,75.684,16.602,22.949,57.129,60.059
1678023912.655,49.316,22.949,30.762,70.312,15.625
1678023912.659,-10.742,31.738,34.180,33.203,-219.727
1678023912.663,-11.230,31.250,34.668,10.254,-239.258
1678023912.667,62.500,23.438,29.297,34.180,-136.230
1678023912.671,92.773,22.949,27.832,60.547,-16.113
1678023912.675,55.664,26.367,28.809,59.570,33.691
1678023912.678,-7.812,25.391,25.879,35.156,28.320
1678023912.682,-15.137,20.996,25.391,10.254,83.008
1678023912.686,61.523,20.996,25.391,22.461,-54.199
1678023912.690,97.656,28.809,25.879,52.246,-188.477
1678023912.694,51.758,35.156,24.414,62.012,-49.805
1678023912.696,-13.184,34.668,22.949,51.758,-36.621
1678023912.700,-27.832,33.203,20.508,24.414,-147.461
1678023912.704,35.645,27.832,14.648,10.742,-177.246
1678023912.708,85.938,24.414,12.695,43.945,2.930
1678023912.712,54.199,25.879,10.254,60.547,194.336
1678023912.716,-21.484,21.484,7.812,22.949,6.348
1678023912.720,-58.105,20.508,16.113,-1.953,-168.945
1678023912.723,-8.301,19.531,16.602,21.484,-8.301
1678023912.727,41.504,13.184,12.695,41.504,189.453
1678023912.731,27.832,8.789,10.254,31.250,-13.672
1678023912.735,-39.062,9.766,9.277,3.906,-172.363
1678023912.739,-81.543,12.207,12.695,-14.160,108.398
1678023912.741,-21.484,12.695,12.695,-6.836,152.832
1678023912.745,38.574,12.207,9.766,17.578,-163.086
1678023912.749,37.598,15.137,14.648,48.340,-179.199
1678023912.753,-24.902,12.695,13.184,31.738,-175.293
1678023912.757,-89.355,3.906,6.348,-4.395,-128.906
1678023912.761,-50.781,1.953,-0.488,-14.160,-70.312
1678023912.765,12.207,-1.465,-5.371,12.695,-13.184
1678023912.768,4.883,-8.301,-3.906,37.598,199.219
1678023912.772,-53.711,-7.812,-3.418,9.277,116.211
1678023912.776,-89.355,3.418,0.488,-23.438,-181.152
1678023912.780,-47.852,3.906,-6.836,-24.414,-101.562
1678023912.784,5.859,-4.395,-18.555,-8.789,39.551
1678023912.803,15.137,-6.348,-20.996,6.348,-4.883
1678023912.807,-31.250,-2.930,-17.090,-6.348,-37.109
1678023912.811,-82.520,4.395,-8.301,-16.602,-49.316
1678023912.815,-54.199,7.812,-10.254,-27.344,-65.918
1678023912.819,11.230,-1.465,-14.648,-20.020,-111.328
1678023912.823,27.832,-7.324,-13.672,4.883,-139.648
1678023912.827,-27.344,-10.742,-11.719,-7.812,103.027
1678023912.830,-90.332,-9.277,-15.625,-20.996,223.145
1678023912.834,-68.359,-7.812,-17.090,-23.438,-99.121
1678023912.838,-1.953,-14.648,-10.254,-22.949,-125.977
1678023912.842,17.578,-18.555,-13.184,-34.668,47.852
1678023912.846,-34.180,-24.414,-16.113,-69.336,-22.949
1678023912.832,-108.887,-29.785,-11.230,-123.535,-129.395
1678023912.836,-94.727,-28.809,-12.695,-163.574,-2.930
1678023912.840,-5.371,-25.391,-18.555,-143.555,5.371
1678023912.844,32.227,-21.484,-9.766,-78.613,-101.074
1678023912.848,-9.766,-19.531,-6.348,-55.664,-103.027
1678023912.852,-85.449,-17.090,-9.766,-109.863,-11.719
1678023912.856,-94.727,-18.066,-11.230,-170.410,93.750
1678023912.859,-7.812,-18.066,-15.625,-174.316,-19.531
1678023912.863,48.828,-15.137,-19.531,-156.250,-141.602
1678023912.867,13.672,-20.996,-18.066,-152.832,-112.305
1678023912.871,-77.637,-24.414,-16.113,-171.387,208.984
1678023912.875,-108.887,-20.996,-16.602,-201.660,237.305
1678023912.876,-30.273,-17.578,-20.996,-218.262,-123.047
1678023912.880,29.785,-17.090,-25.391,-197.754,-116.211
1678023912.884,12.207,-16.602,-24.414,-185.059,-21.484
1678023912.888,-56.641,-12.695,-21.973,-212.891,-51.758
1678023912.892,-86.914,-11.230,-13.672,-230.957,-215.332
1678023912.896,-20.996,-8.789,-9.766,-220.703,25.391
1678023912.900,42.969,-5.371,-16.113,-181.641,421.387
1678023912.903,36.133,-10.742,-14.648,-151.855,26.855
1678023912.907,-33.691,-15.137,-10.254,-151.367,-239.258
1678023912.911,-83.984,-10.742,-14.160,-160.645,-180.664
1678023912.915,-21.484,-13.184,-19.531,-181.152,-186.035
1678023912.919,52.246,-10.742,-16.113,-161.133,-126.953
1678023912.936,43.945,-8.789,-16.602,-129.883,-92.773
1678023912.940,-23.926,-14.160,-20.996,-134.766,12.695
1678023912.944,-79.590,-15.137,-19.043,-141.113,-16.602
1678023912.948,-27.344,-20.020,-20.020,-123.047,-190.918
1678023912.952,52.734,-20.996,-20.020,-64.453,-108.398
1678023912.956,49.316,-15.137,-11.230,-5.859,24.902
1678023912.960,-19.043,-11.230,-9.277,-17.090,5.371
1678023912.963,-75.195,-10.742,-9.277,-42.969,-61.523
1678023912.967,-32.715,-11.719,-5.371,-38.574,-73.242
1678023912.971,41.016,-15.137,-3.906,0.000,169.922
1678023912.975,46.875,-17.090,-7.324,30.273,108.887
1678023912.979,-11.719,-27.832,-9.277,7.812,-177.734
1678023912.996,-71.289,-31.738,-10.742,-34.180,-95.703
1678023913.000,-40.527,-27.832,-11.719,-59.570,-93.750
1678023913.004,35.156,-29.785,-10.254,-38.086,-152.344
1678023913.008,62.012,-27.344,-13.184,2.930,-154.297
1678023913.012,14.160,-21.484,-13.672,5.859,-105.469
1678023913.016,-59.570,-21.973,-14.648,-5.859,-51.758
1678023913.020,-43.945,-20.020,-12.695,-13.184,-53.223
1678023913.023,33.203,-13.672,-6.836,-2.441,-86.914
1678023913.027,47.852,-18.555,-6.348,30.762,105.469
1678023913.031,0.488,-25.879,-13.672,26.367,267.090
1678023913.035,-69.336,-23.438,-18.555,-13.672,76.660
1678023913.039,-68.848,-17.578,-18.555,-28.809,-92.773
1678023913.042,21.484,-19.043,-20.020,-11.719,-23.926
1678023913.046,62.988,-21.484,-17.578,13.184,10.254
1678023913.050,23.926,-25.391,-18.555,9.277,-134.766
1678023913.054,-58.105,-31.738,-20.020,-18.555,-155.762
1678023913.058,-87.891,-31.738,-16.113,-34.180,-116.211
1678023913.062,-10.742,-30.273,-13.672,-19.531,-64.453
1678023913.066,37.109,-32.715,-13.184,16.602,-78.613
1678023913.069,4.395,-31.738,-12.695,28.809,-16.113
1678023913.073,-59.570,-24.902,-15.625,12.695,47.363
1678023913.077,-80.566,-20.508,-20.020,-19.531,-107.910
1678023913.081,-12.695,-19.531,-18.555,-26.367,-225.586
1678023913.085,49.805,-15.137,-18.066,10.742,-95.703
1678023913.071,25.879,-15.137,-17.578,29.297,271.484
1678023913.075,-57.129,-15.137,-17.090,-9.277,156.738
1678023913.079,-98.633,-22.949,-18.555,-37.598,-152.344
1678023913.083,-36.621,-34.668,-15.625,-38.574,-144.531
1678023913.087,24.902,-32.715,-18.066,-15.137,-178.711
1678023913.091,4.395,-29.297,-22.949,20.020,-173.828
1678023913.095,-64.453,-37.598,-19.531,-0.488,-96.191
1678023913.098,-90.332,-40.527,-14.160,-12.695,-31.738
1678023913.102,-29.297,-23.438,-21.484,-5.859,-73.242
1678023913.106,23.926,-12.207,-23.438,-6.836,-172.852
1678023913.110,12.207,-16.113,-22.461,2.930,-106.445
1678023913.114,-57.617,-14.160,-29.297,-4.395,107.422
1678023913.118,-117.676,-12.695,-32.715,-14.648,326.660
1678023913.122,-61.523,-9.277,-33.203,-19.043,70.801
1678023913.126,26.855,2.930,-27.832,-2.441,-193.359
1678023913.130,37.109,6.836,-22.949,25.879,-123.047
1678023913.134,-27.344,1.953,-29.785,9.277,-105.469
1678023913.138,-98.145,-2.930,-29.297,-10.254,-161.621
1678023913.142,-59.570,-9.277,-24.414,-7.812,-159.668
1678023913.145,33.691,-10.254,-26.367,0.488,58.105
1678023913.149,46.387,-14.160,-29.297,17.578,20.508
1678023913.153,-11.719,-9.766,-24.902,14.160,-90.332
1678023913.157,-71.289,-1.465,-19.043,-0.488,-70.312
1678023913.161,-46.387,-5.371,-17.578,-9.766,-161.621
1678023913.161,37.598,-5.371,-17.090,3.418,-206.543
1678023913.165,57.617,-3.906,-13.672,30.762,-155.273
1678023913.169,0.000,-12.207,-16.602,24.902,-62.012
1678023913.173,-75.195,-19.531,-29.297,-10.742,-45.898
1678023913.177,-65.918,-18.066,-32.715,-29.785,-89.355
1678023913.181,12.695,-21.973,-31.738,-9.766,-94.727
1678023913.185,42.480,-24.414,-33.203,27.344,186.523
1678023913.188,2.441,-20.996,-29.785,35.156,394.531
1678023913.192,-67.383,-19.531,-22.949,-5.859,20.508
1678023913.196,-66.895,-18.066,-20.996,-22.461,-189.453
1678023913.200,9.766,-19.531,-27.344,-5.371,-59.570
1678023913.204,41.504,-21.973,-28.809,14.648,-27.344
1678023913.206,3.418,-18.555,-23.438,20.508,-119.141
1678023913.210,-69.336,-19.531,-24.902,2.930,-135.254
1678023913.214,-88.867,-19.531,-23.926,-6.836,-39.551
1678023913.218,-16.602,-13.672,-23.438,-8.789,-48.828
1678023913.222,39.062,-10.254,-24.902,3.418,-169.922
1678023913.226,18.555,-8.789,-16.602,20.996,-55.176
1678023913.230,-57.129,-6.836,-12.695,12.207,206.543
1678023913.233,-92.285,-12.207,-20.020,-12.695,17.090
1678023913.237,-16.602,-15.137,-25.391,-22.461,-233.398
1678023913.241,45.898,-16.113,-24.902,5.859,-119.629
1678023913.245,20.020,-21.484,-20.996,35.156,-23.926
1678023913.249,-51.270,-23.438,-20.996,8.301,-77.637
1678023913.251,-96.680,-19.043,-23.926,-22.461,-118.164
1678023913.255,-38.574,-18.066,-23.438,-17.090,-83.496
1678023913.259,41.016,-17.578,-22.949,2.441,-27.344
1678023913.263,45.410,-8.789,-20.508,15.625,-75.684
1678023913.267,-35.156,-3.906,-16.602,-3.418,-156.250
1678023913.271,-90.820,-1.465,-16.113,-19.043,72.754
1678023913.275,-38.574,-4.395,-22.461,-23.926,142.578
1678023913.278,26.855,-5.371,-27.832,-17.578,-109.375
1678023913.282,16.602,-4.883,-29.297,-4.395,-153.809
1678023913.286,-49.316,-11.230,-30.273,-15.625,69.824
1678023913.290,-100.586,-6.348,-31.738,-29.297,206.055
1678023913.294,-54.688,-9.766,-30.762,-37.109,-130.859
1678023913.311,23.438,-20.996,-28.320,-34.668,-225.586
1678023913.315,29.785,-22.949,-28.809,-16.602,-19.531
1678023913.319,-25.391,-22.949,-30.762,-24.414,17.090
1678023913.323,-107.422,-25.391,-30.762,-49.316,-180.176
1678023913.327,-91.309,-24.902,-28.320,-56.641,-171.875
1678023913.331,0.488,-22.949,-24.902,-36.621,12.207
1678023913.335,24.414,-26.855,-27.344,-0.488,30.273
1678023913.338,-28.320,-26.855,-29.297,-0.977,-99.121
1678023913.342,-104.004,-24.414,-31.250,-39.551,-150.391
1678023913.346,-85.449,-24.902,-35.156,-61.035,-41.992
1678023913.350,-2.441,-25.879,-38.574,-47.852,-63.477
1678023913.354,23.926,-20.996,-32.715,-15.137,-113.281
1678023913.356,-19.531,-17.090,-18.066,-4.395,6.348
1678023913.360,-95.215,-10.742,-11.719,-25.879,234.863
1678023913.364,-88.867,-11.230,-16.113,-49.805,90.332
1678023913.368,3.906,-16.113,-18.555,-44.434,-142.578
1678023913.372,43.945,-15.137,-19.043,-8.789,-100.098
1678023913.376,-4.883,-16.113,-22.949,7.812,19.043
1678023913.380,-91.309,-18.066,-29.785,-20.020,79.590
1678023913.383,-106.445,-21.484,-30.273,-51.758,-115.234
1678023913.387,-21.484,-22.461,-27.832,-43.945,-26.367
1678023913.391,30.273,-22.461,-26.855,-12.695,176.758
1678023913.395,3.418,-19.043,-22.461,-1.465,23.926
1678023913.399,-68.359,-18.066,-16.113,-18.555,-67.383
1678023913.401,-98.633,-15.625,-13.672,-43.457,-63.477
1678023913.405,-24.414,-14.160,-18.066,-52.246,-50.781
1678023913.409,37.598,-18.555,-20.508,-20.020,-108.398
1678023913.413,8.301,-21.973,-15.625,3.906,-141.113
1678023913.417,-82.031,-22.949,-14.160,-22.461,144.043
1678023913.421,-120.605,-20.020,-20.996,-43.945,245.117
1678023913.425,-43.945,-19.531,-22.949,-48.828,-39.551
1678023913.428,26.855,-20.996,-19.043,-23.438,-110.840
1678023913.432,12.695,-19.531,-18.066,12.207,169.922
1678023913.436,-57.129,-21.973,-20.996,-5.371,155.273
1678023913.440,-99.121,-22.949,-19.043,-41.992,-93.750
1678023913.444,-44.434,-23.438,-17.090,-49.316,-76.172
1678023913.448,15.625,-22.461,-18.555,-32.715,-82.031
1678023913.452,3.418,-20.508,-15.625,-26.855,-118.164
1678023913.456,-62.012,-24.414,-15.137,-45.410,-64.941
1678023913.460,-110.840,-23.438,-12.695,-52.246,47.852
1678023913.464,-56.152,-21.484,-9.766,-35.156,50.293
1678023913.468,22.461,-23.926,-14.648,-19.043,19.531
1678023913.472,26.367,-24.414,-12.207,-15.137,-41.992
1678023913.475,-33.203,-22.949,-12.695,-20.020,-18.555
1678023913.479,-106.445,-20.020,-20.020,-30.273,59.570
1678023913.483,-84.473,-31.738,-23.926,-49.316,-110.840
1678023913.487,-2.441,-40.039,-30.762,-38.086,-161.133
1678023913.491,13.672,-38.574,-32.227,-5.859,133.789
1678023913.491,-36.133,-32.715,-30.273,-2.441,183.594
1678023913.495,-104.492,-32.227,-32.227,-22.949,-195.801
1678023913.499,-87.402,-34.668,-28.320,-35.156,-241.699
1678023913.503,-5.371,-35.156,-22.949,-32.715,-153.809
1678023913.507,17.090,-31.250,-24.902,-12.207,-112.793
1678023913.511,-28.320,-24.414,-30.273,0.488,-46.387
1678023913.515,-102.539,-26.855,-20.996,-20.020,-59.082
1678023913.518,-90.332,-22.461,-12.695,-28.320,209.473
1678023913.522,0.977,-15.625,-17.578,-12.207,210.938
1678023913.526,30.762,-18.555,-13.672,7.324,-164.062
1678023913.530,-15.137,-23.926,-14.160,1.465,-150.391
1678023913.534,-90.820,-24.414,-18.555,-24.902,-53.223
1678023913.536,-103.516,-24.414,-17.578,-42.480,-104.492
1678023913.540,-18.555,-30.273,-19.043,-40.527,-128.906
1678023913.544,51.758,-18.555,-19.043,-7.812,-68.359
1678023913.548,34.668,-7.812,-14.648,7.324,-84.473
1678023913.552,-62.012,-13.672,-10.742,-14.648,-94.727
1678023913.556,-81.543,-13.672,-10.742,-27.344,-129.395
1678023913.560,14.648,-9.766,-9.277,-21.973,60.059
1678023913.563,54.688,-20.508,-9.766,-14.160,245.605
1678023913.567,26.855,-27.344,-11.719,-4.395,-26.367
1678023913.571,-44.922,-26.367,-11.719,-20.996,-99.609
1678023913.575,-78.125,-27.832,-11.230,-43.945,142.578
1678023913.579,-5.371,-21.973,-13.184,-55.664,161.133
1678023913.581,55.176,-21.973,-19.043,-34.180,-170.898
1678023913.585,37.109,-20.020,-21.484,-7.812,-171.875
1678023913.589,-41.016,-16.602,-23.926,-24.902,-92.285
1678023913.593,-83.984,-21.484,-29.297,-38.574,-116.699
1678023913.597,-9.766,-15.625,-24.902,-31.250,-209.961
1678023913.601,58.105,-14.160,-19.043,-7.812,-85.938
1678023913.605,36.621,-19.531,-24.902,12.695,228.027
1678023913.608,-34.668,-11.230,-25.879,-6.836,122.559
1678023913.612,-86.426,-6.836,-20.996,-29.297,-150.879
1678023913.616,-33.691,-11.719,-19.531,-42.969,-119.141
1678023913.620,43.945,-15.137,-18.066,-37.109,-32.227
1678023913.624,38.086,-16.113,-19.531,-16.602,-120.117
1678023913.626,-31.738,-15.625,-21.484,-20.996,-197.754
1678023913.630,-91.309,-15.137,-19.531,-49.805,-127.441
1678023913.634,-46.387,-13.184,-20.020,-64.941,-79.590
1678023913.638,26.367,-12.695,-21.973,-36.133,-170.410
1678023913.642,31.250,-14.160,-20.020,-15.137,-167.969
1678023913.646,-34.668,-18.555,-19.531,-21.973,26.367
1678023913.650,-107.910,-20.996,-21.973,-45.898,63.477
1678023913.653,-58.105,-18.066,-17.578,-62.012,-137.695
1678023913.657,28.809,-14.160,-16.602,-35.645,-129.395
1678023913.661,38.574,-12.695,-19.043,6.348,50.293
1678023913.665,-15.625,-16.602,-15.137,-6.348,83.496
1678023913.669,-94.238,-24.414,-20.996,-43.945,-37.598
1678023913.686,-82.520,-23.926,-22.949,-53.711,-147.949
1678023913.690,-7.812,-20.020,-18.555,-29.785,-13.184
1678023913.694,16.113,-20.020,-21.973,-4.883,94.238
1678023913.698,-29.785,-20.996,-27.832,-14.160,-161.621
1678023913.702,-105.469,-18.555,-24.902,-43.457,-187.012
1678023913.706,-96.191,-10.254,-22.461,-61.035,-28.809
1678023913.710,-6.836,-7.324,-26.855,-55.664,33.691
1678023913.713,36.621,-14.648,-29.785,-35.156,-83.496
1678023913.717,-6.836,-19.043,-24.902,-28.320,-96.680
1678023913.721,-97.168,-21.973,-25.391,-48.828,-11.230
1678023913.725,-120.605,-25.879,-31.738,-57.617,-52.246
1678023913.729,-34.180,-25.879,-33.203,-41.016,-162.109
1678023913.733,20.508,-26.855,-35.156,-26.367,-70.801
1678023913.737,-10.742,-27.344,-38.086,-21.484,163.086
1678023913.741,-78.125,-28.320,-33.691,-32.227,50.781
1678023913.745,-97.168,-29.785,-28.809,-55.664,-148.438
1678023913.749,-28.320,-26.855,-23.438,-49.316,11.230
1678023913.753,24.902,-24.414,-22.949,-23.926,73.242
1678023913.757,10.254,-23.926,-25.391,-22.461,-30.273
1678023913.760,-59.570,-24.902,-28.809,-44.922,-100.098
1678023913.764,-93.750,-23.438,-31.738,-56.152,17.578
1678023913.768,-25.879,-24.902,-35.156,-56.152,138.672
1678023913.772,42.480,-21.973,-38.086,-28.809,-59.082
1678023913.776,35.645,-19.531,-37.109,-11.230,-63.965
1678023913.776,-38.086,-21.484,-34.668,-33.203,34.668
1678023913.780,-88.379,-24.414,-38.574,-52.246,-3.906
1678023913.784,-30.762,-26.367,-39.062,-55.176,-105.957
1678023913.788,41.504,-19.531,-31.738,-32.715,-126.953
1678023913.792,35.645,-17.578,-35.156,2.930,-86.426
1678023913.796,-25.879,-18.066,-33.203,-5.371,-35.645
1678023913.800,-81.543,-15.137,-28.809,-32.227,-19.043
1678023913.803,-44.434,-17.578,-32.227,-34.668,-77.637
1678023913.807,28.320,-16.602,-37.598,-1.465,85.449
1678023913.811,39.551,-17.578,-37.598,16.113,93.750
1678023913.815,-22.949,-20.508,-30.273,-3.906,-187.012
1678023913.819,-88.379,-15.137,-24.902,-10.254,-60.547
1678023913.821,-47.852,-9.277,-21.973,-11.719,62.988
1678023913.825,32.227,-10.742,-20.020,1.465,-69.336
1678023913.829,51.758,-10.254,-19.531,28.320,-111.816
1678023913.833,-19.043,-11.230,-20.020,11.230,-69.336
1678023913.837,-105.469,-20.996,-27.832,-23.926,-81.543
1678023913.841,-87.891,-28.320,-37.109,-34.668,-33.203
1678023913.845,-8.301,-26.855,-33.691,-18.555,-30.273
1678023913.848,21.973,-28.809,-29.785,7.812,95.215
1678023913.852,-25.391,-31.250,-29.785,3.418,318.848
1678023913.856,-97.656,-26.367,-32.227,-36.133,4.395
1678023913.860,-82.520,-28.320,-32.715,-51.758,-98.633
1678023913.864,4.395,-26.855,-26.855,-28.320,48.828
1678023913.867,37.109,-22.461,-24.414,7.812,-47.363
1678023913.871,-3.906,-27.832,-30.762,8.789,-171.387
1678023913.875,-79.102,-25.879,-27.832,-21.973,-177.734
1678023913.879,-75.684,-22.949,-26.367,-48.340,-155.762
1678023913.883,3.906,-30.273,-27.344,-48.828,-165.527
1678023913.887,30.273,-27.344,-23.926,-16.113,-98.633
1678023913.891,-21.484,-24.902,-23.438,-5.859,89.844
1678023913.894,-105.957,-23.926,-21.484,-31.738,186.523
1678023913.898,-120.117,-26.855,-19.043,-60.059,21.484
1678023913.902,-34.180,-32.715,-23.438,-67.383,-160.645
1678023913.906,21.484,-31.738,-26.855,-35.645,-91.797
1678023913.910,-21.484,-31.250,-15.625,-15.625,-30.273
1678023913.911,-93.750,-30.273,-11.719,-40.039,-120.605
1678023913.915,-120.117,-30.762,-19.531,-71.777,-166.992
1678023913.919,-60.059,-30.273,-22.461,-76.660,-122.070
1678023913.923,2.930,-26.855,-21.484,-49.316,-109.375
1678023913.927,-8.301,-22.461,-13.184,-23.438,-107.422
1678023913.931,-75.684,-20.508,-3.418,-34.180,-108.887
1678023913.935,-117.676,-27.344,-6.348,-54.688,82.031
1678023913.938,-53.711,-27.344,-9.277,-51.270,157.715
1678023913.942,35.156,-20.020,0.488,-17.578,-66.895
1678023913.946,25.879,-19.043,3.418,2.441,-116.211
1678023913.950,-61.523,-20.020,-2.930,-15.625,-50.781
1678023913.954,-111.328,-19.531,-10.742,-40.039,-10.254
1678023913.973,-60.059,-20.996,-14.160,-37.109,-79.102
1678023913.977,12.695,-19.043,-14.648,-9.766,-157.715
1678023913.981,18.555,-18.066,-13.184,12.207,56.152
1678023913.985,-48.340,-20.508,-13.184,-5.859,84.961
1678023913.989,-114.258,-23.438,-13.672,-41.016,-176.758
1678023913.993,-74.707,-26.855,-6.348,-56.641,-166.016
1678023913.997,4.395,-24.902,-8.301,-29.297,86.914
1678023914.000,15.137,-21.973,-15.137,2.441,99.609
1678023914.004,-45.898,-19.043,-12.207,-22.461,-137.207
1678023914.008,-115.723,-19.531,-20.020,-74.219,-140.137
1678023914.012,-84.961,-29.297,-25.879,-85.449,-77.637
1678023914.016,4.883,-33.691,-21.973,-53.711,-110.352
1678023914.003,28.320,-27.344,-25.879,-18.555,-173.340
1678023914.007,-20.020,-20.508,-27.344,-19.043,-11.230
1678023914.011,-91.309,-23.438,-26.855,-50.293,33.203
1678023914.015,-80.566,-32.227,-28.320,-67.871,-181.641
1678023914.019,6.836,-34.180,-30.762,-46.875,-163.086
1678023914.023,37.109,-27.832,-27.344,-9.766,69.336
1678023914.027,-9.277,-25.879,-33.203,-20.508,82.031
1678023914.030,-76.660,-33.691,-36.133,-62.988,-121.094
1678023914.034,-70.312,-31.738,-30.762,-78.125,-209.473
1678023914.038,14.160,-23.438,-28.320,-49.805,-16.602
1678023914.042,50.781,-23.926,-26.367,0.488,411.133
1678023914.046,13.184,-21.484,-31.250,3.906,184.570
1678023914.061,-55.664,-21.973,-37.109,-41.504,-192.871
1678023914.065,-59.570,-21.484,-34.180,-60.059,-149.902
1678023914.069,17.578,-18.555,-32.715,-30.273,-133.301
1678023914.073,62.988,-18.066,-36.133,3.418,-168.457
1678023914.077,27.832,-16.602,-34.668,-0.977,-139.160
1678023914.081,-51.270,-20.508,-34.180,-37.598,145.020
1678023914.085,-74.707,-24.414,-33.203,-54.688,150.879
1678023914.088,-14.648,-29.785,-35.156,-48.340,-129.883
1678023914.092,45.898,-26.855,-34.668,-14.160,-145.508
1678023914.096,30.762,-20.508,-32.227,14.648,-56.641
1678023914.100,-49.316,-22.461,-31.250,-22.949,-95.215
1678023914.104,-81.055,-17.578,-30.762,-68.359,-206.055
1678023914.107,-13.672,-17.578,-34.668,-60.547,-168.945
1678023914.111,37.109,-21.973,-38.086,-20.508,-143.555
1678023914.115,15.137,-21.484,-36.621,0.000,-194.824
1678023914.119,-48.340,-16.113,-30.273,-23.438,-187.500
1678023914.123,-85.938,-13.184,-25.879,-46.875,-67.383
1678023914.127,-25.879,-15.137,-23.926,-44.922,19.043
1678023914.131,41.016,-13.672,-22.949,-28.809,-44.922
1678023914.134,23.438,-14.160,-22.949,-19.043,-83.008
1678023914.138,-48.828,-16.113,-20.996,-22.461,121.094
1678023914.142,-92.773,-19.043,-19.531,-38.086,255.371
1678023914.146,-38.574,-20.508,-19.531,-49.805,28.809
1678023914.150,32.715,-18.555,-22.461,-26.855,-59.570
1678023914.151,38.086,-19.531,-29.297,0.000,16.113
1678023914.155,-19.531,-20.020,-27.832,-16.602,-9.766
1678023914.159,-80.566,-22.949,-21.484,-50.781,-157.227
1678023914.163,-44.922,-24.902,-20.996,-55.176,-154.785
1678023914.167,27.344,-22.949,-20.508,-34.668,-110.352
1678023914.171,41.016,-21.484,-19.043,-6.348,-74.707
1678023914.175,-10.742,-21.484,-11.719,-9.766,-78.125
1678023914.178,-83.496,-20.508,-10.742,-47.852,-170.898
1678023914.182,-54.688,-18.066,-13.672,-50.293,134.277
1678023914.186,38.086,-17.578,-16.602,-28.809,229.980
1678023914.190,50.293,-18.555,-20.996,-13.672,-135.254
1678023914.194,-13.184,-27.832,-25.391,-20.020,-130.859
1678023914.197,-80.078,-32.715,-29.297,-55.176,-90.820
1678023914.201,-71.289,-31.250,-31.738,-75.684,-179.688
1678023914.205,3.906,-35.156,-34.180,-50.781,-198.730
1678023914.209,35.645,-38.086,-35.645,-1.953,-72.266
1678023914.213,-5.859,-31.738,-31.738,-6.348,-43.457
1678023914.217,-69.824,-25.391,-29.785,-41.992,-35.645
1678023914.221,-64.941,-24.414,-29.297,-60.547,-12.207
1678023914.224,1.953,-22.949,-24.902,-46.387,71.777
1678023914.228,38.086,-20.020,-24.902,2.441,151.855
1678023914.232,13.672,-15.625,-21.973,0.977,-65.430
1678023914.236,-57.617,-17.090,-15.137,-34.180,-125.977
1678023914.240,-73.730,-20.020,-17.090,-42.969,212.891
1678023914.272,-1.953,-26.855,-28.320,-30.762,231.934
1678023914.276,36.621,-30.273,-29.297,-1.953,-132.812
1678023914.280,0.488,-23.438,-23.926,4.883,-142.090
1678023914.284,-64.453,-20.508,-24.414,-23.926,-40.527
1678023914.288,-77.637,-18.066,-23.926,-49.805,-104.980
1678023914.292,-8.301,-15.625,-21.973,-38.574,-57.129
1678023914.296,43.457,-13.184,-24.414,-0.977,75.684
1678023914.299,22.949,-11.719,-26.855,10.742,165.039
1678023914.303,-44.434,-16.113,-26.855,-18.066,83.984
1678023914.307,-75.195,-14.160,-28.320,-49.316,-120.605
1678023914.311,-1.953,-10.742,-30.762,-41.016,-77.637
1678023914.315,68.848,-8.789,-26.855,0.977,45.898
1678023914.286,49.805,-0.488,-20.020,20.508,-51.758
1678023914.290,-25.879,-5.371,-23.438,-9.766,-98.633
1678023914.294,-71.777,-17.090,-27.832,-29.785,-2.441
1678023914.298,-16.602,-12.695,-25.879,-27.344,82.031
1678023914.302,40.039,-15.137,-25.879,-6.348,-35.156
1678023914.306,35.645,-18.066,-25.391,14.160,-93.262
1678023914.310,-11.719,-10.742,-30.762,-11.719,34.180
1678023914.313,-61.523,-6.836,-30.762,-40.527,-35.156
1678023914.317,-23.438,-8.301,-32.227,-35.156,-175.293
1678023914.321,43.457,-18.066,-34.180,3.906,-113.770
1678023914.325,39.551,-21.484,-36.621,22.949,109.863
1678023914.329,-14.648,-15.625,-41.504,-8.789,125.488
1678023914.332,-59.570,-13.184,-38.574,-45.410,-78.125
1678023914.336,-21.484,-13.184,-37.109,-42.480,-139.648
1678023914.340,40.039,-11.719,-36.133,-5.859,41.504
1678023914.344,53.223,-11.230,-30.273,41.992,468.750
1678023914.348,12.695,-8.301,-29.297,34.668,319.824
1678023914.352,-48.828,-9.766,-29.785,-12.695,-61.523
1678023914.356,-34.668,-14.160,-22.949,-29.785,169.434
1678023914.359,27.832,-13.184,-19.531,-8.301,134.766
1678023914.363,49.316,-10.742,-20.508,20.508,-128.906
1678023914.367,2.441,-17.578,-24.902,13.184,-36.133
1678023914.371,-71.289,-18.555,-32.227,-28.320,-2.930
1678023914.375,-62.500,-13.184,-25.391,-47.363,-124.023
1678023914.376,17.578,-15.625,-21.973,-20.996,-190.430
1678023914.380,45.898,-16.113,-25.879,12.695,-93.262
1678023914.384,2.930,-17.578,-25.391,18.066,-60.059
1678023914.388,-62.012,-17.578,-28.320,-15.137,-228.027
1678023914.392,-52.734,-12.207,-36.133,-49.805,-195.801
1678023914.396,38.574,-16.113,-37.109,-10.742,102.051
1678023914.400,75.684,-20.996,-23.438,38.086,145.020
1678023914.403,19.531,-21.973,-21.484,32.227,12.695
1678023914.407,-64.453,-29.297,-23.926,-10.742,-107.910
1678023914.411,-69.824,-28.809,-20.020,-21.484,76.172
1678023914.415,6.348,-30.273,-21.973,-0.488,299.805
1678023914.419,48.340,-30.273,-20.996,22.949,77.637
1678023914.437,29.297,-22.461,-24.414,34.180,-105.957
1678023914.441,-38.574,-22.949,-27.832,12.207,108.398
1678023914.445,-79.102,-19.043,-24.902,-10.742,143.066
1678023914.449,-19.531,-14.160,-22.949,-8.301,-145.996
1678023914.453,44.434,-12.695,-23.438,28.320,-110.352
1678023914.457,24.902,-19.043,-27.344,53.711,64.941
1678023914.461,-46.387,-26.367,-30.762,13.184,75.195
1678023914.464,-77.637,-29.297,-32.715,-40.039,-111.816
1678023914.468,-13.672,-28.809,-27.344,-27.832,-117.676
1678023914.472,48.340,-22.461,-20.996,30.273,229.492
1678023914.476,32.715,-20.508,-22.949,51.758,192.871
1678023914.480,-28.320,-23.926,-26.855,16.113,-166.992
1678023914.482,-70.801,-21.484,-23.926,-15.137,-106.445
1678023914.486,-15.625,-24.414,-23.926,-10.254,11.230
1678023914.490,44.922,-30.273,-23.926,14.648,-148.438
1678023914.494,31.250,-27.832,-22.461,40.527,-195.801
1678023914.498,-17.578,-31.250,-27.832,29.297,-50.293
1678023914.502,-58.105,-30.762,-27.832,-15.137,15.625
1678023914.506,-32.227,-26.367,-28.809,-23.438,-72.754
1678023914.509,27.832,-29.785,-31.738,14.160,-156.738
1678023914.513,36.133,-32.715,-26.367,38.574,64.941
1678023914.517,-26.367,-33.691,-25.391,15.625,181.641
1678023914.521,-85.449,-38.086,-29.785,-29.785,-93.262
1678023914.525,-45.410,-35.645,-26.367,-39.062,-198.242
1678023914.527,15.625,-34.180,-20.020,-9.277,-5.371
1678023914.531,18.066,-36.133,-16.113,18.555,154.785
1678023914.535,-23.926,-38.574,-16.602,-0.488,-32.227
1678023914.539,-84.961,-43.457,-17.090,-47.363,-181.152
1678023914.543,-78.613,-46.387,-22.461,-51.758,-167.969
1678023914.547,-15.137,-47.852,-24.902,-21.484,-62.012
1678023914.551,9.277,-47.363,-24.902,9.277,-18.066
1678023914.554,-27.832,-47.363,-30.273,0.977,-73.242
1678023914.558,-88.379,-48.828,-27.832,-50.293,69.336
1678023914.562,-82.031,-47.363,-23.926,-74.219,-3.418
1678023914.566,-12.207,-42.480,-28.809,-41.992,-226.562
1678023914.570,8.301,-40.039,-32.227,-4.395,-88.867
1678023914.572,-35.645,-46.387,-36.621,-20.020,50.293
1678023914.576,-98.145,-46.875,-39.062,-70.312,-90.820
1678023914.580,-98.633,-36.621,-31.250,-77.148,-254.883
1678023914.584,-28.809,-37.598,-31.250,-51.758,-115.723
1678023914.588,14.648,-39.551,-35.156,-17.578,50.781
1678023914.592,-0.977,-38.574,-34.180,-13.184,6.836
1678023914.596,-69.336,-41.504,-39.551,-72.266,-101.074
1678023914.599,-93.750,-37.109,-39.062,-102.051,20.508
1678023914.603,-33.203,-35.645,-34.668,-68.848,111.816
1678023914.607,12.695,-35.645,-38.574,-28.809,-133.789
1678023914.611,-1.465,-26.855,-39.551,-11.719,-93.750
1678023914.615,-62.012,-27.344,-34.180,-47.852,140.137
1678023914.616,-94.238,-29.785,-35.156,-75.195,67.383
1678023914.620,-38.086,-29.785,-39.062,-62.988,-126.953
1678023914.624,20.020,-26.855,-35.156,-22.461,-59.082
1678023914.628,11.719,-25.879,-35.645,-0.488,27.832
1678023914.632,-52.246,-31.250,-42.969,-56.641,-52.246
1678023914.636,-102.539,-38.574,-48.340,-118.164,-78.125
1678023914.640,-60.059,-41.016,-46.387,-132.812,-17.578
1678023914.643,1.953,-34.180,-39.551,-111.328,228.516
1678023914.647,3.418,-32.227,-39.551,-111.328,250.977
1678023914.651,-49.316,-36.621,-34.180,-168.945,-56.152
1678023914.655,-104.004,-35.645,-30.273,-220.703,-48.828
1678023914.659,-71.289,-40.039,-34.668,-227.539,-20.996
1678023914.661,-6.348,-42.969,-35.645,-194.824,-108.887
1678023914.665,-1.953,-35.645,-32.715,-166.504,-66.406
1678023914.669,-52.246,-35.156,-28.320,-194.824,-5.859
1678023914.673,-101.074,-36.621,-22.461,-233.887,-73.242
1678023914.677,-70.312,-35.645,-27.344,-240.723,-158.203
1678023914.681,-1.465,-28.320,-28.320,-221.680,-117.676
1678023914.685,6.348,-30.273,-24.902,-173.340,215.820
1678023914.688,-45.898,-34.180,-24.902,-157.227,443.848
1678023914.692,-103.027,-31.250,-26.855,-181.641,74.707
1678023914.696,-88.379,-33.203,-27.344,-178.223,-174.316
1678023914.700,-25.879,-32.227,-24.414,-128.418,147.461
1678023914.704,1.465,-28.809,-24.902,-69.336,227.539
1678023914.706,-30.762,-30.273,-24.902,-71.777,-153.320
1678023914.710,-94.238,-30.273,-23.926,-109.863,-221.191
1678023914.714,-87.402,-27.832,-20.996,-113.281,-109.863
1678023914.718,-14.160,-21.484,-17.578,-70.801,-72.754
1678023914.722,6.348,-23.438,-16.113,-26.367,-116.211
1678023914.726,-37.109,-30.762,-16.113,-20.020,-4.395
1678023914.730,-100.586,-31.738,-23.926,-63.965,66.406
1678023914.733,-103.516,-25.879,-21.484,-96.191,-90.820
1678023914.737,-38.574,-28.320,-18.066,-75.195,-206.055
1678023914.741,-2.930,-37.598,-21.973,-40.527,-135.742
1678023914.745,-33.203,-38.086,-28.809,-33.691,-53.711
1678023914.749,-102.051,-39.551,-33.203,-73.242,-131.348
1678023914.755,-116.699,-41.504,-29.785,-95.703,-139.160
1678023914.759,-53.223,-42.480,-26.855,-73.242,-32.227
1678023914.763,-15.137,-39.551,-26.367,-24.414,204.102
1678023914.767,-37.109,-36.621,-26.855,0.000,120.605
1678023914.771,-85.449,-42.969,-29.785,-41.992,-109.375
1678023914.775,-113.770,-48.340,-33.691,-63.965,12.695
1678023914.779,-66.895,-47.852,-37.109,-38.574,167.480
1678023914.782,-14.648,-45.898,-33.203,-15.625,-27.344
1678023914.786,-22.949,-41.992,-28.320,-0.488,-195.801
1678023914.790,-71.289,-36.621,-29.297,-26.367,-7.812
1678023914.794,-112.793,-35.156,-26.855,-62.012,133.789
1678023914.798,-77.148,-35.645,-23.926,-61.035,-89.844
1678023914.811,-13.672,-37.109,-18.066,-19.531,-178.711
1678023914.815,-7.812,-36.621,-15.137,5.371,-40.527
1678023914.819,-66.406,-38.574,-13.184,-27.832,-27.832
1678023914.823,-118.164,-43.945,-10.742,-67.871,-157.227
1678023914.827,-94.238,-47.852,-11.719,-71.777,-202.637
1678023914.831,-43.457,-44.434,-14.160,-29.297,145.996
1678023914.835,-41.016,-42.480,-15.137,3.418,459.961
1678023914.838,-81.055,-46.387,-21.973,-34.180,36.621
1678023914.842,-122.559,-42.969,-20.996,-85.449,-220.703
1678023914.846,-99.609,-46.875,-18.066,-83.984,-115.234
1678023914.850,-33.203,-45.898,-16.113,-37.109,-136.230
1678023914.854,-19.043,-39.062,-14.648,-2.441,-221.680
1678023914.858,-71.777,-44.434,-16.113,-21.484,-71.777
1678023914.862,-116.699,-45.410,-17.090,-65.430,62.012
1678023914.866,-83.984,-42.480,-21.484,-83.496,-132.812
1678023914.870,-35.645,-41.016,-23.438,-50.293,-201.172
1678023914.874,-22.949,-38.086,-21.973,-1.953,-64.941
1678023914.878,-60.547,-39.551,-23.438,-17.090,66.895
1678023914.882,-126.465,-46.875,-33.203,-70.801,0.488
1678023914.885,-123.047,-52.246,-39.551,-85.938,-145.996
1678023914.889,-58.594,-50.781,-34.668,-40.527,3.418
1678023914.893,-32.227,-49.805,-32.715,-1.465,123.535
1678023914.897,-55.664,-48.828,-27.832,-20.020,-68.848
1678023914.901,-97.168,-42.969,-26.367,-76.172,-147.949
1678023914.903,-103.027,-42.969,-32.227,-96.680,-20.508
1678023914.907,-53.711,-44.922,-33.203,-61.523,53.223
1678023914.911,-22.461,-41.016,-29.297,-16.602,-116.699
1678023914.915,-54.199,-41.016,-29.785,-13.672,-116.211
1678023914.919,-115.723,-42.969,-30.762,-62.988,-43.945
1678023914.923,-120.117,-40.039,-28.320,-84.961,-63.477
1678023914.927,-56.641,-42.969,-32.227,-61.523,-63.477
1678023914.930,-27.832,-43.457,-30.762,-26.855,-73.242
1678023914.934,-62.988,-41.016,-31.738,-11.230,158.691
1678023914.938,-123.535,-48.340,-38.086,-57.129,177.734
1678023914.942,-141.113,-48.828,-40.039,-99.609,-163.574
1678023914.946,-83.496,-41.504,-36.621,-78.125,-107.910
1678023914.946,-27.832,-43.457,-36.621,-51.270,-30.762
1678023914.950,-33.203,-45.898,-35.645,-41.504,-212.891
1678023914.954,-86.914,-46.875,-31.738,-65.430,-207.520
1678023914.958,-127.930,-42.480,-31.738,-90.820,-25.391
1678023914.962,-83.984,-39.062,-30.762,-69.824,-59.570
1678023914.966,-34.668,-42.480,-33.203,-30.273,-98.145
1678023914.970,-31.250,-44.922,-28.320,-21.484,41.016
1678023914.973,-71.777,-43.457,-20.020,-61.035,166.504
1678023914.977,-125.488,-47.363,-15.625,-83.496,245.605
1678023914.981,-84.961,-52.734,-19.531,-66.406,5.859
1678023914.985,-17.578,-46.875,-19.043,-33.203,-133.789
1678023914.989,-14.160,-43.945,-11.719,1.465,78.125
1678023914.991,-71.289,-44.434,-11.719,-31.250,13.184
1678023914.995,-107.910,-40.527,-15.625,-76.660,-216.309
1678023914.999,-62.988,-41.504,-17.578,-69.336,-237.793
1678023915.003,-9.766,-38.574,-18.066,-40.039,-147.461
1678023915.007,-8.301,-32.227,-20.020,-18.555,-95.215
1678023915.011,-57.129,-26.367,-18.066,-32.227,-74.219
1678023915.015,-109.375,-27.344,-18.066,-71.289,-121.094
1678023915.018,-92.285,-38.086,-17.578,-63.477,144.043
1678023915.022,-16.113,-35.645,-8.301,-13.672,212.402
1678023915.026,4.883,-31.250,-4.883,5.371,-135.254
1678023915.030,-55.176,-35.156,-13.184,-23.438,-132.324
1678023915.034,-104.492,-34.180,-14.648,-71.289,-123.047
1678023915.036,-88.379,-29.785,-10.742,-77.148,-191.406
1678023915.040,-20.508,-29.785,-4.883,-28.320,-182.129
1678023915.044,-4.395,-33.691,-6.836,16.113,-120.605
1678023915.048,-43.457,-37.109,-17.090,-3.418,-106.445
1678023915.052,-88.379,-39.551,-19.043,-53.711,-155.273
1678023915.056,-91.309,-39.551,-15.625,-64.941,-140.137
1678023915.060,-29.297,-42.480,-15.137,-28.809,41.504
1678023915.063,-10.742,-45.410,-17.090,15.625,107.422
1678023915.067,-51.270,-41.504,-17.578,4.395,-84.473
1678023915.071,-95.703,-39.062,-17.578,-47.852,-155.762
1678023915.075,-100.098,-32.715,-17.090,-64.941,-24.414
1678023915.079,-41.992,-32.715,-17.578,-39.551,6.836
1678023915.081,2.441,-36.621,-16.113,5.371,-118.164
1678023915.085,-4.395,-34.180,-10.254,17.578,-70.801
1678023915.089,-87.402,-31.738,-6.836,-37.109,-3.906
1678023915.093,-121.582,-31.738,-9.277,-56.152,-109.863
1678023915.097,-48.828,-30.273,-4.883,-20.996,-112.305
1678023915.101,-1.953,-31.738,-5.859,3.418,-1.953
1678023915.105,-20.996,-33.203,-11.719,3.906,215.332
1678023915.108,-73.242,-33.691,-11.230,-33.691,129.395
1678023915.112,-102.539,-30.273,-8.301,-62.012,-236.816
1678023915.116,-54.688,-32.227,-4.883,-32.715,-189.453
1678023915.120,-5.859,-37.109,-7.812,-6.836,-120.605
1678023915.124,-22.461,-39.551,-9.277,7.812,-121.094
1678023915.128,-70.312,-45.898,-8.789,0.488,-105.957
1678023915.132,-97.168,-43.945,-10.742,-39.062,-95.215
1678023915.136,-59.082,-41.992,-16.602,-44.434,-9.277
1678023915.140,-9.766,-45.898,-20.020,-15.625,-82.520
1678023915.144,-23.926,-46.387,-11.719,8.301,-179.688
1678023915.148,-80.078,-45.410,-7.324,-12.695,23.438
1678023915.152,-119.141,-41.504,-15.625,-67.871,91.309
1678023915.155,-83.008,-41.016,-16.602,-75.195,-159.180
1678023915.159,-20.996,-42.480,-13.184,-43.457,-205.078
1678023915.163,-18.066,-41.992,-15.625,-23.926,-90.332
1678023915.167,-58.105,-40.039,-17.090,-35.156,-35.645
1678023915.171,-90.332,-42.480,-17.578,-42.480,-113.770
1678023915.187,-59.570,-43.945,-14.648,-45.898,-153.320
1678023915.191,-18.555,-35.645,-17.578,-62.988,-36.621
1678023915.195,-29.785,-32.715,-18.555,-49.805,0.488
1678023915.199,-54.688,-30.273,-18.066,-52.734,-153.320
1678023915.203,-100.586,-27.832,-11.719,-83.496,-150.391
1678023915.207,-115.234,-33.691,-7.324,-97.168,120.605
1678023915.211,-45.410,-37.109,-17.090,-77.637,126.465
1678023915.214,-19.043,-32.227,-15.625,-41.992,-126.465
1678023915.218,-84.961,-33.691,-13.184,-40.527,-125.000
1678023915.222,-131.836,-41.504,-19.043,-60.547,19.531
1678023915.226,-85.938,-38.086,-20.508,-80.078,-88.379
1678023915.230,-41.016,-32.715,-20.996,-59.570,-228.516
1678023915.231,-36.621,-33.691,-20.508,-29.785,-116.699
1678023915.235,-53.223,-36.133,-17.090,-21.484,-87.402
1678023915.239,-118.164,-36.621,-12.207,-46.387,-191.406
1678023915.243,-113.281,-30.273,-7.812,-72.754,-160.645
1678023915.247,-36.133,-29.785,-8.301,-58.594,1.953
1678023915.251,-6.836,-29.297,-18.066,-27.344,38.086
1678023915.255,-47.363,-26.367,-26.367,-19.531,-37.109
1678023915.258,-118.652,-34.668,-27.832,-64.453,-117.188
1678023915.262,-128.906,-43.945,-30.762,-82.520,-61.035
1678023915.266,-72.266,-44.922,-35.156,-51.758,133.789
1678023915.270,-32.715,-44.922,-34.668,-26.367,74.219
1678023915.274,-43.457,-40.527,-32.715,-30.273,-84.473
1678023915.292,-103.027,-43.457,-30.762,-62.012,-97.656
1678023915.296,-136.719,-49.805,-35.156,-85.938,-79.102
1678023915.300,-68.848,-47.852,-36.621,-88.379,-170.410
1678023915.304,-21.484,-50.293,-30.762,-54.688,-96.191
1678023915.308,-44.434,-47.852,-32.715,-35.156,-11.719
1678023915.312,-101.562,-46.387,-33.203,-75.684,-17.578
1678023915.316,-129.395,-49.805,-28.809,-116.699,-49.316
1678023915.319,-74.219,-46.875,-23.438,-127.930,-138.672
1678023915.323,-5.859,-41.992,-20.508,-92.773,126.465
1678023915.327,-14.160,-41.992,-22.461,-64.941,205.078
1678023915.331,-90.820,-43.457,-23.438,-86.914,-121.094
1678023915.335,-136.719,-45.410,-26.367,-120.605,-154.785
1678023915.321,-81.543,-44.922,-30.273,-127.930,-107.422
1678023915.325,-20.508,-42.969,-34.180,-91.309,-136.230
1678023915.329,-25.391,-42.969,-33.691,-84.473,-160.645
1678023915.333,-66.895,-35.156,-27.832,-121.582,-115.723
1678023915.337,-122.070,-32.227,-25.879,-143.555,-99.609
1678023915.341,-97.168,-34.180,-19.043,-142.090,-113.281
1678023915.345,-20.996,-36.621,-18.066,-112.793,-37.598
1678023915.348,-20.020,-41.992,-25.391,-92.285,38.574
1678023915.352,-74.707,-47.852,-22.949,-88.867,-34.668
1678023915.356,-119.141,-43.945,-20.996,-94.238,-73.730
1678023915.360,-93.750,-35.156,-24.414,-106.934,-102.539
1678023915.364,-23.438,-30.273,-21.973,-68.848,-6.348
1678023915.366,-15.625,-29.297,-18.555,-29.785,282.715
1678023915.370,-80.566,-35.156,-20.020,-67.383,154.297
1678023915.374,-129.883,-37.598,-22.949,-116.699,-104.004
1678023915.378,-102.539,-34.180,-22.461,-114.746,-112.793
1678023915.382,-39.551,-34.180,-22.461,-89.844,-128.418
1678023915.386,-20.508,-39.551,-28.809,-63.965,-53.223
1678023915.390,-70.312,-43.457,-32.715,-63.477,-5.859
1678023915.393,-143.066,-41.504,-35.156,-95.215,110.352
1678023915.397,-129.395,-42.480,-35.156,-103.516,47.852
1678023915.401,-41.992,-41.504,-26.367,-80.078,-130.371
1678023915.405,-1.465,-41.016,-20.508,-41.992,-119.141
1678023915.409,-46.387,-44.922,-20.508,-32.715,-51.270
1678023915.412,-114.258,-44.922,-24.902,-68.848,-50.293
1678023915.416,-110.840,-37.598,-26.367,-92.773,-172.363
1678023915.420,-45.410,-34.668,-24.902,-64.941,-55.176
1678023915.424,-0.488,-37.109,-30.273,-25.879,20.996
1678023915.428,-22.949,-42.480,-32.227,-20.996,-187.988
1678023915.432,-101.074,-45.898,-32.715,-48.340,-172.852
1678023915.436,-113.281,-43.945,-34.180,-69.336,60.059
1678023915.439,-36.621,-42.480,-33.203,-38.574,103.516
1678023915.443,8.789,-40.039,-33.203,1.465,-106.934
1678023915.447,-22.461,-40.039,-30.762,17.090,-170.410
1678023915.451,-92.773,-43.945,-29.785,-10.254,-82.031
1678023915.455,-95.703,-36.621,-38.086,-45.898,-74.707
1678023915.472,-18.066,-32.227,-42.480,-44.434,-211.914
1678023915.476,20.996,-40.039,-41.016,-7.324,-174.316
1678023915.480,-2.441,-41.992,-39.551,19.531,165.039
1678023915.484,-65.430,-42.480,-38.574,-13.184,117.676
1678023915.488,-107.910,-42.969,-34.180,-42.969,-179.199
1678023915.492,-50.293,-39.551,-22.949,-35.156,-170.898
1678023915.496,27.344,-32.227,-18.066,1.465,123.535
1678023915.499,16.113,-31.738,-23.926,19.043,146.484
1678023915.503,-57.617,-38.086,-24.902,-5.859,-120.117
1678023915.507,-100.098,-40.039,-22.949,-24.902,-57.617
1678023915.511,-45.410,-37.598,-28.320,-29.785,-42.480
1678023915.515,25.391,-40.039,-32.227,-17.578,-135.254
1678023915.501,25.391,-33.203,-24.902,12.207,-121.094
1678023915.505,-26.855,-20.508,-14.648,10.254,29.785
1678023915.509,-87.891,-25.391,-19.043,-18.066,38.574
1678023915.513,-51.270,-32.715,-22.461,-28.809,-174.316
1678023915.517,24.414,-33.691,-18.555,-14.160,-80.566
1678023915.521,31.738,-35.645,-19.043,-0.977,162.109
1678023915.525,-28.320,-37.598,-14.648,-10.742,208.008
1678023915.528,-95.215,-40.039,-18.066,-35.156,-50.781
1678023915.532,-48.340,-36.621,-22.949,-38.086,-263.672
1678023915.536,35.156,-29.297,-20.996,-5.859,-97.168
1678023915.540,43.945,-28.320,-20.996,30.273,161.621
1678023915.544,-0.488,-26.367,-24.902,8.301,-42.969
1678023915.562,-62.988,-21.484,-23.926,-41.504,-178.223
1678023915.566,-51.270,-26.367,-27.832,-66.406,-72.754
1678023915.570,27.344,-29.297,-32.227,-54.199,-56.152
1678023915.574,53.223,-22.461,-30.762,-43.457,-139.648
1678023915.578,16.113,-24.414,-33.203,-59.570,-81.055
1678023915.582,-53.711,-26.367,-35.156,-75.684,41.504
1678023915.586,-54.199,-24.414,-31.250,-90.820,-62.012
1678023915.589,20.996,-22.949,-25.879,-87.402,-120.117
1678023915.593,43.945,-22.461,-25.879,-63.477,-59.082
1678023915.597,-8.789,-27.832,-33.691,-61.523,212.402
1678023915.601,-77.637,-30.762,-41.504,-83.496,177.734
1678023915.605,-71.289,-24.414,-33.203,-111.328,-156.250
1678023915.606,11.230,-22.949,-30.762,-102.051,-118.164
1678023915.610,45.410,-29.297,-36.133,-53.711,-59.570
1678023915.614,8.301,-29.297,-30.762,-39.062,-121.582
1678023915.618,-58.594,-25.391,-27.344,-82.031,-184.082
1678023915.622,-80.078,-26.367,-36.621,-110.352,-135.742
1678023915.626,-5.859,-28.809,-39.551,-94.727,-88.379
1678023915.630,52.734,-26.855,-33.691,-48.340,-133.301
1678023915.633,40.039,-21.973,-35.156,-36.133,-178.223
1678023915.637,-27.832,-21.484,-35.156,-51.270,-14.648
1678023915.641,-71.777,-23.438,-31.738,-57.617,217.285
1678023915.645,-9.277,-24.414,-34.180,-58.594,2.441
1678023915.649,54.199,-26.367,-38.086,-35.156,-134.766
1678023915.652,38.574,-24.414,-37.598,-11.230,36.133
1678023915.656,-24.414,-23.438,-28.809,-21.484,10.254
1678023915.660,-61.035,-29.297,-27.832,-35.645,-187.012
1678023915.664,-1.953,-24.414,-32.227,-16.113,-163.574
1678023915.668,63.965,-20.508,-26.367,33.691,-71.289
1678023915.672,59.082,-25.391,-21.484,51.270,-5.371
1678023915.676,0.488,-25.879,-19.531,10.742,-44.434
1678023915.679,-51.758,-24.414,-14.648,-11.230,-138.184
1678023915.683,-21.973,-20.508,-15.625,7.324,57.617
1678023915.687,42.480,-18.066,-17.090,39.062,75.684
1678023915.691,60.059,-21.484,-15.625,62.012,-128.906
1678023915.695,15.625,-16.602,-12.207,66.895,-38.086
1678023915.696,-40.527,-10.254,-5.371,54.688,1.953
1678023915.700,-7.812,-15.137,-5.371,36.133,-96.191
1678023915.704,51.758,-17.578,-9.277,59.082,-125.000
1678023915.708,54.199,-18.555,-12.695,84.961,-40.527
1678023915.712,1.953,-21.484,-20.020,65.918,9.277
1678023915.716,-65.918,-23.926,-22.949,35.156,27.832
1678023915.720,-38.574,-21.973,-26.855,10.254,-59.082
1678023915.723,48.340,-18.555,-26.367,41.016,0.977
1678023915.727,65.918,-19.043,-26.367,77.148,153.809
1678023915.731,14.160,-24.414,-29.297,57.129,-69.824
1678023915.735,-64.941,-32.227,-30.273,24.902,-131.348
1678023915.739,-66.895,-29.785,-31.738,17.090,63.965
1678023915.743,19.043,-26.367,-26.855,37.109,62.988
1678023915.747,65.918,-25.391,-28.320,65.430,-79.590
1678023915.751,21.973,-28.320,-30.762,60.059,-67.871
1678023915.755,-60.547,-29.297,-29.297,22.461,-33.203
1678023915.759,-79.590,-32.227,-34.180,-1.953,-87.402
1678023915.763,-14.160,-36.621,-34.668,11.230,-70.801
1678023915.767,42.969,-28.320,-35.645,18.555,26.367
1678023915.770,7.324,-23.926,-34.180,17.090,193.848
1678023915.774,-60.547,-27.344,-31.250,-1.465,54.688
1678023915.778,-52.734,-25.879,-29.297,-21.484,-194.336
1678023915.782,16.113,-20.020,-27.832,-14.648,-121.582
1678023915.786,69.336,-14.648,-29.785,21.973,-107.910
1678023915.786,47.363,-8.301,-28.320,29.297,-168.945
1678023915.790,-53.223,-8.789,-28.809,-14.160,-143.555
1678023915.794,-88.867,-15.137,-29.785,-38.574,-109.375
1678023915.798,-9.277,-11.719,-26.855,-33.691,-73.242
1678023915.802,55.664,-6.348,-27.344,0.977,-23.926
1678023915.806,31.738,-14.648,-30.762,0.977,-42.480
1678023915.810,-51.758,-20.508,-28.320,-22.949,44.434
1678023915.813,-96.680,-19.043,-25.391,-33.203,260.742
1678023915.817,-28.809,-19.531,-30.273,-41.016,23.438
1678023915.821,45.898,-20.508,-25.879,-16.602,-242.676
1678023915.825,22.461,-20.020,-14.648,17.578,-76.172
1678023915.829,-51.758,-18.066,-11.719,-0.488,-43.457
1678023915.831,-104.980,-18.066,-18.555,-29.297,-204.102
1678023915.835,-41.504,-16.602,-16.113,-16.602,-249.512
1678023915.839,48.828,-7.324,-7.812,15.625,-131.348
1678023915.843,41.992,1.465,-7.324,28.809,-43.457
1678023915.847,-23.438,-0.488,-13.672,13.184,-96.191
1678023915.851,-75.195,-4.395,-15.137,-9.277,-111.328
1678023915.855,-43.945,-2.441,-15.137,-17.090,168.457
1678023915.858,18.555,-0.977,-17.090,-0.488,208.984
1678023915.862,25.391,-13.184,-18.555,16.602,-118.164
1678023915.866,-27.832,-20.508,-21.484,10.742,-120.117
1678023915.870,-94.238,-19.043,-26.855,-15.137,0.977
1678023915.874,-70.312,-20.508,-25.879,-20.508,-112.305
1678023915.876,14.648,-20.996,-20.020,5.859,-204.590
1678023915.880,24.414,-23.926,-22.949,32.227,-77.148
1678023915.884,-33.203,-28.320,-26.367,33.203,-5.371
1678023915.888,-94.727,-26.367,-26.855,-1.465,-125.977
1678023915.892,-91.797,-21.973,-26.367,-14.648,-198.242
1678023915.896,-12.695,-20.508,-28.809,9.766,64.453
1678023915.900,37.598,-14.648,-32.715,20.996,209.961
1678023915.903,-10.742,-14.160,-37.109,20.508,-43.457
1678023915.907,-94.238,-12.695,-32.227,4.395,-106.934
1678023915.911,-94.238,-14.160,-25.391,0.977,94.727
1678023915.915,-12.695,-13.672,-27.344,6.836,215.820
1678023915.919,28.320,-10.254,-29.297,24.902,35.645
1678023915.923,-14.160,-13.672,-29.785,41.016,-66.406
1678023915.927,-89.844,-12.207,-28.809,17.578,66.406
1678023915.931,-103.516,-17.090,-31.738,-7.324,70.801
1678023915.935,-22.461,-18.066,-31.738,-4.395,-84.473
1678023915.939,30.273,-9.766,-27.832,37.109,-56.152
1678023915.943,-7.812,-9.277,-26.855,55.176,68.359
1678023915.947,-85.449,-7.812,-28.320,36.621,88.867
1678023915.950,-93.262,-4.883,-26.855,15.625,-42.480
1678023915.954,-5.859,-3.906,-21.484,20.020,-70.312
1678023915.958,53.711,-3.418,-21.484,52.734,29.785
1678023915.962,28.320,-0.488,-23.438,69.824,59.082
1678023915.966,-52.246,-3.418,-24.414,48.828,-26.855
1678023915.996,-95.215,-10.742,-26.367,30.762,-15.137
1678023916.000,-34.180,-10.742,-26.855,48.340,186.523
1678023916.004,27.832,-10.254,-31.738,56.641,28.320
1678023916.008,15.625,-18.555,-39.062,68.359,-112.305
1678023916.012,-36.621,-18.555,-36.621,72.266,94.727
1678023916.016,-91.309,-14.160,-26.855,51.270,238.281
1678023916.020,-43.945,-15.625,-24.414,42.969,105.469
1678023916.023,37.598,-13.672,-21.484,73.242,-50.781
1678023916.027,40.527,-9.277,-6.836,87.402,175.293
1678023916.031,-25.879,-6.348,-5.371,63.965,291.992
1678023916.035,-109.375,-12.207,-11.230,24.902,-36.621
1678023916.039,-68.359,-18.555,-10.254,14.648,-42.969
1678023916.026,27.832,-23.926,-11.230,51.270,110.840
1678023916.030,29.297,-29.785,-18.555,55.176,124.512
1678023916.034,-42.969,-28.809,-20.508,19.531,-53.223
1678023916.038,-108.887,-25.391,-20.020,8.789,-143.066
1678023916.042,-68.848,-23.926,-20.508,9.277,-30.273
1678023916.046,18.555,-24.414,-23.438,20.996,41.016
1678023916.050,34.180,-31.250,-25.879,26.855,-52.734
1678023916.053,-32.227,-32.715,-26.367,11.230,-43.457
1678023916.057,-103.027,-28.320,-30.762,-14.648,34.668
1678023916.061,-74.707,-26.855,-26.855,-33.691,-32.715
1678023916.065,20.020,-26.367,-29.785,-11.719,-156.250
1678023916.069,44.922,-29.297,-35.156,6.836,-126.465
1678023916.071,-22.949,-38.086,-31.738,-19.531,108.398
1678023916.075,-104.004,-39.062,-34.668,-59.082,18.555
1678023916.079,-83.008,-33.203,-32.227,-72.266,-178.223
1678023916.083,16.602,-30.273,-31.738,-45.898,48.340
1678023916.087,55.176,-28.809,-38.574,-22.949,142.090
1678023916.091,10.254,-24.902,-37.109,-20.996,-48.828
1678023916.095,-71.777,-22.949,-30.273,-27.832,-65.430
1678023916.098,-68.848,-24.902,-29.785,-48.340,59.082
1678023916.102,31.250,-15.625,-33.203,-39.551,138.672
1678023916.106,77.148,-12.695,-28.809,-7.324,-77.148
1678023916.110,32.227,-13.672,-25.391,-5.371,-108.398
1678023916.114,-39.551,-12.695,-24.902,-31.738,87.402
1678023916.116,-54.199,-12.207,-22.461,-43.945,-29.297
1678023916.120,12.207,-17.090,-24.902,-39.551,-216.797
1678023916.124,54.688,-22.949,-27.344,-20.508,-169.434
1678023916.128,22.461,-18.066,-26.367,-19.043,-122.559
1678023916.132,-67.871,-26.367,-28.320,-48.340,-128.418
1678023916.136,-90.820,-32.227,-25.391,-57.617,-105.957
1678023916.140,5.859,-26.855,-22.949,-47.852,-24.902
1678023916.143,55.664,-26.855,-26.855,-20.508,267.578
1678023916.147,19.531,-24.902,-30.273,-4.883,273.926
1678023916.151,-71.289,-21.484,-30.762,-33.203,-47.363
1678023916.155,-124.512,-21.973,-31.738,-60.059,-69.824
1678023916.159,-43.945,-20.996,-26.367,-61.523,-10.742
1678023916.161,35.645,-24.902,-26.367,-31.738,-25.391
1678023916.165,20.020,-30.273,-32.227,-9.766,-79.102
1678023916.169,-62.500,-24.902,-38.086,-23.926,-62.012
1678023916.173,-109.375,-22.461,-39.062,-48.828,-51.270
1678023916.177,-47.852,-24.414,-39.551,-58.594,-121.094
1678023916.181,23.438,-19.043,-36.621,-23.438,-125.000
1678023916.185,23.926,-13.184,-33.203,3.906,97.656
1678023916.188,-47.363,-12.207,-38.086,-22.949,230.469
1678023916.192,-109.375,-17.090,-38.086,-41.016,15.137
1678023916.196,-46.875,-17.090,-31.738,-34.180,-237.305
1678023916.200,48.340,-11.719,-28.320,-7.324,5.859
1678023916.204,53.711,-13.672,-29.785,15.625,226.562
1678023916.221,-21.973,-16.602,-30.273,-9.766,-103.027
1678023916.225,-95.703,-17.090,-29.297,-38.086,-223.145
1678023916.229,-50.781,-15.625,-28.320,-33.203,-144.043
1678023916.233,48.828,-17.090,-33.203,0.488,-81.543
1678023916.237,66.895,-16.602,-33.203,30.273,-85.449
1678023916.241,3.418,-10.742,-30.273,18.066,-52.246
1678023916.245,-75.684,-12.207,-32.715,-13.184,99.609
1678023916.248,-56.152,-11.719,-28.320,-27.344,55.176
1678023916.252,31.738,-3.418,-20.996,-7.324,-107.422
1678023916.256,59.570,-1.953,-21.973,33.203,-51.758
1678023916.260,25.879,-3.906,-20.996,38.574,121.094
1678023916.264,-53.711,-4.395,-20.996,-19.531,-4.395
1678023916.251,-73.730,-5.371,-22.949,-65.918,-234.863
1678023916.255,3.418,-7.324,-18.066,-51.270,-153.320
1678023916.259,53.711,-12.207,-19.531,-16.113,-23.926
1678023916.263,13.672,-10.742,-20.020,-8.301,-97.656
1678023916.267,-68.359,-10.254,-22.461,-44.922,-141.602
1678023916.271,-60.547,-18.066,-27.832,-51.758,-41.504
1678023916.275,21.484,-17.578,-23.438,-22.949,66.406
1678023916.278,60.547,-5.859,-21.484,-8.301,-16.113
1678023916.282,34.668,2.441,-17.578,9.766,-127.441
1678023916.286,-39.062,7.324,-19.531,2.930,-8.789
1678023916.290,-48.340,0.977,-29.297,-9.766,252.441
1678023916.294,43.945,-2.930,-29.297,12.207,55.176
1678023916.312,99.121,7.812,-28.320,39.062,-158.691
1678023916.316,73.730,8.301,-29.785,35.156,96.191
1678023916.320,-6.348,1.465,-28.320,-6.348,102.539
1678023916.324,-46.875,-0.977,-28.809,-31.250,-187.012
1678023916.328,31.738,0.000,-32.227,-13.184,-115.723
1678023916.332,102.539,-0.488,-31.738,23.926,16.602
1678023916.336,83.008,0.488,-30.762,51.758,-19.043
1678023916.339,-0.977,-3.418,-28.320,25.391,-87.402
