timestamps,TP9,AF7,AF8,TP10,Right AUX
1688814016.043,98.145,-52.734,-51.270,-175.293,-120.117
1688814016.047,4.395,-53.711,-51.758,-119.141,7.324
1688814016.051,-210.449,-56.152,-47.852,-15.625,237.305
1688814016.055,-231.934,-53.711,-51.758,-14.648,78.125
1688814016.059,4.395,-52.246,-56.152,-133.301,-83.984
1688814016.063,92.285,-51.758,-52.734,-163.086,158.203
1688814016.067,16.113,-51.758,-55.664,-118.164,212.402
1688814016.070,-187.012,-51.758,-55.176,-20.508,20.508
1688814016.074,-245.605,-52.246,-50.293,7.324,117.676
1688814016.078,-6.836,-50.293,-50.293,-102.051,57.617
1688814016.082,113.770,-44.922,-49.316,-145.508,-105.957
1688814016.086,53.223,-43.457,-46.387,-113.770,-154.785
1688814016.088,-141.113,-46.387,-42.969,-11.230,14.648
1688814016.092,-230.957,-44.922,-42.480,39.062,111.328
1688814016.096,-7.324,-43.457,-41.504,-67.383,-44.434
1688814016.100,145.020,-48.828,-38.086,-142.090,-198.242
1688814016.104,68.359,-49.316,-34.180,-97.656,-113.770
1688814016.108,-134.277,-48.340,-34.180,5.371,103.516
1688814016.112,-228.516,-46.387,-32.715,51.758,175.781
1688814016.115,-32.227,-39.551,-28.809,-38.574,36.133
1688814016.119,130.859,-41.504,-30.762,-126.465,5.859
1688814016.123,88.379,-51.270,-37.598,-113.770,246.094
1688814016.127,-80.078,-45.898,-36.621,-32.227,184.570
1688814016.131,-244.141,-41.992,-37.598,35.645,131.836
1688814016.133,-89.844,-43.945,-42.480,-49.805,219.727
1688814016.137,105.957,-39.062,-41.504,-137.695,30.762
1688814016.141,96.191,-35.645,-36.133,-126.953,-166.992
1688814016.145,-61.035,-37.598,-34.668,-45.410,-126.465
1688814016.149,-247.559,-41.504,-38.574,32.715,46.387
1688814016.153,-122.559,-45.410,-39.062,-37.109,127.441
1688814016.157,84.961,-48.828,-38.086,-132.812,-56.152
1688814016.160,90.332,-45.410,-41.016,-130.859,-211.426
1688814016.164,-41.504,-41.504,-36.133,-48.340,184.570
1688814016.168,-238.281,-41.992,-28.320,46.387,443.359
1688814016.172,-150.879,-44.922,-30.762,-9.766,84.961
1688814016.176,78.125,-46.387,-32.715,-112.305,-90.820
1688814016.178,104.004,-46.875,-34.180,-122.559,-102.051
1688814016.182,-17.578,-46.387,-40.527,-66.406,-129.395
1688814016.186,-230.957,-49.805,-43.457,28.320,-9.766
1688814016.190,-197.754,-52.734,-43.457,3.418,77.637
1688814016.194,41.992,-51.270,-43.945,-111.816,-46.387
1688814016.198,103.027,-48.340,-41.016,-136.719,-130.371
1688814016.202,1.953,-45.410,-33.203,-78.613,-77.637
1688814016.205,-212.891,-46.387,-32.715,23.926,141.113
1688814016.209,-211.426,-44.434,-32.715,25.879,285.645
1688814016.213,40.039,-38.086,-28.809,-89.355,4.395
1688814016.217,120.605,-38.086,-25.879,-129.883,-226.074
1688814016.221,37.109,-44.434,-27.832,-92.773,103.027
1688814016.223,-166.992,-43.945,-31.738,7.812,323.242
1688814016.227,-213.867,-38.574,-28.320,-0.488,60.059
1688814016.231,23.438,-41.504,-32.715,-182.129,-125.488
1688814016.235,133.301,-46.387,-35.645,-278.809,-109.375
1688814016.239,58.594,-48.828,-31.738,-266.113,-112.305
1688814016.243,-141.113,-44.922,-33.691,-182.617,-25.391
1688814016.247,-218.262,-37.598,-35.645,-157.715,152.344
1688814016.250,-1.953,-36.133,-36.621,-251.953,221.191
1688814016.254,127.930,-35.156,-38.086,-289.062,110.840
1688814016.258,81.055,-33.203,-37.109,-253.906,-152.832
1688814016.262,-116.699,-36.621,-33.691,-159.180,-21.973
1688814016.266,-234.863,-41.016,-34.180,-108.887,109.863
1688814016.269,-27.832,-40.527,-35.156,-208.008,-43.945
1688814016.273,121.582,-40.527,-33.691,-267.578,-152.344
1688814016.277,100.586,-36.133,-30.273,-231.445,-101.074
1688814016.281,-70.801,-34.668,-26.367,-128.906,80.078
1688814016.285,-236.328,-40.527,-30.273,-51.758,76.660
1688814016.289,-65.918,-37.109,-32.715,-126.953,-20.996
1688814016.293,119.629,-31.738,-28.809,-192.871,89.355
1688814016.296,104.004,-26.367,-26.367,-158.691,210.449
1688814016.300,-47.852,-20.996,-29.297,-61.035,62.500
1688814016.304,-224.609,-22.949,-29.297,33.203,61.523
1688814016.308,-86.426,-24.902,-26.367,-38.086,63.477
1688814016.312,124.023,-29.297,-31.250,-143.066,-63.965
1688814016.314,125.977,-28.320,-34.180,-139.160,-87.891
1688814016.318,-22.461,-29.297,-31.250,-68.359,-66.895
1688814016.322,-229.004,-39.062,-38.574,25.879,155.762
1688814016.326,-129.395,-39.551,-47.363,-31.250,174.316
1688814016.330,106.934,-38.086,-46.387,-158.203,-126.465
1688814016.334,128.418,-36.133,-40.039,-182.617,-179.688
1688814016.338,-2.441,-38.086,-35.156,-122.070,182.617
1688814016.341,-210.938,-43.945,-40.527,-12.207,460.449
1688814016.345,-153.809,-38.574,-43.945,-34.668,104.980
1688814016.349,90.820,-34.668,-39.551,-131.836,-108.887
1688814016.353,133.789,-35.645,-47.363,-145.996,-97.656
1688814016.357,15.137,-36.133,-52.246,-91.797,-77.637
1688814016.373,-205.078,-41.016,-49.805,18.066,5.371
1688814016.377,-197.754,-44.922,-54.199,14.160,24.902
1688814016.381,51.758,-42.969,-53.223,-95.703,-112.305
1688814016.385,129.883,-40.039,-52.734,-118.652,-196.777
1688814016.389,32.227,-43.457,-53.711,-77.148,-171.875
1688814016.393,-179.199,-49.805,-51.270,29.785,121.094
1688814016.397,-215.820,-47.363,-52.246,53.223,434.082
1688814016.400,19.043,-40.527,-52.734,-69.336,120.605
1688814016.404,115.234,-43.457,-53.223,-112.305,-203.613
1688814016.408,41.504,-50.293,-49.805,-60.547,-53.223
1688814016.412,-151.855,-45.898,-45.898,44.434,223.145
1688814016.416,-223.145,-39.062,-42.480,75.195,160.645
1688814016.418,3.906,-40.527,-44.922,-41.992,-84.473
1688814016.422,131.836,-46.875,-52.246,-94.727,-97.656
1688814016.426,72.754,-47.852,-54.688,-61.035,17.090
1688814016.430,-124.023,-49.316,-51.270,23.926,-56.152
1688814016.434,-243.652,-54.688,-46.387,74.219,17.090
1688814016.438,-46.875,-53.223,-48.340,-34.180,74.219
1688814016.442,103.516,-49.805,-47.363,-105.957,10.742
1688814016.445,72.754,-46.875,-43.457,-79.102,-80.566
1688814016.449,-98.145,-48.828,-43.945,8.789,-53.223
1688814016.453,-233.887,-45.410,-38.574,85.449,282.715
1688814016.457,-43.945,-32.227,-34.180,-2.441,366.211
1688814016.461,129.395,-33.691,-32.227,-100.098,-51.758
1688814016.463,108.398,-41.992,-32.715,-82.031,-135.254
1688814016.467,-53.223,-41.992,-35.645,0.977,59.082
1688814016.471,-225.098,-41.504,-32.227,70.801,63.477
1688814016.475,-74.707,-37.598,-25.391,-2.930,-104.492
1688814016.479,113.281,-31.738,-26.855,-91.797,-97.168
1688814016.483,89.355,-32.715,-27.832,-86.426,-49.316
1688814016.487,-57.129,-36.133,-31.250,-20.996,-32.227
1688814016.490,-234.863,-40.527,-34.668,49.316,88.379
1688814016.494,-125.977,-41.504,-29.785,-10.742,132.324
1688814016.498,82.520,-38.086,-27.344,-102.539,110.840
1688814016.502,95.215,-36.133,-31.738,-112.305,-83.008
1688814016.506,-27.344,-37.109,-36.621,-53.711,-106.445
1688814016.508,-222.168,-39.551,-36.621,46.387,174.805
1688814016.512,-163.086,-38.574,-36.133,8.789,289.551
1688814016.516,64.941,-35.156,-40.039,-117.676,-42.480
1688814016.520,106.445,-41.016,-41.016,-136.230,-211.914
1688814016.524,-8.301,-44.434,-37.598,-69.336,-79.590
1688814016.528,-206.543,-44.922,-37.598,36.133,132.812
1688814016.532,-183.105,-44.922,-37.598,21.484,112.793
1688814016.535,50.781,-38.574,-37.598,-90.332,-171.875
1688814016.539,117.188,-41.992,-40.039,-103.516,42.969
1688814016.543,18.066,-46.387,-39.551,-50.293,234.375
1688814016.547,-183.105,-45.898,-39.062,36.621,-0.488
1688814016.551,-198.730,-49.805,-39.062,36.133,-26.367
1688814016.554,31.250,-46.875,-40.039,-84.961,4.395
1688814016.558,120.605,-40.527,-37.598,-129.883,-63.965
1688814016.562,43.945,-38.574,-38.574,-94.238,-185.547
1688814016.566,-161.621,-41.504,-38.574,-0.977,-8.789
1688814016.570,-228.516,-43.945,-37.109,34.668,160.645
1688814016.574,-3.418,-41.504,-35.645,-71.289,20.020
1688814016.578,109.863,-43.945,-30.273,-124.023,-64.941
1688814016.581,49.316,-42.969,-32.715,-98.633,61.523
1688814016.585,-143.066,-43.945,-35.156,-11.719,284.180
1688814016.589,-251.953,-43.457,-32.227,25.879,167.480
1688814016.593,-41.992,-38.574,-32.715,-75.684,-55.176
1688814016.597,100.586,-44.434,-38.086,-138.672,-110.352
1688814016.599,46.875,-48.340,-41.016,-110.352,-15.137
1688814016.603,-136.230,-48.340,-41.016,-21.973,-4.395
1688814016.607,-269.531,-49.805,-43.945,28.320,36.621
1688814016.611,-83.984,-50.293,-49.805,-64.453,225.586
1688814016.615,79.102,-52.734,-56.641,-146.484,129.883
1688814016.619,46.875,-58.105,-65.918,-135.742,-106.934
1688814016.623,-114.258,-66.406,-69.824,-50.781,-98.633
1688814016.626,-272.949,-68.848,-62.988,31.738,187.012
1688814016.630,-110.840,-61.523,-55.664,-42.480,269.043
1688814016.634,86.914,-57.617,-50.293,-135.742,-129.395
1688814016.638,80.566,-54.199,-47.363,-120.605,-180.176
1688814016.642,-68.848,-50.781,-46.387,-42.969,-6.836
1688814016.644,-249.512,-48.340,-40.527,44.434,69.824
1688814016.648,-119.629,-41.504,-40.039,-6.348,-46.875
1688814016.652,95.215,-41.504,-44.434,-99.121,-148.438
1688814016.656,98.633,-42.969,-48.340,-107.910,-119.629
1688814016.660,-34.668,-41.992,-50.293,-38.574,-68.848
1688814016.664,-227.051,-44.434,-45.898,60.059,92.285
1688814016.668,-151.367,-48.340,-47.852,11.230,259.766
1688814016.671,69.336,-52.246,-50.781,-91.797,361.328
1688814016.675,94.238,-53.223,-47.852,-110.840,126.953
1688814016.679,-29.297,-51.758,-41.992,-56.152,-84.473
1688814016.683,-225.098,-54.199,-41.504,33.203,17.578
1688814016.687,-189.453,-56.152,-43.457,-1.465,142.578
1688814016.689,39.551,-54.688,-40.527,-102.539,62.500
1688814016.693,105.469,-56.641,-41.016,-126.953,-166.016
1688814016.697,0.977,-61.035,-41.016,-74.219,-11.719
1688814016.701,-216.309,-58.594,-37.598,25.391,230.469
1688814016.705,-224.609,-53.223,-35.645,19.531,90.820
1688814016.709,20.020,-55.664,-38.574,-95.703,-1.465
1688814016.713,103.516,-54.688,-40.039,-122.559,152.832
1688814016.716,20.508,-51.758,-35.156,-77.148,226.074
1688814016.720,-177.734,-48.828,-29.297,11.719,15.625
1688814016.724,-234.375,-45.410,-31.738,29.297,-21.484
1688814016.728,-7.812,-39.062,-36.133,-86.426,5.371
1688814016.732,100.586,-39.062,-37.598,-132.812,-80.566
1688814016.733,31.738,-43.945,-40.039,-98.633,-157.715
1688814016.737,-165.527,-45.410,-39.551,2.441,-28.809
1688814016.741,-257.324,-42.969,-36.621,41.992,90.820
1688814016.745,-29.785,-39.062,-37.109,-70.312,-29.297
1688814016.749,111.816,-41.992,-37.598,-131.836,-191.895
1688814016.753,59.082,-43.457,-39.062,-100.586,-85.449
1688814016.757,-125.000,-41.504,-40.527,-0.977,301.270
1688814016.760,-250.977,-39.062,-38.086,53.711,266.602
1688814016.764,-52.246,-37.109,-37.598,-43.457,-73.730
1688814016.768,112.793,-37.109,-40.039,-116.211,-59.570
1688814016.772,79.590,-36.133,-36.133,-102.539,-39.551
1688814016.776,-89.355,-34.668,-28.320,-24.902,-1.465
1688814016.793,-246.094,-33.691,-29.297,49.805,124.023
1688814016.797,-77.637,-35.645,-33.203,-29.297,130.859
1688814016.801,113.281,-43.457,-34.180,-124.512,71.777
1688814016.805,98.145,-45.410,-39.551,-118.164,-112.305
1688814016.809,-59.570,-45.898,-40.039,-34.180,-15.137
1688814016.813,-244.629,-45.898,-37.109,47.852,217.773
1688814016.817,-119.629,-45.898,-40.039,-26.855,196.289
1688814016.820,89.355,-40.039,-37.598,-133.789,-108.887
1688814016.824,94.238,-41.504,-35.156,-140.137,-242.676
1688814016.828,-49.805,-50.781,-44.922,-61.523,40.527
1688814016.832,-249.512,-49.316,-47.852,31.250,208.984
1688814016.836,-154.297,-49.316,-43.457,-20.996,-69.824
1688814016.838,78.125,-51.270,-43.457,-121.582,-135.742
1688814016.842,102.539,-47.852,-43.945,-133.789,-64.941
1688814016.846,-26.367,-47.852,-39.551,-69.336,-114.258
1688814016.850,-233.398,-50.781,-35.645,40.039,-22.949
1688814016.854,-186.035,-52.734,-37.109,13.672,66.406
1688814016.858,45.410,-57.617,-42.969,-107.910,33.203
1688814016.862,87.891,-52.734,-45.410,-132.812,-19.043
1688814016.865,-13.672,-50.293,-47.852,-75.684,-103.516
1688814016.869,-216.797,-54.688,-48.340,24.902,58.105
1688814016.873,-214.844,-51.270,-48.828,24.902,333.496
1688814016.877,25.879,-45.410,-48.340,-87.891,-31.738
1688814016.881,107.422,-47.363,-49.316,-118.652,-167.480
1688814016.884,26.855,-44.922,-52.734,-70.801,77.637
1688814016.888,-176.758,-39.062,-51.758,31.738,159.180
1688814016.892,-215.332,-37.598,-50.293,39.551,87.402
1688814016.896,19.531,-37.109,-50.781,-78.125,-56.152
1688814016.900,117.188,-40.039,-46.875,-120.605,-20.996
1688814016.904,45.410,-43.457,-45.898,-84.961,91.797
1688814016.908,-151.367,-44.922,-43.945,7.812,154.785
1688814016.911,-233.398,-45.410,-48.340,32.715,123.047
1688814016.915,-23.926,-50.293,-58.105,-74.219,117.676
1688814016.919,99.121,-48.340,-57.129,-125.000,125.977
1688814016.923,48.828,-46.875,-51.270,-102.539,-99.609
1688814016.927,-137.695,-50.781,-44.434,-17.090,-2.930
1688814016.929,-250.000,-48.340,-43.945,35.156,153.320
1688814016.933,-39.062,-45.898,-44.922,-64.453,-16.113
1688814016.937,116.699,-46.875,-44.922,-131.836,-121.094
1688814016.941,77.637,-50.293,-46.875,-111.328,-48.340
1688814016.945,-95.215,-49.805,-45.410,-23.926,-18.555
1688814016.949,-244.141,-49.316,-42.480,46.875,145.996
1688814016.953,-77.637,-54.199,-46.875,-47.363,21.973
1688814016.956,97.656,-57.129,-54.199,-126.953,-178.711
1688814016.960,79.590,-56.641,-50.781,-111.328,115.723
1688814016.964,-79.590,-49.805,-46.875,-46.875,145.996
1688814016.968,-245.117,-48.340,-44.922,26.855,12.207
1688814016.972,-106.445,-58.594,-48.828,-37.598,118.652
1688814016.973,87.891,-59.570,-51.758,-133.789,-3.906
1688814016.977,91.309,-48.828,-46.875,-129.395,-184.082
1688814016.981,-49.316,-45.898,-42.480,-53.223,-118.652
1688814016.985,-240.723,-55.176,-42.480,41.016,162.109
1688814016.989,-137.695,-55.176,-51.270,-12.695,158.691
1688814016.993,80.566,-48.828,-54.199,-118.652,-81.543
1688814016.997,103.516,-48.828,-46.387,-120.117,-112.793
1688814017.000,-15.137,-50.781,-43.457,-53.223,138.672
1688814017.004,-210.938,-42.480,-41.504,51.758,480.957
1688814017.008,-154.785,-38.574,-41.016,14.648,188.477
1688814017.012,66.895,-51.758,-46.387,-103.027,-173.340
1688814017.016,112.793,-50.781,-44.434,-116.211,-172.363
1688814017.018,2.930,-49.316,-49.805,-59.570,-111.816
1688814017.022,-208.984,-55.664,-53.711,35.156,61.523
1688814017.026,-190.918,-52.734,-53.711,26.367,88.379
1688814017.030,46.387,-47.363,-56.641,-90.820,-84.473
1688814017.034,115.723,-44.922,-53.711,-115.234,-161.133
1688814017.038,21.484,-41.016,-46.875,-52.246,-50.293
1688814017.042,-186.035,-41.504,-41.016,54.688,303.223
1688814017.045,-208.496,-42.969,-35.156,66.895,467.285
1688814017.049,35.156,-38.574,-33.203,-60.547,43.457
1688814017.053,137.695,-34.668,-33.203,-111.328,-151.367
1688814017.057,48.340,-34.180,-27.832,-58.105,50.781
1688814017.061,-166.992,-37.598,-26.855,43.945,153.320
1688814017.063,-234.863,-36.133,-28.320,49.805,90.332
1688814017.067,-5.859,-37.109,-26.367,-69.336,-74.219
1688814017.071,124.023,-36.621,-27.832,-107.910,-53.223
1688814017.075,55.176,-38.574,-34.180,-80.566,10.254
1688814017.079,-142.578,-48.828,-33.691,5.371,-12.695
1688814017.083,-246.582,-46.387,-32.715,62.012,65.918
1688814017.087,-31.250,-40.527,-35.645,-37.109,215.332
1688814017.090,125.000,-38.086,-33.203,-99.609,155.273
1688814017.094,80.566,-35.645,-30.273,-80.078,-155.762
1688814017.098,-104.980,-35.156,-31.250,9.277,-9.277
1688814017.102,-246.094,-31.738,-32.227,71.777,132.324
1688814017.106,-63.477,-35.156,-35.156,-29.785,19.531
1688814017.109,108.887,-35.156,-34.180,-108.887,-121.094
1688814017.113,79.102,-33.203,-36.133,-95.215,-127.930
1688814017.117,-92.285,-40.039,-39.551,-18.555,92.285
1688814017.121,-258.789,-41.992,-40.039,62.012,89.355
1688814017.125,-106.934,-38.574,-35.645,-19.043,-127.930
1688814017.129,85.449,-40.039,-35.645,-106.934,-78.125
1688814017.133,68.848,-41.016,-41.016,-100.098,30.762
1688814017.136,-83.496,-30.762,-30.762,-38.574,-56.641
1688814017.140,-271.973,-31.250,-33.203,35.645,-6.836
1688814017.144,-166.016,-44.434,-33.203,-24.902,154.785
1688814017.148,37.598,-38.574,-27.344,-125.488,71.289
1688814017.152,40.527,-34.668,-31.250,-142.090,-89.844
1688814017.154,-96.191,-35.645,-22.949,-86.914,-60.059
1688814017.158,-311.523,-28.809,-16.602,-7.812,203.613
1688814017.162,-247.070,-22.461,-16.113,-61.523,346.191
1688814017.166,-25.879,-21.484,-13.672,-182.129,-89.355
1688814017.170,-9.277,-26.855,-10.742,-205.566,-231.934
1688814017.174,-153.320,-28.320,-12.207,-163.086,180.664
1688814017.178,-374.023,-26.367,-11.230,-90.332,390.137
1688814017.181,-343.262,-22.461,-15.625,-139.160,100.586
1688814017.185,-136.230,-20.996,-17.090,-278.809,-128.418
1688814017.189,-99.609,-20.020,-14.648,-305.176,-23.926
1688814017.193,-199.707,-17.578,-13.184,-255.859,5.859
1688814017.197,-402.832,-19.531,-21.973,-166.016,-24.414
1688814017.213,-406.250,-17.090,-25.391,-156.738,42.969
1688814017.217,-169.922,-16.113,-18.555,-268.066,-58.105
1688814017.221,-85.449,-18.066,-13.184,-292.480,-151.367
1688814017.225,-155.273,-19.043,-13.184,-242.676,-115.234
1688814017.229,-331.055,-27.344,-12.695,-138.184,147.461
1688814017.233,-376.953,-31.738,-7.812,-104.004,321.289
1688814017.237,-156.738,-33.203,-18.066,-215.332,83.008
1688814017.240,-42.480,-41.016,-24.902,-260.742,-150.879
1688814017.244,-96.191,-46.387,-20.996,-207.031,-37.598
1688814017.248,-271.484,-48.828,-22.949,-97.656,174.805
1688814017.252,-350.098,-48.828,-26.367,-59.570,72.266
1688814017.256,-138.184,-56.641,-37.109,-164.062,39.551
1688814017.258,6.836,-57.617,-39.551,-207.031,7.812
1688814017.262,-20.508,-50.293,-33.203,-157.715,-16.113
1688814017.266,-184.570,-50.781,-33.691,-60.059,44.434
1688814017.270,-293.457,-50.293,-33.203,6.348,33.203
1688814017.274,-91.309,-52.246,-35.645,-84.961,76.172
1688814017.278,64.941,-51.758,-38.086,-142.090,100.586
1688814017.282,38.086,-50.293,-38.086,-109.375,-0.488
1688814017.285,-109.863,-53.711,-39.062,-20.996,14.160
1688814017.289,-252.930,-56.641,-40.039,61.035,286.621
1688814017.293,-92.285,-59.570,-52.734,-21.973,320.801
1688814017.297,90.332,-56.641,-56.641,-106.445,-139.648
1688814017.301,82.031,-55.664,-52.246,-85.938,-183.594
1688814017.303,-63.477,-58.105,-49.805,-8.789,-2.441
1688814017.307,-224.609,-53.711,-44.434,84.961,24.902
1688814017.311,-96.191,-51.270,-44.922,27.832,-81.055
1688814017.315,98.145,-51.758,-47.363,-63.965,-141.602
1688814017.319,108.887,-52.246,-53.711,-59.082,-34.180
1688814017.323,-10.742,-53.223,-52.734,5.859,83.984
1688814017.327,-194.824,-51.270,-50.293,94.727,136.719
1688814017.330,-109.375,-53.223,-47.852,53.711,161.621
1688814017.334,106.445,-60.547,-51.270,-47.363,230.957
1688814017.338,125.000,-59.082,-55.664,-57.617,-18.555
1688814017.342,8.789,-63.477,-56.641,0.977,-206.055
1688814017.346,-179.199,-69.336,-58.105,105.469,242.676
1688814017.348,-123.047,-62.012,-56.641,83.496,350.098
1688814017.352,110.352,-60.059,-59.570,-27.344,-168.945
1688814017.356,154.297,-55.664,-58.105,-36.621,-285.156
1688814017.360,57.129,-49.805,-48.340,18.066,-160.645
1688814017.364,-141.602,-53.711,-49.316,117.676,-42.969
1688814017.368,-128.906,-55.664,-53.223,114.258,45.898
1688814017.372,106.934,-51.758,-49.805,-8.789,22.461
1688814017.375,165.527,-53.223,-46.875,-40.527,137.207
1688814017.379,80.566,-51.270,-44.434,4.883,167.480
1688814017.383,-119.141,-44.434,-42.969,106.934,-22.461
1688814017.387,-148.926,-48.340,-43.945,128.906,42.480
1688814017.391,81.055,-50.293,-48.340,15.137,10.742
1688814017.393,180.664,-42.480,-47.363,-29.785,-129.395
1688814017.397,114.258,-46.387,-45.410,-3.906,-178.223
1688814017.401,-83.496,-53.223,-47.852,83.496,-17.578
1688814017.405,-159.668,-50.293,-48.828,118.652,118.652
1688814017.409,52.246,-47.852,-43.945,2.930,-112.305
1688814017.413,165.527,-45.410,-42.480,-58.594,-136.719
1688814017.417,111.816,-44.434,-44.922,-26.855,73.242
1688814017.420,-62.988,-44.434,-44.434,72.266,269.531
1688814017.424,-180.664,-44.922,-46.875,112.793,142.578
1688814017.428,9.277,-45.898,-47.852,19.043,-103.027
1688814017.432,153.809,-46.387,-52.246,-37.109,-102.051
1688814017.436,112.793,-48.828,-59.570,-30.273,-55.664
1688814017.440,-55.176,-51.270,-62.500,38.086,-3.418
1688814017.444,-196.289,-46.387,-56.641,99.609,77.637
1688814017.448,-23.438,-46.387,-47.363,28.320,153.320
1688814017.452,143.066,-45.410,-48.340,-42.969,182.617
1688814017.456,115.723,-40.039,-52.246,-42.969,-43.945
1688814017.460,-34.668,-45.898,-53.711,23.926,-47.363
1688814017.464,-196.289,-44.922,-51.758,103.027,337.891
1688814017.467,-60.547,-41.504,-47.852,36.133,266.602
1688814017.471,131.836,-41.992,-50.781,-62.012,-136.719
1688814017.475,134.766,-37.598,-49.316,-57.129,-160.156
1688814017.479,-2.930,-36.621,-42.969,4.395,-42.969
1688814017.483,-184.082,-38.574,-37.598,91.797,113.770
1688814017.483,-78.613,-39.551,-35.156,47.363,63.477
1688814017.487,127.930,-40.527,-34.180,-53.711,-106.445
1688814017.491,140.137,-39.551,-33.691,-57.617,-125.000
1688814017.495,17.090,-42.969,-39.551,-0.977,-29.297
1688814017.499,-176.758,-41.992,-41.992,86.426,86.914
1688814017.503,-121.582,-40.527,-43.457,48.828,130.859
1688814017.507,99.121,-40.039,-47.363,-45.898,401.367
1688814017.510,131.836,-35.156,-48.828,-67.871,183.105
1688814017.514,27.832,-32.227,-41.504,-32.715,-125.000
1688814017.518,-170.898,-34.180,-38.574,62.988,87.402
1688814017.522,-157.227,-39.062,-38.574,51.758,67.871
1688814017.526,68.848,-41.992,-33.691,-57.129,-18.066
1688814017.544,132.324,-41.016,-35.156,-85.938,-155.762
1688814017.548,48.828,-41.016,-37.598,-36.621,-51.270
1688814017.552,-154.297,-46.387,-35.645,49.805,143.066
1688814017.556,-189.453,-47.852,-38.086,48.340,-14.648
1688814017.560,31.250,-49.805,-41.016,-59.082,-94.238
1688814017.564,109.863,-45.410,-40.039,-99.609,-10.254
1688814017.568,30.762,-39.062,-39.551,-64.453,17.090
1688814017.571,-145.020,-36.621,-36.133,31.738,103.027
1688814017.575,-201.660,-37.109,-36.133,54.199,70.801
1688814017.579,18.555,-45.410,-41.016,-54.199,43.457
1688814017.583,134.277,-41.992,-44.922,-99.609,83.496
1688814017.587,74.219,-38.086,-44.434,-75.195,-120.117
1688814017.588,-103.027,-40.527,-41.992,13.184,12.207
1688814017.592,-211.426,-41.016,-38.574,69.824,104.980
1688814017.596,-13.672,-42.480,-37.109,-33.203,-59.570
1688814017.600,133.301,-40.527,-43.457,-101.562,-139.160
1688814017.604,90.820,-45.410,-44.434,-72.266,-66.406
1688814017.608,-82.520,-49.805,-42.480,7.324,143.555
1688814017.612,-223.633,-46.875,-42.969,72.754,223.145
1688814017.615,-50.293,-45.410,-42.969,-18.555,33.691
1688814017.619,121.094,-44.922,-40.527,-95.215,2.930
1688814017.623,98.145,-39.551,-39.062,-73.730,213.867
1688814017.627,-66.406,-40.039,-40.527,-6.836,93.262
1688814017.631,-230.957,-40.527,-37.109,62.988,54.688
1688814017.633,-79.590,-39.551,-33.203,-12.207,222.656
1688814017.637,111.328,-36.133,-36.621,-102.051,203.613
1688814017.641,99.121,-33.691,-40.039,-100.586,-20.996
1688814017.645,-42.480,-41.016,-37.598,-36.133,-51.270
1688814017.649,-228.516,-49.316,-38.574,43.945,89.844
1688814017.653,-118.164,-44.922,-35.645,-18.066,18.555
1688814017.657,104.004,-41.016,-32.227,-111.816,-50.293
1688814017.660,122.559,-40.039,-37.109,-106.445,-136.719
1688814017.664,-12.207,-44.434,-40.039,-44.434,73.730
1688814017.668,-215.820,-47.363,-38.574,31.738,241.699
1688814017.672,-138.672,-44.434,-36.133,-12.695,-17.090
1688814017.676,89.844,-42.969,-33.691,-103.516,-80.566
1688814017.678,118.164,-44.922,-34.180,-104.492,-57.617
1688814017.682,3.906,-46.387,-38.086,-49.805,-92.285
1688814017.686,-198.730,-52.734,-42.969,34.668,6.836
1688814017.690,-177.734,-55.664,-47.363,9.277,102.051
1688814017.694,51.270,-50.781,-45.898,-98.633,23.926
1688814017.698,112.305,-46.875,-39.062,-117.676,-53.223
1688814017.702,22.949,-43.457,-32.227,-72.754,-13.672
1688814017.705,-176.758,-43.945,-30.273,35.156,182.617
1688814017.709,-194.824,-41.992,-32.227,56.641,358.398
1688814017.713,31.738,-37.109,-29.785,-65.918,60.059
1688814017.717,116.699,-35.156,-27.344,-119.629,-201.660
1688814017.721,29.297,-31.250,-29.785,-71.289,32.227
1688814017.739,-170.410,-32.715,-28.320,37.109,177.734
1688814017.743,-211.914,-32.227,-22.949,52.246,35.645
1688814017.747,1.953,-28.809,-24.414,-62.012,-117.676
1688814017.751,123.047,-33.691,-27.344,-109.375,-19.531
1688814017.755,38.086,-36.621,-28.809,-55.664,62.500
1688814017.759,-173.828,-37.109,-32.227,40.527,58.105
1688814017.763,-237.793,-34.668,-29.297,58.105,91.797
1688814017.766,-23.926,-29.785,-33.203,-43.457,161.133
1688814017.770,121.094,-30.273,-36.133,-98.145,125.977
1688814017.774,79.102,-27.832,-35.645,-83.008,-174.316
1688814017.778,-105.469,-31.250,-35.156,5.859,-64.453
1688814017.782,-237.305,-34.180,-37.109,75.684,81.055
1688814017.783,-45.898,-35.156,-39.551,-18.066,-50.781
1688814017.787,121.094,-38.086,-31.738,-86.914,-205.566
1688814017.791,89.355,-36.621,-29.297,-72.754,-208.008
1688814017.795,-82.520,-37.598,-32.715,0.488,102.051
1688814017.799,-248.535,-41.016,-35.156,69.824,222.656
1688814017.803,-89.355,-42.480,-37.109,-15.625,34.668
1688814017.807,98.145,-41.992,-35.645,-98.145,-6.836
1688814017.810,83.008,-43.457,-36.133,-86.426,57.617
1688814017.814,-62.500,-42.969,-40.527,-20.508,34.668
1688814017.818,-240.234,-42.480,-42.969,51.270,30.273
1688814017.822,-121.582,-41.016,-42.969,-9.766,142.578
1688814017.826,84.961,-41.016,-45.898,-90.332,425.293
1688814017.814,89.844,-38.574,-44.434,-95.703,194.824
1688814017.818,-41.016,-38.086,-38.086,-45.898,-61.035
1688814017.822,-233.398,-40.039,-31.738,50.293,123.535
1688814017.826,-152.832,-40.039,-28.320,13.672,36.621
1688814017.830,73.242,-41.016,-22.949,-87.891,-102.539
1688814017.834,97.168,-42.969,-22.949,-102.539,-102.051
1688814017.838,-23.926,-40.527,-27.344,-47.852,76.172
1688814017.841,-224.121,-35.645,-24.414,47.852,325.195
1688814017.845,-185.547,-36.621,-27.832,17.090,159.180
1688814017.849,47.363,-39.551,-32.227,-98.633,-147.949
1688814017.853,105.957,-40.039,-33.203,-112.793,102.051
1688814017.857,6.348,-38.086,-29.297,-56.641,302.246
1688814017.858,-202.637,-37.598,-23.926,38.574,25.391
1688814017.862,-208.496,-40.527,-25.391,33.203,22.461
1688814017.866,25.879,-41.016,-27.832,-84.473,-14.648
1688814017.870,104.492,-42.480,-31.738,-119.629,-156.738
1688814017.874,20.996,-45.410,-32.227,-86.914,-205.566
1688814017.878,-180.664,-46.875,-28.320,10.742,39.062
1688814017.882,-215.332,-45.898,-24.414,36.621,383.301
1688814017.885,18.555,-38.574,-23.926,-71.289,150.391
1688814017.889,105.957,-36.133,-25.391,-119.629,-169.434
1688814017.893,34.668,-41.504,-27.344,-94.238,-22.461
1688814017.897,-152.832,-42.969,-28.320,1.465,172.852
1688814017.901,-237.793,-36.621,-26.367,38.574,108.887
1688814017.918,-25.391,-37.598,-33.203,-79.590,-53.223
1688814017.922,111.816,-41.992,-42.969,-140.625,-38.574
1688814017.926,60.547,-45.410,-43.945,-111.816,28.320
1688814017.930,-137.695,-49.316,-40.527,-33.203,-62.012
1688814017.934,-254.395,-46.387,-39.551,25.391,26.367
1688814017.938,-47.363,-34.668,-38.086,-70.312,42.480
1688814017.942,110.840,-34.668,-36.133,-145.508,-19.043
1688814017.945,78.613,-41.016,-38.574,-127.441,-84.961
1688814017.949,-91.797,-44.434,-41.992,-50.293,-115.234
1688814017.953,-252.441,-43.945,-41.992,30.762,210.938
1688814017.957,-83.496,-41.016,-37.598,-49.316,221.680
1688814017.961,110.352,-37.598,-36.621,-152.832,-188.477
1688814017.963,92.285,-41.016,-39.062,-147.461,-165.527
1688814017.967,-68.848,-43.457,-41.016,-62.012,70.801
1688814017.971,-246.094,-43.457,-39.551,19.531,99.121
1688814017.975,-111.328,-42.969,-38.086,-44.434,-75.684
1688814017.979,94.238,-45.898,-36.133,-130.859,-99.121
1688814017.983,88.379,-53.223,-41.016,-141.113,-9.766
1688814017.987,-60.059,-51.758,-42.969,-84.473,-14.160
1688814017.990,-254.395,-48.340,-35.156,13.184,40.039
1688814017.994,-153.320,-45.898,-37.598,-34.668,135.742
1688814017.998,72.266,-41.992,-41.016,-138.184,218.750
1688814018.002,104.004,-43.945,-36.133,-145.020,-8.789
1688814018.006,-13.672,-50.293,-36.133,-78.125,-71.289
1688814018.008,-229.004,-47.852,-34.180,28.320,290.039
1688814018.012,-177.734,-44.434,-30.273,2.441,342.773
1688814018.016,64.941,-42.969,-31.250,-114.746,-82.031
1688814018.020,117.188,-41.992,-30.762,-132.812,-265.137
1688814018.024,6.348,-43.945,-31.738,-79.590,-138.184
1688814018.028,-204.102,-50.293,-36.621,15.137,88.867
1688814018.032,-201.172,-55.664,-39.551,8.301,180.664
1688814018.035,36.621,-52.246,-45.410,-101.074,-56.641
1688814018.039,110.840,-50.781,-51.758,-129.395,6.348
1688814018.043,22.461,-47.363,-48.340,-84.473,141.113
1688814018.047,-174.316,-38.086,-41.016,15.137,-2.441
1688814018.051,-214.844,-37.598,-40.039,27.344,80.078
1688814018.053,12.207,-40.527,-42.969,-96.191,44.434
1688814018.057,103.516,-38.574,-43.457,-127.441,-114.746
1688814018.061,26.855,-39.551,-45.898,-88.379,-133.789
1688814018.065,-161.133,-42.480,-49.316,-10.742,138.184
1688814018.069,-238.281,-44.922,-44.434,23.438,273.926
1688814018.073,-11.230,-42.480,-39.062,-77.148,-22.461
1688814018.077,116.211,-39.062,-31.250,-125.000,-187.500
1688814018.080,56.641,-43.457,-30.762,-96.191,-50.781
1688814018.084,-137.207,-49.316,-36.621,-15.137,213.867
1688814018.088,-255.859,-45.898,-36.621,21.973,119.141
1688814018.092,-51.758,-42.969,-37.598,-83.496,-118.164
1688814018.096,102.051,-39.551,-36.133,-147.461,-63.965
1688814018.099,62.500,-38.574,-35.645,-123.535,-44.922
1688814018.103,-113.770,-41.504,-37.598,-42.480,-102.539
1688814018.107,-253.418,-39.551,-37.598,29.297,28.320
1688814018.111,-66.895,-37.109,-35.645,-46.387,103.516
1688814018.115,110.352,-35.645,-34.668,-126.465,-21.484
1688814018.119,88.379,-35.645,-37.109,-115.234,-106.445
1688814018.123,-70.801,-37.109,-40.039,-29.785,53.711
1688814018.126,-245.605,-41.016,-35.156,60.059,347.168
1688814018.130,-95.703,-41.504,-32.227,-21.973,322.266
1688814018.134,108.398,-35.156,-35.156,-124.512,-82.520
1688814018.138,104.980,-39.062,-36.133,-115.234,-167.969
1688814018.142,-49.316,-48.828,-40.527,-45.410,-20.508
1688814018.143,-244.629,-52.734,-39.551,54.199,78.125
1688814018.147,-129.883,-50.781,-37.109,4.883,-2.930
1688814018.151,90.820,-51.758,-40.527,-104.492,-105.469
1688814018.155,105.469,-54.199,-42.969,-108.398,-120.117
1688814018.159,-24.902,-52.734,-43.945,-40.039,-101.074
1688814018.163,-229.004,-50.293,-41.992,57.129,78.125
1688814018.167,-161.133,-42.969,-36.621,29.785,170.410
1688814018.170,74.219,-37.598,-36.133,-73.730,229.980
1688814018.174,116.699,-33.203,-39.062,-104.980,37.109
1688814018.178,5.859,-33.203,-38.086,-55.176,-150.879
1688814018.182,-205.566,-39.062,-35.645,59.082,-14.648
1688814018.186,-184.082,-35.645,-34.668,44.922,61.523
1688814018.188,55.664,-35.156,-42.969,-82.031,-55.664
1688814018.192,123.047,-37.598,-47.363,-118.164,-172.852
1688814018.196,23.438,-37.598,-43.457,-65.918,-19.531
1688814018.200,-195.801,-45.898,-43.457,35.156,172.852
1688814018.204,-218.262,-45.898,-46.387,34.668,125.000
1688814018.208,22.461,-44.922,-48.828,-85.449,35.645
1688814018.212,120.117,-44.922,-52.734,-124.512,148.438
1688814018.215,41.504,-42.480,-50.781,-80.078,140.625
1688814018.219,-173.828,-40.039,-49.316,3.418,-18.066
1688814018.223,-244.629,-39.062,-52.734,25.879,69.336
1688814018.227,-11.230,-43.945,-57.617,-86.914,51.270
1688814018.231,105.957,-48.340,-57.129,-145.508,-140.137
1688814018.233,44.434,-47.852,-47.852,-103.516,-209.961
1688814018.237,-147.461,-47.852,-41.016,-4.395,-49.316
1688814018.241,-256.348,-47.852,-45.410,45.898,138.184
1688814018.245,-36.133,-46.387,-51.270,-55.664,-6.348
1688814018.249,123.535,-42.969,-52.246,-119.629,-175.781
1688814018.253,76.172,-42.969,-55.664,-96.680,33.691
1688814018.257,-119.141,-40.039,-53.711,-7.812,358.398
1688814018.260,-268.555,-37.598,-47.852,63.965,279.785
1688814018.264,-73.242,-40.527,-46.387,-35.156,-17.578
1688814018.268,120.605,-40.527,-41.992,-129.395,-42.480
1688814018.272,83.984,-41.504,-42.480,-114.746,-27.344
1688814018.276,-98.145,-46.387,-43.457,-28.809,-14.648
1688814018.279,-257.324,-41.992,-39.062,57.129,72.754
1688814018.283,-85.938,-43.457,-35.156,-19.043,190.430
1688814018.287,121.094,-46.875,-38.086,-119.141,153.320
1688814018.291,111.328,-42.480,-40.527,-119.141,-144.531
1688814018.295,-45.898,-43.457,-37.598,-39.551,-108.398
1688814018.299,-250.977,-45.898,-39.062,48.828,210.449
1688814018.303,-130.859,-41.504,-39.551,-17.578,197.754
1688814018.306,100.586,-32.715,-37.598,-121.094,-110.840
1688814018.310,119.141,-29.785,-37.109,-115.234,-137.207
1688814018.314,-17.578,-37.109,-39.551,-34.668,104.492
1688814018.318,-225.586,-41.016,-40.527,54.199,209.961
1688814018.322,-149.902,-42.480,-45.410,0.000,-18.555
1688814018.339,84.961,-47.852,-51.270,-115.234,-145.996
1688814018.343,119.141,-49.805,-51.758,-126.465,-95.215
1688814018.347,-9.277,-53.711,-49.805,-64.453,51.270
1688814018.351,-231.934,-56.152,-52.246,40.527,152.344
1688814018.355,-192.871,-54.688,-52.246,26.367,102.051
1688814018.359,59.570,-48.340,-43.945,-84.961,193.359
1688814018.363,119.141,-44.434,-41.016,-119.141,71.777
1688814018.366,18.066,-48.828,-42.969,-84.961,-138.672
1688814018.370,-189.941,-50.293,-40.527,26.855,109.863
1688814018.374,-192.871,-51.270,-35.645,39.551,177.734
1688814018.378,54.199,-50.781,-37.109,-82.520,-135.254
1688814018.382,131.348,-47.852,-37.109,-122.559,-209.961
1688814018.383,42.969,-49.805,-37.109,-78.125,7.324
1688814018.387,-166.016,-50.293,-40.527,27.832,344.238
1688814018.391,-227.539,-48.340,-48.340,35.645,191.406
1688814018.395,4.395,-49.316,-52.246,-83.008,-86.914
1688814018.399,128.418,-43.457,-50.293,-125.977,-89.844
1688814018.403,68.359,-38.086,-47.852,-94.238,15.137
1688814018.407,-132.324,-39.062,-38.574,8.301,84.473
1688814018.410,-221.680,-40.039,-32.227,53.711,64.453
1688814018.414,-3.906,-41.992,-29.785,-40.527,172.363
1688814018.418,127.441,-41.992,-34.180,-105.469,158.691
1688814018.422,79.590,-41.992,-39.062,-98.145,-187.988
1688814018.426,-108.887,-49.316,-40.527,-1.953,-104.004
1688814018.459,-240.234,-49.316,-39.062,65.918,70.801
1688814018.463,-43.457,-43.457,-34.668,-27.832,-104.980
1688814018.467,122.070,-45.410,-36.621,-102.051,-219.727
1688814018.471,98.633,-45.410,-36.133,-88.867,-138.184
1688814018.475,-72.754,-44.434,-32.227,-5.371,-7.812
1688814018.479,-233.398,-45.898,-31.250,75.195,144.531
1688814018.483,-63.477,-47.363,-36.621,-9.277,159.180
1688814018.486,125.977,-48.340,-40.527,-93.262,82.520
1688814018.490,112.305,-49.805,-39.062,-77.148,253.906
1688814018.494,-50.293,-46.387,-40.527,-6.836,174.805
1688814018.498,-227.539,-43.457,-41.504,68.359,35.645
1688814018.502,-94.238,-49.316,-44.434,-1.465,106.445
1688814018.473,105.957,-47.363,-45.410,-99.609,-15.137
1688814018.477,113.770,-40.527,-45.898,-99.609,-111.328
1688814018.481,-36.133,-45.898,-47.363,-34.180,-49.805
1688814018.485,-239.746,-48.828,-42.480,66.406,231.445
1688814018.489,-138.672,-42.480,-42.480,23.438,211.914
1688814018.493,93.750,-37.598,-41.016,-102.539,-26.367
1688814018.497,122.559,-36.621,-34.180,-111.816,-32.715
1688814018.500,-7.812,-38.086,-33.203,-35.156,-60.547
1688814018.504,-209.473,-37.598,-32.715,52.246,-58.594
1688814018.508,-157.715,-36.133,-33.203,20.508,-61.523
1688814018.512,66.406,-30.273,-33.203,-79.102,-73.730
1688814018.516,115.723,-29.785,-32.715,-95.703,-68.848
1688814018.518,4.395,-34.180,-34.180,-48.828,-90.820
1688814018.522,-208.496,-35.645,-35.156,46.875,-50.781
1688814018.526,-203.613,-43.457,-35.645,39.551,23.438
1688814018.530,34.668,-48.340,-33.691,-66.895,194.336
1688814018.534,110.352,-41.992,-33.203,-93.262,136.230
1688814018.538,29.785,-38.574,-35.645,-58.594,-114.258
1688814018.542,-178.223,-46.875,-36.621,37.598,152.832
1688814018.545,-222.656,-45.410,-36.621,53.223,371.582
1688814018.549,14.648,-32.715,-38.086,-56.152,15.625
1688814018.553,121.582,-31.738,-39.551,-104.492,-246.582
1688814018.557,46.875,-37.598,-36.621,-70.801,-123.535
1688814018.561,-158.203,-41.016,-34.180,25.391,75.684
1688814018.564,-228.516,-44.434,-36.133,55.176,130.859
1688814018.568,-5.859,-42.969,-37.109,-42.480,-66.406
1688814018.572,117.676,-42.969,-38.086,-93.262,61.035
1688814018.576,69.336,-45.410,-41.992,-68.848,167.969
1688814018.580,-109.375,-44.434,-41.992,13.672,4.883
1688814018.584,-220.703,-41.992,-38.574,68.848,11.719
1688814018.588,-28.809,-45.410,-39.551,-16.113,173.828
1688814018.591,112.793,-47.363,-42.480,-90.332,147.949
1688814018.595,76.660,-44.434,-43.457,-94.238,-198.242
1688814018.599,-96.680,-43.457,-44.434,-14.160,-158.691
1688814018.603,-236.816,-44.434,-48.828,51.758,75.684
1688814018.607,-60.547,-44.434,-50.781,-41.016,38.574
1688814018.609,98.633,-48.340,-50.781,-122.559,-156.250
1688814018.613,70.312,-52.246,-45.898,-102.539,-97.656
1688814018.617,-74.707,-49.805,-44.922,-27.344,98.145
1688814018.621,-227.539,-45.898,-42.480,44.922,123.535
1688814018.625,-90.820,-48.340,-37.598,-21.973,22.461
1688814018.629,91.309,-46.387,-40.039,-107.422,-18.066
1688814018.633,85.449,-41.992,-42.480,-97.656,245.605
1688814018.636,-48.828,-38.086,-40.039,-37.598,220.703
1688814018.640,-220.215,-41.992,-38.574,36.621,30.273
1688814018.644,-114.258,-45.898,-44.922,-20.020,42.969
1688814018.648,83.984,-47.852,-45.410,-119.141,-59.570
1688814018.652,93.262,-53.711,-50.781,-118.164,-188.965
1688814018.669,-30.273,-51.270,-52.246,-52.246,-123.535
1688814018.673,-218.750,-52.734,-49.316,36.133,208.496
1688814018.677,-148.438,-55.664,-49.805,1.465,274.902
1688814018.681,65.918,-57.129,-53.711,-101.074,-24.414
1688814018.685,95.215,-55.176,-51.758,-107.910,-96.191
1688814018.689,-7.324,-52.246,-44.434,-47.852,179.688
1688814018.693,-195.801,-54.688,-44.434,49.805,419.434
1688814018.696,-166.504,-52.246,-47.852,20.020,95.703
1688814018.700,55.664,-48.828,-42.969,-93.262,-121.094
1688814018.704,96.191,-52.246,-37.109,-104.004,25.391
1688814018.708,2.930,-51.758,-38.086,-62.500,42.480
1688814018.712,-182.129,-48.828,-35.645,20.508,1.465
1688814018.713,-191.895,-51.758,-34.180,25.879,14.648
1688814018.717,34.668,-49.316,-33.203,-66.895,-93.750
1688814018.721,105.469,-47.363,-33.691,-100.586,-142.578
1688814018.725,22.949,-54.688,-38.086,-71.777,-126.953
1688814018.729,-162.598,-60.547,-41.016,21.973,70.801
1688814018.733,-207.031,-58.594,-38.574,37.598,231.934
1688814018.737,11.719,-52.734,-40.527,-66.895,74.219
1688814018.740,105.957,-49.805,-43.457,-108.398,-38.086
1688814018.744,41.016,-50.781,-42.480,-79.590,-7.812
1688814018.748,-138.184,-53.223,-46.875,13.184,303.711
1688814018.752,-224.121,-48.340,-46.875,48.340,301.758
1688814018.756,-15.625,-45.898,-40.527,-62.988,-35.156
1688814018.759,111.328,-43.945,-43.945,-105.469,45.410
1688814018.763,62.012,-40.039,-51.270,-80.566,60.547
1688814018.767,-104.004,-43.457,-49.805,-17.578,-10.254
1688814018.771,-215.820,-46.875,-44.922,41.016,104.492
1688814018.775,-40.039,-41.992,-47.363,-53.711,20.508
1688814018.779,101.074,-38.086,-45.410,-123.047,-69.336
1688814018.783,63.477,-39.062,-41.504,-103.027,-23.926
1688814018.786,-93.750,-42.480,-36.133,-31.250,-84.473
1688814018.790,-231.934,-47.363,-33.691,43.457,178.223
1688814018.794,-75.195,-44.434,-40.527,-33.691,283.203
1688814018.798,88.867,-44.922,-46.387,-129.395,-90.332
1688814018.802,75.195,-46.387,-45.410,-118.164,-161.133
1688814018.803,-58.105,-43.945,-43.945,-41.992,-57.617
1688814018.807,-222.168,-42.480,-42.969,34.668,-0.977
1688814018.811,-99.121,-41.992,-39.062,-23.926,-75.195
1688814018.815,83.496,-45.898,-39.062,-110.840,-115.723
1688814018.819,74.707,-44.434,-39.062,-114.258,-107.422
1688814018.823,-52.246,-38.574,-37.598,-47.852,-37.109
1688814018.827,-225.586,-39.551,-35.156,40.527,119.141
1688814018.830,-131.348,-42.969,-30.273,-5.371,136.719
1688814018.834,71.289,-41.504,-27.832,-99.121,138.672
1688814018.838,90.332,-41.992,-30.762,-111.816,-47.363
1688814018.842,-12.207,-43.457,-31.738,-60.547,-219.727
1688814018.846,-203.613,-49.316,-33.691,37.598,101.074
1688814018.850,-167.480,-54.199,-35.645,20.020,302.246
1688814018.854,51.270,-51.758,-36.133,-92.285,-8.301
1688814018.858,97.168,-49.316,-35.645,-117.676,-247.559
1688814018.862,0.488,-49.805,-32.227,-73.242,-17.578
1688814018.866,-195.801,-47.363,-29.785,23.438,187.012
1688814018.870,-192.871,-41.016,-28.320,21.973,101.074
1688814018.874,39.551,-39.062,-26.855,-89.355,68.359
1688814018.877,112.793,-45.898,-30.273,-114.746,161.133
1688814018.881,29.785,-50.781,-33.691,-77.637,147.461
1688814018.885,-166.992,-47.363,-38.574,10.742,-28.809
1688814018.889,-214.355,-45.898,-41.504,35.645,-17.578
1688814018.893,8.301,-45.898,-45.898,-79.590,-85.449
1688814018.894,113.770,-45.410,-48.340,-133.789,-146.973
1688814018.898,48.828,-52.246,-49.316,-109.375,-186.035
1688814018.902,-144.531,-57.617,-50.293,-14.648,-23.926
1688814018.906,-231.445,-57.129,-49.805,31.738,136.230
1688814018.910,-26.855,-54.199,-52.734,-70.312,-79.102
1688814018.914,95.215,-50.781,-53.711,-132.324,-132.812
1688814018.918,46.875,-53.711,-55.664,-112.305,6.348
1688814018.921,-135.742,-60.059,-59.570,-18.555,325.684
1688814018.925,-259.277,-61.035,-64.941,33.203,256.348
1688814018.929,-65.918,-63.965,-66.895,-75.684,-161.133
1688814018.933,88.379,-64.941,-60.059,-140.137,-194.824
1688814018.937,52.734,-68.848,-62.500,-119.141,-60.059
1688814018.938,-114.258,-70.801,-62.988,-60.059,61.523
1688814018.942,-255.859,-65.918,-56.152,3.906,35.645
1688814018.946,-85.938,-67.871,-52.734,-61.523,104.004
1688814018.950,87.891,-61.035,-48.340,-137.695,68.848
1688814018.954,69.824,-55.176,-48.828,-129.883,-46.875
1688814018.958,-76.172,-55.664,-51.758,-54.199,3.418
1688814018.962,-245.117,-57.129,-49.805,34.180,364.746
1688814018.965,-109.863,-56.641,-50.781,-30.762,490.723
1688814018.969,82.031,-50.781,-55.664,-140.137,17.578
1688814018.973,80.566,-50.781,-60.059,-141.602,-114.746
1688814018.977,-55.176,-56.152,-56.152,-69.824,-14.648
1688814018.981,-248.535,-59.082,-57.129,18.555,17.578
1688814018.983,-147.949,-58.105,-60.059,-26.367,-5.371
1688814018.987,69.336,-64.453,-62.988,-118.652,-75.684
1688814018.991,86.914,-67.871,-61.523,-124.023,-138.184
1688814018.995,-31.250,-68.848,-61.035,-76.660,-150.391
1688814018.999,-223.633,-69.824,-61.523,14.160,-10.742
1688814019.003,-173.828,-69.336,-58.594,-14.160,230.469
1688814019.007,43.457,-67.871,-58.594,-116.699,244.141
1688814019.010,90.820,-65.918,-56.152,-132.324,22.461
1688814019.014,-10.742,-63.965,-61.035,-89.355,-116.699
1688814019.018,-215.820,-63.477,-64.453,17.578,60.547
1688814019.022,-203.613,-58.105,-59.082,19.043,293.945
1688814019.026,27.344,-56.641,-57.129,-103.027,95.215
1688814019.043,97.168,-61.035,-56.152,-140.625,-93.750
1688814019.047,18.555,-61.523,-51.758,-89.355,61.523
1688814019.051,-182.617,-61.523,-50.781,12.207,197.266
1688814019.055,-226.562,-56.152,-50.781,20.508,-31.738
1688814019.059,6.348,-52.734,-46.875,-93.750,-176.758
1688814019.063,101.074,-52.246,-47.852,-134.277,-42.480
1688814019.067,28.320,-52.734,-53.223,-90.332,79.590
1688814019.070,-168.945,-53.223,-52.246,2.441,93.750
1688814019.074,-248.047,-55.664,-55.176,39.062,113.281
1688814019.078,-24.414,-56.152,-54.688,-52.734,236.328
1688814019.082,97.656,-55.664,-49.316,-115.723,203.613
1688814019.086,39.062,-60.547,-56.152,-105.957,-131.348
1688814019.089,-154.297,-62.988,-56.152,-9.277,-43.457
1688814019.093,-267.090,-60.059,-50.293,41.016,162.109
1688814019.097,-61.035,-59.570,-54.199,-68.848,-51.758
1688814019.101,106.934,-58.105,-50.293,-143.066,-274.414
1688814019.105,46.875,-57.129,-45.898,-100.098,-136.719
1688814019.109,-150.391,-59.570,-49.316,-12.207,114.258
1688814019.113,-258.301,-59.570,-49.316,20.996,157.715
1688814019.116,-84.961,-54.688,-52.246,-61.523,-6.836
1688814019.120,85.938,-48.828,-51.758,-131.836,-135.254
1688814019.124,63.965,-50.293,-48.340,-117.188,54.199
1688814019.128,-96.680,-47.852,-48.828,-42.969,-20.508
1688814019.132,-261.230,-45.410,-46.387,28.809,-47.363
1688814019.133,-115.234,-50.293,-46.875,-41.504,191.406
1688814019.137,73.242,-50.781,-47.363,-122.559,125.000
1688814019.141,68.359,-48.340,-42.480,-121.094,-206.543
1688814019.145,-71.777,-49.316,-40.527,-53.223,-180.176
1688814019.149,-253.418,-52.246,-40.039,26.855,0.977
1688814019.153,-139.648,-54.688,-38.574,-33.691,98.145
1688814019.157,73.730,-52.246,-38.086,-132.812,52.246
1688814019.160,90.820,-48.828,-34.180,-130.859,-182.129
1688814019.164,-28.320,-44.922,-29.785,-43.945,68.848
1688814019.168,-229.492,-37.598,-36.133,49.805,362.305
1688814019.172,-164.062,-37.109,-42.480,-5.371,15.625
1688814019.176,59.570,-41.992,-42.480,-111.328,-176.270
1688814019.178,94.238,-41.992,-43.457,-119.141,-135.742
1688814019.182,-18.555,-43.945,-41.992,-66.406,-97.168
1688814019.186,-221.191,-47.852,-42.969,22.461,-31.738
1688814019.190,-190.430,-49.805,-41.504,5.859,24.902
1688814019.194,37.109,-52.734,-41.992,-100.586,-10.742
1688814019.198,82.520,-47.852,-42.480,-111.328,-92.773
1688814019.202,-4.395,-43.457,-41.016,-63.965,-34.180
1688814019.205,-192.871,-45.410,-41.992,20.020,199.707
1688814019.209,-220.215,-48.340,-42.969,23.438,348.633
1688814019.213,11.230,-44.922,-38.574,-88.379,37.109
1688814019.217,102.051,-46.875,-36.133,-124.023,-158.203
1688814019.221,25.391,-49.805,-41.016,-81.543,-11.230
1688814019.223,-175.781,-48.828,-43.945,12.695,96.191
1688814019.227,-231.934,-47.363,-41.016,35.645,29.785
1688814019.231,-2.441,-49.805,-37.598,-70.312,-146.484
1688814019.235,107.910,-55.176,-35.645,-115.723,-32.715
1688814019.239,51.270,-48.340,-36.133,-83.008,141.113
1688814019.243,-142.578,-42.969,-42.480,7.324,49.316
1688814019.247,-239.258,-46.387,-44.922,47.852,67.383
1688814019.250,-23.926,-44.922,-43.945,-59.570,212.402
1688814019.254,109.375,-43.457,-46.387,-115.234,105.957
1688814019.258,64.941,-39.062,-51.270,-98.633,-155.273
1688814019.262,-110.840,-40.039,-51.758,-21.973,-31.738
1688814019.266,-245.117,-40.527,-50.781,39.551,139.160
1688814019.268,-61.035,-33.691,-47.852,-56.641,3.906
1688814019.272,100.098,-35.645,-48.828,-123.535,-186.035
1688814019.276,72.754,-38.086,-45.898,-101.562,-120.117
1688814019.280,-83.984,-37.109,-43.457,-31.738,-26.367
1688814019.284,-237.793,-37.109,-44.922,47.363,25.879
1688814019.288,-83.008,-33.203,-43.457,-24.902,-21.973
1688814019.292,94.238,-36.621,-45.898,-113.281,29.785
1688814019.295,79.102,-45.410,-44.434,-95.703,347.656
1688814019.299,-69.336,-47.852,-41.016,-31.738,220.703
1688814019.303,-243.164,-47.852,-38.574,40.039,-7.324
1688814019.307,-110.840,-41.504,-33.691,-12.695,23.926
1688814019.311,93.750,-38.574,-34.180,-106.934,-5.371
1688814019.313,93.750,-45.898,-40.039,-116.211,-100.586
1688814019.317,-33.691,-47.363,-36.621,-52.246,-155.762
1688814019.321,-223.145,-51.270,-29.297,50.781,95.215
1688814019.325,-144.531,-52.734,-29.785,9.277,243.652
1688814019.329,68.848,-55.176,-37.598,-104.492,-22.461
1688814019.333,93.262,-55.176,-41.504,-121.094,-136.230
1688814019.337,-20.508,-53.223,-43.945,-65.918,220.215
1688814019.340,-216.797,-52.246,-45.898,36.133,421.387
1688814019.344,-178.711,-52.246,-48.828,8.789,82.031
1688814019.348,46.387,-48.340,-56.152,-104.492,-62.500
1688814019.352,104.492,-41.016,-55.664,-122.070,20.508
1688814019.356,5.371,-43.457,-55.176,-74.707,7.324
1688814019.358,-199.219,-50.781,-54.199,12.695,30.273
1688814019.362,-205.078,-55.664,-50.781,10.254,25.879
1688814019.366,20.996,-54.688,-48.340,-99.609,-72.754
1688814019.370,95.215,-50.781,-49.316,-129.883,-142.090
1688814019.374,14.160,-49.805,-48.340,-85.938,-140.625
1688814019.378,-186.523,-52.246,-52.246,11.719,74.707
1688814019.382,-234.375,-52.734,-58.105,32.227,365.234
1688814019.385,-8.789,-52.246,-52.734,-86.914,53.711
1688814019.389,96.191,-47.363,-47.363,-131.836,-277.344
1688814019.393,27.344,-50.293,-48.828,-96.191,-55.176
1688814019.397,-170.410,-53.223,-47.852,-3.418,179.688
1688814019.401,-254.395,-50.293,-47.363,34.180,102.051
1688814019.418,-37.598,-55.664,-49.805,-71.289,12.695
1688814019.422,90.332,-58.105,-52.246,-118.164,99.121
1688814019.426,37.109,-56.152,-51.758,-89.844,138.184
1688814019.430,-145.020,-49.316,-51.270,-7.324,2.441
1688814019.434,-263.184,-50.781,-50.293,39.062,24.902
1688814019.438,-61.035,-53.711,-45.410,-64.453,78.613
1688814019.442,98.633,-51.270,-44.922,-126.465,49.805
1688814019.445,69.336,-49.805,-49.805,-106.934,-124.023
1688814019.449,-105.957,-52.246,-50.293,-34.668,-187.500
1688814019.453,-266.602,-54.199,-47.363,39.062,185.059
1688814019.457,-86.426,-50.781,-46.875,-34.180,189.941
1688814019.461,103.027,-45.898,-43.945,-127.441,-142.578
1688814019.463,82.520,-40.527,-37.109,-122.559,-93.262
1688814019.467,-71.289,-39.062,-36.621,-38.574,79.102
1688814019.471,-250.000,-42.969,-36.621,48.340,107.910
1688814019.475,-122.070,-48.340,-39.551,-22.461,-28.320
1688814019.479,78.613,-51.758,-40.527,-117.188,-109.863
1688814019.483,79.590,-51.758,-39.551,-115.723,-9.277
1688814019.487,-65.918,-50.781,-41.992,-46.875,58.105
1688814019.490,-252.441,-47.363,-33.691,45.410,39.062
1688814019.494,-150.879,-45.898,-28.809,-7.324,121.582
1688814019.498,64.453,-44.434,-31.250,-104.492,192.383
1688814019.502,83.984,-40.527,-33.691,-116.211,-33.203
1688814019.506,-47.852,-46.387,-39.551,-66.406,-97.168
1688814019.508,-247.559,-46.875,-37.598,42.480,238.281
1688814019.512,-168.945,-41.992,-34.180,20.508,263.184
1688814019.516,69.824,-36.621,-34.668,-94.238,-80.078
1688814019.520,103.516,-36.133,-32.715,-101.074,-128.906
1688814019.524,-6.348,-41.504,-34.180,-43.945,16.113
1688814019.528,-209.961,-41.016,-34.180,54.199,228.027
1688814019.532,-190.430,-36.621,-33.203,32.715,197.266
1688814019.535,41.992,-32.715,-35.156,-89.355,-104.004
1688814019.539,113.281,-32.227,-38.574,-108.398,47.852
1688814019.543,31.738,-26.855,-41.992,-55.176,204.590
1688814019.547,-170.410,-26.367,-40.039,38.086,-28.809
1688814019.551,-201.660,-32.227,-34.668,55.176,-39.551
1688814019.554,28.809,-26.855,-33.691,-56.152,-135.254
1688814019.558,120.117,-29.785,-34.668,-100.586,-219.238
1688814019.562,51.758,-34.180,-29.297,-62.500,-171.875
1688814019.566,-141.113,-36.133,-23.438,36.133,-5.859
1688814019.570,-221.191,-39.551,-32.227,55.176,129.883
1688814019.574,-4.883,-37.598,-35.645,-56.641,72.754
1688814019.578,116.699,-36.621,-31.738,-106.934,-11.719
1688814019.581,58.105,-41.016,-35.156,-82.031,72.754
1688814019.585,-125.977,-43.945,-32.715,21.973,392.090
1688814019.589,-233.398,-39.551,-34.180,63.965,331.055
1688814019.593,-29.785,-37.598,-39.062,-52.734,-84.473
1688814019.597,113.770,-39.551,-42.480,-110.352,-68.359
1688814019.598,69.824,-39.062,-39.062,-86.426,31.250
1688814019.602,-110.352,-39.062,-37.109,-4.883,13.672
1688814019.606,-250.977,-43.457,-39.551,55.664,37.109
1688814019.610,-62.500,-43.457,-40.039,-39.062,76.172
1688814019.614,101.074,-41.016,-43.945,-118.652,16.113
1688814019.618,74.707,-46.387,-43.457,-104.980,-64.941
1688814019.622,-80.078,-47.852,-37.109,-22.949,26.855
1688814019.625,-242.188,-46.875,-33.691,60.547,358.398
1688814019.629,-92.285,-45.898,-39.551,-9.766,465.332
1688814019.633,94.727,-48.828,-44.922,-113.281,-91.797
1688814019.637,86.914,-49.805,-45.898,-112.793,-257.324
1688814019.641,-56.641,-44.922,-45.898,-41.504,-69.336
1688814019.643,-241.699,-43.945,-43.945,38.086,57.617
1688814019.647,-127.930,-45.410,-42.480,-21.484,59.082
1688814019.651,82.520,-39.551,-42.969,-113.770,-40.527
1688814019.655,93.750,-39.062,-43.457,-115.234,-68.848
1688814019.659,-34.668,-45.410,-46.875,-56.641,-41.504
1688814019.663,-231.445,-46.387,-50.293,38.086,62.012
1688814019.667,-155.273,-44.434,-48.340,5.371,128.906
1688814019.670,77.148,-43.945,-42.969,-89.844,146.973
1688814019.674,99.609,-43.945,-41.016,-110.840,-38.086
1688814019.678,-20.020,-47.363,-42.969,-67.871,-73.242
1688814019.682,-215.332,-51.270,-43.457,25.391,205.078
1688814019.686,-185.547,-46.387,-45.898,7.812,239.746
1688814019.688,39.062,-43.457,-49.805,-111.816,-17.090
1688814019.692,98.145,-44.922,-49.805,-134.277,-164.062
1688814019.696,9.277,-47.852,-52.734,-69.336,17.578
1688814019.700,-201.660,-48.828,-52.246,25.391,292.480
1688814019.704,-214.355,-49.316,-49.805,15.625,128.418
1688814019.708,23.926,-48.340,-50.781,-98.633,-121.094
1688814019.712,104.980,-50.293,-51.270,-126.465,108.398
1688814019.715,15.137,-56.152,-51.758,-86.426,169.922
1688814019.719,-191.406,-56.641,-53.223,0.488,-28.809
1688814019.723,-241.211,-58.105,-50.293,19.043,-62.500
1688814019.727,-11.230,-57.617,-44.922,-89.844,-30.273
1688814019.731,98.633,-54.199,-43.945,-127.441,-19.531
1688814019.734,43.457,-50.293,-39.062,-93.262,-144.043
1688814019.738,-148.438,-51.758,-38.574,-5.859,-31.250
1688814019.742,-245.605,-57.129,-40.527,39.551,163.574
1688814019.746,-27.344,-54.688,-42.969,-63.477,6.836
1688814019.750,124.023,-52.734,-41.016,-122.559,-173.340
1688814019.754,85.938,-49.316,-32.715,-83.496,-2.441
1688814019.758,-112.305,-49.805,-35.645,4.395,291.992
1688814019.761,-245.605,-49.316,-39.062,55.664,194.824
1688814019.765,-47.852,-49.316,-36.621,-39.551,-64.453
1688814019.769,112.793,-51.270,-32.227,-106.445,-130.371
1688814019.773,72.266,-56.641,-35.645,-91.797,-139.648
1688814019.777,-104.980,-61.523,-41.992,-18.555,-83.496
1688814019.794,-254.883,-58.594,-39.551,50.293,62.012
1688814019.798,-88.867,-55.176,-40.039,-34.668,72.754
1688814019.802,92.285,-55.176,-40.039,-125.977,4.883
1688814019.806,84.961,-50.293,-34.668,-118.652,-101.562
1688814019.810,-66.406,-49.316,-39.551,-42.480,-72.754
1688814019.814,-248.535,-55.176,-44.922,46.875,296.387
1688814019.818,-118.164,-52.734,-39.551,-7.324,405.762
1688814019.821,89.355,-48.828,-36.133,-108.887,-88.867
1688814019.825,93.262,-46.875,-35.156,-110.840,-187.012
1688814019.829,-48.340,-52.734,-37.109,-44.922,87.891
1688814019.833,-244.629,-59.082,-41.016,41.016,156.250
1688814019.837,-149.414,-57.129,-47.852,-7.324,-17.090
1688814019.838,77.148,-56.152,-55.664,-107.910,-134.277
1688814019.842,98.145,-59.082,-58.594,-120.605,-151.855
1688814019.846,-24.902,-57.129,-56.641,-72.754,-128.906
1688814019.850,-232.910,-53.223,-55.664,24.414,-2.441
1688814019.854,-183.594,-57.617,-54.688,12.207,25.879
1688814019.858,51.270,-55.664,-56.152,-92.773,50.293
1688814019.862,99.121,-52.734,-58.105,-123.047,3.418
1688814019.865,5.371,-53.223,-55.664,-75.684,-6.348
1688814019.869,-198.242,-54.199,-56.152,29.297,134.277
1688814019.873,-195.801,-51.758,-55.664,28.320,314.453
1688814019.877,39.062,-49.316,-54.199,-84.473,85.938
1688814019.881,111.816,-53.223,-49.316,-112.305,-101.074
1688814019.883,26.367,-50.781,-46.875,-68.359,102.051
1688814019.887,-176.758,-47.363,-47.363,23.438,221.680
1688814019.891,-215.820,-47.852,-48.828,34.180,117.676
1688814019.895,13.184,-53.223,-48.828,-76.172,-113.281
1688814019.899,108.887,-55.176,-43.945,-125.000,-231.934
1688814019.903,34.180,-58.105,-48.340,-94.238,-44.434
1688814019.907,-165.039,-61.523,-57.129,-1.953,118.652
1688814019.910,-237.305,-55.664,-50.293,38.086,92.773
1688814019.914,-12.207,-54.688,-44.434,-60.547,166.504
1688814019.918,115.723,-53.223,-41.992,-104.004,146.484
1688814019.922,66.895,-46.875,-37.598,-74.219,-146.973
1688814019.926,-115.723,-49.805,-42.480,15.137,-115.234
1688814019.928,-229.980,-52.734,-45.898,63.965,41.016
1688814019.932,-22.949,-47.852,-46.875,-33.203,-83.008
1688814019.936,131.836,-44.434,-43.457,-89.355,-154.785
1688814019.940,89.355,-43.945,-37.598,-62.012,-134.766
1688814019.944,-91.797,-44.922,-38.574,16.113,14.160
1688814019.948,-242.188,-45.410,-36.133,82.031,201.660
1688814019.952,-62.012,-45.410,-35.156,-5.859,84.473
1688814019.955,121.094,-48.340,-36.133,-93.750,-16.113
1688814019.959,98.145,-52.246,-42.969,-71.289,169.434
1688814019.963,-68.848,-51.270,-43.945,6.348,157.715
1688814019.967,-229.004,-42.969,-37.109,69.824,122.070
1688814019.971,-79.590,-42.969,-40.039,-1.953,129.883
1688814019.973,97.168,-51.758,-46.875,-86.426,89.844
1688814019.977,89.844,-52.246,-49.316,-100.098,-128.906
1688814019.981,-53.223,-56.152,-49.316,-39.062,-193.359
1688814019.985,-245.605,-64.453,-50.781,49.316,39.062
1688814019.989,-135.742,-65.430,-54.688,-17.578,20.020
1688814019.993,80.078,-60.059,-53.223,-120.117,-138.184
1688814019.997,83.984,-60.059,-55.664,-122.070,-137.207
1688814020.000,-41.504,-62.500,-54.199,-49.805,130.371
1688814020.004,-237.305,-58.105,-52.246,52.734,325.195
1688814020.008,-172.363,-53.711,-54.688,9.766,101.074
1688814020.012,56.152,-55.664,-56.152,-102.051,-99.609
1688814020.016,97.656,-53.223,-55.176,-120.117,-139.648
1688814020.034,-13.184,-51.270,-53.223,-67.871,-68.359
1688814020.038,-223.145,-50.781,-52.734,28.809,-19.043
1688814020.042,-200.195,-48.828,-51.270,18.066,68.359
1688814020.046,34.668,-44.434,-49.805,-80.078,17.090
1688814020.050,89.844,-43.945,-49.805,-104.004,-41.992
1688814020.054,-6.348,-48.828,-53.223,-68.359,-42.480
1688814020.058,-203.613,-42.969,-55.664,29.785,139.160
1688814020.061,-220.215,-35.645,-52.734,40.527,371.582
1688814020.065,16.602,-32.227,-46.387,-78.125,93.262
1688814020.069,103.516,-34.668,-50.781,-117.188,-128.906
1688814020.073,22.461,-41.504,-55.176,-86.426,-64.941
1688814020.077,-176.758,-45.410,-55.176,0.977,18.066
1688814020.064,-237.793,-44.922,-55.176,35.645,120.117
1688814020.068,-10.254,-37.598,-50.293,-71.289,-64.941
1688814020.072,104.492,-40.039,-50.293,-124.023,-2.930
1688814020.076,45.410,-41.504,-50.781,-82.520,173.340
1688814020.080,-140.137,-40.039,-46.875,0.488,14.648
1688814020.084,-244.141,-46.875,-44.922,35.645,130.859
1688814020.088,-46.387,-45.410,-45.410,-57.617,180.176
1688814020.091,94.238,-42.969,-45.898,-115.723,-21.973
1688814020.095,53.711,-44.922,-47.852,-93.750,-131.836
1688814020.099,-124.023,-46.387,-47.363,-20.996,-74.219
1688814020.103,-255.859,-49.805,-44.434,41.992,279.785
1688814020.107,-70.801,-46.875,-45.410,-49.316,243.652
1688814020.109,89.355,-45.898,-46.387,-123.047,-195.312
1688814020.113,67.871,-51.270,-42.969,-98.145,-186.035
1688814020.117,-90.820,-50.293,-36.133,-21.484,-4.883
1688814020.121,-255.859,-52.734,-32.227,51.270,36.133
1688814020.125,-101.074,-58.105,-34.180,-27.832,-46.387
1688814020.129,90.820,-55.176,-37.598,-116.211,15.137
1688814020.133,82.520,-54.199,-35.156,-102.539,249.512
1688814020.136,-70.312,-53.711,-39.062,-40.039,221.680
1688814020.140,-246.094,-50.293,-40.527,33.203,7.812
1688814020.144,-122.559,-54.199,-41.016,-22.949,-4.395
1688814020.148,87.402,-53.223,-45.898,-116.699,-77.148
1688814020.152,99.121,-48.340,-45.898,-115.234,-125.488
1688814020.169,-48.828,-50.781,-50.781,-53.223,-98.145
1688814020.173,-248.535,-47.852,-51.270,41.016,125.977
1688814020.177,-168.457,-50.293,-49.316,5.859,166.992
1688814020.181,54.688,-53.711,-48.340,-101.562,-153.809
1688814020.185,95.215,-48.828,-40.527,-112.305,-131.348
1688814020.189,-29.297,-51.270,-41.992,-52.246,50.781
1688814020.193,-235.840,-52.734,-46.875,46.875,231.445
1688814020.196,-183.105,-50.781,-43.945,26.367,165.527
1688814020.200,59.570,-53.711,-39.062,-90.332,-53.223
1688814020.204,113.281,-54.199,-41.016,-109.375,70.801
1688814020.208,3.906,-52.734,-45.898,-61.523,170.410
1688814020.212,-208.008,-51.758,-42.480,27.344,10.742
1688814020.213,-206.543,-50.781,-36.133,30.762,20.996
1688814020.217,26.367,-51.758,-39.551,-78.125,-75.684
1688814020.221,104.980,-49.316,-40.527,-114.258,-193.359
1688814020.225,29.785,-46.875,-37.598,-79.590,-153.809
1688814020.229,-169.434,-51.270,-39.062,19.043,10.254
1688814020.233,-215.820,-52.734,-41.016,40.527,138.672
1688814020.237,3.906,-47.363,-37.109,-74.707,-41.504
1688814020.240,104.492,-44.922,-39.062,-119.629,-173.828
1688814020.244,41.992,-41.992,-43.945,-87.891,-64.941
1688814020.248,-151.367,-42.969,-40.039,3.906,313.477
1688814020.252,-247.070,-45.410,-39.551,27.832,336.426
1688814020.256,-28.809,-35.645,-37.109,-81.055,-22.949
1688814020.258,91.309,-36.621,-39.551,-144.531,62.500
1688814020.262,20.020,-43.457,-46.387,-133.301,163.574
1688814020.266,-162.109,-35.156,-37.109,-47.363,40.039
1688814020.270,-292.480,-28.809,-26.367,-5.859,53.223
1688814020.274,-119.141,-32.715,-20.996,-118.164,-48.828
1688814020.278,29.297,-33.691,-20.996,-192.871,-96.191
1688814020.282,-2.930,-27.832,-24.902,-193.848,-3.418
1688814020.285,-190.918,-20.996,-19.043,-132.812,5.859
1688814020.289,-348.633,-18.555,-5.859,-59.570,260.742
1688814020.293,-187.012,-17.090,-0.977,-154.297,237.793
1688814020.297,-26.367,-15.137,-5.371,-258.301,-85.449
1688814020.301,-49.805,-20.996,-6.836,-243.652,-30.762
1688814020.303,-208.008,-27.344,-9.277,-177.246,92.773
1688814020.307,-387.207,-28.809,-10.254,-121.582,115.234
1688814020.311,-265.137,-31.738,-15.625,-194.336,-2.930
1688814020.315,-65.918,-37.109,-20.508,-282.715,-113.770
1688814020.319,-52.246,-33.203,-15.137,-288.574,-104.004
1688814020.323,-192.383,-31.250,-16.602,-220.215,-17.090
1688814020.327,-377.930,-35.156,-19.531,-124.023,60.059
1688814020.330,-270.508,-34.180,-27.344,-165.527,88.379
1688814020.334,-61.523,-38.574,-31.738,-260.254,136.719
1688814020.338,-40.527,-39.062,-26.367,-261.230,-57.617
1688814020.342,-142.090,-31.738,-26.855,-190.918,-201.172
1688814020.346,-336.426,-34.180,-32.227,-96.191,64.453
1688814020.349,-280.273,-37.109,-28.320,-122.559,100.098
1688814020.353,-48.340,-39.551,-22.461,-218.262,-77.148
1688814020.357,0.977,-41.016,-20.020,-229.004,-145.996
1688814020.361,-103.027,-42.969,-23.926,-170.898,-21.484
1688814020.365,-300.781,-46.387,-27.344,-66.895,241.211
1688814020.369,-268.066,-44.922,-26.855,-72.754,168.457
1688814020.373,-38.086,-49.316,-29.297,-176.758,-68.359
1688814020.376,26.367,-52.734,-27.344,-191.406,9.277
1688814020.380,-47.852,-49.316,-25.879,-136.719,184.570
1688814020.384,-241.699,-50.293,-37.109,-48.340,52.734
1688814020.388,-261.719,-55.176,-44.922,-42.969,71.777
1688814020.392,-29.297,-50.293,-48.340,-144.043,-38.086
1688814020.393,67.871,-41.504,-48.340,-165.527,-112.793
1688814020.397,4.395,-44.434,-39.551,-124.512,-99.121
1688814020.401,-184.082,-48.340,-41.992,-30.762,12.695
1688814020.405,-241.211,-47.852,-49.805,7.324,152.344
1688814020.409,-13.672,-49.805,-55.176,-101.074,54.688
1688814020.413,110.352,-55.176,-55.176,-144.531,-84.961
1688814020.417,60.059,-52.246,-50.293,-98.633,-85.938
1688814020.420,-124.023,-50.293,-50.293,2.441,313.477
1688814020.424,-228.516,-50.781,-54.199,50.781,330.566
1688814020.428,-12.207,-45.898,-53.223,-46.875,-64.941
1688814020.432,145.020,-44.434,-49.316,-96.680,-144.043
1688814020.436,111.328,-41.992,-47.363,-64.453,-55.176
1688814020.438,-62.988,-47.852,-42.480,22.461,32.715
1688814020.442,-198.730,-53.223,-36.621,86.426,30.762
1688814020.446,-16.602,-49.316,-38.574,0.000,65.430
1688814020.450,145.020,-45.410,-42.480,-70.312,23.438
1688814020.454,120.605,-43.945,-42.480,-55.664,-148.438
1688814020.458,-42.480,-54.199,-47.363,6.836,-43.457
1688814020.462,-213.379,-56.641,-49.805,75.195,321.777
1688814020.465,-69.336,-44.434,-51.270,-2.930,326.660
1688814020.469,108.887,-50.293,-54.199,-107.910,-159.668
1688814020.473,91.309,-52.734,-43.457,-115.234,-250.977
1688814020.477,-73.242,-39.062,-31.250,-65.430,-19.531
1688814020.481,-283.203,-34.668,-37.598,-11.230,89.355
1688814020.483,-198.242,-39.062,-46.387,-83.496,-54.199
1688814020.487,-18.555,-31.738,-37.598,-195.312,-119.629
1688814020.491,-33.203,-19.531,-39.062,-222.656,-136.230
1688814020.495,-180.176,-7.812,-39.062,-174.805,-108.887
1688814020.499,-368.652,-0.977,-29.297,-98.145,-14.160
1688814020.503,-289.062,4.395,-29.785,-141.602,125.977
1688814020.507,-64.453,11.230,-26.367,-232.910,284.668
1688814020.510,-48.340,-0.488,-27.832,-242.676,48.828
1688814020.514,-165.527,-7.812,-34.180,-189.941,-77.637
1688814020.518,-342.773,-6.348,-31.738,-94.727,194.824
1688814020.522,-316.406,-11.230,-30.273,-109.375,256.836
1688814020.526,-86.914,-16.602,-37.109,-211.914,61.523
1688814020.544,-23.438,-21.484,-35.156,-227.539,-154.297
1688814020.548,-114.746,-24.414,-31.250,-174.805,-60.547
1688814020.552,-305.176,-18.066,-34.668,-77.637,226.562
1688814020.556,-298.828,-23.926,-41.016,-78.613,76.660
1688814020.560,-58.105,-34.180,-38.574,-170.898,-86.426
1688814020.564,28.320,-39.551,-36.621,-187.500,-33.203
1688814020.568,-45.410,-44.434,-41.992,-147.461,37.109
1688814020.571,-226.074,-44.922,-41.016,-48.828,66.406
1688814020.575,-265.137,-48.340,-40.527,-14.648,15.137
1688814020.579,-35.156,-53.711,-43.945,-106.934,98.633
1688814020.583,84.961,-56.152,-43.945,-142.578,117.188
1688814020.587,27.344,-54.199,-47.852,-106.934,-50.781
1688814020.588,-156.738,-56.152,-50.781,-9.766,8.789
1688814020.592,-227.051,-58.105,-49.805,34.180,140.625
1688814020.596,-8.789,-58.594,-49.316,-64.941,-17.090
1688814020.600,126.465,-60.059,-55.176,-120.605,-200.684
1688814020.604,86.914,-61.035,-63.477,-77.637,-123.535
1688814020.608,-91.309,-65.918,-63.477,17.090,87.891
1688814020.612,-212.891,-69.336,-62.988,76.172,157.715
1688814020.615,-10.254,-66.406,-63.965,-7.324,-25.879
1688814020.619,154.785,-68.359,-64.453,-72.266,-105.469
1688814020.623,132.812,-67.383,-61.523,-30.273,79.102
1688814020.627,-26.855,-64.453,-56.641,57.129,17.090
1688814020.631,-176.758,-70.801,-58.105,118.652,15.625
1688814020.634,-6.348,-64.453,-62.500,47.852,221.191
1688814020.638,181.152,-63.965,-65.430,-24.414,132.812
1688814020.642,173.828,-67.383,-72.754,-15.625,-113.281
1688814020.646,25.391,-61.035,-72.754,60.059,-114.746
1688814020.650,-144.531,-64.941,-67.383,144.043,148.926
1688814020.654,-9.766,-65.918,-69.336,78.125,254.395
1688814020.658,190.918,-62.988,-70.801,-11.719,-0.488
1688814020.661,201.172,-62.012,-67.383,-13.184,-160.645
1688814020.665,65.430,-57.617,-62.012,64.941,108.887
1688814020.669,-124.023,-53.711,-56.641,168.457,319.824
1688814020.673,-25.391,-50.781,-53.223,109.375,62.012
1688814020.677,187.988,-54.688,-55.176,5.859,-60.547
1688814020.679,206.543,-61.035,-60.547,0.977,-83.496
1688814020.683,86.426,-58.594,-57.129,59.570,-5.859
1688814020.687,-111.816,-56.641,-50.293,150.879,40.527
1688814020.691,-56.152,-55.176,-47.852,125.488,94.727
1688814020.695,168.945,-46.875,-48.828,16.602,81.543
1688814020.699,215.332,-44.922,-53.223,-6.348,-132.812
1688814020.703,115.723,-42.480,-51.758,47.363,-64.453
1688814020.706,-96.191,-38.574,-53.711,138.184,111.816
1688814020.710,-89.355,-41.504,-55.664,125.977,397.461
1688814020.714,139.160,-41.016,-52.734,-0.488,248.047
1688814020.718,201.660,-39.551,-56.152,-41.992,-152.344
1688814020.722,111.816,-40.039,-54.199,12.695,21.484
1688814020.723,-94.727,-40.039,-47.363,106.934,183.594
1688814020.727,-123.535,-36.621,-45.410,109.863,84.473
1688814020.731,104.980,-35.645,-50.293,9.277,-53.223
1688814020.735,208.496,-35.156,-58.105,-31.738,-43.945
1688814020.739,108.887,-30.762,-52.734,15.625,11.230
1688814020.743,-113.770,-28.320,-47.363,111.328,165.527
1688814020.747,-146.973,-31.250,-41.992,116.211,192.383
1688814020.750,68.359,-33.203,-41.504,8.789,120.605
1688814020.754,187.012,-24.414,-44.922,-35.156,280.273
1688814020.758,129.883,-24.414,-45.898,-10.742,84.473
1688814020.762,-64.941,-33.691,-45.410,68.848,-62.012
1688814020.766,-175.293,-37.598,-42.480,118.652,45.898
1688814020.768,35.156,-34.668,-42.480,12.207,-112.305
1688814020.772,184.570,-30.273,-35.645,-57.617,-274.902
1688814020.776,143.555,-27.832,-27.344,-28.809,-221.191
1688814020.780,-35.156,-25.879,-23.926,50.781,-64.453
1688814020.784,-181.641,-30.762,-29.785,104.004,-19.531
1688814020.788,-2.930,-30.273,-30.762,9.277,-57.129
1688814020.792,172.363,-26.855,-26.855,-68.848,-35.645
1688814020.795,146.973,-30.273,-28.320,-41.016,27.344
1688814020.799,-23.926,-34.180,-29.785,31.738,67.871
1688814020.803,-190.430,-33.203,-38.086,88.867,7.324
1688814020.807,-35.645,-18.555,-38.574,15.625,4.883
1688814020.811,150.879,-8.789,-34.668,-72.754,50.293
1688814020.813,143.555,-6.348,-38.086,-69.824,-27.344
1688814020.817,-9.766,-5.859,-40.039,-0.977,-120.117
1688814020.821,-204.590,-11.719,-44.922,77.148,65.430
1688814020.825,-97.168,-17.090,-50.293,12.207,149.902
1688814020.829,110.352,-20.020,-47.363,-83.984,-113.281
1688814020.833,125.000,-25.391,-45.410,-84.473,-134.766
1688814020.837,-7.324,-27.344,-41.016,-15.625,218.262
1688814020.840,-202.637,-21.973,-34.668,76.660,312.988
1688814020.844,-125.000,-20.508,-30.762,27.832,-31.250
1688814020.848,101.562,-22.461,-24.902,-72.266,-164.062
1688814020.852,141.602,-21.484,-26.855,-83.496,-89.355
1688814020.856,30.762,-17.578,-29.297,-30.273,-89.355
1688814020.858,-178.711,-20.020,-26.367,64.453,-72.266
1688814020.862,-149.414,-27.832,-23.438,47.363,23.438
1688814020.866,80.078,-31.738,-24.414,-57.129,-31.738
1688814020.870,135.254,-28.809,-21.973,-87.402,-177.246
1688814020.874,36.621,-26.855,-20.996,-51.270,-195.801
1688814020.878,-172.363,-30.762,-24.902,43.457,103.027
1688814020.882,-188.965,-35.156,-28.809,52.246,349.121
1688814020.885,43.457,-34.668,-34.180,-70.312,74.219
1688814020.889,126.465,-31.250,-34.180,-109.375,-148.926
1688814020.893,43.457,-33.203,-33.203,-60.059,-66.895
1688814020.897,-161.133,-36.621,-36.133,30.762,53.711
1688814020.901,-213.379,-36.621,-32.715,55.176,137.207
1688814020.905,17.090,-33.691,-30.273,-48.828,9.766
1688814020.909,128.906,-34.180,-35.156,-92.285,23.438
1688814020.913,63.965,-34.668,-38.086,-48.340,178.223
1688814020.917,-129.883,-34.668,-44.434,34.180,80.566
1688814020.921,-217.773,-39.551,-47.363,61.523,65.918
1688814020.925,-16.602,-43.457,-41.504,-43.457,87.891
1688814020.929,112.305,-41.992,-35.156,-96.680,69.336
1688814020.932,71.777,-38.574,-37.109,-65.918,34.180
1688814020.936,-111.328,-44.922,-38.574,19.531,10.742
1688814020.940,-235.840,-50.293,-31.250,75.684,212.402
1688814020.944,-36.133,-45.898,-34.668,-21.484,192.383
1688814020.948,121.582,-48.340,-41.992,-103.027,-142.090
1688814020.963,90.332,-50.781,-36.133,-78.613,-197.754
1688814020.967,-77.637,-49.805,-35.156,9.766,-83.984
1688814020.971,-232.422,-48.828,-34.180,75.684,78.125
1688814020.975,-67.383,-46.875,-34.668,-22.461,-22.949
1688814020.979,112.305,-48.828,-37.109,-108.398,-103.516
1688814020.983,96.191,-39.551,-32.715,-87.891,102.539
1688814020.987,-57.617,-31.738,-33.691,-22.949,160.156
1688814020.990,-232.422,-35.645,-37.109,52.734,81.543
1688814020.994,-95.215,-38.086,-41.016,-9.766,82.520
1688814020.998,105.957,-38.574,-44.434,-91.309,225.586
1688814021.002,105.469,-36.621,-38.086,-85.449,44.922
1688814021.006,-29.785,-32.227,-39.551,-19.531,21.973
1688814021.008,-218.750,-28.809,-42.969,71.289,370.605
1688814021.012,-122.070,-22.949,-39.551,20.508,310.059
1688814021.016,90.820,-19.043,-40.527,-80.566,-85.938
1688814021.020,110.352,-28.320,-44.922,-87.402,-223.633
1688814021.024,-15.625,-39.551,-45.410,-32.227,-67.871
1688814021.028,-201.172,-39.551,-35.645,51.270,137.695
1688814021.032,-140.625,-34.180,-32.715,19.531,127.441
1688814021.035,65.430,-32.715,-41.016,-90.820,-42.480
1688814021.039,107.422,-38.086,-41.992,-103.516,57.129
1688814021.043,0.977,-41.504,-40.527,-48.340,167.480
1688814021.047,-202.148,-42.480,-46.875,22.949,10.742
1688814021.051,-190.918,-42.969,-43.457,9.277,-6.836
1688814021.053,34.668,-35.156,-38.574,-83.984,-84.473
1688814021.057,108.887,-35.645,-47.852,-110.352,-177.734
1688814021.061,18.066,-41.016,-53.223,-78.613,-168.457
1688814021.065,-183.594,-40.527,-52.246,4.883,-46.387
1688814021.069,-208.008,-41.504,-52.246,21.484,42.480
1688814021.073,0.488,-49.805,-53.711,-80.566,10.254
1688814021.077,82.520,-49.316,-50.781,-126.465,-40.039
1688814021.080,24.414,-41.016,-45.898,-91.797,14.160
1688814021.084,-155.273,-37.598,-42.969,10.254,380.371
1688814021.088,-222.168,-41.016,-43.457,26.855,277.344
1688814021.092,-9.277,-40.527,-46.387,-78.125,-122.070
1688814021.096,107.422,-39.062,-45.410,-112.305,-51.270
1688814021.098,52.734,-47.363,-44.434,-88.867,4.395
1688814021.102,-133.789,-51.270,-45.898,-9.277,-70.312
1688814021.106,-235.352,-45.898,-40.039,41.016,-34.668
1688814021.110,-37.109,-45.410,-39.551,-50.293,-64.941
1688814021.114,102.051,-47.852,-40.039,-113.281,-119.141
1688814021.118,65.430,-46.387,-39.551,-95.215,-72.266
1688814021.122,-105.469,-46.387,-44.434,-21.484,34.668
1688814021.125,-243.164,-45.898,-40.039,41.992,315.918
1688814021.129,-77.148,-45.410,-41.504,-41.992,244.141
1688814021.133,87.891,-44.434,-45.410,-114.746,-84.473
1688814021.137,67.383,-44.922,-45.898,-101.074,-21.484
1688814021.141,-93.750,-48.340,-48.340,-28.320,232.422
1688814021.143,-252.441,-52.246,-42.480,41.504,234.863
1688814021.147,-104.004,-47.363,-38.574,-35.645,-40.527
1688814021.151,77.637,-42.480,-38.086,-111.328,-103.027
1688814021.155,74.707,-41.992,-39.551,-101.074,-131.348
1688814021.159,-60.547,-41.016,-43.945,-42.480,-135.742
1688814021.163,-242.188,-45.410,-40.527,27.832,19.531
1688814021.167,-131.348,-48.828,-41.504,-14.160,92.773
1688814021.170,75.684,-41.992,-44.434,-98.145,182.617
1688814021.174,84.473,-44.434,-45.410,-112.793,34.180
1688814021.178,-40.039,-51.270,-46.875,-55.664,-171.875
1688814021.182,-227.539,-57.129,-44.434,30.762,-66.895
1688814021.186,-151.367,-58.594,-42.480,-14.160,54.688
1688814021.190,63.965,-49.805,-42.969,-112.793,-38.574
1688814021.194,93.750,-47.363,-50.781,-119.629,-97.656
1688814021.198,-4.395,-50.781,-50.293,-59.082,118.164
1688814021.202,-198.242,-49.805,-44.922,41.992,315.430
1688814021.206,-170.410,-49.316,-44.922,12.207,106.934
1688814021.210,45.898,-50.293,-42.480,-89.844,-62.500
1688814021.214,100.098,-47.363,-44.434,-93.750,113.281
1688814021.217,5.859,-45.410,-46.387,-52.734,182.129
1688814021.221,-202.637,-46.875,-43.945,19.531,15.625
1688814021.225,-213.379,-47.363,-41.504,13.184,61.035
1688814021.229,11.230,-46.387,-34.180,-83.496,6.348
1688814021.233,87.891,-45.898,-35.156,-116.699,-102.051
1688814021.248,24.902,-40.039,-37.109,-87.891,-119.141
1688814021.252,-165.527,-42.969,-34.668,-3.906,-2.930
1688814021.256,-226.562,-44.434,-37.109,16.113,167.969
1688814021.260,-17.090,-40.039,-39.551,-80.566,93.262
1688814021.264,86.914,-41.992,-39.062,-120.605,-168.945
1688814021.268,36.621,-37.598,-35.645,-93.750,-157.227
1688814021.272,-152.344,-36.621,-33.203,-11.230,369.629
1688814021.275,-241.211,-38.086,-38.086,14.160,448.242
1688814021.279,-31.250,-39.551,-46.875,-85.449,-70.312
1688814021.283,99.121,-41.504,-43.457,-129.883,-143.066
1688814021.287,55.176,-40.527,-43.945,-102.051,-92.773
1688814021.291,-120.117,-41.992,-48.340,-22.949,-16.113
1688814021.293,-242.676,-39.062,-40.039,24.902,31.738
1688814021.297,-64.941,-33.203,-30.762,-50.293,72.266
1688814021.301,95.703,-32.715,-35.645,-111.328,32.715
1688814021.305,50.781,-34.668,-42.969,-100.098,-145.508
1688814021.309,-123.047,-36.621,-39.062,-38.086,-110.840
1688814021.313,-250.000,-40.527,-35.645,20.020,238.281
1688814021.317,-103.027,-39.551,-37.109,-41.992,328.125
1688814021.320,68.359,-27.344,-40.039,-127.930,-57.617
1688814021.324,59.570,-27.344,-41.504,-130.371,-220.215
1688814021.328,-83.496,-35.645,-38.574,-57.129,41.016
1688814021.332,-247.070,-37.109,-39.062,19.531,303.711
1688814021.336,-124.512,-36.621,-42.969,-49.316,40.527
1688814021.338,60.059,-37.598,-45.410,-130.859,-119.141
1688814021.342,63.477,-44.434,-50.293,-123.535,-109.863
1688814021.346,-54.688,-47.852,-50.293,-76.172,-14.648
1688814021.350,-217.773,-47.363,-42.480,-4.883,62.500
1688814021.354,-128.418,-41.992,-41.992,-44.434,83.008
1688814021.358,63.965,-43.945,-50.781,-121.582,46.875
1688814021.362,87.402,-45.898,-53.711,-123.047,20.996
1688814021.365,-20.508,-42.969,-47.363,-74.219,-22.949
1688814021.369,-202.637,-41.992,-34.180,15.625,80.566
1688814021.373,-145.020,-41.992,-32.227,6.836,415.039
1688814021.377,56.152,-40.527,-43.457,-85.449,227.539
1688814021.381,100.098,-38.574,-41.992,-103.516,-92.285
1688814021.383,10.742,-41.504,-29.785,-52.734,105.957
1688814021.387,-193.359,-48.340,-30.273,24.414,211.426
1688814021.391,-181.641,-42.969,-29.785,12.695,-18.555
1688814021.395,38.574,-41.992,-24.414,-73.730,-120.605
1688814021.399,99.121,-42.969,-25.879,-92.773,-97.168
1688814021.403,15.625,-44.434,-28.809,-54.199,-28.809
1688814021.407,-175.781,-42.969,-31.250,20.020,149.902
1688814021.410,-206.543,-42.480,-34.668,15.625,87.402
1688814021.414,2.441,-48.340,-38.574,-67.383,97.168
1688814021.418,82.031,-46.387,-40.039,-93.750,201.172
1688814021.422,9.277,-42.969,-39.062,-84.961,-18.066
1688814021.426,-173.828,-48.828,-39.062,-20.996,-51.758
1688814021.428,-241.211,-49.316,-37.598,6.836,90.820
1688814021.432,-41.504,-41.504,-39.551,-69.824,-13.184
1688814021.436,73.242,-44.434,-40.039,-107.422,-134.277
1688814021.440,28.809,-53.711,-41.504,-85.449,-51.758
1688814021.444,-144.531,-52.246,-44.434,-11.230,58.594
1688814021.448,-245.605,-49.316,-47.363,20.020,140.625
1688814021.452,-56.641,-49.805,-45.898,-63.965,-17.578
1688814021.455,78.125,-48.828,-41.504,-106.445,-80.078
1688814021.459,40.527,-47.363,-46.387,-84.961,95.215
1688814021.463,-125.000,-46.387,-52.734,-31.250,36.621
1688814021.467,-246.582,-44.922,-52.734,14.160,-30.273
1688814021.471,-74.707,-48.828,-56.641,-44.922,34.668
1688814021.474,76.172,-53.223,-64.941,-102.539,67.871
1688814021.478,50.293,-51.270,-62.012,-96.191,7.324
1688814021.482,-96.191,-44.434,-58.594,-33.203,-83.008
1688814021.486,-245.117,-42.480,-60.547,31.250,122.559
1688814021.490,-109.375,-39.062,-60.547,-27.832,138.184
1688814021.494,67.871,-39.062,-61.035,-98.633,-59.570
1688814021.498,71.777,-45.898,-63.477,-84.961,-71.777
1688814021.501,-62.988,-48.340,-62.988,-26.855,88.867
1688814021.505,-235.840,-47.852,-62.012,39.062,213.867
1688814021.509,-125.000,-40.527,-58.105,-14.648,-41.504
1688814021.513,66.895,-44.434,-55.176,-92.773,-182.129
1688814021.517,78.125,-47.363,-58.105,-86.914,-148.438
1688814021.519,-40.527,-42.480,-51.758,-33.691,-35.156
1688814021.523,-225.098,-45.898,-44.922,35.156,32.227
1688814021.527,-160.645,-50.293,-45.410,-3.418,-4.395
1688814021.531,32.227,-51.270,-47.852,-86.426,-57.129
1688814021.535,68.848,-46.875,-43.457,-100.586,-130.859
1688814021.539,-35.156,-47.363,-41.016,-64.453,-12.207
1688814021.543,-231.934,-50.293,-44.434,11.719,146.484
1688814021.546,-186.523,-44.922,-42.969,5.371,382.324
1688814021.550,33.691,-39.551,-43.457,-75.684,223.145
1688814021.554,94.238,-36.621,-41.016,-103.516,-188.477
1688814021.558,-0.977,-36.133,-34.180,-59.570,-104.492
1688814021.562,-201.172,-38.086,-34.668,16.113,-0.488
1688814021.578,-198.242,-32.227,-38.574,-0.488,-8.789
1688814021.582,20.508,-25.879,-38.086,-83.984,-166.504
1688814021.586,90.332,-29.785,-37.598,-102.051,-63.477
1688814021.590,13.672,-32.227,-43.457,-71.777,131.348
1688814021.594,-178.223,-28.320,-41.016,-5.371,32.227
1688814021.598,-218.750,-33.203,-37.109,10.742,115.723
1688814021.602,-10.254,-41.504,-46.875,-69.336,286.133
1688814021.605,83.496,-41.504,-48.828,-102.539,295.898
1688814021.609,32.715,-37.598,-42.969,-82.031,10.742
1688814021.613,-155.762,-45.410,-42.969,-11.719,-35.156
1688814021.617,-247.559,-49.805,-43.945,15.137,12.207
1688814021.621,-50.781,-41.992,-43.945,-64.453,-88.379
1688814021.608,79.102,-36.133,-40.527,-104.980,-161.133
1688814021.612,37.109,-37.109,-40.527,-87.402,-101.074
1688814021.616,-140.625,-40.527,-50.781,-20.508,8.789
1688814021.620,-262.207,-38.574,-50.781,25.391,62.012
1688814021.624,-84.473,-38.574,-45.898,-52.734,-8.301
1688814021.628,66.895,-39.551,-56.152,-121.582,-58.105
1688814021.632,43.945,-38.086,-59.082,-108.398,9.766
1688814021.635,-118.652,-40.039,-47.852,-32.227,105.469
1688814021.639,-261.719,-41.504,-42.969,20.508,107.422
1688814021.643,-92.285,-44.434,-46.387,-50.781,79.590
1688814021.647,76.172,-43.945,-45.410,-98.633,255.371
1688814021.651,63.477,-38.086,-40.039,-80.566,138.672
1688814021.683,-79.590,-37.109,-38.574,-33.203,-75.684
1688814021.687,-251.953,-42.480,-38.086,22.461,185.547
1688814021.691,-118.652,-43.945,-36.133,-22.461,251.465
1688814021.695,74.219,-45.898,-35.156,-86.426,-18.066
1688814021.699,82.031,-46.875,-35.156,-91.309,-128.906
1688814021.703,-46.875,-45.410,-39.551,-45.898,-25.879
1688814021.707,-238.281,-41.504,-40.039,16.113,103.027
1688814021.710,-148.438,-40.039,-38.086,-32.227,-3.418
1688814021.714,57.617,-44.434,-39.551,-110.840,-125.000
1688814021.718,83.496,-43.945,-34.180,-104.004,133.301
1688814021.722,-27.344,-36.133,-26.367,-53.223,256.348
1688814021.726,-226.074,-37.109,-26.367,7.812,70.801
1688814021.714,-175.781,-41.016,-28.809,-26.367,57.129
1688814021.718,39.551,-37.109,-29.297,-109.863,-63.477
1688814021.722,88.379,-35.156,-27.832,-114.258,-172.852
1688814021.726,-3.906,-31.250,-24.414,-82.031,-115.723
1688814021.730,-207.520,-38.086,-24.414,-25.879,23.438
1688814021.734,-197.266,-46.875,-28.809,-35.645,155.762
1688814021.738,28.320,-42.480,-35.156,-123.535,29.297
1688814021.741,98.633,-36.621,-32.227,-150.879,-88.867
1688814021.745,18.555,-39.062,-22.949,-104.492,36.133
1688814021.749,-187.988,-46.387,-17.090,-23.438,158.691
1688814021.753,-215.332,-45.898,-18.066,-24.414,79.102
1688814021.757,14.160,-42.969,-24.414,-110.352,-28.809
1688814021.774,106.934,-41.992,-24.902,-127.930,38.574
1688814021.778,41.504,-41.016,-22.949,-83.984,342.773
1688814021.782,-154.297,-42.480,-20.508,-10.254,333.496
1688814021.786,-215.332,-39.062,-19.043,5.371,-12.695
1688814021.790,0.000,-43.457,-24.902,-78.613,-128.418
1688814021.794,109.375,-43.945,-27.344,-114.258,-77.148
1688814021.798,56.641,-36.621,-25.879,-88.379,-41.504
1688814021.801,-131.348,-40.527,-28.320,-25.391,-14.648
1688814021.805,-232.422,-45.898,-29.785,16.602,222.656
1688814021.809,-37.598,-42.480,-33.203,-65.430,273.926
1688814021.813,102.539,-35.645,-38.086,-128.906,-61.035
1688814021.817,73.242,-35.156,-32.715,-111.328,-136.230
1688814021.804,-99.609,-40.527,-32.227,-47.363,-9.277
1688814021.808,-231.445,-41.016,-28.320,-0.488,70.801
1688814021.812,-58.105,-30.762,-26.367,-67.871,-21.973
1688814021.816,96.680,-26.855,-34.668,-125.000,-102.539
1688814021.820,80.566,-30.273,-34.668,-121.094,16.113
1688814021.824,-72.754,-27.832,-34.180,-63.477,114.746
1688814021.828,-241.699,-24.414,-35.645,-12.207,118.652
1688814021.831,-97.168,-19.531,-33.691,-66.895,74.219
1688814021.835,88.379,-21.973,-33.691,-118.652,-45.410
1688814021.839,88.379,-22.949,-40.039,-106.934,-181.641
1688814021.843,-48.340,-21.484,-44.434,-48.828,-175.293
1688814021.847,-228.516,-30.762,-38.574,13.672,163.086
1688814021.848,-122.559,-34.668,-36.133,-29.785,511.230
1688814021.852,83.496,-27.344,-32.715,-106.934,187.500
1688814021.856,106.445,-26.367,-35.645,-107.910,-128.418
1688814021.860,-24.414,-21.484,-42.480,-54.199,-52.246
1688814021.864,-229.004,-18.066,-40.527,9.277,61.523
1688814021.868,-158.691,-23.438,-38.574,-15.625,52.246
1688814021.872,45.410,-22.461,-38.086,-94.238,-69.336
1688814021.875,67.871,-24.902,-38.574,-104.004,111.328
1688814021.879,-42.969,-33.203,-41.504,-65.918,336.426
1688814021.883,-242.676,-39.551,-45.898,-9.766,102.051
1688814021.887,-202.637,-43.945,-46.875,-24.414,-24.414
1688814021.891,15.137,-46.387,-45.898,-97.656,-139.160
1688814021.893,72.754,-50.293,-49.316,-104.980,-230.469
1688814021.897,-13.184,-48.340,-49.805,-71.289,-96.191
1688814021.901,-220.703,-54.688,-51.270,-5.371,12.695
1688814021.905,-221.680,-55.664,-52.734,-0.488,-5.859
1688814021.909,12.695,-45.898,-47.852,-71.777,-98.633
1688814021.913,87.891,-44.434,-47.363,-92.773,-140.137
1688814021.917,19.043,-48.828,-47.852,-66.895,3.418
1688814021.920,-169.434,-50.293,-46.875,10.742,495.605
1688814021.924,-215.820,-40.527,-42.969,32.227,428.223
1688814021.928,12.207,-34.668,-37.109,-40.527,-53.223
1688814021.932,123.535,-37.598,-38.574,-68.848,-125.488
1688814021.936,68.848,-35.645,-37.109,-53.711,-108.887
1688814021.939,-122.559,-32.715,-30.762,10.742,15.625
1688814021.943,-212.891,-35.156,-30.762,27.832,29.785
1688814021.947,-13.672,-36.621,-36.133,-45.898,41.992
1688814021.951,104.492,-34.668,-40.039,-85.449,86.426
1688814021.955,60.547,-34.180,-40.527,-70.801,-108.398
1688814021.959,-115.234,-33.203,-31.738,-1.465,-46.387
1688814021.963,-238.770,-34.180,-31.250,34.180,338.379
1688814021.966,-63.965,-41.992,-39.062,-37.598,303.223
1688814021.970,82.520,-43.457,-41.504,-90.332,-80.078
1688814021.974,58.105,-38.574,-41.504,-78.613,-147.461
1688814021.978,-103.027,-33.203,-38.086,-14.648,-11.230
1688814021.982,-241.211,-30.762,-38.574,31.738,81.055
1688814021.998,-81.543,-30.762,-43.457,-44.434,-28.320
1688814022.002,77.148,-31.250,-47.363,-102.051,-135.254
1688814022.006,62.012,-32.227,-49.805,-93.262,-107.910
1688814022.010,-85.449,-42.480,-52.734,-35.645,-79.102
1688814022.014,-250.000,-47.852,-50.781,15.137,-56.641
1688814022.018,-121.582,-42.969,-46.387,-38.574,51.270
1688814022.022,59.082,-40.527,-44.922,-84.473,109.375
1688814022.025,69.824,-37.598,-40.527,-79.102,-52.246
1688814022.029,-72.754,-41.016,-36.621,-41.504,-130.371
1688814022.033,-238.770,-43.457,-36.621,15.137,47.852
1688814022.037,-127.930,-39.551,-42.969,-20.020,111.816
1688814022.041,43.945,-37.598,-46.387,-78.613,6.348
1688814022.030,70.312,-31.250,-41.016,-80.078,-78.613
1688814022.034,-33.203,-29.785,-37.109,-32.227,32.715
1688814022.038,-228.516,-36.133,-40.527,32.227,222.168
1688814022.042,-172.363,-34.668,-41.992,-1.465,58.594
1688814022.046,42.480,-31.738,-39.551,-64.453,-134.277
1688814022.050,81.543,-39.062,-43.457,-73.730,-79.102
1688814022.054,-10.742,-41.016,-44.434,-40.527,50.781
1688814022.057,-198.242,-38.086,-42.969,15.625,26.367
1688814022.061,-177.734,-45.898,-52.246,-8.789,-62.500
1688814022.065,33.691,-44.922,-53.711,-65.430,125.977
1688814022.069,82.520,-40.039,-52.246,-69.824,180.664
1688814022.073,-1.953,-44.434,-55.176,-49.805,-70.312
1688814022.104,-181.152,-49.805,-55.176,4.883,-73.242
1688814022.108,-174.805,-47.363,-54.688,2.441,8.301
1688814022.112,34.668,-46.387,-53.711,-71.777,-144.043
1688814022.116,85.449,-45.898,-53.711,-86.426,-143.066
1688814022.120,3.906,-44.922,-47.852,-52.246,-58.105
1688814022.124,-169.434,-51.270,-45.410,6.836,189.941
1688814022.128,-197.754,-44.922,-47.363,6.836,230.469
1688814022.131,3.906,-41.504,-46.387,-75.195,-100.586
1688814022.135,76.660,-43.457,-39.551,-89.355,-145.508
1688814022.139,20.020,-40.527,-40.039,-54.688,16.113
1688814022.143,-137.695,-38.574,-40.527,-1.953,4.395
1688814022.147,-210.938,-41.992,-39.551,14.648,-12.695
1688814022.134,-22.461,-42.969,-44.922,-54.688,125.000
1688814022.138,66.895,-41.992,-51.758,-79.590,142.090
1688814022.142,13.184,-45.410,-54.688,-67.383,-50.781
1688814022.146,-130.859,-46.387,-50.781,-16.113,-94.238
1688814022.150,-223.633,-42.480,-44.434,22.461,144.531
1688814022.154,-52.734,-40.527,-46.875,-49.805,173.828
1688814022.158,59.082,-43.945,-54.199,-90.332,-113.770
1688814022.161,24.414,-41.992,-49.316,-65.430,-110.352
1688814022.165,-107.910,-38.086,-44.922,-16.602,21.973
1688814022.169,-228.516,-43.945,-48.340,20.508,62.012
1688814022.173,-68.848,-44.434,-50.781,-35.156,-53.711
1688814022.177,71.289,-42.480,-53.223,-74.219,-185.059
1688814022.179,39.551,-50.293,-55.176,-56.152,60.059
1688814022.183,-80.078,-44.434,-57.617,-14.160,251.953
1688814022.187,-214.355,-42.969,-56.641,19.043,54.688
1688814022.191,-77.637,-41.992,-52.734,-26.855,-47.852
1688814022.195,84.961,-38.574,-59.082,-71.289,-65.430
1688814022.199,49.316,-44.434,-61.035,-64.453,3.418
1688814022.203,-58.105,-48.828,-58.594,-26.367,80.078
1688814022.206,-190.430,-45.410,-62.988,7.812,204.102
1688814022.210,-101.562,-40.039,-58.105,-27.344,358.398
1688814022.214,66.895,-40.039,-55.176,-83.496,244.141
1688814022.218,68.359,-34.668,-53.223,-97.168,-97.168
1688814022.222,-29.297,-36.133,-47.363,-64.941,68.848
1688814022.224,-187.500,-41.504,-46.387,-12.207,273.438
1688814022.228,-120.605,-42.969,-43.457,-45.410,-25.391
1688814022.232,59.570,-41.016,-39.062,-106.445,-211.426
1688814022.236,63.477,-41.992,-36.621,-102.051,-124.023
1688814022.240,-33.203,-45.410,-37.109,-74.707,-29.297
1688814022.244,-197.754,-44.434,-38.574,-31.250,75.195
1688814022.248,-168.945,-49.805,-38.574,-54.688,38.086
1688814022.251,11.719,-59.082,-43.457,-112.305,39.551
1688814022.255,44.434,-57.617,-46.387,-103.027,308.594
1688814022.259,-26.855,-56.641,-44.922,-74.707,21.484
1688814022.263,-191.406,-56.152,-48.828,-24.902,-176.270
1688814022.267,-192.383,-47.363,-46.387,-18.066,-38.086
1688814022.268,2.930,-48.828,-47.852,-86.914,-128.906
1688814022.272,51.758,-48.828,-51.758,-114.746,-201.172
1688814022.276,-11.230,-42.480,-51.270,-88.379,-189.941
1688814022.280,-170.410,-44.434,-49.316,-33.203,-56.152
1688814022.284,-211.426,-52.734,-48.828,-24.902,-1.953
1688814022.288,-13.184,-49.805,-46.875,-95.703,-9.277
1688814022.292,62.988,-39.062,-43.945,-122.559,43.457
1688814022.295,10.742,-38.086,-42.969,-90.820,243.164
1688814022.299,-142.090,-37.109,-44.922,-41.016,215.820
1688814022.303,-205.078,-35.645,-42.480,-33.691,18.555
1688814022.307,-14.160,-37.109,-46.875,-103.516,104.980
1688814022.311,67.871,-40.039,-57.129,-139.160,62.500
1688814022.314,20.508,-37.598,-56.641,-122.070,-118.164
1688814022.318,-116.211,-35.156,-51.270,-76.660,-107.910
1688814022.322,-216.309,-38.086,-42.480,-59.570,121.582
1688814022.326,-55.664,-35.645,-42.969,-134.766,169.434
1688814022.330,56.152,-28.809,-44.434,-188.965,-114.258
1688814022.334,19.043,-29.297,-41.992,-179.688,-97.656
1688814022.338,-111.816,-35.645,-44.434,-139.648,231.934
1688814022.341,-249.512,-40.039,-53.223,-112.305,294.434
1688814022.345,-108.398,-28.809,-50.293,-165.527,-43.945
1688814022.349,30.762,-32.715,-45.898,-221.191,-148.926
1688814022.353,-9.766,-42.969,-51.758,-233.887,-135.742
1688814022.357,-143.555,-43.945,-56.152,-204.102,-104.004
1688814022.359,-290.039,-44.434,-53.711,-156.250,57.129
1688814022.363,-183.594,-41.992,-50.781,-206.543,41.504
1688814022.367,-44.434,-28.320,-51.270,-280.273,-35.645
1688814022.371,-77.148,-21.484,-49.316,-284.668,-29.785
1688814022.375,-196.289,-30.273,-44.434,-267.578,-96.680
1688814022.379,-360.352,-26.367,-36.133,-237.305,15.625
1688814022.383,-289.551,-18.555,-36.621,-284.180,215.820
1688814022.386,-122.070,-10.254,-30.762,-361.816,20.508
1688814022.390,-144.043,-15.625,-31.250,-381.348,-187.500
1688814022.394,-255.859,-19.043,-31.738,-352.051,20.020
1688814022.398,-420.898,-12.695,-26.367,-314.941,162.109
1688814022.402,-375.488,-6.836,-21.973,-355.957,63.477
1688814022.403,-188.965,-6.836,-26.855,-423.340,-80.566
1688814022.407,-159.180,-12.207,-30.273,-410.156,-29.785
1688814022.411,-243.164,-20.508,-26.367,-351.562,125.977
1688814022.415,-395.020,-20.996,-27.832,-276.367,94.727
1688814022.419,-354.492,-18.555,-27.832,-268.066,-82.031
1688814022.423,-145.020,-19.531,-18.555,-320.312,93.750
1688814022.427,-96.680,-23.438,-15.137,-313.477,314.453
1688814022.430,-151.367,-25.391,-20.020,-279.297,-55.664
1688814022.434,-296.875,-21.484,-21.484,-220.703,-60.547
1688814022.438,-313.477,-26.367,-19.043,-208.496,155.273
1688814022.442,-111.328,-30.273,-18.066,-258.301,87.891
1688814022.446,-30.273,-30.273,-19.043,-253.418,-80.566
1688814022.463,-77.148,-35.645,-27.832,-212.402,-97.656
1688814022.467,-231.445,-35.645,-33.691,-150.879,-62.988
1688814022.471,-286.133,-36.133,-37.109,-123.535,-35.156
1688814022.475,-85.449,-40.527,-39.062,-171.387,-110.840
1688814022.479,20.020,-40.527,-36.621,-168.945,-104.004
1688814022.483,-20.508,-39.551,-37.598,-133.301,55.664
1688814022.487,-162.598,-43.945,-40.527,-81.543,91.797
1688814022.490,-243.164,-42.480,-39.551,-48.828,101.562
1688814022.494,-57.617,-38.086,-40.039,-80.566,74.219
1688814022.498,65.918,-35.156,-39.062,-78.613,219.238
1688814022.502,24.414,-30.273,-35.156,-65.918,161.621
1688814022.506,-105.957,-31.250,-33.691,-23.438,-1.953
1688814022.508,-202.637,-34.668,-29.297,23.438,179.199
1688814022.512,-45.410,-36.133,-33.691,-34.668,211.426
1688814022.516,89.844,-34.668,-43.945,-82.031,-35.156
1688814022.520,70.801,-35.645,-42.969,-62.500,-105.957
1688814022.524,-45.898,-38.574,-41.016,-10.254,-1.465
1688814022.528,-174.805,-37.598,-41.016,27.832,149.902
1688814022.532,-35.645,-38.086,-38.574,-20.508,55.176
1688814022.535,125.000,-38.086,-37.598,-62.012,-97.656
1688814022.539,113.281,-33.691,-34.668,-41.016,178.223
1688814022.543,-7.324,-36.133,-36.621,6.836,351.562
1688814022.547,-166.992,-41.992,-38.086,45.898,116.211
1688814022.551,-53.223,-45.898,-31.738,2.441,-22.461
1688814022.553,132.324,-43.945,-31.738,-45.410,-45.410
1688814022.557,130.859,-41.016,-33.691,-28.320,-59.082
1688814022.561,27.344,-42.969,-35.645,11.230,-91.797
1688814022.565,-134.277,-48.340,-41.992,62.012,-10.254
1688814022.569,-69.336,-57.617,-47.852,35.156,43.945
1688814022.573,113.281,-56.152,-46.875,-23.926,35.645
1688814022.577,126.953,-52.734,-46.387,-18.555,-14.160
1688814022.580,41.504,-52.734,-49.316,19.531,-45.898
1688814022.584,-125.000,-51.270,-52.734,81.543,252.441
1688814022.588,-83.496,-44.922,-52.734,55.176,164.551
1688814022.592,115.234,-43.945,-55.176,-19.043,-68.359
1688814022.596,138.672,-49.316,-56.641,-9.277,127.441
1688814022.599,58.594,-49.316,-50.293,18.066,315.918
1688814022.603,-107.422,-49.316,-47.852,56.152,119.629
1688814022.607,-107.910,-53.711,-50.293,47.852,-42.480
1688814022.611,96.680,-49.316,-47.852,-19.043,-6.348
1688814022.615,144.531,-46.875,-44.922,-29.297,-67.871
1688814022.619,64.941,-57.617,-50.293,-3.418,-94.238
1688814022.623,-97.656,-59.570,-54.688,54.199,6.348
1688814022.626,-135.742,-57.129,-53.711,68.359,143.066
1688814022.630,58.105,-55.176,-48.828,0.000,131.836
1688814022.634,133.301,-52.734,-48.340,-27.344,-140.625
1688814022.638,75.195,-54.688,-51.270,4.395,-158.691
1688814022.642,-72.266,-53.223,-54.199,54.688,11.230
1688814022.643,-138.672,-50.781,-52.246,65.918,54.199
1688814022.647,39.062,-48.340,-47.852,5.859,-22.949
1688814022.651,140.137,-45.410,-44.434,-15.625,-88.867
1688814022.655,104.004,-45.898,-45.410,4.395,-8.789
1688814022.659,-39.551,-39.062,-44.922,45.898,15.137
1688814022.663,-148.438,-31.250,-45.410,70.312,93.750
1688814022.667,21.484,-29.785,-46.387,13.184,165.527
1688814022.670,145.996,-34.180,-49.805,-15.625,185.059
1688814022.674,98.145,-40.039,-53.223,-15.137,61.523
1688814022.678,-41.504,-45.898,-51.758,23.438,-56.152
1688814022.682,-161.133,-49.805,-55.176,70.801,53.711
1688814022.686,-14.648,-47.363,-52.246,20.996,72.266
1688814022.689,134.277,-42.969,-46.387,-20.508,-28.320
1688814022.693,117.188,-42.480,-47.852,-6.836,-180.176
1688814022.697,-2.441,-48.828,-52.246,41.016,63.477
1688814022.701,-140.137,-51.758,-55.176,76.172,271.973
1688814022.705,-23.926,-48.828,-52.246,10.254,-12.207
1688814022.709,133.301,-38.574,-46.875,-37.598,-92.285
1688814022.713,121.582,-30.273,-46.387,-18.066,142.578
1688814022.716,6.348,-28.809,-48.828,16.113,235.352
1688814022.720,-149.902,-27.832,-46.387,59.082,-16.602
1688814022.724,-51.758,-24.414,-42.969,31.738,-40.039
1688814022.728,128.418,-16.113,-41.016,-19.043,-44.434
1688814022.732,119.141,-16.602,-39.062,-15.625,-104.492
1688814022.734,23.926,-19.043,-38.086,19.043,-53.711
1688814022.738,-127.930,-19.043,-35.156,74.219,11.230
1688814022.742,-83.496,-15.625,-34.180,42.480,22.949
1688814022.746,104.492,-9.277,-33.691,-18.555,-113.281
1688814022.750,123.535,-8.789,-30.762,-17.090,-193.848
1688814022.754,31.738,-6.348,-28.809,6.348,-34.180
1688814022.758,-131.836,-2.930,-25.879,63.477,211.914
1688814022.761,-120.117,-2.441,-29.785,38.086,93.262
1688814022.765,62.988,-1.465,-33.203,-53.223,-119.141
1688814022.769,102.539,-4.883,-29.297,-54.688,1.953
1688814022.773,41.992,-10.742,-31.250,-6.836,153.809
1688814022.777,-122.070,-13.672,-36.621,36.133,73.242
1688814022.824,-141.602,-15.625,-35.645,16.602,-19.043
1688814022.828,48.828,-20.508,-34.180,-44.922,57.617
1688814022.832,102.539,-16.602,-32.227,-59.082,99.609
1688814022.836,43.457,-11.230,-30.273,-42.480,-52.734
1688814022.840,-109.375,-20.508,-29.785,6.836,-54.199
1688814022.844,-163.086,-26.855,-29.785,14.160,179.199
1688814022.848,27.344,-26.855,-34.668,-53.223,205.566
1688814022.851,112.793,-23.438,-36.621,-75.195,-40.527
1688814022.855,65.430,-26.855,-30.762,-51.758,-104.492
1688814022.859,-80.566,-36.621,-32.227,12.207,137.695
1688814022.863,-172.852,-36.133,-33.691,42.969,243.164
1688814022.867,-8.301,-34.668,-37.109,-41.992,-28.809
1688814022.831,102.539,-35.156,-34.180,-72.754,-107.910
1688814022.835,67.871,-32.715,-29.785,-41.992,-159.668
1688814022.839,-77.637,-31.738,-32.715,-6.836,-123.535
1688814022.843,-189.453,-32.715,-32.715,17.090,-20.508
1688814022.847,-29.297,-32.715,-28.320,-30.762,-13.672
1688814022.851,96.191,-34.180,-30.762,-62.500,62.012
1688814022.855,56.641,-38.086,-41.504,-58.594,96.191
1688814022.858,-73.730,-45.410,-42.480,-29.297,-50.781
1688814022.862,-194.336,-49.805,-36.621,18.066,1.953
1688814022.866,-61.035,-47.363,-37.598,-21.484,203.125
1688814022.870,84.961,-44.434,-43.457,-73.242,52.734
1688814022.874,67.383,-45.898,-41.504,-55.664,-133.789
1688814022.883,-42.480,-44.922,-38.086,2.441,37.598
1688814022.887,-177.246,-45.410,-42.969,62.012,155.762
1688814022.891,-68.848,-40.039,-44.922,19.043,-23.438
1688814022.895,94.727,-34.180,-49.805,-46.875,-108.398
1688814022.899,85.938,-41.504,-53.223,-43.457,14.648
1688814022.903,-15.625,-46.387,-53.223,8.789,377.441
1688814022.907,-163.574,-41.992,-55.176,71.289,595.703
1688814022.910,-88.379,-39.551,-57.129,34.180,346.191
1688814022.914,83.984,-42.480,-60.059,-33.691,-11.230
1688814022.918,88.867,-42.969,-62.500,-25.879,-80.566
1688814022.922,-2.441,-48.828,-63.965,8.301,-125.977
1688814022.926,-162.598,-48.340,-57.617,46.875,-110.840
1688814022.928,-123.535,-42.969,-56.152,13.184,-69.824
1688814022.932,64.453,-45.898,-60.547,-45.898,-104.492
1688814022.936,83.984,-46.875,-58.105,-39.062,-105.469
1688814022.940,4.883,-46.875,-55.176,-9.277,-58.594
1688814022.944,-147.461,-49.316,-52.734,54.199,42.480
1688814022.948,-153.320,-47.363,-53.711,46.387,92.285
1688814022.952,31.250,-44.434,-54.199,-26.855,50.293
1688814022.955,78.125,-50.781,-56.641,-32.715,26.367
1688814022.959,6.348,-56.641,-58.594,-2.441,149.902
1688814022.963,-152.832,-50.293,-56.641,44.434,59.082
1688814022.967,-185.059,-52.246,-55.176,38.574,-144.531
1688814022.971,3.906,-57.129,-50.293,-20.020,-17.578
1688814022.975,73.242,-55.176,-46.387,-30.762,53.223
1688814022.979,12.207,-53.223,-45.898,-19.043,-120.605
1688814022.983,-142.578,-56.152,-41.016,28.320,12.207
1688814022.987,-200.195,-56.152,-37.109,44.434,256.836
1688814022.991,-13.672,-55.664,-41.504,-22.949,133.301
1688814022.995,73.730,-57.129,-44.922,-48.340,-51.758
1688814022.999,23.438,-52.246,-38.574,-28.809,-121.094
1688814023.002,-119.141,-52.246,-33.203,26.855,117.676
1688814023.006,-217.773,-56.152,-35.645,56.641,268.555
1688814023.010,-53.711,-57.617,-34.180,-10.742,-58.105
1688814023.014,66.406,-58.594,-33.691,-46.387,-155.273
1688814023.018,27.832,-56.152,-32.227,-34.180,-174.316
1688814023.019,-106.934,-61.035,-32.227,0.488,-101.562
1688814023.023,-221.680,-65.430,-37.109,22.461,-24.902
1688814023.027,-68.359,-60.547,-34.668,-24.414,-95.215
1688814023.031,66.895,-60.059,-39.062,-55.664,-130.859
1688814023.035,37.598,-63.477,-41.504,-46.387,-86.426
1688814023.039,-86.426,-63.965,-36.133,-6.348,-2.441
1688814023.043,-226.562,-62.988,-37.598,32.715,83.496
1688814023.046,-103.516,-61.523,-39.551,-15.137,330.566
1688814023.050,50.781,-57.617,-41.504,-62.500,218.262
1688814023.054,41.016,-57.617,-41.992,-57.129,-130.859
1688814023.058,-67.383,-57.129,-40.039,-21.973,-4.883
1688814023.062,-215.820,-51.758,-36.133,26.367,258.301
1688814023.063,-124.023,-49.805,-33.203,-26.855,46.387
1688814023.067,41.016,-51.758,-34.668,-90.820,-145.996
1688814023.071,42.969,-51.270,-31.738,-76.660,10.254
1688814023.075,-45.898,-47.363,-30.273,-32.227,50.781
1688814023.079,-208.984,-46.875,-32.715,22.461,17.090
1688814023.083,-147.949,-47.852,-34.180,-7.324,-2.930
1688814023.087,40.527,-41.992,-33.691,-51.758,158.203
1688814023.090,56.641,-39.551,-33.691,-42.969,305.176
1688814023.094,-24.414,-39.551,-34.180,-26.855,-36.133
1688814023.098,-185.547,-40.039,-33.691,20.020,-83.008
1688814023.102,-164.551,-44.434,-39.062,5.859,73.242
1688814023.106,26.855,-41.504,-37.109,-57.129,-48.828
1688814023.108,62.988,-44.434,-38.574,-69.824,-247.070
1688814023.112,-6.348,-47.852,-38.086,-35.645,-211.426
1688814023.116,-167.480,-47.852,-35.645,20.996,-43.457
1688814023.120,-177.734,-49.316,-35.645,19.531,10.742
1688814023.124,7.812,-44.922,-34.668,-47.363,-91.309
1688814023.128,52.734,-51.758,-38.086,-68.848,-12.207
1688814023.132,-4.395,-53.223,-34.668,-39.551,188.965
1688814023.135,-158.203,-47.363,-30.273,22.949,145.996
1688814023.139,-199.707,-46.387,-33.691,21.973,-42.480
1688814023.143,-5.859,-50.293,-36.133,-60.547,-16.602
1688814023.147,71.777,-47.852,-33.203,-72.754,228.027
1688814023.151,13.672,-43.945,-37.598,-56.641,161.133
1688814023.154,-136.230,-43.945,-44.434,-20.508,-27.832
1688814023.158,-210.938,-45.410,-46.387,7.324,93.750
1688814023.162,-32.227,-45.410,-46.387,-44.922,96.191
1688814023.166,77.148,-46.387,-40.527,-77.637,-90.820
1688814023.170,40.039,-53.711,-40.039,-62.012,-115.234
1688814023.174,-102.051,-54.688,-42.480,-5.371,146.484
1688814023.178,-205.566,-49.805,-38.086,25.879,266.602
1688814023.181,-43.457,-45.410,-37.109,-38.086,32.227
1688814023.185,81.055,-45.410,-41.992,-82.031,-57.617
1688814023.189,43.457,-42.480,-42.480,-70.312,0.488
1688814023.193,-90.820,-40.039,-40.039,-21.484,-3.418
1688814023.197,-211.426,-38.574,-41.992,19.043,50.781
1688814023.214,-70.312,-35.645,-51.270,-41.992,20.508
1688814023.218,68.359,-44.922,-61.035,-97.168,114.258
1688814023.222,45.410,-46.875,-61.523,-82.031,152.344
1688814023.226,-63.965,-44.434,-54.688,-34.668,-69.336
1688814023.230,-203.613,-45.898,-48.828,20.508,28.809
1688814023.234,-87.891,-39.062,-50.293,-22.461,150.391
1688814023.238,72.266,-38.086,-50.293,-82.031,-2.930
1688814023.241,51.270,-44.434,-50.293,-75.195,-149.902
1688814023.245,-45.898,-48.340,-49.316,-33.691,-62.500
1688814023.249,-199.707,-48.340,-50.293,15.625,177.246
1688814023.253,-125.488,-49.316,-49.316,-27.344,64.941
1688814023.257,46.875,-53.223,-46.875,-89.355,-158.203
1688814023.260,43.457,-51.270,-45.898,-79.590,-1.465
1688814023.264,-47.852,-47.852,-46.387,-47.363,164.551
1688814023.268,-201.172,-42.480,-47.363,2.930,54.688
1688814023.272,-155.762,-40.039,-47.363,-19.531,-99.121
1688814023.276,28.320,-47.363,-46.387,-85.938,-28.320
1688814023.280,46.387,-52.734,-43.457,-81.543,62.012
1688814023.284,-36.133,-56.152,-45.898,-44.922,-29.785
1688814023.287,-181.641,-51.270,-37.109,17.090,3.906
1688814023.291,-158.691,-47.363,-27.344,7.812,167.969
1688814023.295,36.133,-50.781,-31.738,-62.988,170.410
1688814023.299,78.125,-53.711,-33.203,-72.754,-92.773
1688814023.303,8.301,-50.293,-30.762,-44.922,-146.484
1688814023.304,-151.855,-51.270,-32.227,6.836,-49.805
1688814023.308,-176.270,-52.734,-34.668,6.836,20.508
1688814023.312,23.438,-47.363,-32.715,-60.059,-57.617
1688814023.316,91.797,-47.852,-28.320,-72.754,-117.676
1688814023.320,31.738,-46.387,-29.297,-49.805,-10.254
1688814023.324,-113.770,-42.480,-29.785,7.324,123.047
1688814023.328,-169.922,-42.969,-26.367,21.973,164.551
1688814023.331,16.113,-41.504,-24.414,-51.270,33.203
1688814023.335,103.516,-40.039,-25.879,-59.570,200.195
1688814023.339,45.898,-40.039,-27.832,-39.551,226.074
1688814023.343,-101.562,-44.922,-23.438,-5.371,-81.543
1688814023.347,-189.941,-46.875,-18.066,30.273,69.336
1688814023.348,-21.484,-42.480,-21.973,-34.180,107.422
1688814023.352,93.750,-37.598,-26.855,-74.219,-110.352
1688814023.356,56.152,-33.691,-27.832,-52.246,-159.668
1688814023.360,-72.266,-30.762,-24.414,-2.441,15.137
1688814023.364,-179.688,-22.461,-20.020,29.785,118.652
1688814023.368,-30.273,-18.555,-20.508,-28.320,-21.973
1688814023.372,97.656,-22.949,-27.344,-69.336,-94.238
1688814023.375,64.941,-27.832,-30.762,-45.898,107.910
1688814023.379,-63.477,-33.691,-34.668,3.906,315.430
1688814023.383,-197.754,-39.062,-37.109,30.762,74.219
1688814023.387,-73.730,-40.039,-35.645,-21.973,-59.082
1688814023.391,64.453,-43.457,-41.016,-68.848,-152.832
1688814023.393,40.527,-51.758,-45.410,-59.570,-190.918
1688814023.397,-75.195,-58.594,-48.340,-24.414,-119.629
1688814023.401,-226.074,-59.082,-45.898,19.531,-62.012
1688814023.405,-120.605,-53.711,-41.016,-15.137,-16.113
1688814023.409,45.410,-49.805,-41.992,-73.730,-48.340
1688814023.413,33.203,-51.270,-43.945,-61.523,-54.688
1688814023.417,-61.035,-52.734,-43.457,-17.090,80.566
1688814023.420,-209.473,-53.223,-42.480,40.039,338.379
1688814023.424,-150.391,-55.176,-44.922,7.812,203.613
1688814023.428,25.391,-51.270,-46.387,-63.965,-132.812
1688814023.432,45.410,-46.387,-46.387,-64.941,-96.191
1688814023.436,-36.133,-47.363,-48.340,-30.273,177.246
1688814023.438,-193.848,-45.410,-43.457,20.508,128.418
1688814023.442,-155.273,-43.457,-34.668,3.906,-77.148
1688814023.446,40.527,-41.504,-30.273,-49.316,49.316
1688814023.450,63.965,-43.457,-36.621,-51.270,122.559
1688814023.454,-12.695,-45.410,-41.016,-33.203,-49.316
1688814023.458,-165.039,-44.434,-37.109,25.879,20.996
1688814023.462,-158.203,-46.387,-31.738,30.762,275.879
1688814023.465,38.574,-45.898,-30.762,-37.109,192.871
1688814023.469,78.613,-47.852,-30.762,-50.293,-129.395
1688814023.473,6.348,-54.199,-29.297,-31.738,-204.590
1688814023.477,-144.043,-56.641,-27.832,17.578,53.223
1688814023.481,-182.129,-54.688,-25.391,27.832,199.707
1688814023.483,6.836,-48.340,-32.227,-55.664,-85.938
1688814023.487,84.961,-48.828,-37.109,-79.102,-210.449
1688814023.491,30.273,-50.781,-38.574,-46.387,54.199
1688814023.495,-120.605,-43.945,-47.363,3.906,135.742
1688814023.499,-188.477,-40.039,-49.805,20.508,-116.699
1688814023.503,-11.719,-42.969,-50.781,-41.016,-30.273
1688814023.507,78.613,-44.434,-50.293,-73.730,221.191
1688814023.510,27.832,-46.875,-50.293,-61.035,107.422
1688814023.514,-112.793,-55.664,-52.734,-10.254,-133.301
1688814023.518,-208.008,-57.617,-48.828,20.508,-31.738
1688814023.522,-46.387,-59.082,-47.852,-42.480,-2.441
1688814023.526,70.801,-51.758,-45.898,-73.242,-41.016
1688814023.530,39.062,-43.945,-44.434,-58.105,-64.453
1688814023.534,-93.750,-52.734,-43.945,-15.625,107.422
1688814023.538,-215.820,-56.152,-39.062,26.855,366.211
1688814023.542,-71.777,-46.875,-38.086,-42.969,70.801
1688814023.546,58.105,-52.246,-42.480,-91.797,-105.469
1688814023.550,30.762,-55.176,-43.945,-59.570,55.664
1688814023.554,-83.984,-53.223,-48.340,-14.648,99.121
1688814023.557,-215.820,-57.617,-50.781,14.648,-27.344
1688814023.561,-91.309,-54.688,-45.898,-34.668,-118.164
1688814023.565,68.359,-53.223,-44.434,-71.777,37.109
1688814023.569,52.246,-55.664,-43.945,-55.664,38.086
1688814023.573,-62.012,-59.570,-39.551,-19.531,-162.109
1688814023.588,-207.031,-64.941,-33.691,34.180,-1.465
1688814023.592,-121.094,-62.500,-33.691,-5.371,97.168
1688814023.596,45.410,-58.105,-33.203,-69.336,-44.434
1688814023.600,47.852,-58.594,-31.738,-62.988,-138.184
1688814023.604,-45.410,-62.500,-34.180,-25.391,-103.516
1688814023.608,-197.754,-64.453,-34.668,38.086,332.031
1688814023.612,-135.254,-54.688,-34.180,17.578,341.309
1688814023.615,51.758,-51.758,-34.668,-53.223,-130.859
1688814023.619,67.871,-56.641,-32.715,-55.664,-50.293
1688814023.623,-14.648,-52.246,-30.273,-17.578,87.891
1688814023.627,-169.434,-50.293,-27.832,49.316,34.668
1688814023.631,-138.184,-50.781,-24.414,35.645,38.086
1688814023.633,53.223,-48.828,-24.414,-38.574,122.070
1688814023.637,86.914,-41.992,-25.391,-38.574,16.602
1688814023.641,14.160,-36.133,-26.855,-11.230,-185.059
1688814023.645,-144.043,-40.527,-27.832,37.109,-119.629
1688814023.649,-152.344,-41.504,-30.762,28.320,-1.953
1688814023.653,41.992,-38.086,-33.691,-45.898,46.387
1688814023.657,96.680,-39.551,-36.133,-69.336,4.395
1688814023.660,31.738,-38.086,-37.598,-55.664,-24.414
1688814023.664,-124.512,-37.598,-33.691,3.418,199.219
1688814023.668,-178.223,-40.039,-31.250,6.348,203.125
1688814023.672,5.371,-42.480,-33.203,-74.219,-85.449
1688814023.676,85.938,-45.410,-39.551,-93.750,-191.406
1688814023.693,28.320,-49.805,-43.945,-64.941,78.125
1688814023.697,-117.676,-48.828,-37.109,-2.930,241.699
1688814023.701,-187.500,-42.969,-35.156,14.160,5.371
1688814023.705,-6.348,-36.621,-34.180,-45.410,-49.805
1688814023.709,91.797,-38.086,-31.738,-64.453,-95.703
1688814023.713,43.945,-40.039,-30.762,-45.898,-75.195
1688814023.717,-87.402,-43.457,-32.227,8.301,23.438
1688814023.720,-196.777,-45.898,-37.109,41.016,72.266
1688814023.724,-43.457,-45.898,-34.180,-15.137,272.461
1688814023.728,79.590,-45.410,-29.297,-45.410,213.867
1688814023.732,43.945,-45.410,-29.785,-35.156,-189.941
1688814023.736,-78.125,-54.199,-32.227,6.348,-63.965
1688814023.724,-204.102,-53.711,-32.715,41.504,86.914
1688814023.728,-75.684,-52.734,-37.598,-23.926,-69.336
1688814023.732,66.895,-54.688,-35.645,-67.383,-154.297
1688814023.736,48.828,-55.176,-35.645,-45.898,-26.367
1688814023.740,-58.594,-56.152,-41.016,1.465,110.352
1688814023.744,-199.219,-62.988,-43.945,41.504,86.426
1688814023.748,-94.727,-64.453,-48.828,-12.695,66.406
1688814023.751,65.430,-53.711,-47.363,-66.406,128.418
1688814023.755,59.570,-46.875,-45.898,-54.688,-19.043
1688814023.759,-43.457,-48.340,-45.410,-20.996,-76.660
1688814023.763,-201.172,-49.805,-45.410,20.508,52.734
1688814023.767,-125.000,-52.734,-44.922,-5.859,211.426
1688814023.768,47.363,-59.082,-43.945,-60.547,232.910
1688814023.772,56.152,-51.270,-41.016,-63.477,-100.098
1688814023.776,-25.879,-41.504,-38.574,-24.902,-100.098
1688814023.780,-177.246,-45.898,-39.062,30.273,20.508
1688814023.784,-135.254,-47.363,-40.527,3.906,-27.344
1688814023.788,41.504,-46.387,-41.504,-59.570,-132.324
1688814023.792,63.477,-44.922,-43.945,-59.082,-44.434
1688814023.795,-20.996,-49.316,-47.852,-20.508,236.328
1688814023.799,-177.734,-53.711,-44.434,29.785,162.598
1688814023.803,-159.180,-48.828,-43.945,11.230,1.953
1688814023.807,33.203,-49.805,-44.922,-59.570,29.785
1688814023.811,65.918,-53.711,-45.410,-68.848,40.039
1688814023.815,-3.906,-50.781,-48.340,-35.645,5.371
1688814023.819,-152.344,-47.852,-45.898,19.043,54.688
1688814023.823,-181.641,-48.340,-47.852,27.344,257.324
1688814023.827,4.883,-48.828,-55.664,-35.156,246.094
1688814023.831,69.336,-50.293,-54.199,-58.105,-61.035
1688814023.835,14.160,-52.246,-53.223,-36.133,-97.168
1688814023.839,-128.906,-55.176,-50.293,26.855,211.914
1688814023.842,-181.641,-56.641,-48.828,36.133,375.977
1688814023.846,1.953,-50.781,-47.363,-44.922,59.082
1688814023.850,86.426,-47.852,-42.969,-62.500,-112.793
1688814023.854,28.320,-52.246,-43.945,-36.621,-52.734
1688814023.858,-114.258,-52.734,-43.457,12.207,-23.926
1688814023.858,-196.777,-48.340,-45.898,35.156,-22.949
1688814023.862,-30.273,-51.270,-50.781,-31.250,-12.695
1688814023.866,79.590,-49.805,-47.363,-71.289,-87.891
1688814023.870,45.410,-46.875,-43.945,-51.270,-28.809
1688814023.874,-78.125,-46.875,-44.434,2.441,60.547
1688814023.878,-185.059,-48.340,-39.062,39.551,71.777
1688814023.882,-34.180,-52.246,-30.762,-4.883,376.465
1688814023.885,92.773,-54.199,-31.738,-42.969,282.227
1688814023.889,55.176,-53.711,-31.738,-44.434,-148.438
1688814023.893,-65.918,-55.176,-32.227,-12.207,-118.652
1688814023.897,-197.266,-59.570,-38.574,23.438,-4.395
1688814023.901,-73.730,-59.082,-37.109,-31.738,-25.391
1688814023.903,77.148,-54.688,-39.551,-85.938,-170.898
1688814023.907,64.453,-51.758,-37.109,-72.754,-39.551
1688814023.911,-44.434,-45.898,-31.738,-21.484,79.590
1688814023.915,-184.082,-39.062,-31.738,35.156,-55.664
1688814023.919,-78.613,-44.434,-31.738,-13.672,-34.180
1688814023.923,83.496,-41.016,-31.738,-76.172,17.578
1688814023.927,69.824,-33.691,-31.738,-73.730,102.539
1688814023.930,-33.203,-41.016,-30.762,-40.039,89.844
1688814023.934,-187.012,-42.969,-24.902,14.160,-25.391
1688814023.938,-115.234,-37.598,-24.902,-14.160,148.926
1688814023.942,61.523,-38.574,-31.250,-76.172,233.887
1688814023.946,68.848,-38.574,-34.180,-79.590,-116.699
1688814023.963,-13.672,-42.969,-31.738,-41.504,-134.277
1688814023.967,-175.781,-45.898,-28.320,13.184,18.066
1688814023.971,-149.902,-44.434,-29.297,-8.789,25.879
1688814023.975,31.250,-50.293,-37.598,-88.867,-77.148
1688814023.979,60.059,-46.387,-32.227,-93.262,-108.398
1688814023.983,-8.301,-41.016,-24.414,-51.758,94.727
1688814023.987,-165.527,-47.363,-23.926,3.906,208.008
1688814023.990,-168.945,-44.434,-22.461,-4.395,100.098
1688814023.994,21.973,-39.062,-22.461,-73.730,9.766
1688814023.998,78.125,-42.480,-20.020,-75.684,190.430
1688814024.002,21.973,-37.598,-18.555,-47.852,117.188
1688814024.006,-127.930,-34.180,-16.113,6.348,-3.418
1688814024.039,-167.480,-36.133,-13.184,12.207,167.969
1688814024.043,13.184,-36.133,-18.066,-60.547,109.375
1688814024.047,83.984,-34.180,-24.902,-81.543,-144.043
1688814024.051,28.320,-35.156,-21.973,-59.082,-173.340
1688814024.055,-126.953,-37.598,-26.367,-5.859,-47.363
1688814024.059,-190.918,-38.574,-33.203,14.160,91.797
1688814024.063,-8.301,-42.480,-31.738,-45.898,69.336
1688814024.066,80.078,-41.016,-32.227,-75.195,-87.891
1688814024.070,41.992,-37.598,-32.715,-50.781,23.438
1688814024.074,-93.262,-38.574,-34.668,8.301,274.902
1688814024.078,-190.430,-36.133,-31.738,28.320,164.062
1688814024.082,-32.715,-37.109,-27.344,-41.992,7.324
1688814024.055,82.520,-41.016,-31.738,-74.707,21.484
1688814024.059,40.527,-42.480,-39.062,-62.012,-51.270
1688814024.063,-84.961,-48.340,-43.945,-19.043,-169.922
1688814024.067,-200.195,-51.758,-44.434,20.508,7.324
1688814024.071,-65.918,-48.340,-43.457,-43.945,0.000
1688814024.075,61.523,-46.387,-47.363,-93.262,-54.199
1688814024.079,37.109,-42.969,-45.410,-76.172,-41.016
1688814024.082,-76.660,-43.457,-38.086,-24.414,31.738
1688814024.086,-212.891,-46.875,-39.062,18.555,223.633
1688814024.090,-98.145,-45.898,-45.898,-37.598,75.684
1688814024.094,52.246,-44.434,-44.922,-90.820,-109.375
1688814024.098,40.527,-45.898,-39.551,-79.590,32.227
1688814024.099,-62.500,-46.875,-40.527,-41.504,115.723
1688814024.103,-209.961,-45.898,-42.969,4.883,54.199
1688814024.107,-128.906,-50.293,-42.480,-37.598,-34.180
1688814024.111,36.621,-55.176,-43.945,-101.074,-49.316
1688814024.115,37.598,-55.664,-43.945,-80.078,302.246
1688814024.119,-58.105,-54.199,-45.898,-43.457,400.391
1688814024.123,-217.285,-58.594,-53.223,-17.090,125.000
1688814024.126,-160.645,-57.129,-53.711,-51.270,121.582
1688814024.130,26.367,-47.363,-47.363,-106.445,208.984
1688814024.134,51.758,-46.387,-46.875,-115.234,-12.207
1688814024.138,-27.344,-50.293,-48.828,-88.379,-110.352
1688814024.142,-185.059,-49.805,-43.945,-26.855,43.945
1688814024.143,-164.551,-51.270,-39.551,-40.527,18.555
1688814024.147,23.926,-52.246,-39.551,-112.793,-153.809
1688814024.151,69.824,-45.410,-36.621,-115.723,-147.949
1688814024.155,11.719,-42.969,-30.762,-83.984,0.000
1688814024.159,-144.043,-47.852,-33.691,-41.992,102.051
1688814024.163,-165.039,-51.270,-38.086,-53.223,114.258
1688814024.167,17.578,-49.316,-34.668,-118.652,41.992
1688814024.170,73.242,-45.898,-30.273,-123.535,230.957
1688814024.174,13.672,-44.434,-32.715,-100.586,155.762
1688814024.178,-134.766,-47.852,-33.203,-54.199,-68.359
1688814024.182,-177.246,-52.734,-34.180,-48.340,22.461
1688814024.186,5.371,-41.992,-31.250,-120.117,5.859
1688814024.190,79.102,-33.691,-28.320,-146.484,-52.246
1688814024.194,33.203,-34.180,-29.785,-128.906,-191.895
1688814024.198,-110.352,-41.504,-26.855,-74.219,11.719
1688814024.202,-194.824,-44.922,-25.879,-41.992,247.070
1688814024.206,-29.297,-40.527,-26.367,-108.398,-23.926
1688814024.210,63.965,-45.898,-27.344,-144.531,-147.949
1688814024.214,17.090,-51.758,-24.902,-117.188,101.074
1688814024.217,-118.164,-48.340,-23.926,-61.523,337.402
1688814024.221,-225.098,-45.410,-24.902,-43.457,110.352
1688814024.225,-70.312,-47.852,-26.367,-109.375,-107.910
1688814024.229,57.129,-52.246,-26.367,-144.531,-116.699
1688814024.233,14.160,-51.758,-28.320,-131.836,-109.863
1688814024.233,-113.281,-52.734,-35.156,-81.543,-86.426
1688814024.237,-225.098,-52.734,-35.645,-29.297,-24.902
1688814024.241,-94.727,-47.852,-36.133,-81.055,-57.129
1688814024.245,46.875,-47.363,-41.504,-137.695,-104.980
1688814024.249,34.180,-44.922,-37.598,-120.605,-116.699
1688814024.253,-80.078,-49.805,-38.574,-69.336,18.555
1688814024.257,-224.121,-52.734,-43.457,-12.695,395.508
1688814024.260,-122.070,-50.781,-42.969,-63.965,340.820
1688814024.264,37.598,-55.176,-40.527,-135.742,-74.219
1688814024.268,26.367,-54.688,-38.086,-127.930,-42.969
1688814024.272,-69.824,-50.293,-38.086,-88.379,101.074
1688814024.276,-213.867,-52.246,-42.969,-38.086,152.832
1688814024.278,-141.602,-51.270,-42.480,-67.383,32.227
1688814024.282,30.273,-47.852,-46.387,-122.559,-26.855
1688814024.286,38.086,-54.199,-50.781,-106.934,291.992
1688814024.290,-42.969,-49.805,-45.410,-68.848,271.484
1688814024.294,-193.359,-41.504,-46.387,-23.926,-11.719
1688814024.298,-147.461,-43.945,-46.875,-49.316,79.590
1688814024.302,39.551,-46.387,-43.457,-111.816,102.051
1688814024.305,65.430,-51.270,-45.410,-116.211,-109.863
1688814024.309,-22.949,-53.711,-47.852,-96.191,-243.652
1688814024.313,-180.664,-52.734,-46.387,-28.809,87.891
1688814024.317,-160.645,-51.758,-50.781,-34.180,216.797
1688814024.321,15.625,-58.105,-51.270,-117.188,-159.668
1688814024.339,47.852,-63.477,-47.363,-118.652,-197.266
1688814024.343,-14.648,-62.500,-50.781,-84.961,-54.199
1688814024.347,-162.598,-62.012,-46.875,-32.227,15.625
1688814024.351,-185.059,-60.547,-43.945,-32.715,-28.809
1688814024.355,-5.859,-62.012,-49.805,-106.934,-85.449
1688814024.359,56.152,-60.547,-52.246,-121.094,0.488
1688814024.363,5.859,-50.781,-46.387,-93.750,17.090
1688814024.366,-138.672,-49.805,-40.527,-44.922,-16.113
1688814024.370,-194.336,-56.641,-40.527,-36.621,8.789
1688814024.374,-17.578,-52.734,-40.527,-111.328,104.980
1688814024.378,59.082,-42.969,-43.457,-145.508,-0.488
1688814024.382,10.742,-47.363,-43.945,-126.465,-118.652
1688814024.384,-121.094,-52.734,-44.922,-67.383,99.121
1688814024.388,-206.543,-50.293,-52.734,-39.062,293.457
1688814024.392,-46.387,-53.223,-58.594,-138.672,8.789
1688814024.396,59.570,-53.223,-53.711,-200.684,-204.102
1688814024.400,25.391,-54.199,-51.758,-191.406,-76.660
1688814024.404,-97.656,-58.105,-50.781,-153.809,29.297
1688814024.408,-204.590,-57.129,-50.293,-132.812,79.102
1688814024.411,-59.082,-52.734,-48.340,-203.613,19.043
1688814024.415,63.477,-50.781,-41.504,-241.211,45.898
1688814024.419,32.227,-44.922,-41.504,-239.258,198.242
1688814024.423,-79.590,-37.109,-41.016,-228.516,37.109
1688814024.427,-209.473,-41.016,-43.945,-204.590,2.441
1688814024.431,-91.309,-38.086,-45.898,-274.414,22.461
1688814024.435,61.523,-33.691,-41.016,-340.820,-115.234
1688814024.439,49.805,-26.367,-36.621,-330.078,-143.555
1688814024.443,-49.316,-12.207,-39.551,-293.945,25.391
1688814024.447,-187.500,-6.836,-41.992,-259.277,123.047
1688814024.451,-96.191,-8.301,-41.504,-325.684,45.898
1688814024.455,67.871,-9.766,-45.898,-414.551,-15.137
1688814024.458,68.848,-10.254,-45.410,-419.434,19.043
1688814024.462,-31.738,-15.137,-46.875,-387.695,220.703
1688814024.466,-184.570,-14.648,-49.316,-350.586,147.461
1688814024.470,-109.375,-13.184,-44.922,-408.691,-106.934
1688814024.474,66.895,-20.020,-39.551,-483.887,0.488
1688814024.488,74.219,-23.438,-39.062,-482.422,87.891
1688814024.492,-12.695,-25.391,-44.922,-459.473,-19.531
1688814024.496,-172.852,-32.227,-53.711,-408.691,-25.879
1688814024.500,-135.742,-38.574,-58.105,-424.805,106.445
1688814024.504,44.922,-34.668,-56.641,-490.234,145.508
1688814024.508,70.801,-27.832,-48.828,-482.422,-13.184
1688814024.512,3.418,-26.855,-43.945,-440.918,-52.246
1688814024.515,-153.320,-31.250,-39.062,-386.719,191.406
1688814024.519,-163.086,-25.391,-34.180,-386.230,402.344
1688814024.523,25.879,-15.625,-34.668,-446.289,94.238
1688814024.527,62.988,-28.320,-37.109,-458.496,-145.020
1688814024.531,-10.742,-24.414,-21.973,-443.848,-127.930
1688814024.533,-164.551,-20.020,-11.230,-421.387,-93.750
1688814024.537,-221.191,-30.762,-22.461,-448.730,-15.137
1688814024.541,-63.965,-29.785,-29.297,-533.203,-111.816
1688814024.545,-21.484,-22.461,-24.902,-565.918,-164.551
1688814024.549,-94.727,-19.043,-14.648,-559.570,-139.648
1688814024.553,-262.207,-25.879,-13.672,-493.652,-48.340
1688814024.557,-361.328,-26.855,-20.020,-462.891,62.012
1688814024.560,-219.727,-20.508,-16.113,-558.105,103.027
1688814024.564,-144.043,-16.602,-14.160,-634.766,-70.312
1688814024.568,-194.824,-13.184,-20.508,-709.473,-177.734
1688814024.572,-337.891,-13.672,-21.973,-726.562,-32.715
1688814024.576,-424.805,-7.324,-11.719,-696.289,375.977
1688814024.564,-258.789,0.977,-7.812,-748.535,320.312
1688814024.568,-134.277,0.488,-11.230,-770.996,-114.258
1688814024.572,-156.250,-5.371,-16.113,-762.695,-96.680
1688814024.576,-270.020,-12.695,-20.508,-725.098,-67.383
1688814024.580,-368.652,-14.648,-26.855,-676.270,-104.004
1688814024.584,-223.145,-21.973,-41.016,-729.980,-102.539
