timestamps,TP9,AF7,AF8,TP10,Right AUX
1688813963.828,-210.938,-27.832,-33.691,15.625,184.082
1688813963.832,-62.988,-25.879,-29.785,-38.086,149.414
1688813963.836,87.891,-23.438,-31.738,-82.031,29.785
1688813963.840,65.918,-25.879,-35.645,-75.684,-115.723
1688813963.844,-51.758,-29.785,-34.668,-29.297,21.973
1688813963.848,-205.078,-30.273,-28.809,36.133,208.496
1688813963.852,-84.473,-26.855,-25.391,-13.672,102.051
1688813963.855,92.773,-24.902,-30.273,-83.496,-41.016
1688813963.859,87.402,-28.809,-28.809,-65.918,-69.824
1688813963.863,-13.184,-31.738,-21.973,-6.836,190.430
1688813963.867,-178.711,-31.250,-28.320,50.781,211.914
1688813963.871,-109.375,-33.691,-34.668,-0.488,13.184
1688813963.873,84.961,-32.715,-31.738,-65.918,-80.566
1688813963.877,96.191,-30.273,-30.273,-56.641,-163.574
1688813963.881,1.465,-30.762,-29.785,-19.043,-123.047
1688813963.885,-166.992,-33.203,-30.273,43.945,37.598
1688813963.889,-131.836,-37.598,-32.715,14.160,101.074
1688813963.893,70.312,-33.203,-26.367,-51.270,23.926
1688813963.897,101.562,-28.809,-26.367,-42.969,-3.418
1688813963.900,12.695,-31.738,-29.297,-19.043,-1.953
1688813963.904,-164.062,-31.250,-25.391,51.758,209.961
1688813963.908,-144.043,-21.973,-26.367,59.570,421.875
1688813963.912,61.523,-18.066,-28.809,-37.109,25.391
1688813963.916,110.840,-18.555,-23.926,-54.199,-83.984
1688813963.918,45.410,-13.672,-17.578,-10.254,136.719
1688813963.922,-128.906,-15.137,-15.137,49.805,56.641
1688813963.926,-158.691,-10.742,-11.719,44.922,-9.277
1688813963.930,40.039,-11.230,-11.230,-35.156,-29.785
1688813963.934,101.562,-17.090,-18.555,-60.547,-127.441
1688813963.938,40.527,-14.648,-26.367,-40.039,14.648
1688813963.942,-113.770,-18.555,-24.902,27.344,110.352
1688813963.945,-182.617,-21.973,-24.414,38.574,142.578
1688813963.949,0.977,-21.973,-33.691,-46.387,245.117
1688813963.953,100.586,-22.461,-42.969,-78.613,149.414
1688813963.957,53.223,-21.484,-43.457,-58.594,-76.172
1688813963.961,-104.492,-31.738,-43.945,2.930,16.602
1688813963.963,-202.148,-38.574,-49.316,34.668,259.277
1688813963.967,-36.621,-39.062,-48.828,-41.016,46.875
1688813963.971,83.496,-37.109,-44.922,-69.336,-57.129
1688813963.975,60.059,-32.715,-40.527,-47.852,-33.691
1688813963.979,-83.008,-33.691,-41.016,-4.883,-2.441
1688813963.983,-220.703,-37.109,-41.992,24.414,23.438
1688813963.987,-67.871,-38.574,-39.062,-45.898,-30.762
1688813963.990,77.148,-38.574,-36.133,-87.402,109.863
1688813963.994,46.875,-39.551,-32.227,-72.266,185.059
1688813963.998,-75.195,-31.738,-27.344,-23.926,-3.906
1688813964.002,-197.754,-29.297,-19.531,30.273,41.504
1688813964.006,-60.547,-31.250,-16.602,-24.414,52.734
1688813964.009,93.750,-31.738,-20.508,-75.684,-20.508
1688813964.013,77.148,-28.809,-25.879,-63.965,-82.031
1688813964.017,-37.109,-25.879,-21.973,-22.461,-27.344
1688813964.021,-183.105,-21.484,-14.648,38.574,286.133
1688813964.025,-82.520,-18.066,-14.648,-4.395,194.336
1688813964.029,93.262,-22.461,-17.090,-71.777,-75.684
1688813964.033,85.449,-30.273,-28.809,-65.430,51.270
1688813964.036,-21.973,-33.203,-35.156,-19.043,262.695
1688813964.040,-180.176,-31.250,-25.879,41.016,156.738
1688813964.044,-117.676,-29.785,-26.855,2.930,-8.301
1688813964.048,74.219,-29.785,-32.715,-65.430,-51.270
1688813964.052,98.145,-32.715,-30.762,-61.035,-83.008
1688813964.054,-7.324,-37.598,-31.738,-36.133,-48.828
1688813964.058,-185.059,-41.016,-40.039,14.160,16.113
1688813964.062,-138.184,-35.645,-37.598,0.977,73.242
1688813964.066,69.336,-28.809,-28.809,-64.453,4.395
1688813964.070,104.492,-28.320,-31.250,-73.242,-47.852
1688813964.074,20.508,-32.227,-39.062,-48.828,49.316
1688813964.078,-146.484,-33.691,-33.203,24.414,343.750
1688813964.081,-157.227,-30.762,-27.832,26.367,446.289
1688813964.085,41.504,-28.809,-35.156,-62.988,60.059
1688813964.089,107.910,-31.250,-33.691,-71.777,-66.895
1688813964.093,46.875,-29.785,-26.367,-43.457,-6.836
1688813964.097,-128.906,-31.250,-29.785,8.301,90.820
1688813964.098,-175.293,-31.250,-39.551,15.625,66.406
1688813964.102,27.832,-29.785,-42.969,-59.082,-39.062
1688813964.106,100.586,-34.180,-39.551,-74.707,54.199
1688813964.110,44.434,-34.668,-40.039,-48.828,-59.082
1688813964.114,-104.980,-31.250,-38.086,16.113,24.414
1688813964.118,-186.523,-26.367,-40.527,40.527,242.188
1688813964.122,-3.906,-24.414,-49.316,-33.203,346.680
1688813964.125,98.145,-27.344,-55.664,-72.754,168.457
1688813964.129,49.805,-30.762,-58.594,-62.012,-122.559
1688813964.133,-92.773,-34.180,-58.105,-8.301,-47.363
1688813964.137,-204.590,-37.109,-56.152,21.973,41.016
1688813964.141,-35.156,-31.738,-55.176,-42.969,-65.918
1688813964.158,106.934,-31.250,-53.711,-79.590,-170.410
1688813964.162,69.824,-33.203,-48.340,-59.082,-49.316
1688813964.166,-81.055,-37.598,-55.176,-13.184,10.254
1688813964.170,-219.727,-45.898,-59.082,23.438,-12.207
1688813964.174,-71.777,-48.828,-58.594,-39.551,-65.430
1688813964.178,81.543,-46.875,-60.547,-84.961,-20.508
1688813964.182,58.105,-41.504,-58.594,-66.895,58.105
1688813964.185,-63.965,-43.945,-63.965,-25.879,-0.977
1688813964.189,-212.402,-47.363,-64.941,17.578,-24.414
1688813964.193,-98.633,-45.898,-57.617,-22.461,154.297
1688813964.197,75.195,-40.527,-56.641,-69.824,141.113
1688813964.201,64.941,-40.527,-58.105,-77.637,-125.488
1688813964.203,-57.129,-44.922,-59.082,-37.598,-48.340
1688813964.207,-212.891,-48.828,-61.035,30.273,162.598
1688813964.211,-124.023,-49.805,-59.082,-24.414,126.465
1688813964.215,62.012,-47.363,-57.129,-91.797,-82.031
1688813964.219,73.242,-45.898,-51.758,-73.730,-78.613
1688813964.223,-24.902,-44.922,-44.922,-35.156,70.312
1688813964.227,-196.289,-46.387,-41.504,26.367,114.746
1688813964.230,-137.207,-45.898,-37.109,-3.906,-3.418
1688813964.234,63.965,-48.340,-40.039,-80.566,50.781
1688813964.238,79.590,-49.316,-42.480,-73.730,359.375
1688813964.242,-14.648,-46.387,-41.016,-41.992,179.688
1688813964.246,-183.594,-44.434,-40.527,14.160,-28.809
1688813964.248,-166.992,-42.480,-36.133,2.441,88.379
1688813964.252,31.250,-37.598,-38.086,-72.754,41.504
1688813964.256,85.449,-31.250,-45.898,-81.055,-77.148
1688813964.260,16.602,-32.227,-41.016,-44.434,-39.062
1688813964.264,-157.715,-32.715,-30.762,23.926,73.242
1688813964.268,-175.293,-28.320,-29.785,17.090,163.574
1688813964.272,33.203,-25.879,-29.297,-58.105,82.520
1688813964.275,97.168,-24.902,-24.902,-75.195,-18.555
1688813964.279,24.902,-27.344,-26.855,-50.293,184.570
1688813964.283,-144.531,-31.738,-30.273,4.883,272.461
1688813964.287,-196.777,-22.949,-27.344,8.789,10.742
1688813964.291,3.418,-12.207,-25.391,-58.105,-52.734
1688813964.293,97.168,-13.672,-26.367,-65.430,66.895
1688813964.297,50.293,-14.648,-20.508,-37.109,23.926
1688813964.301,-103.027,-12.695,-17.578,10.742,35.156
1688813964.305,-190.430,-17.090,-17.090,34.668,142.090
1688813964.309,-2.441,-19.531,-20.996,-29.785,123.047
1688813964.313,106.445,-18.066,-25.391,-61.523,36.621
1688813964.317,61.523,-19.043,-25.391,-40.527,-10.742
1688813964.320,-82.031,-22.949,-22.949,12.695,74.707
1688813964.324,-198.242,-25.879,-20.996,55.664,312.988
1688813964.328,-39.551,-23.926,-27.832,-26.367,97.168
1688813964.332,99.609,-25.391,-27.344,-83.008,-157.715
1688813964.336,77.148,-24.414,-20.508,-57.617,-112.793
1688813964.339,-57.617,-25.391,-20.020,-9.277,-12.207
1688813964.343,-198.242,-29.785,-23.926,33.203,73.730
1688813964.347,-53.711,-21.973,-19.531,-14.648,-80.566
1688813964.351,112.305,-14.160,-11.230,-48.828,-48.828
1688813964.355,92.285,-10.742,-9.277,-43.457,-22.461
1688813964.359,-36.133,-12.695,-12.207,-8.789,-93.750
1688813964.363,-187.012,-13.184,-11.719,46.387,48.828
1688813964.366,-62.988,-8.789,-7.812,6.836,258.301
1688813964.370,114.258,-1.465,-8.789,-51.270,231.934
1688813964.374,110.352,2.930,-3.418,-47.363,-50.293
1688813964.378,0.488,-0.977,-1.953,5.859,-42.969
1688813964.382,-173.340,-7.324,-4.395,65.430,137.207
1688813964.383,-93.262,-1.953,-3.906,23.438,53.223
1688813964.387,106.445,6.348,-2.441,-46.387,-127.930
1688813964.391,116.211,2.930,-3.418,-41.016,-105.957
1688813964.395,15.137,2.930,-4.395,-0.488,58.105
1688813964.399,-155.762,8.301,1.953,59.570,115.723
1688813964.403,-107.910,18.555,7.324,35.645,101.074
1688813964.407,98.633,27.344,11.719,-31.738,128.906
1688813964.410,130.371,23.926,16.113,-24.902,247.559
1688813964.414,56.641,22.949,16.602,6.348,168.457
1688813964.418,-112.305,21.973,17.090,59.082,30.762
1688813964.422,-115.723,17.090,20.020,52.246,72.266
1688813964.426,86.914,15.137,20.020,-20.996,-45.898
1688813964.429,137.207,10.254,20.020,-35.645,-135.742
1688813964.433,55.176,9.766,16.113,-4.883,-76.660
1688813964.437,-114.746,15.625,14.160,68.359,79.102
1688813964.441,-144.531,14.648,17.578,63.965,62.012
1688813964.445,51.270,6.348,11.719,-20.508,-35.156
1688813964.449,124.023,0.488,7.324,-37.598,7.812
1688813964.453,68.359,0.977,14.160,-9.766,173.828
1688813964.456,-90.332,1.953,19.531,56.152,308.105
1688813964.460,-161.621,8.301,20.996,83.496,77.148
1688813964.464,24.902,11.719,23.438,9.766,-141.113
1688813964.468,123.047,8.789,19.531,-27.344,-78.613
1688813964.472,77.637,4.395,11.230,-11.719,-39.062
1688813964.473,-71.777,6.836,10.742,46.875,-60.547
1688813964.477,-168.457,10.254,14.648,66.895,42.480
1688813964.481,12.207,2.930,14.160,-13.672,90.820
1688813964.485,133.301,2.441,5.371,-44.434,-35.156
1688813964.489,85.938,-0.488,4.395,-21.484,-113.281
1688813964.493,-56.152,-6.348,4.883,30.273,55.664
1688813964.497,-173.828,-5.371,2.930,83.496,458.008
1688813964.500,-15.137,4.883,9.277,23.438,306.641
1688813964.504,128.418,5.371,6.348,-41.992,-101.074
1688813964.508,102.051,0.488,0.488,-22.461,26.855
1688813964.512,-25.391,0.977,0.488,28.809,106.445
1688813964.516,-169.922,-3.906,2.930,63.477,-10.742
1688813964.533,-49.316,0.977,10.742,2.930,-82.520
1688813964.537,112.305,8.789,11.719,-49.805,-139.160
1688813964.541,102.539,6.348,5.859,-30.273,-120.605
1688813964.545,-21.484,1.953,8.301,33.691,-59.082
1688813964.549,-155.273,0.488,8.789,74.219,40.039
1688813964.553,-34.180,0.000,0.977,3.418,73.730
1688813964.557,114.746,-1.953,-1.465,-40.527,-16.602
1688813964.560,106.934,0.000,-2.441,-36.621,-49.316
1688813964.564,9.277,2.930,-8.789,1.465,-51.270
1688813964.568,-168.945,-3.906,-13.184,64.941,232.422
1688813964.572,-104.004,-3.418,-10.742,20.020,255.371
1688813964.576,98.145,-2.441,-11.230,-54.199,-28.809
1688813964.578,109.375,-4.883,-18.066,-57.617,-99.121
1688813964.582,12.695,-0.488,-14.160,-6.348,133.301
1688813964.586,-163.574,-0.977,-4.883,66.895,238.770
1688813964.590,-132.812,-1.953,-3.906,27.344,-8.789
1688813964.594,60.547,-2.441,-1.953,-55.664,-60.547
1688813964.598,92.773,-1.465,-4.883,-73.242,86.914
1688813964.602,25.391,-0.488,-0.488,-48.340,138.184
1688813964.605,-163.086,-5.859,8.301,19.531,67.871
1688813964.609,-188.477,-10.742,9.766,16.113,116.699
1688813964.613,26.855,-9.277,8.789,-53.711,222.168
1688813964.617,109.863,-1.465,4.395,-63.477,25.879
1688813964.621,53.223,-3.418,-2.441,-29.785,-94.238
1688813964.623,-122.070,-11.230,3.418,37.109,92.773
1688813964.627,-174.805,-3.906,18.555,63.477,187.012
1688813964.631,47.852,1.953,16.602,-12.695,62.500
1688813964.635,162.598,-4.395,16.113,-27.344,-69.336
1688813964.639,97.656,-2.930,17.578,4.883,42.480
1688813964.643,-70.801,-1.465,13.184,65.918,254.395
1688813964.647,-130.859,-1.953,4.395,91.797,227.539
1688813964.650,49.316,-7.812,0.000,18.066,-43.945
1688813964.654,154.297,-9.766,7.324,-16.113,39.062
1688813964.658,123.047,0.000,1.953,-1.953,203.613
1688813964.662,-41.992,-1.953,-3.418,57.129,6.836
1688813964.666,-151.855,-12.207,-8.789,75.195,113.281
1688813964.668,21.484,-12.695,-6.348,11.230,280.762
1688813964.672,142.578,-11.719,-1.465,-16.602,103.516
1688813964.676,111.816,-14.648,-7.324,-19.531,-51.758
1688813964.680,-21.973,-18.066,-13.184,31.250,121.582
1688813964.684,-168.457,-23.926,-15.625,91.797,276.855
1688813964.688,-21.973,-20.508,-19.531,20.508,183.105
1688813964.692,145.020,-20.996,-22.949,-45.898,-11.230
1688813964.695,129.395,-22.461,-26.367,-26.855,-76.172
1688813964.699,4.395,-24.414,-29.297,37.109,178.223
1688813964.703,-161.133,-24.414,-28.809,79.102,177.734
1688813964.707,-59.082,-16.113,-20.508,28.320,-72.266
1688813964.711,111.328,-10.254,-9.766,-24.414,-72.266
1688813964.713,97.656,-13.184,-13.184,-41.016,-93.750
1688813964.717,-17.578,-19.043,-20.996,-11.230,-128.906
1688813964.721,-167.969,-17.090,-21.484,50.781,-55.664
1688813964.725,-72.754,-13.672,-18.555,0.000,-73.242
1688813964.729,118.652,-11.719,-20.508,-55.664,-155.762
1688813964.733,134.277,-7.812,-20.020,-31.738,-142.578
1688813964.737,18.555,-13.184,-20.020,-8.301,-91.797
1688813964.740,-184.082,-23.438,-16.602,48.340,254.395
1688813964.744,-124.512,-22.461,-17.578,23.438,397.949
1688813964.748,82.520,-23.926,-28.320,-64.941,-21.484
1688813964.752,85.938,-27.344,-26.855,-63.965,-121.582
1688813964.756,-12.695,-30.273,-26.855,-29.297,-39.551
1688813964.758,-187.988,-34.180,-28.809,30.762,-0.488
1688813964.762,-141.113,-35.645,-28.320,24.902,-36.133
1688813964.766,64.453,-34.180,-29.297,-66.895,-110.840
1688813964.770,76.172,-31.250,-29.297,-88.379,38.086
1688813964.774,12.207,-28.809,-24.414,-32.715,77.637
1688813964.778,-144.531,-27.832,-19.531,41.992,46.875
1688813964.782,-157.227,-28.809,-21.484,23.926,147.949
1688813964.785,46.875,-23.926,-22.461,-46.875,239.258
1688813964.789,133.789,-17.578,-27.344,-76.172,111.816
1688813964.793,68.848,-18.555,-21.973,-41.992,-82.031
1688813964.797,-110.840,-16.602,-18.066,37.598,113.281
1688813964.801,-147.949,-8.789,-17.578,41.504,222.168
1688813964.803,30.273,-5.859,-16.113,-29.785,-53.711
1688813964.807,100.098,-4.883,-14.648,-27.344,-87.891
1688813964.811,78.125,-0.977,-14.648,0.000,-52.246
1688813964.815,-62.500,-0.977,-8.789,32.715,21.484
1688813964.819,-155.762,-3.418,-3.418,53.223,122.559
1688813964.823,26.367,-2.930,-3.418,-30.273,64.941
1688813964.827,120.117,-8.789,-6.836,-53.223,204.102
1688813964.830,59.570,-15.137,-12.695,-9.277,214.355
1688813964.834,-84.473,-12.695,-1.953,23.438,11.230
1688813964.838,-182.617,-11.719,-4.883,27.832,39.062
1688813964.842,-21.484,-13.184,-15.625,-42.480,70.312
1688813964.846,107.910,-15.625,-12.207,-62.500,60.547
1688813964.848,96.191,-11.719,-12.695,-42.480,-14.160
1688813964.852,-27.344,-16.602,-18.066,-10.742,-81.543
1688813964.856,-189.453,-24.902,-24.414,41.016,160.645
1688813964.860,-75.684,-22.461,-16.113,8.301,148.926
1688813964.864,104.980,-13.672,-9.766,-50.293,-151.367
1688813964.868,95.703,-4.395,-9.766,-35.645,43.945
1688813964.872,-29.785,-1.465,-8.301,15.625,314.941
1688813964.875,-178.711,2.441,-7.812,61.523,134.766
1688813964.879,-72.754,-1.953,-8.301,13.184,-17.578
1688813964.883,84.961,-6.836,-6.836,-44.434,-6.836
1688813964.887,78.613,-0.977,-6.836,-46.387,-29.785
1688813964.891,-0.977,2.930,-9.766,-8.789,-49.316
1688813964.894,-165.039,-2.441,-6.836,71.777,98.633
1688813964.898,-83.008,-2.441,7.324,54.688,195.801
1688813964.902,120.117,2.441,5.859,-30.762,37.109
1688813964.906,114.258,-0.488,-6.348,-27.832,-91.797
1688813964.910,31.250,0.000,-10.254,24.414,-41.992
1688813964.914,-132.812,0.000,-8.789,83.496,103.516
1688813964.918,-116.699,3.906,0.488,49.316,104.492
1688813964.921,83.984,11.230,0.977,-29.785,-72.266
1688813964.925,123.535,8.301,-4.883,-47.852,-125.000
1688813964.929,45.410,3.906,-1.953,-7.812,129.395
1688813964.933,-130.859,3.418,10.254,98.145,203.613
1688813964.937,-118.164,6.836,4.883,76.172,49.805
1688813964.953,101.562,12.207,3.418,-24.414,19.043
1688813964.957,137.207,11.719,5.371,-33.203,49.805
1688813964.961,65.430,8.789,-1.465,-1.465,25.391
1688813964.965,-103.027,6.836,2.441,51.758,25.879
1688813964.969,-141.602,10.742,3.418,45.898,81.055
1688813964.973,70.312,16.113,1.465,-29.785,91.797
1688813964.977,124.512,12.695,7.812,-27.832,34.668
1688813964.980,47.363,7.812,4.395,-12.207,-65.430
1688813964.984,-98.633,5.371,-4.395,25.879,83.984
1688813964.988,-161.133,0.488,0.000,75.195,329.102
1688813964.992,24.902,-4.883,-2.930,-3.418,110.352
1688813964.996,127.441,-11.230,-13.672,-57.129,-143.555
1688813964.998,71.777,-19.043,-14.160,-21.484,-88.379
1688813965.002,-117.188,-23.438,-2.930,31.250,15.625
1688813965.006,-217.285,-15.625,-2.930,37.598,7.812
1688813965.010,-25.879,-10.254,-8.301,-18.066,-21.484
1688813965.014,93.262,-9.277,-5.859,-46.387,-56.641
1688813965.018,50.293,-9.766,-23.438,-38.086,20.996
1688813965.022,-97.168,-12.695,80.566,21.973,168.457
1688813965.025,-211.426,-15.137,242.676,64.941,170.898
1688813965.029,-53.223,-20.020,270.020,-9.277,175.293
1688813965.033,80.566,-21.973,262.207,-43.945,229.492
1688813965.037,61.523,-19.043,253.418,-34.180,-23.438
1688813965.041,-52.246,-20.508,236.816,9.277,-61.523
1688813965.043,-204.102,-20.996,218.262,60.059,202.637
1688813965.047,-92.773,-20.020,200.195,14.160,100.586
1688813965.051,78.125,-21.973,187.500,-40.039,-141.602
1688813965.055,81.543,-27.832,166.504,-44.922,-87.402
1688813965.059,-42.969,-37.109,146.973,0.977,-17.578
1688813965.063,-211.426,-41.016,138.184,73.242,84.961
1688813965.067,-144.531,-46.387,127.441,32.227,70.312
1688813965.070,56.152,-41.992,111.328,-51.270,-62.500
1688813965.074,112.793,-27.344,95.215,-41.504,237.793
1688813965.078,-0.977,-24.902,85.449,-4.395,212.891
1688813965.082,-187.500,-36.621,77.148,52.734,-26.367
1688813965.086,-123.047,-37.598,65.430,26.855,69.336
1688813965.088,64.453,-36.621,53.711,-42.480,-19.043
1688813965.092,84.473,-40.527,41.016,-53.711,-152.832
1688813965.096,-8.301,-45.410,35.156,-7.324,-79.102
1688813965.100,-168.945,-44.434,34.180,65.430,59.082
1688813965.104,-139.160,-41.016,28.320,48.828,104.980
1688813965.108,44.434,-39.062,16.602,-25.879,55.176
1688813965.112,93.750,-31.250,6.836,-36.133,-12.695
1688813965.115,16.113,-30.762,5.371,0.488,175.781
1688813965.119,-151.367,-33.691,8.301,48.828,293.945
1688813965.123,-166.504,-35.156,13.672,37.598,84.961
1688813965.127,23.926,-36.133,10.742,-22.949,-45.410
1688813965.131,88.379,-36.133,1.465,-46.875,96.191
1688813965.133,10.254,-42.480,-10.254,-30.273,140.137
1688813965.137,-156.250,-40.527,-15.137,41.992,34.668
1688813965.141,-183.105,-35.645,-8.301,59.570,123.047
1688813965.145,4.395,-34.668,-6.348,-15.625,65.918
1688813965.149,71.777,-31.738,-11.230,-40.527,-150.391
1688813965.153,32.227,-31.738,-15.137,-25.391,-150.391
1688813965.157,-129.883,-33.691,-12.695,33.203,106.934
1688813965.160,-206.543,-30.762,-13.184,49.316,290.039
1688813965.164,-4.883,-20.996,-20.996,-43.945,123.535
1688813965.168,96.680,-26.855,-26.367,-71.777,-98.145
1688813965.172,37.598,-32.227,-23.438,-25.391,-10.254
1688813965.176,-111.328,-30.273,-20.996,31.738,75.684
1688813965.180,-198.730,-28.809,-20.996,53.711,136.230
1688813965.184,-33.203,-27.832,-21.973,-20.996,33.203
1688813965.188,84.473,-29.785,-20.508,-64.453,38.574
1688813965.192,56.152,-29.297,-23.926,-32.715,86.426
1688813965.196,-78.125,-34.180,-32.227,23.438,-60.547
1688813965.200,-200.195,-34.668,-31.250,58.105,49.805
1688813965.204,-54.688,-30.762,-27.344,-1.465,278.809
1688813965.207,91.309,-30.273,-33.691,-50.781,238.281
1688813965.211,79.590,-25.879,-38.086,-53.711,-75.195
1688813965.215,-53.711,-27.344,-24.902,9.766,-26.855
1688813965.219,-202.148,-32.227,-24.902,58.594,75.684
1688813965.223,-76.660,-33.691,-29.297,-4.883,68.848
1688813965.224,86.426,-35.645,-28.320,-47.852,-22.461
1688813965.228,71.777,-39.062,-39.551,-50.293,-110.352
1688813965.232,-39.551,-41.016,-42.969,-13.184,213.379
1688813965.236,-199.707,-37.109,-34.668,51.270,214.355
1688813965.240,-110.840,-31.738,-35.156,5.371,-98.145
1688813965.244,75.684,-40.039,-39.551,-57.129,-30.273
1688813965.248,75.195,-46.387,-40.527,-37.598,352.051
1688813965.251,-36.133,-40.527,-43.457,-5.371,263.672
1688813965.255,-201.660,-43.457,-45.898,34.180,-0.488
1688813965.259,-138.672,-43.945,-43.457,9.766,37.598
1688813965.263,50.293,-46.387,-45.410,-62.012,-61.523
1688813965.267,69.336,-51.270,-51.758,-68.359,-143.555
1688813965.283,-14.648,-48.828,-51.758,-33.203,-146.484
1688813965.287,-178.711,-42.969,-45.410,22.461,5.859
1688813965.291,-166.016,-47.852,-48.340,2.441,44.922
1688813965.295,30.273,-55.664,-62.012,-77.148,-99.609
1688813965.299,68.848,-53.223,-66.406,-85.938,-123.047
1688813965.303,-6.836,-54.688,-64.941,-58.105,79.102
1688813965.307,-161.621,-48.828,-58.105,12.207,233.887
1688813965.310,-172.363,-40.527,-50.781,12.695,123.047
1688813965.314,27.832,-36.621,-48.828,-64.941,-83.008
1688813965.318,87.891,-34.668,-46.875,-72.266,19.043
1688813965.322,25.391,-30.273,-46.387,-50.781,46.387
1688813965.326,-140.137,-34.668,-45.898,-7.324,-7.812
1688813965.328,-197.754,-40.527,-46.875,-8.301,167.969
1688813965.332,-1.465,-40.039,-56.152,-82.031,157.227
1688813965.336,89.355,-36.133,-57.129,-96.191,-2.441
1688813965.340,31.250,-36.133,-55.664,-74.219,-139.160
1688813965.344,-121.582,-38.574,-55.664,-20.020,-20.996
1688813965.348,-197.754,-35.645,-46.875,12.207,194.824
1688813965.352,-22.461,-38.574,-43.945,-67.871,42.480
1688813965.355,84.961,-40.039,-43.945,-103.027,-62.988
1688813965.359,43.945,-37.598,-41.992,-68.848,84.961
1688813965.363,-100.098,-43.457,-40.527,2.930,349.121
1688813965.367,-199.707,-37.109,-35.645,41.504,275.391
1688813965.371,-41.016,-32.227,-40.527,-46.387,-102.051
1688813965.373,75.195,-41.504,-45.410,-87.891,-126.465
1688813965.377,45.898,-45.410,-48.340,-70.801,-67.383
1688813965.381,-80.566,-42.480,-48.340,-25.391,-16.113
1688813965.385,-212.402,-47.852,-52.734,25.879,24.414
1688813965.389,-72.266,-50.781,-53.711,-36.133,74.219
1688813965.393,80.078,-45.898,-48.828,-94.727,102.051
1688813965.397,57.129,-49.316,-56.641,-90.820,15.137
1688813965.400,-62.500,-52.246,-61.035,-51.270,-27.832
1688813965.404,-196.289,-51.270,-53.711,12.207,227.051
1688813965.408,-85.449,-46.387,-56.152,-31.738,392.090
1688813965.412,68.848,-43.945,-62.500,-97.168,35.156
1688813965.416,57.617,-49.805,-61.523,-99.121,-54.688
1688813965.418,-45.898,-50.781,-56.641,-55.176,247.559
1688813965.422,-195.801,-45.898,-51.270,5.371,281.250
1688813965.426,-120.605,-49.805,-50.781,-40.527,-2.930
1688813965.430,64.453,-49.316,-46.875,-97.656,-93.750
1688813965.434,82.520,-36.621,-38.574,-80.078,-20.508
1688813965.438,-9.277,-33.203,-40.039,-36.621,53.711
1688813965.442,-171.875,-36.621,-45.898,16.602,49.805
1688813965.445,-131.836,-42.480,-47.852,-17.090,62.500
1688813965.449,55.664,-39.551,-48.828,-83.008,185.547
1688813965.453,87.891,-28.809,-47.363,-85.449,36.133
1688813965.457,10.742,-30.762,-42.969,-49.316,-138.184
1688813965.461,-156.738,-34.668,-41.016,22.949,99.121
1688813965.463,-158.691,-34.668,-41.016,9.766,193.848
1688813965.467,35.156,-33.203,-42.480,-70.801,-71.777
1688813965.471,83.496,-38.574,-43.945,-74.219,-171.387
1688813965.475,16.602,-38.574,-42.480,-32.715,-5.371
1688813965.479,-138.672,-35.645,-39.062,33.691,84.961
1688813965.483,-161.133,-33.691,-30.762,31.250,91.309
1688813965.487,29.297,-26.367,-23.438,-41.992,50.781
1688813965.490,101.562,-20.996,-20.508,-39.551,127.441
1688813965.494,49.805,-17.090,-20.020,-10.254,131.836
1688813965.498,-101.074,-14.160,-23.926,43.457,17.578
1688813965.502,-167.969,-20.996,-29.785,59.082,-14.648
1688813965.506,8.301,-20.996,-24.414,-9.766,203.613
1688813965.509,96.191,-10.254,-21.484,-37.109,234.375
1688813965.513,40.527,-20.508,-31.250,-27.344,-116.211
1688813965.517,-109.863,-23.926,-25.879,23.438,24.902
1688813965.521,-206.055,-12.207,-19.531,43.945,140.137
1688813965.525,-53.223,-19.531,-27.344,-45.410,-94.238
1688813965.529,30.762,-16.602,-28.320,-105.957,-178.711
1688813965.533,-31.738,-10.742,-22.461,-113.770,49.316
1688813965.536,-176.758,-9.766,-15.137,-81.055,282.227
1688813965.540,-310.059,-6.348,-14.160,-68.359,109.863
1688813965.544,-195.801,-2.930,-12.695,-160.156,-129.395
1688813965.548,-81.543,7.324,-11.230,-223.633,-96.191
1688813965.552,-110.840,11.230,-7.812,-225.586,-112.305
1688813965.554,-243.164,14.160,1.953,-185.547,-126.953
1688813965.558,-382.812,15.137,8.789,-143.555,-35.645
1688813965.562,-260.254,13.184,15.137,-199.707,3.418
1688813965.566,-106.934,11.230,12.207,-250.488,-14.160
1688813965.570,-112.793,9.277,4.395,-226.562,-43.457
1688813965.574,-214.844,-1.465,-5.371,-178.711,-3.418
1688813965.578,-334.473,-10.254,-3.418,-104.004,304.688
1688813965.581,-210.938,-4.883,1.953,-126.953,412.109
1688813965.585,-39.062,-6.348,-4.883,-188.965,46.875
1688813965.589,-32.227,-14.648,-12.207,-176.270,-157.227
1688813965.593,-109.863,-19.043,-11.230,-139.160,-51.270
1688813965.597,-244.629,-19.043,-9.277,-64.453,121.582
1688813965.598,-166.992,-13.184,-9.766,-71.777,39.551
1688813965.602,20.996,-14.160,-16.602,-126.953,-85.449
1688813965.606,38.574,-20.996,-24.414,-112.793,47.852
1688813965.610,-45.410,-24.902,-22.949,-79.102,-9.766
1688813965.614,-191.895,-27.832,-18.066,-11.230,-88.867
1688813965.618,-153.320,-34.180,-15.625,-7.324,120.605
1688813965.622,40.527,-35.156,-15.137,-61.523,274.414
1688813965.625,89.844,-30.273,-11.230,-62.012,93.750
1688813965.629,24.414,-27.832,-7.812,-29.297,-150.391
1688813965.633,-131.836,-29.785,-17.090,41.016,-6.836
1688813965.637,-138.672,-36.621,-22.949,47.852,306.641
1688813965.641,50.293,-32.227,-18.555,-29.785,25.391
1688813965.658,116.699,-33.203,-19.531,-45.898,-242.188
1688813965.662,56.152,-36.621,-24.414,-12.695,-144.531
1688813965.666,-95.703,-35.156,-31.738,49.316,-31.738
1688813965.670,-126.465,-37.598,-32.227,55.664,22.949
1688813965.674,52.734,-33.203,-29.785,-20.020,9.766
1688813965.678,135.254,-20.996,-29.785,-31.738,61.035
1688813965.682,91.309,-23.926,-29.297,9.766,71.777
1688813965.685,-61.523,-33.691,-31.738,68.359,7.324
1688813965.689,-125.488,-34.668,-35.156,77.148,21.973
1688813965.693,46.387,-31.250,-32.715,13.672,248.047
1688813965.697,139.648,-27.344,-37.109,-6.836,283.203
1688813965.701,97.168,-35.645,-42.969,5.371,23.926
1688813965.703,-35.645,-42.480,-41.992,56.641,55.176
1688813965.707,-135.742,-43.945,-49.805,89.355,198.242
1688813965.711,21.973,-43.457,-52.246,23.438,102.051
1688813965.715,142.090,-38.574,-50.293,-17.090,-80.566
1688813965.719,106.445,-41.504,-48.828,0.488,-88.867
1688813965.723,-23.438,-42.480,-43.945,54.199,69.336
1688813965.727,-151.855,-39.062,-45.410,92.285,232.422
1688813965.730,-14.648,-40.527,-44.434,17.578,26.855
1688813965.734,125.488,-43.945,-44.922,-34.668,-46.875
1688813965.738,93.262,-50.781,-48.828,-5.859,195.312
1688813965.742,-25.391,-59.570,-48.828,34.180,64.453
1688813965.746,-147.461,-52.246,-44.922,70.312,31.738
1688813965.748,-25.391,-41.504,-38.086,26.855,129.395
1688813965.752,129.395,-34.180,-38.086,-20.996,2.441
1688813965.756,117.676,-34.180,-36.621,-11.719,-187.500
1688813965.760,3.418,-33.691,-38.086,27.344,-117.188
1688813965.764,-149.414,-36.621,-43.457,87.402,155.273
1688813965.768,-58.105,-34.668,-38.086,41.992,148.438
1688813965.772,117.188,-36.133,-35.156,-31.250,18.555
1688813965.775,119.141,-41.016,-40.527,-25.391,-55.664
1688813965.779,25.391,-39.062,-37.109,29.785,181.641
1688813965.783,-135.254,-42.480,-39.062,89.844,361.328
1688813965.787,-80.566,-42.969,-44.434,49.316,6.836
1688813965.791,100.098,-41.016,-45.410,-21.484,-41.504
1688813965.794,113.281,-38.086,-43.457,-20.020,69.336
1688813965.798,32.715,-33.691,-39.551,12.207,17.090
1688813965.802,-128.418,-37.598,-42.480,65.918,-8.301
1688813965.806,-113.281,-48.828,-52.246,47.852,-52.734
1688813965.810,76.660,-54.688,-59.570,-27.832,-49.316
1688813965.814,112.793,-51.758,-56.641,-36.133,16.113
1688813965.818,40.039,-45.898,-53.223,-6.836,24.902
1688813965.821,-113.770,-49.316,-52.246,55.664,130.371
1688813965.825,-135.254,-52.734,-51.270,52.246,234.863
1688813965.829,50.293,-44.434,-46.387,-33.691,13.184
1688813965.833,112.305,-41.992,-46.387,-48.828,-114.258
1688813965.837,44.434,-47.363,-54.199,-32.715,-55.664
1688813965.839,-105.957,-50.781,-53.223,26.855,-15.137
1688813965.843,-146.484,-45.410,-48.828,47.852,-45.898
1688813965.847,32.715,-39.062,-49.805,-25.391,-126.465
1688813965.851,118.652,-39.062,-44.922,-54.199,-69.336
1688813965.855,59.082,-46.387,-44.434,-37.598,-20.020
1688813965.859,-101.074,-59.082,-52.246,15.625,119.141
1688813965.863,-185.547,-62.012,-52.246,31.250,151.855
1688813965.866,-27.344,-57.617,-49.805,-39.062,123.047
1688813965.870,78.613,-51.758,-48.828,-63.965,213.867
1688813965.874,47.852,-50.781,-47.852,-55.176,-41.992
1688813965.878,-81.543,-52.246,-48.828,-3.418,-29.785
1688813965.882,-187.500,-52.246,-49.805,43.945,189.453
1688813965.883,-34.180,-55.664,-47.363,-20.996,104.492
1688813965.887,83.984,-59.570,-50.781,-64.453,-136.719
1688813965.891,53.711,-55.664,-51.758,-47.363,-123.535
1688813965.895,-69.824,-48.340,-47.363,6.348,87.402
1688813965.899,-196.289,-45.898,-47.363,54.688,126.953
1688813965.903,-62.988,-46.387,-48.828,-6.836,39.551
1688813965.907,75.195,-46.875,-54.688,-59.082,60.547
1688813965.910,52.734,-48.340,-58.105,-29.785,403.809
1688813965.914,-63.477,-43.945,-57.617,12.695,439.453
1688813965.918,-197.754,-35.156,-53.223,52.246,87.891
1688813965.922,-86.426,-35.156,-48.828,2.930,18.066
1688813965.926,72.266,-45.410,-49.316,-61.523,-65.430
1688813965.928,64.453,-45.410,-47.363,-51.758,-190.918
1688813965.932,-38.086,-42.969,-45.410,-2.930,-140.137
1688813965.936,-182.617,-45.898,-43.457,61.035,34.668
1688813965.940,-102.539,-36.133,-40.527,26.367,25.391
1688813965.944,69.824,-29.297,-40.039,-47.363,-124.512
1688813965.948,83.984,-31.738,-45.410,-45.410,-105.957
1688813965.952,-4.395,-35.645,-47.363,4.883,255.859
1688813965.955,-168.945,-37.109,-42.480,63.477,357.422
1688813965.959,-123.535,-32.227,-36.621,27.344,33.203
1688813965.963,68.359,-27.832,-42.969,-44.922,-83.984
1688813965.967,91.309,-32.227,-50.293,-41.504,42.480
1688813965.971,4.883,-37.598,-48.828,-9.766,135.742
1688813965.973,-150.391,-41.992,-57.617,38.086,121.582
1688813965.977,-140.625,-41.016,-59.570,17.578,46.875
1688813965.981,47.852,-42.969,-52.734,-52.734,105.469
1688813965.985,96.680,-41.016,-53.223,-54.688,43.945
1688813965.989,35.156,-36.133,-50.781,-25.391,-108.398
1688813965.993,-124.512,-39.551,-44.434,47.363,33.203
1688813965.997,-160.645,-38.574,-42.480,53.711,219.238
1688813966.000,25.391,-35.645,-42.480,-39.551,55.664
1688813966.004,97.656,-35.156,-41.016,-60.547,-115.234
1688813966.008,41.992,-37.598,-37.598,-25.391,17.578
1688813966.012,-114.258,-41.504,-37.598,36.133,163.086
1688813966.016,-182.617,-45.410,-42.480,44.922,113.770
1688813966.033,-4.883,-39.062,-44.434,-42.969,-27.832
1688813966.037,93.262,-39.551,-42.969,-72.266,-27.832
1688813966.041,35.156,-45.898,-39.551,-42.480,-21.484
1688813966.045,-112.305,-43.457,-37.109,17.578,-34.180
1688813966.049,-192.871,-41.504,-36.621,52.734,44.434
1688813966.053,-29.297,-37.598,-34.180,-15.137,53.711
1688813966.057,84.961,-27.832,-31.250,-52.246,18.066
1688813966.060,49.805,-26.855,-33.691,-36.621,11.230
1688813966.064,-80.566,-31.738,-28.809,8.789,21.484
1688813966.068,-190.430,-36.133,-28.320,46.387,210.938
1688813966.072,-48.340,-39.062,-32.227,-27.344,179.199
1688813966.076,82.031,-41.016,-32.715,-79.102,-82.520
1688813966.078,56.641,-41.504,-31.738,-62.988,-84.473
1688813966.082,-72.754,-45.898,-35.156,-4.395,193.359
1688813966.086,-215.820,-46.875,-38.086,52.734,256.348
1688813966.090,-86.426,-42.480,-41.992,-17.578,-20.996
1688813966.094,79.590,-45.410,-43.457,-77.637,-68.359
1688813966.098,61.523,-46.387,-43.945,-62.500,-45.410
1688813966.102,-54.688,-46.387,-41.504,-22.461,1.465
1688813966.105,-197.754,-43.945,-41.016,31.250,19.531
1688813966.109,-93.262,-42.480,-42.969,-7.324,33.691
1688813966.113,77.637,-38.086,-36.621,-61.035,162.109
1688813966.117,78.613,-33.203,-35.156,-60.059,-29.297
1688813966.121,-18.555,-34.668,-40.039,-22.461,-147.949
1688813966.123,-175.781,-31.738,-39.062,44.434,57.129
1688813966.127,-114.746,-30.273,-39.551,6.836,82.520
1688813966.131,73.242,-28.809,-41.504,-68.848,-34.668
1688813966.135,95.215,-28.809,-41.992,-64.941,1.953
1688813966.139,8.789,-29.785,-36.133,-18.066,123.047
1688813966.143,-146.484,-31.250,-38.086,43.457,191.895
1688813966.147,-126.465,-28.320,-48.828,11.719,138.184
1688813966.150,55.664,-25.879,-49.805,-59.082,-52.734
1688813966.154,91.309,-32.227,-47.852,-49.316,152.832
1688813966.158,2.441,-39.062,-49.805,-18.066,258.301
1688813966.162,-157.715,-37.598,-48.340,38.574,17.578
1688813966.166,-147.949,-35.645,-42.480,31.738,89.355
1688813966.168,45.898,-32.715,-39.551,-51.758,175.293
1688813966.172,97.656,-28.809,-38.574,-65.918,66.895
1688813966.176,34.668,-29.297,-32.227,-35.645,-105.469
1688813966.180,-129.883,-32.715,-27.832,38.574,23.926
1688813966.184,-153.809,-24.902,-28.320,36.621,132.812
1688813966.188,44.922,-14.160,-35.156,-54.199,10.742
1688813966.192,102.539,-15.137,-34.668,-66.895,-3.906
1688813966.195,50.293,-17.090,-28.320,-48.828,72.754
1688813966.199,-99.121,-17.578,-20.996,28.320,411.133
1688813966.203,-171.875,-18.555,-20.508,48.828,312.988
1688813966.207,1.953,-21.973,-30.762,-50.293,-104.492
1688813966.211,105.469,-22.949,-35.645,-85.449,-59.570
1688813966.213,59.570,-22.461,-30.273,-68.359,-109.863
1688813966.217,-90.332,-26.855,-33.691,-3.418,-145.996
1688813966.221,-183.594,-30.762,-33.691,44.434,28.809
1688813966.225,-19.043,-26.855,-29.297,-23.438,43.945
1688813966.229,95.703,-30.762,-33.203,-81.543,-21.484
1688813966.233,50.293,-40.039,-41.016,-84.961,31.250
1688813966.237,-85.938,-47.363,-46.387,-29.785,44.922
1688813966.240,-199.219,-48.828,-41.992,31.250,293.945
1688813966.244,-58.105,-47.363,-37.598,-34.180,446.289
1688813966.248,78.613,-46.875,-37.598,-98.633,15.625
1688813966.252,51.270,-47.363,-36.621,-77.637,-154.785
1688813966.256,-76.172,-54.688,-34.668,-19.043,34.668
1688813966.258,-207.520,-51.270,-35.645,33.691,129.883
1688813966.262,-91.797,-44.434,-44.922,-26.855,-38.574
1688813966.266,76.172,-44.434,-48.828,-90.820,-140.625
1688813966.270,72.266,-45.410,-50.781,-85.938,-40.039
1688813966.274,-42.480,-45.410,-50.293,-41.504,7.324
1688813966.278,-185.547,-49.805,-43.945,34.668,65.918
1688813966.282,-104.980,-48.828,-46.875,-9.766,126.953
1688813966.285,69.824,-39.551,-44.922,-74.219,132.324
1688813966.289,79.102,-43.945,-43.945,-65.918,-24.902
1688813966.293,-41.016,-56.152,-45.410,-40.039,-87.402
1688813966.297,-200.195,-57.129,-39.551,32.227,176.270
1688813966.301,-142.090,-52.734,-36.621,12.207,145.996
1688813966.305,20.508,-48.340,-38.574,-72.754,-150.391
1688813966.309,45.898,-47.363,-41.504,-82.520,-140.625
1688813966.313,-22.461,-51.758,-40.527,-41.992,-58.594
1688813966.317,-187.500,-50.293,-37.109,34.668,-31.738
1688813966.321,-171.875,-43.457,-34.180,18.555,-17.090
1688813966.325,24.414,-42.969,-37.598,-66.895,1.465
1688813966.329,69.824,-42.969,-40.039,-62.500,253.418
1688813966.332,5.371,-44.434,-41.504,-30.762,291.016
1688813966.336,-128.418,-46.875,-45.410,20.020,-12.695
1688813966.340,-151.367,-53.223,-42.480,18.555,-43.457
1688813966.344,20.020,-53.711,-42.480,-74.707,3.906
1688813966.348,89.355,-56.152,-41.504,-93.750,-20.020
1688813966.349,29.297,-57.617,-38.574,-59.082,-1.953
1688813966.353,-114.258,-57.617,-36.133,0.977,133.789
1688813966.357,-172.363,-46.387,-34.668,14.160,237.793
1688813966.361,16.113,-41.504,-39.062,-60.547,83.496
1688813966.365,106.934,-53.223,-45.410,-86.426,-83.008
1688813966.369,48.340,-55.664,-49.805,-65.430,-14.160
1688813966.373,-86.426,-55.176,-45.410,5.859,412.109
1688813966.376,-174.805,-53.223,-41.504,30.762,451.172
1688813966.380,-6.348,-51.270,-41.504,-61.523,-34.180
1688813966.384,116.211,-51.758,-41.016,-88.867,-123.047
1688813966.388,74.707,-47.852,-40.039,-57.129,-76.660
1688813966.392,-70.801,-45.410,-38.086,-3.418,-85.449
1688813966.408,-164.551,-42.480,-33.203,41.992,-22.949
1688813966.412,-11.230,-43.457,-37.598,-28.809,-12.695
1688813966.416,116.699,-36.621,-37.598,-76.172,-47.852
1688813966.420,93.262,-32.227,-35.156,-59.570,11.230
1688813966.424,-36.133,-42.969,-35.156,-4.883,0.000
1688813966.428,-168.945,-37.598,-35.156,58.105,300.293
1688813966.432,-52.734,-37.598,-37.109,-10.742,456.543
1688813966.435,90.332,-29.785,-36.133,-70.801,41.016
1688813966.439,87.402,-21.973,-34.668,-49.316,-163.574
1688813966.443,-24.414,-28.809,-29.785,8.789,62.500
1688813966.447,-163.574,-32.227,-29.785,54.688,201.660
1688813966.451,-68.359,-41.992,-32.715,-13.184,-10.254
1688813966.453,79.590,-46.875,-36.133,-70.312,-106.934
1688813966.457,76.172,-43.945,-34.180,-64.453,25.879
1688813966.461,-33.203,-36.621,-33.203,-32.227,88.379
1688813966.465,-187.012,-37.598,-30.762,27.832,-18.555
1688813966.469,-106.934,-34.668,-24.902,-4.883,-19.043
1688813966.473,71.289,-24.902,-28.320,-76.660,47.363
1688813966.477,81.055,-26.367,-27.832,-72.754,50.293
1688813966.480,-18.555,-26.855,-27.832,-42.480,123.047
1688813966.484,-165.527,-22.461,-24.414,30.273,166.016
1688813966.488,-117.188,-21.484,-18.555,23.438,305.664
1688813966.492,54.688,-18.066,-20.996,-65.430,114.258
1688813966.496,85.449,-18.066,-20.508,-75.684,-141.602
1688813966.498,14.648,-17.090,-20.020,-37.109,-72.754
1688813966.502,-141.113,-17.578,-15.625,25.879,4.395
1688813966.506,-136.719,-19.531,-16.113,3.418,-9.766
1688813966.510,52.246,-23.926,-21.973,-76.660,-117.676
1688813966.514,104.492,-25.391,-22.461,-77.637,-22.949
1688813966.518,20.020,-16.113,-19.531,-49.316,91.797
1688813966.522,-128.906,-14.160,-12.695,21.484,55.664
1688813966.525,-141.602,-21.973,-10.254,33.203,53.223
1688813966.529,35.156,-22.461,-16.602,-46.387,173.340
1688813966.533,103.516,-21.973,-22.461,-66.406,249.023
1688813966.537,47.852,-21.484,-27.832,-52.734,-16.113
1688813966.541,-93.750,-26.855,-26.855,5.371,11.230
1688813966.543,-157.227,-28.809,-24.902,28.809,252.441
1688813966.547,7.324,-27.832,-29.297,-55.176,60.059
1688813966.551,93.262,-29.297,-27.344,-87.891,-144.043
1688813966.555,45.410,-30.762,-27.832,-62.988,-82.520
1688813966.559,-91.309,-28.809,-31.250,-0.488,35.645
1688813966.563,-172.363,-25.879,-31.738,30.273,131.836
1688813966.567,-17.090,-25.879,-36.621,-50.781,80.566
1688813966.570,99.121,-27.344,-39.551,-92.773,91.309
1688813966.574,60.059,-29.785,-36.133,-59.570,264.160
1688813966.578,-85.449,-32.715,-32.715,-6.348,150.391
1688813966.582,-184.570,-30.273,-33.691,31.738,19.531
1688813966.586,-38.574,-27.832,-34.668,-30.273,47.363
1688813966.588,99.609,-31.738,-29.785,-77.637,1.465
1688813966.592,79.102,-24.902,-27.344,-56.641,-71.777
1688813966.596,-47.852,-32.715,-30.762,-2.930,-58.594
1688813966.600,-181.641,-41.504,-33.691,37.109,31.738
1688813966.604,-72.754,-40.527,-41.504,-33.203,53.223
1688813966.608,75.195,-43.457,-45.898,-83.984,-26.367
1688813966.612,58.105,-35.156,-38.574,-71.777,2.441
1688813966.615,-49.805,-31.738,-35.645,-20.020,226.074
1688813966.619,-192.383,-38.574,-42.480,31.250,324.707
1688813966.623,-111.328,-41.992,-49.316,-28.809,-17.090
1688813966.627,60.547,-50.781,-45.410,-81.055,-133.301
1688813966.631,68.359,-56.641,-44.922,-73.242,-88.379
1688813966.633,-49.805,-61.035,-43.457,-35.156,-65.918
1688813966.637,-208.008,-63.477,-39.062,20.020,35.156
1688813966.641,-132.324,-60.547,-40.039,-25.879,-24.414
1688813966.645,38.086,-59.082,-38.574,-90.332,102.539
1688813966.649,48.340,-54.199,-38.574,-84.961,87.891
1688813966.653,-33.203,-41.504,-35.645,-48.340,-71.289
1688813966.657,-181.152,-40.039,-26.367,23.926,126.953
1688813966.660,-150.391,-48.828,-24.414,13.672,334.473
1688813966.664,26.367,-57.129,-35.645,-71.289,54.199
1688813966.668,62.500,-59.082,-44.434,-84.961,-164.062
1688813966.672,-10.254,-57.617,-46.875,-45.410,-89.844
1688813966.676,-166.504,-57.617,-43.457,25.879,-4.395
1688813966.679,-163.086,-46.387,-34.668,25.391,30.273
1688813966.683,26.855,-37.109,-33.691,-57.129,-70.312
1688813966.687,81.543,-42.969,-35.645,-62.988,-18.066
1688813966.691,17.578,-52.246,-37.598,-26.855,-13.672
1688813966.695,-139.160,-58.594,-38.086,27.344,-17.090
1688813966.699,-172.852,-52.246,-37.598,32.227,86.426
1688813966.703,6.836,-53.711,-41.504,-42.480,285.156
1688813966.706,74.707,-56.641,-48.828,-59.570,283.691
1688813966.710,7.324,-56.152,-55.664,-44.434,-54.688
1688813966.714,-141.602,-60.547,-54.199,4.395,-71.289
1688813966.718,-198.242,-59.082,-48.340,27.344,64.453
1688813966.722,-19.531,-55.176,-54.199,-46.875,22.949
1688813966.723,72.754,-53.223,-58.105,-87.402,-116.699
1688813966.727,29.785,-55.176,-51.758,-64.941,-155.273
1688813966.731,-102.051,-54.199,-50.781,2.441,61.035
1688813966.735,-189.453,-46.875,-49.805,38.086,182.617
1688813966.739,-30.762,-39.062,-41.992,-33.203,-8.301
1688813966.743,94.727,-31.250,-34.180,-67.871,-27.832
1688813966.747,72.266,-28.809,-34.668,-40.527,276.367
1688813966.750,-72.754,-34.668,-34.180,7.324,245.117
1688813966.754,-195.312,-36.133,-32.715,39.551,2.930
1688813966.758,-59.082,-39.551,-42.969,-28.320,83.496
1688813966.762,75.195,-46.387,-48.340,-75.195,61.035
1688813966.766,52.734,-53.711,-51.758,-69.336,-91.797
1688813966.768,-71.777,-56.152,-53.223,-23.438,-27.344
1688813966.772,-206.543,-60.059,-51.270,29.785,123.047
1688813966.776,-96.680,-65.918,-52.246,-30.762,141.113
1688813966.780,54.199,-58.594,-53.223,-91.309,-37.109
1688813966.784,43.457,-61.523,-60.547,-79.102,-135.254
1688813966.788,-61.035,-66.895,-61.523,-28.320,-20.996
1688813966.792,-203.613,-61.523,-56.641,29.297,43.457
1688813966.795,-125.000,-57.129,-58.594,-18.066,55.176
1688813966.799,44.922,-52.246,-56.641,-79.102,6.836
1688813966.803,62.500,-49.805,-50.293,-59.570,193.848
1688813966.807,-35.645,-46.875,-52.246,-21.484,336.426
1688813966.811,-188.477,-46.387,-51.758,31.738,95.215
1688813966.828,-129.395,-46.387,-43.945,4.395,126.465
1688813966.832,50.781,-45.410,-41.992,-65.430,154.297
1688813966.836,70.801,-47.363,-48.828,-79.102,-40.039
1688813966.840,-11.719,-58.105,-50.781,-50.781,-195.312
1688813966.844,-169.922,-59.570,-50.293,14.648,-15.137
1688813966.848,-153.320,-53.711,-56.641,-8.789,174.316
1688813966.852,33.691,-50.781,-61.035,-89.355,78.125
1688813966.855,80.566,-46.875,-54.688,-102.051,-99.121
1688813966.859,10.742,-46.387,-46.875,-69.824,-44.434
1688813966.863,-149.414,-42.480,-48.340,2.441,312.988
1688813966.867,-171.387,-46.875,-53.223,-5.859,157.227
1688813966.871,15.625,-54.688,-54.199,-83.008,-158.691
1688813966.888,84.473,-53.711,-56.152,-88.867,8.789
1688813966.892,14.160,-52.246,-60.547,-68.848,99.609
1688813966.896,-146.484,-50.293,-58.105,-14.160,-42.480
1688813966.900,-189.453,-47.852,-55.176,-0.977,0.000
1688813966.904,-7.812,-46.387,-56.152,-77.148,-7.324
1688813966.908,74.219,-45.898,-53.223,-97.656,2.930
1688813966.912,21.484,-40.527,-55.176,-77.637,16.602
1688813966.915,-122.559,-37.109,-55.176,-18.555,27.344
1688813966.919,-194.824,-37.109,-50.781,12.695,281.250
1688813966.923,-18.066,-30.273,-44.922,-61.523,292.969
1688813966.927,87.402,-27.344,-37.598,-102.539,-72.754
1688813966.931,33.691,-32.227,-33.691,-75.195,-74.219
1688813966.918,-98.145,-34.668,-31.250,-12.207,148.438
1688813966.922,-197.754,-34.668,-27.344,14.160,192.383
1688813966.926,-43.945,-26.855,-23.926,-60.059,-32.227
1688813966.930,86.426,-24.902,-24.902,-92.285,-137.695
1688813966.934,54.199,-31.738,-26.367,-65.430,-85.938
1688813966.938,-67.871,-29.785,-20.508,-2.930,25.879
1688813966.942,-191.895,-26.367,-18.555,47.852,146.973
1688813966.945,-66.406,-33.691,-20.020,-11.719,22.461
1688813966.949,74.707,-35.156,-22.461,-64.453,34.668
1688813966.953,55.176,-26.367,-24.902,-63.965,2.930
1688813966.957,-58.594,-28.809,-21.973,-23.926,-82.520
1688813966.961,-202.148,-37.109,-21.484,35.645,149.414
1688813966.964,-98.633,-35.156,-25.879,-11.719,263.672
1688813966.968,69.824,-30.273,-31.250,-80.078,-24.902
1688813966.972,65.918,-36.621,-36.621,-84.473,-92.773
1688813966.976,-43.945,-41.504,-40.527,-47.363,99.609
1688813966.980,-195.312,-42.480,-42.480,10.742,145.020
1688813966.984,-129.883,-42.480,-40.527,-26.855,23.926
1688813966.988,42.480,-42.480,-36.621,-82.520,-124.512
1688813966.991,59.570,-47.852,-43.457,-70.801,2.441
1688813966.995,-35.156,-55.176,-49.805,-41.504,116.699
1688813966.999,-189.453,-58.594,-46.875,15.137,49.805
1688813967.003,-140.625,-56.641,-36.621,1.953,39.551
1688813967.007,46.387,-51.758,-31.250,-66.895,-32.227
1688813967.008,68.359,-49.316,-36.133,-74.219,-5.859
1688813967.012,-11.230,-50.293,-35.645,-41.992,-56.641
1688813967.016,-169.434,-55.664,-29.297,12.207,-6.348
1688813967.020,-164.062,-52.246,-33.203,-5.371,143.066
1688813967.024,20.020,-50.781,-39.062,-86.914,67.383
1688813967.028,63.965,-58.594,-42.969,-97.656,-42.969
1688813967.032,-11.230,-60.059,-43.457,-62.012,10.742
1688813967.035,-170.410,-56.641,-42.969,11.230,343.750
1688813967.039,-192.871,-54.688,-46.875,12.207,329.590
1688813967.043,-8.789,-60.547,-51.758,-87.402,-97.656
1688813967.047,57.129,-66.895,-51.270,-110.840,-74.219
1688813967.051,7.812,-64.453,-46.387,-77.148,22.949
1688813967.068,-137.695,-60.547,-45.410,-12.695,47.363
1688813967.072,-207.031,-64.941,-45.410,2.930,36.133
1688813967.076,-27.344,-70.801,-49.805,-71.289,20.996
1688813967.080,64.941,-67.383,-52.246,-98.145,-45.898
1688813967.084,10.742,-62.500,-49.805,-80.566,-155.762
1688813967.088,-125.488,-64.941,-49.316,-18.555,-84.473
1688813967.092,-209.473,-62.500,-53.223,18.555,294.922
1688813967.095,-51.270,-58.105,-55.664,-58.105,351.074
1688813967.099,69.336,-65.430,-56.641,-101.074,-60.059
1688813967.103,31.250,-68.359,-57.129,-89.355,-133.789
1688813967.107,-111.816,-67.383,-51.270,-27.832,-0.977
1688813967.111,-213.867,-62.500,-45.898,18.066,97.168
1688813967.113,-65.918,-59.082,-44.434,-60.547,-34.180
1688813967.117,61.523,-58.105,-46.875,-102.539,-114.258
1688813967.121,33.691,-56.152,-45.898,-77.637,47.363
1688813967.125,-85.938,-58.105,-47.852,-28.320,71.777
1688813967.129,-212.891,-65.430,-55.176,19.043,55.176
1688813967.133,-94.238,-63.965,-56.641,-42.969,83.984
1688813967.137,52.734,-58.105,-55.664,-105.957,106.445
1688813967.140,37.109,-61.523,-57.129,-92.773,-4.395
1688813967.144,-75.684,-68.359,-57.617,-39.062,-118.164
1688813967.148,-216.309,-71.289,-58.105,16.602,76.172
1688813967.152,-123.047,-69.824,-58.105,-28.809,389.648
1688813967.156,42.480,-63.965,-55.664,-95.215,134.766
1688813967.145,50.293,-60.547,-53.223,-90.332,-145.508
1688813967.149,-48.340,-56.641,-48.828,-43.945,-35.645
1688813967.153,-198.242,-58.594,-44.434,11.719,3.906
1688813967.157,-134.277,-51.270,-37.598,-31.250,-80.566
1688813967.161,39.551,-46.875,-41.992,-110.840,-186.523
1688813967.165,62.012,-58.594,-44.922,-107.910,-64.941
1688813967.169,-24.414,-55.664,-37.598,-60.059,16.113
1688813967.172,-187.012,-48.340,-38.086,12.207,6.348
1688813967.176,-152.344,-45.898,-41.992,-6.836,-118.164
1688813967.180,33.691,-48.340,-43.457,-70.312,17.090
1688813967.184,63.965,-50.781,-49.316,-70.801,175.781
1688813967.188,-15.625,-52.734,-56.152,-62.012,-92.773
1688813967.203,-166.016,-53.223,-50.781,-3.418,36.621
1688813967.207,-172.363,-53.711,-49.316,-8.789,229.004
1688813967.211,1.953,-57.129,-59.570,-91.797,-42.969
1688813967.215,55.176,-60.059,-55.176,-101.562,-210.449
1688813967.219,-2.441,-61.035,-45.410,-74.707,-84.473
1688813967.223,-150.879,-58.105,-40.039,-3.906,352.051
1688813967.227,-187.012,-51.270,-38.086,2.441,391.113
1688813967.230,5.371,-40.039,-41.016,-80.566,-45.898
1688813967.234,88.379,-34.180,-35.156,-98.145,-21.973
1688813967.238,25.879,-32.715,-36.621,-74.219,123.535
1688813967.242,-129.883,-33.691,-45.410,-16.602,104.492
1688813967.246,-188.477,-40.039,-40.527,7.324,68.848
1688813967.237,-17.578,-38.086,-40.039,-76.172,-17.578
1688813967.241,76.172,-40.039,-39.551,-105.469,24.414
1688813967.245,31.250,-47.852,-40.527,-84.961,83.984
1688813967.249,-118.652,-51.758,-51.270,-45.410,26.367
1688813967.253,-215.332,-49.805,-52.734,-9.766,181.641
1688813967.257,-42.480,-42.969,-46.387,-75.195,220.215
1688813967.261,73.730,-44.922,-43.945,-128.418,12.207
1688813967.264,35.156,-47.852,-43.457,-112.793,-66.406
1688813967.268,-91.797,-50.781,-43.945,-43.945,128.906
1688813967.272,-213.379,-51.758,-49.805,-2.930,246.094
1688813967.276,-76.172,-52.246,-57.617,-77.637,-14.648
1688813967.280,62.012,-54.688,-57.617,-122.070,-36.133
1688813967.293,38.574,-55.664,-56.641,-112.305,81.543
1688813967.297,-84.961,-57.617,-61.523,-65.918,45.898
1688813967.301,-215.332,-60.059,-61.035,-8.301,71.777
1688813967.305,-95.215,-54.688,-45.410,-62.988,-20.020
1688813967.309,58.105,-54.199,-39.062,-115.234,122.559
1688813967.313,43.945,-56.152,-41.504,-100.098,331.543
1688813967.317,-69.336,-54.199,-39.551,-64.941,45.410
1688813967.320,-197.266,-53.711,-40.039,-7.324,78.125
1688813967.324,-103.027,-47.363,-35.156,-50.781,247.070
1688813967.328,67.871,-36.133,-31.250,-114.258,-11.230
1688813967.332,81.543,-42.480,-30.762,-99.121,-164.551
1688813967.336,-22.949,-51.758,-35.645,-56.152,1.953
1688813967.338,-171.875,-34.668,-34.180,15.137,149.414
1688813967.342,-119.629,-30.762,-30.762,-16.602,0.488
1688813967.346,55.664,-39.062,-30.273,-89.355,-85.938
1688813967.350,83.984,-30.762,-28.320,-91.797,9.277
1688813967.354,-5.859,-28.320,-24.902,-57.617,15.625
1688813967.358,-165.039,-27.832,-25.391,7.812,195.312
1688813967.362,-129.883,-21.973,-23.926,-11.719,175.293
1688813967.365,53.711,-25.879,-25.391,-79.102,213.379
1688813967.369,79.102,-27.344,-26.855,-89.355,410.645
1688813967.373,-12.207,-24.414,-24.902,-80.078,109.863
1688813967.377,-176.270,-27.832,-28.320,-21.973,21.484
1688813967.381,-195.312,-33.203,-34.180,-29.785,136.230
1688813967.383,-13.184,-31.250,-22.461,-117.676,-12.207
1688813967.387,41.504,-17.090,-8.789,-142.578,-175.781
1688813967.391,-45.410,-17.090,-12.695,-138.672,-129.395
1688813967.395,-235.352,-17.090,-23.926,-103.027,84.961
1688813967.399,-295.410,-13.672,-21.973,-111.816,44.922
1688813967.403,-127.441,-17.090,-11.719,-204.590,-95.215
1688813967.407,-82.031,-17.578,-15.625,-255.859,35.156
1688813967.410,-154.785,-23.926,-22.461,-251.953,199.707
1688813967.414,-316.895,-18.555,-17.578,-205.566,168.945
1688813967.418,-399.414,-12.207,-9.277,-194.824,88.379
1688813967.422,-225.586,-9.277,-5.371,-266.113,6.836
1688813967.426,-120.605,-12.207,-4.883,-306.641,-32.715
1688813967.428,-155.273,-14.648,-4.395,-292.480,-84.961
1688813967.432,-269.043,-15.137,-4.883,-216.797,-52.246
1688813967.436,-354.004,-27.832,-13.184,-165.527,67.871
1688813967.440,-192.383,-33.203,-20.020,-228.027,-7.812
1688813967.444,-60.547,-39.062,-24.902,-269.043,-173.340
1688813967.448,-80.566,-53.711,-30.762,-246.094,-192.383
1688813967.452,-186.035,-58.594,-30.273,-175.293,219.727
1688813967.455,-291.016,-57.617,-31.738,-109.863,400.879
1688813967.459,-157.227,-60.547,-31.738,-168.945,-55.176
1688813967.463,-0.977,-61.035,-34.180,-208.008,-166.992
1688813967.467,1.953,-61.035,-37.598,-173.828,-114.258
1688813967.471,-105.469,-62.988,-33.691,-106.445,47.363
1688813967.473,-228.027,-59.570,-28.809,-33.203,153.809
1688813967.477,-105.957,-59.082,-33.203,-76.172,37.109
1688813967.481,58.105,-57.129,-39.551,-119.629,134.766
1688813967.485,61.523,-61.035,-42.480,-96.191,137.695
1688813967.489,-31.738,-63.965,-42.969,-51.270,-101.562
1688813967.493,-169.922,-54.688,-41.504,34.668,43.457
1688813967.497,-80.566,-47.852,-35.156,12.207,331.055
1688813967.500,97.168,-47.852,-38.086,-72.754,69.824
1688813967.504,105.957,-47.852,-39.551,-70.312,-228.516
1688813967.508,16.602,-42.480,-36.621,-20.020,-71.777
1688813967.512,-132.812,-37.598,-38.574,44.434,120.605
1688813967.516,-82.520,-34.668,-37.109,10.254,85.938
1688813967.519,96.680,-35.156,-38.086,-76.660,-82.520
1688813967.523,122.559,-36.133,-40.527,-75.684,70.801
1688813967.527,48.828,-34.668,-41.016,-32.715,217.773
1688813967.531,-118.164,-36.621,-48.828,28.320,36.133
1688813967.535,-103.516,-44.922,-56.641,9.766,46.387
1688813967.539,86.914,-47.363,-59.082,-63.477,158.691
1688813967.543,117.676,-43.457,-63.477,-72.266,139.648
1688813967.546,45.898,-41.504,-58.105,-51.758,-4.395
1688813967.550,-113.770,-40.039,-49.805,18.555,-64.941
1688813967.554,-137.207,-43.945,-46.875,26.367,89.355
1688813967.558,54.688,-37.598,-45.410,-52.734,82.520
1688813967.562,122.070,-35.156,-43.457,-67.871,-111.816
1688813967.578,60.059,-35.645,-38.574,-32.715,-60.547
1688813967.582,-85.449,-27.832,-32.715,36.133,120.117
1688813967.586,-140.625,-24.902,-31.738,49.316,86.914
1688813967.590,41.504,-21.973,-31.738,-30.273,-19.531
1688813967.594,130.371,-24.414,-30.273,-48.828,-36.621
1688813967.598,79.102,-25.879,-28.320,-13.184,158.691
1688813967.602,-65.918,-22.461,-26.855,47.363,232.422
1688813967.605,-150.879,-25.879,-32.227,74.219,61.523
1688813967.609,13.184,-31.250,-32.715,2.441,41.504
1688813967.613,123.047,-26.855,-33.691,-32.227,95.215
1688813967.617,92.285,-21.973,-35.156,-7.812,-29.297
1688813967.621,-37.598,-19.043,-30.273,48.828,-34.668
1688813967.623,-145.508,-14.648,-23.926,91.309,16.113
1688813967.627,3.418,-19.043,-23.438,18.066,-78.613
1688813967.631,128.906,-18.066,-25.391,-42.480,-119.141
1688813967.635,93.750,-20.996,-29.297,-26.855,-141.113
1688813967.639,-44.434,-27.344,-32.715,16.113,-43.945
1688813967.643,-176.758,-34.180,-34.180,60.059,106.445
1688813967.647,-48.340,-38.574,-39.551,16.113,73.730
1688813967.650,90.332,-37.598,-44.922,-44.922,-17.578
1688813967.654,73.730,-39.551,-41.016,-27.344,55.176
1688813967.658,-38.086,-34.668,-34.668,26.367,70.312
1688813967.662,-180.176,-36.621,-34.180,67.383,49.316
1688813967.666,-85.938,-43.945,-36.621,10.742,103.027
1688813967.668,75.684,-46.387,-38.086,-48.340,209.961
1688813967.672,65.430,-45.410,-40.527,-34.180,309.570
1688813967.676,-48.340,-51.758,-48.828,-6.836,61.035
1688813967.680,-196.289,-54.688,-50.781,42.969,-15.137
1688813967.684,-127.441,-51.270,-47.363,12.207,31.738
1688813967.688,49.316,-40.527,-42.480,-55.664,-47.363
1688813967.692,66.895,-34.180,-39.551,-47.363,-25.879
1688813967.695,-21.484,-40.527,-42.969,-5.371,-39.551
1688813967.699,-184.082,-44.434,-43.945,59.082,312.500
1688813967.703,-149.414,-39.551,-42.969,31.250,307.617
1688813967.707,35.645,-41.504,-41.016,-59.082,-106.934
1688813967.711,67.871,-39.062,-40.527,-59.570,-100.098
1688813967.713,-10.254,-39.551,-39.551,-17.090,-79.102
1688813967.717,-162.109,-45.410,-33.203,49.805,-22.949
1688813967.721,-152.832,-38.574,-32.715,34.668,-3.906
1688813967.725,41.992,-30.762,-29.297,-41.504,15.137
1688813967.729,96.191,-32.227,-29.297,-49.805,-48.828
1688813967.733,27.344,-40.039,-32.715,-25.391,-43.945
1688813967.737,-131.836,-43.457,-36.133,30.273,118.164
1688813967.740,-175.293,-43.457,-35.645,45.410,260.254
1688813967.744,12.695,-43.457,-33.691,-25.391,202.637
1688813967.748,99.121,-40.039,-32.715,-54.688,-133.301
1688813967.752,43.457,-34.668,-27.344,-32.227,-106.934
1688813967.756,-110.352,-38.086,-22.949,26.855,241.211
1688813967.773,-173.340,-38.086,-26.855,40.039,264.648
1688813967.777,-1.953,-33.691,-30.762,-48.828,-101.562
1688813967.781,96.191,-33.691,-24.414,-80.078,-162.109
1688813967.785,54.688,-35.645,-25.391,-45.898,-67.383
1688813967.789,-89.844,-33.691,-30.273,13.184,-70.312
1688813967.793,-183.594,-33.203,-29.297,41.016,53.711
1688813967.797,-24.414,-34.668,-28.809,-36.621,93.750
1688813967.800,82.031,-36.133,-30.762,-73.730,191.895
1688813967.804,40.527,-34.180,-32.715,-59.082,63.965
1688813967.808,-79.590,-36.621,-32.227,-5.371,-83.496
1688813967.812,-200.195,-40.527,-36.133,34.180,34.668
1688813967.816,-70.801,-35.645,-38.086,-36.133,-4.395
1688813967.804,66.406,-37.109,-39.551,-80.566,37.598
1688813967.808,42.969,-41.504,-38.086,-65.918,25.879
1688813967.812,-71.289,-40.039,-30.762,-11.230,80.566
1688813967.816,-202.148,-42.480,-27.832,45.410,228.516
1688813967.820,-83.008,-49.805,-30.762,-14.160,8.301
1688813967.824,71.777,-50.293,-32.715,-75.684,-76.172
1688813967.828,61.523,-40.527,-29.297,-64.941,133.301
1688813967.831,-38.574,-35.156,-20.508,-12.207,132.324
1688813967.835,-183.594,-34.668,-15.137,45.898,24.902
1688813967.839,-104.004,-37.598,-22.461,-10.742,-31.738
1688813967.843,56.641,-42.480,-28.809,-75.684,95.215
1688813967.847,56.641,-43.457,-26.367,-67.383,215.332
1688813967.878,-33.691,-35.645,-24.414,-27.344,5.371
1688813967.882,-189.941,-38.086,-26.855,35.645,-4.395
1688813967.886,-136.719,-49.316,-25.391,8.301,153.320
1688813967.890,41.504,-43.457,-26.367,-71.289,20.508
1688813967.894,63.965,-43.457,-20.996,-83.496,-102.539
1688813967.898,-17.578,-43.457,-17.578,-45.410,-31.738
1688813967.902,-179.199,-31.250,-15.625,29.785,350.098
1688813967.905,-155.762,-25.879,-12.695,9.277,391.113
1688813967.909,25.879,-24.902,-22.949,-83.008,-90.332
1688813967.913,54.199,-32.715,-31.250,-98.145,-145.020
1688813967.917,-17.090,-35.645,-32.227,-63.477,-45.898
1688813967.921,-173.340,-38.574,-34.668,14.648,-15.625
1688813967.894,-198.730,-48.828,-37.598,3.418,-10.742
1688813967.898,-13.184,-49.805,-41.504,-96.191,-13.672
1688813967.902,47.363,-45.410,-45.898,-115.723,-29.297
1688813967.906,-18.555,-49.316,-45.898,-83.496,-103.516
1688813967.910,-162.598,-46.387,-38.086,-13.672,-86.914
1688813967.914,-201.172,-41.504,-34.668,-5.859,120.605
1688813967.918,-18.066,-46.387,-38.574,-87.891,117.188
1688813967.921,62.500,-45.410,-41.504,-102.539,-57.617
1688813967.925,10.254,-51.270,-45.410,-74.707,-108.887
1688813967.929,-132.812,-55.664,-43.945,-9.277,22.949
1688813967.933,-201.660,-49.805,-41.992,13.184,86.426
1688813967.937,-28.809,-48.828,-41.992,-57.129,-13.672
1688813967.953,62.012,-49.316,-43.457,-87.891,-125.977
1688813967.957,9.766,-49.805,-42.480,-71.289,102.539
1688813967.961,-133.789,-48.340,-41.992,-10.742,486.816
1688813967.965,-235.352,-40.527,-42.480,13.672,220.703
1688813967.969,-76.172,-38.574,-42.969,-66.895,-52.246
1688813967.973,55.176,-41.992,-39.551,-104.980,73.242
1688813967.977,23.438,-41.016,-37.109,-81.055,41.992
1688813967.980,-105.469,-43.945,-38.574,-22.949,-47.363
1688813967.984,-219.727,-38.086,-37.598,30.762,102.051
1688813967.988,-83.984,-39.551,-32.715,-31.738,297.363
1688813967.992,51.270,-45.410,-33.203,-91.797,107.910
1688813967.996,33.691,-42.969,-40.039,-77.148,-120.605
1688813967.998,-83.008,-40.039,-41.992,-23.438,-29.785
1688813968.002,-224.609,-39.551,-41.504,31.250,0.000
1688813968.006,-117.188,-38.086,-41.992,-23.926,-23.438
1688813968.010,45.410,-36.621,-43.457,-89.844,-66.406
1688813968.014,41.992,-42.969,-42.480,-80.566,-103.027
1688813968.018,-65.918,-41.504,-36.621,-33.691,13.184
1688813968.022,-212.402,-42.969,-34.668,27.344,219.727
1688813968.025,-126.953,-44.922,-35.156,-16.602,77.637
1688813968.029,40.039,-45.898,-41.992,-80.078,89.355
1688813968.033,41.992,-41.992,-42.969,-73.730,191.406
1688813968.037,-47.852,-39.062,-39.551,-37.109,-18.066
1688813968.041,-197.266,-44.434,-38.086,28.809,24.414
1688813968.043,-143.555,-47.363,-36.133,6.836,340.820
1688813968.047,38.086,-48.828,-39.062,-71.289,240.723
1688813968.051,62.012,-41.992,-41.016,-81.543,-122.559
1688813968.055,-19.043,-41.504,-39.551,-47.363,-138.184
1688813968.059,-172.363,-41.992,-35.645,17.090,-15.137
1688813968.063,-155.273,-36.133,-32.715,2.441,65.430
1688813968.067,30.273,-40.039,-34.668,-78.125,-69.336
1688813968.070,75.684,-37.598,-32.227,-83.008,-54.688
1688813968.074,1.953,-38.574,-30.273,-43.945,163.574
1688813968.078,-150.879,-41.504,-33.203,20.020,108.398
1688813968.082,-162.109,-38.086,-29.785,17.090,22.949
1688813968.086,25.879,-35.156,-23.438,-58.105,22.461
1688813968.088,86.426,-32.715,-26.855,-72.754,39.062
1688813968.092,14.648,-37.598,-30.762,-58.594,71.289
1688813968.096,-136.719,-41.992,-24.902,-3.418,16.602
1688813968.100,-183.105,-38.086,-18.555,20.020,79.102
1688813968.104,-5.859,-34.180,-20.996,-59.570,46.875
1688813968.108,86.426,-32.227,-25.879,-87.891,-28.320
1688813968.112,34.180,-32.715,-25.391,-68.848,-44.434
1688813968.115,-112.793,-37.598,-26.367,-4.883,149.902
1688813968.119,-203.125,-34.180,-30.273,30.273,269.043
1688813968.123,-38.574,-32.227,-29.297,-52.734,-62.500
1688813968.127,81.055,-32.715,-26.367,-80.566,-141.602
1688813968.131,44.922,-32.227,-30.762,-53.223,-30.762
1688813968.149,-82.520,-34.180,-30.273,-1.465,73.730
1688813968.153,-190.918,-36.133,-25.391,34.668,36.621
1688813968.157,-46.875,-31.738,-25.391,-34.180,-4.883
1688813968.161,90.332,-31.738,-21.973,-61.035,145.996
1688813968.165,64.941,-33.691,-19.043,-33.203,93.262
1688813968.169,-61.035,-33.691,-19.043,19.531,75.684
1688813968.173,-190.918,-30.762,-17.578,71.777,204.102
1688813968.176,-59.082,-28.320,-11.719,14.648,237.305
1688813968.180,91.309,-29.785,-14.160,-56.641,62.988
1688813968.184,67.871,-34.180,-25.879,-60.059,-44.434
1688813968.188,-46.387,-35.156,-23.438,-5.859,33.691
1688813968.192,-195.801,-32.715,-15.625,53.223,74.219
1688813968.178,-96.680,-21.484,-17.090,0.977,29.297
1688813968.182,79.102,-16.113,-16.113,-51.758,-61.523
1688813968.186,77.637,-25.391,-18.555,-45.410,-2.930
1688813968.190,-36.133,-26.367,-21.484,-9.766,98.633
1688813968.194,-184.082,-22.949,-17.578,54.688,143.555
1688813968.198,-106.445,-21.484,-14.160,1.465,116.699
1688813968.202,67.871,-20.996,-18.066,-68.359,241.699
1688813968.205,81.543,-18.066,-17.578,-52.246,240.723
1688813968.209,-10.742,-15.625,-13.672,-24.414,-42.480
1688813968.213,-165.527,-17.578,-13.184,31.738,-69.336
1688813968.217,-110.352,-14.648,-6.348,28.809,174.316
1688813968.221,75.195,-7.812,-8.301,-34.180,290.527
1688813968.223,88.379,-8.789,-14.160,-52.734,-9.277
1688813968.227,9.766,-14.648,-11.719,-22.461,-143.066
1688813968.231,-145.508,-17.090,-10.742,51.758,59.082
1688813968.235,-146.484,-13.672,-17.578,37.109,88.867
1688813968.239,44.434,-19.043,-22.949,-43.945,-127.930
1688813968.243,99.609,-27.832,-25.391,-51.270,-62.988
1688813968.247,20.020,-28.320,-26.367,-15.137,164.062
1688813968.250,-137.695,-25.391,-22.949,50.781,158.691
1688813968.254,-159.668,-23.926,-19.531,50.781,3.906
1688813968.258,25.879,-27.344,-22.461,-20.996,2.930
1688813968.262,100.098,-26.367,-24.414,-35.645,49.805
1688813968.266,47.852,-21.973,-25.391,-22.949,-91.797
1688813968.268,-100.098,-24.902,-31.738,37.598,-44.922
1688813968.272,-170.898,-30.273,-35.645,51.270,22.949
1688813968.276,7.812,-22.949,-34.668,-27.832,-61.523
1688813968.280,111.328,-24.414,-35.156,-42.480,-138.672
1688813968.284,55.176,-29.785,-36.621,-25.879,-133.789
1688813968.288,-101.074,-33.203,-45.410,16.113,87.891
1688813968.292,-195.312,-40.527,-47.363,46.387,258.789
1688813968.295,-26.367,-38.086,-41.504,-20.020,75.195
1688813968.299,92.285,-30.762,-46.387,-62.988,-109.863
1688813968.303,50.781,-32.227,-49.805,-41.504,180.176
1688813968.307,-87.891,-41.992,-55.176,6.348,242.188
1688813968.311,-212.891,-47.852,-54.199,28.320,73.730
1688813968.328,-72.754,-47.852,-44.434,-35.156,48.828
1688813968.332,62.988,-47.852,-41.504,-74.707,115.234
1688813968.336,32.715,-46.387,-42.480,-67.383,180.176
1688813968.340,-83.496,-44.434,-42.480,-26.367,-36.621
1688813968.344,-209.961,-44.434,-36.621,35.156,75.195
1688813968.348,-88.379,-39.551,-36.133,-24.414,145.508
1688813968.352,69.336,-44.434,-43.457,-87.891,35.156
1688813968.355,65.918,-43.457,-43.945,-67.383,-91.797
1688813968.359,-53.711,-39.062,-40.039,-22.949,-5.859
1688813968.363,-208.008,-40.039,-34.668,31.250,287.598
1688813968.367,-108.887,-35.645,-32.227,-9.766,162.109
1688813968.371,61.523,-38.086,-32.715,-71.777,-83.008
1688813968.373,62.500,-41.504,-33.691,-63.965,40.527
1688813968.377,-31.738,-41.504,-40.527,-28.320,99.609
1688813968.381,-179.199,-41.016,-42.969,26.855,33.691
1688813968.385,-117.676,-41.992,-40.527,-4.883,6.836
1688813968.389,59.570,-31.738,-38.086,-67.871,14.160
1688813968.393,80.078,-29.297,-37.598,-57.129,70.801
1688813968.397,-8.301,-38.574,-39.062,-23.438,51.270
1688813968.400,-164.551,-36.621,-33.691,33.691,5.371
1688813968.404,-139.648,-38.086,-27.832,18.555,112.793
1688813968.408,41.992,-34.180,-28.320,-55.176,112.793
1688813968.412,80.078,-26.855,-31.738,-75.684,-129.883
1688813968.416,0.000,-27.344,-36.133,-49.805,-109.375
1688813968.419,-165.039,-32.715,-35.156,25.391,186.523
1688813968.423,-164.551,-35.645,-33.691,20.508,208.984
1688813968.427,23.438,-33.691,-36.133,-71.289,0.488
1688813968.431,79.102,-37.598,-37.109,-81.055,-79.590
1688813968.435,12.695,-37.598,-34.668,-39.062,-30.273
1688813968.439,-127.441,-29.785,-32.715,17.090,81.055
1688813968.443,-155.762,-25.879,-32.715,17.578,62.500
1688813968.446,10.254,-23.438,-34.180,-48.828,-37.109
1688813968.450,99.121,-16.602,-26.367,-53.223,136.230
1688813968.454,49.316,-17.090,-21.484,-31.250,42.969
1688813968.458,-101.074,-16.602,-23.926,18.555,-85.449
1688813968.462,-170.898,-20.020,-20.508,44.434,53.223
1688813968.463,7.812,-23.926,-18.555,-34.180,62.012
1688813968.467,111.328,-22.949,-20.508,-62.012,-72.266
1688813968.471,58.594,-30.762,-20.020,-38.086,-140.625
1688813968.475,-80.078,-40.039,-18.555,20.996,8.789
1688813968.479,-171.387,-35.645,-16.602,51.758,149.902
1688813968.483,-14.648,-31.738,-20.996,-28.320,119.629
1688813968.487,107.422,-33.203,-31.250,-67.383,-11.719
1688813968.490,80.078,-33.203,-31.738,-38.086,95.703
1688813968.494,-59.082,-31.738,-28.809,19.043,338.867
1688813968.498,-189.453,-32.227,-31.738,48.828,157.715
1688813968.502,-41.016,-30.273,-30.273,-16.602,-73.730
1688813968.506,94.727,-29.785,-34.668,-68.848,4.395
1688813968.524,64.941,-31.250,-44.434,-57.617,4.883
1688813968.528,-46.387,-31.250,-48.340,-10.254,-48.828
1688813968.532,-178.711,-34.668,-41.992,42.969,-2.441
1688813968.536,-64.941,-32.715,-35.645,-14.648,56.641
1688813968.540,93.750,-29.297,-33.691,-83.984,-53.711
1688813968.544,78.125,-26.367,-30.762,-71.289,-172.363
1688813968.548,-31.250,-22.949,-24.902,-27.344,17.578
1688813968.551,-168.945,-23.438,-17.578,43.457,488.770
1688813968.555,-86.426,-24.414,-15.137,4.883,330.566
1688813968.559,85.938,-27.832,-19.043,-70.801,-124.512
1688813968.563,92.773,-30.273,-26.855,-67.871,-5.859
1688813968.567,-1.953,-25.391,-26.855,-39.062,101.562
1688813968.553,-165.527,-22.949,-19.531,20.996,78.613
1688813968.557,-118.164,-19.531,-11.230,1.953,-16.113
1688813968.561,80.078,-20.508,-10.254,-61.035,-106.934
1688813968.565,100.098,-21.973,-9.766,-57.617,-85.449
1688813968.569,16.113,-16.113,-2.930,-18.555,-53.223
1688813968.573,-133.301,-15.625,0.977,49.805,91.309
1688813968.577,-118.652,-9.277,3.418,26.855,119.141
1688813968.580,67.871,3.418,1.465,-62.988,-52.246
1688813968.584,114.746,-1.465,-5.371,-65.430,-98.633
1688813968.588,39.062,-11.230,-7.812,-25.879,-50.781
1688813968.592,-125.977,-10.742,-3.418,39.062,116.699
1688813968.596,-148.926,-16.602,-2.441,41.504,465.820
1688813968.613,35.645,-21.484,-7.812,-51.270,272.461
1688813968.617,103.027,-23.926,-14.648,-80.566,-116.211
1688813968.621,44.922,-28.809,-20.020,-47.852,-99.121
1688813968.625,-118.164,-31.250,-21.973,16.113,-22.949
1688813968.629,-167.969,-26.855,-19.043,33.691,-25.391
1688813968.633,22.949,-20.508,-13.184,-35.156,56.152
1688813968.637,105.957,-18.066,-16.602,-61.035,204.102
1688813968.640,48.828,-21.484,-27.344,-49.805,-5.859
1688813968.644,-111.328,-32.715,-36.133,-4.883,-109.375
1688813968.648,-191.895,-35.156,-35.156,21.973,55.176
1688813968.652,-22.949,-33.203,-33.203,-50.293,25.391
1688813968.656,90.820,-29.297,-29.297,-85.938,-80.078
1688813968.644,61.523,-26.855,-28.320,-62.500,-161.621
1688813968.648,-83.496,-26.855,-29.297,-10.254,-22.949
1688813968.652,-199.219,-28.320,-33.203,22.949,157.715
1688813968.656,-48.340,-34.668,-41.504,-46.387,-20.508
1688813968.660,91.309,-36.621,-42.969,-88.867,-174.316
1688813968.664,61.035,-35.645,-44.922,-64.941,-114.258
1688813968.668,-74.219,-38.086,-50.293,-17.090,59.570
1688813968.671,-202.637,-40.039,-45.898,19.043,110.352
1688813968.675,-72.266,-39.551,-41.016,-37.109,24.414
1688813968.679,80.078,-41.504,-43.457,-88.867,124.512
1688813968.683,54.688,-41.504,-44.434,-79.590,153.320
1688813968.687,-69.824,-42.969,-40.527,-37.109,62.012
1688813968.704,-214.355,-43.945,-40.039,17.578,166.992
1688813968.708,-121.582,-47.363,-44.922,-32.227,147.461
1688813968.712,36.621,-49.805,-48.340,-101.562,47.363
1688813968.716,37.109,-50.781,-50.781,-96.680,-113.281
1688813968.720,-65.430,-53.223,-50.781,-51.758,-81.543
1688813968.724,-225.586,-56.641,-53.711,11.719,282.227
1688813968.728,-156.250,-59.570,-55.176,-35.156,241.699
1688813968.731,27.832,-57.617,-57.129,-119.141,-111.816
1688813968.735,51.270,-49.805,-51.270,-97.168,-80.566
1688813968.739,-33.203,-39.062,-37.598,-45.410,14.160
1688813968.743,-203.125,-42.969,-35.645,4.883,-20.508
1688813968.747,-170.410,-50.293,-41.016,-25.391,-91.309
1688813968.748,30.762,-52.734,-41.504,-92.285,13.672
1688813968.752,57.129,-52.734,-43.945,-90.820,121.094
1688813968.756,-38.574,-55.176,-58.105,-76.172,-9.766
1688813968.760,-206.543,-61.035,-62.012,-22.461,16.602
1688813968.764,-199.219,-59.082,-56.641,-23.438,137.695
1688813968.768,2.930,-57.129,-53.711,-95.703,94.727
1688813968.772,58.105,-57.129,-56.152,-105.957,-37.109
1688813968.775,-13.672,-59.082,-59.570,-78.613,-139.160
1688813968.779,-169.434,-64.453,-58.594,-7.324,64.941
1688813968.783,-193.359,-64.941,-56.152,-5.371,271.484
1688813968.787,0.977,-57.617,-53.223,-98.633,-58.594
1688813968.791,78.613,-57.129,-53.711,-103.516,-150.391
1688813968.793,25.391,-61.523,-57.129,-71.777,133.789
1688813968.797,-133.789,-59.570,-56.152,-14.648,136.719
1688813968.801,-198.242,-55.664,-52.246,-4.395,-11.230
1688813968.805,-4.395,-48.340,-47.852,-79.590,-46.387
1688813968.809,98.633,-42.480,-43.945,-95.215,-126.465
1688813968.813,62.988,-38.574,-38.086,-58.105,-70.801
1688813968.817,-82.031,-35.156,-37.109,3.418,78.613
1688813968.820,-179.199,-34.668,-38.574,30.273,135.254
1688813968.824,-8.301,-33.203,-38.086,-37.109,326.660
1688813968.828,105.469,-29.297,-32.227,-83.984,206.543
1688813968.832,58.105,-34.180,-29.297,-76.660,-120.605
1688813968.836,-84.961,-41.992,-28.809,-27.344,22.949
1688813968.838,-207.520,-43.945,-31.738,5.371,125.000
1688813968.842,-57.617,-42.480,-33.691,-67.871,-2.441
1688813968.846,86.426,-41.016,-33.203,-110.840,-98.145
1688813968.850,59.570,-42.480,-40.527,-93.262,-78.613
1688813968.854,-72.266,-43.945,-42.969,-50.781,4.395
1688813968.858,-209.473,-43.457,-38.086,-1.953,130.371
1688813968.862,-83.008,-45.410,-40.039,-62.012,101.562
1688813968.865,73.730,-44.922,-43.945,-118.164,160.156
1688813968.869,59.082,-42.969,-39.062,-102.051,234.863
1688813968.873,-55.664,-39.551,-40.527,-62.988,54.199
1688813968.877,-204.102,-37.109,-40.039,-2.930,-10.254
1688813968.881,-110.352,-40.527,-33.691,-40.039,134.766
1688813968.884,69.824,-37.109,-28.320,-100.586,135.254
1688813968.888,90.332,-27.344,-21.973,-87.891,-24.414
1688813968.892,-8.789,-32.227,-20.996,-37.109,-51.758
1688813968.896,-177.734,-44.434,-27.344,21.973,74.219
1688813968.900,-116.211,-37.109,-31.738,-11.719,45.410
1688813968.904,68.848,-31.250,-30.273,-78.125,-78.125
1688813968.908,91.797,-29.297,-26.367,-87.402,49.805
1688813968.911,6.836,-26.855,-18.555,-46.387,246.094
1688813968.915,-156.738,-31.738,-10.254,19.531,154.785
1688813968.919,-119.629,-31.738,-6.836,-3.418,-25.879
1688813968.923,77.148,-21.973,-7.812,-71.289,-39.062
1688813968.927,115.234,-15.137,-8.789,-69.824,-13.184
1688813968.928,41.016,-14.160,-2.441,-34.668,-98.633
1688813968.932,-126.465,-14.648,-2.441,25.391,-62.012
1688813968.936,-134.766,-14.648,-1.465,21.973,120.117
1688813968.940,58.105,-12.695,0.000,-49.316,39.062
1688813968.944,110.840,-17.578,-2.930,-71.777,-59.570
1688813968.948,41.504,-23.438,-2.441,-59.082,0.000
1688813968.952,-123.047,-35.156,-12.695,11.230,287.598
1688813968.955,-172.363,-40.527,-21.973,25.391,484.863
1688813968.959,6.836,-37.598,-30.762,-64.453,89.844
1688813968.963,83.984,-42.969,-35.156,-84.473,-161.621
1688813968.967,25.391,-51.270,-31.738,-58.594,-83.008
1688813968.971,-112.305,-40.527,-30.273,7.812,65.918
1688813968.974,-187.500,-24.414,-32.715,14.160,93.262
1688813968.978,-29.297,-29.785,-33.203,-75.195,36.621
1688813968.982,62.012,-34.180,-35.645,-93.262,163.086
1688813968.986,13.672,-28.320,-38.574,-80.078,150.879
1688813968.990,-129.883,-23.438,-39.551,-40.039,-25.879
1688813968.994,-238.281,-21.973,-44.434,-9.277,66.895
1688813968.998,-72.754,-19.043,-46.875,-72.754,217.285
1688813969.001,59.570,-16.113,-43.457,-101.074,71.289
1688813969.005,22.949,-14.160,-39.062,-87.402,-165.527
1688813969.009,-104.004,-17.578,-38.086,-27.832,-9.277
1688813969.013,-213.379,-18.555,-28.809,32.715,250.000
1688813969.017,-72.754,-14.648,-24.902,-31.250,31.250
1688813969.018,71.777,-18.555,-32.715,-87.891,-177.734
1688813969.022,50.293,-23.926,-38.086,-71.777,-116.211
1688813969.026,-62.988,-20.020,-34.668,-19.531,-39.062
1688813969.030,-195.801,-22.461,-35.156,26.367,58.105
1688813969.034,-79.102,-24.902,-40.039,-33.203,-30.762
1688813969.038,85.449,-26.367,-41.992,-80.078,160.645
1688813969.042,78.613,-28.320,-41.016,-59.570,386.719
1688813969.045,-32.715,-25.879,-39.551,-21.973,80.566
1688813969.049,-187.988,-27.832,-40.039,37.598,55.664
1688813969.053,-102.051,-28.320,-37.598,-6.348,55.176
1688813969.057,76.660,-24.414,-30.762,-81.055,-26.855
1688813969.061,85.449,-27.344,-28.320,-74.219,-20.020
1688813969.078,-3.418,-28.320,-24.414,-26.855,-53.711
1688813969.082,-160.645,-26.855,-17.578,39.551,154.297
1688813969.086,-112.305,-24.414,-20.508,1.465,202.148
1688813969.090,76.172,-27.344,-22.461,-74.707,-34.180
1688813969.094,96.191,-31.738,-18.555,-67.383,-62.988
1688813969.098,4.883,-40.527,-21.484,-39.062,54.688
1688813969.102,-162.598,-46.875,-24.902,11.719,146.484
1688813969.105,-148.438,-40.039,-22.949,-7.324,68.359
1688813969.109,46.875,-43.457,-29.297,-84.473,-26.367
1688813969.113,88.867,-49.805,-40.527,-83.984,152.832
1688813969.117,17.090,-43.457,-39.062,-55.176,88.867
1688813969.121,-153.809,-44.434,-42.480,-0.488,-37.109
1688813969.138,-182.129,-46.387,-49.805,-8.789,20.996
1688813969.142,16.602,-41.992,-47.852,-84.473,-95.215
1688813969.146,86.426,-40.527,-42.969,-95.703,-167.480
1688813969.150,21.484,-41.504,-48.828,-66.406,-177.734
1688813969.154,-142.578,-39.551,-45.898,-1.465,-48.828
1688813969.158,-187.500,-39.551,-38.086,5.371,178.711
1688813969.162,8.789,-31.250,-38.574,-69.824,176.758
1688813969.165,86.426,-24.902,-31.738,-87.402,0.000
1688813969.169,34.668,-27.832,-27.344,-57.617,145.996
1688813969.173,-122.559,-36.621,-34.668,0.977,367.676
1688813969.177,-207.031,-37.598,-42.969,5.371,151.367
1688813969.181,-31.250,-41.504,-44.922,-72.266,-25.391
1688813969.168,79.102,-42.480,-43.457,-95.703,13.672
1688813969.172,42.480,-34.180,-40.527,-74.219,-24.902
1688813969.176,-107.910,-30.762,-43.945,-22.949,-104.492
1688813969.180,-220.703,-33.691,-42.480,1.465,-42.969
1688813969.184,-44.434,-26.855,-25.879,-48.340,47.852
1688813969.188,96.680,-15.625,-20.996,-58.105,-13.672
1688813969.192,64.453,-20.996,-28.320,-43.945,-8.301
1688813969.195,-59.082,-22.461,-26.855,-0.977,105.469
1688813969.199,-190.430,-18.066,-21.484,47.363,171.387
1688813969.203,-51.758,-15.137,-22.461,-16.602,66.406
1688813969.207,114.746,-13.672,-20.508,-63.477,-57.617
1688813969.211,94.238,-16.602,-17.090,-44.922,4.883
1688813969.213,-37.598,-21.973,-20.020,4.395,303.223
1688813969.217,-185.059,-17.090,-23.926,52.246,268.066
1688813969.221,-68.359,-11.230,-17.090,2.930,-53.223
1688813969.225,100.098,-13.184,-12.695,-52.246,-60.059
1688813969.229,94.727,-18.066,-16.602,-56.641,-21.973
1688813969.233,-9.766,-19.043,-15.137,-18.066,86.914
1688813969.237,-170.410,-18.555,-15.137,37.598,170.898
1688813969.240,-92.773,-26.855,-20.996,5.859,275.391
1688813969.244,85.938,-32.227,-27.832,-53.711,279.297
1688813969.248,78.613,-31.250,-26.367,-62.012,-63.965
1688813969.252,-19.531,-31.250,-19.531,-32.227,-89.844
1688813969.256,-171.875,-27.832,-20.508,21.484,119.141
1688813969.259,-129.883,-25.391,-16.113,-3.418,103.027
1688813969.263,57.617,-22.461,-15.625,-69.824,-5.371
1688813969.267,93.262,-20.996,-14.648,-69.824,-124.512
1688813969.271,14.160,-20.996,-9.766,-27.832,-4.883
1688813969.275,-153.809,-20.508,-9.766,27.832,110.352
1688813969.279,-145.020,-22.949,-16.113,8.301,-13.672
1688813969.283,42.480,-23.438,-18.066,-64.453,-30.273
1688813969.286,88.867,-14.648,-9.766,-69.336,196.777
1688813969.290,31.250,-6.836,-7.812,-33.691,118.652
1688813969.294,-130.859,-15.137,-9.277,21.484,-53.223
1688813969.298,-157.715,-15.625,-6.348,25.879,24.414
1688813969.302,38.574,-12.207,-6.348,-42.480,-35.645
1688813969.318,110.352,-13.672,-6.836,-65.918,-165.039
1688813969.322,55.664,-13.672,-6.348,-42.969,-101.074
1688813969.326,-104.980,-16.602,-6.348,25.879,57.617
1688813969.330,-166.016,-18.555,-10.254,38.086,116.211
1688813969.334,20.508,-17.578,-17.578,-44.434,50.781
1688813969.338,102.539,-20.020,-18.066,-77.637,31.738
1688813969.342,52.734,-21.484,-18.555,-47.852,229.492
1688813969.345,-101.074,-25.391,-22.461,18.066,415.039
1688813969.349,-195.312,-22.949,-18.555,32.715,207.031
1688813969.353,-18.066,-21.484,-18.066,-42.969,-42.480
1688813969.357,91.797,-22.949,-23.926,-82.520,-52.734
1688813969.361,46.387,-27.832,-27.832,-62.500,-76.660
1688813969.348,-99.609,-35.645,-33.691,-7.812,-84.961
1688813969.352,-213.379,-37.598,-33.691,21.484,31.738
1688813969.356,-50.293,-36.621,-30.762,-43.945,135.254
1688813969.360,85.938,-31.738,-34.668,-84.473,64.453
1688813969.364,52.246,-35.156,-36.621,-68.359,-128.418
1688813969.368,-72.754,-38.086,-31.250,-20.508,-30.762
1688813969.372,-211.914,-40.039,-26.855,12.207,294.922
1688813969.375,-77.637,-43.945,-29.785,-49.805,237.793
1688813969.379,83.984,-37.109,-31.738,-103.516,-69.824
1688813969.383,73.242,-34.668,-25.391,-91.797,-141.602
1688813969.387,-40.527,-42.480,-25.391,-41.992,212.891
1688813969.391,-194.824,-43.945,-33.203,-1.465,265.625
1688813969.408,-93.262,-43.457,-29.785,-55.176,-62.012
1688813969.412,74.707,-42.969,-21.973,-107.910,-103.516
1688813969.416,63.965,-41.504,-25.391,-97.656,-74.707
1688813969.420,-38.574,-36.621,-28.809,-58.594,-70.801
1688813969.424,-196.289,-36.621,-22.461,-5.371,23.926
1688813969.428,-124.023,-38.574,-15.625,-34.180,187.012
1688813969.432,68.359,-35.156,-19.043,-91.797,95.703
1688813969.435,78.613,-35.156,-23.926,-97.656,-120.605
1688813969.439,-22.461,-41.016,-23.926,-72.266,-77.637
1688813969.443,-192.383,-39.062,-19.531,-4.395,214.844
1688813969.447,-150.879,-29.785,-18.555,-22.949,354.004
1688813969.451,42.969,-27.344,-23.438,-113.770,58.594
1688813969.453,78.613,-31.738,-24.902,-112.793,-84.961
1688813969.457,1.465,-33.203,-25.879,-73.242,39.062
1688813969.461,-176.270,-38.086,-32.715,-20.996,114.746
1688813969.465,-177.246,-36.621,-31.738,-34.668,15.137
1688813969.469,22.461,-38.574,-29.785,-116.211,-32.715
1688813969.473,62.500,-47.363,-35.645,-133.789,42.480
1688813969.477,-15.137,-49.316,-37.109,-106.445,33.203
1688813969.480,-177.246,-38.574,-35.156,-53.223,-5.371
1688813969.484,-218.262,-34.180,-36.133,-60.059,70.801
1688813969.488,-24.902,-33.203,-23.438,-122.559,222.656
1688813969.492,45.410,-28.809,-23.438,-143.555,109.863
1688813969.496,-20.020,-32.227,-30.273,-140.137,-132.812
1688813969.498,-187.012,-33.203,-19.043,-82.031,26.367
1688813969.502,-275.391,-30.762,-22.949,-83.008,180.176
1688813969.506,-98.633,-22.949,-26.855,-180.664,14.160
1688813969.510,-3.418,-26.367,-20.508,-212.402,-62.988
1688813969.514,-74.707,-38.086,-18.066,-201.172,0.488
1688813969.518,-250.000,-35.156,-12.695,-165.527,139.160
1688813969.522,-366.211,-32.227,-6.348,-149.414,134.766
1688813969.525,-198.242,-34.668,3.418,-226.074,-61.035
1688813969.529,-77.637,-37.598,4.395,-269.531,23.926
1688813969.533,-102.051,-31.250,-0.488,-253.906,174.316
1688813969.537,-246.582,-21.973,2.441,-210.449,-12.695
1688813969.541,-389.160,-30.762,4.883,-164.551,9.766
1688813969.543,-226.074,-36.621,5.371,-199.707,241.211
1688813969.547,-66.406,-29.297,-4.395,-233.887,150.879
1688813969.551,-83.496,-34.668,-14.648,-224.609,-114.258
1688813969.555,-208.496,-46.875,-15.137,-168.945,19.043
1688813969.559,-343.750,-49.805,-16.602,-104.492,162.598
1688813969.563,-199.707,-54.688,-25.879,-151.855,73.242
1688813969.567,-25.879,-58.594,-34.668,-204.102,-15.137
1688813969.570,-37.598,-61.523,-40.039,-183.594,-0.488
1688813969.574,-148.438,-74.219,-50.293,-126.953,288.574
1688813969.578,-295.410,-78.125,-57.129,-62.988,306.641
1688813969.582,-182.129,-70.801,-57.617,-97.656,15.625
1688813969.586,17.090,-67.871,-55.664,-141.113,-63.477
1688813969.589,32.715,-69.824,-56.152,-120.117,-87.402
1688813969.593,-62.988,-73.730,-60.547,-77.148,-64.453
1688813969.597,-221.680,-77.637,-56.641,-14.648,49.805
1688813969.601,-146.484,-68.848,-48.340,-23.438,183.105
1688813969.605,53.223,-62.500,-52.246,-65.918,83.984
1688813969.609,74.707,-68.359,-57.617,-57.617,-25.391
1688813969.613,-10.742,-68.359,-57.617,-20.996,2.441
1688813969.616,-175.781,-68.848,-61.523,33.203,243.164
1688813969.620,-141.602,-66.895,-60.059,14.160,359.375
1688813969.624,65.918,-59.082,-58.105,-47.363,-7.812
1688813969.628,108.398,-62.012,-58.105,-34.668,-117.676
1688813969.632,29.785,-61.523,-53.711,2.930,20.996
1688813969.633,-134.766,-53.223,-53.223,62.500,71.289
1688813969.637,-138.672,-51.270,-53.223,54.688,1.465
1688813969.641,67.871,-59.570,-54.688,-11.719,-109.863
1688813969.645,135.742,-55.176,-50.293,-7.812,-99.609
1688813969.649,72.266,-49.805,-41.504,20.508,-46.387
1688813969.653,-93.750,-50.293,-40.039,72.754,30.273
1688813969.657,-138.672,-42.969,-43.945,78.613,109.863
1688813969.660,57.129,-43.945,-47.852,14.160,354.492
1688813969.664,141.113,-41.016,-41.016,-4.883,248.047
1688813969.668,88.379,-39.062,-39.062,5.371,-128.418
1688813969.672,-74.707,-42.480,-42.480,62.012,-20.020
1688813969.676,-161.133,-40.039,-46.387,80.078,88.867
1688813969.678,32.715,-37.109,-50.293,4.883,-58.594
1688813969.682,148.926,-38.086,-45.898,-18.066,-173.340
1688813969.686,99.121,-41.992,-40.039,4.395,-25.391
1688813969.690,-56.152,-42.969,-39.062,45.898,112.305
1688813969.694,-170.410,-46.875,-41.992,69.824,83.496
1688813969.698,3.906,-48.340,-41.504,0.000,9.766
1688813969.702,139.648,-43.457,-40.527,-28.320,191.406
1688813969.705,111.328,-38.574,-41.016,4.883,333.984
1688813969.709,-20.020,-36.133,-42.969,38.574,95.215
1688813969.713,-155.762,-36.621,-41.992,69.336,57.617
1688813969.717,-15.625,-38.086,-41.504,15.625,124.023
1688813969.721,128.418,-39.062,-43.945,-40.527,73.242
1688813969.723,103.516,-44.922,-45.898,-41.992,8.789
1688813969.727,-21.973,-50.781,-48.828,0.488,14.648
1688813969.731,-174.805,-53.711,-53.711,57.129,182.617
1688813969.735,-50.781,-50.781,-55.176,5.859,150.391
1688813969.739,133.789,-41.504,-49.805,-49.805,-87.891
1688813969.743,131.836,-32.227,-39.062,-19.531,17.090
1688813969.747,16.602,-27.832,-34.180,32.227,279.297
1688813969.750,-148.926,-29.785,-36.133,81.543,116.211
1688813969.754,-50.781,-30.273,-33.691,41.016,-123.535
1688813969.758,136.230,-32.227,-36.133,-19.043,-61.035
1688813969.762,139.648,-33.203,-37.598,2.930,274.902
1688813969.766,46.387,-27.832,-28.320,37.109,182.129
1688813969.768,-127.930,-22.949,-24.414,76.172,-72.754
1688813969.772,-83.008,-19.531,-29.297,41.504,19.531
1688813969.776,121.094,-12.207,-28.809,-20.508,-75.684
1688813969.780,154.785,-6.348,-21.973,-5.371,-209.961
1688813969.784,67.383,-2.441,-15.625,28.809,-195.801
1688813969.788,-104.980,-5.371,-14.648,97.168,36.621
1688813969.792,-90.820,-7.324,-15.137,86.914,178.223
1688813969.795,107.910,-0.977,-19.531,-1.953,-61.035
1688813969.799,146.484,-4.883,-24.902,-18.066,-181.641
1688813969.803,69.336,-10.742,-28.320,20.020,33.203
1688813969.807,-97.168,-8.789,-25.391,85.938,159.180
1688813969.811,-115.234,-4.883,-18.066,78.125,34.180
1688813969.828,87.891,-0.977,-20.020,0.488,-60.059
1688813969.832,145.996,-5.859,-20.020,-9.766,141.602
1688813969.836,69.824,-14.648,-21.973,6.348,165.527
1688813969.840,-99.121,-20.020,-26.855,51.270,-26.367
1688813969.844,-155.762,-21.973,-22.461,64.453,58.594
1688813969.848,46.387,-22.949,-23.438,-8.789,74.219
1688813969.852,127.930,-24.414,-28.320,-41.992,-5.859
1688813969.855,64.941,-24.902,-31.250,-21.973,-101.074
1688813969.859,-80.566,-27.832,-29.297,42.480,-8.789
1688813969.863,-169.434,-23.438,-20.996,72.266,198.730
1688813969.867,9.766,-16.113,-18.555,-2.441,39.551
1688813969.871,132.812,-13.672,-19.043,-36.133,-127.441
1688813969.874,94.727,-14.648,-18.066,-9.766,-23.438
1688813969.878,-54.199,-16.113,-20.020,49.316,92.773
1688813969.882,-173.828,-18.066,-20.508,79.102,135.254
1688813969.886,-9.277,-14.160,-19.043,6.836,23.438
1688813969.890,133.789,-13.184,-16.602,-31.738,46.875
1688813969.894,106.934,-13.672,-14.160,-12.695,173.828
1688813969.898,-26.367,-12.695,-9.766,30.273,119.629
1688813969.901,-166.016,-16.602,-14.160,61.035,20.996
1688813969.905,-22.461,-22.949,-19.043,6.348,84.473
1688813969.909,137.695,-28.320,-15.137,-39.062,182.617
1688813969.913,103.027,-28.809,-18.555,-29.297,-57.617
1688813969.917,-20.996,-33.203,-21.484,17.090,-42.480
1688813969.918,-166.016,-38.086,-21.973,54.688,157.227
1688813969.922,-57.617,-40.039,-24.902,2.930,83.496
1688813969.926,113.281,-43.945,-25.391,-51.758,-34.668
1688813969.930,107.422,-43.457,-24.902,-47.363,-47.363
1688813969.934,0.977,-35.156,-21.973,-6.836,86.914
1688813969.938,-166.504,-35.645,-25.391,50.293,208.984
1688813969.942,-89.355,-39.551,-31.738,4.395,166.016
1688813969.945,103.027,-39.062,-34.180,-63.965,40.039
1688813969.949,109.863,-46.387,-32.227,-49.316,188.477
1688813969.953,4.883,-50.293,-35.645,-21.973,156.250
1688813969.957,-171.387,-50.293,-35.645,28.320,-115.234
1688813969.961,-124.023,-47.363,-30.762,17.578,-35.156
1688813969.963,79.590,-44.434,-35.156,-53.223,-50.293
1688813969.967,95.215,-47.363,-36.621,-62.988,-113.281
1688813969.971,10.254,-44.434,-41.992,-34.668,-102.539
1688813969.975,-164.062,-42.969,-46.875,22.461,30.762
1688813969.979,-163.086,-49.805,-39.551,6.348,63.477
1688813969.983,43.457,-50.293,-35.645,-70.312,-51.270
1688813969.987,97.168,-47.852,-35.156,-71.777,-22.461
1688813969.990,23.926,-48.340,-28.809,-33.691,152.832
1688813969.994,-164.551,-55.664,-35.645,20.020,359.375
1688813969.998,-206.543,-62.012,-50.293,6.836,144.531
1688813970.002,8.789,-62.012,-51.270,-68.848,-139.648
1688813970.006,86.426,-64.453,-45.410,-73.730,-97.168
1688813970.008,17.090,-65.430,-48.828,-47.852,-41.016
1688813970.012,-143.066,-62.500,-49.805,-0.977,-89.844
1688813970.016,-210.938,-62.988,-44.922,8.789,-27.344
1688813970.020,-25.879,-62.500,-47.852,-69.824,13.184
1688813970.024,77.637,-64.941,-51.270,-99.609,-100.098
1688813970.028,36.133,-63.477,-51.270,-65.430,-58.105
1688813970.032,-124.023,-67.871,-56.641,-9.277,138.184
1688813970.035,-237.793,-74.707,-62.988,4.395,326.172
1688813970.039,-54.199,-66.895,-62.012,-68.848,188.965
1688813970.043,80.566,-60.059,-55.664,-98.145,6.348
1688813970.047,41.992,-58.105,-53.711,-80.078,79.102
1688813970.051,-96.680,-59.082,-51.270,-31.250,75.195
1688813970.053,-225.586,-58.105,-52.246,4.883,35.156
1688813970.057,-74.707,-54.199,-57.617,-59.570,-72.754
1688813970.061,76.172,-49.316,-50.781,-101.074,-82.031
1688813970.065,55.176,-51.758,-43.457,-76.660,-30.762
1688813970.069,-78.125,-58.105,-42.480,-28.809,-129.395
1688813970.073,-229.004,-58.105,-41.992,19.043,-29.785
1688813970.077,-96.680,-56.641,-41.504,-32.715,263.184
1688813970.080,68.848,-52.734,-45.898,-88.867,260.254
1688813970.084,48.340,-49.316,-48.340,-82.520,-88.379
1688813970.088,-64.453,-50.293,-45.410,-45.898,-82.520
1688813970.092,-214.844,-46.387,-42.480,9.277,102.051
1688813970.096,-108.887,-51.758,-37.109,-25.879,44.922
1688813970.098,74.219,-52.246,-44.922,-86.914,-14.648
1688813970.102,77.148,-48.340,-53.711,-83.984,-45.898
1688813970.106,-39.062,-56.152,-52.734,-40.527,117.188
1688813970.110,-234.375,-59.082,-49.316,14.160,226.074
1688813970.114,-166.016,-49.805,-50.293,-31.250,-33.691
1688813970.118,43.945,-46.387,-48.340,-94.238,-16.113
1688813970.122,68.359,-46.387,-43.945,-81.055,162.109
1688813970.125,-23.926,-45.898,-46.387,-56.641,24.902
1688813970.129,-201.660,-49.805,-50.293,-7.812,-94.727
1688813970.133,-170.410,-52.246,-49.805,-25.391,13.184
1688813970.137,40.039,-53.223,-47.363,-100.098,-59.082
1688813970.141,77.148,-47.363,-46.875,-101.562,-135.742
1688813970.144,-2.441,-39.551,-43.945,-65.918,-114.746
1688813970.148,-178.711,-37.598,-41.992,-4.395,139.160
1688813970.152,-184.082,-31.738,-35.156,-5.859,179.199
1688813970.156,28.320,-27.344,-28.320,-75.195,-108.398
1688813970.160,89.844,-26.367,-28.320,-77.637,-185.547
1688813970.164,31.738,-25.879,-27.344,-48.340,32.715
1688813970.168,-139.648,-28.320,-28.320,2.930,222.168
1688813970.171,-190.430,-29.785,-28.320,5.371,62.988
1688813970.175,12.207,-33.203,-27.832,-68.359,-55.664
1688813970.179,104.980,-34.180,-31.250,-78.125,103.027
1688813970.183,28.320,-32.715,-33.203,-43.945,196.289
1688813970.187,-154.785,-38.574,-36.133,4.883,114.746
1688813970.203,-210.938,-41.504,-35.645,11.230,134.766
1688813970.207,-14.648,-41.016,-29.785,-53.711,205.078
1688813970.211,102.051,-31.250,-24.414,-72.754,138.184
1688813970.215,60.547,-28.320,-24.902,-62.012,-57.617
1688813970.219,-90.820,-38.574,-25.879,-14.160,45.898
1688813970.223,-200.684,-32.715,-17.578,31.250,330.078
1688813970.227,-26.855,-24.414,-18.555,-40.527,324.219
1688813970.230,104.980,-27.344,-24.414,-89.844,3.418
1688813970.234,65.430,-26.855,-24.414,-62.988,-11.719
1688813970.238,-80.078,-26.367,-26.855,-14.160,122.559
1688813970.242,-218.750,-30.273,-28.320,20.020,43.945
1688813970.246,-66.406,-33.691,-29.785,-45.898,-72.754
1688813970.249,101.562,-33.691,-30.273,-85.938,18.555
1688813970.253,78.125,-35.156,-32.715,-65.430,108.887
1688813970.257,-58.105,-35.156,-32.715,-34.668,-20.020
1688813970.261,-215.820,-31.738,-30.273,18.555,55.176
1688813970.265,-96.680,-34.180,-29.297,-30.762,94.238
1688813970.269,78.125,-38.574,-30.762,-89.844,-0.977
1688813970.273,68.848,-38.574,-32.715,-83.496,60.059
1688813970.276,-41.504,-39.551,-33.691,-44.434,92.285
1688813970.280,-215.332,-45.898,-38.574,18.555,270.020
1688813970.284,-125.488,-43.945,-36.133,-20.508,343.750
1688813970.288,78.125,-29.785,-30.762,-86.914,-15.137
1688813970.292,83.496,-23.438,-29.297,-82.031,-57.129
1688813970.293,-24.414,-25.879,-27.832,-42.969,22.461
1688813970.297,-204.102,-30.273,-29.785,12.695,85.449
1688813970.301,-152.344,-33.691,-30.273,-20.020,12.695
1688813970.305,58.105,-28.320,-30.273,-84.961,-96.680
1688813970.309,82.031,-26.855,-35.645,-78.613,-0.488
1688813970.313,-6.836,-28.809,-37.109,-35.645,53.711
1688813970.317,-187.500,-33.691,-36.133,17.090,104.980
1688813970.320,-180.664,-37.598,-34.180,-7.812,37.598
1688813970.324,29.785,-41.992,-33.203,-64.453,234.375
1688813970.328,78.125,-41.992,-34.668,-65.918,390.137
1688813970.332,8.301,-41.016,-40.039,-43.945,31.250
1688813970.336,-156.738,-45.898,-41.504,16.602,-69.824
1688813970.339,-179.688,-41.016,-38.574,0.000,-16.602
1688813970.343,27.344,-36.621,-36.133,-76.660,-89.355
1688813970.347,98.145,-40.039,-34.668,-76.172,-160.156
1688813970.351,37.109,-37.109,-35.156,-55.664,-71.289
1688813970.355,-124.023,-35.156,-35.645,-5.859,60.547
1688813970.359,-186.523,-39.062,-39.062,6.836,117.188
1688813970.363,4.395,-35.645,-41.504,-62.012,76.172
1688813970.366,101.074,-32.227,-38.086,-68.848,72.266
1688813970.370,55.664,-33.691,-36.133,-41.504,108.887
1688813970.374,-97.656,-32.715,-33.691,0.000,-16.602
1688813970.378,-183.105,-31.250,-23.438,25.391,-69.824
1688813970.382,19.531,-21.973,-13.184,-38.574,8.789
1688813970.398,139.160,-17.090,-14.160,-73.242,58.594
1688813970.402,83.984,-22.461,-16.602,-56.152,-91.309
1688813970.406,-77.148,-26.367,-17.578,-4.883,-92.773
1688813970.410,-201.172,-22.461,-21.484,36.621,162.598
1688813970.414,-33.691,-12.207,-25.879,-35.156,129.395
1688813970.418,100.586,-14.648,-22.461,-86.426,-80.078
1688813970.422,62.500,-18.555,-19.043,-67.871,-49.805
1688813970.425,-68.848,-20.996,-19.531,-0.977,285.156
1688813970.429,-208.008,-20.996,-16.113,45.898,359.863
1688813970.433,-64.453,-13.672,-14.160,-23.438,-46.387
1688813970.437,101.074,-22.949,-19.043,-72.266,-101.562
1688813970.441,77.148,-33.203,-28.809,-62.012,-10.254
1688813970.429,-47.852,-33.203,-29.297,-28.809,-98.633
1688813970.433,-198.242,-30.273,-30.273,18.066,-6.348
1688813970.437,-86.914,-22.461,-35.156,-19.531,136.230
1688813970.441,86.426,-17.578,-38.086,-77.148,9.766
1688813970.445,79.590,-21.484,-36.133,-74.707,-74.707
1688813970.449,-19.531,-18.066,-26.855,-24.414,28.809
1688813970.453,-186.035,-19.043,-24.414,35.156,204.102
1688813970.456,-111.328,-24.414,-26.855,-15.137,144.043
1688813970.460,87.402,-20.996,-18.066,-76.172,-125.000
1688813970.464,101.562,-20.996,-12.695,-58.105,-182.129
1688813970.468,14.648,-15.137,-6.348,-7.324,89.355
1688813970.472,-156.250,-10.254,1.465,46.875,336.914
1688813970.473,-117.676,-14.648,-4.883,7.812,115.723
1688813970.477,82.031,-15.625,-14.648,-61.523,-115.234
1688813970.481,103.516,-14.160,-18.555,-61.523,-40.527
1688813970.485,17.578,-13.672,-19.043,-28.320,79.102
1688813970.489,-163.086,-16.602,-20.996,20.508,38.574
1688813970.493,-163.574,-20.020,-19.531,5.371,22.949
1688813970.497,52.246,-20.996,-20.020,-47.363,274.414
1688813970.500,97.168,-20.996,-21.484,-51.758,200.195
1688813970.504,28.809,-26.367,-27.344,-40.039,-72.266
1688813970.508,-137.695,-33.691,-28.809,15.625,63.965
1688813970.512,-177.246,-36.621,-27.344,27.832,97.656
1688813970.516,28.809,-37.109,-33.691,-44.434,-50.293
1688813970.533,94.238,-38.574,-34.180,-67.383,-82.520
1688813970.537,36.133,-38.574,-29.785,-39.551,-15.625
1688813970.541,-120.117,-34.180,-28.320,18.066,75.195
1688813970.545,-187.500,-29.785,-26.855,29.785,65.918
1688813970.549,9.277,-28.809,-30.762,-37.109,-25.879
1688813970.553,106.445,-28.809,-35.645,-53.223,122.559
1688813970.557,65.430,-21.973,-36.621,-23.438,196.289
1688813970.560,-83.496,-28.320,-40.527,24.414,120.605
1688813970.564,-196.777,-38.086,-43.457,35.156,64.941
1688813970.568,-24.414,-39.062,-47.852,-42.969,172.363
1688813970.572,103.516,-33.203,-49.316,-77.148,232.422
1688813970.576,74.219,-29.785,-41.992,-58.594,-1.465
1688813970.593,-64.941,-35.645,-36.133,-6.836,4.883
1688813970.597,-196.289,-37.109,-35.645,29.297,205.078
1688813970.601,-41.992,-30.273,-36.133,-35.645,110.840
1688813970.605,108.398,-23.926,-35.156,-83.496,-92.285
1688813970.609,91.309,-30.273,-37.109,-67.871,-31.250
1688813970.613,-35.645,-37.109,-36.133,-24.902,84.473
1688813970.617,-201.660,-41.016,-34.668,13.672,171.387
1688813970.620,-94.727,-42.480,-38.574,-46.387,25.391
1688813970.624,60.059,-48.828,-41.016,-107.422,-19.043
1688813970.628,42.969,-56.641,-40.039,-85.938,277.832
1688813970.632,-67.871,-55.664,-41.992,-42.969,252.930
1688813970.636,-229.004,-58.105,-48.340,-9.277,-22.949
1688813970.623,-123.047,-53.223,-46.387,-39.062,-64.453
1688813970.627,76.660,-50.781,-41.992,-86.426,-117.676
1688813970.631,78.125,-55.664,-38.574,-85.938,-148.926
1688813970.635,-35.645,-50.293,-33.203,-34.668,-91.309
1688813970.639,-192.383,-46.875,-27.344,27.344,32.227
1688813970.643,-121.582,-48.828,-25.879,-7.324,152.832
1688813970.647,58.105,-52.246,-35.156,-75.684,52.246
1688813970.650,77.637,-55.664,-37.598,-69.824,-49.805
1688813970.654,-12.695,-56.641,-35.645,-25.879,-1.465
1688813970.658,-186.035,-53.223,-36.133,29.297,5.371
1688813970.662,-156.250,-52.734,-34.180,6.348,-35.156
1688813970.666,51.758,-50.781,-33.691,-64.941,-12.695
1688813970.668,98.145,-39.551,-35.156,-60.547,87.402
1688813970.672,14.160,-34.180,-34.668,-16.113,332.031
1688813970.676,-161.133,-34.180,-32.715,33.691,143.066
1688813970.680,-166.016,-35.645,-31.738,4.883,-107.422
1688813970.684,44.434,-34.668,-26.855,-62.988,-26.855
1688813970.688,107.422,-33.203,-23.438,-61.035,-1.465
1688813970.692,40.039,-32.227,-22.949,-34.180,-60.059
1688813970.695,-130.859,-29.785,-20.020,18.066,-28.809
1688813970.699,-184.082,-35.645,-32.715,20.996,216.797
1688813970.703,7.812,-41.992,-44.922,-62.988,115.234
1688813970.707,85.449,-45.898,-42.480,-94.727,-161.133
1688813970.711,10.254,-45.898,-41.016,-56.641,-32.715
1688813970.713,-149.902,-43.457,-38.086,2.930,94.727
1688813970.717,-204.590,-40.039,-34.668,7.324,69.336
1688813970.721,-8.789,-34.180,-37.109,-65.430,-35.645
1688813970.725,104.492,-37.109,-34.668,-87.402,6.836
1688813970.729,56.641,-37.598,-36.621,-63.477,43.457
1688813970.733,-99.121,-36.621,-38.574,-12.207,21.484
1688813970.737,-210.449,-39.551,-35.156,13.672,41.992
1688813970.740,-38.086,-40.527,-35.156,-56.152,142.578
1688813970.744,95.703,-38.574,-34.668,-85.938,191.895
1688813970.748,61.035,-37.109,-35.156,-69.824,-79.102
1688813970.752,-69.824,-38.574,-34.180,-21.484,-104.980
1688813970.756,-200.195,-36.133,-28.809,27.344,175.293
1688813970.758,-50.781,-31.738,-24.414,-34.668,118.652
1688813970.762,112.305,-34.180,-23.926,-78.125,-186.035
1688813970.766,86.914,-35.156,-22.461,-54.199,-180.664
1688813970.770,-46.875,-32.715,-20.996,-11.230,105.957
1688813970.774,-194.824,-30.762,-19.043,36.621,187.500
1688813970.778,-72.754,-31.250,-17.090,-7.324,62.988
1688813970.782,103.027,-36.621,-12.695,-58.594,34.180
1688813970.785,97.656,-34.180,-10.254,-44.434,184.570
1688813970.789,-22.949,-29.785,-18.066,-5.859,161.621
1688813970.793,-185.059,-27.832,-20.020,38.574,0.488
1688813970.797,-94.238,-25.879,-22.461,-7.812,8.789
1688813970.801,92.285,-25.391,-25.879,-71.289,-71.777
1688813970.803,96.191,-24.414,-24.414,-62.988,-114.746
1688813970.807,-9.277,-29.297,-24.902,-26.855,-92.285
1688813970.811,-187.012,-34.180,-24.902,23.438,43.457
1688813970.815,-130.371,-26.367,-19.531,-1.465,46.387
1688813970.819,73.730,-18.066,-18.555,-65.430,-56.641
1688813970.823,98.633,-17.090,-20.508,-62.012,-41.504
1688813970.827,11.230,-20.508,-19.043,-20.020,201.172
1688813970.830,-162.109,-20.996,-15.137,32.227,328.125
1688813970.834,-143.555,-19.531,-17.578,5.859,68.359
1688813970.838,55.176,-23.926,-20.996,-66.406,-34.180
1688813970.842,93.262,-29.297,-19.043,-61.523,96.680
1688813970.846,17.090,-26.367,-21.484,-24.902,241.211
1688813970.848,-155.762,-25.391,-20.996,18.555,130.859
1688813970.852,-175.781,-29.297,-19.043,18.066,52.734
1688813970.856,30.762,-22.949,-20.996,-44.434,79.590
1688813970.860,103.516,-19.043,-20.508,-62.012,48.340
1688813970.864,50.781,-21.973,-22.949,-34.668,-56.641
1688813970.868,-116.699,-25.879,-26.367,16.113,54.688
1688813970.872,-181.641,-30.762,-30.273,21.973,231.445
1688813970.875,15.137,-31.738,-35.156,-47.852,98.145
1688813970.879,106.934,-30.762,-35.156,-72.266,-72.266
1688813970.883,50.293,-33.203,-34.668,-44.922,-38.574
1688813970.887,-113.770,-40.039,-34.668,3.906,119.141
1688813970.891,-203.613,-45.898,-31.250,16.602,86.426
1688813970.893,-11.719,-43.457,-27.344,-46.387,-41.504
1688813970.897,108.398,-33.203,-20.508,-74.219,-68.848
1688813970.901,60.059,-30.762,-24.902,-62.012,-43.457
1688813970.905,-94.727,-33.691,-29.297,-9.277,-2.441
1688813970.909,-214.355,-35.156,-23.926,27.832,39.062
1688813970.913,-42.480,-35.156,-21.973,-37.109,121.582
1688813970.917,102.539,-31.738,-22.949,-77.148,122.559
1688813970.920,62.500,-33.691,-33.691,-59.570,-27.344
1688813970.924,-77.637,-41.992,-39.551,-16.602,-104.980
1688813970.928,-210.449,-43.457,-34.668,32.715,130.371
1688813970.932,-64.941,-36.133,-34.180,-20.996,253.418
1688813970.936,100.098,-32.227,-37.109,-84.961,67.871
1688813970.953,72.266,-33.203,-40.527,-77.148,-12.207
1688813970.957,-54.199,-39.062,-39.551,-29.297,188.477
1688813970.961,-209.961,-40.527,-42.969,18.555,231.445
1688813970.965,-109.375,-40.527,-44.922,-41.992,-108.887
1688813970.969,63.965,-42.969,-42.480,-96.191,-128.418
1688813970.973,62.500,-40.527,-41.992,-78.125,-9.766
1688813970.977,-47.363,-39.551,-43.945,-49.805,52.246
1688813970.980,-217.773,-40.527,-46.875,-2.930,104.492
1688813970.984,-135.742,-46.875,-47.852,-36.133,106.934
1688813970.988,60.547,-52.246,-52.246,-95.215,120.117
1688813970.992,70.312,-48.340,-56.152,-96.680,-25.879
1688813970.996,-29.297,-49.805,-53.223,-65.430,-151.367
1688813970.998,-199.707,-57.129,-51.758,3.906,32.227
1688813971.002,-159.180,-59.082,-58.105,-25.879,146.484
1688813971.006,41.992,-56.641,-58.594,-106.934,-22.949
1688813971.010,80.078,-49.316,-54.688,-105.957,-69.824
1688813971.014,-20.020,-51.758,-52.734,-64.453,47.363
1688813971.018,-194.336,-60.547,-54.688,-3.906,159.668
1688813971.022,-167.480,-59.570,-57.129,-21.973,125.977
1688813971.025,35.156,-55.664,-51.270,-82.031,-69.824
1688813971.029,84.473,-56.152,-43.945,-78.125,77.148
1688813971.033,7.812,-53.223,-41.992,-49.805,194.336
1688813971.037,-161.133,-49.316,-37.598,-3.906,18.066
1688813971.041,-200.195,-49.316,-34.668,-10.742,121.094
1688813971.043,0.488,-41.016,-31.250,-77.148,204.590
1688813971.047,80.566,-36.621,-34.668,-87.891,52.734
1688813971.051,23.438,-39.062,-46.875,-75.195,-16.113
1688813971.055,-140.137,-43.945,-46.875,-18.555,115.234
1688813971.059,-214.844,-46.875,-46.875,-5.371,165.527
1688813971.063,-21.973,-43.457,-48.340,-81.055,64.453
1688813971.067,83.984,-42.480,-49.316,-98.145,-81.543
1688813971.070,33.691,-46.875,-53.223,-72.754,-117.188
1688813971.074,-126.953,-52.246,-50.293,-11.719,163.574
1688813971.078,-222.656,-46.387,-45.898,10.742,203.125
1688813971.082,-34.668,-40.527,-40.039,-61.523,-67.383
1688813971.086,82.520,-50.781,-45.410,-92.773,-42.969
1688813971.089,41.992,-53.711,-53.223,-73.242,-47.363
1688813971.093,-93.750,-51.758,-43.457,-20.020,-111.328
1688813971.097,-215.820,-55.176,-42.480,12.207,-61.523
1688813971.101,-53.711,-48.828,-49.316,-50.293,-42.480
1688813971.105,88.867,-42.969,-51.270,-88.379,-59.570
1688813971.109,60.059,-40.527,-48.340,-67.383,17.578
1688813971.113,-69.824,-41.992,-49.805,-22.461,48.828
1688813971.116,-215.332,-52.246,-51.270,18.066,218.750
1688813971.120,-82.520,-53.223,-49.805,-37.109,406.250
1688813971.124,79.590,-45.410,-56.641,-99.609,45.410
1688813971.128,63.965,-43.457,-56.152,-85.938,-221.191
1688813971.132,-53.711,-45.898,-54.199,-44.434,-0.488
1688813971.133,-211.426,-47.852,-51.758,0.488,89.844
1688813971.137,-110.352,-47.363,-50.781,-42.969,1.465
1688813971.141,76.172,-47.363,-49.316,-94.238,-7.324
1688813971.145,75.684,-43.945,-44.922,-71.289,65.918
1688813971.149,-31.738,-41.016,-41.016,-25.879,50.781
1688813971.153,-195.801,-37.109,-36.133,27.344,71.289
1688813971.157,-122.070,-35.645,-31.738,-12.207,95.703
1688813971.160,73.730,-42.969,-33.691,-78.125,218.262
1688813971.164,83.008,-41.992,-41.992,-71.777,234.375
1688813971.168,-12.695,-38.574,-50.293,-53.711,-94.727
1688813971.172,-182.617,-46.875,-48.828,-3.906,8.301
1688813971.176,-163.086,-54.688,-48.828,-26.367,70.801
1688813971.179,34.668,-56.152,-52.246,-103.516,-142.090
1688813971.183,76.660,-53.223,-48.340,-94.727,-124.023
1688813971.187,-6.348,-55.664,-47.852,-59.570,4.395
1688813971.191,-177.246,-61.523,-45.410,-0.488,78.613
1688813971.195,-175.293,-56.641,-41.016,-1.465,70.312
1688813971.199,32.715,-47.852,-35.645,-70.312,-14.160
1688813971.203,90.332,-40.527,-33.691,-64.941,166.504
1688813971.206,22.461,-35.645,-40.039,-42.480,274.902
1688813971.210,-145.020,-34.180,-40.527,-3.418,63.965
1688813971.214,-185.059,-35.156,-35.156,-1.465,67.383
1688813971.218,27.344,-37.109,-29.297,-70.801,132.812
1688813971.222,108.887,-31.738,-28.809,-86.426,112.793
1688813971.223,45.898,-34.668,-33.203,-68.359,32.227
1688813971.227,-114.746,-46.387,-38.574,-19.531,2.930
1688813971.231,-198.242,-44.922,-39.551,0.977,182.129
1688813971.235,-12.695,-35.645,-36.621,-65.430,91.797
1688813971.239,91.797,-34.668,-38.086,-92.285,-142.090
1688813971.243,48.340,-33.691,-37.598,-68.359,-48.828
1688813971.247,-93.262,-34.180,-34.180,-8.301,337.891
1688813971.250,-191.406,-23.926,-25.879,20.996,371.582
1688813971.254,-14.648,-14.648,-19.043,-52.734,-5.859
1688813971.258,112.793,-19.531,-18.555,-84.473,-100.586
1688813971.262,73.730,-21.484,-25.391,-72.266,-82.520
1688813971.266,-66.895,-21.973,-29.785,-29.785,-29.785
1688813971.269,-195.801,-25.391,-19.531,13.672,57.617
1688813971.273,-44.434,-29.785,-21.484,-42.480,120.605
1688813971.277,98.145,-28.809,-31.250,-91.309,58.594
1688813971.281,64.941,-26.367,-33.691,-84.473,-86.426
1688813971.285,-60.059,-30.762,-37.109,-35.645,-60.547
1688813971.289,-203.125,-35.645,-40.039,20.996,239.258
1688813971.293,-81.543,-31.250,-33.691,-31.250,272.461
1688813971.296,85.449,-33.691,-33.691,-103.027,-29.785
1688813971.300,74.707,-44.434,-41.504,-97.168,-200.684
1688813971.304,-38.086,-50.293,-37.109,-39.062,-61.035
1688813971.308,-193.359,-46.875,-26.855,10.742,80.078
1688813971.312,-102.539,-38.086,-22.461,-43.457,-67.383
1688813971.328,71.777,-40.527,-26.367,-101.562,-86.914
1688813971.332,80.078,-39.062,-29.785,-86.914,-16.602
1688813971.336,-21.484,-36.133,-30.762,-48.340,36.133
1688813971.340,-191.406,-36.133,-33.691,-4.395,47.852
1688813971.344,-133.301,-33.203,-31.738,-29.785,6.836
1688813971.348,69.336,-27.832,-23.438,-84.473,55.176
1688813971.352,90.332,-22.461,-24.902,-86.914,49.316
1688813971.355,-1.953,-28.320,-31.250,-61.523,-63.965
1688813971.359,-179.199,-43.945,-37.598,-8.301,29.785
1688813971.363,-165.527,-48.828,-39.551,-26.367,231.934
1688813971.367,39.551,-37.109,-31.738,-94.238,69.336
1688813971.371,87.402,-29.297,-24.902,-93.750,-179.688
1688813971.373,12.695,-38.086,-30.762,-64.453,-86.426
1688813971.377,-152.344,-41.016,-36.133,-6.348,59.570
1688813971.381,-166.992,-32.715,-37.598,-7.812,16.113
1688813971.385,26.855,-35.156,-33.691,-83.008,-111.816
1688813971.389,93.262,-31.738,-27.344,-86.426,-61.035
1688813971.393,36.621,-23.926,-24.902,-48.828,85.938
1688813971.397,-124.512,-19.531,-17.578,7.324,155.762
1688813971.400,-182.129,-23.438,-18.555,12.207,102.539
1688813971.404,6.348,-30.273,-23.926,-62.500,84.961
1688813971.408,96.191,-29.785,-28.320,-83.984,209.961
1688813971.412,46.387,-36.621,-27.832,-66.895,-49.316
1688813971.416,-112.305,-42.969,-23.926,-15.137,-55.176
1688813971.418,-201.172,-39.551,-26.855,5.371,253.906
1688813971.422,-19.531,-41.504,-38.574,-65.918,115.723
1688813971.426,91.797,-47.852,-41.992,-87.402,-101.562
1688813971.430,45.410,-48.340,-40.039,-73.730,-173.340
1688813971.434,-121.094,-48.340,-37.109,-36.621,-62.988
1688813971.438,-216.797,-48.340,-30.762,-5.859,98.145
1688813971.442,-24.902,-46.387,-29.785,-64.941,-2.441
1688813971.445,76.172,-48.828,-32.227,-105.957,-47.363
1688813971.449,37.109,-47.363,-30.762,-84.473,242.676
1688813971.453,-102.051,-45.898,-35.156,-35.156,263.184
1688813971.457,-245.605,-47.852,-44.434,-10.742,-6.836
1688813971.461,-96.191,-45.898,-41.992,-59.570,6.836
1688813971.463,63.965,-41.504,-39.551,-101.074,3.418
1688813971.467,44.434,-42.480,-44.434,-87.402,-116.211
1688813971.471,-73.242,-47.852,-45.410,-39.062,-53.711
1688813971.475,-229.004,-50.781,-42.969,6.348,105.469
1688813971.479,-116.699,-47.363,-39.551,-43.945,32.227
1688813971.483,69.336,-45.410,-35.645,-87.891,-19.043
1688813971.487,61.523,-46.875,-35.645,-83.984,-4.395
1688813971.490,-44.922,-41.992,-38.086,-38.574,225.098
1688813971.494,-199.219,-31.250,-32.227,30.762,423.828
1688813971.498,-114.258,-20.508,-29.785,-9.766,165.039
1688813971.502,81.055,-23.926,-30.762,-74.707,-3.906
1688813971.506,92.773,-30.273,-31.250,-62.988,156.250
1688813971.508,-5.371,-28.320,-28.809,-21.973,210.449
1688813971.512,-183.105,-28.320,-29.297,20.508,57.129
1688813971.516,-144.043,-29.297,-36.133,-13.672,34.668
1688813971.520,59.082,-23.926,-30.762,-77.637,-20.508
1688813971.524,93.262,-20.020,-22.461,-61.035,-68.359
1688813971.528,10.254,-20.996,-22.949,-20.020,-24.414
1688813971.532,-156.250,-23.438,-21.484,31.738,110.840
1688813971.535,-142.578,-28.320,-22.461,20.020,321.289
1688813971.539,57.617,-28.809,-25.879,-55.176,88.379
1688813971.543,118.652,-24.414,-25.879,-61.035,-241.211
1688813971.547,44.434,-25.879,-24.902,-27.344,-93.262
1688813971.551,-129.883,-24.414,-26.367,21.484,94.727
1688813971.553,-154.297,-16.113,-25.391,27.832,131.348
1688813971.557,45.898,-9.766,-23.926,-45.410,-57.617
1688813971.561,119.141,-10.742,-24.414,-58.105,-31.250
1688813971.565,53.711,-16.113,-22.949,-30.762,61.035
1688813971.569,-115.234,-20.996,-27.344,17.090,50.781
1688813971.573,-188.965,-28.320,-26.855,30.273,96.191
1688813971.577,-2.930,-32.227,-27.832,-39.551,229.004
1688813971.580,91.797,-31.738,-37.598,-69.824,243.652
1688813971.584,44.922,-27.832,-35.156,-54.199,-50.293
1688813971.588,-103.516,-28.320,-27.344,5.371,5.371
1688813971.592,-203.125,-31.738,-26.855,33.203,61.035
1688813971.596,-22.461,-32.715,-26.855,-41.504,10.742
1688813971.599,85.938,-36.621,-31.738,-74.219,-57.617
1688813971.603,38.574,-38.086,-32.227,-56.641,-158.691
1688813971.607,-97.168,-40.039,-34.180,-11.230,160.156
1688813971.611,-220.703,-41.504,-41.504,25.879,259.277
1688813971.615,-58.594,-39.551,-40.039,-41.016,-23.926
1688813971.619,93.750,-38.086,-35.156,-78.613,-15.137
1688813971.623,78.613,-34.180,-30.762,-51.270,162.109
1688813971.626,-51.758,-26.855,-21.973,0.488,75.684
1688813971.630,-198.730,-22.949,-14.648,33.691,-26.855
1688813971.634,-57.129,-23.926,-16.602,-29.297,63.477
1688813971.638,106.934,-24.414,-20.020,-71.777,41.992
1688813971.642,88.867,-22.949,-18.066,-55.176,-84.473
1688813971.643,-26.367,-27.344,-18.555,-14.160,-84.961
1688813971.647,-194.824,-33.691,-22.461,38.086,48.340
1688813971.651,-99.121,-29.785,-23.438,-12.695,19.043
1688813971.655,81.543,-27.832,-20.508,-74.219,-149.902
1688813971.659,83.984,-26.367,-21.973,-63.477,-72.266
1688813971.663,-18.066,-30.273,-23.926,-20.508,206.543
1688813971.667,-188.477,-32.227,-20.996,37.598,488.770
1688813971.670,-123.535,-24.902,-25.391,-13.672,223.633
1688813971.674,66.406,-22.949,-26.367,-90.820,-126.953
1688813971.678,82.520,-19.043,-27.344,-81.543,-125.977
1688813971.682,-8.789,-22.949,-32.715,-42.969,-81.543
1688813971.686,-183.105,-24.414,-27.344,12.695,55.176
1688813971.718,-150.391,-23.926,-21.973,-7.324,67.383
1688813971.722,52.734,-26.855,-28.320,-60.547,49.805
1688813971.726,88.379,-27.832,-31.738,-65.918,-38.086
1688813971.730,10.742,-21.973,-29.297,-46.387,-163.086
1688813971.734,-148.926,-14.160,-23.926,23.438,21.484
1688813971.738,-146.484,-16.113,-22.949,20.020,158.203
1688813971.742,55.664,-18.066,-25.879,-56.152,24.902
1688813971.745,106.445,-25.879,-34.180,-69.336,-30.762
1688813971.749,25.391,-36.621,-42.969,-51.758,-11.719
1688813971.753,-145.996,-36.621,-40.039,16.602,292.969
1688813971.757,-189.941,-36.133,-36.133,21.973,275.879
1688813971.761,13.672,-34.180,-32.227,-60.547,-108.887
1688813971.739,97.656,-33.203,-30.273,-71.289,-96.680
1688813971.743,49.316,-31.250,-28.809,-39.551,-36.621
1688813971.747,-113.770,-33.203,-36.133,6.348,-10.742
1688813971.751,-210.449,-49.805,-47.363,8.301,42.480
1688813971.755,-17.090,-51.270,-47.363,-60.059,39.062
1688813971.759,88.867,-39.062,-43.457,-89.355,4.395
1688813971.763,39.551,-37.598,-38.574,-73.730,-12.207
1688813971.766,-108.887,-34.668,-28.809,-17.090,-2.441
1688813971.770,-220.703,-33.691,-28.809,13.672,159.180
1688813971.774,-56.641,-43.457,-42.969,-68.848,163.574
1688813971.778,68.848,-47.852,-45.898,-113.281,-97.656
1688813971.782,37.109,-45.898,-41.016,-96.191,-37.109
1688813971.793,-104.980,-47.852,-48.828,-46.875,263.184
1688813971.797,-243.652,-48.828,-50.781,-18.066,264.160
1688813971.801,-88.379,-46.387,-43.457,-82.031,-18.555
1688813971.805,68.848,-46.387,-43.457,-123.535,-120.117
1688813971.809,47.363,-44.922,-43.945,-101.562,65.430
1688813971.813,-84.473,-43.457,-40.527,-44.922,480.469
1688813971.817,-242.188,-43.457,-43.457,-12.695,368.164
1688813971.820,-121.094,-43.945,-48.828,-69.824,29.297
1688813971.824,50.293,-47.363,-50.293,-112.793,-22.949
1688813971.828,38.086,-49.805,-48.340,-108.887,-122.559
1688813971.832,-76.660,-49.805,-52.246,-64.941,-179.688
1688813971.836,-232.422,-47.363,-56.152,-4.883,84.473
1688813971.838,-133.301,-45.410,-50.781,-50.293,164.551
1688813971.842,53.711,-47.852,-54.199,-111.816,-129.883
1688813971.846,51.758,-53.223,-55.176,-106.445,-187.012
1688813971.850,-56.152,-55.176,-57.129,-74.219,-66.895
1688813971.854,-222.168,-52.246,-57.617,-21.484,61.035
1688813971.858,-164.551,-53.711,-52.246,-49.316,74.707
1688813971.862,22.949,-56.152,-52.734,-116.699,14.648
1688813971.865,51.270,-47.852,-53.223,-103.027,147.949
1688813971.869,-36.133,-41.992,-53.223,-59.082,241.211
1688813971.873,-217.773,-43.457,-47.852,-12.695,53.711
1688813971.877,-194.336,-50.293,-47.852,-29.785,17.090
1688813971.881,14.160,-49.805,-46.875,-95.215,84.961
1688813971.884,49.805,-47.363,-43.457,-105.957,11.230
1688813971.888,-32.227,-50.781,-45.410,-81.543,-25.879
1688813971.892,-208.984,-52.246,-49.316,-27.344,62.012
1688813971.896,-222.656,-50.781,-47.363,-21.484,217.773
1688813971.900,-16.602,-45.898,-40.527,-92.285,166.504
1688813971.904,45.898,-46.387,-42.969,-108.887,-68.848
1688813971.908,-10.742,-48.828,-39.551,-82.520,-81.055
1688813971.911,-170.410,-42.480,-35.156,-14.648,221.680
1688813971.915,-241.699,-47.363,-43.457,-10.742,279.785
1688813971.919,-53.223,-50.781,-40.039,-105.469,-85.449
1688813971.923,46.875,-30.762,-30.273,-123.047,-103.516
1688813971.927,-18.066,-29.297,-29.297,-108.887,-47.363
1688813971.928,-193.359,-40.039,-31.738,-69.824,-43.457
1688813971.932,-283.203,-30.273,-21.973,-55.176,5.859
1688813971.936,-110.352,-18.066,-19.531,-145.508,-26.367
1688813971.940,-20.508,-20.996,-21.484,-207.031,-49.316
1688813971.944,-84.961,-25.391,-17.578,-216.309,-31.738
1688813971.948,-250.000,-24.414,-19.531,-188.477,31.738
1688813971.952,-381.348,-22.949,-20.996,-170.898,220.215
1688813971.955,-233.398,-23.438,-18.555,-230.957,374.512
1688813971.959,-103.516,-16.113,-12.695,-279.785,44.922
1688813971.963,-131.348,-12.695,-12.695,-280.273,-107.910
1688813971.967,-269.531,-20.508,-17.578,-235.840,26.367
1688813971.971,-417.480,-32.715,-18.066,-193.848,145.020
1688813971.973,-277.344,-38.574,-19.043,-252.441,44.434
1688813971.977,-104.980,-39.062,-21.484,-289.062,-165.039
1688813971.981,-112.305,-38.574,-24.902,-256.348,-33.203
1688813971.985,-221.191,-37.109,-27.344,-193.359,71.289
1688813971.989,-359.863,-40.527,-27.832,-124.023,55.664
1688813971.993,-227.539,-39.551,-27.344,-153.809,55.664
1688813971.997,-29.785,-31.250,-18.555,-186.523,252.441
1688813972.000,-23.926,-36.133,-19.531,-161.621,146.973
1688813972.004,-121.094,-48.340,-28.320,-115.234,-113.770
1688813972.008,-267.578,-55.176,-29.785,-54.199,29.297
1688813972.012,-171.875,-52.246,-33.203,-77.637,136.230
1688813972.016,31.250,-44.922,-36.133,-133.301,-79.590
1688813972.033,46.387,-52.246,-44.434,-124.512,-163.574
1688813972.037,-36.133,-61.523,-46.387,-71.777,-98.633
1688813972.041,-197.754,-68.359,-43.945,-9.277,6.836
1688813972.045,-144.531,-69.336,-47.363,-25.391,20.508
1688813972.049,64.941,-62.500,-42.480,-71.289,-112.793
1688813972.053,105.957,-58.594,-37.109,-50.781,17.578
1688813972.057,29.297,-61.035,-44.434,-26.855,162.598
1688813972.060,-147.949,-64.453,-53.711,20.508,65.430
1688813972.064,-139.648,-64.453,-62.500,14.160,-4.395
1688813972.068,71.777,-62.988,-64.453,-48.340,105.469
1688813972.072,126.953,-62.988,-56.641,-42.969,187.988
1688813972.076,50.781,-62.012,-53.711,-19.043,28.320
1688813972.078,-116.699,-64.453,-54.688,33.691,40.039
1688813972.082,-144.043,-63.477,-57.129,32.715,155.762
1688813972.086,55.176,-61.523,-61.035,-41.992,42.969
1688813972.090,128.418,-59.082,-57.129,-52.734,-141.602
1688813972.094,71.289,-56.152,-47.852,-12.695,-74.707
1688813972.098,-90.820,-56.641,-45.410,46.875,90.332
1688813972.102,-157.715,-57.129,-42.969,46.387,95.703
1688813972.105,34.180,-54.199,-40.527,-37.598,-41.992
1688813972.109,131.348,-49.316,-40.527,-56.152,-70.312
1688813972.113,86.426,-52.734,-44.434,-24.414,202.637
1688813972.117,-63.965,-51.270,-45.410,21.973,282.227
1688813972.121,-155.762,-44.922,-39.551,42.480,73.730
1688813972.123,34.180,-40.527,-35.645,-30.273,1.465
1688813972.127,152.344,-41.504,-39.062,-71.777,17.090
1688813972.131,103.027,-46.875,-44.434,-57.129,-63.477
1688813972.135,-36.133,-44.434,-35.156,-3.906,-40.527
1688813972.139,-159.668,-37.109,-27.832,36.621,61.035
1688813972.143,-1.465,-35.645,-35.156,-24.414,90.820
1688813972.147,144.531,-38.574,-40.039,-58.594,68.848
1688813972.150,113.281,-36.621,-38.086,-43.945,-9.766
1688813972.154,-17.090,-39.551,-38.574,0.000,69.336
1688813972.158,-162.598,-46.875,-41.016,39.551,237.305
1688813972.162,-31.738,-44.434,-34.668,-20.508,-20.508
1688813972.166,132.324,-40.039,-30.762,-59.082,-30.273
1688813972.168,115.723,-44.434,-35.645,-39.062,174.805
1688813972.172,-13.672,-47.852,-43.945,-1.465,163.574
1688813972.176,-184.570,-51.270,-53.223,36.621,62.012
1688813972.180,-78.125,-55.176,-54.688,-8.789,5.371
1688813972.184,104.004,-55.664,-56.641,-62.988,52.734
1688813972.188,89.355,-50.781,-57.129,-48.340,71.289
1688813972.192,-9.277,-45.898,-50.293,-3.906,-18.066
1688813972.195,-163.574,-45.410,-46.387,43.945,3.906
1688813972.199,-98.145,-45.410,-42.969,11.230,186.035
1688813972.203,97.168,-40.527,-43.945,-44.434,75.684
1688813972.207,113.281,-37.109,-41.992,-36.133,-163.086
1688813972.211,17.090,-43.457,-39.551,-4.395,-125.977
1688813972.213,-162.598,-49.805,-40.527,37.598,-29.297
1688813972.217,-132.324,-42.969,-37.598,14.160,-63.965
1688813972.221,78.125,-39.551,-36.133,-44.922,-103.027
1688813972.225,109.863,-42.969,-35.645,-45.410,57.617
1688813972.229,24.902,-39.551,-31.738,-26.367,98.145
1688813972.233,-146.973,-36.133,-30.273,28.809,165.527
1688813972.237,-159.180,-37.598,-34.668,20.508,266.113
1688813972.240,44.434,-36.621,-33.691,-47.363,189.941
1688813972.244,100.098,-38.574,-28.809,-42.480,247.559
1688813972.248,32.715,-35.645,-30.762,-20.508,60.547
1688813972.252,-132.812,-36.133,-35.156,28.809,-26.855
1688813972.256,-177.246,-37.109,-33.691,37.598,156.250
1688813972.258,25.391,-32.715,-32.227,-40.039,59.082
1688813972.262,98.145,-40.039,-41.016,-71.777,-132.812
1688813972.266,36.621,-53.711,-45.410,-48.828,-102.539
1688813972.270,-126.465,-55.664,-44.922,10.742,84.961
1688813972.274,-208.984,-52.246,-44.922,24.414,183.105
1688813972.278,-19.043,-43.457,-39.062,-42.969,50.781
1688813972.282,86.914,-39.062,-34.668,-66.895,-76.172
1688813972.285,41.016,-49.316,-32.715,-45.898,202.148
1688813972.289,-110.840,-45.410,-34.180,-0.977,321.289
1688813972.293,-213.867,-44.434,-32.715,20.508,34.668
1688813972.297,-40.527,-56.152,-35.645,-38.086,-8.301
1688813972.301,84.961,-55.176,-41.504,-68.848,-22.949
1688813972.305,42.480,-54.688,-47.852,-57.129,-65.918
1688813972.309,-102.051,-62.988,-57.129,-11.230,-32.715
1688813972.313,-228.516,-62.988,-56.152,30.273,72.754
1688813972.317,-69.336,-50.293,-47.852,-24.414,29.785
1688813972.321,87.402,-46.387,-44.434,-57.617,-104.980
1688813972.325,62.012,-44.434,-42.480,-50.293,-75.195
1688813972.329,-57.129,-42.969,-42.969,-0.977,149.902
1688813972.332,-206.543,-45.410,-44.434,54.688,328.613
1688813972.336,-92.285,-39.551,-41.992,-14.648,100.098
1688813972.340,83.496,-37.598,-38.086,-67.383,-129.883
1688813972.344,73.242,-42.969,-41.016,-45.898,-65.430
1688813972.348,-48.340,-52.734,-45.898,-6.836,45.410
1688813972.363,-203.613,-50.293,-44.434,40.527,80.078
1688813972.367,-97.656,-45.898,-45.898,0.488,-6.836
1688813972.371,82.520,-46.875,-51.270,-58.105,-13.184
1688813972.375,78.613,-49.316,-47.852,-53.711,14.648
1688813972.379,-26.367,-56.641,-41.504,-24.902,-67.871
1688813972.383,-204.590,-55.664,-38.086,23.438,-15.137
1688813972.387,-148.926,-55.176,-39.062,-4.883,378.906
1688813972.390,43.457,-59.570,-46.875,-81.543,361.816
1688813972.394,58.105,-64.453,-51.270,-102.051,-75.684
1688813972.398,-26.367,-66.406,-50.293,-60.547,-75.684
1688813972.402,-193.359,-64.453,-47.852,13.184,125.488
1688813972.406,-166.016,-62.500,-50.293,-0.977,68.359
1688813972.393,37.109,-59.570,-54.199,-74.219,-191.406
1688813972.397,75.195,-59.082,-51.270,-77.148,-135.254
1688813972.401,-2.441,-58.105,-47.363,-41.016,18.555
1688813972.405,-176.758,-57.129,-49.316,10.742,-9.766
1688813972.409,-192.871,-62.012,-61.523,6.836,-46.387
1688813972.413,11.719,-63.965,-60.059,-62.012,-32.227
1688813972.417,85.449,-57.129,-48.340,-64.453,-28.320
1688813972.420,24.902,-52.246,-49.805,-40.039,-56.152
1688813972.424,-141.113,-57.129,-48.340,8.789,-21.973
1688813972.428,-188.477,-55.664,-40.527,29.297,178.711
1688813972.432,0.488,-45.410,-39.551,-40.527,171.875
1688813972.436,84.473,-41.016,-39.551,-67.871,2.930
1688813972.453,41.016,-38.574,-35.645,-47.852,42.480
1688813972.457,-119.141,-41.016,-33.691,3.418,260.254
1688813972.461,-212.402,-39.062,-30.273,22.949,362.305
1688813972.465,-16.602,-32.227,-27.832,-53.711,12.695
1688813972.469,102.539,-29.785,-24.414,-69.336,-112.305
1688813972.473,56.152,-31.738,-22.949,-37.109,28.320
1688813972.477,-88.379,-38.086,-23.438,5.859,60.547
1688813972.480,-196.777,-37.109,-21.973,32.227,20.508
1688813972.484,-33.203,-36.133,-25.879,-36.621,14.160
