timestamps,TP9,AF7,AF8,TP10,Right AUX
1688816207.724,-42.480,-29.297,-29.785,122.559,-46.875
1688816207.728,168.457,-37.109,-25.879,0.000,-145.508
1688816207.732,191.895,-43.457,-28.320,-31.250,-148.438
1688816207.736,86.426,-59.570,-41.016,1.465,-152.832
1688816207.740,-140.625,-87.891,-79.590,71.777,-66.406
1688816207.744,-189.453,-127.930,-124.512,13.672,89.844
1688816207.748,-71.777,-227.051,-215.820,-204.590,-80.566
1688816207.751,-226.074,-448.730,-437.012,-440.918,-243.164
1688816207.755,-465.332,-633.301,-616.699,-591.309,-279.785
1688816207.759,-721.191,-698.730,-678.223,-563.965,-74.219
1688816207.763,-796.387,-721.680,-705.566,-557.617,487.305
1688816207.767,-586.914,-719.238,-705.566,-692.871,199.707
1688816207.784,-486.816,-704.590,-687.988,-732.910,-237.305
1688816207.788,-512.207,-685.547,-667.969,-674.316,-154.297
1688816207.792,-672.852,-661.621,-648.438,-568.359,-95.215
1688816207.796,-746.094,-635.254,-627.441,-498.047,-77.637
1688816207.800,-525.879,-610.352,-605.469,-573.242,-116.699
1688816207.804,-395.996,-590.332,-577.637,-610.352,34.668
1688816207.808,-423.340,-571.777,-553.711,-570.312,-19.043
1688816207.811,-571.289,-547.852,-533.691,-466.309,-144.043
1688816207.815,-669.434,-518.555,-510.742,-383.301,-51.270
1688816207.819,-461.426,-492.676,-481.445,-459.961,82.520
1688816207.823,-297.852,-464.844,-458.496,-518.066,-59.082
1688816207.827,-308.105,-441.895,-443.848,-487.793,-177.246
1688816207.829,-434.082,-422.852,-428.223,-384.766,-9.277
1688816207.833,-560.059,-395.020,-404.785,-280.273,156.250
1688816207.837,-385.742,-369.141,-381.348,-348.145,5.859
1688816207.841,-200.684,-354.492,-361.328,-416.504,-137.207
1688816207.845,-201.660,-342.773,-341.309,-396.484,-120.605
1688816207.849,-316.895,-331.055,-324.707,-311.035,110.352
1688816207.853,-474.609,-314.941,-314.453,-203.613,198.730
1688816207.856,-350.586,-293.457,-301.270,-256.836,-35.645
1688816207.860,-156.250,-278.320,-279.785,-320.312,-57.129
1688816207.864,-139.648,-266.602,-266.113,-308.594,75.684
1688816207.868,-236.816,-252.930,-258.789,-260.254,-120.605
1688816207.872,-410.156,-242.188,-247.070,-149.414,-71.777
1688816207.875,-316.895,-225.586,-234.863,-180.176,17.578
1688816207.879,-94.727,-205.566,-222.656,-280.762,-96.191
1688816207.883,-66.406,-194.824,-214.355,-286.133,-171.387
1688816207.887,-150.391,-186.523,-202.148,-222.656,-172.363
1688816207.891,-330.078,-177.246,-190.430,-111.328,72.266
1688816207.895,-285.156,-169.434,-185.547,-122.070,50.781
1688816207.899,-62.012,-160.645,-173.340,-219.238,-171.875
1688816207.902,-21.484,-156.738,-164.062,-241.211,-154.297
1688816207.906,-98.633,-161.621,-160.156,-185.059,81.543
1688816207.910,-287.109,-150.391,-154.785,-75.684,93.262
1688816207.914,-282.715,-134.766,-150.391,-76.172,-65.430
1688816207.918,-49.805,-134.766,-137.207,-179.199,-78.125
1688816207.919,1.953,-141.602,-134.277,-210.449,-107.422
1688816207.923,-55.664,-141.602,-136.230,-159.668,-128.906
1688816207.927,-230.957,-137.207,-131.348,-48.828,-38.574
1688816207.931,-294.922,-133.301,-127.441,-30.273,189.453
1688816207.935,-72.266,-123.535,-122.559,-137.207,152.344
1688816207.939,20.996,-114.258,-121.094,-180.664,-53.711
1688816207.943,-38.086,-106.445,-122.559,-157.715,-93.750
1688816207.946,-201.660,-91.309,-122.070,-60.547,96.191
1688816207.950,-283.203,-83.008,-122.559,-7.812,322.754
1688816207.954,-82.031,-73.730,-126.465,-121.582,4.395
1688816207.958,39.551,-66.406,-120.117,-185.547,-245.605
1688816207.962,0.977,-67.383,-118.164,-174.316,-95.703
1688816207.965,-158.203,-64.941,-121.094,-89.844,-55.664
1688816207.969,-276.855,-63.965,-116.699,-16.602,-77.637
1688816207.973,-76.172,-63.965,-107.422,-100.586,-177.734
1688816207.977,79.590,-68.359,-94.727,-151.855,-215.820
1688816207.981,33.691,-70.801,-95.703,-135.254,-172.363
1688816207.985,-117.676,-67.383,-101.562,-53.223,-40.039
1688816207.989,-250.977,-68.359,-94.238,31.738,41.016
1688816207.992,-82.031,-65.430,-87.402,-32.715,230.957
1688816207.996,81.055,-57.129,-88.379,-107.910,192.871
1688816208.000,45.410,-59.082,-92.285,-120.605,-162.109
1688816208.004,-82.520,-64.453,-83.984,-58.105,-154.785
1688816208.008,-241.699,-62.500,-75.684,40.039,16.602
1688816208.009,-119.629,-57.617,-74.707,-26.855,-67.383
1688816208.013,70.801,-60.547,-71.289,-117.676,-233.887
1688816208.017,70.801,-58.594,-71.777,-115.234,-169.922
1688816208.021,-51.270,-50.781,-84.961,-67.383,19.531
1688816208.025,-233.398,-51.758,-91.309,47.363,62.012
1688816208.029,-135.742,-68.359,-63.965,20.508,-34.668
1688816208.033,50.293,-83.984,-44.922,-95.215,-52.246
1688816208.036,47.363,-90.332,-42.969,-101.562,194.336
1688816208.040,-54.688,-84.961,-34.180,-59.082,121.094
1688816208.044,-257.812,-92.773,-28.320,31.738,-6.348
1688816208.048,-204.590,-101.074,-17.578,21.973,85.449
1688816208.052,26.367,-102.051,-9.277,-100.098,-29.785
1688816208.056,27.344,-111.328,-5.859,-136.230,-199.219
1688816208.060,-76.172,-122.559,2.441,-104.980,-140.137
1688816208.064,-252.441,-125.977,1.465,14.160,60.547
1688816208.068,-260.254,-125.000,8.301,25.879,-28.320
1688816208.072,-40.527,-118.164,19.531,-95.215,-265.137
1688816208.076,34.668,-117.188,23.438,-119.141,-113.281
1688816208.080,-36.621,-121.094,26.855,-75.195,185.547
1688816208.083,-243.164,-122.070,22.461,9.277,101.074
1688816208.087,-294.922,-119.141,23.926,26.855,-126.465
1688816208.091,-64.941,-120.117,30.273,-74.219,-180.176
1688816208.095,26.855,-121.582,32.715,-129.395,-131.348
1688816208.099,-34.180,-120.605,31.250,-106.445,-124.512
1688816208.100,-212.402,-115.723,29.297,6.836,-83.984
1688816208.104,-283.203,-111.816,31.250,60.547,16.113
1688816208.108,-67.383,-113.770,37.109,-44.922,155.762
1688816208.112,46.387,-105.957,36.133,-110.352,-6.836
1688816208.116,17.578,-92.773,25.879,-92.773,-191.895
1688816208.120,-154.785,-89.355,21.484,6.348,23.438
1688816208.124,-277.832,-94.238,20.020,81.543,525.879
1688816208.127,-66.895,-83.984,17.578,-33.203,233.398
1688816208.131,72.754,-77.637,17.578,-114.746,-226.074
1688816208.135,33.691,-80.078,18.066,-99.609,-215.820
1688816208.139,-103.027,-76.660,15.137,-23.926,-132.812
1688816208.143,-242.676,-74.219,10.742,46.875,-77.637
1688816208.147,-88.379,-70.801,8.789,-47.363,-138.184
1688816208.151,80.078,-70.801,13.184,-119.141,-190.918
1688816208.155,75.684,-69.824,9.277,-119.141,-232.422
1688816208.159,-59.570,-67.383,-1.465,-67.383,-242.188
1688816208.163,-229.492,-66.895,-5.859,31.250,-127.930
1688816208.167,-106.445,-66.406,-1.953,-20.508,124.023
1688816208.171,71.289,-63.477,-3.906,-116.699,146.484
1688816208.174,77.148,-60.547,-8.301,-123.047,-156.738
1688816208.178,-31.250,-60.547,-9.277,-47.852,-206.543
1688816208.182,-206.055,-58.105,-7.812,66.895,87.402
1688816208.186,-118.652,-55.176,-10.742,7.324,11.719
1688816208.190,82.031,-54.688,-9.766,-104.492,-198.730
1688816208.205,103.027,-54.688,-9.766,-111.328,-175.781
1688816208.209,4.883,-48.340,-13.184,-54.688,-109.375
1688816208.213,-186.523,-42.480,-14.160,59.082,-46.875
1688816208.217,-140.137,-44.922,-12.207,37.598,-25.879
1688816208.221,69.336,-47.363,-8.789,-66.406,-10.254
1688816208.225,103.516,-49.805,-12.207,-74.219,179.688
1688816208.229,22.461,-48.828,-23.438,-41.992,49.805
1688816208.232,-159.180,-47.363,-28.320,51.270,-66.895
1688816208.236,-154.297,-45.410,-22.949,57.129,45.898
1688816208.240,63.965,-39.062,-18.066,-46.875,-0.488
1688816208.244,111.816,-39.062,-23.926,-82.031,-145.508
1688816208.248,36.133,-42.969,-32.227,-57.129,-208.984
1688816208.249,-139.648,-45.898,-33.691,41.504,-64.453
1688816208.253,-161.133,-39.551,-28.809,54.688,36.621
1688816208.257,53.711,-37.109,-24.902,-60.547,-133.789
1688816208.261,118.652,-43.945,-22.949,-99.609,-242.676
1688816208.265,58.594,-40.527,-19.043,-68.848,-140.625
1688816208.269,-117.188,-39.062,-23.926,30.273,-15.625
1688816208.273,-191.895,-34.668,-25.391,77.637,23.926
1688816208.276,16.113,-32.227,-18.066,-29.785,-32.715
1688816208.280,117.188,-42.969,-17.090,-76.660,158.203
1688816208.284,61.035,-44.434,-21.973,-59.082,199.707
1688816208.288,-99.609,-38.574,-33.203,15.625,-41.992
1688816208.292,-201.660,-38.086,-28.809,92.285,-53.711
1688816208.294,-16.602,-30.762,-20.996,-1.465,-58.594
1688816208.298,113.770,-26.855,-20.508,-84.473,-179.688
1688816208.302,79.102,-29.297,-13.184,-68.359,-253.906
1688816208.306,-65.430,-29.785,-12.695,20.996,-97.656
1688816208.310,-200.195,-31.250,-23.438,84.961,146.973
1688816208.314,-39.551,-31.738,-27.344,-8.301,131.836
1688816208.318,115.234,-27.832,-27.344,-82.031,-126.465
1688816208.321,90.820,-29.297,-31.738,-64.453,-150.879
1688816208.325,-42.480,-33.691,-27.832,19.531,159.180
1688816208.329,-198.242,-32.227,-33.691,85.938,78.613
1688816208.333,-59.570,-27.344,-38.574,4.883,-65.430
1688816208.337,119.629,-27.832,-35.645,-74.707,-20.508
1688816208.339,96.191,-33.203,-45.410,-75.195,-83.496
1688816208.343,-24.414,-29.785,-47.363,-18.555,-169.922
1688816208.347,-182.617,-26.367,-43.945,77.148,-11.719
1688816208.351,-83.984,-23.438,-40.039,29.297,77.637
1688816208.355,108.398,-18.066,-35.645,-67.871,-118.652
1688816208.359,118.164,-19.531,-31.738,-62.988,-76.660
1688816208.363,23.926,-23.438,-35.645,-9.277,69.336
1688816208.366,-153.809,-24.414,-40.039,86.426,254.883
1688816208.370,-98.633,-16.113,-34.668,47.852,193.848
1688816208.374,90.332,-11.719,-29.297,-69.824,-114.746
1688816208.378,104.980,-15.625,-31.250,-82.520,-151.855
1688816208.382,32.227,-13.672,-28.320,-30.762,-76.172
1688816208.384,-151.367,-11.719,-27.344,69.824,13.184
1688816208.388,-142.090,-12.695,-28.320,49.316,-31.738
1688816208.392,72.266,-14.648,-22.949,-59.082,-132.812
1688816208.396,127.930,-18.066,-17.090,-65.430,169.434
1688816208.400,62.012,-13.672,-16.602,-34.180,92.773
1688816208.404,-124.023,-15.137,-18.555,53.711,-91.797
1688816208.408,-153.809,-16.602,-11.230,78.613,80.078
1688816208.411,67.871,-12.695,1.465,-24.414,188.477
1688816208.415,148.926,-11.719,-0.977,-63.477,-162.109
1688816208.419,78.613,-14.648,-8.789,-38.086,-269.531
1688816208.423,-104.980,-17.578,-14.648,57.617,-3.906
1688816208.427,-172.363,-19.531,-17.578,98.145,28.320
1688816208.432,36.621,-18.555,-14.160,-12.207,-184.082
1688816208.436,141.113,-23.438,-13.184,-69.824,-247.559
1688816208.440,93.262,-34.180,-17.090,-48.340,18.555
1688816208.444,-70.801,-33.691,-25.391,33.691,89.355
1688816208.448,-173.340,-30.762,-23.926,81.543,21.973
1688816208.452,18.066,-36.133,-16.113,-9.277,37.109
1688816208.456,136.230,-37.598,-11.719,-54.199,86.426
1688816208.459,97.168,-32.227,-11.719,-48.340,-81.055
1688816208.463,-50.293,-34.180,-18.555,17.578,-192.383
1688816208.467,-181.152,-34.668,-21.484,95.703,-19.043
1688816208.471,-11.230,-27.344,-18.066,4.883,-21.484
1688816208.475,145.508,-23.926,-13.184,-71.289,-164.551
1688816208.474,129.883,-28.320,-15.137,-58.105,-249.023
1688816208.478,-8.789,-36.621,-22.461,-3.906,-156.250
1688816208.482,-165.039,-37.109,-22.949,69.824,20.020
1688816208.486,-26.367,-32.227,-16.602,-3.906,-28.809
1688816208.490,143.555,-33.203,-16.602,-87.891,-138.184
1688816208.494,122.559,-37.598,-24.414,-82.520,-100.586
1688816208.498,1.953,-41.504,-24.902,-6.836,354.492
1688816208.501,-172.852,-37.598,-21.973,93.262,507.812
1688816208.505,-91.797,-33.203,-26.855,33.203,16.113
1688816208.509,95.215,-34.668,-24.902,-67.871,-140.137
1688816208.513,104.492,-34.180,-22.461,-86.914,-188.965
1688816208.517,-2.930,-40.527,-27.344,-45.898,-233.398
1688816208.536,-187.012,-46.875,-35.156,58.594,-42.480
1688816208.540,-122.070,-41.992,-32.715,40.039,48.828
1688816208.544,85.449,-37.598,-23.926,-62.012,-67.871
1688816208.548,118.164,-32.227,-22.461,-90.332,-137.695
1688816208.552,45.410,-34.180,-24.902,-58.105,-146.484
1688816208.556,-153.320,-44.922,-32.227,54.199,31.738
1688816208.560,-150.879,-41.016,-36.621,59.570,113.770
1688816208.563,75.195,-38.086,-32.715,-52.734,-74.707
1688816208.567,130.371,-40.039,-26.367,-92.285,-255.859
1688816208.571,57.617,-42.480,-27.344,-46.875,-9.277
1688816208.575,-131.836,-36.621,-34.180,59.082,131.348
1688816208.579,-165.527,-30.762,-32.715,70.312,-33.203
1688816208.579,53.223,-29.785,-24.902,-43.945,-66.895
1688816208.583,130.859,-25.391,-22.461,-86.426,-154.297
1688816208.587,68.848,-29.297,-27.832,-54.688,-164.062
1688816208.591,-117.676,-32.715,-34.180,35.645,-52.734
1688816208.595,-190.918,-31.250,-34.668,65.918,11.230
1688816208.599,20.996,-33.203,-34.668,-42.969,35.156
1688816208.603,115.723,-36.621,-37.598,-90.332,-4.395
1688816208.606,62.500,-33.691,-38.086,-58.594,-162.598
1688816208.610,-89.355,-37.109,-38.574,31.250,0.488
1688816208.614,-191.406,-43.457,-35.645,91.797,399.902
1688816208.618,-15.137,-38.086,-32.227,-4.395,157.227
1688816208.622,108.398,-36.133,-32.227,-75.684,-138.184
1688816208.625,75.195,-41.992,-29.785,-53.223,-104.492
1688816208.629,-72.266,-39.551,-27.832,39.062,-125.488
1688816208.633,-197.266,-33.203,-29.785,107.910,-76.660
1688816208.637,-12.695,-26.855,-24.902,20.996,-158.691
1688816208.641,136.230,-28.320,-22.949,-45.898,-238.770
1688816208.645,77.148,-33.691,-27.832,-31.250,-205.078
1688816208.649,-57.129,-37.109,-30.762,27.344,-171.387
1688816208.652,-209.473,-39.551,-33.691,114.746,3.418
1688816208.656,-79.102,-35.645,-28.320,58.105,212.891
1688816208.660,102.539,-26.855,-29.297,-39.062,-8.301
1688816208.664,103.027,-23.438,-28.809,-30.762,-270.996
1688816208.668,-9.277,-24.414,-25.391,33.203,-147.949
1688816208.669,-196.289,-25.391,-29.785,131.836,192.871
1688816208.673,-103.516,-23.926,-32.227,72.754,83.984
1688816208.677,97.168,-28.809,-29.297,-34.668,-194.336
1688816208.681,106.445,-23.926,-29.297,-35.156,-98.145
1688816208.685,2.441,-22.461,-34.668,13.672,6.836
1688816208.689,-175.781,-29.297,-40.039,109.375,53.711
1688816208.693,-116.699,-25.879,-35.645,76.660,13.184
1688816208.696,79.590,-28.809,-30.273,-29.785,-17.090
1688816208.700,110.352,-33.691,-31.738,-42.480,217.285
1688816208.704,24.414,-32.715,-34.180,-11.230,23.926
1688816208.708,-167.969,-35.645,-34.668,86.426,-96.191
1688816208.712,-145.020,-36.133,-30.273,94.727,-2.441
1688816208.716,81.055,-32.715,-22.949,-10.254,-128.418
1688816208.720,127.930,-35.156,-23.926,-44.434,-164.062
1688816208.724,50.293,-37.109,-26.855,-16.602,-149.414
1688816208.728,-129.883,-32.715,-23.926,85.449,62.012
1688816208.732,-155.762,-31.250,-23.926,91.309,57.617
1688816208.736,73.242,-31.250,-21.973,-28.320,-168.457
1688816208.740,157.715,-32.715,-18.066,-58.594,-177.246
1688816208.743,99.121,-34.668,-21.973,-29.785,22.461
1688816208.747,-92.773,-30.273,-31.738,51.270,85.449
1688816208.751,-170.410,-27.832,-35.645,78.613,-48.828
1688816208.755,36.133,-26.855,-31.250,-15.625,-146.484
1688816208.759,143.066,-28.809,-29.297,-70.801,-179.199
1688816208.759,93.262,-34.180,-31.738,-64.453,-171.387
1688816208.763,-81.543,-32.715,-32.715,27.344,-158.203
1688816208.767,-146.484,-31.738,-28.809,61.035,20.508
1688816208.771,39.551,-32.227,-23.438,-39.062,130.371
1688816208.775,126.465,-32.227,-23.438,-91.309,-16.602
1688816208.779,87.891,-30.273,-26.367,-80.078,-73.242
1688816208.783,-62.988,-27.832,-31.738,6.836,145.020
1688816208.786,-206.055,-33.203,-33.203,88.867,492.188
1688816208.790,-41.016,-31.250,-31.250,-8.301,218.750
1688816208.794,115.234,-24.902,-28.320,-92.285,-164.062
1688816208.798,100.098,-28.809,-29.297,-70.801,-155.762
1688816208.802,-36.133,-30.762,-36.621,-11.230,-131.836
1688816208.806,-201.660,-26.855,-37.109,61.523,-58.105
1688816208.810,-64.941,-31.250,-34.180,1.465,-92.285
1688816208.814,115.723,-36.621,-28.320,-83.984,-148.926
1688816208.818,121.094,-28.320,-27.832,-76.660,-116.699
1688816208.822,-12.207,-24.414,-35.156,-20.020,-141.113
1688816208.826,-200.684,-29.297,-35.156,75.684,74.219
1688816208.830,-85.938,-27.832,-29.297,51.758,309.082
1688816208.833,110.840,-20.996,-25.879,-46.387,50.293
1688816208.837,117.676,-23.926,-29.785,-66.406,-193.359
1688816208.841,11.719,-33.203,-30.762,-12.207,-157.715
1688816208.845,-183.105,-36.133,-29.297,92.773,139.648
1688816208.849,-124.023,-31.250,-29.785,53.223,71.777
1688816208.849,96.680,-29.297,-22.461,-63.477,-253.418
1688816208.853,125.488,-31.250,-16.602,-78.125,-311.523
1688816208.857,7.324,-30.762,-21.484,-16.113,-217.773
1688816208.861,-171.387,-27.832,-21.973,84.473,-35.645
1688816208.865,-142.090,-22.949,-17.578,58.105,-64.941
1688816208.869,68.359,-21.973,-17.090,-52.246,-79.102
1688816208.873,119.141,-22.461,-18.066,-72.266,145.508
1688816208.876,35.645,-23.926,-26.367,-54.199,95.703
1688816208.880,-150.391,-33.203,-33.691,52.246,-5.371
1688816208.884,-148.926,-20.020,-28.809,98.145,23.438
1688816208.888,65.430,-5.859,-26.367,-39.551,-120.117
1688816208.892,124.512,-7.324,-32.715,-111.328,-242.188
1688816208.910,72.754,-5.859,-32.227,-73.242,-215.820
1688816208.914,-121.582,-7.812,-38.086,31.738,-93.262
1688816208.918,-202.148,-2.441,-46.875,65.918,-103.027
1688816208.922,12.695,6.348,-48.340,-46.875,-206.055
1688816208.926,112.793,6.348,-47.363,-93.750,-140.625
1688816208.930,56.641,4.883,-51.758,-70.801,32.715
1688816208.934,-105.957,4.395,-60.059,16.113,112.793
1688816208.937,-191.406,9.277,-63.965,62.012,48.340
1688816208.941,10.742,16.113,-63.477,-40.527,-45.898
1688816208.945,114.258,13.672,-61.523,-89.355,54.199
1688816208.949,76.172,20.020,-65.918,-84.473,-46.387
1688816208.953,-62.988,22.461,-75.684,-17.578,-127.441
1688816208.954,-203.613,16.113,-81.055,71.289,17.090
1688816208.958,-42.969,18.555,-81.543,-23.438,11.230
1688816208.962,108.887,23.438,-75.195,-102.051,-140.137
1688816208.966,104.492,21.973,-68.848,-92.285,-192.871
1688816208.970,-26.855,17.090,-72.266,-32.227,-32.715
1688816208.974,-190.918,16.602,-74.707,58.594,291.992
1688816208.978,-52.734,19.531,-75.195,-12.207,95.215
1688816208.981,123.047,18.555,-72.754,-102.539,-264.648
1688816208.985,126.953,14.160,-75.195,-104.004,-156.250
1688816208.989,18.555,15.625,-71.777,-27.344,132.812
1688816208.993,-169.434,16.602,-77.148,62.012,-16.113
1688816208.997,-70.801,14.160,-80.566,0.977,-158.203
1688816208.999,135.742,15.137,-69.824,-88.379,-90.820
1688816209.003,139.648,16.602,-73.730,-104.980,-178.711
1688816209.007,27.832,9.277,-77.148,-61.035,-250.000
1688816209.011,-167.480,6.836,-70.801,43.945,-55.664
1688816209.015,-93.262,14.648,-62.500,15.625,54.688
1688816209.019,123.535,19.043,-60.547,-86.426,-20.020
1688816209.023,143.066,20.020,-59.082,-106.445,-40.039
1688816209.026,65.918,16.602,-59.082,-62.012,-75.684
1688816209.030,-138.184,6.836,-61.035,57.129,199.219
1688816209.034,-123.047,9.766,-65.430,47.852,240.723
1688816209.038,102.051,12.695,-62.988,-76.172,-174.316
1688816209.042,152.344,9.277,-50.293,-98.145,-209.961
1688816209.044,88.379,5.371,-48.828,-62.012,-63.965
1688816209.048,-104.980,2.441,-49.805,41.992,-23.926
1688816209.052,-142.578,0.977,-43.457,53.223,-57.617
1688816209.056,71.289,-3.906,-41.992,-53.223,28.320
1688816209.060,159.668,-7.324,-42.480,-80.078,242.676
1688816209.064,101.074,-5.859,-40.527,-53.711,86.914
1688816209.068,-85.938,-8.301,-42.480,50.781,-13.672
1688816209.071,-152.832,-8.301,-39.551,99.121,87.402
1688816209.075,53.223,-4.395,-28.809,-10.254,239.746
1688816209.079,149.414,-2.930,-35.645,-95.703,-40.039
1688816209.083,112.793,-6.836,-38.574,-84.473,-270.996
1688816209.087,-36.621,-13.672,-37.598,17.090,-108.398
1688816209.091,-146.484,-10.254,-35.156,82.031,-46.387
1688816209.095,33.691,-3.906,-27.344,-16.602,-125.000
1688816209.099,154.785,-3.418,-20.020,-82.520,-166.016
1688816209.103,110.840,-9.277,-15.625,-61.035,-148.438
1688816209.107,-44.434,-14.160,-22.949,18.555,-65.918
1688816209.111,-171.387,-13.184,-27.344,92.285,55.664
1688816209.115,-3.906,-20.020,-27.344,2.930,14.160
1688816209.118,138.672,-20.020,-23.438,-72.754,171.387
1688816209.122,111.328,-12.207,-21.484,-64.941,161.621
1688816209.126,-28.809,-16.113,-30.273,-2.441,-99.609
1688816209.130,-183.105,-20.020,-33.203,83.984,4.395
1688816209.134,-40.527,-17.090,-23.926,16.113,11.719
1688816209.135,134.766,-20.508,-20.996,-67.383,-193.848
1688816209.139,117.676,-29.297,-21.484,-71.289,-260.742
1688816209.143,-13.672,-28.809,-21.973,-8.301,-143.555
1688816209.147,-190.430,-29.785,-29.785,96.191,84.473
1688816209.151,-77.637,-26.367,-27.832,36.621,55.176
1688816209.155,115.234,-23.926,-26.855,-66.406,-30.273
1688816209.159,122.559,-24.414,-29.297,-70.312,20.996
1688816209.162,17.090,-22.949,-27.344,-15.137,287.598
1688816209.166,-164.062,-4.395,-18.555,97.168,272.461
1688816209.170,-44.434,48.828,33.203,111.328,-38.086
1688816209.174,222.168,108.398,95.215,56.152,-95.215
1688816209.178,272.949,139.648,127.930,71.289,-157.715
1688816209.181,209.961,151.855,137.695,123.535,-233.398
1688816209.185,20.508,158.691,139.648,239.258,-49.805
1688816209.189,31.250,156.250,143.555,229.980,126.953
1688816209.193,254.395,150.391,146.973,109.375,-27.344
1688816209.197,296.875,140.625,140.137,82.520,-164.551
1688816209.201,216.309,131.836,136.230,114.258,-83.496
1688816209.205,17.578,125.488,126.953,223.633,330.078
1688816209.208,-19.043,121.582,110.352,225.586,248.535
1688816209.212,195.801,112.793,103.516,83.984,-213.867
1688816209.216,263.672,104.004,97.168,33.691,-244.629
1688816209.220,192.383,97.168,91.309,74.219,94.238
1688816209.224,-5.859,90.820,83.496,164.062,65.430
1688816209.224,-63.477,86.914,76.172,187.500,-130.859
1688816209.228,159.180,80.566,79.590,69.824,-195.312
1688816209.232,241.699,73.242,77.148,17.578,-197.754
1688816209.236,185.547,69.824,70.801,41.016,-48.340
1688816209.240,0.977,72.266,63.965,124.023,-15.137
1688816209.244,-111.816,63.965,57.129,176.270,166.016
1688816209.248,84.473,59.082,60.547,76.172,349.121
1688816209.251,204.102,64.453,53.223,4.883,31.738
1688816209.255,167.480,56.641,44.434,15.625,-246.582
1688816209.259,13.672,53.711,44.434,96.680,-105.469
1688816209.263,-118.652,51.270,40.039,162.109,31.250
1688816209.267,49.316,41.992,36.621,57.129,-34.180
1688816209.273,203.125,37.109,27.832,-30.273,-25.879
1688816209.277,182.129,30.273,29.297,-7.324,39.551
1688816209.281,26.855,24.902,47.363,70.801,-2.441
1688816209.285,-159.668,15.137,47.852,132.812,-20.020
1688816209.289,-30.273,1.953,45.898,36.133,28.320
1688816209.293,146.973,-2.441,57.617,-45.410,85.449
1688816209.297,135.742,-8.789,63.477,-43.457,-20.020
1688816209.300,-4.395,-22.461,60.059,11.230,-157.227
1688816209.304,-202.148,-32.227,62.500,112.305,-46.875
1688816209.308,-94.238,-35.645,70.312,59.082,154.785
1688816209.312,94.727,-35.645,72.754,-47.852,-95.215
1688816209.316,89.844,-44.434,72.266,-62.988,-347.168
1688816209.330,-16.602,-54.199,76.172,2.930,-208.984
1688816209.334,-213.867,-61.523,77.148,117.676,168.945
1688816209.338,-158.691,-66.406,73.730,65.918,100.098
1688816209.342,45.898,-64.453,80.078,-47.852,-92.773
1688816209.346,69.336,-70.801,77.637,-63.965,-107.422
1688816209.350,-29.785,-82.520,69.824,-19.043,201.172
1688816209.354,-231.934,-80.078,60.547,80.078,256.836
1688816209.357,-211.914,-76.660,58.594,64.453,-49.805
1688816209.361,17.578,-76.660,62.988,-44.434,-153.320
1688816209.365,60.547,-71.777,58.105,-59.082,-139.648
1688816209.369,-16.602,-70.801,47.852,-27.832,-225.098
1688816209.373,-196.289,-74.707,39.551,76.660,-70.312
1688816209.374,-212.402,-73.730,36.133,100.586,31.250
1688816209.378,18.066,-62.988,41.992,-8.789,-166.504
1688816209.382,97.168,-55.664,41.016,-48.828,-264.648
1688816209.386,32.227,-56.152,36.133,-8.301,-215.332
1688816209.390,-151.367,-57.129,30.273,105.469,-63.965
1688816209.394,-203.125,-54.688,21.973,132.812,120.605
1688816209.398,7.812,-47.363,20.996,9.766,15.137
1688816209.401,111.816,-46.387,20.020,-32.715,-159.668
1688816209.405,61.523,-45.898,18.555,8.301,58.594
1688816209.409,-117.188,-30.762,19.043,90.820,207.520
1688816209.413,-207.031,-20.508,17.578,132.324,-0.488
1688816209.417,3.906,-25.391,17.090,36.621,-149.414
1688816209.419,125.000,-31.738,14.648,-33.691,-202.637
1688816209.423,76.660,-37.598,5.859,-24.414,-246.582
1688816209.427,-79.590,-39.551,-0.488,48.828,-183.105
1688816209.431,-220.215,-41.504,0.977,111.328,108.398
1688816209.435,-50.781,-41.504,-2.930,24.902,221.680
1688816209.439,107.910,-41.992,-10.742,-52.734,-18.555
1688816209.443,75.684,-40.527,-7.812,-37.598,-143.066
1688816209.446,-71.777,-41.504,-6.836,39.062,7.812
1688816209.450,-216.309,-37.598,-7.812,133.789,306.152
1688816209.454,-69.824,-22.461,-4.883,42.480,115.723
1688816209.458,106.445,-19.531,-1.465,-62.500,-205.566
1688816209.462,100.586,-29.297,-1.465,-56.152,-197.266
1688816209.465,-26.367,-30.273,-4.883,9.766,-124.023
1688816209.469,-212.891,-30.273,-13.672,103.027,-83.008
1688816209.473,-104.492,-23.926,-11.230,41.992,-93.750
1688816209.477,100.098,-20.996,-9.277,-49.316,-144.043
1688816209.481,108.887,-27.344,-15.625,-59.082,-203.613
1688816209.485,-3.418,-24.414,-18.066,-2.930,-60.059
1688816209.489,-193.848,-27.832,-21.973,107.422,106.445
1688816209.492,-118.164,-32.715,-15.625,83.496,279.297
1688816209.496,98.633,-21.973,-8.789,-36.133,124.023
1688816209.500,120.117,-19.043,-13.184,-67.871,-115.234
1688816209.504,22.949,-24.414,-14.160,-23.438,-67.383
1688816209.508,-169.922,-24.414,-12.695,93.262,101.074
1688816209.524,-146.484,-17.578,-12.695,83.008,54.199
1688816209.528,72.266,-14.648,-8.301,-39.062,-111.816
1688816209.532,116.211,-18.555,-8.789,-60.059,-140.625
1688816209.536,33.691,-19.531,-14.648,-28.809,-104.004
1688816209.540,-157.715,-20.508,-22.949,65.918,-34.668
1688816209.544,-180.664,-20.996,-22.949,76.660,-23.926
1688816209.548,22.949,-23.926,-16.602,-36.621,-1.953
1688816209.551,92.773,-33.203,-15.625,-62.500,240.234
1688816209.555,33.203,-30.273,-23.926,-44.922,33.203
1688816209.559,-139.160,-21.484,-23.438,50.293,-68.848
1688816209.563,-190.430,-21.484,-21.973,90.332,49.316
1688816209.567,22.461,-26.367,-20.508,-22.949,-49.316
1688816209.557,119.629,-30.762,-15.137,-60.059,-153.809
1688816209.561,59.082,-31.250,-18.555,-46.387,-208.008
1688816209.565,-110.840,-31.738,-16.113,39.551,9.766
1688816209.569,-204.590,-30.762,-20.020,88.867,39.551
1688816209.573,-14.648,-26.855,-19.043,-15.625,-183.105
1688816209.577,109.375,-34.668,-13.184,-76.172,-99.121
1688816209.581,76.172,-41.992,-10.742,-58.594,29.785
1688816209.584,-81.543,-32.715,-15.137,32.715,34.180
1688816209.588,-201.660,-21.973,-20.508,103.516,-31.738
1688816209.592,-16.113,-27.344,-16.602,12.695,-105.469
1688816209.596,116.699,-33.691,-14.648,-49.316,91.797
1688816209.600,76.172,-26.855,-15.625,-38.574,20.020
1688816209.600,-57.617,-24.414,-12.207,38.086,-136.719
1688816209.604,-205.566,-26.367,-15.137,122.559,-0.977
1688816209.608,-51.758,-23.438,-9.766,33.203,20.996
1688816209.612,107.910,-22.949,-3.418,-49.805,-15.137
1688816209.616,95.215,-22.461,-9.277,-46.875,-162.109
1688816209.620,-16.113,-25.879,-12.695,15.137,-75.684
1688816209.624,-191.895,-28.320,-10.254,118.652,500.000
1688816209.627,-96.191,-22.461,-10.254,54.199,486.816
1688816209.631,92.285,-19.043,-14.648,-57.617,-82.520
1688816209.635,106.445,-21.973,-17.090,-57.617,-204.590
1688816209.639,0.488,-23.926,-20.508,-4.395,-155.762
1688816209.643,-178.711,-21.973,-25.879,94.238,-111.328
1688816209.646,-96.191,-24.902,-23.438,48.828,-110.352
1688816209.650,84.473,-27.344,-17.578,-59.570,-135.254
1688816209.654,89.844,-24.414,-20.996,-72.266,-199.219
1688816209.658,0.977,-24.414,-29.785,-40.527,-197.754
1688816209.662,-194.336,-20.508,-31.738,62.988,46.875
1688816209.666,-162.109,-18.555,-26.367,62.988,314.941
1688816209.670,61.035,-13.184,-23.438,-57.129,124.023
1688816209.673,108.398,-7.812,-26.855,-92.285,-223.145
1688816209.677,37.598,-14.160,-24.414,-44.922,-244.629
1688816209.681,-149.902,-20.508,-21.973,73.242,93.262
1688816209.685,-174.805,-19.043,-24.414,72.266,95.703
1688816209.689,46.875,-16.113,-20.508,-41.992,-161.621
1688816209.705,129.883,-14.648,-18.066,-55.664,-182.129
1688816209.709,62.500,-14.648,-20.508,-35.645,-155.273
1688816209.713,-120.605,-14.648,-21.484,52.734,-36.621
1688816209.717,-168.457,-9.277,-17.578,86.914,9.277
1688816209.721,38.574,-6.836,-14.648,-22.949,-114.746
1688816209.725,128.418,-10.742,-16.602,-62.500,53.223
1688816209.729,75.684,-7.812,-16.113,-51.270,29.297
1688816209.732,-95.215,-13.184,-22.949,37.598,-98.633
1688816209.736,-187.988,-16.113,-24.902,101.074,70.801
1688816209.740,9.277,-16.602,-15.625,-3.906,209.473
1688816209.744,128.906,-15.625,-20.996,-73.730,-128.418
1688816209.748,95.215,-8.301,-22.461,-54.199,-306.152
1688816209.749,-65.918,-9.277,-21.484,35.645,-111.816
1688816209.753,-200.195,-14.160,-25.391,94.727,-56.152
1688816209.757,-17.578,-6.348,-19.531,-9.277,-175.781
1688816209.761,135.254,-11.719,-14.160,-79.590,-206.543
1688816209.765,110.840,-18.555,-11.719,-60.059,-171.387
1688816209.769,-31.738,-13.672,-16.113,8.301,-17.090
1688816209.773,-197.266,-16.113,-28.809,79.102,142.578
1688816209.776,-56.152,-14.160,-30.273,-2.441,2.930
1688816209.780,104.004,-15.625,-22.461,-70.312,131.348
1688816209.784,95.215,-10.742,-21.484,-57.617,102.539
1688816209.788,-18.066,-5.859,-23.926,-0.977,-140.137
1688816209.792,-192.383,-16.113,-27.344,90.332,-58.594
1688816209.794,-90.820,-15.625,-24.902,29.785,53.711
1688816209.798,92.773,-16.113,-26.855,-71.777,-123.047
1688816209.802,107.422,-24.902,-29.297,-72.266,-244.141
1688816209.806,6.348,-26.367,-27.832,4.395,-24.902
1688816209.810,-192.383,-25.879,-31.250,108.887,212.891
1688816209.814,-85.938,-23.926,-32.715,31.738,79.102
1688816209.818,104.492,-22.461,-32.715,-69.336,-80.566
1688816209.821,99.609,-22.461,-31.738,-70.801,-94.727
1688816209.825,21.484,-19.043,-30.762,-26.367,77.148
1688816209.829,-175.781,-14.648,-36.621,80.078,47.363
1688816209.833,-153.809,-14.648,-39.551,61.523,-85.938
1688816209.837,66.895,-20.020,-30.273,-56.152,-33.203
1688816209.839,112.305,-22.461,-31.250,-92.285,-124.023
1688816209.843,36.133,-21.484,-36.133,-56.152,-208.496
1688816209.847,-148.926,-23.438,-33.691,54.688,-71.777
1688816209.851,-168.457,-20.020,-34.668,69.824,2.441
1688816209.855,41.016,-16.113,-37.598,-48.828,-126.953
1688816209.859,100.098,-16.113,-39.062,-81.543,-151.367
1688816209.863,36.133,-21.484,-38.574,-46.875,23.926
1688816209.866,-130.859,-25.879,-35.645,62.500,234.375
1688816209.870,-184.570,-22.461,-41.504,85.449,125.000
1688816209.874,12.207,-18.555,-40.527,-35.156,-135.254
1688816209.878,105.957,-19.043,-32.227,-73.242,-175.781
1688816209.882,55.664,-27.832,-34.668,-50.781,-177.734
1688816209.885,-110.352,-28.809,-39.062,40.527,-70.312
1688816209.889,-193.359,-28.809,-38.574,94.238,59.570
1688816209.893,0.977,-20.508,-30.762,-1.465,106.445
1688816209.897,115.723,-17.090,-24.902,-50.293,233.887
1688816209.901,74.707,-19.531,-33.203,-38.574,-16.113
1688816209.905,-91.309,-24.414,-38.086,34.180,-32.715
1688816209.909,-207.031,-26.855,-36.621,104.980,206.543
1688816209.912,-24.414,-25.391,-31.250,18.066,216.797
1688816209.916,112.305,-27.344,-28.809,-67.871,-69.824
1688816209.920,88.379,-32.227,-31.250,-64.941,-231.445
1688816209.924,-52.246,-31.250,-27.344,13.672,-61.035
1688816209.928,-204.590,-24.902,-27.832,97.656,74.707
1688816209.932,-56.152,-19.531,-30.762,14.160,-29.297
1688816209.936,110.352,-19.043,-26.855,-72.754,-167.480
1688816209.940,94.238,-22.949,-24.902,-63.965,-187.012
1688816209.944,-42.969,-22.461,-28.809,1.953,-109.863
1688816209.948,-212.891,-19.531,-30.273,89.355,-30.273
1688816209.952,-104.980,-13.184,-25.879,33.691,8.789
1688816209.956,81.055,-13.184,-23.438,-45.898,221.680
1688816209.959,90.332,-14.160,-26.855,-56.152,35.645
1688816209.963,-17.578,-9.277,-26.367,-24.414,-196.289
1688816209.967,-192.871,-3.906,-23.926,73.242,-31.738
1688816209.971,-117.188,-7.812,-22.949,44.922,213.379
1688816209.975,73.242,-6.348,-27.344,-62.500,35.156
1688816209.974,96.680,-2.930,-26.855,-73.730,-211.914
1688816209.978,10.742,-13.184,-25.879,-30.762,-149.414
1688816209.982,-174.805,-14.160,-31.738,68.359,22.949
1688816209.986,-144.531,-4.395,-28.320,58.105,147.461
1688816209.990,56.641,-8.789,-29.297,-63.477,-85.449
1688816209.994,90.332,-22.461,-32.715,-94.727,-110.840
1688816209.998,19.043,-25.879,-28.809,-48.828,322.266
1688816210.001,-164.062,-18.066,-30.273,51.270,258.301
1688816210.005,-185.059,-15.625,-34.180,46.387,-101.074
1688816210.009,29.297,-20.996,-31.738,-68.359,-110.840
1688816210.013,96.680,-22.949,-30.273,-95.703,-148.926
1688816210.017,20.508,-27.832,-33.203,-67.871,-257.812
1688816210.021,-162.598,-29.785,-33.203,37.598,-129.883
1688816210.025,-208.984,-24.414,-32.227,78.125,24.414
1688816210.029,-0.488,-23.438,-29.297,-35.156,-67.871
1688816210.033,89.355,-25.879,-23.926,-87.402,-188.477
1688816210.037,45.898,-24.902,-20.020,-62.988,-163.574
1688816210.041,-123.047,-25.879,-20.996,32.227,37.109
1688816210.045,-214.355,-27.344,-20.996,80.566,90.820
1688816210.048,-17.578,-24.414,-17.090,-22.461,-135.742
1688816210.052,101.074,-23.926,-16.113,-72.754,-170.898
1688816210.056,65.430,-30.273,-15.137,-43.945,88.379
1688816210.060,-95.703,-25.391,-20.996,30.762,102.539
1688816210.064,-220.215,-22.949,-26.367,89.355,-85.938
1688816210.079,-36.133,-23.438,-20.996,1.953,-97.656
1688816210.083,108.887,-18.066,-13.672,-70.801,-141.602
1688816210.087,69.824,-22.461,-17.578,-62.012,-167.969
1688816210.091,-79.102,-28.809,-22.949,2.930,-84.473
1688816210.095,-230.469,-23.926,-19.531,85.938,49.316
1688816210.099,-83.496,-19.531,-15.625,18.555,298.340
1688816210.103,83.008,-20.996,-20.020,-82.520,122.559
1688816210.106,68.848,-22.461,-25.391,-81.543,-230.469
1688816210.110,-49.805,-24.414,-21.973,-1.953,-126.953
1688816210.114,-198.242,-21.484,-24.902,101.562,145.020
1688816210.118,-85.938,-17.578,-24.902,42.969,-60.059
1688816210.122,83.984,-19.531,-19.043,-53.711,-207.520
1688816210.124,89.844,-24.414,-20.996,-54.688,-117.676
1688816210.128,-5.859,-21.973,-23.926,2.441,-85.938
1688816210.132,-190.430,-23.438,-28.809,108.398,-74.707
1688816210.136,-123.047,-34.180,-27.344,71.777,-81.055
1688816210.140,86.426,-37.598,-20.020,-28.320,-44.922
1688816210.144,106.934,-36.133,-22.949,-41.504,-92.285
1688816210.148,18.555,-35.156,-29.297,3.906,-127.930
1688816210.151,-162.598,-33.203,-31.738,106.445,-6.836
1688816210.155,-135.742,-33.691,-23.438,92.773,176.758
1688816210.159,75.684,-28.809,-22.949,-24.414,32.227
1688816210.163,112.793,-31.738,-32.227,-58.594,-258.301
1688816210.167,29.297,-37.109,-33.203,-22.949,-214.844
1688816210.170,-164.062,-35.645,-31.738,78.125,20.508
1688816210.174,-182.617,-30.273,-28.320,79.102,46.387
1688816210.178,28.320,-28.809,-23.438,-44.434,-163.574
1688816210.182,99.121,-36.621,-21.973,-77.148,-67.871
1688816210.186,43.945,-38.574,-22.949,-40.039,160.156
1688816210.190,-136.230,-31.250,-23.438,47.363,39.062
1688816210.194,-192.383,-30.273,-23.926,61.523,-128.418
1688816210.197,8.789,-35.645,-20.020,-56.152,-157.715
1688816210.201,94.238,-45.898,-17.578,-85.938,-18.555
1688816210.205,55.664,-36.621,-25.391,-52.734,-171.387
1688816210.209,-110.840,-26.367,-34.180,14.648,-113.281
1688816210.213,-209.473,-29.297,-32.227,41.992,125.977
1688816210.215,-8.301,-25.391,-34.668,-64.453,-47.852
1688816210.219,105.469,-20.996,-39.551,-120.117,-276.367
1688816210.223,65.430,-17.578,-38.574,-104.492,-256.348
1688816210.227,-91.309,-17.090,-44.434,-25.391,-16.113
1688816210.231,-205.566,-5.859,-54.199,35.645,91.797
1688816210.235,-23.438,3.906,-56.641,-54.688,-58.594
1688816210.239,95.703,5.859,-58.105,-125.977,-175.293
1688816210.242,71.289,6.836,-60.547,-112.793,70.312
1688816210.246,-70.801,9.277,-72.266,-49.316,223.145
1688816210.250,-240.234,9.766,-86.914,15.625,-29.297
1688816210.254,-85.449,6.348,-83.496,-57.129,-126.465
1688816210.258,93.262,5.371,-78.613,-123.047,-53.711
1688816210.259,95.703,10.742,-83.496,-120.605,-139.160
1688816210.263,-11.719,10.254,-88.867,-67.871,-228.027
1688816210.267,-183.105,13.672,-88.867,38.086,-23.926
1688816210.271,-89.844,18.555,-83.496,-15.137,76.172
1688816210.275,90.332,21.973,-90.332,-106.445,-169.434
1688816210.279,109.375,23.926,-96.680,-98.633,-225.098
1688816210.283,14.160,19.043,-98.145,-43.457,57.617
1688816210.286,-166.504,12.207,-102.539,65.918,503.906
1688816210.290,-88.867,16.113,-103.516,14.648,263.184
1688816210.294,111.816,20.508,-99.121,-103.516,-218.262
1688816210.298,118.652,21.484,-96.680,-107.422,-234.375
1688816210.302,29.785,24.414,-97.656,-54.199,-228.516
1688816210.306,-146.484,20.508,-98.145,59.082,-103.027
1688816210.310,-103.516,25.391,-93.750,50.781,-77.148
1688816210.314,108.887,21.484,-89.355,-70.801,-102.051
1688816210.318,153.320,13.672,-89.844,-104.492,-198.730
1688816210.322,82.031,10.742,-94.238,-71.777,-250.977
1688816210.326,-109.863,8.789,-94.238,40.039,-51.758
1688816210.330,-118.164,9.766,-90.332,56.152,176.758
1688816210.333,91.797,9.766,-87.402,-62.012,90.332
1688816210.337,146.973,6.836,-81.055,-90.820,-76.172
1688816210.341,88.867,5.859,-78.613,-58.594,-101.074
1688816210.345,-92.773,3.906,-79.590,49.805,149.414
1688816210.349,-143.066,6.348,-80.566,82.520,86.426
1688816210.349,72.266,12.207,-76.172,-40.039,-181.641
1688816210.353,145.508,4.395,-66.406,-87.402,-119.141
1688816210.357,92.773,-6.348,-66.895,-55.664,-22.949
1688816210.361,-76.172,-6.836,-66.895,29.785,-47.363
1688816210.365,-175.293,-7.812,-67.383,80.078,-28.809
1688816210.369,26.855,-11.719,-59.570,-12.207,31.738
1688816210.373,142.578,-13.672,-52.246,-62.988,318.848
1688816210.376,96.680,-12.207,-58.594,-53.711,182.617
1688816210.380,-57.129,-11.719,-56.641,9.766,-82.031
1688816210.384,-164.062,-11.230,-48.828,76.172,58.594
1688816210.388,14.648,-8.301,-50.781,-6.836,11.230
1688816210.392,145.996,-8.301,-49.805,-76.172,-180.176
1688816210.397,113.770,-12.695,-42.969,-60.547,-235.840
1688816210.401,-24.414,-19.531,-42.480,15.137,2.441
1688816210.405,-170.410,-19.531,-42.969,94.238,124.512
1688816210.409,-32.715,-16.602,-39.062,13.672,-127.930
1688816210.413,120.605,-21.484,-37.598,-68.848,-238.281
1688816210.417,111.816,-20.996,-37.598,-72.754,-66.895
1688816210.421,-5.859,-15.137,-38.574,-16.602,45.410
1688816210.424,-176.270,-13.672,-45.410,75.195,19.043
1688816210.428,-69.336,-17.090,-47.852,17.578,-10.254
1688816210.432,113.281,-18.555,-37.109,-70.801,87.891
1688816210.436,112.793,-15.137,-34.668,-86.914,-85.449
1688816210.440,-5.859,-14.160,-43.457,-52.734,-246.094
1688816210.454,-195.801,-16.113,-46.875,53.223,0.977
1688816210.458,-124.023,-15.625,-46.875,25.879,112.305
1688816210.462,83.008,-11.719,-38.574,-72.754,-110.352
1688816210.466,104.980,-9.277,-34.180,-83.984,-152.832
1688816210.470,-2.441,-17.578,-41.992,-38.086,0.977
1688816210.474,-165.039,-22.461,-41.504,68.848,445.801
1688816210.478,-133.301,-20.020,-41.016,42.480,378.906
1688816210.481,54.688,-20.508,-42.969,-73.730,-165.527
1688816210.485,100.586,-18.066,-39.551,-88.867,-164.551
1688816210.489,27.832,-17.578,-43.945,-59.082,-76.172
1688816210.493,-154.785,-20.996,-50.781,33.203,-78.613
1688816210.497,-160.645,-20.508,-47.852,41.992,-56.152
1688816210.499,44.434,-21.973,-46.875,-70.312,-101.562
1688816210.503,104.980,-24.414,-40.527,-94.238,-147.461
1688816210.507,45.410,-24.902,-37.598,-55.176,-161.133
1688816210.511,-145.020,-24.414,-43.457,51.270,-3.906
1688816210.515,-206.543,-21.973,-43.457,83.984,204.590
1688816210.519,9.277,-17.578,-39.551,-56.641,51.758
1688816210.523,104.980,-12.695,-36.133,-114.258,-141.113
1688816210.526,49.316,-9.277,-40.039,-80.078,-148.926
1688816210.530,-122.070,-11.230,-42.480,17.578,135.254
1688816210.534,-200.195,-7.324,-39.551,79.590,111.328
1688816210.538,-5.859,-4.883,-40.039,-22.949,-231.934
1688816210.542,107.910,-7.324,-42.969,-90.332,-224.609
1688816210.544,67.871,-12.207,-46.387,-76.172,-151.367
1688816210.548,-95.215,-16.602,-47.852,1.953,-92.285
1688816210.552,-217.773,-18.555,-49.805,70.801,-40.039
1688816210.556,-33.203,-17.578,-47.852,-14.160,-17.090
1688816210.560,103.516,-16.602,-44.922,-86.426,74.219
1688816210.564,71.777,-18.555,-53.223,-101.562,-37.109
1688816210.568,-54.199,-18.555,-72.754,-42.480,-55.176
1688816210.571,-201.660,-25.391,-70.312,60.547,108.887
1688816210.575,-70.312,-39.062,-47.852,-7.324,120.605
1688816210.579,80.566,-42.480,-41.504,-89.355,-147.461
1688816210.583,73.242,-41.504,-30.273,-78.125,-311.035
1688816210.587,-52.734,-49.805,-20.020,-23.926,-9.766
1688816210.590,-229.980,-52.246,-19.043,67.871,262.207
1688816210.594,-126.953,-50.781,-13.184,-3.906,-16.113
1688816210.598,60.059,-57.617,-1.953,-93.262,-183.105
1688816210.602,72.266,-58.594,7.324,-80.078,-167.480
1688816210.606,-30.762,-60.059,6.348,-30.762,-122.559
1688816210.610,-248.535,-71.777,9.766,70.312,68.359
1688816210.614,-188.477,-78.125,11.719,19.043,-22.949
1688816210.617,25.879,-78.125,17.090,-80.566,78.125
1688816210.621,38.574,-78.613,20.996,-103.516,210.938
1688816210.625,-62.500,-75.684,20.996,-85.938,-113.281
1688816210.629,-251.953,-73.730,18.066,22.949,-83.008
1688816210.633,-218.750,-75.195,21.973,16.113,78.125
1688816210.634,-21.973,-80.078,25.391,-103.027,-114.746
1688816210.638,9.277,-88.379,20.996,-139.648,-247.559
1688816210.642,-62.012,-94.238,14.160,-102.051,-121.582
1688816210.646,-241.699,-92.285,5.371,13.184,118.164
1688816210.650,-248.535,-82.520,-2.930,22.461,107.422
1688816210.654,-29.785,-70.801,-6.348,-94.727,-69.336
1688816210.658,38.086,-69.336,-4.395,-121.094,-81.055
1688816210.661,-23.438,-73.730,-6.836,-70.312,133.301
1688816210.665,-196.777,-66.406,-13.672,28.320,92.773
1688816210.669,-235.840,-58.594,-19.043,45.410,-20.508
1688816210.673,-21.973,-61.035,-22.949,-67.871,-17.090
1688816210.677,66.895,-57.617,-22.461,-111.816,-104.492
1688816210.682,16.602,-49.316,-20.508,-82.520,-210.938
1688816210.686,-156.738,-55.664,-24.902,11.719,-109.375
1688816210.690,-234.375,-59.570,-26.855,69.336,67.871
1688816210.694,-35.645,-53.711,-21.973,-28.809,-56.152
1688816210.698,68.359,-50.781,-20.020,-91.797,-231.445
1688816210.702,33.691,-47.363,-17.578,-75.684,-182.617
1688816210.706,-108.887,-45.410,-17.090,11.719,185.547
1688816210.709,-221.191,-36.621,-24.414,80.566,221.680
1688816210.713,-45.410,-34.180,-24.902,-15.625,-182.129
1688816210.717,88.867,-39.551,-22.949,-81.543,-248.047
1688816210.721,61.523,-38.574,-23.926,-71.777,-103.027
1688816210.725,-77.148,-43.457,-26.855,-0.977,-69.336
1688816210.726,-233.398,-45.898,-32.715,72.754,-1.953
1688816210.730,-90.820,-39.062,-32.715,0.000,-38.574
1688816210.734,77.148,-40.039,-26.855,-69.336,-42.969
1688816210.738,68.848,-43.945,-26.855,-65.918,-48.828
1688816210.742,-41.504,-41.016,-29.297,0.000,-145.020
1688816210.746,-208.496,-41.992,-29.785,96.680,21.973
1688816210.750,-113.770,-39.551,-29.785,33.203,416.016
1688816210.753,64.453,-29.297,-30.273,-85.938,128.418
1688816210.757,78.613,-31.250,-28.320,-100.098,-197.754
1688816210.761,-19.531,-37.598,-22.949,-32.227,-93.750
1688816210.765,-201.660,-35.645,-23.438,66.895,-67.383
1688816210.769,-124.512,-35.645,-23.926,18.066,-135.742
1688816210.784,76.660,-39.551,-20.020,-85.449,-201.172
1688816210.788,86.426,-42.480,-19.531,-89.355,-163.574
1688816210.792,2.441,-39.551,-33.203,-47.363,-112.793
1688816210.796,-181.641,-28.809,-41.504,62.500,-94.238
1688816210.800,-148.926,-26.855,-41.016,50.781,-73.730
1688816210.804,63.477,-34.668,-39.062,-52.246,199.707
1688816210.808,107.422,-28.320,-41.992,-78.125,127.441
1688816210.811,36.621,-14.648,-47.363,-54.688,-231.934
1688816210.815,-151.855,-15.625,-51.758,51.758,-87.402
1688816210.819,-167.480,-21.973,-53.223,67.871,161.133
1688816210.823,44.922,-11.230,-47.363,-46.387,-54.688
1688816210.827,122.070,-9.766,-44.922,-88.867,-236.328
1688816210.829,45.410,-18.555,-46.387,-60.547,-116.211
1688816210.833,-147.949,-19.043,-47.852,44.434,8.789
1688816210.837,-165.527,-19.043,-49.805,67.383,20.020
1688816210.841,30.273,-18.066,-48.340,-41.992,-114.746
1688816210.845,106.445,-18.066,-44.434,-84.473,-153.809
1688816210.849,68.848,-21.973,-46.875,-50.293,214.844
1688816210.853,-104.980,-20.996,-48.828,46.875,202.637
1688816210.856,-179.688,-20.996,-44.922,104.492,2.441
1688816210.860,23.926,-20.996,-37.598,13.184,-17.578
1688816210.864,120.117,-16.113,-35.156,-42.480,95.703
1688816210.868,76.172,-15.137,-38.574,-41.016,-139.160
1688816210.872,-69.336,-20.508,-40.527,32.227,-191.895
1688816210.875,-187.012,-20.020,-43.457,108.887,53.223
1688816210.879,-17.578,-20.508,-45.898,9.766,-36.621
1688816210.883,130.371,-22.949,-46.387,-64.453,-217.773
1688816210.887,112.305,-24.414,-48.340,-41.016,-189.453
1688816210.891,-32.715,-25.879,-49.805,29.785,-31.738
1688816210.895,-174.805,-22.949,-48.828,117.188,114.746
1688816210.899,-33.203,-18.066,-41.992,39.062,-10.742
1688816210.902,124.023,-10.254,-34.668,-48.828,-115.234
1688816210.906,105.469,-13.184,-35.645,-38.086,127.930
1688816210.910,-34.180,-22.461,-41.016,28.809,67.383
1688816210.914,-197.754,-26.367,-45.410,105.469,-83.008
1688816210.918,-78.613,-30.273,-48.340,41.016,-74.219
1688816210.919,95.703,-34.180,-45.898,-42.480,76.172
1688816210.923,90.332,-28.809,-45.410,-53.223,-96.680
1688816210.927,-7.812,-26.855,-45.410,-6.348,-237.793
1688816210.931,-192.383,-33.203,-46.387,104.004,17.578
1688816210.935,-134.766,-34.180,-43.457,59.570,170.898
1688816210.939,69.336,-27.344,-41.992,-61.035,31.250
1688816210.943,102.539,-25.391,-43.945,-75.684,-112.305
1688816210.946,25.391,-26.367,-37.109,-17.090,-10.254
1688816210.950,-169.434,-25.879,-37.598,104.980,316.406
1688816210.954,-145.996,-14.160,-42.480,71.777,146.973
1688816210.958,72.266,-8.789,-36.621,-55.176,-131.836
1688816210.962,106.934,-20.020,-34.180,-71.289,-124.023
1688816210.965,28.809,-21.973,-40.039,-35.156,-113.281
1688816210.969,-156.250,-20.996,-44.922,54.688,-42.480
1688816210.973,-168.945,-21.484,-42.969,60.059,46.875
1688816210.977,37.109,-21.973,-35.645,-50.781,-39.551
1688816210.981,95.215,-26.367,-36.621,-82.031,-153.320
1688816210.985,37.109,-28.809,-45.410,-46.875,-121.582
1688816210.989,-141.602,-28.320,-47.363,56.152,34.668
1688816210.992,-196.777,-23.926,-41.504,87.402,238.281
1688816210.996,10.742,-15.625,-41.992,-40.039,140.625
1688816211.000,100.586,-16.113,-42.969,-91.797,-142.578
1688816211.004,56.152,-20.996,-40.039,-65.918,-222.656
1688816211.008,-109.375,-21.973,-41.992,33.203,-15.625
1688816211.010,-194.824,-18.555,-42.969,87.891,129.883
1688816211.014,2.441,-19.043,-40.527,-28.320,-88.379
1688816211.018,114.258,-20.996,-38.086,-82.520,-146.973
1688816211.022,76.172,-12.207,-34.180,-45.410,129.883
1688816211.026,-81.055,-7.324,-39.062,26.367,15.625
1688816211.030,-211.426,-15.137,-45.898,85.938,-80.078
1688816211.034,-33.691,-16.602,-40.527,1.953,15.137
1688816211.037,100.098,-12.695,-34.180,-58.105,145.020
1688816211.041,63.965,-14.160,-41.016,-59.082,-65.918
1688816211.045,-69.336,-17.578,-42.969,9.277,-198.242
1688816211.049,-221.191,-17.578,-41.504,95.703,-53.223
1688816211.053,-74.219,-14.648,-41.016,16.113,-130.371
1688816211.057,97.168,-15.137,-40.039,-62.988,-247.070
1688816211.061,75.684,-14.160,-40.527,-57.617,-163.086
1688816211.065,-48.828,-8.789,-38.086,4.883,53.223
1688816211.069,-214.844,-7.324,-37.598,94.727,56.641
1688816211.073,-106.934,-7.324,-38.574,34.668,-119.629
1688816211.077,69.824,-12.207,-40.039,-68.359,-104.492
1688816211.081,68.359,-27.344,-39.551,-72.266,107.422
1688816211.084,-42.969,-35.156,-48.340,-27.344,117.188
1688816211.088,-229.980,-36.621,-65.918,57.617,-34.668
1688816211.092,-155.762,-36.621,-59.570,20.996,-83.008
1688816211.096,50.293,-36.133,-49.805,-86.426,-136.719
1688816211.100,77.637,-35.156,-55.176,-107.910,-139.648
1688816211.099,-18.066,-33.691,-53.711,-59.570,-119.629
1688816211.103,-205.078,-40.039,-53.711,57.617,-68.848
1688816211.107,-169.434,-39.062,-52.734,45.898,20.996
1688816211.111,35.156,-34.668,-44.922,-70.312,-101.562
1688816211.115,82.031,-34.668,-46.387,-102.539,-203.613
1688816211.119,14.160,-35.156,-46.387,-73.730,-12.695
1688816211.123,-174.316,-34.668,-42.480,40.527,410.645
1688816211.126,-182.129,-22.461,-42.480,60.059,382.324
1688816211.130,36.133,-13.672,-42.969,-59.082,-86.426
1688816211.134,98.145,-14.160,-40.527,-93.750,-208.008
1688816211.138,40.039,-14.648,-40.527,-59.570,-171.387
1688816211.142,-130.859,-12.695,-38.574,40.527,-68.359
1688816211.146,-175.781,-7.812,-34.180,75.195,-14.160
1688816211.150,43.945,-2.930,-23.926,-28.809,-89.844
1688816211.154,125.000,-2.930,-24.414,-78.125,-141.113
1688816211.158,66.406,-9.766,-29.785,-58.594,-119.141
1688816211.162,-90.332,-16.602,-32.715,12.695,-29.297
1688816211.166,-179.688,-15.137,-32.715,54.688,154.297
1688816211.170,-0.977,-9.766,-29.785,-48.340,33.203
1688816211.173,111.816,-0.977,-26.855,-98.633,-123.047
1688816211.177,79.102,1.465,-27.832,-77.148,-198.242
1688816211.181,-76.660,-8.301,-33.691,11.230,116.699
1688816211.185,-197.754,-5.859,-37.109,82.520,269.043
1688816211.189,-30.762,-2.441,-31.738,-20.996,-108.398
1688816211.204,106.934,-9.766,-24.902,-103.027,-238.770
1688816211.208,94.238,-7.812,-25.391,-87.402,-125.000
1688816211.212,-55.664,-9.277,-32.227,8.301,-42.480
1688816211.216,-202.637,-13.672,-35.156,88.379,41.504
1688816211.220,-47.363,-15.137,-26.367,6.348,31.250
1688816211.224,117.676,-17.090,-19.531,-62.012,219.238
1688816211.228,104.004,-12.207,-19.043,-72.754,35.156
1688816211.231,-25.879,-15.137,-22.461,-16.113,-231.445
1688816211.235,-201.172,-22.949,-28.320,86.426,15.137
1688816211.239,-91.309,-20.020,-26.367,20.508,123.535
1688816211.243,89.844,-20.508,-30.273,-88.379,-136.230
1688816211.247,76.660,-26.855,-41.016,-106.934,-265.625
1688816211.251,-33.203,-27.344,-41.504,-46.875,-83.008
1688816211.255,-210.449,-20.996,-39.062,66.406,42.969
1688816211.259,-138.184,-15.137,-39.062,14.648,-86.914
1688816211.263,61.035,-13.672,-34.668,-93.750,-177.734
1688816211.267,87.891,-13.184,-28.809,-98.633,-125.000
1688816211.271,2.930,-20.508,-34.180,-58.105,-42.480
1688816211.275,-196.777,-21.973,-40.527,48.828,34.668
1688816211.278,-177.246,-19.531,-37.109,32.715,1.465
1688816211.282,30.762,-25.879,-32.227,-74.707,61.035
1688816211.286,76.660,-20.020,-30.762,-96.680,-21.973
1688816211.290,-9.277,-12.695,-34.668,-59.570,-220.703
1688816211.294,-191.895,-20.508,-36.621,42.969,-42.969
1688816211.309,-197.754,-23.926,-33.691,45.898,111.328
1688816211.313,13.672,-15.625,-29.785,-79.102,-117.188
1688816211.317,81.543,-13.184,-22.949,-113.770,-295.898
1688816211.321,22.461,-14.648,-21.973,-78.125,-196.777
1688816211.325,-154.297,-11.230,-30.273,20.508,-26.855
1688816211.329,-201.660,-10.742,-32.227,56.641,80.078
1688816211.333,0.000,-15.137,-30.762,-55.664,7.324
1688816211.336,93.262,-22.461,-32.227,-104.004,-69.336
1688816211.340,50.293,-31.738,-31.738,-73.242,149.902
1688816211.344,-125.488,-29.297,-35.156,4.395,85.449
1688816211.348,-213.379,-28.320,-34.668,43.945,-62.988
1688816211.352,-13.184,-29.785,-25.391,-54.199,-47.363
1688816211.340,110.352,-25.391,-21.484,-111.816,-119.141
1688816211.344,74.707,-25.391,-27.344,-102.539,-180.664
1688816211.348,-86.426,-23.926,-27.832,-9.766,-4.883
1688816211.352,-205.566,-14.160,-18.066,78.613,206.055
1688816211.356,-17.578,2.441,-2.930,-1.465,73.730
1688816211.360,137.207,11.719,3.906,-65.430,-178.711
1688816211.364,112.793,13.672,5.371,-58.105,-98.633
1688816211.367,-31.250,13.184,3.418,16.113,137.695
1688816211.371,-179.199,12.695,1.953,104.004,76.660
1688816211.375,-17.578,18.555,7.812,25.879,-142.090
1688816211.379,149.414,18.066,13.672,-55.176,-196.289
1688816211.383,124.023,10.254,16.602,-37.109,-7.324
1688816211.384,-4.395,10.254,5.371,18.066,43.457
1688816211.388,-172.852,11.719,-3.418,105.469,-58.105
1688816211.392,-52.246,12.207,-0.488,55.664,-62.500
1688816211.396,133.789,13.672,0.977,-33.203,171.875
1688816211.400,127.930,14.160,-5.859,-51.270,94.238
1688816211.404,23.926,10.254,-9.766,-10.254,-165.039
1688816211.408,-148.926,10.254,-11.719,105.957,111.328
1688816211.411,-71.289,14.648,-11.719,86.426,364.746
1688816211.415,125.000,16.113,-14.160,-24.414,5.859
1688816211.419,148.926,7.812,-17.090,-42.969,-232.422
1688816211.423,72.266,2.441,-19.043,3.418,-162.109
1688816211.427,-111.328,-2.441,-20.996,110.840,-59.570
1688816211.431,-87.402,-3.906,-18.066,94.727,-114.746
1688816211.435,120.605,-4.395,-13.184,-21.484,-204.590
1688816211.439,162.598,-6.348,-6.348,-35.645,-174.805
1688816211.443,82.031,2.441,-5.371,6.348,-245.117
1688816211.447,-103.027,3.906,-5.371,101.562,-193.359
1688816211.451,-111.328,0.488,-2.930,113.281,54.688
1688816211.455,99.121,-1.953,-1.465,5.859,222.656
1688816211.458,163.086,-4.395,-7.324,-32.715,91.309
1688816211.462,102.051,-0.977,-15.137,-9.277,-173.340
1688816211.466,-72.754,-0.488,-20.020,99.609,-90.332
1688816211.470,-122.559,-0.977,-20.996,139.160,146.973
1688816211.474,78.125,1.953,-21.484,6.348,-23.926
1688816211.504,164.062,0.977,-17.090,-49.316,-205.078
1688816211.508,104.980,-6.836,-15.137,-19.531,-146.484
1688816211.512,-64.941,-10.254,-15.625,82.520,5.371
1688816211.516,-146.973,-6.348,-17.578,147.949,133.301
1688816211.520,46.875,-3.906,-16.113,37.598,1.465
1688816211.524,161.133,-6.348,-14.648,-29.297,-61.523
1688816211.528,120.605,-7.812,-17.090,-3.906,314.453
1688816211.531,-38.574,-7.324,-21.973,70.312,292.480
1688816211.535,-142.578,-10.742,-21.973,135.742,26.367
1688816211.539,31.738,-3.418,-13.184,42.969,46.387
1688816211.543,149.902,0.000,-15.137,-35.156,-18.066
1688816211.547,126.953,-2.441,-20.996,-27.832,-162.109
1688816211.552,-1.465,-1.465,-21.973,40.527,-114.746
1688816211.556,-159.180,-4.883,-22.461,125.488,77.148
1688816211.560,-35.156,-3.418,-15.137,43.457,-5.859
1688816211.564,124.023,0.488,-9.766,-50.781,-243.652
1688816211.568,115.234,-3.418,-13.184,-38.086,-225.098
1688816211.572,-5.371,-16.602,-17.578,41.016,38.574
1688816211.576,-162.598,-18.555,-17.090,136.719,200.195
1688816211.579,-62.500,-12.695,-16.602,72.266,-31.250
1688816211.583,105.957,-11.230,-15.137,-31.250,-234.375
1688816211.587,113.770,-11.719,-13.672,-42.480,-88.379
1688816211.591,7.812,-20.020,-23.926,4.883,-70.312
1688816211.595,-165.039,-27.832,-33.691,112.305,-38.086
1688816211.579,-88.379,-19.043,-32.715,77.148,6.348
1688816211.583,93.262,-22.949,-29.297,-44.922,130.371
1688816211.587,104.004,-25.391,-36.133,-74.219,-0.977
1688816211.591,19.043,-17.090,-36.621,-34.668,-173.828
1688816211.595,-161.133,-18.066,-30.273,85.449,58.594
1688816211.599,-127.930,-19.043,-28.320,78.613,266.113
1688816211.603,84.961,-7.324,-28.320,-55.664,-21.484
1688816211.606,128.906,-6.348,-24.902,-83.008,-280.273
1688816211.610,65.430,-9.277,-20.508,-41.992,-161.133
1688816211.614,-107.910,-9.277,-22.949,62.012,14.648
1688816211.618,-128.906,-17.090,-24.414,64.941,-27.832
1688816211.622,67.871,-24.902,-22.461,-58.594,-235.352
1688816211.625,124.512,-28.320,-20.508,-86.914,-122.070
1688816211.629,65.918,-28.809,-21.973,-50.781,320.801
1688816211.633,-99.121,-23.438,-24.902,54.199,403.809
1688816211.637,-151.367,-26.367,-29.297,78.613,63.965
1688816211.641,40.039,-33.691,-29.785,-56.152,-151.367
1688816211.645,119.141,-27.344,-22.949,-114.746,-191.895
1688816211.649,79.102,-22.461,-20.508,-103.027,-171.875
1688816211.652,-70.801,-23.926,-21.484,-14.648,-78.125
1688816211.656,-147.949,-24.414,-22.949,45.898,215.820
1688816211.660,30.273,-25.391,-26.855,-71.777,16.602
1688816211.664,137.207,-20.996,-25.879,-150.879,-319.336
1688816211.668,106.445,-20.996,-23.926,-134.766,-280.273
1688816211.669,-40.039,-25.391,-23.926,-50.781,-107.910
1688816211.673,-150.879,-25.391,-30.273,17.090,-30.762
1688816211.677,8.789,-27.344,-27.344,-80.566,-177.734
1688816211.681,137.695,-25.879,-19.043,-152.832,-180.664
1688816211.685,109.863,-24.902,-21.484,-142.578,58.594
1688816211.689,-20.020,-19.531,-25.879,-63.477,66.406
1688816211.693,-144.043,-14.648,-23.926,25.391,13.672
1688816211.696,-11.719,-21.973,-19.043,-56.641,-44.434
1688816211.700,132.812,-24.902,-16.113,-135.254,84.473
1688816211.704,112.305,-19.531,-18.555,-143.066,-56.152
1688816211.708,4.395,-21.484,-23.926,-76.172,-229.492
1688816211.712,-150.391,-25.391,-23.438,48.828,-102.539
1688816211.731,-70.801,-24.902,-23.926,-14.648,-115.723
1688816211.735,90.332,-28.320,-23.926,-131.348,-225.098
1688816211.739,91.797,-35.645,-20.020,-139.648,-291.016
1688816211.743,-2.930,-38.086,-20.020,-79.102,-167.969
1688816211.747,-163.086,-34.668,-26.855,41.504,32.227
1688816211.751,-98.633,-29.785,-29.297,7.324,0.977
1688816211.755,71.777,-29.297,-23.926,-114.258,-110.840
1688816211.758,88.379,-36.621,-22.461,-121.582,144.043
1688816211.762,4.883,-36.133,-25.879,-60.059,226.074
1688816211.766,-159.668,-31.250,-29.785,63.477,-4.395
1688816211.770,-124.512,-27.832,-28.809,57.617,-36.133
1688816211.774,55.664,-25.879,-22.461,-61.523,-125.000
1688816211.759,84.961,-24.414,-23.926,-81.055,-239.258
1688816211.763,17.090,-21.484,-27.344,-41.504,-217.285
1688816211.767,-146.484,-21.484,-20.996,88.379,-33.691
1688816211.771,-152.344,-20.020,-19.531,112.793,89.844
1688816211.775,37.598,-20.508,-23.438,-15.625,-62.988
1688816211.779,96.191,-17.578,-21.484,-53.711,-143.555
1688816211.783,46.387,-17.090,-16.602,-19.043,-25.391
1688816211.786,-89.355,-14.160,-13.184,107.910,72.266
1688816211.790,-125.488,-7.812,-12.207,151.367,19.531
1688816211.794,43.945,-0.977,-8.789,19.043,-168.945
1688816211.798,120.117,1.953,-2.930,-29.785,-146.973
1688816211.802,82.520,-1.953,0.977,1.953,41.504
1688816211.821,-56.152,4.395,-0.977,101.562,-78.613
1688816211.825,-130.371,8.789,-0.977,161.621,-116.211
1688816211.829,23.438,3.418,5.371,48.340,25.391
1688816211.833,115.234,3.906,6.348,-13.672,133.789
1688816211.837,84.961,13.184,-0.488,-0.488,-145.508
1688816211.841,-50.293,5.371,-3.418,93.262,-112.305
1688816211.845,-151.855,-3.906,1.465,184.570,316.406
1688816211.848,-4.883,3.418,7.324,63.965,164.062
1688816211.852,105.957,3.906,3.906,-34.180,-207.031
1688816211.856,90.332,-4.395,-0.488,-15.137,-225.098
1688816211.860,-28.809,-8.789,0.488,67.871,-98.633
1688816211.864,-159.180,-6.348,-3.418,159.180,37.598
1688816211.864,-35.156,-2.441,-2.441,68.848,-165.039
1688816211.868,107.422,-0.977,0.488,-27.832,-278.320
1688816211.872,101.562,2.441,-2.441,-24.414,-76.660
1688816211.876,-6.836,6.836,-3.906,52.246,2.441
1688816211.880,-142.578,6.348,-3.418,163.574,-14.160
1688816211.884,-38.574,0.977,-2.441,97.656,42.969
1688816211.888,106.445,-5.859,-6.348,-11.719,42.969
1688816211.891,95.215,-13.184,-11.719,-27.832,-172.363
1688816211.895,6.836,-19.043,-15.625,31.738,-220.215
1688816211.899,-122.559,-9.277,-18.066,165.039,97.168
1688816211.903,-63.965,-1.953,-19.531,126.953,426.758
1688816211.907,88.379,0.977,-20.996,-18.555,62.500
1688816211.897,111.816,4.883,-30.273,-45.898,-211.426
1688816211.901,38.574,1.953,-37.598,4.883,82.031
1688816211.905,-121.094,-1.465,-47.852,118.164,141.113
1688816211.909,-98.145,1.953,-56.152,92.773,-59.082
1688816211.913,84.961,5.859,-58.594,-41.504,-204.102
1688816211.917,125.000,5.859,-66.895,-78.125,-79.590
1688816211.921,46.387,2.930,-74.707,-40.039,-3.418
1688816211.924,-117.676,7.324,-81.055,78.613,-49.805
1688816211.928,-127.441,8.789,-84.961,95.215,-9.766
1688816211.932,54.199,6.836,-83.008,-26.367,113.281
1688816211.936,109.375,13.184,-80.078,-74.707,0.977
1688816211.940,59.082,16.113,-84.473,-49.316,-220.703
1688816211.955,-70.801,17.578,-89.844,72.266,-34.180
1688816211.959,-118.164,24.414,-88.379,105.469,112.793
1688816211.963,39.062,25.391,-83.008,-22.461,-12.207
1688816211.967,117.188,20.508,-87.891,-67.383,-81.055
1688816211.971,71.289,21.973,-88.379,-38.574,-32.715
1688816211.975,-71.289,25.391,-83.984,62.500,447.266
1688816211.979,-137.695,31.738,-84.473,105.957,473.145
1688816211.982,40.039,33.691,-83.496,-20.996,-40.039
1688816211.986,142.090,31.738,-77.637,-86.914,-209.473
1688816211.990,112.305,28.320,-78.613,-67.871,-208.984
1688816211.994,-13.184,23.438,-84.473,33.691,-177.734
1688816211.998,-122.559,23.438,-81.055,110.840,-104.492
1688816211.999,25.391,23.438,-73.730,0.000,-74.707
1688816212.003,153.320,21.484,-76.172,-78.613,-174.316
1688816212.007,129.395,20.996,-74.707,-56.152,-270.508
1688816212.011,10.254,19.531,-66.895,32.715,-191.406
1688816212.015,-117.188,18.066,-64.453,134.277,-22.461
1688816212.019,5.859,15.625,-56.152,53.223,0.488
1688816212.023,151.367,9.277,-49.805,-47.363,-156.250
1688816212.026,138.672,6.836,-49.805,-49.805,-215.820
1688816212.030,20.508,2.441,-51.270,26.367,94.727
1688816212.034,-134.277,3.418,-57.129,130.859,265.625
1688816212.038,-35.156,10.254,-61.523,42.969,-59.570
1688816212.042,126.953,3.418,-52.246,-70.312,-203.613
1688816212.044,127.441,0.977,-45.898,-67.871,-187.988
1688816212.048,40.039,4.395,-48.340,-8.789,-181.152
1688816212.052,-123.535,-3.418,-50.781,113.770,-51.270
1688816212.056,-75.195,-5.371,-49.805,76.660,32.227
1688816212.060,93.750,0.000,-46.387,-60.059,30.762
1688816212.064,112.793,-6.836,-48.340,-95.215,-51.758
1688816212.068,37.109,-13.672,-47.363,-41.016,-72.266
1688816212.071,-123.047,-15.625,-43.945,93.262,21.484
1688816212.075,-95.215,-12.207,-44.434,83.496,90.332
1688816212.079,94.727,-8.789,-41.016,-53.223,-138.672
1688816212.083,139.648,-5.859,-33.691,-82.520,-228.516
1688816212.087,67.383,-7.324,-30.273,-34.668,-72.266
1688816212.090,-99.121,-5.371,-34.668,83.008,51.270
1688816212.094,-103.516,-1.953,-35.645,100.586,25.879
1688816212.098,80.566,-7.324,-33.691,-25.879,-139.648
1688816212.102,117.188,-11.719,-32.715,-77.637,-77.637
1688816212.106,62.012,-11.719,-36.621,-39.551,45.410
1688816212.110,-98.633,-11.230,-42.480,71.777,37.598
1688816212.114,-144.043,-9.277,-38.574,119.141,106.934
1688816212.117,38.574,-12.207,-31.250,-1.465,147.461
1688816212.121,102.539,-17.090,-34.668,-79.102,11.230
1688816212.125,57.617,-19.043,-38.086,-56.152,-204.590
1688816212.129,-90.332,-28.320,-40.039,53.223,-45.410
1688816212.133,-165.039,-29.297,-40.039,115.234,184.570
1688816212.149,4.883,-21.484,-33.203,-3.418,-70.801
1688816212.153,109.375,-28.809,-34.668,-81.543,-283.691
1688816212.157,73.730,-32.715,-39.062,-80.078,-225.586
1688816212.161,-78.613,-26.855,-39.551,5.859,-58.594
1688816212.165,-188.477,-27.344,-39.551,92.773,66.406
1688816212.169,-30.762,-27.832,-32.227,-9.277,-81.055
1688816212.173,93.262,-27.344,-28.320,-94.238,-146.484
1688816212.176,70.312,-31.738,-27.832,-68.359,148.926
1688816212.180,-52.246,-24.902,-30.762,10.254,82.520
1688816212.184,-187.012,-18.066,-26.855,94.238,-98.633
1688816212.188,-52.246,-15.137,-18.555,20.020,-105.957
1688816212.192,100.098,-15.137,-14.160,-79.590,-132.812
1688816212.183,87.402,-16.602,-12.207,-84.961,-170.410
1688816212.187,-35.645,-10.254,-25.879,-18.555,-127.441
1688816212.191,-178.711,-10.254,-33.203,100.098,73.242
1688816212.195,-78.125,-19.531,-20.508,53.711,75.195
1688816212.199,65.430,-27.344,-16.602,-72.266,-102.051
1688816212.203,57.129,-33.691,-10.254,-86.914,-20.020
1688816212.207,-36.621,-45.898,-1.465,-22.461,208.008
1688816212.210,-195.312,-52.734,2.930,90.820,160.156
1688816212.214,-146.973,-54.199,6.348,36.133,-47.363
1688816212.218,30.762,-58.105,11.719,-85.938,-225.098
1688816212.222,58.594,-70.801,20.996,-78.613,-17.090
1688816212.226,-26.855,-71.289,17.578,-31.250,8.301
1688816212.239,-209.473,-64.941,17.578,83.008,-85.449
1688816212.243,-195.312,-64.453,27.344,82.031,-21.973
1688816212.247,-1.953,-68.359,30.762,-41.016,-99.609
1688816212.251,37.109,-68.359,30.273,-67.871,-173.828
1688816212.255,-45.410,-67.383,33.203,-34.180,-168.945
1688816212.259,-226.074,-76.172,33.691,76.660,42.480
1688816212.263,-243.164,-77.148,35.645,100.098,459.961
1688816212.266,-47.363,-71.289,41.504,-23.926,319.824
1688816212.270,19.043,-73.242,38.574,-79.590,-173.828
1688816212.274,-33.691,-72.754,31.250,-51.758,-215.332
1688816212.278,-194.824,-67.383,27.832,51.270,-118.164
1688816212.282,-237.305,-65.430,23.926,84.473,-99.609
1688816212.271,-34.180,-65.430,22.461,-30.273,-187.012
1688816212.275,42.480,-68.359,20.508,-89.844,-165.527
1688816212.279,-12.695,-66.895,21.973,-67.871,-166.992
1688816212.283,-154.297,-68.359,17.578,38.574,-166.504
1688816212.287,-227.539,-69.824,15.625,107.910,-33.203
1688816212.291,-45.898,-62.988,21.973,1.953,93.750
1688816212.295,59.082,-57.617,14.160,-77.148,27.832
1688816212.298,12.695,-53.711,8.789,-71.289,-133.301
1688816212.302,-127.441,-50.781,7.324,27.344,-70.312
1688816212.306,-241.211,-56.152,-1.953,116.211,276.855
1688816212.310,-94.238,-51.270,-5.859,13.184,119.629
1688816212.314,39.551,-42.480,-4.883,-75.195,-276.855
1688816212.329,22.949,-40.527,-2.930,-61.035,-197.754
1688816212.333,-92.773,-45.410,-0.977,30.273,8.301
1688816212.337,-227.051,-41.504,-6.836,116.211,15.137
1688816212.341,-108.887,-32.227,-8.301,31.738,-72.266
1688816212.345,36.133,-32.227,-5.859,-65.430,-56.641
1688816212.349,34.180,-35.645,-1.953,-65.430,158.691
1688816212.353,-65.430,-34.180,-0.977,7.324,85.449
1688816212.356,-225.098,-33.691,-5.859,113.770,-58.594
1688816212.360,-130.371,-30.273,-7.324,54.199,-46.875
1688816212.364,40.527,-27.344,-3.906,-42.480,65.430
1688816212.368,41.504,-25.391,-8.301,-49.805,-148.926
1688816212.372,-52.734,-28.320,-15.625,-2.930,-256.348
1688816212.374,-208.496,-29.785,-18.066,102.539,-17.578
1688816212.378,-136.719,-17.578,-12.695,72.754,-21.973
1688816212.382,62.988,-2.441,3.418,-24.414,-222.656
1688816212.386,103.516,2.930,14.160,-25.879,-241.211
1688816212.390,34.180,0.488,20.508,26.855,-53.711
1688816212.394,-133.789,1.465,18.066,142.578,-7.812
1688816212.398,-100.098,6.836,19.531,131.348,-58.594
1688816212.401,101.562,9.277,24.902,2.441,-130.859
1688816212.405,132.812,9.277,21.973,-20.996,5.859
1688816212.409,64.453,15.625,20.020,16.113,90.332
1688816212.413,-92.773,18.555,18.066,121.582,14.160
1688816212.417,-109.863,18.066,20.020,141.602,-4.883
1688816212.419,80.078,21.484,28.809,19.043,-78.125
1688816212.423,137.695,18.066,27.344,-16.602,-165.039
1688816212.427,79.590,9.766,20.996,8.301,-189.453
1688816212.431,-68.848,6.348,13.672,105.957,7.812
1688816212.435,-124.512,9.277,11.719,144.531,210.449
1688816212.439,48.340,9.766,13.184,2.441,69.824
1688816212.443,144.043,7.324,9.766,-60.059,-50.781
1688816212.446,106.934,2.441,6.348,-25.391,-119.141
1688816212.450,-54.688,-0.488,3.418,77.148,149.414
1688816212.454,-136.230,11.719,0.000,129.883,116.699
1688816212.458,45.898,10.254,-0.488,20.508,-156.250
1688816212.462,156.250,4.395,-1.953,-47.363,-170.410
1688816212.467,126.465,5.371,-6.348,-33.203,-192.383
1688816212.471,-9.766,0.488,-7.324,49.316,-121.094
1688816212.475,-138.672,0.000,-9.277,121.582,-3.418
1688816212.479,0.488,-5.371,-6.348,36.621,67.383
1688816212.483,136.230,-12.207,-2.930,-48.340,-53.223
1688816212.487,123.535,-8.789,-5.371,-46.387,-161.133
1688816212.491,-8.301,-9.277,-8.789,28.320,-3.906
1688816212.494,-149.414,-11.230,-10.742,114.746,315.918
1688816212.498,-25.391,-5.859,-12.695,38.086,184.082
1688816212.502,121.094,1.465,-8.789,-57.129,-230.957
1688816212.506,111.816,-4.395,-10.742,-63.477,-200.195
1688816212.510,-4.395,-10.742,-14.160,-1.953,-22.949
1688816212.510,-152.832,-4.883,-19.043,100.586,50.293
1688816212.514,-39.551,-2.930,-22.949,50.781,-55.176
1688816212.518,122.070,-5.859,-17.578,-43.457,-102.539
1688816212.522,123.047,-3.418,-20.020,-55.664,-40.039
1688816212.526,35.156,-1.953,-23.926,-10.742,-51.270
1688816212.530,-129.395,-4.883,-29.297,95.703,54.199
1688816212.534,-71.289,-1.465,-27.832,58.105,86.426
1688816212.537,98.145,-1.465,-23.926,-49.316,201.172
1688816212.541,109.375,-0.488,-23.438,-60.547,160.156
1688816212.545,37.109,2.930,-26.855,-27.832,-161.133
1688816212.549,-134.766,-3.906,-27.344,85.449,-76.660
1688816212.553,-124.512,-8.789,-20.996,79.590,-48.340
1688816212.569,76.660,-2.930,-12.207,-43.945,-250.488
1688816212.573,120.605,2.441,-11.230,-69.336,-269.531
1688816212.577,52.246,0.488,-15.137,-24.414,-157.227
1688816212.581,-122.070,1.465,-15.625,91.309,-105.957
1688816212.585,-148.438,-1.953,-13.672,106.445,-44.922
1688816212.589,46.387,-2.930,-16.602,-21.484,-20.996
1688816212.593,112.793,-0.488,-20.996,-64.941,237.793
1688816212.596,49.805,-0.977,-20.996,-41.016,373.047
1688816212.600,-117.188,-3.418,-21.973,44.922,101.074
1688816212.604,-164.551,-3.418,-22.949,81.543,-10.254
1688816212.608,23.438,-2.930,-20.996,-33.691,-87.402
1688816212.612,105.469,-8.789,-24.414,-96.191,-181.152
1688816212.599,62.012,-12.695,-24.902,-82.031,-207.031
1688816212.603,-94.727,-14.648,-21.973,20.508,-133.789
1688816212.607,-187.500,-18.555,-27.832,87.402,-8.789
1688816212.611,-11.719,-18.555,-26.367,-25.879,-82.031
1688816212.615,105.469,-19.531,-23.438,-94.727,-198.730
1688816212.619,78.613,-23.926,-23.926,-69.824,-125.488
1688816212.623,-62.500,-24.414,-24.902,25.391,203.613
1688816212.626,-183.594,-18.066,-25.879,97.656,204.102
1688816212.630,-21.973,-13.184,-27.832,-10.254,-100.586
1688816212.634,105.469,-13.672,-22.949,-86.914,-168.457
1688816212.638,66.895,-15.137,-17.578,-62.500,148.926
1688816212.642,-58.105,-9.277,-25.391,9.277,63.965
1688816212.646,-193.848,-12.695,-31.250,102.539,-80.078
1688816212.650,-62.988,-17.578,-30.273,30.762,-11.719
1688816212.654,92.285,-14.160,-25.879,-72.266,-120.117
1688816212.658,88.379,-10.742,-22.461,-68.848,-248.535
1688816212.662,-17.578,-13.184,-24.902,0.488,-188.965
1688816212.666,-168.457,-22.949,-27.832,109.375,140.625
1688816212.670,-83.984,-19.531,-27.344,41.016,116.211
1688816212.673,77.637,-11.230,-27.344,-83.496,-158.203
1688816212.677,92.285,-19.043,-28.809,-89.844,-201.172
1688816212.681,-0.488,-27.344,-24.902,-29.297,170.410
1688816212.685,-174.805,-22.949,-24.414,82.520,283.203
1688816212.689,-119.141,-21.484,-25.879,38.574,-93.262
1688816212.704,62.988,-26.367,-22.461,-81.543,-246.582
1688816212.708,88.379,-29.297,-27.344,-93.262,-215.820
1688816212.712,13.184,-29.297,-29.785,-44.434,-162.109
1688816212.716,-162.109,-24.902,-28.320,63.965,-62.012
1688816212.720,-136.230,-21.484,-24.414,62.500,75.684
1688816212.724,56.152,-24.902,-20.508,-54.688,275.879
1688816212.728,88.379,-25.879,-24.414,-106.934,34.668
1688816212.731,24.902,-26.367,-38.086,-83.984,-168.945
1688816212.735,-143.555,-30.273,-56.641,39.062,79.102
1688816212.739,-164.551,-31.250,-64.453,61.523,268.555
1688816212.743,33.203,-27.832,-62.500,-61.523,-29.785
1688816212.747,87.402,-28.809,-59.082,-99.121,-232.910
1688816212.749,34.180,-28.809,-60.547,-67.383,-98.633
1688816212.753,-113.281,-27.344,-61.523,39.062,36.133
1688816212.757,-169.434,-26.855,-59.570,68.848,25.391
1688816212.761,16.602,-28.320,-60.059,-53.711,-52.734
1688816212.765,103.516,-28.809,-51.758,-100.586,-67.871
1688816212.769,49.316,-32.715,-48.340,-83.496,-23.926
1688816212.773,-108.398,-33.203,-52.734,12.695,59.082
1688816212.776,-199.219,-33.203,-49.805,81.543,109.375
1688816212.780,-18.555,-34.668,-45.410,-22.949,73.730
1688816212.784,88.867,-27.832,-45.410,-98.145,-124.512
1688816212.788,59.082,-25.879,-41.504,-76.660,-233.887
1688816212.792,-70.312,-32.227,-41.992,17.090,-138.184
1688816212.795,-193.848,-34.180,-43.457,106.934,213.379
1688816212.799,-43.457,-24.414,-41.504,0.977,47.363
1688816212.803,82.520,-21.973,-35.645,-87.402,-294.922
1688816212.807,59.570,-24.414,-29.785,-63.477,-222.168
1688816212.811,-54.199,-26.855,-29.785,19.531,107.910
1688816212.815,-193.848,-28.320,-35.645,105.957,208.008
1688816212.819,-72.754,-26.855,-32.227,17.578,-67.871
1688816212.822,82.520,-20.020,-21.973,-66.895,-72.754
1688816212.826,73.242,-20.996,-22.949,-57.129,146.484
1688816212.830,-32.715,-19.043,-30.762,-11.719,-51.758
1688816212.834,-185.547,-17.090,-30.273,93.262,-50.781
1688816212.838,-97.168,-17.578,-27.344,52.246,3.418
1688816212.840,73.242,-15.137,-25.391,-59.082,-186.035
1688816212.844,80.078,-14.648,-27.344,-79.102,-225.098
1688816212.848,-3.906,-17.090,-28.809,-29.785,-124.023
1688816212.852,-164.551,-21.484,-22.949,85.449,29.785
1688816212.856,-117.188,-21.973,-23.438,51.270,49.316
1688816212.860,61.035,-19.043,-21.973,-70.312,-95.215
1688816212.864,85.938,-23.926,-22.461,-96.191,-127.930
1688816212.867,12.207,-27.832,-23.438,-47.363,80.566
1688816212.871,-148.438,-26.367,-30.273,72.266,299.316
1688816212.875,-140.625,-25.879,-38.574,65.430,58.594
1688816212.879,47.852,-24.414,-34.668,-48.828,-157.715
1688816212.883,104.492,-20.508,-29.785,-87.891,-128.906
1688816212.884,43.457,-21.484,-29.785,-62.012,-136.230
1688816212.888,-138.184,-26.855,-35.645,50.781,-50.781
1688816212.892,-167.969,-26.855,-35.645,82.031,76.660
1688816212.896,29.785,-19.043,-26.855,-41.016,28.320
1688816212.900,102.539,-15.625,-31.738,-97.656,-142.090
1688816212.904,54.688,-19.531,-35.645,-64.453,-141.113
1688816212.908,-101.562,-18.555,-34.180,35.156,60.059
1688816212.911,-163.086,-16.113,-31.738,74.219,435.059
1688816212.915,20.996,-15.137,-29.785,-56.152,91.309
1688816212.919,113.281,-13.672,-28.320,-114.746,-294.922
1688816212.923,68.359,-12.207,-22.949,-82.520,-147.461
1688816212.927,-82.520,-12.695,-23.438,14.160,31.738
1688816212.931,-175.781,-11.719,-29.785,67.871,-10.254
1688816212.935,-12.695,-15.137,-29.297,-46.875,-151.855
1688816212.939,102.539,-20.508,-27.832,-108.887,-123.047
1688816212.943,83.496,-19.043,-31.250,-86.914,-144.531
1688816212.947,-52.246,-21.484,-33.203,-2.441,-153.809
1688816212.951,-179.688,-22.949,-28.809,76.172,-0.488
1688816212.955,-31.250,-21.484,-20.996,-6.836,143.066
1688816212.958,103.027,-15.137,-18.555,-87.891,-37.109
1688816212.962,83.496,-9.277,-21.973,-93.262,-331.055
1688816212.966,-36.133,-10.742,-21.484,-20.996,-105.957
1688816212.970,-182.617,-16.113,-22.949,72.266,183.594
1688816212.974,-60.059,-19.531,-30.273,-15.137,-57.617
1688816212.974,107.422,-22.461,-31.250,-103.516,-263.672
1688816212.978,104.492,-28.809,-29.297,-100.098,-161.133
1688816212.982,-9.277,-27.344,-31.738,-41.992,-68.848
1688816212.986,-168.457,-22.461,-35.156,70.801,44.922
1688816212.990,-74.219,-18.066,-32.227,8.789,-33.691
1688816212.994,98.633,-20.996,-25.879,-98.633,-36.621
1688816212.998,104.980,-29.297,-24.414,-89.844,222.656
1688816213.001,2.441,-30.273,-30.762,-42.969,156.250
1688816213.005,-172.852,-32.227,-34.180,55.664,45.898
1688816213.009,-114.746,-35.156,-30.273,24.414,14.160
1688816213.013,74.707,-32.227,-27.832,-91.309,-161.133
1688816213.017,103.027,-28.809,-32.715,-114.746,-220.703
1688816213.022,31.250,-29.785,-36.621,-63.965,-209.961
1688816213.026,-128.906,-24.414,-33.691,58.105,-32.227
1688816213.030,-128.906,-15.625,-32.715,51.758,-3.418
1688816213.034,45.898,-14.648,-29.297,-72.754,-217.773
1688816213.038,103.516,-15.137,-24.414,-107.422,-239.746
1688816213.042,43.457,-15.137,-25.391,-61.523,28.320
1688816213.046,-144.043,-19.043,-30.762,54.688,163.086
1688816213.049,-172.852,-20.996,-31.250,63.965,-4.883
1688816213.053,34.180,-18.066,-21.484,-49.316,-125.488
1688816213.057,105.469,-16.602,-22.949,-89.355,58.105
1688816213.061,58.105,-15.137,-26.855,-64.453,-12.207
1688816213.065,-103.516,-21.484,-32.715,49.316,-129.883
1688816213.079,-174.805,-28.320,-36.133,98.633,20.508
1688816213.083,17.578,-20.508,-30.762,-14.648,31.738
1688816213.087,111.328,-7.324,-29.297,-82.520,-106.445
1688816213.091,64.941,-8.789,-34.180,-71.777,-116.699
1688816213.095,-72.266,-5.371,-35.156,40.527,28.320
1688816213.099,-153.809,-0.488,-36.133,118.164,427.734
1688816213.103,1.953,5.859,-43.945,-10.742,231.934
1688816213.106,111.328,2.930,-48.340,-87.891,-256.836
1688816213.110,100.098,-0.488,-48.828,-57.129,-169.434
1688816213.114,-41.992,6.348,-54.199,21.973,-42.480
1688816213.118,-179.688,10.742,-56.152,102.051,-75.195
1688816213.122,-26.855,12.695,-53.711,5.859,-138.184
1688816213.125,115.234,14.648,-55.176,-88.379,-188.965
1688816213.129,107.910,22.461,-59.570,-89.844,-189.453
1688816213.133,-18.555,28.809,-69.824,-23.438,-163.086
1688816213.137,-162.109,26.367,-77.148,79.102,29.785
1688816213.141,-35.156,33.203,-72.266,4.883,125.488
1688816213.145,112.793,45.898,-74.219,-98.145,-67.871
1688816213.149,114.258,44.922,-78.613,-104.492,-145.508
1688816213.152,9.277,42.480,-77.148,-40.527,-59.570
1688816213.156,-165.527,37.109,-80.078,75.684,174.316
1688816213.160,-73.730,40.527,-79.590,18.555,83.496
1688816213.164,115.723,43.457,-78.613,-95.215,-228.027
1688816213.168,126.953,34.668,-80.078,-97.168,-236.816
1688816213.169,29.785,28.320,-80.078,-29.785,19.531
1688816213.173,-133.301,30.273,-86.914,84.961,102.539
1688816213.177,-70.312,32.715,-81.543,54.688,-10.254
1688816213.181,124.023,37.109,-73.730,-74.707,-41.992
1688816213.185,142.090,37.109,-77.637,-105.469,-42.480
1688816213.189,32.227,32.227,-78.125,-43.945,-102.539
1688816213.193,-125.977,28.320,-78.125,54.199,-45.898
1688816213.196,-99.121,25.391,-81.543,30.762,121.094
1688816213.200,91.309,18.066,-84.473,-77.148,221.191
1688816213.204,152.344,18.066,-80.566,-106.934,-99.609
1688816213.208,82.520,24.414,-78.125,-71.777,-294.434
1688816213.212,-86.426,20.020,-78.125,55.664,15.625
1688816213.216,-106.445,20.020,-72.754,83.496,185.547
1688816213.220,72.266,27.832,-69.336,-51.758,-149.902
1688816213.224,139.648,23.926,-70.801,-88.379,-296.875
1688816213.228,93.750,15.625,-68.359,-57.129,-155.273
1688816213.232,-71.289,19.043,-69.336,40.527,-75.195
1688816213.236,-133.789,16.602,-70.312,90.332,-11.719
1688816213.240,56.641,10.742,-65.918,-24.902,31.250
1688816213.243,150.391,11.230,-63.965,-82.520,28.809
1688816213.247,100.098,10.254,-66.895,-65.430,0.488
1688816213.251,-57.129,1.465,-70.312,24.902,2.930
1688816213.255,-146.973,-1.465,-67.383,93.750,26.367
1688816213.259,29.297,0.488,-56.641,-6.348,105.957
1688816213.262,149.902,3.418,-52.246,-83.496,-46.875
1688816213.266,116.699,2.441,-52.734,-75.195,-256.836
1688816213.270,-28.320,-11.230,-55.664,10.254,-115.723
1688816213.274,-142.090,-15.625,-55.664,104.004,270.020
1688816213.278,6.836,-4.883,-54.199,10.254,92.285
1688816213.282,142.578,-4.395,-46.875,-73.730,-206.543
1688816213.286,127.930,-3.418,-41.016,-59.570,-85.938
1688816213.289,-0.488,-2.930,-43.457,18.066,285.156
1688816213.293,-146.484,-7.324,-49.805,112.305,263.672
1688816213.297,-25.391,-9.277,-48.828,31.738,-153.809
1688816213.301,129.395,-13.672,-43.457,-71.289,-161.621
1688816213.305,125.488,-13.184,-40.527,-76.660,-67.871
1688816213.306,24.414,-13.184,-45.410,-19.043,-164.551
1688816213.310,-146.484,-13.184,-46.387,91.797,-88.867
1688816213.314,-69.336,-13.672,-39.551,54.199,58.594
1688816213.318,106.445,-19.531,-41.504,-76.172,-45.898
1688816213.322,113.770,-23.926,-44.434,-115.234,-224.121
1688816213.326,32.227,-26.855,-45.410,-65.430,-53.223
1688816213.330,-135.742,-30.273,-41.504,61.523,283.691
1688816213.333,-97.168,-27.344,-33.203,51.758,335.938
1688816213.337,87.891,-20.020,-32.715,-82.031,-80.078
1688816213.341,114.746,-22.949,-35.645,-112.305,-241.211
1688816213.345,23.926,-30.273,-41.992,-62.500,-107.910
1688816213.349,-151.367,-29.297,-48.828,50.781,-62.988
1688816213.365,-126.953,-29.297,-46.387,42.969,-59.570
1688816213.369,71.777,-29.297,-43.457,-75.195,-56.152
1688816213.373,122.070,-29.785,-43.945,-98.145,-35.156
1688816213.377,58.594,-30.762,-41.016,-59.570,-83.008
1688816213.381,-115.234,-25.391,-36.621,61.035,-70.312
1688816213.385,-142.090,-22.461,-32.715,81.055,64.941
1688816213.389,56.641,-20.508,-22.949,-34.180,322.754
1688816213.392,125.488,-12.695,-22.949,-70.801,96.191
1688816213.396,70.801,-14.648,-26.367,-50.781,-268.066
1688816213.400,-84.473,-20.996,-30.273,43.945,-133.301
1688816213.404,-141.602,-19.043,-33.691,78.613,-64.453
1688816213.408,53.711,-14.160,-29.297,-39.551,-161.133
1688816213.396,157.715,-12.695,-21.973,-83.984,-232.910
1688816213.400,111.328,-14.160,-20.020,-50.781,-204.590
1688816213.404,-49.805,-12.695,-22.461,39.551,-85.938
1688816213.408,-142.090,-4.395,-22.949,106.445,41.504
1688816213.412,17.578,-5.371,-24.414,-4.395,-57.617
1688816213.416,125.000,-12.207,-21.973,-78.613,-33.691
1688816213.420,97.168,-10.742,-19.531,-69.336,-25.879
1688816213.423,-43.945,-10.742,-20.996,13.672,-126.465
1688816213.427,-165.039,-9.277,-18.555,103.027,-44.434
1688816213.431,-29.297,-6.836,-18.555,0.488,167.480
1688816213.435,100.098,-5.371,-34.180,-96.680,42.969
1688816213.439,100.098,-6.348,-30.762,-71.289,-252.441
1688816213.454,-23.438,-16.602,-8.789,8.789,-192.383
1688816213.458,-190.430,-23.438,-4.395,96.191,130.371
1688816213.462,-75.684,-22.461,-3.906,17.090,3.906
1688816213.466,85.449,-31.250,7.324,-89.355,-143.066
1688816213.470,77.637,-41.016,19.531,-83.008,-106.445
1688816213.474,-24.414,-48.828,20.508,-19.531,218.750
1688816213.478,-187.500,-56.152,21.973,76.660,262.207
1688816213.481,-125.488,-56.641,31.250,27.832,-40.039
1688816213.485,37.598,-52.246,41.992,-77.148,-157.227
1688816213.489,49.316,-54.199,38.574,-87.891,-124.023
1688816213.493,-27.832,-53.711,33.203,-34.180,-164.062
1688816213.497,-196.289,-55.664,40.039,63.477,-136.719
1688816213.499,-153.809,-58.594,44.922,35.645,14.160
1688816213.503,36.133,-58.594,49.316,-81.055,-10.742
1688816213.507,46.387,-63.965,46.875,-118.164,-241.211
1688816213.511,-38.086,-71.777,45.410,-74.219,-224.609
1688816213.515,-207.520,-74.707,47.363,45.898,-12.207
1688816213.519,-192.871,-72.266,47.852,40.527,39.062
1688816213.523,-8.789,-70.801,46.875,-94.238,-137.695
1688816213.526,34.668,-70.801,43.457,-118.652,-256.836
1688816213.530,-16.113,-66.895,47.363,-63.965,-18.066
1688816213.534,-176.758,-61.035,40.039,38.086,113.770
1688816213.538,-195.801,-55.664,30.762,51.270,-74.219
1688816213.542,-0.977,-51.758,33.691,-59.570,-173.340
1688816213.544,58.105,-51.270,35.156,-99.609,-41.016
1688816213.548,-1.465,-52.246,25.391,-94.238,-112.793
1688816213.552,-159.668,-55.664,19.531,10.254,-65.430
1688816213.556,-222.656,-54.688,21.484,61.035,161.133
1688816213.560,-19.043,-47.852,24.902,-63.477,218.262
1688816213.564,67.871,-41.016,24.414,-111.816,89.355
1688816213.568,14.160,-42.969,21.484,-90.332,-101.562
1688816213.571,-132.324,-45.410,12.695,5.859,73.730
1688816213.575,-219.727,-36.621,12.695,88.867,364.258
1688816213.579,-40.527,-29.297,15.625,-27.832,11.230
1688816213.583,76.660,-28.320,11.230,-105.469,-227.051
1688816213.587,49.805,-30.762,7.812,-85.449,-95.703
1688816213.592,-73.730,-29.297,2.930,-7.812,-16.113
1688816213.596,-189.941,-23.926,-0.488,66.406,6.836
1688816213.600,-47.852,-21.484,-1.465,-22.949,-28.320
1688816213.604,93.750,-25.391,0.488,-113.770,-94.238
1688816213.608,84.473,-27.832,-0.488,-113.281,-194.336
1688816213.612,-33.691,-25.391,-2.441,-28.809,-113.281
1688816213.616,-182.617,-25.391,-3.418,84.961,84.473
1688816213.619,-68.848,-25.391,-3.418,20.996,242.676
1688816213.623,80.078,-24.414,-6.348,-90.332,70.312
1688816213.627,75.195,-27.832,-13.184,-108.398,-234.863
1688816213.631,-3.418,-29.785,-14.160,-43.945,-212.891
1688816213.635,-160.645,-27.344,-18.066,72.754,-15.625
1688816213.650,-101.562,-27.344,-22.461,15.625,14.648
1688816213.654,64.941,-21.484,-20.020,-102.051,-163.574
1688816213.658,81.055,-26.367,-22.949,-115.723,-197.754
1688816213.662,-7.324,-34.668,-23.926,-69.336,172.363
1688816213.666,-179.688,-29.785,-24.902,47.852,140.137
1688816213.670,-138.672,-28.809,-20.996,40.527,4.395
1688816213.674,53.223,-27.832,-14.648,-77.637,20.508
1688816213.677,94.727,-31.250,-17.090,-99.121,205.566
1688816213.681,22.461,-40.039,-29.297,-61.523,183.105
1688816213.685,-153.809,-35.645,-36.133,44.922,-29.785
1688816213.689,-150.391,-30.273,-28.320,54.199,-52.246
1688816213.693,49.316,-26.367,-23.926,-63.477,-174.805
1688816213.681,98.633,-26.855,-29.297,-99.121,-293.945
1688816213.685,31.250,-28.809,-33.691,-62.988,-286.133
1688816213.689,-124.023,-27.832,-29.297,55.664,-65.918
1688816213.693,-160.645,-23.438,-28.809,78.125,94.238
1688816213.697,20.020,-23.926,-27.344,-47.852,-131.348
1688816213.701,95.703,-29.785,-24.414,-93.750,-122.070
1688816213.705,54.688,-22.949,-22.461,-69.336,16.113
1688816213.708,-100.098,-17.578,-18.555,30.762,-19.043
1688816213.712,-166.016,-24.414,-22.461,81.543,-10.742
1688816213.716,19.043,-25.391,-20.508,-30.762,-119.629
1688816213.720,103.027,-27.832,-13.184,-82.031,63.965
1688816213.724,62.012,-26.855,-9.766,-58.105,108.398
1688816213.724,-81.543,-22.461,-14.648,21.484,-137.695
1688816213.728,-174.805,-26.855,-21.973,85.938,-65.430
1688816213.732,-12.207,-23.438,-20.996,-9.277,-119.141
1688816213.736,99.609,-19.043,-21.484,-86.426,-147.461
1688816213.740,69.336,-19.043,-27.344,-74.707,-158.203
1688816213.744,-61.523,-20.508,-30.273,16.113,-35.645
1688816213.748,-191.895,-27.344,-25.391,110.840,429.199
1688816213.751,-49.316,-23.438,-20.508,21.484,246.582
1688816213.755,97.656,-16.602,-19.043,-82.520,-236.328
1688816213.759,70.801,-24.902,-21.973,-81.055,-217.773
1688816213.763,-42.480,-34.180,-29.785,-3.906,-62.012
1688816213.767,-178.223,-36.133,-31.738,100.586,-4.395
1688816213.787,-76.172,-34.668,-27.832,34.668,-62.988
1688816213.791,79.590,-29.785,-21.484,-60.059,-157.715
1688816213.795,85.938,-27.832,-21.484,-65.918,-194.824
1688816213.799,-6.348,-33.203,-26.855,-12.207,-141.113
1688816213.803,-167.969,-41.992,-27.832,106.445,-0.977
1688816213.807,-86.426,-41.992,-23.438,65.430,145.020
1688816213.811,96.680,-30.762,-22.461,-58.105,72.754
1688816213.814,111.328,-26.855,-25.879,-74.219,-69.824
1688816213.818,33.691,-28.809,-30.762,-10.254,-57.129
1688816213.822,-134.766,-30.273,-32.227,120.605,156.250
1688816213.826,-104.004,-29.297,-29.785,97.656,127.441
1688816213.830,86.914,-24.902,-21.973,-24.414,-126.465
1688816213.829,120.605,-28.320,-22.461,-47.363,-122.070
1688816213.833,53.711,-29.785,-25.879,4.883,116.211
1688816213.837,-120.117,-26.367,-23.438,124.512,132.324
1688816213.841,-127.930,-34.180,-21.973,120.605,20.996
1688816213.845,70.312,-40.039,-20.996,-5.371,-70.312
1688816213.849,125.977,-43.945,-23.926,-38.574,42.480
1688816213.853,62.012,-44.922,-27.344,-5.859,72.266
1688816213.856,-104.492,-40.527,-28.809,107.422,-2.441
1688816213.860,-145.508,-42.969,-33.691,131.348,40.039
1688816213.864,42.969,-50.293,-28.809,0.488,278.320
1688816213.868,115.234,-45.898,-27.344,-51.270,307.129
1688816213.872,59.082,-38.574,-37.109,-41.504,-96.680
1688816213.876,-97.656,-41.992,-36.133,58.105,-109.863
1688816213.880,-164.551,-43.945,-36.133,109.863,50.781
1688816213.884,10.254,-47.363,-41.016,-19.043,-102.539
1688816213.888,107.910,-47.363,-35.156,-76.172,-203.613
1688816213.892,67.871,-44.922,-27.832,-47.363,-196.289
1688816213.896,-83.008,-48.340,-27.344,38.086,-54.199
1688816213.900,-177.246,-46.387,-25.391,105.469,105.957
1688816213.903,-4.395,-44.434,-26.367,9.277,-112.305
1688816213.907,124.512,-44.922,-23.438,-61.523,-13.184
1688816213.911,99.609,-43.457,-23.438,-62.012,5.859
1688816213.915,-37.598,-41.504,-28.809,13.672,-202.148
1688816213.919,-167.480,-40.527,-24.414,110.840,-67.383
1688816213.919,-35.156,-39.062,-19.531,25.879,18.555
1688816213.923,98.145,-35.645,-24.414,-73.242,-213.379
1688816213.927,86.914,-34.668,-30.762,-78.613,-289.551
1688816213.931,-25.391,-37.598,-30.762,-5.859,-70.801
1688816213.935,-173.828,-36.133,-30.762,97.168,137.207
1688816213.939,-63.477,-30.762,-30.762,20.508,63.965
1688816213.943,95.215,-32.715,-29.785,-82.520,-107.422
1688816213.946,107.422,-34.180,-26.367,-74.219,-112.793
1688816213.950,5.859,-31.738,-23.926,0.977,197.266
1688816213.954,-173.340,-28.809,-33.691,92.773,196.289
1688816213.958,-85.449,-26.367,-33.691,40.527,-77.148
1688816213.962,101.074,-25.879,-21.973,-62.988,-85.938
1688816213.967,102.051,-24.902,-21.484,-89.844,3.906
1688816213.971,-6.348,-25.391,-29.785,-41.504,-101.562
1688816213.975,-161.133,-34.180,-28.320,66.406,-69.824
1688816213.979,-118.652,-39.062,-23.926,47.852,113.281
1688816213.983,55.176,-37.109,-27.344,-74.707,-33.691
1688816213.987,91.309,-36.133,-32.227,-107.910,-175.781
1688816213.991,34.180,-36.133,-32.227,-68.359,-92.773
1688816213.994,-134.766,-31.250,-26.367,55.664,149.414
1688816213.998,-148.438,-26.367,-24.414,80.078,178.223
1688816214.002,45.410,-25.391,-29.785,-50.781,-192.383
1688816214.006,97.656,-25.879,-24.902,-94.727,-272.461
1688816214.010,32.715,-29.785,-25.879,-66.406,-193.848
1688816214.025,-131.836,-34.668,-38.574,35.645,-102.051
1688816214.029,-160.156,-28.320,-33.691,62.500,-104.492
1688816214.033,38.574,-26.367,-28.320,-53.711,-131.348
1688816214.037,105.957,-29.297,-27.832,-89.844,-9.766
1688816214.041,52.734,-23.926,-24.902,-71.289,-100.098
1688816214.045,-99.609,-22.461,-25.879,21.484,-69.336
1688816214.049,-172.852,-20.020,-28.320,76.172,183.105
1688816214.052,14.160,-21.484,-24.414,-25.391,399.902
1688816214.056,117.188,-20.508,-19.043,-93.750,190.918
1688816214.060,72.754,-19.531,-22.461,-95.215,-152.832
1688816214.064,-78.125,-24.414,-22.461,-4.395,-127.441
1688816214.068,-187.500,-20.996,-23.926,69.336,-87.891
1688816214.071,-9.766,-19.043,-27.344,-41.504,-188.965
1688816214.075,127.930,-19.531,-25.879,-118.652,-260.254
1688816214.079,88.379,-21.973,-23.926,-99.121,-217.773
1688816214.083,-46.875,-28.809,-25.391,-18.066,-151.855
1688816214.087,-172.852,-27.832,-27.832,73.242,-79.102
1688816214.091,-33.203,-22.949,-22.949,-6.836,-39.062
1688816214.095,110.840,-22.949,-16.602,-94.238,-0.977
1688816214.098,100.098,-18.066,-17.578,-93.750,-85.449
1688816214.102,-3.906,-15.625,-20.508,-19.531,-130.859
1688816214.106,-159.180,-15.137,-23.926,83.496,20.508
1688816214.110,-65.430,-15.625,-21.973,21.484,229.980
1688816214.114,105.469,-11.719,-19.531,-79.102,138.672
1688816214.099,107.422,-9.277,-22.461,-97.168,-236.816
1688816214.103,10.742,-11.719,-26.367,-40.527,-235.840
1688816214.107,-151.855,-9.766,-24.902,79.590,2.930
1688816214.111,-84.961,-12.695,-25.879,32.227,-5.371
1688816214.115,103.516,-12.695,-24.902,-85.449,-172.363
1688816214.119,116.699,-14.648,-21.973,-99.609,-133.789
1688816214.123,25.879,-24.414,-22.461,-59.082,-67.871
1688816214.126,-145.020,-28.320,-27.832,57.617,-35.645
1688816214.130,-108.887,-23.438,-26.367,32.715,-71.777
1688816214.134,75.684,-22.949,-20.508,-75.684,-43.945
1688816214.138,111.328,-24.902,-19.531,-83.984,230.957
1688816214.142,24.414,-24.414,-25.391,-55.176,243.164
1688816214.161,-155.273,-24.902,-28.320,47.363,58.594
1688816214.165,-151.367,-24.902,-24.902,60.059,68.848
1688816214.169,44.434,-20.508,-27.344,-75.684,-121.094
1688816214.173,110.352,-20.508,-28.809,-117.676,-259.766
1688816214.177,49.316,-24.414,-27.832,-67.383,-205.566
1688816214.181,-128.418,-26.855,-28.809,45.898,96.680
1688816214.185,-169.922,-22.461,-31.738,70.312,164.062
1688816214.188,19.531,-17.578,-34.668,-57.617,-107.422
1688816214.192,92.285,-22.949,-28.809,-119.629,-174.805
1688816214.196,47.363,-29.297,-25.391,-83.984,64.453
1688816214.200,-102.539,-29.297,-30.273,29.297,108.398
1688816214.204,-186.523,-31.250,-36.133,78.613,29.785
1688816214.204,-8.301,-30.762,-29.785,-35.645,35.156
1688816214.208,100.586,-27.832,-15.137,-93.262,-2.441
1688816214.212,70.312,-27.832,-15.137,-73.730,-168.945
1688816214.216,-82.031,-31.250,-16.113,12.695,-190.430
1688816214.220,-197.266,-33.203,-18.066,84.473,84.473
1688816214.224,-30.273,-28.320,-17.578,-13.672,170.898
1688816214.228,92.773,-23.438,-18.066,-93.262,-30.273
1688816214.231,66.406,-24.414,-21.484,-93.750,-137.207
1688816214.235,-56.152,-28.320,-24.902,-19.043,-118.164
1688816214.239,-190.918,-27.832,-29.297,83.008,269.531
1688816214.243,-52.734,-17.090,-33.203,-5.371,134.277
1688816214.247,94.727,-16.602,-28.809,-109.863,-269.043
1688816214.265,71.289,-20.508,-20.020,-97.656,-220.215
1688816214.269,-58.105,-20.508,-19.043,-15.137,-99.609
1688816214.273,-201.660,-21.973,-21.973,68.359,-35.645
1688816214.277,-85.449,-20.508,-24.902,-10.742,-137.695
1688816214.281,82.031,-15.625,-20.508,-104.004,-125.488
1688816214.285,84.473,-17.090,-18.555,-102.051,-4.883
1688816214.289,-9.766,-17.090,-20.508,-49.316,-53.223
1688816214.292,-177.246,-19.043,-16.113,65.918,-25.879
1688816214.296,-109.863,-18.066,-7.324,39.551,196.777
1688816214.300,71.777,-16.113,-8.789,-87.402,79.590
1688816214.304,88.379,-19.531,-15.137,-105.957,-193.359
1688816214.308,12.695,-20.996,-11.230,-46.875,-207.520
1688816214.295,-164.062,-23.926,-9.766,61.035,-43.945
1688816214.299,-138.184,-23.926,-12.695,39.551,-4.395
1688816214.303,60.547,-21.484,-8.301,-79.102,-163.086
1688816214.307,93.262,-22.949,-6.348,-95.215,-49.316
1688816214.311,17.578,-22.949,-6.836,-51.270,153.320
1688816214.315,-140.625,-23.926,-8.789,48.340,27.832
1688816214.319,-145.508,-21.973,-14.648,50.293,-29.297
1688816214.322,44.434,-12.207,-12.695,-69.336,-53.711
1688816214.326,104.492,-15.625,-11.719,-105.469,-188.477
1688816214.330,42.480,-23.438,-15.625,-78.613,-234.375
1688816214.334,-122.070,-23.438,-16.602,30.762,-141.602
1688816214.338,-163.574,-23.438,-12.695,82.031,3.906
1688816214.340,27.832,-24.902,-9.277,-26.855,168.945
1688816214.344,94.727,-17.578,-7.812,-82.520,-96.191
1688816214.348,47.852,-11.719,-5.859,-58.105,-282.227
1688816214.352,-97.656,-13.184,-8.301,37.598,-89.355
1688816214.356,-179.199,-14.648,-14.160,89.844,-41.992
1688816214.360,0.977,-13.184,-12.207,-16.113,-108.887
1688816214.364,106.445,-12.207,-13.184,-88.379,-144.531
1688816214.367,73.242,-14.160,-14.160,-68.359,10.742
1688816214.371,-68.848,-11.230,-14.160,32.227,210.938
1688816214.375,-176.758,-2.441,-20.996,105.957,13.672
1688816214.379,-4.395,-2.930,-19.531,7.324,-172.852
1688816214.383,123.047,-4.395,-18.066,-83.008,-137.695
1688816214.384,93.262,2.930,-25.391,-86.426,-160.645
1688816214.388,-23.926,2.441,-30.273,-11.719,-196.777
1688816214.392,-158.691,1.953,-27.832,79.102,14.160
1688816214.396,-40.527,2.441,-23.926,-5.859,134.277
1688816214.400,111.816,0.488,-17.578,-94.727,-174.316
1688816214.404,103.027,-1.953,-12.207,-88.379,-218.262
1688816214.408,-11.719,-4.395,-16.602,-23.926,43.945
1688816214.411,-165.527,-5.859,-20.508,89.355,380.859
1688816214.415,-83.008,-3.906,-21.973,20.508,182.129
1688816214.419,74.219,-1.465,-18.066,-94.238,-174.316
1688816214.423,88.867,-0.488,-12.695,-93.750,-135.254
1688816214.427,-0.977,-1.465,-18.555,-31.250,-47.363
1688816214.444,-171.387,-5.859,-24.902,81.055,-13.672
1688816214.448,-111.328,-6.836,-22.461,43.457,-142.578
1688816214.452,81.055,-6.348,-19.531,-68.359,-246.094
1688816214.456,105.957,-4.395,-18.066,-86.426,-223.633
1688816214.460,21.484,-4.395,-22.949,-43.457,-157.715
1688816214.464,-141.113,-8.301,-26.855,70.312,-5.371
1688816214.468,-119.629,-13.184,-20.996,66.895,250.977
1688816214.471,56.641,-8.301,-19.043,-54.199,79.102
1688816214.475,98.633,-2.930,-21.484,-87.891,-264.160
1688816214.479,37.109,-6.836,-23.926,-37.598,-147.461
1688816214.483,-135.742,-10.254,-26.367,62.012,10.742
1688816214.487,-161.133,-11.230,-25.879,56.641,48.340
1688816214.474,26.855,-7.812,-28.809,-66.895,-134.766
1688816214.478,92.773,-15.137,-26.855,-101.074,-209.473
1688816214.482,39.551,-21.484,-25.879,-57.617,-12.695
1688816214.486,-110.840,-14.160,-31.250,54.199,51.270
1688816214.490,-163.574,-15.137,-30.273,83.984,19.531
1688816214.494,26.367,-16.602,-18.066,-28.320,62.988
1688816214.498,112.305,-18.555,-15.137,-66.895,283.203
1688816214.501,57.617,-15.625,-22.461,-50.293,22.949
1688816214.505,-88.867,-10.742,-20.996,39.551,-114.746
1688816214.509,-167.969,-11.230,-23.438,101.562,127.930
1688816214.513,-4.395,-11.719,-23.926,-5.859,230.957
1688816214.517,89.355,-11.230,-20.508,-82.520,-101.562
1688816214.522,64.453,-9.766,-20.508,-63.965,-236.328
1688816214.526,-66.895,-8.789,-24.902,25.879,19.531
1688816214.530,-187.988,-8.301,-31.250,95.703,86.914
1688816214.534,-32.227,-5.859,-29.785,-0.977,-124.023
1688816214.538,94.727,-6.348,-25.879,-72.754,-182.129
1688816214.542,70.801,-12.695,-32.715,-51.758,44.434
1688816214.546,-45.410,-18.066,-33.203,15.625,117.188
1688816214.549,-182.617,-19.531,-31.250,106.445,24.902
1688816214.553,-49.316,-21.484,-29.785,36.133,-50.781
1688816214.557,106.445,-20.020,-23.926,-54.199,-30.762
1688816214.561,99.121,-12.695,-25.879,-53.711,-134.277
1688816214.565,-3.906,-10.742,-25.879,5.859,-229.004
1688816214.579,-164.551,-11.719,-25.879,108.887,-49.316
1688816214.583,-81.055,-9.277,-25.391,47.852,-25.391
1688816214.587,84.473,-9.766,-23.926,-58.594,-190.918
1688816214.591,93.750,-14.648,-24.902,-75.684,-221.191
1688816214.595,6.836,-20.508,-26.367,-24.414,-56.152
1688816214.599,-160.645,-19.531,-23.926,103.027,369.141
1688816214.603,-106.445,-10.254,-24.902,64.453,350.098
1688816214.606,87.891,-8.301,-27.832,-66.406,-91.797
1688816214.610,118.652,-14.160,-27.344,-88.867,-213.867
1688816214.614,30.762,-13.672,-29.297,-48.340,-167.480
1688816214.618,-141.602,-14.648,-34.180,65.918,-44.922
1688816214.622,-127.441,-22.461,-32.715,51.270,-48.340
1688816214.624,59.082,-17.578,-27.344,-75.684,-181.641
1688816214.628,101.074,-8.301,-26.367,-106.445,-211.914
1688816214.632,28.320,-11.230,-30.273,-72.266,-208.984
1688816214.636,-148.926,-15.625,-30.273,45.410,-61.035
1688816214.640,-172.852,-22.461,-27.832,64.453,67.383
1688816214.644,30.273,-27.344,-22.461,-55.176,0.977
1688816214.648,110.352,-20.020,-24.902,-91.797,-128.418
1688816214.651,56.641,-6.836,-32.715,-62.988,-51.270
1688816214.655,-113.281,-8.789,-35.156,39.551,291.992
1688816214.659,-176.270,-5.371,-41.016,77.148,363.281
1688816214.663,5.371,0.488,-45.410,-52.734,-52.734
1688816214.667,88.379,-9.766,-51.270,-118.164,-199.219
1688816214.670,43.945,-10.742,-56.152,-92.773,-163.086
1688816214.674,-121.094,-3.906,-61.523,-5.859,-77.148
1688816214.678,-205.078,1.953,-67.871,56.641,-19.043
1688816214.682,-24.414,9.277,-66.406,-48.340,-62.500
1688816214.686,91.309,9.277,-71.289,-111.816,37.598
1688816214.690,51.758,8.301,-85.449,-102.539,-59.082
1688816214.694,-104.980,12.695,-85.938,-20.508,-143.555
1688816214.697,-217.773,12.207,-78.125,77.148,-11.230
1688816214.701,-53.223,14.648,-74.219,-13.672,235.840
1688816214.705,72.754,23.926,-81.543,-108.887,-41.992
1688816214.709,51.758,26.855,-86.914,-103.027,-293.457
1688816214.713,-56.152,25.391,-86.426,-22.949,-135.254
1688816214.715,-198.242,28.809,-89.844,61.035,9.766
1688816214.719,-71.289,34.668,-89.844,-23.926,-105.469
1688816214.723,92.773,35.156,-82.031,-118.164,-228.027
1688816214.727,88.379,37.109,-75.195,-105.957,-144.043
1688816214.731,-20.020,40.527,-81.055,-36.621,-103.516
1688816214.735,-166.992,41.992,-81.543,53.223,95.215
1688816214.739,-75.684,39.551,-79.102,-0.977,108.887
1688816214.742,86.426,34.668,-82.031,-109.375,70.312
1688816214.746,92.285,32.715,-79.590,-115.723,24.414
1688816214.750,1.465,32.227,-75.684,-61.035,-190.430
1688816214.754,-162.109,27.832,-73.242,58.594,-57.617
1688816214.758,-100.098,24.902,-66.406,51.270,103.027
1688816214.759,91.797,23.926,-62.988,-72.754,-126.953
1688816214.763,119.629,24.902,-58.105,-102.539,-310.059
1688816214.767,50.781,17.090,-51.270,-43.945,-104.492
1688816214.771,-107.910,8.301,-49.805,79.102,266.602
1688816214.775,-93.262,11.230,-56.641,62.988,79.102
1688816214.779,91.797,6.836,-55.664,-61.035,-118.652
1688816214.783,124.023,8.301,-49.805,-83.008,-48.828
1688816214.786,43.945,7.812,-49.805,-41.992,176.758
1688816214.790,-121.582,6.836,-54.199,58.105,173.828
1688816214.794,-138.184,11.230,-51.758,53.711,19.531
1688816214.798,54.688,8.789,-47.852,-76.172,-64.941
1688816214.802,121.094,0.977,-47.852,-125.000,-178.223
1688816214.807,54.688,-6.348,-47.852,-103.027,-222.656
1688816214.811,-124.023,-9.277,-44.922,6.836,-39.551
1688816214.815,-187.988,-11.719,-43.945,51.758,114.746
1688816214.819,-3.418,-16.113,-41.504,-67.383,-98.633
1688816214.823,85.938,-13.184,-32.227,-123.047,-234.375
1688816214.827,38.574,-15.625,-30.762,-97.656,-176.758
1688816214.831,-113.281,-22.461,-35.645,-2.441,135.742
1688816214.834,-196.289,-15.137,-37.598,64.941,283.203
1688816214.838,-24.414,-6.836,-31.738,-42.480,-86.914
1688816214.842,93.262,-12.695,-25.879,-116.699,-189.453
1688816214.846,62.988,-15.625,-26.855,-96.680,-135.742
1688816214.850,-84.961,-15.137,-32.227,-8.789,-147.949
1688816214.849,-200.195,-14.648,-34.668,73.242,-56.641
1688816214.853,-40.527,-14.160,-28.809,-10.742,-47.852
1688816214.857,100.098,-10.254,-22.949,-94.727,-149.902
1688816214.861,83.496,-6.836,-24.902,-104.980,-112.793
1688816214.865,-39.551,-7.812,-28.809,-32.715,-5.371
1688816214.869,-186.523,-8.789,-22.949,77.637,85.449
1688816214.873,-66.406,-7.812,-15.137,3.906,395.996
1688816214.876,92.773,-4.395,-20.020,-108.398,294.434
1688816214.880,91.797,-2.441,-30.273,-124.023,-157.227
1688816214.884,-9.277,-6.836,-34.180,-58.594,-143.555
1688816214.888,-170.410,-8.301,-37.109,44.922,-9.277
1688816214.892,-75.684,-4.883,-34.668,-4.883,-122.070
1688816214.896,104.004,1.465,-25.879,-102.051,-250.000
1688816214.900,103.027,1.465,-21.973,-110.840,-208.496
1688816214.904,7.812,-3.906,-25.391,-67.383,-147.949
1688816214.908,-166.504,-7.324,-29.785,45.410,-55.664
1688816214.912,-118.652,-4.395,-25.391,28.320,-109.863
1688816214.916,72.266,-4.395,-16.113,-91.309,-69.824
1688816214.920,87.402,-10.742,-16.602,-125.488,-6.836
1688816214.923,9.277,-10.254,-19.531,-91.309,-144.043
1688816214.927,-154.297,-13.184,-20.996,21.973,-85.449
1688816214.931,-144.043,-17.090,-16.602,32.227,191.406
1688816214.935,38.574,-8.789,-17.578,-79.590,83.008
1688816214.939,99.609,-7.324,-22.949,-117.676,-233.398
1688816214.955,42.480,-17.578,-21.484,-84.961,-212.402
1688816214.959,-125.977,-16.602,-19.531,30.762,-51.270
1688816214.963,-112.305,-13.184,-21.973,25.391,25.879
1688816214.967,56.152,-13.184,-19.531,-90.820,-79.590
1688816214.971,100.586,-16.113,-18.066,-108.398,-171.387
1688816214.975,61.523,-23.438,-21.973,-71.777,174.805
1688816214.979,-99.121,-21.484,-25.879,31.738,145.996
1688816214.982,-153.809,-18.066,-24.902,70.801,-115.234
1688816214.986,32.715,-18.555,-22.949,-45.898,-76.660
1688816214.990,115.723,-22.949,-27.344,-94.727,113.770
1688816214.994,63.965,-18.555,-29.785,-79.590,-72.754
1688816214.998,-93.750,-18.555,-30.762,17.090,-77.637
1688816214.999,-185.547,-26.855,-33.203,88.867,133.789
1688816215.003,-10.254,-15.625,-27.832,-19.043,5.859
1688816215.007,108.398,-8.789,-29.785,-88.867,-110.352
1688816215.011,78.125,-10.254,-30.273,-79.102,-142.578
1688816215.015,-70.801,-8.301,-33.203,-3.906,-57.129
1688816215.019,-197.266,-9.766,-48.828,68.359,152.832
1688816215.023,-34.180,-10.254,-29.297,-17.578,42.480
1688816215.026,93.750,-14.648,-4.883,-91.309,-172.363
1688816215.030,52.734,-23.438,-7.324,-84.961,4.883
1688816215.034,-74.219,-33.203,-10.742,-16.113,124.512
1688816215.038,-225.098,-40.039,-5.859,72.754,66.406
1688816215.042,-106.934,-44.434,2.930,0.000,-25.879
1688816215.044,55.176,-46.875,9.766,-84.473,-33.691
1688816215.048,44.434,-49.805,17.090,-90.332,-124.512
1688816215.052,-70.312,-58.105,18.066,-27.832,-235.352
1688816215.056,-231.445,-58.594,22.461,91.309,28.809
1688816215.060,-147.461,-56.152,31.738,29.297,189.941
1688816215.064,21.973,-56.152,38.086,-90.332,-85.449
1688816215.068,46.387,-58.594,40.039,-91.309,-105.957
1688816215.071,-29.297,-63.477,41.016,-27.344,36.621
1688816215.075,-211.426,-67.383,40.039,97.656,251.953
1688816215.079,-178.223,-63.477,31.738,60.059,83.984
1688816215.083,23.438,-61.035,35.645,-62.500,-194.824
1688816215.087,53.711,-66.895,36.621,-86.914,-193.359
1688816215.106,-22.461,-76.660,35.645,-48.340,-114.258
1688816215.110,-191.895,-81.543,36.621,73.242,8.789
1688816215.114,-176.758,-74.219,39.062,76.172,-29.297
1688816215.118,31.738,-65.918,44.922,-48.340,-88.867
1688816215.122,81.543,-60.059,36.621,-85.938,-85.938
1688816215.126,23.438,-62.500,25.879,-56.152,-83.008
1688816215.130,-134.766,-62.500,22.461,63.965,69.824
1688816215.133,-179.688,-54.688,24.902,101.074,248.535
1688816215.137,14.648,-43.945,26.367,-25.391,129.395
1688816215.141,93.750,-42.969,21.973,-76.660,-191.406
1688816215.145,33.691,-41.992,22.461,-49.805,-195.801
1688816215.149,-120.117,-38.574,22.461,51.270,-19.531
1688816215.134,-178.711,-37.109,20.020,103.027,28.320
1688816215.138,-1.953,-32.715,22.949,-4.395,-116.699
1688816215.142,81.543,-37.109,22.461,-66.406,-155.762
1688816215.146,37.598,-41.504,11.230,-46.875,-19.531
1688816215.150,-99.121,-42.969,6.836,36.621,34.180
1688816215.154,-196.289,-37.598,11.230,96.191,28.809
1688816215.158,-39.062,-30.273,10.254,-10.254,7.812
1688816215.161,72.266,-32.715,2.930,-89.844,-28.320
1688816215.165,32.227,-34.668,-8.789,-73.730,-212.402
1688816215.169,-96.680,-27.832,-12.207,23.926,-238.770
1688816215.173,-207.520,-27.832,-13.672,106.445,-5.859
1688816215.177,-65.918,-30.762,-12.207,13.672,253.418
1688816215.182,66.895,-19.531,-9.766,-76.660,-18.555
1688816215.186,46.875,-8.301,-8.301,-72.266,-232.910
1688816215.190,-61.035,-11.719,-7.324,1.953,-73.730
1688816215.194,-205.078,-19.043,-11.719,94.727,7.324
1688816215.198,-89.355,-15.625,-8.301,20.996,-27.344
1688816215.202,71.777,-12.695,-4.883,-78.125,-88.379
1688816215.206,67.871,-15.137,-6.348,-76.660,183.105
1688816215.209,-25.879,-14.648,-13.184,-27.344,293.945
1688816215.213,-185.059,-11.719,-17.578,74.219,-3.418
1688816215.217,-112.305,-10.254,-20.996,30.273,-72.266
1688816215.221,72.754,-10.254,-15.137,-78.613,-13.672
1688816215.225,84.961,-8.789,-10.742,-97.656,-111.816
1688816215.224,-6.348,-9.277,-19.531,-49.316,-189.453
1688816215.228,-162.598,-11.230,-19.043,63.477,-5.371
1688816215.232,-119.141,-13.672,-14.160,37.109,134.766
1688816215.236,48.340,-9.766,-13.672,-82.520,-77.148
1688816215.240,83.496,-6.836,-11.719,-101.074,-260.742
1688816215.244,27.832,-12.695,-17.578,-52.246,-136.719
1688816215.248,-145.996,-17.090,-23.438,64.453,306.152
1688816215.251,-148.926,-12.207,-23.438,60.547,331.543
1688816215.255,42.480,-11.719,-25.391,-69.824,-125.000
1688816215.259,96.680,-19.531,-27.344,-100.098,-182.617
1688816215.263,43.945,-20.020,-21.484,-55.176,-1.953
1688816215.267,-128.906,-12.695,-15.625,48.828,-11.719
1688816215.271,-169.922,-8.789,-12.207,70.312,-56.641
1688816215.275,23.438,-11.230,-13.672,-56.152,-121.582
1688816215.279,96.191,-17.578,-14.160,-101.074,-220.703
1688816215.283,42.969,-20.020,-14.648,-71.289,-318.359
1688816215.287,-107.422,-20.020,-16.602,31.250,-196.777
1688816215.291,-166.504,-20.996,-12.695,91.309,99.121
1688816215.295,-0.488,-21.484,-8.301,-11.719,7.324
1688816215.298,92.285,-20.508,-4.395,-75.684,-188.477
1688816215.302,60.547,-21.973,-4.395,-53.711,-220.703
1688816215.306,-86.426,-29.297,-10.742,55.664,81.543
1688816215.310,-187.012,-30.762,-23.926,118.164,197.754
1688816215.314,-15.137,-24.902,-24.414,-4.395,-157.715
1688816215.329,114.746,-24.902,-14.648,-75.195,-209.961
1688816215.333,83.008,-30.762,-14.648,-48.828,-47.852
1688816215.337,-57.129,-30.273,-24.902,32.227,-24.414
1688816215.341,-170.410,-23.438,-29.785,116.699,55.176
1688816215.345,-26.855,-14.648,-22.949,21.484,-24.902
1688816215.349,95.703,-11.719,-13.184,-68.359,167.969
1688816215.353,69.336,-11.230,-13.672,-63.477,79.590
1688816215.356,-46.387,-13.672,-20.020,7.812,-158.691
1688816215.360,-185.547,-16.602,-23.438,112.305,61.035
1688816215.364,-70.801,-7.812,-11.230,46.875,147.461
1688816215.368,83.008,-2.930,-11.230,-58.594,-87.402
1688816215.372,77.148,-8.789,-20.996,-66.895,-240.234
1688816215.376,-18.066,-17.090,-14.160,-10.742,-161.621
1688816215.380,-183.105,-16.602,-9.277,92.285,39.062
1688816215.384,-109.863,-18.555,-12.695,39.062,-37.598
1688816215.388,70.312,-26.367,-14.648,-74.219,-232.422
1688816215.392,86.426,-26.855,-14.160,-77.148,-124.512
1688816215.396,5.371,-25.879,-13.184,-26.367,4.395
1688816215.400,-170.410,-28.809,-18.555,74.707,43.945
1688816215.403,-142.090,-31.250,-26.855,51.758,-45.410
1688816215.407,42.480,-34.668,-19.531,-56.641,50.781
1688816215.411,76.172,-27.832,-19.043,-75.684,52.246
1688816215.415,12.207,-12.207,-25.879,-37.598,-259.277
1688816215.419,-146.973,-9.766,-21.973,67.383,-127.930
1688816215.420,-140.137,-13.184,-23.438,58.594,20.996
1688816215.424,49.805,-13.184,-25.879,-63.965,-144.531
1688816215.428,91.797,-16.113,-25.391,-94.727,-202.148
1688816215.432,26.367,-27.344,-31.738,-62.988,-45.410
1688816215.436,-127.441,-30.273,-29.297,46.875,168.945
1688816215.440,-169.434,-24.902,-25.391,80.078,143.066
1688816215.444,9.766,-22.461,-24.414,-44.434,-41.016
1688816215.447,88.867,-28.809,-25.879,-102.051,-122.559
1688816215.451,48.828,-29.785,-23.926,-68.848,197.266
1688816215.455,-104.980,-22.949,-27.344,36.621,291.016
1688816215.459,-186.035,-28.320,-28.320,83.984,-2.441
1688816215.463,-9.277,-23.438,-18.555,-40.039,-131.836
1688816215.465,84.473,-23.926,-17.090,-108.887,-132.812
1688816215.469,43.945,-29.297,-14.648,-88.867,-199.707
1688816215.473,-106.445,-29.785,-7.812,2.441,-143.066
1688816215.477,-215.820,-38.574,-8.301,73.242,49.316
1688816215.481,-49.316,-40.527,-6.348,-29.785,-4.883
1688816215.485,74.219,-36.133,-7.812,-99.609,-142.578
1688816215.489,49.805,-34.668,-14.160,-75.195,-136.719
1688816215.492,-66.895,-35.156,-18.066,7.324,140.137
1688816215.496,-205.566,-36.621,-22.461,92.773,306.641
1688816215.500,-85.938,-32.715,-22.461,-5.859,-8.301
1688816215.504,57.617,-30.762,-13.672,-92.773,-199.707
1688816215.508,38.574,-36.133,-12.207,-74.219,-46.387
1688816215.509,-81.055,-37.109,-21.973,-6.836,-22.461
1688816215.513,-218.262,-33.691,-24.414,95.215,-74.707
1688816215.517,-103.027,-33.203,-21.484,22.461,-36.133
1688816215.521,54.199,-28.320,-18.555,-81.543,-34.668
1688816215.525,51.758,-24.902,-18.066,-93.750,-112.305
1688816215.529,-41.016,-22.461,-19.043,-44.434,-111.816
1688816215.533,-199.219,-24.414,-23.438,72.266,62.988
1688816215.536,-115.234,-30.273,-26.855,44.434,359.375
1688816215.540,60.547,-25.391,-30.273,-74.707,219.727
1688816215.544,58.594,-22.949,-30.762,-100.586,-213.867
1688816215.548,-24.414,-27.344,-21.973,-43.945,-177.734
1688816215.552,-176.270,-31.738,-21.973,64.453,-26.367
1688816215.570,-146.484,-31.250,-26.367,41.504,-91.797
1688816215.574,24.902,-32.227,-24.902,-67.383,-189.453
1688816215.578,74.219,-37.109,-20.020,-86.426,-196.289
1688816215.582,16.602,-40.039,-25.879,-58.105,-166.504
1688816215.586,-166.992,-41.504,-36.621,48.340,-47.852
1688816215.590,-175.781,-36.133,-30.762,62.012,70.801
1688816215.594,20.996,-36.133,-25.391,-58.594,189.453
1688816215.597,75.684,-32.715,-24.902,-103.516,60.059
1688816215.601,18.555,-30.273,-27.344,-75.195,-205.078
1688816215.605,-138.672,-36.133,-26.855,37.598,-19.531
1688816215.609,-175.293,-33.691,-20.996,76.172,314.453
1688816215.613,17.578,-23.926,-21.973,-41.992,67.383
1688816215.614,89.355,-20.508,-28.320,-90.332,-239.258
1688816215.618,25.879,-22.461,-31.738,-69.336,-217.285
1688816215.622,-128.906,-27.344,-32.715,25.879,-6.836
1688816215.626,-193.359,-28.809,-33.691,81.055,110.352
1688816215.630,-5.859,-21.484,-33.691,-28.809,-108.887
1688816215.634,101.074,-24.414,-29.297,-73.242,-104.492
1688816215.638,56.641,-25.391,-32.715,-49.805,55.176
1688816215.641,-94.727,-17.090,-41.992,26.855,-36.133
1688816215.645,-196.777,-15.137,-41.992,96.680,-46.387
1688816215.649,-26.367,-14.648,-33.691,-2.441,-11.719
1688816215.653,101.562,-15.137,-22.949,-70.312,163.086
1688816215.657,73.730,-17.090,-22.949,-70.801,73.242
1688816215.647,-47.852,-16.602,-24.414,1.953,-112.793
1688816215.651,-176.270,-11.719,-22.949,98.145,6.348
1688816215.655,-51.758,-8.301,-22.949,12.695,9.766
1688816215.659,100.586,-6.348,-20.996,-79.590,-184.082
1688816215.663,98.145,-7.812,-23.438,-75.195,-233.887
1688816215.667,-18.066,-6.348,-23.926,-6.348,20.020
1688816215.671,-170.410,-4.395,-25.391,89.355,132.812
1688816215.674,-71.289,-3.418,-25.391,22.461,-92.773
1688816215.678,100.098,-5.859,-19.043,-74.219,-255.859
1688816215.682,103.516,-6.348,-20.020,-66.406,-0.977
1688816215.686,5.859,5.371,-21.973,0.000,77.637
1688816215.690,-147.949,11.719,-24.902,102.051,-76.660
1688816215.719,-87.402,12.207,-19.043,51.758,-58.105
1688816215.723,90.820,13.184,-11.719,-61.523,-101.562
1688816215.727,111.328,14.648,-11.719,-76.172,-84.473
1688816215.731,26.367,14.160,-12.695,-37.598,-61.035
1688816215.735,-138.672,14.648,-15.625,76.172,0.488
1688816215.739,-111.816,10.254,-18.555,73.242,398.926
1688816215.743,64.453,6.836,-21.973,-47.852,337.891
1688816215.746,101.562,8.789,-23.438,-84.473,-193.359
1688816215.750,44.922,4.395,-23.438,-50.293,-228.027
1688816215.754,-118.652,3.418,-26.367,61.523,-29.785
1688816215.758,-126.953,7.812,-28.320,66.895,-54.199
1688816215.762,61.523,8.789,-23.926,-55.664,-200.684
1688816215.749,124.512,6.348,-25.879,-92.773,-223.145
1688816215.753,74.219,5.371,-28.320,-63.965,-137.207
1688816215.757,-88.379,5.371,-29.297,42.480,-35.645
1688816215.761,-135.254,0.977,-32.715,77.637,-34.668
1688816215.765,52.246,-3.418,-23.926,-35.645,-62.988
1688816215.769,127.441,-5.371,-19.531,-92.773,-64.941
1688816215.773,68.359,-1.953,-21.484,-82.031,-135.742
1688816215.776,-89.355,-1.465,-20.020,15.137,-108.887
1688816215.780,-170.898,-6.348,-22.461,70.312,79.102
1688816215.784,-4.883,-5.371,-23.926,-49.316,-40.039
1688816215.788,91.309,-8.789,-23.438,-125.488,-206.055
1688816215.792,63.965,-16.113,-20.996,-107.422,-199.219
1688816215.794,-82.520,-17.090,-20.020,-12.207,145.996
1688816215.798,-199.707,-14.160,-26.367,53.711,319.824
1688816215.802,-36.133,-14.160,-29.297,-52.246,-75.684
1688816215.806,98.145,-14.648,-24.902,-122.559,-68.848
1688816215.810,71.289,-10.742,-25.879,-107.910,113.770
1688816215.814,-59.570,-11.230,-29.297,-29.785,88.379
1688816215.818,-189.941,-12.695,-26.855,73.242,95.703
1688816215.821,-50.293,-14.160,-22.949,-6.348,36.133
1688816215.825,103.516,-16.113,-18.066,-106.934,21.973
1688816215.829,90.820,-15.625,-14.648,-104.980,-117.676
1688816215.833,-20.020,-16.113,-18.066,-33.691,-201.660
1688816215.837,-175.293,-15.625,-18.066,79.102,-2.441
1688816215.840,-78.125,-15.137,-11.230,30.762,248.047
1688816215.844,99.121,-10.742,-13.672,-84.961,-25.391
1688816215.848,112.305,-9.766,-18.066,-95.703,-205.078
1688816215.852,-3.418,-17.090,-20.020,-41.016,-99.121
1688816215.856,-180.664,-22.461,-23.438,62.500,11.719
1688816215.860,-101.562,-19.531,-23.438,23.926,28.320
1688816215.864,79.102,-16.602,-20.020,-91.309,-116.699
1688816215.867,91.797,-17.090,-21.973,-100.586,-11.230
1688816215.871,17.090,-13.184,-25.391,-59.570,93.750
1688816215.875,-149.902,-11.230,-27.832,42.969,45.410
1688816215.879,-129.395,-9.277,-25.391,35.156,23.438
1688816215.883,63.965,-10.254,-23.438,-75.684,-19.043
1688816215.884,110.352,-10.254,-26.367,-110.840,-144.531
1688816215.888,54.688,-12.207,-34.180,-88.867,-227.051
1688816215.892,-119.141,-16.602,-38.086,21.973,-57.129
1688816215.896,-149.414,-18.066,-31.250,44.434,91.309
1688816215.900,48.828,-13.672,-23.438,-78.125,-36.133
1688816215.904,120.605,-12.207,-14.160,-122.070,-156.250
1688816215.908,59.082,-13.672,-12.207,-84.961,-35.156
1688816215.911,-103.516,-15.137,-8.789,34.180,331.543
1688816215.915,-145.996,-7.812,-5.371,69.824,211.426
1688816215.919,39.062,0.000,-4.883,-56.641,-186.523
1688816215.923,120.605,-0.977,-3.906,-107.910,-253.418
1688816215.927,64.453,-6.836,-8.301,-87.891,-176.758
1688816215.932,-87.402,-13.672,-14.160,-2.930,-141.602
1688816215.936,-159.180,-16.113,-15.625,54.688,-110.352
1688816215.940,19.043,-11.719,-9.277,-41.992,-96.191
1688816215.944,126.465,-8.789,-5.371,-100.586,-108.887
1688816215.948,95.703,-5.371,-9.277,-80.566,-164.062
1688816215.952,-37.598,-13.184,-13.672,5.859,-38.086
1688816215.956,-145.508,-16.602,-8.789,94.727,280.762
1688816215.959,-1.953,-8.301,-10.254,4.395,181.641
1688816215.963,123.535,-7.324,-17.090,-82.520,-224.121
1688816215.967,105.957,-10.742,-16.113,-70.801,-224.121
1688816215.971,-9.766,-14.648,-16.113,2.930,-49.805
1688816215.975,-149.414,-19.531,-21.484,84.961,-41.504
1688816215.990,-35.156,-22.949,-22.949,3.906,-191.406
1688816215.994,118.164,-19.531,-18.555,-90.820,-164.551
1688816215.998,113.770,-14.648,-13.184,-88.379,74.219
1688816216.002,2.441,-18.555,-12.207,-26.367,55.664
1688816216.006,-161.133,-18.555,-15.137,66.406,1.953
1688816216.010,-66.895,-16.113,-14.160,8.301,-31.250
1688816216.014,108.887,-18.555,-3.906,-78.613,214.355
1688816216.017,108.887,-20.996,-4.395,-95.703,204.590
1688816216.021,9.277,-24.902,-14.160,-64.941,-199.219
1688816216.025,-149.902,-25.879,-13.672,51.270,-157.715
1688816216.029,-86.426,-17.090,-12.695,21.484,-91.797
1688816216.033,86.914,-13.672,-9.277,-103.027,-268.555
1688816216.036,107.910,-16.113,-11.230,-122.070,-307.129
1688816216.040,35.156,-16.113,-19.043,-71.289,-199.219
1688816216.044,-121.582,-10.254,-25.879,36.621,-75.684
1688816216.048,-76.172,-9.277,-23.926,24.902,-80.566
1688816216.052,101.074,-11.719,-14.160,-67.871,-164.551
1688816216.056,134.277,-15.137,-11.230,-79.590,-17.090
1688816216.060,65.918,-13.672,-13.184,-50.293,-41.992
1688816216.063,-114.258,-10.254,-12.207,55.664,-124.023
1688816216.067,-124.023,-7.812,-5.371,74.707,-58.105
1688816216.071,77.637,-6.348,4.883,-40.039,117.676
1688816216.075,138.672,-5.859,0.977,-85.449,103.516
1688816216.079,90.820,-2.930,-5.371,-67.383,-222.656
1688816216.079,-66.895,-11.230,-6.348,35.645,-116.211
1688816216.083,-122.559,-18.066,-6.348,77.148,40.039
1688816216.087,65.430,-16.113,-2.930,-34.180,-71.777
1688816216.091,146.484,-12.207,-0.488,-85.449,-83.008
1688816216.095,95.703,-14.160,-0.977,-68.359,-109.863
1688816216.099,-58.594,-19.531,-5.371,30.273,-8.301
1688816216.103,-145.996,-19.043,-10.742,87.402,19.531
1688816216.106,27.832,-18.066,-9.766,-30.762,-126.953
1688816216.110,139.160,-21.973,-4.883,-99.121,-158.691
1688816216.114,111.328,-23.438,-3.906,-71.289,187.012
1688816216.118,-29.785,-21.973,-7.324,-1.465,363.770
1688816216.122,-152.344,-18.066,-7.812,60.059,26.367
1688816216.125,-7.324,-17.090,-6.836,-29.297,-154.785
1688816216.129,117.676,-16.113,-9.277,-116.699,-177.246
1688816216.133,99.121,-14.648,-14.648,-101.562,-257.812
1688816216.137,-23.926,-22.949,-18.555,-28.320,-157.227
1688816216.141,-159.668,-21.973,-19.531,62.012,125.488
1688816216.145,-35.156,-19.531,-18.555,-13.672,97.168
1688816216.149,113.770,-21.484,-19.043,-114.746,-66.406
1688816216.152,105.469,-23.926,-24.414,-115.723,-125.488
1688816216.156,-5.371,-23.926,-21.484,-44.922,129.883
1688816216.160,-170.410,-22.461,-16.113,63.965,299.805
1688816216.164,-66.406,-16.602,-14.160,11.719,-40.039
1688816216.168,121.094,-1.465,-14.648,-87.402,-151.855
1688816216.169,127.930,-4.883,-19.531,-95.703,-5.371
1688816216.173,28.320,-9.766,-34.668,-56.641,-133.301
1688816216.177,-145.508,-2.441,-43.457,37.598,-100.586
1688816216.181,-86.426,6.348,-42.969,10.254,78.613
1688816216.185,105.957,10.254,-47.852,-89.355,129.883
1688816216.189,131.836,13.184,-53.711,-114.258,50.293
1688816216.193,51.270,16.602,-61.035,-87.891,-121.094
1688816216.196,-113.281,14.160,-67.871,24.414,-33.203
1688816216.200,-91.309,16.602,-70.312,26.855,270.020
1688816216.204,93.750,29.297,-67.383,-90.820,10.742
1688816216.208,125.488,32.227,-66.406,-132.324,-287.598
1688816216.212,71.289,28.320,-74.219,-97.168,-102.539
1688816216.217,-80.566,31.250,-74.707,28.320,156.738
1688816216.221,-105.469,36.621,-77.148,40.527,26.855
1688816216.225,88.379,36.133,-77.637,-74.707,-194.336
1688816216.229,163.574,34.668,-75.195,-114.258,-194.824
1688816216.233,96.680,33.691,-83.008,-96.191,-170.898
1688816216.237,-76.660,25.391,-84.961,2.441,-19.043
1688816216.241,-125.488,26.855,-80.566,37.109,28.320
1688816216.244,57.617,29.785,-76.172,-79.590,40.527
1688816216.248,157.227,28.320,-73.242,-119.629,34.180
1688816216.252,120.605,29.297,-74.219,-91.797,-195.312
1688816216.256,-38.086,24.902,-74.219,-2.441,-140.137
1688816216.260,-120.605,23.926,-74.707,63.477,41.992
1688816216.260,58.105,29.297,-71.777,-27.832,-54.199
1688816216.264,168.945,25.391,-63.965,-92.285,-191.895
1688816216.268,130.371,20.020,-66.406,-90.332,-208.984
1688816216.272,-2.930,19.043,-63.477,-12.695,-19.531
1688816216.276,-115.234,21.484,-62.500,70.312,50.781
1688816216.280,31.738,25.391,-56.152,-10.742,-29.297
1688816216.284,168.457,25.391,-46.875,-95.703,12.695
1688816216.287,155.762,21.973,-45.898,-88.867,216.309
1688816216.291,30.273,22.949,-54.199,-15.137,282.227
1688816216.295,-123.047,23.438,-62.500,80.566,102.539
1688816216.299,-5.859,21.484,-53.223,3.418,-14.648
1688816216.303,150.879,19.043,-49.805,-102.539,-138.672
1688816216.306,137.695,8.301,-55.664,-104.980,-201.660
1688816216.310,24.902,6.348,-52.246,-33.203,-196.289
1688816216.314,-141.602,7.812,-50.293,80.566,-29.297
1688816216.318,-52.246,6.348,-45.898,27.344,16.602
1688816216.322,120.117,7.812,-43.945,-83.984,-136.719
1688816216.326,114.258,7.324,-41.504,-97.168,-149.414
1688816216.330,33.691,6.348,-33.203,-28.320,121.582
1688816216.333,-127.930,6.348,-32.715,87.891,339.844
1688816216.337,-79.102,5.371,-36.133,38.086,32.715
1688816216.341,112.305,4.395,-32.227,-76.172,-191.895
1688816216.345,131.836,-1.953,-27.344,-87.402,-165.527
1688816216.349,56.152,1.953,-26.855,-54.199,-130.371
1688816216.364,-122.070,0.977,-24.414,46.875,-66.895
1688816216.368,-116.699,-1.953,-23.926,37.598,-29.297
1688816216.372,78.613,0.000,-19.531,-81.543,0.000
