timestamps,TP9,AF7,AF8,TP10,Right AUX
1687530991.160,-61.523,2.441,-57.617,-77.148,-139.648
1687530991.164,-57.129,0.977,-67.871,-82.520,9.766
1687530991.168,-54.688,4.883,-73.242,-78.125,45.410
1687530991.172,-56.152,10.742,-81.055,-76.172,-138.184
1687530991.176,-77.148,13.184,-85.449,-80.078,-140.625
1687530991.180,-83.496,12.695,-91.309,-87.891,1.953
1687530991.184,-61.523,14.648,-100.098,-95.215,113.770
1687530991.187,-49.805,18.066,-102.539,-96.191,-43.457
1687530991.191,-43.945,20.996,-103.027,-89.844,-239.746
1687530991.195,-51.270,24.902,-106.445,-78.613,75.195
1687530991.199,-58.105,28.320,-108.887,-77.148,346.680
1687530991.203,-43.945,31.250,-105.957,-86.914,-29.785
1687531053.904,-37.598,-29.297,-28.809,-41.992,-126.465
1687531053.908,-29.785,-33.203,-28.320,-42.480,-11.230
1687531053.912,-32.227,-30.273,-30.273,-34.668,-80.078
1687531053.916,-50.781,-28.809,-27.832,-30.762,-176.758
1687531053.920,-50.293,-26.367,-23.926,-36.133,-112.793
1687531053.924,-29.297,-24.414,-26.855,-37.598,-20.020
1687531053.928,-18.066,-29.785,-29.297,-38.086,-28.809
1687531053.931,-24.902,-28.809,-29.785,-38.574,-117.188
1687531053.935,-45.410,-25.879,-31.738,-45.410,-117.676
1687531053.939,-41.504,-22.461,-41.992,-42.969,230.469
1687531053.943,-3.418,-16.113,-41.992,-26.367,187.012
1687531053.947,13.672,-21.484,-23.438,-16.113,-153.809
1687531137.231,-22.949,-24.902,-42.480,-77.148,-190.430
1687531137.235,-26.855,-26.367,-41.504,-66.406,-195.801
1687531137.239,-35.645,-24.902,-37.109,-62.988,-28.809
1687531137.243,-48.340,-26.855,-38.086,-63.477,15.137
1687531137.247,-30.273,-34.668,-32.227,-31.250,-67.383
1687531137.251,-10.254,-30.273,-30.762,-19.531,-18.555
1687531137.255,-17.090,-28.809,-34.180,-19.531,217.773
1687531137.258,-25.879,-28.320,-39.062,-13.184,438.477
1687531137.262,-33.203,-20.508,-48.340,-23.438,122.070
1687531137.266,-29.785,-20.508,-54.688,-24.902,-120.605
1687531137.270,-18.066,-19.043,-53.223,-16.113,-102.051
1687531137.274,-11.230,-22.461,-53.223,-14.160,-100.586
1687531137.277,-9.277,-23.926,-56.641,-14.160,-113.770
1687531137.281,-15.137,-16.602,-55.664,-15.625,-70.312
1687531137.285,-14.160,-18.555,-53.223,-17.578,-69.824
1687531137.289,-6.836,-19.531,-54.199,-24.902,-138.184
1687531137.293,-4.395,-18.066,-57.617,-36.621,-139.648
1687531137.297,-22.461,-24.414,-56.641,-36.133,167.480
1687531137.301,-33.203,-25.391,-53.711,-34.668,318.359
1687531137.304,-25.391,-24.902,-53.223,-39.551,-65.430
1687531137.308,-19.531,-26.367,-55.176,-36.133,-215.332
1687531137.312,-17.578,-22.461,-55.176,-41.016,-77.637
1687531137.316,-19.531,-18.066,-52.246,-48.340,-46.387
1687531137.320,-23.438,-14.648,-46.875,-45.410,-79.590
1687531137.336,-34.668,-20.996,-45.410,-47.363,-131.348
1687531137.340,-32.227,-30.273,-47.363,-60.547,14.160
1687531137.344,-24.902,-31.738,-48.828,-67.383,91.797
1687531137.348,-30.762,-30.762,-46.387,-58.105,-129.395
1687531137.352,-36.621,-37.109,-43.945,-59.570,-104.492
1687531137.356,-36.621,-40.527,-44.922,-50.293,147.461
1687531137.360,-31.250,-38.086,-44.922,-36.621,131.348
1687531137.363,-23.438,-33.203,-41.504,-37.598,-116.699
1687531137.367,-25.391,-32.227,-41.504,-35.645,-164.062
1687531137.371,-36.133,-33.203,-41.504,-31.738,128.418
1687531137.375,-40.039,-34.180,-42.969,-41.504,166.016
1687531137.379,-31.738,-32.715,-39.551,-53.711,-182.617
1687531137.381,-28.320,-33.203,-42.969,-56.152,-119.141
1687531137.385,-30.273,-35.645,-47.363,-54.199,-29.297
1687531137.389,-40.039,-31.738,-40.527,-50.781,-104.004
1687531137.393,-45.898,-30.273,-37.109,-52.734,-88.867
1687531137.397,-41.992,-32.227,-36.621,-51.758,-77.148
1687531137.401,-41.992,-34.180,-38.574,-47.852,0.488
1687531137.405,-45.410,-37.598,-39.062,-47.363,51.758
1687531137.408,-51.270,-40.039,-39.551,-46.875,-99.121
1687531137.412,-60.059,-40.039,-36.621,-55.176,-16.602
1687531137.416,-53.711,-35.645,-32.227,-50.781,210.449
1687531137.420,-36.133,-35.645,-36.133,-43.945,-83.008
1687531137.424,-38.574,-37.109,-36.133,-52.734,-261.719
1687531137.426,-47.852,-37.109,-35.645,-51.270,-42.480
1687531137.430,-49.805,-41.992,-36.621,-54.199,-12.695
1687531137.434,-49.805,-41.992,-33.203,-63.965,-182.617
1687531137.438,-36.133,-37.109,-32.227,-56.641,-192.383
1687531137.442,-26.367,-34.668,-36.133,-35.645,-67.383
1687531137.446,-34.668,-40.039,-38.574,-33.691,-6.348
1687531137.450,-46.387,-40.039,-38.574,-53.223,-36.133
1687531137.453,-48.828,-33.691,-38.574,-64.941,-149.414
1687531137.457,-45.410,-33.691,-41.504,-64.941,68.359
1687531137.461,-39.062,-34.180,-41.504,-59.570,216.309
1687531137.465,-35.645,-38.086,-39.551,-48.828,-87.891
1687531137.469,-41.016,-37.109,-42.969,-52.246,-58.594
1687531137.472,-46.387,-33.691,-46.387,-75.684,33.691
1687531137.476,-39.062,-37.109,-45.410,-74.219,-108.887
1687531137.480,-28.809,-34.180,-42.480,-62.988,-172.852
1687531137.484,-27.832,-33.691,-40.527,-50.293,-50.781
1687531137.488,-34.668,-32.715,-37.598,-42.969,50.293
1687531137.492,-34.180,-29.785,-33.691,-52.734,41.992
1687531137.496,-35.645,-36.133,-36.133,-68.848,-70.312
1687531137.499,-41.016,-40.039,-40.527,-73.242,-3.418
1687531137.503,-40.039,-33.691,-41.992,-60.059,142.090
1687531137.507,-49.316,-28.809,-43.457,-63.477,-42.969
1687531137.511,-62.012,-30.762,-44.434,-82.520,-163.086
1687531137.515,-53.223,-32.715,-45.898,-84.473,-164.551
1687531137.518,-39.551,-32.227,-43.457,-77.637,-125.977
1687531137.522,-38.574,-31.738,-37.598,-71.289,-138.672
1687531137.526,-47.852,-32.227,-39.062,-71.289,-62.988
1687531137.530,-52.734,-35.645,-40.527,-78.125,38.086
1687531137.534,-45.410,-38.086,-40.039,-70.801,-44.434
1687531137.538,-43.457,-35.645,-43.457,-67.383,-42.480
1687531137.542,-42.480,-35.645,-41.016,-62.988,7.812
1687531137.545,-49.805,-38.086,-35.156,-52.246,288.574
1687531137.549,-56.152,-33.691,-37.598,-51.758,316.895
1687531137.553,-49.316,-27.832,-41.504,-68.359,-80.566
1687531137.557,-44.434,-33.203,-41.992,-77.148,-92.773
1687531137.561,-44.434,-33.203,-37.109,-65.918,-58.594
1687531137.562,-57.617,-33.691,-37.598,-62.500,-136.230
1687531137.566,-71.289,-36.133,-35.645,-80.566,-202.637
1687531137.570,-67.871,-35.156,-31.738,-80.078,-154.785
1687531137.574,-55.664,-35.645,-36.621,-70.312,-78.613
1687531137.578,-50.293,-33.203,-39.551,-68.359,-76.660
1687531137.582,-64.453,-35.156,-36.133,-58.594,-63.965
1687531137.586,-79.102,-40.527,-35.156,-60.059,90.820
1687531137.589,-71.289,-44.434,-40.039,-63.965,298.340
1687531137.593,-60.059,-37.109,-37.109,-59.082,96.680
1687531137.597,-56.641,-36.621,-32.715,-66.895,-133.301
1687531137.601,-60.059,-38.086,-31.738,-74.707,-98.145
1687531137.605,-64.453,-35.156,-36.133,-75.195,-84.473
1687531137.636,-54.688,-39.062,-36.133,-76.172,-146.973
1687531137.640,-45.410,-38.086,-35.156,-73.242,-155.762
1687531137.644,-47.852,-35.645,-41.016,-66.406,-76.660
1687531137.648,-53.223,-32.227,-37.109,-55.176,-69.824
1687531137.652,-59.082,-33.203,-38.574,-59.082,-24.902
1687531137.656,-56.641,-36.621,-43.945,-73.730,-73.730
1687531137.660,-52.246,-40.039,-39.551,-76.660,149.414
1687531137.663,-51.270,-41.504,-35.645,-66.406,409.180
1687531137.667,-59.570,-43.457,-36.621,-62.500,42.969
1687531137.671,-76.172,-42.969,-36.133,-65.430,-132.812
1687531137.675,-72.266,-42.480,-34.180,-64.453,-64.941
1687531137.679,-69.824,-40.039,-35.156,-69.824,-172.852
1687531137.665,-66.406,-38.574,-33.203,-61.523,-242.188
1687531137.669,-64.453,-41.016,-27.832,-52.734,-113.770
1687531137.673,-76.660,-37.109,-30.762,-60.059,-52.734
1687531137.677,-67.871,-33.691,-30.762,-62.988,-84.961
1687531137.681,-64.941,-36.133,-29.297,-68.848,-137.207
1687531137.685,-69.336,-38.574,-35.156,-69.336,61.523
1687531137.689,-73.242,-39.551,-37.109,-54.688,206.055
1687531137.692,-83.984,-36.133,-35.645,-59.570,-44.434
1687531137.696,-80.078,-31.250,-35.645,-80.078,-113.281
1687531137.700,-68.848,-28.320,-34.668,-77.637,141.113
1687531137.704,-66.406,-30.762,-37.109,-64.453,169.922
1687531137.708,-71.777,-38.086,-39.062,-61.523,-153.320
1687531137.710,-80.566,-39.551,-39.062,-60.547,-145.020
1687531137.714,-80.078,-34.668,-41.016,-71.289,-28.809
1687531137.718,-71.777,-33.691,-39.062,-82.520,-59.570
1687531137.722,-64.453,-33.691,-35.156,-77.637,-169.922
1687531137.726,-70.312,-40.039,-40.527,-72.266,-21.973
1687531137.730,-89.355,-42.969,-44.434,-68.359,232.910
1687531137.734,-91.797,-43.945,-45.410,-63.965,154.785
1687531137.737,-75.684,-44.434,-49.805,-67.383,-83.496
1687531137.741,-66.895,-47.852,-53.711,-70.801,-186.035
1687531137.745,-66.406,-44.434,-51.270,-61.523,137.695
1687531137.749,-60.547,-37.598,-48.828,-51.758,158.691
1687531137.753,-57.617,-39.551,-50.781,-63.965,-118.164
1687531137.756,-51.758,-36.621,-48.340,-81.543,-45.410
1687531137.760,-36.621,-39.062,-43.945,-82.031,-13.184
1687531137.764,-32.715,-41.504,-47.852,-76.660,-80.078
1687531137.768,-48.828,-36.621,-47.363,-67.383,-85.449
1687531137.772,-65.430,-32.715,-40.039,-67.871,1.465
1687531137.776,-53.711,-32.715,-40.039,-69.824,80.566
1687531137.780,-50.781,-34.180,-44.434,-65.430,6.836
1687531137.783,-62.012,-29.785,-49.316,-80.078,-90.820
1687531137.787,-64.941,-28.809,-48.828,-81.055,59.570
1687531137.791,-70.801,-31.738,-48.828,-72.266,195.801
1687531137.795,-65.918,-35.156,-49.316,-80.566,-22.461
1687531137.799,-60.547,-36.621,-48.828,-80.566,-141.113
1687531137.802,-63.477,-33.203,-49.316,-73.730,-104.004
1687531137.806,-65.918,-29.297,-51.270,-65.918,-62.988
1687531137.810,-69.824,-30.273,-49.805,-61.523,-125.977
1687531137.814,-67.871,-33.691,-51.758,-65.430,-249.512
1687531137.818,-61.523,-36.621,-54.688,-61.035,-9.277
1687531137.822,-55.664,-36.133,-46.875,-49.316,101.074
1687531137.826,-58.105,-35.645,-41.504,-41.504,-72.266
1687531137.829,-72.754,-35.156,-41.504,-41.504,-90.332
1687531137.833,-69.824,-29.297,-38.574,-41.016,123.535
1687531137.837,-63.965,-27.832,-39.062,-42.969,122.070
1687531137.841,-61.523,-28.320,-40.039,-49.805,-195.801
1687531137.845,-66.895,-28.320,-45.410,-52.734,-103.516
1687531137.847,-71.289,-30.762,-47.363,-54.688,-33.203
1687531137.851,-63.965,-28.809,-40.527,-54.688,-154.785
1687531137.855,-56.641,-30.273,-41.992,-54.199,-153.809
1687531137.859,-57.129,-32.227,-44.434,-53.223,-51.758
1687531137.863,-62.012,-32.227,-39.551,-49.316,-26.855
1687531137.867,-63.965,-32.227,-35.645,-45.898,13.672
1687531137.871,-60.059,-31.738,-37.109,-50.781,-23.926
1687531137.874,-50.293,-31.738,-37.598,-46.875,-35.156
1687531137.878,-45.410,-34.180,-41.016,-37.109,207.520
1687531137.882,-50.781,-31.250,-46.387,-38.574,47.363
1687531137.886,-59.082,-29.297,-47.852,-44.434,-148.926
1687531137.890,-57.617,-30.762,-43.457,-48.340,-78.613
1687531137.890,-48.340,-30.762,-42.969,-51.270,-120.117
1687531137.894,-49.316,-34.668,-48.340,-49.805,-169.434
1687531137.898,-48.340,-36.621,-51.270,-36.133,-156.738
1687531137.902,-58.105,-31.250,-47.363,-36.133,-99.121
1687531137.906,-67.383,-26.855,-46.875,-46.875,-44.434
1687531137.910,-51.270,-24.902,-49.805,-41.016,-2.441
1687531137.914,-46.875,-29.297,-47.852,-41.504,63.477
1687531137.917,-54.688,-28.320,-49.805,-42.969,270.020
1687531137.921,-60.059,-29.785,-49.805,-29.297,433.594
1687531137.925,-65.430,-35.156,-46.387,-41.992,51.270
1687531137.929,-60.059,-37.109,-49.805,-54.199,-223.145
1687531137.933,-48.340,-35.156,-47.363,-49.316,-134.277
1687531137.937,-41.504,-30.762,-41.504,-44.922,-174.316
1687531137.941,-47.363,-32.227,-39.551,-36.621,-210.938
1687531137.945,-50.293,-33.203,-39.551,-27.832,-103.027
1687531137.949,-46.387,-29.785,-40.039,-41.504,-85.449
1687531137.953,-40.527,-30.762,-42.480,-60.059,-99.121
1687531137.957,-38.086,-37.598,-44.434,-52.246,-10.254
1687531137.961,-40.527,-32.227,-41.016,-33.203,166.016
1687531137.964,-43.945,-29.297,-37.598,-34.180,178.711
1687531137.968,-45.410,-35.156,-39.551,-48.828,-44.434
1687531137.972,-39.551,-38.086,-36.621,-45.898,-121.094
1687531137.976,-34.668,-40.527,-38.574,-37.598,-20.508
1687531137.980,-44.434,-39.062,-41.992,-37.598,17.578
1687531137.980,-61.035,-36.621,-37.109,-41.016,-145.508
1687531137.984,-49.805,-37.598,-34.180,-41.992,-199.707
1687531137.988,-33.691,-30.273,-35.156,-41.992,-153.809
1687531137.992,-35.645,-29.785,-36.133,-44.434,-101.074
1687531137.996,-39.062,-30.273,-34.668,-41.992,-110.352
1687531138.000,-41.016,-30.273,-39.062,-41.016,-120.605
1687531138.004,-45.898,-31.250,-38.574,-35.645,170.898
1687531138.007,-46.875,-31.738,-32.227,-32.715,263.672
1687531138.011,-39.062,-35.645,-34.180,-30.762,-89.355
1687531138.015,-46.387,-35.645,-35.645,-30.273,-109.375
1687531138.019,-67.871,-32.715,-35.156,-42.480,31.738
1687531138.023,-62.012,-26.855,-31.250,-49.316,-68.848
1687531138.028,-44.434,-22.461,-30.762,-49.316,-234.863
1687531138.032,-43.457,-26.367,-37.109,-37.598,-95.703
1687531138.036,-46.875,-28.320,-35.645,-27.344,68.359
1687531138.040,-55.664,-27.832,-38.086,-40.527,-22.461
1687531138.044,-52.246,-33.203,-35.645,-47.363,-133.789
1687531138.048,-45.898,-35.156,-32.715,-34.668,54.199
1687531138.052,-48.340,-34.180,-39.062,-32.715,229.492
1687531138.055,-48.340,-34.180,-39.551,-38.086,-5.859
1687531138.059,-61.523,-36.133,-35.645,-38.086,-131.836
1687531138.063,-69.336,-39.551,-32.227,-40.039,-95.215
1687531138.067,-57.617,-35.645,-31.250,-48.340,-81.543
1687531138.071,-55.664,-32.715,-30.762,-47.852,-181.641
1687531138.085,-64.453,-40.527,-30.273,-42.480,-186.035
1687531138.089,-73.730,-41.504,-28.320,-39.551,-52.246
1687531138.093,-71.289,-36.133,-28.809,-45.410,3.906
1687531138.097,-58.594,-37.109,-30.273,-53.711,-126.953
1687531138.101,-49.316,-38.086,-26.855,-48.828,-87.402
1687531138.105,-41.992,-42.480,-21.484,-24.902,246.582
1687531138.109,-33.691,-35.645,-24.414,-14.160,231.445
1687531138.112,-37.109,-21.973,-31.738,-29.785,-93.262
1687531138.116,-50.781,-22.461,-37.598,-53.711,-176.270
1687531138.120,-53.223,-21.484,-41.016,-57.129,-7.812
1687531138.124,-56.152,-15.625,-41.992,-52.246,-21.973
1687531138.128,-74.707,-11.230,-50.781,-68.359,-148.926
1687531138.131,-90.332,-8.789,-60.547,-88.379,-116.699
1687531138.135,-86.914,-3.906,-69.336,-104.980,-63.477
1687531138.139,-85.938,1.953,-73.730,-107.422,-107.422
1687531138.143,-94.238,6.836,-79.102,-108.398,-153.320
1687531138.147,-110.840,16.113,-85.938,-111.328,-20.996
1687531138.151,-122.070,22.461,-89.844,-121.582,46.875
1687531138.155,-113.281,22.461,-92.773,-125.977,34.180
1687531138.158,-111.816,24.902,-96.191,-126.465,-54.199
1687531138.162,-113.281,25.391,-99.609,-125.488,23.438
1687531138.166,-109.375,30.273,-101.074,-118.164,177.734
1687531138.170,-112.305,35.645,-102.539,-132.324,-83.984
1687531138.174,-100.098,34.180,-102.539,-146.484,-141.602
1687531138.175,-84.961,37.109,-107.422,-147.461,-96.680
1687531138.179,-79.102,36.621,-104.004,-136.719,-120.605
1687531138.183,-76.172,37.109,-99.609,-125.488,-111.328
1687531138.187,-88.379,36.133,-101.074,-117.188,-82.031
1687531138.191,-72.754,30.762,-99.609,-114.258,-24.902
1687531138.195,-54.688,27.832,-96.191,-111.328,-28.320
1687531138.199,-63.965,24.902,-97.656,-107.422,-61.035
1687531138.202,-70.801,26.367,-96.191,-97.656,-104.492
1687531138.206,-78.125,28.809,-91.797,-78.613,188.477
1687531138.210,-77.637,33.691,-89.844,-68.359,279.297
1687531138.214,-73.242,32.227,-85.449,-90.820,-57.617
1687531138.218,-74.219,26.855,-83.008,-95.215,-138.672
1687531138.222,-68.359,31.250,-81.055,-74.707,-89.844
1687531138.226,-70.801,30.762,-75.684,-65.918,-88.379
1687531138.230,-62.500,29.297,-65.918,-66.406,-91.309
1687531138.234,-47.852,23.438,-59.570,-69.824,-73.730
1687531138.238,-45.898,12.695,-61.523,-62.012,-42.969
1687531138.242,-40.039,7.324,-58.105,-55.176,31.738
1687531138.246,-53.711,3.418,-59.082,-62.500,22.461
1687531138.249,-52.246,8.789,-58.594,-65.918,57.617
1687531138.253,-32.715,15.137,-49.805,-53.223,319.336
1687531138.257,-32.227,10.742,-52.246,-55.664,104.004
1687531138.261,-31.738,5.859,-49.805,-63.477,-169.922
1687531138.265,-43.945,1.953,-47.852,-63.477,-111.328
1687531138.265,-52.246,-7.324,-49.805,-69.824,-116.211
1687531138.269,-52.734,-16.113,-46.875,-71.777,-177.246
1687531138.273,-43.457,-12.207,-43.457,-64.941,-187.500
1687531138.277,-37.598,-5.371,-39.062,-52.246,-90.332
1687531138.281,-44.922,-4.883,-41.016,-50.781,-46.387
1687531138.285,-54.688,-4.883,-38.086,-49.805,-16.602
1687531138.289,-50.781,-5.859,-28.809,-53.223,-67.383
1687531138.292,-28.320,-5.371,-27.832,-47.852,193.359
1687531138.296,-23.438,-4.883,-31.738,-45.898,315.918
1687531138.300,-41.504,-7.812,-28.320,-49.316,-68.359
1687531138.304,-47.852,-10.254,-24.414,-42.480,-71.289
1687531138.308,-40.527,-12.207,-25.879,-43.945,25.391
1687531138.312,-20.996,-11.230,-26.367,-44.434,-133.301
1687531138.316,-8.301,-11.719,-30.273,-42.480,-184.570
1687531138.320,-20.996,-9.277,-29.297,-48.828,-62.012
1687531138.324,-28.320,-10.254,-25.391,-50.781,-37.109
1687531138.328,-21.484,-13.184,-22.461,-45.898,-124.023
1687531138.332,-15.137,-11.719,-20.996,-42.480,-69.336
1687531138.336,-14.648,-15.137,-19.531,-34.668,115.723
1687531138.339,-20.996,-14.648,-15.625,-20.508,186.035
1687531138.343,-33.203,-11.719,-15.625,-17.578,-61.035
1687531138.347,-31.250,-19.043,-16.113,-29.297,-202.637
1687531138.351,-26.855,-20.996,-13.672,-31.250,-147.461
1687531138.355,-27.344,-17.578,-10.254,-27.344,-121.582
1687531138.357,-25.879,-19.043,-11.719,-21.973,-133.789
1687531138.361,-33.203,-21.973,-13.184,-40.039,-117.188
1687531138.365,-32.715,-19.043,-7.812,-45.410,-7.324
1687531138.369,-30.762,-22.949,-9.277,-30.273,-86.914
1687531138.373,-23.926,-28.320,-13.672,-29.297,-119.141
1687531138.377,-20.996,-21.973,-12.207,-37.109,-103.027
1687531138.381,-31.250,-25.391,-13.184,-29.297,153.809
1687531138.384,-30.762,-32.715,-17.090,-25.879,314.941
1687531138.388,-25.391,-27.832,-13.672,-40.527,-93.262
1687531138.392,-24.902,-21.973,-9.766,-34.668,-147.949
1687531138.396,-27.832,-22.461,-10.742,-34.668,-15.137
1687531138.400,-37.598,-23.926,-7.812,-34.180,-90.332
1687531138.403,-33.203,-25.879,-9.766,-33.691,-168.945
1687531138.407,-24.902,-21.973,-11.719,-37.598,-100.098
1687531138.411,-33.203,-25.391,-12.207,-41.016,-93.262
1687531138.415,-39.062,-29.785,-20.508,-38.086,-32.227
1687531138.419,-43.457,-24.902,-17.578,-36.133,-41.992
1687531138.423,-57.617,-24.414,-16.113,-33.203,62.012
1687531138.427,-63.477,-27.832,-19.043,-34.668,391.602
1687531138.430,-55.664,-27.832,-15.625,-55.176,107.910
1687531138.434,-44.922,-26.855,-11.230,-59.570,-164.062
1687531138.438,-51.270,-30.273,-18.555,-55.176,-46.875
1687531138.442,-52.246,-30.273,-22.461,-55.664,-25.879
1687531138.446,-43.457,-30.762,-19.043,-53.711,-123.535
1687531138.460,-38.086,-33.691,-18.555,-52.246,-174.805
1687531138.464,-34.668,-36.133,-16.602,-35.645,-90.820
1687531138.468,-43.457,-33.691,-15.137,-21.484,-11.719
1687531138.472,-49.805,-31.250,-14.160,-28.809,-60.547
1687531138.476,-44.922,-27.344,-11.719,-34.668,-109.863
1687531138.480,-34.668,-27.344,-11.230,-36.133,117.188
1687531138.484,-28.809,-26.367,-10.742,-35.645,312.012
1687531138.487,-40.039,-25.391,-9.277,-31.738,103.027
1687531138.491,-42.969,-23.438,-9.277,-33.203,-83.008
1687531138.495,-38.574,-23.438,-4.883,-28.809,125.488
1687531138.499,-30.762,-26.367,-4.883,-26.367,232.422
1687531138.503,-23.926,-25.391,-8.789,-26.855,-95.703
1687531138.523,-35.645,-24.902,-17.090,-20.996,-110.352
1687531138.527,-34.668,-25.391,-26.855,-21.973,-31.738
1687531138.531,-11.230,-19.531,-21.973,-12.207,-150.879
1687531138.535,-9.277,-25.879,-8.789,-7.812,-262.695
1687531138.539,-18.066,-41.016,-1.953,-15.625,-156.250
1687531138.543,-40.527,-47.363,2.441,-24.414,40.039
1687531138.547,-57.129,-53.711,8.789,-41.504,12.207
1687531138.550,-58.105,-60.547,13.672,-49.316,-131.836
1687531138.554,-52.246,-66.406,12.207,-52.246,-3.418
1687531138.558,-40.039,-70.312,17.578,-42.480,297.363
1687531138.562,-50.293,-78.613,32.227,-33.203,63.477
1687531138.566,-61.035,-86.914,40.039,-41.504,-122.070
1687531138.551,-63.965,-94.727,48.340,-48.340,-51.758
1687531138.555,-58.594,-94.238,56.152,-38.574,-97.656
1687531138.559,-57.129,-93.750,58.594,-27.344,-115.723
1687531138.563,-73.242,-105.469,62.988,-23.438,-74.219
1687531138.567,-93.750,-115.723,67.871,-25.391,35.156
1687531138.571,-96.680,-123.047,67.871,-36.133,63.477
1687531138.575,-89.355,-125.977,65.918,-32.227,-42.969
1687531138.578,-91.309,-127.930,70.801,-19.043,-26.367
1687531138.582,-93.262,-129.883,74.707,-20.996,-13.672
1687531138.586,-111.816,-127.441,74.219,-30.273,-47.852
1687531138.590,-111.328,-126.465,68.359,-41.016,-72.754
1687531138.594,-95.703,-122.559,64.453,-42.480,-97.656
1687531138.602,-98.633,-117.188,65.430,-24.902,160.645
1687531138.606,-92.285,-115.723,61.523,-12.207,281.738
1687531138.610,-94.727,-111.328,53.711,-23.926,-15.625
1687531138.614,-100.586,-103.516,43.945,-30.762,-47.852
1687531138.618,-94.727,-97.656,38.574,-35.156,-80.566
1687531138.622,-85.449,-95.215,39.551,-39.551,-137.207
1687531138.626,-82.031,-90.820,37.598,-35.645,-103.516
1687531138.629,-89.844,-84.961,35.645,-29.785,-11.230
1687531138.633,-98.633,-87.402,33.691,-35.156,137.695
1687531138.637,-87.402,-82.520,28.809,-45.410,-93.262
1687531138.641,-75.195,-73.242,23.438,-45.898,-216.309
1687531138.645,-65.918,-68.848,24.902,-33.203,-117.676
1687531138.641,-66.895,-66.895,19.531,-30.762,36.621
1687531138.645,-69.824,-61.035,14.160,-30.762,10.254
1687531138.649,-57.129,-59.082,17.578,-27.832,-135.742
1687531138.653,-50.781,-63.965,13.672,-41.992,-28.809
1687531138.657,-55.176,-61.035,11.230,-43.945,37.598
1687531138.661,-59.570,-55.664,11.230,-34.668,-42.480
1687531138.665,-69.824,-57.129,8.301,-49.805,-90.820
1687531138.668,-72.266,-58.594,9.277,-53.223,238.770
1687531138.672,-62.012,-54.199,8.789,-40.527,321.777
1687531138.676,-57.129,-54.688,5.371,-46.875,-99.609
1687531138.680,-62.988,-57.617,-1.465,-41.992,-137.695
1687531138.684,-68.359,-56.152,-4.883,-39.551,-56.641
1687531138.689,-62.500,-47.852,-0.977,-44.922,-151.855
1687531138.693,-52.734,-40.527,1.465,-42.969,-273.438
1687531138.697,-48.828,-41.504,6.836,-40.527,-121.094
1687531138.701,-56.641,-41.504,7.324,-33.691,35.645
1687531138.705,-59.570,-42.480,0.977,-28.809,-149.902
1687531138.709,-50.293,-41.016,-3.906,-39.062,-153.809
1687531138.713,-38.574,-38.574,-7.812,-48.340,22.949
1687531138.716,-31.738,-40.039,-11.719,-37.598,190.430
1687531138.720,-31.738,-36.621,-19.043,-35.156,-25.391
1687531138.724,-40.527,-33.691,-14.160,-32.715,-188.965
1687531138.728,-40.527,-35.156,-10.254,-35.645,-106.445
1687531138.732,-27.832,-34.668,-9.766,-48.340,-131.836
1687531138.731,-16.602,-33.691,-4.883,-40.039,-200.684
1687531138.735,-23.926,-33.691,-6.348,-25.879,-150.391
1687531138.739,-38.086,-33.203,-8.789,-24.902,-76.660
1687531138.743,-41.504,-33.691,-14.160,-43.457,-59.570
1687531138.747,-29.297,-31.738,-19.043,-41.504,-40.527
1687531138.751,-11.719,-28.809,-11.719,-21.973,-68.359
1687531138.755,-39.062,-35.645,0.488,-25.391,191.406
1687531138.758,-65.430,-41.504,1.953,-34.668,389.160
1687531138.762,-60.547,-40.039,-7.812,-47.852,-24.414
1687531138.766,-45.410,-41.016,-8.301,-44.434,-187.500
1687531138.770,-38.086,-42.480,-1.953,-33.691,-22.949
1687531138.774,-44.922,-40.039,-4.395,-44.922,-29.297
1687531138.791,-52.734,-38.574,-3.418,-42.969,-92.773
1687531138.795,-46.387,-37.109,-4.883,-44.434,-108.398
1687531138.799,-32.715,-38.574,-4.883,-33.203,-10.742
1687531138.803,-25.391,-38.574,-2.441,-21.484,-54.688
1687531138.807,-21.973,-37.109,-1.953,-16.113,-212.402
1687531138.811,-27.344,-40.039,-7.812,-8.301,-48.828
1687531138.815,-33.691,-38.086,-10.742,-13.672,111.816
1687531138.818,-27.832,-41.016,-9.766,-29.297,13.184
1687531138.822,-17.578,-39.062,-7.812,-33.691,-153.320
1687531138.826,-17.578,-36.621,-7.324,-23.926,2.441
1687531138.830,-29.785,-41.016,-12.695,-28.320,161.133
1687531138.834,-38.086,-38.574,-9.766,-34.180,-145.508
1687531138.835,-29.297,-33.691,-3.906,-38.574,-184.082
1687531138.839,-24.414,-29.297,-10.742,-52.246,-73.730
1687531138.843,-30.273,-32.715,-15.137,-40.527,-87.402
1687531138.847,-47.852,-34.180,-12.207,-38.086,-145.996
1687531138.851,-54.199,-31.250,-14.648,-58.594,-113.281
1687531138.855,-44.434,-30.273,-17.578,-64.453,34.668
1687531138.859,-43.457,-30.273,-20.996,-74.219,51.270
1687531138.862,-35.156,-31.250,-22.461,-70.801,-71.777
1687531138.866,-17.090,-26.855,-18.555,-45.410,-200.684
1687531138.870,-47.363,-30.762,-12.207,-45.410,91.309
1687531138.874,-79.102,-44.434,-7.812,-69.336,174.316
1687531138.878,-55.664,-46.387,-12.207,-74.707,-257.812
1687531138.886,-41.504,-40.039,-17.578,-64.453,-180.664
1687531138.890,-69.824,-45.410,-17.090,-72.754,-30.273
1687531138.894,-96.680,-50.293,-17.090,-92.285,-139.160
1687531138.898,-97.656,-47.852,-22.461,-102.539,-199.219
1687531138.902,-92.773,-41.504,-24.902,-107.910,-99.609
1687531138.906,-83.008,-39.062,-21.484,-94.727,1.465
1687531138.910,-78.125,-40.039,-19.531,-83.496,-13.672
1687531138.913,-87.402,-44.434,-21.973,-83.984,-142.578
1687531138.917,-77.148,-46.875,-25.391,-78.613,59.082
1687531138.921,-58.594,-36.621,-21.484,-76.660,237.793
1687531138.925,-60.059,-34.180,-21.484,-82.031,-65.430
1687531138.929,-66.406,-40.039,-23.926,-81.055,-67.383
1687531138.925,-74.707,-42.969,-28.809,-74.707,122.559
1687531138.929,-70.801,-39.062,-26.855,-72.266,44.922
1687531138.933,-59.570,-38.574,-22.461,-83.008,-148.926
1687531138.937,-58.105,-44.922,-23.438,-79.102,-130.371
1687531138.941,-52.246,-47.852,-24.414,-61.523,15.137
1687531138.945,-57.129,-44.922,-22.949,-52.734,80.078
1687531138.949,-62.988,-41.504,-21.484,-55.664,30.273
1687531138.952,-52.246,-39.062,-21.484,-54.688,-44.922
1687531138.956,-35.645,-36.621,-18.066,-39.551,185.059
1687531138.960,-37.598,-31.738,-16.602,-40.527,228.516
1687531138.964,-57.617,-31.250,-17.578,-36.133,-111.816
1687531138.968,-54.199,-31.250,-16.113,-30.273,-121.582
1687531138.973,-35.156,-32.227,-15.625,-40.527,-98.145
1687531138.977,-30.762,-35.156,-18.555,-41.016,-150.879
1687531138.981,-24.902,-35.156,-15.625,-35.156,-128.906
1687531138.985,-22.461,-30.762,-14.160,-16.602,33.203
1687531138.989,-33.203,-27.344,-12.695,-13.184,83.984
1687531138.993,-30.273,-27.832,-10.742,-33.203,-24.414
1687531138.997,-26.367,-29.297,-11.719,-28.809,-50.781
1687531139.000,-29.297,-26.855,-13.184,-21.484,41.016
1687531139.004,-33.203,-24.414,-16.113,-22.949,182.617
1687531139.008,-41.992,-29.785,-19.043,-33.203,-45.410
1687531139.012,-38.086,-31.738,-18.555,-44.922,-189.941
1687531139.016,-28.809,-29.297,-17.090,-37.598,-113.770
1687531139.016,-25.879,-30.273,-21.973,-35.156,-73.730
1687531139.020,-34.180,-29.297,-18.555,-35.645,-52.246
1687531139.024,-39.551,-28.809,-11.719,-23.926,-65.430
1687531139.028,-26.855,-27.832,-14.160,-17.090,-96.680
1687531139.032,-20.020,-24.902,-14.648,-20.996,-67.383
1687531139.036,-25.391,-22.949,-14.160,-20.020,-14.648
1687531139.040,-25.391,-23.926,-18.066,-14.160,21.973
1687531139.043,-39.062,-23.926,-18.066,-13.672,251.953
1687531139.047,-43.945,-28.320,-19.043,-15.137,398.438
1687531139.051,-38.086,-28.809,-20.508,-24.414,-13.184
1687531139.055,-35.645,-32.715,-19.043,-26.855,-215.820
1687531139.059,-23.438,-35.156,-17.578,-25.391,-43.457
1687531139.062,-41.016,-26.367,-28.809,-42.480,-81.055
1687531139.066,-51.270,-20.996,-39.551,-56.152,-205.078
1687531139.070,-41.992,-27.344,-35.156,-56.641,-135.742
1687531139.074,-46.875,-30.273,-35.645,-42.969,-38.574
1687531139.078,-44.434,-28.320,-35.156,-34.180,-116.699
1687531139.082,-48.340,-22.949,-28.320,-35.156,-186.523
1687531139.086,-47.852,-24.902,-28.809,-35.156,-24.414
1687531139.089,-34.668,-27.832,-28.320,-32.715,316.895
1687531139.093,-26.855,-23.438,-25.879,-30.273,82.520
1687531139.097,-31.250,-21.973,-28.809,-34.180,-254.883
1687531139.101,-45.898,-25.391,-31.250,-37.598,-121.094
1687531139.105,-45.898,-27.344,-34.668,-44.434,-115.234
1687531139.105,-39.551,-29.297,-33.691,-52.734,-210.938
1687531139.109,-36.621,-33.203,-34.668,-41.504,-147.949
1687531139.113,-30.762,-28.320,-31.738,-27.832,-72.754
1687531139.117,-46.875,-27.344,-31.250,-25.879,-57.129
1687531139.121,-51.270,-31.250,-32.227,-21.484,-95.703
1687531139.125,-33.203,-27.832,-26.855,-19.531,-99.121
1687531139.129,-29.297,-25.391,-26.855,-21.973,196.777
1687531139.132,-32.227,-25.879,-29.297,-21.484,324.219
1687531139.136,-42.480,-28.809,-31.250,-32.227,-55.176
1687531139.140,-52.246,-29.785,-31.250,-36.133,-162.109
1687531139.144,-46.387,-28.809,-29.297,-34.180,-63.477
1687531139.148,-40.039,-32.227,-27.832,-36.621,-148.926
1687531139.152,-40.039,-33.691,-28.809,-41.016,-262.207
1687531139.156,-46.875,-34.180,-31.250,-45.898,-159.668
1687531139.160,-54.199,-35.645,-34.668,-38.086,-127.930
1687531139.164,-43.945,-33.203,-40.039,-41.992,-191.895
1687531139.168,-40.039,-30.762,-42.480,-47.363,-175.293
1687531139.172,-41.016,-28.320,-37.109,-39.551,11.719
1687531139.176,-48.340,-28.809,-34.668,-32.715,134.766
1687531139.179,-49.805,-24.902,-32.227,-32.227,-68.359
1687531139.183,-36.621,-22.949,-26.367,-31.250,-178.223
1687531139.187,-27.832,-28.809,-24.902,-28.320,-66.895
1687531139.191,-34.180,-33.691,-28.320,-28.809,-34.668
1687531139.195,-50.781,-34.180,-25.879,-35.645,-46.387
1687531139.210,-56.641,-33.691,-21.484,-37.598,-66.895
1687531139.214,-50.293,-32.715,-19.043,-34.180,-81.543
1687531139.218,-38.574,-34.668,-22.949,-33.203,-71.777
1687531139.222,-30.762,-38.574,-29.297,-28.809,-146.484
1687531139.226,-36.133,-34.180,-25.879,-16.602,-105.957
1687531139.230,-47.363,-33.203,-29.297,-18.555,266.113
1687531139.234,-47.852,-32.227,-35.645,-29.297,320.801
1687531139.237,-42.969,-31.250,-37.109,-43.945,-74.707
1687531139.241,-39.062,-35.156,-38.574,-44.434,-139.160
1687531139.245,-42.480,-37.598,-41.016,-35.645,102.539
1687531139.249,-55.664,-36.133,-40.039,-41.016,61.035
1687531139.253,-47.363,-33.203,-32.227,-43.945,-176.270
1687531139.258,-36.621,-37.109,-26.855,-41.016,-147.949
1687531139.262,-39.062,-35.645,-25.391,-38.086,-38.086
1687531139.266,-43.457,-31.738,-25.879,-35.645,26.855
1687531139.270,-56.641,-35.156,-25.879,-46.387,-75.684
1687531139.274,-49.805,-38.086,-28.320,-53.223,-41.992
1687531139.278,-37.109,-33.691,-31.250,-52.246,116.211
1687531139.282,-33.691,-31.738,-32.715,-55.664,74.219
1687531139.285,-29.785,-31.738,-32.715,-46.875,22.461
1687531139.289,-34.668,-30.273,-28.809,-39.551,115.234
1687531139.293,-24.414,-24.414,-24.414,-47.852,190.918
1687531139.297,-11.230,-23.438,-27.832,-48.828,-15.625
1687531139.301,-15.625,-28.809,-31.250,-52.734,-111.816
1687531139.302,-22.949,-26.367,-31.250,-56.152,-118.652
1687531139.306,-39.551,-29.785,-31.250,-43.945,-124.512
1687531139.310,-50.293,-33.691,-30.273,-43.457,-174.805
1687531139.314,-43.945,-31.250,-26.855,-49.805,-205.566
1687531139.318,-38.086,-29.785,-24.902,-46.875,-75.684
1687531139.322,-38.086,-28.320,-27.832,-54.688,-0.488
1687531139.326,-41.992,-29.785,-27.832,-56.641,-17.578
1687531139.329,-53.711,-32.227,-29.785,-52.246,6.836
1687531139.333,-55.664,-29.297,-30.273,-47.363,182.129
1687531139.337,-53.223,-33.203,-33.203,-38.086,295.898
1687531139.341,-55.664,-36.621,-33.691,-42.480,-1.465
1687531139.345,-59.570,-30.762,-26.855,-38.086,-77.637
1687531139.347,-58.594,-27.832,-28.320,-36.133,22.949
1687531139.351,-55.664,-30.273,-31.250,-48.828,-111.328
1687531139.355,-49.316,-34.668,-30.273,-45.410,-149.902
1687531139.359,-46.387,-32.715,-26.855,-40.527,-13.184
1687531139.363,-51.270,-30.273,-25.879,-41.016,-13.672
1687531139.367,-62.988,-33.203,-26.855,-42.969,-98.145
1687531139.371,-56.641,-34.668,-27.832,-62.500,-49.316
1687531139.374,-44.922,-35.645,-27.344,-59.570,92.285
1687531139.378,-50.781,-36.133,-27.344,-45.898,300.781
1687531139.382,-57.617,-36.621,-29.785,-55.176,83.008
1687531139.386,-63.477,-37.598,-31.738,-60.059,-147.949
1687531139.390,-53.711,-37.109,-31.250,-66.895,-116.699
1687531139.410,-41.504,-38.086,-29.785,-60.059,-136.719
1687531139.414,-34.668,-33.691,-30.762,-57.129,-149.902
1687531139.418,-43.457,-31.738,-34.668,-65.430,-173.828
1687531139.422,-56.152,-31.250,-30.762,-59.570,-134.277
1687531139.426,-49.805,-29.785,-31.738,-61.523,-101.562
1687531139.430,-42.480,-35.645,-35.156,-64.941,-138.184
1687531139.434,-43.457,-35.156,-30.762,-59.570,-101.074
1687531139.437,-49.805,-33.691,-30.273,-51.758,148.926
1687531139.441,-62.500,-32.715,-33.203,-52.734,336.426
1687531139.445,-59.082,-30.762,-36.133,-65.430,57.129
1687531139.449,-46.387,-34.180,-33.691,-61.035,-99.609
1687531139.453,-37.598,-35.156,-30.762,-60.547,30.762
1687531139.437,-32.715,-32.227,-32.715,-57.617,-11.230
1687531139.441,-54.199,-33.691,-35.156,-50.781,-180.176
1687531139.445,-59.082,-39.062,-34.668,-57.129,-142.578
1687531139.449,-41.992,-37.109,-35.645,-59.082,-78.125
1687531139.453,-41.016,-34.668,-35.156,-52.246,-162.598
1687531139.457,-41.016,-35.645,-31.250,-36.621,-80.078
1687531139.461,-33.691,-30.762,-31.250,-35.156,176.758
1687531139.464,-34.180,-28.320,-34.180,-47.852,228.027
1687531139.468,-31.250,-32.227,-36.133,-57.129,-52.246
1687531139.472,-26.855,-34.668,-37.109,-62.988,-198.730
1687531139.476,-38.574,-34.180,-33.691,-55.664,-120.117
1687531139.480,-50.293,-30.762,-29.297,-44.922,-2.930
1687531139.480,-44.434,-31.250,-28.320,-43.945,-77.148
1687531139.484,-31.738,-33.691,-26.855,-37.109,-197.266
1687531139.488,-35.156,-38.086,-26.855,-36.133,-57.129
1687531139.492,-40.527,-39.062,-29.785,-44.922,-30.273
1687531139.496,-44.922,-40.039,-28.809,-43.945,-73.730
1687531139.500,-46.387,-36.133,-25.391,-39.551,-110.352
1687531139.504,-36.133,-32.227,-25.879,-46.387,197.266
1687531139.507,-34.180,-34.180,-26.367,-34.668,336.914
1687531139.511,-30.762,-29.785,-22.949,-30.273,-128.906
1687531139.515,-31.738,-29.297,-25.879,-26.855,-152.344
1687531139.519,-47.852,-26.855,-28.320,-20.996,-97.168
1687531139.523,-38.574,-21.973,-28.809,-42.480,-107.910
1687531139.528,-23.438,-25.391,-30.273,-41.504,-169.922
1687531139.532,-23.438,-34.180,-28.320,-25.879,-75.684
1687531139.536,-16.113,-36.621,-27.832,-8.789,73.242
1687531139.540,-20.508,-22.949,-39.062,-10.254,-100.098
1687531139.544,-30.762,-15.625,-43.945,-33.691,-174.805
1687531139.548,-22.461,-14.648,-42.480,-39.062,18.066
1687531139.552,-19.043,-12.207,-49.316,-24.902,219.238
1687531139.555,-38.086,-12.207,-58.105,-37.109,117.188
1687531139.559,-48.828,-8.301,-64.941,-45.410,-55.664
1687531139.563,-34.668,0.488,-68.848,-43.457,40.039
1687531139.567,-30.273,3.418,-80.566,-61.035,80.078
1687531139.571,-29.297,8.789,-90.332,-71.777,-141.602
1687531139.585,-46.875,18.066,-91.309,-74.219,-148.926
1687531139.589,-62.500,20.508,-92.773,-78.613,-6.836
1687531139.593,-64.453,25.391,-95.703,-90.820,-41.992
1687531139.597,-50.293,29.297,-99.609,-83.496,-117.188
1687531139.601,-27.344,31.738,-103.027,-79.590,-41.016
1687531139.605,-29.297,34.180,-106.934,-87.402,311.035
1687531139.609,-44.434,39.551,-109.375,-76.660,366.699
1687531139.612,-36.133,44.434,-110.352,-71.777,-101.562
1687531139.616,-26.855,44.922,-113.770,-91.309,-174.316
1687531139.620,-17.578,47.363,-115.234,-90.332,59.570
1687531139.624,-14.160,46.875,-125.488,-81.543,-3.906
1687531139.628,-35.156,44.922,-127.441,-80.078,-169.434
1687531139.631,-28.320,44.922,-121.582,-75.195,-135.254
1687531139.635,-12.695,45.898,-118.164,-72.754,-119.141
1687531139.639,-13.184,47.363,-114.746,-66.406,-171.387
1687531139.643,-15.625,46.875,-112.305,-71.289,-133.789
1687531139.647,-19.043,51.270,-104.004,-65.918,-42.480
1687531139.651,-15.137,48.828,-100.586,-68.848,-13.184
1687531139.655,-2.930,41.016,-94.238,-79.102,-34.180
1687531139.658,-5.371,38.086,-90.820,-65.918,-45.898
1687531139.662,-16.113,35.645,-91.797,-52.734,33.203
1687531139.666,-4.883,36.133,-84.961,-46.387,243.164
1687531139.670,4.395,30.762,-76.660,-40.039,82.520
1687531139.674,8.301,28.809,-72.754,-33.203,-125.000
1687531139.675,12.695,26.367,-70.801,-35.645,-95.215
1687531139.679,19.043,20.020,-67.383,-24.414,-77.637
1687531139.683,16.602,20.508,-63.477,-16.602,-114.258
1687531139.687,5.371,20.996,-60.059,-23.438,-130.371
1687531139.691,12.695,16.113,-59.082,-26.855,-64.453
1687531139.695,17.090,12.695,-59.082,-14.648,-15.137
1687531139.699,7.324,8.789,-57.617,-12.695,64.941
1687531139.702,-2.930,6.836,-53.711,-26.855,21.973
1687531139.706,-15.137,5.859,-48.828,-14.160,191.406
1687531139.710,-12.207,-0.488,-44.434,-20.508,386.230
1687531139.714,0.000,-3.418,-42.480,-33.691,-30.273
1687531139.718,6.836,-1.953,-43.457,-27.832,-162.598
1687531139.736,7.324,-4.395,-41.992,-16.602,-66.895
1687531139.740,-0.977,-6.348,-42.480,-37.109,-158.691
1687531139.744,-3.418,-6.348,-49.805,-61.523,-177.246
1687531139.748,7.812,-3.418,-47.363,-52.734,-137.207
1687531139.752,9.766,-1.953,-38.574,-38.086,-61.523
1687531139.756,10.254,-2.930,-36.621,-41.504,71.289
1687531139.760,-2.930,-8.301,-37.109,-39.551,-37.598
1687531139.763,-0.488,-11.230,-36.621,-32.227,13.184
1687531139.767,22.949,-12.207,-36.621,-22.949,162.598
1687531139.771,28.320,-17.090,-39.551,-16.602,-62.012
1687531139.775,23.926,-18.555,-41.016,-14.648,-169.922
1687531139.779,20.020,-14.648,-34.180,3.418,13.184
1687531139.766,21.973,-19.531,-30.762,8.301,-5.371
1687531139.770,33.691,-17.578,-31.250,-0.488,-176.758
1687531139.774,42.969,-16.602,-30.273,9.766,-118.164
1687531139.778,37.109,-23.438,-34.668,18.066,-69.336
1687531139.782,33.203,-23.926,-35.156,4.883,-0.488
1687531139.786,22.949,-21.973,-29.785,-10.742,35.645
1687531139.790,24.414,-22.461,-28.320,-16.602,-58.105
1687531139.793,41.016,-22.949,-26.367,-12.695,247.559
1687531139.797,38.574,-26.855,-22.949,-3.906,356.934
1687531139.801,24.414,-22.949,-20.996,-8.789,-78.125
1687531139.805,18.066,-17.090,-21.973,-19.043,-117.188
1687531139.809,25.391,-22.461,-22.461,-27.344,-89.355
1687531139.813,27.344,-21.484,-20.508,-29.297,-172.363
1687531139.817,26.367,-20.020,-20.020,-22.461,-113.281
1687531139.821,14.648,-23.926,-18.555,-17.090,-5.859
1687531139.825,7.324,-27.344,-18.555,-21.484,19.531
1687531139.829,18.066,-28.809,-20.996,-24.414,-113.281
1687531139.833,26.855,-27.344,-14.648,-26.367,-207.520
1687531139.837,29.297,-30.273,-14.160,-17.578,-5.859
1687531139.840,18.555,-30.762,-14.160,-6.348,252.441
1687531139.844,13.672,-26.855,-10.254,-9.277,-18.555
1687531139.848,20.020,-31.250,-13.672,-8.301,-142.578
1687531139.852,21.973,-30.762,-16.602,4.395,-115.234
1687531139.856,27.832,-27.344,-14.160,13.184,-146.484
1687531139.855,23.438,-30.762,-13.672,-4.395,-145.996
1687531139.859,9.277,-34.668,-10.254,-7.324,-127.441
1687531139.863,5.371,-34.668,-8.789,-9.766,-81.055
1687531139.867,1.465,-28.809,-12.207,-27.344,-131.348
1687531139.871,-0.488,-31.250,-17.578,-20.996,-66.895
1687531139.875,-4.395,-33.691,-19.531,-13.184,43.945
1687531139.879,-9.766,-34.180,-22.949,-16.602,254.395
1687531139.882,-11.230,-34.668,-25.879,-17.090,430.664
1687531139.886,-8.789,-32.715,-24.414,-24.414,56.152
1687531139.890,-4.395,-26.367,-25.879,-29.297,-166.504
1687531139.894,-6.348,-21.973,-26.367,-31.738,-42.480
1687531139.898,-7.324,-24.414,-24.414,-38.086,-102.051
1687531139.930,-7.324,-27.344,-25.879,-41.504,-194.824
1687531139.934,-1.953,-28.320,-22.949,-27.832,-152.344
1687531139.938,4.883,-29.785,-20.020,-26.855,-97.168
1687531139.942,-2.441,-34.180,-24.902,-35.645,-143.555
1687531139.946,-19.531,-35.645,-26.855,-43.945,-192.383
1687531139.950,-20.996,-37.109,-26.367,-47.852,-13.184
1687531139.954,-13.672,-39.062,-27.344,-41.504,129.395
1687531139.957,-10.742,-35.156,-27.344,-48.340,3.418
1687531139.961,-22.949,-36.133,-30.273,-52.246,-121.582
1687531139.965,-36.133,-33.203,-26.855,-51.758,22.949
1687531139.969,-29.785,-29.297,-25.879,-50.781,183.594
1687531139.973,-13.672,-33.691,-28.320,-46.387,-38.086
1687531139.961,-20.020,-35.645,-23.926,-54.199,-104.980
1687531139.965,-32.227,-35.645,-21.484,-50.293,-71.777
1687531139.969,-31.738,-33.203,-24.902,-39.062,-92.285
1687531139.973,-34.668,-36.621,-30.273,-40.527,-169.922
1687531139.977,-35.645,-35.645,-31.250,-35.156,-160.645
1687531139.981,-34.180,-35.156,-35.156,-35.156,120.117
1687531139.985,-26.367,-34.180,-39.062,-38.574,123.047
1687531139.988,-24.414,-27.344,-37.598,-32.715,-83.496
1687531139.992,-29.785,-28.809,-39.062,-51.758,-93.262
1687531139.996,-18.555,-27.832,-40.527,-68.848,-87.402
1687531140.000,-4.883,-20.996,-38.086,-57.617,-137.695
1687531140.004,0.000,-17.578,-39.551,-56.152,-161.621
1687531140.006,-6.348,-19.043,-37.598,-58.594,-167.480
1687531140.010,-19.531,-22.461,-33.691,-58.105,118.652
1687531140.014,-13.672,-21.484,-41.992,-60.059,166.992
1687531140.018,13.184,-14.160,-45.410,-33.203,-177.734
1687531140.022,13.672,-20.508,-34.180,-9.766,-78.125
1687531140.026,-29.785,-41.992,-25.391,-37.598,33.691
1687531140.030,-55.664,-48.828,-18.555,-61.523,-52.734
1687531140.033,-53.223,-51.758,-11.230,-73.242,-126.953
1687531140.037,-58.105,-63.965,-9.277,-80.078,-71.777
1687531140.041,-62.012,-74.707,-4.395,-67.383,169.434
1687531140.045,-63.965,-82.520,7.324,-59.082,138.672
1687531140.049,-82.520,-91.309,16.113,-62.500,-49.316
1687531140.050,-84.961,-101.074,19.043,-64.453,-29.297
1687531140.054,-89.355,-108.887,18.066,-59.570,-33.691
1687531140.058,-89.355,-110.840,18.555,-46.875,-137.207
1687531140.062,-106.934,-117.676,23.926,-47.363,-81.055
1687531140.066,-123.535,-120.117,27.832,-45.898,-19.531
1687531140.070,-116.699,-120.117,29.297,-49.805,24.902
1687531140.074,-116.699,-119.629,30.273,-73.242,-16.602
1687531140.077,-106.445,-119.629,33.691,-72.754,-114.746
1687531140.081,-115.723,-124.023,33.203,-62.012,111.816
1687531140.085,-124.023,-123.047,30.273,-55.176,204.102
1687531140.089,-101.074,-118.164,31.250,-54.199,-136.719
1687531140.093,-78.613,-108.398,28.320,-53.223,-130.859
1687531140.097,-75.195,-109.375,22.949,-45.898,12.207
1687531140.101,-75.684,-106.934,23.438,-38.574,-76.660
1687531140.105,-72.266,-104.492,21.973,-49.316,-167.480
1687531140.109,-73.242,-104.004,15.137,-53.223,-93.262
1687531140.113,-74.707,-94.727,15.137,-45.410,1.465
1687531140.117,-66.895,-91.309,7.812,-47.363,-93.750
1687531140.121,-64.453,-95.215,-3.906,-46.875,-147.461
1687531140.124,-68.848,-91.797,-0.977,-33.691,9.766
1687531140.128,-65.918,-86.426,1.953,-29.297,181.152
1687531140.132,-57.617,-85.449,-7.812,-45.898,-64.453
1687531140.136,-44.922,-81.543,-11.230,-51.758,-207.520
1687531140.140,-45.898,-76.172,-10.254,-51.758,-98.145
1687531140.140,-64.453,-66.895,-11.719,-52.734,-78.125
1687531140.144,-64.941,-63.477,-10.254,-49.805,-129.883
1687531140.148,-45.898,-58.594,-8.301,-44.922,-177.734
1687531140.152,-39.551,-53.711,-11.230,-31.738,-74.707
1687531140.156,-41.016,-54.688,-14.648,-23.438,-0.977
1687531140.160,-43.945,-58.594,-17.090,-27.832,-21.973
1687531140.164,-50.293,-61.035,-18.066,-40.527,-78.613
1687531140.167,-40.039,-58.105,-20.508,-37.598,110.352
1687531140.171,-24.414,-56.641,-26.855,-32.227,301.758
1687531140.175,-29.297,-53.711,-21.484,-31.738,13.672
1687531140.179,-46.387,-49.805,-12.695,-29.785,-73.242
1687531140.183,-48.828,-45.898,-17.090,-41.016,-53.711
1687531140.188,-37.598,-44.922,-18.555,-42.480,-136.230
1687531140.192,-25.879,-46.387,-13.184,-39.062,-105.469
1687531140.196,-22.949,-43.457,-19.531,-20.508,-13.184
1687531140.200,-33.691,-43.457,-25.391,-14.648,40.527
1687531140.204,-37.598,-44.434,-20.996,-18.066,-106.445
1687531140.208,-33.203,-40.039,-22.949,-17.578,-80.566
1687531140.212,-24.902,-36.621,-24.414,-23.438,61.523
1687531140.215,-25.391,-37.598,-26.855,-20.996,187.500
1687531140.219,-36.621,-40.039,-31.250,-25.391,50.293
1687531140.223,-41.504,-41.504,-26.855,-30.273,-164.551
1687531140.227,-41.016,-42.480,-20.508,-32.715,-124.512
1687531140.231,-36.621,-41.504,-23.438,-32.715,-127.930
1687531140.230,-27.344,-43.945,-28.809,-32.715,-217.285
1687531140.234,-36.133,-43.457,-26.855,-29.785,-145.996
1687531140.238,-47.363,-41.504,-27.344,-39.551,-62.012
1687531140.242,-50.781,-46.875,-30.762,-43.945,-92.285
1687531140.246,-51.270,-47.852,-29.297,-39.551,-114.746
1687531140.250,-33.691,-42.480,-32.715,-39.551,-92.773
1687531140.254,-33.203,-40.527,-32.227,-28.809,229.004
1687531140.257,-42.480,-35.156,-32.715,-25.879,463.867
1687531140.261,-21.484,-31.250,-29.297,-27.832,75.195
1687531140.265,-21.484,-43.457,-16.602,-35.156,-132.324
1687531140.269,-36.621,-50.781,-14.648,-40.039,-8.789
1687531140.273,-40.039,-46.387,-9.766,-25.879,7.812
1687531140.278,-55.664,-46.387,-13.672,-22.461,-78.613
1687531140.282,-58.105,-50.293,-19.043,-23.438,-98.633
1687531140.286,-54.688,-49.805,-15.137,-29.297,-98.145
1687531140.290,-54.688,-51.270,-18.555,-36.133,-165.039
1687531140.294,-46.875,-47.363,-15.625,-31.250,-115.234
1687531140.298,-58.105,-44.922,-12.695,-37.109,106.934
1687531140.302,-63.965,-47.363,-16.113,-41.992,203.125
1687531140.305,-52.246,-45.898,-18.066,-39.062,-81.055
1687531140.309,-45.410,-48.828,-22.949,-42.480,-235.352
1687531140.313,-50.781,-48.828,-26.367,-37.109,-12.207
1687531140.317,-67.383,-46.387,-27.832,-39.062,93.262
1687531140.321,-63.477,-47.363,-26.855,-51.270,-150.879
1687531140.335,-44.434,-43.945,-26.367,-62.500,-193.848
1687531140.339,-31.250,-42.480,-28.809,-65.430,-96.191
1687531140.343,-35.156,-45.410,-31.738,-58.105,-46.387
1687531140.347,-50.293,-44.922,-31.250,-41.992,-68.848
1687531140.351,-49.316,-41.992,-30.762,-40.527,-4.395
1687531140.355,-35.645,-39.551,-30.273,-45.898,322.266
1687531140.359,-27.344,-40.039,-29.297,-33.691,308.594
1687531140.362,-28.809,-38.574,-25.391,-30.273,10.254
1687531140.366,-46.387,-38.086,-22.949,-31.250,-71.777
1687531140.370,-56.152,-39.551,-26.367,-38.086,62.988
1687531140.374,-44.922,-44.434,-33.203,-46.387,9.277
1687531140.378,-41.016,-44.922,-35.156,-47.363,-198.242
1687531140.380,-42.480,-42.480,-32.715,-47.363,-33.691
1687531140.384,-47.363,-43.945,-33.691,-47.852,58.594
1687531140.388,-60.059,-33.691,-35.156,-51.270,-136.719
1687531140.392,-49.805,-27.344,-35.156,-52.734,-204.102
1687531140.396,-43.457,-33.691,-41.016,-47.363,-115.723
1687531140.400,-41.504,-31.250,-42.480,-46.875,-56.641
1687531140.404,-37.598,-27.344,-32.227,-41.504,-77.637
1687531140.407,-45.410,-29.297,-33.203,-42.480,-171.875
1687531140.411,-37.598,-32.227,-36.621,-51.270,-70.312
1687531140.415,-28.320,-35.156,-35.645,-48.828,157.227
1687531140.419,-31.738,-35.645,-36.133,-46.875,-31.250
1687531140.423,-38.086,-32.227,-36.621,-46.387,-126.953
1687531140.426,-47.363,-29.297,-38.574,-49.316,-32.227
1687531140.430,-41.992,-33.203,-34.180,-49.805,-48.828
1687531140.434,-32.227,-35.645,-34.668,-47.852,-61.035
1687531140.438,-37.598,-37.109,-37.109,-42.480,-65.918
1687531140.442,-44.922,-38.086,-33.203,-20.508,222.656
1687531140.446,-54.688,-35.156,-34.668,-18.066,389.648
1687531140.450,-56.152,-35.156,-40.039,-47.363,12.695
1687531140.453,-60.059,-39.062,-36.621,-59.082,-122.070
1687531140.457,-56.152,-38.574,-32.227,-39.062,75.684
1687531140.461,-47.363,-36.133,-31.738,-33.691,94.727
1687531140.465,-61.035,-35.156,-34.180,-47.363,-173.340
1687531140.469,-54.199,-31.738,-37.109,-43.945,-160.645
1687531140.472,-42.480,-36.133,-38.574,-44.922,-119.629
1687531140.476,-30.273,-40.527,-40.039,-47.363,-140.625
1687531140.480,-25.391,-37.598,-38.574,-48.340,-163.574
1687531140.484,-42.969,-37.598,-37.598,-43.457,-163.574
1687531140.488,-40.039,-34.668,-39.062,-43.457,-92.773
1687531140.492,-27.832,-32.227,-39.551,-40.527,-128.906
1687531140.496,-24.902,-32.227,-37.598,-36.621,-148.438
1687531140.499,-38.086,-37.598,-43.945,-46.387,65.430
1687531140.503,-42.969,-36.621,-46.875,-45.410,317.383
1687531140.507,-37.598,-31.738,-45.410,-64.453,65.918
1687531140.511,-36.133,-34.668,-47.363,-73.242,-189.941
1687531140.515,-24.902,-37.598,-46.387,-54.688,-66.895
1687531140.515,-23.926,-32.715,-41.504,-42.969,-39.551
1687531140.519,-34.668,-28.320,-41.504,-40.039,-104.004
1687531140.523,-40.527,-29.297,-43.457,-46.875,-98.145
1687531140.527,-36.133,-29.297,-46.875,-41.016,-81.543
1687531140.531,-28.320,-27.344,-39.551,-36.621,-43.457
1687531140.535,-25.391,-28.809,-36.621,-39.062,83.008
1687531140.539,-29.297,-27.832,-38.086,-31.738,69.336
1687531140.542,-42.969,-32.715,-35.645,-21.973,236.816
1687531140.546,-34.668,-39.062,-33.691,-20.020,430.664
1687531140.550,-22.949,-35.645,-33.691,-24.902,59.082
1687531140.554,-28.809,-35.156,-35.156,-22.461,-192.383
1687531140.558,-33.691,-35.156,-35.156,-16.602,-112.305
1687531140.562,-36.133,-37.598,-28.809,-18.066,-99.121
1687531140.566,-28.320,-36.133,-30.762,-31.738,-153.809
1687531140.570,-20.508,-32.227,-40.527,-47.852,-115.234
1687531140.574,-24.414,-32.715,-41.992,-48.340,-78.613
1687531140.578,-37.109,-36.621,-43.945,-52.734,-135.742
1687531140.582,-42.480,-31.250,-45.898,-55.664,-158.203
1687531140.586,-30.273,-22.949,-43.457,-47.852,7.812
1687531140.589,-15.625,-25.391,-40.527,-35.156,169.434
1687531140.593,-19.043,-26.367,-44.922,-34.180,-0.977
1687531140.597,-26.855,-24.414,-48.340,-46.875,-54.199
1687531140.601,-32.715,-23.438,-38.574,-43.945,108.887
1687531140.605,-29.297,-26.855,-39.062,-42.480,62.988
1687531140.605,-21.484,-28.320,-41.016,-53.711,-154.297
1687531140.609,-31.250,-26.855,-42.480,-53.223,-152.832
1687531140.613,-46.875,-27.344,-45.410,-45.898,-104.492
1687531140.617,-56.641,-25.879,-41.992,-47.852,-122.559
1687531140.621,-58.105,-29.785,-38.574,-62.500,-124.512
1687531140.625,-43.945,-32.715,-37.109,-65.918,-124.023
1687531140.629,-31.250,-32.715,-35.156,-31.738,164.062
1687531140.632,-36.133,-33.203,-31.738,-19.043,372.070
1687531140.636,-42.969,-32.715,-32.227,-24.902,3.418
1687531140.640,-42.480,-37.598,-35.645,-25.879,-136.719
1687531140.644,-38.086,-34.668,-36.133,-32.715,-113.770
1687531140.648,-37.109,-31.250,-37.109,-31.250,-118.652
1687531140.653,-44.434,-32.227,-38.574,-31.738,-110.352
1687531140.657,-53.711,-31.250,-41.992,-29.785,-56.152
1687531140.661,-47.363,-28.809,-39.062,-37.109,18.555
1687531140.665,-33.203,-25.879,-34.180,-51.270,-99.609
1687531140.669,-18.555,-25.879,-36.621,-53.223,-150.391
1687531140.673,-12.207,-26.367,-35.645,-39.062,3.906
1687531140.677,-21.484,-25.391,-31.738,-28.320,147.461
1687531140.680,-12.207,-23.926,-26.855,-42.480,-24.414
1687531140.684,1.465,-23.438,-25.391,-48.340,-186.035
1687531140.688,-5.859,-26.367,-30.762,-41.016,-8.301
1687531140.692,-17.090,-26.855,-27.832,-38.086,142.578
1687531140.696,-30.762,-26.855,-19.531,-37.598,-71.289
1687531140.710,-33.691,-25.391,-20.508,-38.086,-173.828
1687531140.714,-24.902,-26.367,-18.555,-36.621,-155.273
1687531140.718,-25.391,-29.297,-16.602,-28.320,-112.305
1687531140.722,-36.133,-26.367,-23.438,-36.621,-143.066
1687531140.726,-49.316,-25.391,-28.809,-43.945,-131.348
1687531140.730,-52.246,-30.762,-31.738,-40.527,168.457
1687531140.734,-47.852,-33.203,-35.645,-44.434,385.742
1687531140.737,-46.387,-29.785,-35.645,-52.246,30.762
1687531140.741,-44.922,-30.762,-32.227,-50.781,-138.184
1687531140.745,-44.434,-34.180,-34.668,-37.598,-65.918
1687531140.749,-49.316,-30.762,-34.180,-48.340,-128.418
1687531140.753,-49.316,-31.738,-34.668,-57.129,-215.820
1687531140.756,-36.621,-34.180,-38.086,-40.527,-156.738
1687531140.760,-39.062,-34.180,-40.039,-35.156,-94.727
1687531140.764,-47.363,-33.691,-43.457,-38.086,-124.023
1687531140.768,-59.082,-35.645,-43.945,-42.969,-111.816
1687531140.772,-67.383,-42.969,-45.410,-53.711,-6.836
1687531140.776,-62.012,-45.898,-47.852,-50.781,125.000
1687531140.780,-52.246,-42.480,-43.945,-50.293,35.645
1687531140.783,-54.199,-40.527,-40.039,-41.504,-129.883
1687531140.787,-58.105,-41.504,-43.945,-35.156,-35.645
1687531140.791,-60.059,-41.016,-42.480,-48.340,158.203
1687531140.795,-50.781,-37.598,-42.480,-55.176,-69.824
1687531140.799,-42.969,-36.621,-40.039,-52.734,-172.363
1687531140.800,-53.223,-41.504,-41.016,-54.199,-70.801
1687531140.804,-66.895,-41.504,-44.922,-61.523,-71.777
1687531140.808,-69.336,-41.016,-45.898,-67.871,-161.621
1687531140.812,-62.500,-42.480,-44.922,-76.172,-148.926
1687531140.816,-58.594,-38.574,-41.992,-65.430,35.645
1687531140.820,-68.848,-38.574,-38.574,-56.152,28.320
1687531140.824,-81.055,-39.062,-36.621,-68.359,-10.742
1687531140.827,-73.242,-36.621,-33.203,-74.219,24.902
1687531140.831,-61.035,-38.574,-32.715,-62.012,167.969
1687531140.835,-54.199,-43.945,-35.156,-52.246,285.156
1687531140.839,-53.223,-48.340,-40.527,-55.176,-62.500
1687531140.843,-68.359,-47.363,-42.480,-50.293,-169.434
1687531140.848,-61.035,-44.922,-36.621,-41.016,-68.848
1687531140.852,-42.969,-37.109,-36.133,-41.992,-172.852
1687531140.856,-35.156,-31.250,-36.621,-34.180,-223.145
1687531140.860,-33.203,-34.668,-38.574,-18.066,-82.520
1687531140.864,-46.875,-31.250,-40.527,-25.391,-10.742
1687531140.868,-53.223,-29.785,-42.480,-49.316,-47.852
1687531140.872,-38.086,-31.250,-46.387,-58.105,-36.621
1687531140.875,-27.832,-30.273,-45.410,-44.922,-56.641
1687531140.879,-27.344,-32.227,-41.016,-39.551,109.375
1687531140.883,-31.250,-33.691,-41.992,-36.133,100.586
1687531140.887,-41.504,-30.273,-36.621,-35.645,-131.348
1687531140.891,-30.762,-31.738,-33.203,-36.133,-113.770
1687531140.890,-23.926,-33.203,-37.598,-33.203,-26.855
1687531140.894,-28.809,-30.762,-36.621,-39.551,-95.703
1687531140.898,-29.785,-25.391,-32.227,-50.781,-99.609
1687531140.902,-46.387,-24.414,-33.691,-58.105,-99.121
1687531140.906,-46.875,-23.438,-32.227,-58.105,9.277
1687531140.910,-33.691,-26.367,-30.762,-44.922,25.391
1687531140.914,-33.203,-30.762,-31.250,-40.039,-25.391
1687531140.917,-41.504,-27.832,-32.715,-35.645,235.840
1687531140.921,-53.711,-27.832,-31.738,-36.621,338.867
1687531140.925,-42.969,-33.203,-32.715,-44.922,-40.039
1687531140.929,-31.738,-31.738,-33.691,-27.344,-171.387
1687531140.933,-28.320,-25.879,-28.809,-9.277,-82.031
1687531140.937,-37.109,-27.832,-32.227,-15.625,-116.699
1687531140.941,-46.387,-36.133,-35.645,-41.504,-173.828
1687531140.945,-40.039,-34.180,-33.203,-37.598,-104.492
1687531140.949,-29.785,-27.832,-28.320,-25.391,23.926
1687531140.953,-27.344,-25.879,-26.855,-41.992,-93.750
1687531140.957,-39.062,-26.855,-33.691,-41.016,-115.723
1687531140.961,-51.758,-28.809,-37.109,-33.691,62.500
1687531140.964,-41.504,-29.297,-32.227,-38.574,168.457
1687531140.968,-33.203,-30.273,-33.203,-59.082,-59.570
1687531140.972,-28.320,-27.832,-36.621,-62.012,-195.312
1687531140.976,-27.344,-27.832,-39.062,-40.527,-97.656
1687531140.980,-41.992,-30.762,-41.992,-36.133,-125.000
1687531140.982,-41.016,-33.691,-38.086,-41.992,-158.203
1687531140.986,-35.645,-38.574,-38.086,-42.969,-62.012
1687531140.990,-29.785,-41.992,-38.086,-33.203,27.832
1687531140.994,-9.766,-35.156,-36.133,-4.395,26.367
1687531140.998,-12.207,-20.508,-42.480,-7.812,5.371
1687531141.002,-25.879,-16.602,-47.363,-42.480,-117.188
1687531141.006,-13.672,-19.043,-53.223,-39.551,61.523
1687531141.009,-1.465,-12.695,-58.105,-22.949,311.523
1687531141.013,-6.348,-3.906,-62.988,-31.738,-43.945
1687531141.017,-18.555,3.906,-70.312,-37.598,-166.504
1687531141.021,-27.832,6.836,-79.590,-38.086,-79.102
1687531141.025,-16.113,6.836,-90.332,-39.551,-141.113
1687531141.027,-7.324,15.137,-95.215,-38.574,-166.016
1687531141.031,-21.484,21.484,-95.703,-46.875,-85.938
1687531141.035,-29.785,22.949,-100.586,-58.594,-31.738
1687531141.039,-28.809,29.297,-103.516,-59.082,-59.570
1687531141.043,-20.508,32.715,-102.539,-60.547,-104.004
1687531141.047,-22.949,30.762,-108.887,-68.848,1.465
1687531141.051,-27.832,30.273,-116.699,-69.336,338.867
1687531141.054,-26.855,34.180,-122.559,-66.895,165.527
1687531141.058,-29.297,37.598,-121.582,-79.102,-185.547
1687531141.062,-24.902,38.086,-116.211,-82.031,-146.973
1687531141.066,-15.137,46.387,-118.652,-83.984,-128.906
1687531141.070,-16.602,45.898,-127.930,-93.750,-156.738
1687531141.100,-27.344,40.527,-125.000,-83.008,-103.516
1687531141.104,-30.273,43.457,-120.605,-83.984,-44.434
1687531141.108,-20.996,44.922,-118.164,-90.820,-68.848
1687531141.112,0.977,42.969,-115.234,-84.961,-147.461
1687531141.116,-2.441,41.992,-116.699,-78.613,-91.309
1687531141.120,-32.227,35.645,-112.305,-60.059,229.004
1687531141.124,-38.086,26.367,-105.469,-52.734,232.422
1687531141.127,-20.996,27.832,-102.051,-56.152,-16.113
1687531141.131,-7.812,22.461,-95.703,-54.199,-102.539
1687531141.135,0.488,21.484,-91.797,-43.945,110.352
1687531141.139,-30.273,20.020,-90.332,-28.809,128.418
1687531141.143,-55.664,7.812,-83.008,-42.969,-213.379
1687531141.131,-16.602,7.812,-82.031,-54.199,-175.293
1687531141.135,-14.160,2.930,-83.984,-52.734,-132.812
1687531141.139,-24.414,-2.441,-80.566,-56.641,-113.770
1687531141.143,-25.391,-0.488,-80.078,-53.223,-80.566
1687531141.147,-36.621,-0.488,-76.660,-44.922,-41.016
1687531141.151,-28.320,1.953,-70.312,-49.316,-42.480
1687531141.155,-13.184,-3.418,-65.430,-60.059,-93.262
1687531141.158,-15.625,-17.578,-69.336,-56.152,-173.828
1687531141.162,-22.949,-18.555,-69.824,-41.504,-44.434
1687531141.166,-32.227,-14.648,-62.012,-34.180,44.922
1687531141.170,-28.320,-13.672,-60.059,-34.668,-101.074
1687531141.174,-17.578,-19.531,-59.570,-41.504,-154.297
1687531141.175,-15.137,-20.996,-54.199,-35.156,35.156
1687531141.179,-16.113,-21.484,-51.758,-15.137,291.504
1687531141.183,-20.996,-24.414,-48.828,-12.695,27.344
1687531141.187,-16.602,-21.484,-49.316,-24.902,-154.785
1687531141.191,-11.719,-22.461,-49.316,-30.762,-51.270
1687531141.195,-12.207,-23.926,-47.363,-33.691,-6.348
1687531141.199,-14.160,-26.367,-48.828,-28.809,-56.641
1687531141.202,-23.926,-25.391,-49.316,-16.113,-64.453
1687531141.206,-27.832,-22.949,-50.293,-16.602,149.414
1687531141.210,-7.812,-25.391,-49.805,-19.043,150.391
1687531141.214,2.441,-24.414,-53.223,-29.785,-128.906
1687531141.218,-3.906,-21.484,-52.734,-23.926,-89.355
1687531141.222,-14.648,-21.973,-46.387,-5.371,63.477
1687531141.226,-23.926,-25.391,-46.387,-13.184,-78.613
1687531141.230,-15.137,-29.297,-43.457,-35.156,-161.621
1687531141.234,-11.719,-29.297,-37.109,-27.344,-53.711
1687531141.238,-18.066,-25.879,-39.551,-15.137,-45.898
1687531141.242,-19.531,-27.344,-40.039,-17.090,-35.156
1687531141.246,-17.578,-29.785,-38.086,-14.648,-63.477
1687531141.249,-12.207,-28.809,-40.039,-14.648,24.902
1687531141.253,-2.930,-29.785,-44.922,-15.625,162.109
1687531141.257,-1.953,-28.320,-48.828,-15.137,-74.219
1687531141.261,-10.742,-29.297,-47.363,-12.207,-136.719
1687531141.265,-21.973,-34.668,-46.387,-21.484,-40.527
1687531141.266,-10.254,-36.621,-45.898,-19.531,-99.121
1687531141.270,1.465,-36.621,-43.457,-18.555,-116.211
1687531141.274,0.000,-35.156,-42.969,-19.043,-129.883
1687531141.278,-6.348,-36.133,-43.457,-15.625,-36.621
1687531141.282,-13.184,-37.598,-46.875,-29.297,18.555
1687531141.286,-11.230,-31.738,-43.457,-34.668,-98.145
1687531141.290,-11.719,-32.715,-38.086,-36.621,-107.910
1687531141.293,-16.602,-38.574,-43.457,-29.785,210.938
1687531141.297,-18.555,-37.109,-52.246,-19.531,379.883
1687531141.301,-23.926,-42.480,-56.152,-31.250,52.734
1687531141.305,-25.879,-41.016,-51.758,-33.691,-85.938
1687531141.309,-11.230,-37.109,-49.805,-30.762,-101.074
1687531141.312,-4.395,-41.016,-50.781,-27.344,-138.184
1687531141.316,-13.184,-41.992,-50.293,-25.391,-140.137
1687531141.320,-25.879,-40.527,-47.363,-26.855,-97.168
1687531141.324,-19.531,-38.574,-47.363,-27.832,-30.762
1687531141.328,-8.789,-37.109,-45.898,-24.902,-97.168
1687531141.332,-12.207,-35.645,-43.945,-21.484,-99.609
1687531141.336,-11.719,-38.086,-48.828,-13.672,55.176
1687531141.339,-32.715,-39.551,-53.711,-13.672,333.984
1687531141.343,-38.086,-41.016,-51.758,-29.297,102.051
1687531141.347,-23.438,-46.387,-49.805,-45.898,-203.613
1687531141.351,-9.277,-42.480,-50.293,-49.805,-87.402
1687531141.355,-13.184,-39.551,-50.781,-45.410,-104.004
1687531141.355,-33.691,-44.434,-50.293,-46.875,-148.926
1687531141.359,-33.203,-44.922,-51.270,-45.410,-158.203
1687531141.363,-23.438,-41.504,-51.270,-35.645,-56.641
1687531141.367,-19.531,-36.133,-48.340,-27.832,-21.973
1687531141.371,-13.672,-36.621,-46.387,-30.762,-68.848
1687531141.375,-19.531,-34.668,-42.969,-20.508,-28.809
1687531141.379,-25.391,-35.645,-44.922,-21.484,223.145
1687531141.382,-20.508,-38.574,-52.246,-33.691,396.484
1687531141.386,-11.719,-38.574,-52.734,-35.645,9.766
1687531141.390,-0.977,-34.180,-48.340,-28.809,-185.059
1687531141.394,-2.441,-32.715,-48.828,-20.996,-11.230
1687531141.398,-6.348,-38.574,-49.805,-30.762,-74.707
1687531141.406,7.324,-39.551,-46.875,-40.527,-202.148
1687531141.410,17.578,-40.527,-46.875,-38.574,-110.352
1687531141.414,10.742,-41.992,-47.852,-33.203,-78.613
1687531141.418,2.930,-39.062,-49.805,-20.996,-158.203
1687531141.422,-8.301,-41.504,-51.758,-23.926,-166.016
1687531141.426,-12.695,-36.133,-48.340,-33.691,57.617
1687531141.430,-1.953,-32.227,-43.457,-25.391,195.312
1687531141.433,-13.184,-41.016,-47.852,-26.367,-62.500
1687531141.437,-27.832,-41.016,-49.805,-30.273,-158.203
1687531141.441,-33.691,-42.969,-52.246,-20.508,7.324
1687531141.445,-36.621,-46.387,-53.223,-29.297,109.863
1687531141.449,-23.438,-43.457,-51.270,-43.945,-75.684
1687531141.460,-23.438,-43.457,-54.199,-39.062,-132.324
1687531141.464,-41.992,-47.852,-53.223,-42.480,-92.285
1687531141.468,-46.875,-48.828,-50.293,-42.480,-106.445
1687531141.472,-34.668,-41.992,-51.758,-38.574,-109.863
1687531141.476,-16.602,-37.109,-44.434,-31.250,-136.719
1687531141.480,-12.207,-41.016,-47.363,-16.602,125.000
1687531141.484,-22.461,-45.898,-54.688,-5.371,239.746
1687531141.487,-36.621,-45.410,-49.805,-10.254,-4.883
1687531141.491,-36.621,-45.898,-50.781,-16.602,-164.551
1687531141.495,-30.762,-50.781,-54.688,-11.719,-26.367
1687531141.499,-28.809,-50.293,-54.199,-13.184,108.887
1687531141.503,-24.414,-45.410,-48.828,-19.043,-38.086
1687531141.505,-37.109,-46.387,-49.316,-20.020,-72.266
1687531141.509,-42.480,-47.363,-48.828,-17.090,-44.434
1687531141.513,-23.438,-45.410,-44.922,-20.020,-151.367
1687531141.517,-20.996,-46.387,-44.434,-27.344,-251.465
1687531141.521,-33.203,-46.387,-47.852,-31.738,-140.625
1687531141.525,-32.715,-39.062,-56.641,-34.668,-30.762
1687531141.529,-5.859,-37.598,-58.594,-19.043,-74.219
1687531141.532,9.277,-47.852,-47.852,-14.648,-175.293
1687531141.536,-19.531,-58.594,-36.621,-25.391,-46.875
1687531141.540,-51.758,-67.383,-35.645,-26.367,182.617
1687531141.544,-64.941,-70.312,-27.344,-24.414,-4.883
1687531141.548,-71.289,-70.801,-17.090,-25.879,-111.816
1687531141.550,-62.988,-77.637,-10.742,-33.203,6.836
1687531141.554,-59.570,-81.543,-6.348,-29.297,5.859
1687531141.558,-65.918,-90.332,-2.441,-24.902,-104.980
1687531141.562,-73.730,-103.516,2.441,-21.973,-129.883
1687531141.566,-81.055,-110.352,8.301,-23.926,121.582
1687531141.570,-71.777,-115.234,14.648,-19.043,300.293
1687531141.574,-57.129,-119.629,17.090,-23.438,-8.301
1687531141.577,-62.988,-124.512,18.066,-24.414,-103.516
1687531141.581,-84.473,-131.348,15.625,-20.508,125.977
1687531141.585,-82.031,-130.371,17.578,-27.344,61.035
1687531141.589,-72.266,-133.301,23.926,-34.180,-274.414
1687531141.593,-73.242,-137.695,24.414,-30.762,-184.082
1687531141.598,-59.082,-134.766,21.484,-8.301,-101.074
1687531141.602,-62.988,-126.953,19.531,-6.836,-148.926
1687531141.606,-76.660,-124.023,19.531,-23.926,-163.574
1687531141.610,-60.059,-122.070,18.555,-23.438,-50.293
1687531141.614,-43.945,-119.141,16.602,-18.555,-16.113
1687531141.618,-39.062,-113.770,11.230,-10.742,-38.574
1687531141.622,-42.969,-110.352,7.812,-9.766,-54.688
1687531141.625,-53.711,-104.980,3.906,-15.137,14.648
1687531141.629,-36.133,-99.609,-0.977,-5.371,157.715
1687531141.633,-22.461,-93.262,2.441,-5.859,-109.863
1687531141.637,-29.785,-91.309,-2.930,-4.883,-240.234
1687531141.641,-34.180,-90.820,-10.254,13.184,-90.820
1687531141.640,-35.156,-83.984,-14.160,18.555,-53.223
1687531141.644,-31.250,-79.102,-18.555,6.348,-133.301
1687531141.648,-24.414,-79.102,-17.090,-7.324,-152.832
1687531141.652,-28.809,-72.754,-18.555,-17.578,-52.246
1687531141.656,-38.574,-67.383,-22.949,-10.742,-13.672
1687531141.660,-43.457,-68.848,-26.855,-10.254,-16.113
1687531141.664,-41.016,-69.336,-29.297,-25.879,-40.527
1687531141.667,-32.227,-68.848,-32.715,-23.926,191.895
1687531141.671,-25.879,-69.336,-32.227,-8.789,461.426
1687531141.675,-24.414,-61.035,-25.391,-6.836,52.734
1687531141.679,-28.809,-54.199,-21.484,-9.766,-194.824
1687531141.683,-23.926,-57.617,-25.879,-11.230,-88.379
1687531141.687,-16.113,-55.664,-26.855,-6.836,-139.648
1687531141.691,-12.207,-50.781,-22.461,-3.418,-196.289
1687531141.695,-13.672,-52.246,-22.461,-1.953,-151.367
1687531141.699,-23.926,-52.734,-22.461,4.395,-59.570
1687531141.703,-20.508,-52.246,-20.508,3.418,-66.406
1687531141.707,-16.113,-55.664,-24.414,-11.230,-86.914
1687531141.711,-20.020,-57.129,-30.762,-11.719,62.500
1687531141.714,-14.648,-57.129,-31.738,0.977,283.203
1687531141.718,-18.066,-55.664,-34.180,-7.812,77.148
1687531141.722,-28.320,-55.176,-37.598,-21.484,-136.719
1687531141.726,-25.879,-53.223,-41.016,-16.113,-16.602
1687531141.730,-18.066,-54.688,-44.434,-9.766,39.062
1687531141.748,-13.672,-50.293,-38.574,-1.465,-45.898
1687531141.752,-15.137,-42.480,-33.691,-2.441,-89.355
1687531141.756,-8.301,-41.016,-37.109,-5.859,-82.520
1687531141.760,-2.441,-48.340,-32.227,0.488,-80.078
1687531141.764,-25.879,-62.988,-25.391,-13.672,-74.707
1687531141.768,-37.109,-66.895,-26.367,-24.414,-59.570
1687531141.772,-41.504,-60.547,-34.668,-23.926,200.195
1687531141.775,-42.969,-57.129,-36.133,-13.184,375.000
1687531141.779,-36.133,-57.129,-29.785,-21.973,-9.766
1687531141.783,-29.297,-56.152,-28.320,-26.367,-152.344
1687531141.787,-19.531,-52.246,-27.832,-12.207,-13.672
1687531141.791,-26.367,-50.781,-31.250,-6.836,-2.930
1687531141.777,-33.691,-55.176,-34.668,-1.465,-41.504
1687531141.781,-26.855,-55.664,-31.738,-2.930,-29.297
1687531141.785,-20.020,-55.176,-27.832,-19.531,-31.738
1687531141.789,-31.250,-58.105,-36.133,-24.414,-84.961
1687531141.793,-39.551,-57.129,-40.527,-18.555,-110.840
1687531141.797,-44.434,-52.246,-37.109,-15.625,-26.855
1687531141.801,-41.504,-54.688,-42.969,-16.113,139.648
1687531141.804,-25.879,-56.152,-48.828,-16.602,11.230
1687531141.808,-20.996,-53.711,-46.875,-18.555,-203.125
1687531141.812,-31.250,-53.711,-46.875,-16.602,-91.309
1687531141.816,-42.969,-50.781,-42.969,-19.043,-37.598
1687531141.820,-31.250,-49.316,-39.062,-23.438,-168.457
1687531141.821,-19.531,-49.316,-41.016,-25.391,-115.234
1687531141.825,-25.879,-50.781,-41.992,-20.020,-31.250
1687531141.829,-35.156,-54.199,-42.480,-12.695,-62.012
1687531141.833,-46.875,-53.223,-45.898,-13.184,-144.043
1687531141.837,-40.039,-48.340,-44.922,-14.160,-139.160
1687531141.841,-30.273,-49.805,-41.504,-17.578,25.879
1687531141.845,-30.273,-47.852,-43.945,-20.508,95.215
1687531141.848,-23.438,-44.434,-41.504,-16.113,-85.449
1687531141.852,-27.832,-43.457,-42.480,-17.578,-192.871
1687531141.856,-29.785,-42.969,-43.457,-15.625,8.301
1687531141.860,-16.113,-42.969,-39.062,-9.277,5.371
1687531141.864,-17.090,-44.434,-40.039,-19.531,-250.977
1687531141.883,-28.320,-44.922,-38.086,-14.648,-196.777
1687531141.887,-43.945,-45.898,-37.109,-8.301,-107.422
1687531141.891,-41.504,-48.340,-37.109,-5.371,-77.637
1687531141.895,-22.461,-49.316,-40.039,-7.812,-104.980
1687531141.899,-9.766,-47.852,-42.480,-9.766,-120.605
1687531141.903,-12.207,-46.875,-37.598,-5.371,84.961
1687531141.907,-23.926,-45.898,-35.645,-11.719,58.594
1687531141.910,-27.832,-44.922,-35.645,-15.625,-124.023
1687531141.914,-25.879,-47.363,-34.180,-21.973,-43.457
1687531141.918,-22.949,-44.434,-35.645,-21.973,63.477
1687531141.922,-19.531,-39.551,-37.598,-16.113,-76.660
1687531141.926,-26.367,-38.574,-44.922,-19.531,-74.219
1687531141.925,-38.086,-41.992,-46.875,-35.645,-5.371
1687531141.929,-28.320,-43.457,-41.016,-30.273,-39.062
1687531141.933,-3.418,-39.062,-39.062,-14.648,-124.023
1687531141.937,-6.348,-38.574,-40.039,-19.531,-97.656
1687531141.941,-28.809,-44.434,-47.363,-14.648,52.734
1687531141.945,-32.715,-45.410,-50.781,-15.625,47.852
1687531141.949,-21.484,-41.504,-46.875,-23.438,2.930
1687531141.952,-25.879,-41.504,-43.945,-17.090,-60.547
1687531141.956,-23.926,-41.992,-45.898,-5.371,119.629
1687531141.960,-21.484,-41.992,-44.922,-1.953,288.086
1687531141.964,-36.133,-43.945,-39.062,-8.789,4.395
1687531141.968,-29.297,-49.316,-41.992,-22.461,-147.949
1687531141.972,-18.066,-50.293,-48.340,-21.973,-102.539
1687531141.976,-14.648,-46.875,-44.922,-10.254,-115.234
1687531141.980,-19.043,-45.898,-45.898,-8.301,-144.043
1687531141.984,-32.715,-44.434,-49.316,-9.277,-66.406
1687531141.988,-36.621,-48.340,-47.852,-17.090,-1.953
1687531141.992,-27.344,-49.805,-46.387,-29.297,-14.648
1687531141.996,-19.043,-40.527,-38.086,-21.973,-0.977
1687531141.999,-24.414,-39.551,-32.227,-22.461,120.117
1687531142.003,-44.922,-41.992,-36.133,-21.484,328.125
1687531142.007,-35.645,-40.039,-34.668,-16.602,99.609
1687531142.011,-21.484,-41.016,-37.109,-34.180,-130.859
1687531142.015,-21.484,-41.504,-38.086,-29.297,-60.059
1687531142.015,-20.996,-41.992,-37.598,-5.371,-30.762
1687531142.019,-33.691,-40.527,-39.551,-0.488,-70.801
1687531142.023,-34.668,-47.852,-47.852,-24.902,-143.555
1687531142.027,-19.531,-46.875,-48.828,-32.715,-118.164
1687531142.031,-9.277,-44.434,-41.992,-21.973,-64.453
1687531142.035,-14.648,-42.969,-39.551,-15.137,-92.773
1687531142.039,-35.645,-38.086,-41.016,-21.973,-119.141
1687531142.042,-38.574,-39.062,-42.969,-21.484,172.363
1687531142.046,-28.809,-42.969,-45.410,-20.996,308.105
1687531142.050,-19.043,-42.480,-50.293,-32.715,6.836
1687531142.054,-16.602,-39.551,-44.922,-25.879,-78.125
1687531142.058,-31.738,-39.551,-41.992,-17.578,-3.418
1687531142.064,-32.227,-44.434,-49.805,-26.367,-60.547
1687531142.068,-20.020,-49.316,-50.293,-37.598,-121.582
1687531142.072,-19.043,-45.898,-45.898,-46.875,-71.777
1687531142.076,-25.879,-39.551,-43.945,-45.898,-46.387
1687531142.080,-40.039,-46.387,-45.410,-35.156,-82.031
1687531142.084,-50.781,-51.270,-45.410,-34.180,-100.586
1687531142.088,-38.574,-50.293,-46.875,-38.574,125.000
1687531142.091,-19.531,-46.875,-43.457,-27.832,294.434
1687531142.095,-18.555,-40.527,-45.410,-23.926,-1.465
1687531142.099,-33.203,-43.457,-52.246,-24.902,-180.176
1687531142.103,-39.551,-41.992,-50.293,-25.879,-88.379
1687531142.107,-33.203,-42.480,-50.293,-28.809,-34.180
1687531142.106,-22.949,-49.805,-47.852,-24.414,-67.871
1687531142.110,-22.461,-52.246,-46.387,-19.043,-151.367
1687531142.114,-29.785,-45.898,-47.363,-11.230,-20.020
1687531142.118,-35.645,-45.898,-48.340,-10.742,3.418
1687531142.122,-33.203,-47.363,-47.852,-25.391,-143.066
1687531142.126,-17.090,-41.992,-46.387,-27.344,-85.449
1687531142.130,-18.066,-42.969,-47.363,-22.949,208.008
1687531142.133,-39.062,-44.434,-45.410,-18.066,391.113
1687531142.137,-47.363,-43.457,-44.922,-27.344,-1.465
1687531142.141,-37.109,-40.039,-44.922,-41.992,-209.473
1687531142.145,-22.949,-33.691,-41.992,-43.457,-123.047
1687531142.149,-17.578,-37.109,-41.016,-40.527,-138.672
1687531142.165,-27.344,-40.527,-44.434,-39.062,-126.465
1687531142.169,-34.668,-40.039,-49.316,-41.016,-69.824
1687531142.173,-27.344,-43.457,-47.852,-43.945,-72.266
1687531142.177,-23.438,-40.039,-45.898,-45.898,-146.973
1687531142.181,-24.414,-40.039,-46.387,-39.062,-127.930
1687531142.185,-32.715,-41.504,-40.527,-33.203,38.086
1687531142.189,-48.828,-42.969,-44.434,-26.367,261.230
1687531142.192,-50.293,-40.527,-45.410,-28.809,69.824
1687531142.196,-36.133,-42.480,-41.016,-37.598,-171.875
1687531142.200,-31.250,-47.852,-43.945,-39.551,-122.070
1687531142.204,-39.062,-50.293,-45.410,-25.391,-104.004
1687531142.208,-43.457,-50.781,-44.922,-15.137,-132.812
1687531142.211,-42.969,-47.852,-42.969,-26.855,-190.430
1687531142.215,-37.109,-42.480,-42.480,-35.156,-173.828
1687531142.219,-36.133,-41.504,-43.945,-23.926,-65.430
1687531142.223,-47.363,-48.828,-45.410,-16.602,-60.547
1687531142.227,-54.199,-50.293,-44.434,-22.949,-103.027
1687531142.231,-51.758,-48.340,-43.945,-22.461,173.340
1687531142.235,-49.316,-44.922,-38.574,-29.297,274.902
1687531142.238,-46.387,-42.969,-34.180,-36.133,9.766
1687531142.242,-41.992,-41.016,-34.180,-30.762,-106.445
1687531142.246,-43.945,-40.039,-35.645,-23.926,138.672
1687531142.250,-34.668,-41.504,-35.156,-19.531,147.949
1687531142.254,-31.738,-46.875,-33.203,-29.297,-186.523
1687531142.256,-30.762,-47.363,-35.156,-26.855,-161.621
1687531142.260,-36.133,-42.969,-34.668,-23.926,-113.770
1687531142.264,-46.875,-42.969,-36.621,-31.250,-95.703
1687531142.268,-47.363,-41.016,-44.434,-32.715,-96.191
1687531142.272,-37.109,-40.527,-45.410,-32.227,-106.445
1687531142.276,-27.832,-37.109,-41.016,-25.879,-7.324
1687531142.280,-33.691,-39.062,-39.062,-22.949,21.973
1687531142.283,-40.039,-45.898,-40.039,-10.742,-42.480
1687531142.287,-38.574,-39.062,-37.598,-11.230,42.969
1687531142.291,-26.855,-37.598,-33.691,-17.578,272.949
1687531142.295,-27.344,-40.527,-37.598,-23.926,36.621
1687531142.299,-35.156,-40.039,-42.969,-30.273,-230.957
1687531142.301,-46.387,-40.527,-44.922,-26.367,-106.445
1687531142.305,-51.270,-38.574,-43.945,-37.109,-54.688
1687531142.309,-38.574,-32.227,-41.504,-41.504,-122.070
1687531142.313,-21.973,-30.273,-41.992,-34.180,-149.902
1687531142.317,-13.672,-28.809,-40.527,-31.250,56.641
1687531142.321,-27.344,-30.762,-39.062,-21.484,111.816
1687531142.325,-38.086,-35.645,-40.039,-19.531,-62.988
1687531142.328,-29.785,-36.621,-37.598,-33.691,-116.699
1687531142.332,-24.902,-35.645,-37.109,-22.461,108.398
1687531142.336,-17.578,-36.133,-36.621,-1.953,294.922
1687531142.340,-24.414,-38.574,-37.598,-10.742,-21.484
1687531142.344,-40.527,-43.457,-37.598,-25.391,-127.441
1687531142.348,-35.156,-47.363,-36.133,-37.598,-60.059
1687531142.352,-28.320,-42.480,-30.273,-34.668,-123.535
1687531142.356,-23.438,-41.992,-34.668,-25.391,-200.684
1687531142.360,-28.809,-42.969,-39.062,-19.043,-85.449
1687531142.364,-44.922,-39.062,-33.203,-20.508,-33.691
1687531142.368,-37.598,-38.086,-34.180,-29.785,0.977
1687531142.372,-30.762,-38.574,-40.527,-29.297,51.270
1687531142.375,-20.996,-37.598,-41.016,-22.949,19.531
1687531142.379,-20.996,-35.645,-35.645,-14.648,117.676
1687531142.383,-41.016,-33.203,-36.621,-17.090,-34.180
1687531142.387,-41.016,-30.762,-34.180,-26.367,-161.621
1687531142.391,-23.926,-28.320,-32.715,-22.949,-12.695
1687531142.398,-13.184,-29.297,-32.227,-28.809,0.488
1687531142.402,-14.160,-30.273,-26.367,-28.809,-125.977
1687531142.406,-22.949,-30.762,-26.855,-17.578,-154.297
1687531142.410,-20.508,-30.762,-27.832,-19.531,-171.387
1687531142.414,-15.625,-24.902,-36.133,-28.809,-113.770
1687531142.418,-27.344,-21.973,-38.574,-32.227,-23.926
1687531142.422,-39.551,-21.973,-41.504,-33.691,-19.531
1687531142.425,-49.316,-23.926,-45.898,-28.320,163.574
1687531142.429,-46.387,-22.461,-42.480,-14.648,328.125
1687531142.433,-34.180,-20.508,-40.039,-19.043,-43.457
1687531142.437,-32.227,-24.414,-37.598,-22.949,-184.082
1687531142.441,-41.504,-29.785,-39.551,-20.996,-76.660
1687531142.439,-53.711,-33.691,-41.016,-25.879,-107.422
1687531142.443,-58.105,-35.645,-40.039,-35.645,-56.641
1687531142.447,-56.152,-37.109,-40.039,-53.223,39.062
1687531142.451,-46.875,-36.621,-37.109,-53.711,9.277
1687531142.455,-38.574,-34.668,-34.180,-35.156,-57.617
1687531142.459,-48.828,-35.156,-36.133,-36.621,59.082
1687531142.463,-56.152,-37.109,-40.527,-46.387,218.262
1687531142.466,-49.805,-35.645,-40.039,-50.293,205.566
1687531142.470,-44.434,-39.062,-41.504,-54.688,-42.969
1687531142.474,-46.387,-39.551,-41.992,-44.434,-183.594
1687531142.478,-48.828,-39.062,-36.133,-40.527,-87.402
1687531142.482,-48.828,-38.086,-32.715,-44.434,-68.359
1687531142.480,-48.340,-32.227,-32.227,-45.898,-209.473
1687531142.484,-48.340,-31.250,-33.691,-43.457,-206.543
1687531142.488,-47.852,-34.668,-37.109,-38.086,-93.262
1687531142.492,-57.129,-35.156,-38.086,-36.621,-98.633
1687531142.496,-63.477,-35.645,-36.133,-42.969,-93.262
1687531142.500,-48.828,-38.086,-35.645,-41.504,-52.734
1687531142.504,-39.551,-35.156,-36.621,-32.227,156.738
1687531142.507,-40.039,-30.762,-34.180,-18.066,392.090
1687531142.511,-48.828,-33.691,-30.762,-22.461,34.668
1687531142.515,-51.758,-41.992,-30.762,-17.578,-232.910
1687531142.519,-20.996,-30.273,-29.785,-3.906,-83.008
1687531142.523,-17.578,-19.043,-37.109,-32.715,-95.215
1687531142.527,-24.902,-20.020,-40.527,-39.551,-186.523
1687531142.531,-29.785,-16.113,-42.969,-35.645,-113.281
1687531142.535,-46.875,-10.254,-53.711,-54.688,-30.762
1687531142.539,-52.734,-4.395,-61.523,-67.871,-98.633
1687531142.543,-49.316,0.977,-69.336,-74.219,-224.609
1687531142.547,-50.293,1.953,-80.566,-69.336,-92.285
1687531142.551,-57.617,9.277,-86.426,-71.289,159.668
1687531142.554,-65.918,19.043,-92.773,-80.566,100.098
1687531142.558,-62.988,23.438,-98.145,-94.727,-72.754
1687531142.562,-55.664,22.949,-101.562,-104.980,-40.527
1687531142.566,-50.781,24.902,-106.934,-92.773,70.801
1687531142.570,-61.035,29.297,-109.863,-89.844,-90.332
1687531142.585,-77.148,33.203,-112.793,-105.957,-160.156
1687531142.589,-63.965,40.039,-119.141,-109.375,-79.102
1687531142.593,-44.922,46.875,-116.699,-103.516,-103.516
1687531142.597,-21.973,52.734,-113.770,-98.633,-166.016
1687531142.601,-17.578,53.711,-117.188,-85.449,-80.566
1687531142.605,-29.785,51.270,-123.047,-76.172,185.547
1687531142.609,-26.367,50.293,-124.023,-81.055,270.996
1687531142.612,-24.414,49.316,-115.234,-87.402,-35.156
1687531142.616,-13.672,51.270,-112.305,-75.684,-148.438
1687531142.620,1.465,51.758,-110.840,-64.453,92.773
1687531142.624,-10.742,52.246,-105.957,-70.801,198.242
1687531142.628,-20.996,48.828,-100.098,-82.031,-120.605
1687531142.631,-14.160,45.898,-94.238,-84.473,-159.668
1687531142.635,-1.465,44.434,-92.773,-80.078,-26.855
1687531142.639,4.883,41.016,-87.402,-68.848,-107.910
1687531142.643,-7.812,36.621,-88.867,-62.988,-206.543
1687531142.647,-16.113,27.344,-88.867,-57.129,-87.402
1687531142.651,-12.695,25.879,-80.566,-60.547,27.344
1687531142.655,-8.301,21.484,-75.195,-77.637,-10.742
1687531142.658,-19.043,11.230,-76.172,-73.730,-111.816
1687531142.662,-35.156,10.742,-74.219,-58.105,-42.480
1687531142.666,-38.086,12.207,-64.941,-54.688,158.203
1687531142.670,-42.969,4.883,-59.570,-62.988,-31.250
1687531142.674,-36.133,1.465,-59.570,-59.082,-83.008
1687531142.675,-30.273,3.906,-60.547,-45.410,102.051
1687531142.679,-45.410,-3.906,-61.035,-44.922,47.363
1687531142.683,-38.574,-7.324,-57.129,-43.457,-105.469
1687531142.687,-42.480,-0.977,-54.199,-42.480,-158.691
1687531142.691,-43.945,4.883,-52.734,-44.922,-53.223
1687531142.695,-34.180,-1.953,-54.688,-40.039,48.340
1687531142.699,-35.645,-8.789,-54.688,-42.969,7.324
1687531142.702,-41.016,-5.859,-52.246,-47.363,-67.383
1687531142.706,-44.922,-8.301,-51.270,-40.039,65.430
1687531142.710,-37.598,-15.137,-52.734,-40.039,214.355
1687531142.714,-22.949,-12.207,-48.828,-48.340,-70.312
1687531142.718,-18.066,-9.766,-40.039,-45.898,-112.305
1687531142.723,-31.250,-14.160,-39.551,-49.805,-0.488
1687531142.727,-34.668,-12.695,-39.062,-51.758,-33.203
1687531142.731,-11.719,-7.324,-35.645,-51.270,-143.066
1687531142.735,-3.906,-6.836,-32.227,-41.992,-124.023
1687531142.739,-14.160,-10.742,-30.273,-25.391,22.461
1687531142.743,-28.809,-11.719,-29.297,-28.320,-5.371
1687531142.747,-27.344,-11.230,-25.391,-42.480,-29.297
1687531142.750,-13.672,-8.301,-25.391,-40.527,43.457
1687531142.754,-17.578,-8.301,-23.926,-31.738,122.559
1687531142.758,-25.391,-14.648,-22.461,-30.273,-24.902
1687531142.762,-30.273,-14.160,-26.367,-32.227,-97.656
1687531142.766,-30.273,-14.160,-28.320,-43.457,-87.891
1687531142.765,-23.438,-19.043,-24.414,-55.664,-157.227
1687531142.769,-22.949,-20.508,-21.973,-39.551,-197.754
1687531142.773,-22.461,-22.949,-27.344,-30.762,-97.168
1687531142.777,-25.391,-23.438,-29.297,-41.016,31.250
1687531142.781,-26.855,-24.414,-26.367,-43.457,91.797
1687531142.785,-21.973,-26.855,-20.996,-46.875,53.711
1687531142.789,-27.344,-29.297,-19.531,-51.758,25.391
1687531142.792,-28.809,-31.250,-28.809,-38.086,196.289
1687531142.796,-39.551,-29.297,-31.250,-36.133,358.887
1687531142.800,-45.410,-29.785,-25.879,-45.898,13.184
1687531142.804,-34.668,-35.645,-28.809,-49.316,-211.426
1687531142.808,-25.879,-36.133,-30.273,-53.223,-167.480
1687531142.813,-25.879,-34.180,-30.273,-54.199,-170.898
1687531142.817,-26.367,-31.250,-28.809,-49.805,-204.102
1687531142.821,-29.297,-29.297,-23.438,-48.340,-145.020
1687531142.825,-43.457,-28.809,-22.949,-52.734,-48.828
1687531142.829,-39.062,-21.973,-23.926,-53.711,-86.426
1687531142.833,-35.645,-22.949,-19.043,-47.363,-65.430
1687531142.837,-47.852,-26.855,-24.414,-46.875,64.941
1687531142.840,-39.062,-17.578,-34.668,-44.922,378.418
1687531142.844,-19.043,-17.090,-30.762,-30.273,160.156
1687531142.848,-23.438,-29.297,-17.578,-34.668,-254.883
1687531142.852,-48.340,-37.598,-13.672,-54.199,-113.770
1687531142.856,-65.430,-42.969,-16.602,-60.547,-7.812
1687531142.855,-64.941,-43.945,-16.602,-55.176,-121.582
1687531142.859,-64.941,-46.875,-13.672,-54.199,-175.781
1687531142.863,-66.895,-47.852,-11.719,-63.477,-148.438
1687531142.867,-62.988,-41.504,-6.348,-63.477,-92.285
1687531142.871,-52.246,-41.016,-3.906,-48.828,-34.180
1687531142.875,-61.523,-43.457,-7.324,-49.316,-55.664
1687531142.879,-65.430,-44.922,-13.672,-44.434,140.137
1687531142.882,-54.688,-47.363,-16.113,-43.457,321.777
1687531142.886,-56.152,-46.875,-13.672,-46.387,-18.066
1687531142.890,-62.500,-51.758,-10.742,-41.992,-133.789
1687531142.894,-66.895,-55.664,-17.090,-50.293,-0.488
1687531142.898,-59.570,-46.875,-16.602,-61.523,-111.328
1687531142.902,-37.598,-41.016,-15.137,-64.453,-236.816
1687531142.906,-24.414,-42.480,-19.043,-53.223,-158.203
1687531142.910,-27.832,-44.922,-16.602,-39.062,-63.477
1687531142.914,-36.621,-43.945,-18.066,-49.805,-109.863
1687531142.918,-30.762,-41.992,-14.648,-57.129,-164.062
1687531142.922,-26.367,-39.551,-13.672,-56.152,8.789
1687531142.926,-23.438,-36.621,-18.066,-44.922,147.949
1687531142.929,-25.391,-34.180,-14.160,-31.738,-25.879
1687531142.933,-38.086,-35.156,-9.277,-25.879,-129.883
1687531142.937,-40.039,-38.086,-14.648,-27.344,-49.316
1687531142.941,-34.180,-37.109,-17.578,-38.086,82.520
1687531142.945,-25.879,-31.250,-14.160,-49.805,-8.301
1687531142.960,-21.484,-29.297,-10.742,-39.062,-107.910
1687531142.964,-34.668,-30.762,-7.812,-35.156,90.332
1687531142.968,-44.922,-30.273,-8.301,-39.062,142.578
1687531142.972,-44.434,-31.250,-13.184,-44.434,-108.887
1687531142.976,-45.898,-35.156,-15.625,-50.781,-169.922
1687531142.980,-44.434,-35.156,-11.719,-42.480,166.992
1687531142.984,-47.363,-33.691,-12.695,-36.621,297.852
1687531142.987,-55.664,-31.738,-11.230,-37.598,-38.574
1687531142.991,-44.434,-32.715,-6.348,-41.504,-157.227
1687531142.995,-35.645,-38.086,-7.324,-40.039,-5.859
1687531142.999,-39.062,-40.039,-10.742,-36.133,0.000
1687531143.003,-52.246,-39.551,-12.207,-44.922,-157.715
1687531143.005,-60.547,-35.645,-6.836,-48.340,-83.984
1687531143.009,-43.457,-30.762,-4.395,-55.664,-77.637
1687531143.013,-35.645,-30.762,-8.301,-53.711,-125.000
1687531143.017,-42.969,-31.738,-14.160,-48.340,-149.902
1687531143.021,-56.152,-28.320,-16.113,-46.387,-101.562
1687531143.025,-58.594,-30.273,-17.090,-39.062,2.441
1687531143.029,-52.734,-31.250,-20.996,-46.875,18.066
1687531143.032,-34.668,-25.879,-30.273,-47.363,-74.707
1687531143.036,-8.301,-22.949,-31.738,-9.766,-35.645
1687531143.040,-19.043,-30.762,-9.277,2.441,214.844
1687531143.044,-46.875,-41.016,3.418,-29.785,-4.395
1687531143.048,-62.012,-44.434,2.930,-49.316,-179.199
1687531143.071,-63.965,-54.199,8.789,-47.852,-28.809
1687531143.075,-65.918,-63.477,14.648,-47.363,-25.391
1687531143.079,-71.777,-63.965,17.578,-43.945,-89.355
1687531143.083,-70.312,-72.754,26.367,-33.691,-55.176
1687531143.087,-71.289,-84.473,32.715,-30.273,190.430
1687531143.091,-73.730,-89.844,34.180,-36.133,325.195
1687531143.095,-65.430,-91.309,37.109,-35.645,43.945
1687531143.098,-62.988,-91.309,41.504,-33.203,-73.730
1687531143.102,-77.148,-95.703,45.898,-33.691,93.750
1687531143.106,-85.449,-102.051,46.875,-36.621,60.547
1687531143.110,-69.336,-104.492,53.711,-33.203,-210.449
1687531143.114,-60.547,-102.051,59.570,-18.066,-165.527
1687531143.097,-76.660,-105.957,53.223,-13.672,-134.277
1687531143.101,-82.520,-109.863,47.363,-15.137,-129.395
1687531143.105,-72.754,-104.980,41.992,-26.367,-117.676
1687531143.109,-56.641,-97.168,41.016,-31.250,-135.742
1687531143.113,-41.016,-89.355,47.363,-14.648,-91.309
1687531143.117,-41.504,-88.379,42.480,-11.719,-27.832
1687531143.121,-54.199,-88.379,33.691,-18.066,-33.691
1687531143.124,-57.129,-83.496,25.391,-20.508,98.633
1687531143.128,-45.898,-75.195,24.414,-21.973,326.172
1687531143.132,-40.039,-71.289,28.320,-22.461,87.891
1687531143.136,-40.039,-69.824,27.344,-23.926,-166.504
1687531143.140,-44.434,-65.430,21.484,-24.902,-81.543
1687531143.140,-53.223,-66.895,16.602,-35.645,-105.957
1687531143.144,-48.340,-66.895,13.184,-49.316,-126.953
1687531143.148,-36.133,-64.453,12.207,-46.387,-133.301
1687531143.152,-33.203,-58.105,14.648,-31.738,-64.941
1687531143.156,-41.016,-54.688,13.672,-35.156,30.762
1687531143.160,-45.898,-56.152,10.254,-41.992,51.270
1687531143.164,-38.574,-55.176,4.395,-41.016,-14.648
1687531143.167,-33.691,-52.246,4.395,-39.551,134.766
1687531143.171,-31.250,-50.781,4.395,-32.227,391.602
1687531143.175,-40.527,-47.363,0.977,-34.180,110.840
1687531143.179,-52.246,-42.969,4.883,-37.109,-131.348
1687531143.183,-38.086,-40.039,5.371,-40.039,-158.203
1687531143.187,-32.715,-38.574,-0.977,-53.711,-212.891
1687531143.191,-40.527,-39.551,-0.488,-39.062,-229.492
1687531143.195,-41.016,-37.109,-3.418,-22.949,-100.098
1687531143.199,-35.156,-30.762,-3.906,-36.133,-57.617
1687531143.203,-32.715,-33.691,-3.906,-46.875,-170.898
1687531143.207,-40.527,-41.016,-9.766,-41.504,-165.039
1687531143.211,-30.762,-38.574,-6.348,-41.992,-20.996
1687531143.214,-25.391,-37.109,0.000,-41.504,210.938
1687531143.218,-34.180,-34.668,-4.395,-40.527,14.648
1687531143.222,-32.715,-31.250,-3.906,-40.039,-165.527
1687531143.226,-29.785,-36.621,0.977,-34.668,26.855
1687531143.230,-28.809,-41.992,-3.906,-39.062,34.180
1687531143.230,-40.039,-40.039,-8.789,-30.273,-87.402
1687531143.234,-62.012,-35.156,-4.395,-29.297,-66.406
1687531143.238,-61.035,-33.691,-4.883,-43.945,-50.781
1687531143.242,-43.457,-30.762,-7.324,-44.922,-61.523
1687531143.246,-37.109,-28.320,-10.254,-37.598,-51.270
1687531143.250,-40.527,-28.320,-12.695,-39.062,-74.219
1687531143.254,-62.988,-31.738,-17.090,-37.598,173.828
1687531143.257,-61.035,-32.715,-19.043,-28.809,398.926
1687531143.261,-39.062,-26.855,-12.207,-38.574,-20.996
1687531143.265,-43.457,-32.227,-11.719,-47.363,-178.711
1687531143.269,-48.340,-29.785,-13.672,-34.668,-102.539
1687531143.273,-57.129,-25.391,-15.625,-33.691,-138.184
1687531143.292,-60.547,-26.367,-17.578,-42.480,-151.855
1687531143.296,-43.457,-23.438,-16.113,-47.852,-117.188
1687531143.300,-37.598,-23.926,-17.090,-48.340,-47.852
1687531143.304,-47.363,-23.926,-17.578,-51.758,-153.809
1687531143.308,-52.246,-23.438,-20.508,-53.223,-166.016
1687531143.312,-37.598,-20.996,-20.020,-41.504,20.508
1687531143.316,-32.227,-18.066,-12.695,-47.363,171.387
1687531143.319,-49.316,-23.926,-8.789,-67.383,-3.418
1687531143.323,-54.199,-28.809,-10.742,-55.176,-203.125
1687531143.327,-61.035,-28.320,-8.789,-53.711,-21.973
1687531143.331,-62.988,-27.344,-6.348,-62.500,67.871
1687531143.335,-59.570,-30.273,-10.742,-58.594,-136.230
1687531143.336,-60.059,-36.133,-10.742,-64.941,-183.105
1687531143.340,-52.246,-34.180,-12.207,-62.012,-107.422
1687531143.344,-61.035,-35.156,-13.184,-47.852,-15.137
1687531143.348,-69.824,-36.133,-9.277,-50.293,-47.852
1687531143.352,-62.500,-28.320,-5.859,-58.594,-54.688
1687531143.356,-57.129,-28.809,-7.324,-50.781,177.246
1687531143.360,-56.641,-35.156,-12.695,-44.922,183.594
1687531143.363,-70.312,-43.457,-19.531,-42.480,-63.965
1687531143.367,-76.660,-43.945,-18.555,-40.039,-160.156
1687531143.371,-62.500,-37.598,-16.602,-41.992,125.488
1687531143.375,-57.617,-39.062,-21.973,-50.293,305.664
1687531143.379,-48.828,-35.156,-16.113,-51.270,-42.969
1687531143.404,-45.898,-32.715,-9.766,-46.387,-119.141
1687531143.408,-50.781,-30.762,-9.766,-43.457,-18.555
1687531143.412,-40.527,-29.297,-11.230,-45.410,-133.301
1687531143.416,-22.949,-29.297,-11.719,-43.457,-159.668
1687531143.420,-23.438,-29.297,-13.672,-35.645,-45.898
1687531143.424,-38.574,-28.320,-12.695,-29.785,50.781
1687531143.428,-49.316,-24.414,-10.254,-33.203,2.930
1687531143.431,-49.805,-26.367,-16.113,-46.875,-193.359
1687531143.435,-34.180,-25.879,-20.020,-44.434,-127.441
1687531143.439,-26.367,-23.438,-18.555,-31.738,172.852
1687531143.443,-38.574,-23.926,-17.090,-33.691,32.715
1687531143.447,-53.711,-26.855,-18.066,-37.598,-131.348
1687531143.425,-57.617,-25.391,-19.043,-33.203,-83.008
1687531143.429,-41.016,-28.320,-17.578,-31.250,-119.141
1687531143.433,-29.785,-34.180,-17.578,-29.297,-159.668
1687531143.437,-37.109,-33.203,-16.113,-23.926,-141.602
1687531143.441,-48.828,-32.227,-15.137,-26.367,-67.871
1687531143.445,-54.688,-32.227,-16.602,-39.062,47.852
1687531143.449,-45.898,-30.273,-19.531,-48.828,38.086
1687531143.452,-37.598,-31.738,-18.066,-46.875,-87.402
1687531143.456,-38.086,-29.785,-18.066,-34.180,73.730
1687531143.460,-49.805,-28.809,-19.043,-26.855,352.539
1687531143.464,-56.641,-25.879,-20.996,-43.945,26.855
1687531143.468,-45.410,-27.832,-29.297,-59.082,-247.559
1687531143.472,-35.645,-31.738,-23.438,-56.641,-175.781
1687531143.476,-39.551,-30.762,-18.555,-48.340,-164.551
1687531143.480,-57.129,-27.832,-20.996,-45.898,-159.668
1687531143.484,-60.547,-29.297,-18.066,-51.758,-63.965
1687531143.488,-48.828,-31.250,-16.113,-64.453,-35.156
1687531143.492,-44.922,-31.738,-19.043,-62.500,-62.988
1687531143.496,-43.457,-34.668,-23.926,-52.246,18.555
1687531143.499,-50.781,-31.250,-22.949,-39.551,82.031
1687531143.503,-56.152,-31.250,-25.879,-39.062,164.062
1687531143.507,-37.598,-27.344,-27.344,-55.664,59.570
1687531143.511,-33.203,-23.926,-22.461,-49.805,-109.863
1687531143.515,-41.504,-26.855,-18.066,-46.387,19.531
1687531143.515,-51.758,-24.414,-24.414,-50.293,82.031
1687531143.519,-65.918,-28.320,-24.902,-49.316,-109.375
1687531143.523,-58.594,-34.180,-21.973,-61.035,-121.582
1687531143.527,-40.039,-31.738,-24.902,-63.477,-42.969
1687531143.531,-35.645,-33.203,-24.414,-55.176,-28.809
1687531143.535,-51.270,-34.668,-22.461,-59.082,28.320
1687531143.539,-48.340,-27.832,-22.461,-53.223,64.453
1687531143.542,-37.109,-25.879,-28.809,-45.898,188.477
1687531143.546,-31.738,-25.879,-31.250,-39.551,314.453
1687531143.550,-28.320,-25.879,-31.250,-59.082,27.832
1687531143.554,-45.898,-26.367,-32.715,-62.500,-82.031
1687531143.558,-58.105,-26.855,-30.762,-57.129,-29.785
1687531143.563,-61.035,-27.344,-31.738,-66.406,-74.219
1687531143.567,-56.152,-30.762,-35.645,-65.430,-119.629
1687531143.571,-42.969,-30.762,-30.273,-64.453,-52.246
1687531143.575,-42.480,-29.297,-24.902,-55.664,8.789
1687531143.579,-61.035,-37.109,-28.320,-50.781,-17.090
1687531143.583,-58.594,-35.156,-24.902,-54.688,19.043
1687531143.587,-42.969,-28.320,-25.391,-46.387,139.648
1687531143.590,-44.434,-32.715,-25.879,-42.480,250.000
1687531143.594,-49.805,-30.273,-20.508,-44.434,-16.113
1687531143.598,-55.664,-28.809,-23.926,-41.992,-157.227
1687531143.602,-51.758,-30.273,-26.855,-50.781,-75.684
1687531143.606,-41.992,-26.367,-27.344,-54.688,-75.195
1687531143.616,-39.062,-26.855,-21.973,-44.922,-102.051
1687531143.620,-42.969,-30.273,-20.020,-42.480,-140.625
1687531143.624,-48.828,-28.809,-18.555,-46.387,-59.082
1687531143.628,-47.363,-30.762,-20.508,-43.945,-96.680
1687531143.632,-41.016,-29.785,-22.949,-44.922,-145.996
1687531143.636,-39.062,-30.273,-23.926,-49.805,-105.957
1687531143.640,-48.340,-33.691,-25.879,-44.434,111.328
1687531143.643,-62.988,-31.250,-25.879,-27.344,434.082
1687531143.647,-69.824,-28.320,-24.414,-47.852,112.305
1687531143.651,-62.988,-27.832,-27.832,-72.754,-162.598
1687531143.655,-54.688,-28.809,-24.902,-55.664,-113.770
1687531143.659,-49.805,-33.203,-25.391,-49.805,-96.191
1687531143.652,-53.223,-32.715,-27.832,-64.453,-120.117
1687531143.656,-53.223,-30.273,-30.273,-67.383,-132.324
1687531143.660,-28.320,-30.273,-29.297,-67.383,-78.125
1687531143.664,-14.160,-26.855,-28.320,-68.359,-90.332
1687531143.668,-14.160,-26.855,-34.180,-64.453,-84.961
1687531143.672,-17.090,-24.902,-30.762,-56.641,71.777
1687531143.676,-38.086,-25.879,-28.320,-53.711,364.258
1687531143.679,-37.598,-25.879,-24.902,-52.246,149.902
1687531143.683,-21.973,-25.391,-20.508,-55.176,-257.324
1687531143.687,-22.949,-24.902,-23.438,-41.016,-139.160
1687531143.691,-36.621,-25.391,-24.902,-31.250,-62.500
1687531143.695,-50.293,-29.297,-28.320,-41.016,-116.699
1687531143.710,-41.992,-27.344,-29.297,-44.434,-127.930
1687531143.714,-35.645,-27.344,-26.855,-38.574,-148.438
1687531143.718,-40.039,-31.738,-26.367,-23.926,-122.070
1687531143.722,-45.410,-31.738,-25.391,-22.461,-83.496
1687531143.726,-57.617,-31.738,-31.250,-31.738,-85.449
1687531143.730,-52.246,-32.227,-37.109,-36.621,171.387
1687531143.734,-44.922,-33.691,-33.203,-34.180,289.551
1687531143.737,-46.875,-39.551,-33.691,-41.992,33.691
1687531143.741,-45.410,-34.668,-34.180,-47.363,-73.730
1687531143.745,-62.988,-30.273,-33.691,-45.898,148.438
1687531143.749,-66.895,-35.645,-36.133,-49.805,180.176
1687531143.753,-45.410,-32.715,-32.715,-54.688,-157.715
1687531143.756,-35.156,-29.785,-30.762,-43.457,-133.301
1687531143.760,-38.574,-32.715,-34.180,-35.645,-54.688
1687531143.764,-53.711,-28.320,-36.621,-37.598,-69.336
1687531143.768,-54.199,-26.855,-37.109,-47.852,-73.730
1687531143.772,-44.922,-27.344,-36.133,-55.176,-116.699
1687531143.776,-43.945,-28.320,-33.203,-44.922,-47.363
1687531143.780,-45.410,-29.785,-30.273,-37.109,61.035
1687531143.783,-50.781,-31.250,-28.809,-41.992,-43.945
1687531143.787,-41.992,-31.738,-27.344,-46.875,-85.938
1687531143.791,-36.133,-30.273,-29.785,-46.387,286.621
1687531143.795,-34.668,-24.414,-30.273,-47.363,186.035
1687531143.799,-41.016,-22.461,-25.879,-41.992,-166.992
1687531143.800,-60.547,-26.855,-25.879,-45.898,-112.793
1687531143.804,-61.523,-29.785,-28.320,-55.176,-76.660
1687531143.808,-48.340,-25.391,-29.297,-59.082,-145.508
1687531143.812,-44.922,-22.461,-28.809,-53.223,-153.809
1687531143.816,-43.457,-26.855,-28.320,-45.898,-6.836
1687531143.820,-58.105,-28.320,-26.367,-48.340,66.406
1687531143.824,-69.824,-28.809,-25.879,-54.688,15.625
1687531143.827,-58.105,-30.273,-30.762,-73.242,-62.012
1687531143.831,-48.340,-34.180,-34.668,-66.895,60.547
1687531143.835,-49.316,-34.180,-36.621,-55.176,195.312
1687531143.839,-57.617,-28.320,-31.738,-54.199,-89.355
1687531143.843,-59.082,-27.344,-28.809,-49.805,-82.031
1687531143.847,-47.363,-25.391,-29.785,-55.176,30.273
1687531143.851,-34.668,-24.902,-26.855,-48.828,-152.344
1687531143.855,-41.016,-28.320,-29.297,-41.504,-228.516
1687531143.859,-54.688,-28.320,-33.691,-45.898,-136.230
1687531143.863,-41.992,-29.297,-28.809,-39.551,-52.734
1687531143.867,-27.344,-25.879,-22.949,-41.992,-10.254
1687531143.871,-35.156,-22.949,-22.949,-54.199,-36.133
1687531143.874,-37.598,-25.391,-25.391,-48.340,28.320
1687531143.878,-44.922,-24.902,-27.832,-37.109,208.008
1687531143.882,-51.270,-21.973,-29.297,-37.598,9.766
1687531143.886,-40.039,-24.902,-32.715,-42.969,-180.664
1687531143.890,-30.762,-23.926,-29.297,-41.504,-127.441
1687531143.891,-24.902,-23.438,-29.785,-39.551,-130.371
1687531143.895,-27.344,-20.508,-28.809,-40.039,-100.586
1687531143.899,-41.504,-20.996,-24.414,-44.922,-29.785
1687531143.903,-44.434,-28.809,-31.738,-56.152,23.926
1687531143.907,-35.156,-32.227,-35.156,-55.664,43.945
1687531143.911,-29.785,-29.785,-33.203,-53.223,-29.297
1687531143.915,-35.645,-27.344,-28.809,-52.734,3.418
1687531143.918,-45.410,-29.297,-25.391,-45.410,208.984
1687531143.922,-41.016,-27.344,-28.320,-41.992,254.395
1687531143.926,-30.762,-20.996,-27.832,-46.875,-84.473
1687531143.930,-38.086,-24.414,-26.855,-42.480,-120.117
1687531143.934,-48.340,-26.855,-25.879,-34.668,-65.430
1687531143.938,-54.688,-22.461,-27.832,-35.645,-156.738
1687531143.942,-56.641,-21.484,-26.855,-41.504,-187.988
1687531143.946,-45.410,-19.043,-23.438,-38.574,-132.812
1687531143.950,-39.551,-19.531,-28.320,-41.016,-83.008
1687531143.954,-40.527,-20.996,-29.785,-39.062,-99.121
1687531143.958,-50.781,-20.020,-28.809,-42.969,21.484
1687531143.962,-52.246,-24.414,-34.668,-46.875,119.629
1687531143.965,-41.016,-23.926,-29.297,-43.457,273.438
1687531143.969,-37.598,-26.367,-25.879,-53.711,162.598
1687531143.973,-46.387,-27.832,-30.762,-55.664,-124.023
1687531143.977,-59.570,-27.832,-31.250,-43.457,-58.105
1687531143.981,-68.848,-29.297,-32.227,-53.223,-42.480
1687531143.982,-65.918,-30.273,-29.785,-64.941,-134.277
1687531143.986,-52.246,-29.297,-25.879,-52.246,-114.746
1687531143.990,-44.434,-26.855,-30.762,-47.363,-90.820
1687531143.994,-51.758,-30.273,-38.086,-54.199,-107.910
1687531143.998,-53.223,-27.832,-33.691,-45.410,-96.680
1687531144.002,-42.969,-26.367,-27.832,-43.945,-110.352
1687531144.006,-32.227,-26.855,-25.391,-43.945,27.832
1687531144.009,-35.156,-25.391,-27.832,-40.527,331.055
1687531144.013,-53.223,-24.414,-32.227,-44.922,83.984
1687531144.017,-57.129,-23.926,-35.156,-50.293,-198.242
1687531144.021,-55.176,-27.832,-41.016,-58.105,-89.844
1687531144.025,-53.223,-32.715,-37.598,-60.059,-93.262
1687531144.031,-41.016,-30.762,-30.273,-35.156,-222.656
1687531144.035,-35.156,-19.043,-34.180,-26.855,-111.816
1687531144.039,-50.293,-13.184,-42.969,-55.664,-35.645
1687531144.043,-52.734,-12.207,-40.527,-55.176,-74.219
1687531144.047,-46.875,-7.324,-47.363,-59.082,-122.070
1687531144.051,-62.012,-3.418,-60.547,-68.359,76.172
1687531144.055,-78.613,0.488,-66.406,-63.477,326.172
1687531144.058,-103.027,8.301,-65.918,-68.848,42.480
1687531144.062,-122.070,13.672,-68.848,-83.496,-161.621
1687531144.066,-117.676,13.672,-79.590,-83.008,24.902
1687531144.070,-113.770,19.043,-89.355,-72.754,177.734
1687531144.074,-119.629,23.438,-96.191,-80.566,-5.859
1687531144.086,-127.441,26.855,-95.215,-93.262,-74.707
1687531144.090,-106.934,28.809,-100.586,-99.609,-29.297
1687531144.094,-88.379,31.738,-107.910,-104.492,-35.645
1687531144.098,-86.426,38.086,-107.910,-107.422,-132.324
1687531144.102,-89.355,40.039,-109.863,-103.516,-113.281
1687531144.106,-96.680,41.016,-116.211,-89.844,236.328
1687531144.110,-99.121,39.062,-120.605,-91.797,292.480
1687531144.113,-88.379,41.016,-119.141,-98.145,-43.945
1687531144.117,-66.895,45.898,-112.793,-87.402,-185.059
1687531144.121,-80.078,44.434,-113.281,-82.520,22.461
1687531144.125,-103.027,45.410,-118.164,-93.262,120.605
1687531144.129,-106.934,49.805,-113.281,-99.609,-87.891
1687531144.131,-112.305,50.293,-110.840,-106.934,-117.676
1687531144.135,-99.609,48.828,-106.934,-96.191,-39.062
1687531144.139,-91.797,46.387,-103.027,-87.402,-94.727
1687531144.143,-92.773,43.945,-100.586,-82.031,-197.754
1687531144.147,-85.449,37.109,-95.703,-81.055,-99.121
1687531144.151,-73.730,36.133,-91.309,-80.566,-17.578
1687531144.155,-53.711,36.621,-87.402,-66.406,-66.406
1687531144.158,-53.711,29.297,-88.867,-64.941,-93.262
1687531144.162,-77.637,20.508,-94.727,-53.711,-5.859
1687531144.166,-59.082,18.066,-83.984,-45.898,158.691
1687531144.170,-55.664,21.484,-76.172,-57.617,-30.273
1687531144.174,-43.945,21.973,-69.336,-48.828,-187.012
1687531144.179,-21.973,20.996,-58.594,-38.574,-90.820
1687531144.183,-49.316,15.625,-59.570,-56.152,30.762
1687531144.187,-62.988,12.207,-64.453,-54.688,-106.934
1687531144.191,-55.664,9.766,-62.988,-52.734,-200.684
1687531144.195,-56.152,2.930,-60.059,-47.363,78.613
1687531144.199,-65.918,3.418,-58.594,-41.504,122.070
1687531144.203,-66.895,0.488,-57.617,-58.105,-58.594
1687531144.206,-71.777,-4.883,-53.223,-55.664,-60.059
1687531144.210,-61.035,-4.395,-49.805,-43.457,76.172
1687531144.214,-45.898,-0.488,-49.316,-40.039,145.996
1687531144.218,-52.246,1.465,-45.898,-41.504,-68.848
1687531144.222,-65.430,-1.953,-47.363,-36.621,-43.457
1687531144.223,-77.148,-2.441,-46.387,-44.922,-51.758
1687531144.227,-85.938,-4.883,-48.340,-63.965,-184.082
1687531144.231,-81.543,-8.789,-55.176,-64.453,-202.148
1687531144.235,-73.730,-13.184,-52.734,-53.223,-138.184
1687531144.239,-83.008,-13.672,-49.316,-51.758,-64.453
1687531144.243,-95.215,-13.184,-46.875,-56.152,-109.375
1687531144.247,-83.984,-13.184,-43.945,-54.199,-224.121
1687531144.250,-71.777,-17.090,-41.992,-46.875,-153.809
1687531144.254,-68.359,-23.438,-40.527,-41.504,121.094
1687531144.258,-61.523,-20.508,-40.527,-37.109,-14.160
1687531144.262,-66.406,-16.602,-38.574,-41.016,-208.008
1687531144.266,-66.406,-21.484,-41.016,-48.340,-88.867
1687531144.265,-57.129,-23.438,-39.551,-48.828,-117.188
1687531144.269,-40.039,-22.461,-32.227,-46.875,-183.105
1687531144.273,-39.062,-22.949,-32.715,-40.039,-155.762
1687531144.277,-55.664,-24.902,-36.133,-37.109,-163.086
1687531144.281,-41.504,-22.949,-35.645,-41.992,-93.262
1687531144.285,-17.578,-25.879,-38.574,-38.574,-79.590
1687531144.289,-11.719,-24.902,-38.574,-37.598,-167.480
1687531144.292,-22.949,-20.996,-33.203,-30.762,96.680
1687531144.296,-35.156,-23.926,-34.668,-25.391,468.262
1687531144.300,-31.250,-25.879,-32.715,-42.969,148.438
1687531144.304,-20.996,-20.020,-26.855,-50.781,-182.617
1687531144.308,-19.043,-25.391,-28.809,-49.316,-130.859
1687531144.312,-25.391,-32.715,-33.203,-40.039,-110.840
1687531144.316,-29.785,-28.809,-32.227,-44.434,-108.887
1687531144.320,-23.438,-32.227,-29.785,-49.805,-82.031
1687531144.324,-14.160,-32.227,-29.297,-46.875,-86.914
1687531144.328,-15.625,-25.879,-32.227,-50.293,-121.094
1687531144.332,-21.484,-26.367,-32.227,-44.434,-24.414
1687531144.336,-34.180,-32.715,-31.250,-41.992,102.539
1687531144.339,-45.410,-31.250,-34.668,-46.387,211.914
1687531144.343,-41.992,-30.273,-37.598,-59.082,113.281
1687531144.347,-31.738,-32.715,-36.621,-63.965,-164.551
1687531144.351,-24.902,-31.738,-32.227,-48.340,-71.289
1687531144.355,-34.180,-35.645,-37.598,-50.293,24.414
1687531144.355,-43.945,-37.109,-36.133,-67.871,-176.270
1687531144.359,-39.062,-32.227,-33.203,-70.801,-229.492
1687531144.363,-23.438,-30.273,-34.668,-61.035,-183.594
1687531144.367,-22.461,-31.738,-31.738,-49.316,-212.891
1687531144.371,-39.551,-33.691,-32.227,-46.387,-179.688
1687531144.375,-44.434,-33.203,-35.156,-48.340,-81.055
1687531144.379,-41.992,-36.133,-40.527,-42.969,150.879
1687531144.382,-31.250,-35.645,-37.598,-37.109,251.465
1687531144.386,-21.973,-36.621,-32.715,-41.504,-118.652
1687531144.390,-38.086,-39.551,-35.156,-43.457,-196.777
1687531144.394,-59.570,-38.086,-34.668,-43.457,-44.434
1687531144.398,-70.312,-38.574,-35.156,-47.363,-92.285
1687531144.402,-77.148,-41.504,-38.574,-46.875,-206.055
1687531144.406,-94.238,-41.016,-37.109,-40.527,-144.531
1687531144.410,-107.422,-38.574,-42.480,-40.527,-48.828
1687531144.414,-111.816,-36.621,-46.875,-44.922,-123.535
1687531144.418,-107.422,-34.180,-43.945,-50.293,-157.715
1687531144.422,-94.727,-34.180,-42.480,-41.992,-36.133
1687531144.426,-85.938,-31.250,-38.574,-40.039,220.703
1687531144.429,-90.332,-36.621,-36.621,-48.828,25.391
1687531144.433,-104.004,-41.016,-39.551,-56.641,-209.473
1687531144.437,-98.633,-35.645,-37.598,-61.035,-98.633
1687531144.441,-75.684,-32.715,-33.691,-55.664,-129.883
1687531144.445,-65.918,-34.180,-38.086,-55.176,-217.285
1687531144.461,-81.543,-37.598,-43.457,-50.293,-175.293
1687531144.465,-84.961,-40.039,-42.480,-48.828,93.262
1687531144.469,-62.988,-44.434,-41.992,-56.152,57.129
1687531144.473,-46.387,-41.992,-37.598,-59.570,-192.383
1687531144.477,-31.250,-41.504,-33.203,-56.641,-107.422
1687531144.481,-17.578,-40.527,-35.156,-48.828,179.688
1687531144.485,-11.230,-35.156,-35.645,-48.828,222.656
1687531144.488,-1.465,-34.180,-36.133,-57.617,-33.203
1687531144.492,15.625,-32.227,-36.621,-60.059,-150.391
1687531144.496,14.160,-28.320,-37.109,-47.363,2.930
1687531144.500,6.836,-27.832,-37.598,-33.203,10.254
1687531144.504,-3.418,-28.320,-34.180,-36.133,-120.117
1687531144.507,-16.113,-31.250,-29.297,-47.363,-93.262
1687531144.511,-12.207,-31.250,-27.832,-44.434,-90.332
1687531144.515,-18.555,-34.668,-32.227,-45.410,-116.211
1687531144.519,-24.902,-37.598,-33.203,-47.852,-151.367
1687531144.523,-28.809,-33.691,-30.762,-41.504,-20.508
1687531144.527,-35.645,-33.203,-31.738,-47.852,159.668
1687531144.531,-31.738,-32.715,-40.527,-54.199,41.992
1687531144.534,-12.695,-27.344,-44.922,-40.039,-207.520
1687531144.538,-4.883,-25.391,-36.133,-19.531,-96.680
1687531144.542,-28.320,-38.086,-29.785,-19.531,145.508
1687531144.546,-64.941,-52.734,-34.180,-43.457,-88.867
1687531144.550,-64.941,-52.734,-36.621,-60.547,-211.426
1687531144.551,-53.711,-48.340,-38.086,-60.547,-47.363
1687531144.555,-54.199,-49.316,-36.621,-48.828,-44.922
1687531144.559,-55.176,-49.805,-33.691,-47.852,-97.656
1687531144.563,-62.988,-49.316,-32.715,-54.199,-120.117
1687531144.567,-48.828,-46.387,-29.297,-45.898,-31.250
1687531144.571,-26.855,-43.457,-32.227,-53.711,20.020
1687531144.575,-37.598,-46.387,-35.156,-56.641,-30.273
1687531144.578,-53.223,-44.922,-32.715,-45.410,-27.832
1687531144.582,-53.223,-42.969,-31.250,-36.133,147.461
1687531144.586,-45.410,-40.527,-31.250,-31.250,327.637
1687531144.590,-33.691,-37.598,-25.391,-33.691,27.832
1687531144.594,-24.902,-37.598,-24.414,-43.945,-137.207
1687531144.597,-28.809,-39.062,-29.785,-46.387,-81.055
1687531144.601,-44.922,-40.527,-35.156,-50.293,-114.258
1687531144.605,-41.016,-41.504,-40.527,-61.523,-190.430
1687531144.609,-35.156,-42.969,-36.621,-59.082,-115.723
1687531144.613,-37.109,-44.922,-31.738,-46.875,-56.152
1687531144.617,-37.109,-41.992,-30.762,-41.016,-66.895
1687531144.621,-51.270,-33.691,-33.691,-60.547,32.227
1687531144.624,-48.340,-33.203,-36.621,-86.914,68.848
1687531144.628,-40.039,-37.598,-40.039,-89.844,229.980
1687531144.632,-32.715,-38.574,-43.945,-88.379,129.395
1687531144.636,-38.574,-39.062,-39.551,-89.355,-123.535
1687531144.640,-55.176,-41.016,-35.645,-93.262,-54.688
1687531144.642,-51.270,-40.527,-41.992,-104.004,-60.059
1687531144.646,-31.738,-41.016,-41.504,-100.098,-156.738
1687531144.650,-20.996,-36.621,-35.645,-90.332,-152.344
1687531144.654,-27.832,-32.715,-32.227,-97.656,-76.172
1687531144.658,-37.109,-41.016,-40.527,-108.398,-19.043
1687531144.662,-24.902,-39.062,-52.246,-114.746,21.973
1687531144.666,8.789,-30.762,-46.387,-81.055,7.324
1687531144.669,-1.953,-49.316,-28.809,-70.801,127.441
1687531144.673,-49.316,-64.453,-20.508,-97.168,280.762
1687531144.677,-64.453,-61.523,-17.090,-108.887,-12.695
1687531144.681,-76.660,-64.453,-8.301,-115.234,-111.328
1687531144.685,-69.824,-73.242,-1.953,-110.840,-30.273
1687531144.687,-68.848,-80.078,4.883,-104.492,-115.234
1687531144.691,-88.867,-88.379,9.766,-109.863,-115.723
1687531144.695,-83.984,-94.727,9.766,-108.398,-83.496
1687531144.699,-80.078,-100.586,17.578,-124.512,-77.148
1687531144.703,-76.660,-102.539,23.438,-134.277,-72.754
1687531144.707,-69.336,-105.957,27.832,-126.953,-66.406
1687531144.711,-71.289,-114.746,31.250,-107.422,25.391
1687531144.714,-87.402,-117.188,33.203,-97.168,185.547
1687531144.718,-92.773,-119.141,34.668,-113.770,-10.254
1687531144.722,-63.965,-118.164,32.227,-103.027,-194.336
1687531144.726,-62.988,-121.094,34.668,-106.445,-107.422
1687531144.730,-76.660,-122.070,32.227,-116.211,-136.719
1687531145.683,-82.031,-116.211,29.785,-99.121,-116.211
1687531145.687,-102.539,-115.723,30.273,-92.773,-77.148
1687531145.691,-93.750,-112.793,28.320,-82.031,-71.289
1687531145.695,-84.473,-111.328,30.273,-76.660,-43.457
1687531145.699,-98.633,-109.863,22.949,-80.078,-63.965
1687531145.703,-115.234,-106.934,20.020,-73.730,-74.707
1687531145.707,-128.906,-102.539,23.438,-59.082,198.242
1687531145.710,-130.859,-97.168,18.555,-57.617,359.863
1687531145.714,-128.906,-91.797,16.602,-78.125,-30.273
1687531145.718,-130.859,-87.402,17.090,-80.566,-168.457
1687531145.722,-140.137,-86.426,12.695,-72.266,-43.457
1687531145.726,-151.367,-85.938,5.371,-72.754,-44.922
1687531145.686,-144.531,-78.613,8.301,-70.312,-146.484
1687531145.690,-140.625,-75.195,8.301,-60.547,-163.086
1687531145.694,-149.414,-77.148,1.953,-62.500,-99.609
1687531145.698,-154.297,-76.172,0.977,-70.801,-48.828
1687531145.702,-145.508,-72.754,1.953,-55.176,-82.520
1687531145.706,-129.395,-69.824,1.953,-44.922,-13.184
1687531145.710,-125.977,-73.730,-4.395,-47.363,264.160
1687531145.713,-119.141,-72.266,-6.836,-49.805,208.496
1687531145.717,-111.816,-64.453,-4.883,-50.293,-123.535
1687531145.721,-112.793,-59.570,-8.789,-44.434,-103.027
1687531145.725,-96.680,-54.199,-10.254,-49.316,-83.984
1687531145.729,-81.543,-51.758,-11.719,-49.805,-145.508
1687531145.693,-81.543,-57.129,-16.602,-43.945,-113.770
1687531145.697,-88.379,-59.082,-21.484,-48.828,-84.961
1687531145.701,-95.215,-53.711,-22.949,-45.410,-67.383
1687531145.705,-106.445,-54.688,-25.391,-50.781,-100.098
1687531145.709,-95.215,-56.641,-27.344,-53.711,-179.688
1687531145.713,-79.590,-54.199,-21.484,-39.551,95.703
1687531145.717,-96.191,-52.734,-20.508,-48.828,248.047
1687531145.720,-102.539,-54.199,-20.996,-40.039,23.926
1687531145.724,-90.820,-54.688,-17.090,-32.715,-41.992
1687531145.728,-73.242,-51.758,-18.066,-42.480,122.070
1687531145.732,-61.523,-48.340,-21.484,-34.668,100.586
1687531145.736,-65.918,-44.922,-21.973,-37.598,-184.082
1687531145.724,-71.777,-44.434,-26.367,-43.945,-160.156
1687531145.728,-74.707,-42.480,-28.809,-46.875,-108.398
1687531145.732,-66.895,-45.898,-26.367,-51.270,-122.070
1687531145.736,-58.105,-48.340,-26.855,-63.965,-155.762
1687531145.740,-57.617,-49.805,-30.273,-76.660,-123.047
1687531145.744,-58.105,-48.828,-36.133,-79.590,36.133
1687531145.748,-42.480,-43.457,-41.504,-66.895,59.082
1687531145.751,-10.254,-41.504,-38.574,-47.363,-88.379
1687531145.755,-4.883,-45.410,-27.832,-45.898,-101.562
1687531145.759,-23.926,-51.758,-23.438,-64.941,212.891
1687531145.763,-27.832,-53.711,-21.973,-76.172,120.117
1687531145.767,-32.227,-58.105,-19.531,-67.383,-181.641
1687531145.728,-27.344,-62.012,-16.602,-62.012,-128.906
1687531145.732,-12.207,-59.082,-18.555,-48.828,-110.840
1687531145.736,-10.742,-61.035,-20.996,-46.387,-166.992
1687531145.740,-27.344,-60.059,-20.020,-59.082,-136.230
1687531145.744,-39.062,-56.641,-19.043,-52.734,6.836
1687531145.748,-28.320,-57.617,-19.043,-55.664,63.965
1687531145.752,-17.578,-53.711,-23.438,-61.523,-8.301
1687531145.755,-19.043,-52.734,-24.902,-61.523,-121.582
1687531145.759,-21.484,-57.129,-23.438,-50.781,48.340
1687531145.763,-16.113,-51.270,-23.438,-40.527,240.723
1687531145.767,0.977,-48.340,-24.902,-45.410,-98.633
1687531145.771,8.789,-51.758,-27.832,-55.176,-232.910
1687531145.733,8.789,-53.223,-27.832,-57.129,-84.961
1687531145.737,18.066,-52.246,-27.832,-46.387,-106.934
1687531145.741,7.324,-51.758,-30.273,-46.875,-140.625
1687531145.745,4.395,-52.246,-35.645,-53.711,-119.141
1687531145.749,21.973,-50.781,-34.668,-57.617,-125.000
1687531145.753,14.160,-53.223,-31.738,-63.477,-89.844
1687531145.757,5.859,-47.852,-31.250,-54.199,-100.586
1687531145.760,-3.906,-44.922,-29.785,-52.734,-53.223
1687531145.764,-4.395,-46.875,-32.227,-52.734,117.188
1687531145.768,8.301,-46.387,-32.227,-60.547,-19.043
1687531145.772,19.531,-50.293,-29.297,-63.965,-185.547
1687531145.776,21.973,-50.781,-31.250,-48.828,-103.027
1687531145.738,13.184,-49.805,-34.180,-43.457,-0.488
1687531145.742,12.695,-47.363,-32.715,-47.852,-114.746
1687531145.746,16.602,-47.363,-30.762,-53.711,-194.824
1687531145.750,15.625,-45.410,-36.133,-36.133,-11.230
1687531145.754,4.883,-44.922,-40.039,-25.879,46.387
1687531145.758,-31.250,-47.852,-40.527,-55.664,-38.574
1687531145.762,-48.340,-43.457,-35.156,-76.172,-78.613
1687531145.765,-28.809,-39.062,-29.297,-65.430,103.027
1687531145.769,-28.320,-45.410,-32.227,-58.594,290.527
1687531145.773,-27.344,-48.828,-33.691,-54.199,-39.062
1687531145.777,-34.180,-47.852,-39.062,-62.988,-170.410
1687531145.781,-33.203,-47.363,-43.457,-76.660,-102.051
1687531145.753,-11.719,-46.875,-41.016,-77.637,-149.414
1687531145.757,0.000,-46.387,-33.203,-74.707,-186.523
1687531145.761,0.000,-46.387,-32.227,-76.660,-54.199
1687531145.765,-11.230,-46.875,-38.086,-70.801,64.941
1687531145.769,-15.137,-44.922,-34.668,-66.406,-39.062
1687531145.773,-3.418,-44.922,-31.738,-75.195,-61.523
1687531145.777,6.348,-48.828,-32.227,-65.430,43.457
1687531145.780,10.742,-49.805,-34.180,-52.246,183.594
1687531145.784,2.441,-48.340,-31.250,-56.152,-35.645
1687531145.788,-8.301,-51.270,-33.691,-64.941,-211.426
1687531145.792,-2.441,-48.828,-37.109,-69.336,-68.848
1687531145.796,8.301,-41.992,-33.691,-72.754,-15.625
1687531145.762,16.113,-39.551,-33.203,-74.707,-126.465
1687531145.766,8.789,-41.504,-32.227,-69.824,-133.789
1687531145.770,-3.418,-41.016,-33.203,-70.801,-92.773
1687531145.774,-1.953,-37.598,-37.109,-71.289,-91.797
1687531145.778,-6.348,-39.062,-40.039,-69.824,-127.930
1687531145.782,-15.625,-45.410,-47.363,-72.754,-141.602
1687531145.786,-26.855,-44.434,-48.340,-63.477,183.105
1687531145.789,-49.805,-39.062,-41.992,-47.363,485.352
1687531145.793,-61.035,-43.457,-38.574,-58.105,104.492
1687531145.797,-61.035,-45.410,-40.527,-78.125,-171.875
1687531145.801,-60.547,-41.992,-41.016,-81.055,-33.691
1687531145.805,-70.312,-42.480,-41.016,-71.777,-100.098
1687531145.766,-83.984,-43.457,-39.062,-67.871,-169.434
1687531145.770,-87.891,-40.039,-37.598,-79.102,-84.473
1687531145.774,-84.961,-38.086,-40.039,-85.449,-151.855
1687531145.778,-81.055,-39.062,-41.504,-81.543,-179.688
1687531145.782,-88.379,-39.551,-44.922,-80.078,-136.230
1687531145.786,-88.379,-39.062,-45.410,-78.125,8.789
1687531145.790,-85.449,-39.062,-42.969,-73.242,166.016
1687531145.793,-74.219,-42.969,-44.434,-70.312,39.551
1687531145.797,-65.918,-41.016,-41.016,-69.336,-178.711
1687531145.801,-74.707,-39.062,-42.480,-69.336,-91.797
1687531145.805,-86.914,-39.551,-45.410,-59.570,119.141
1687531145.809,-84.961,-43.945,-43.457,-60.547,-60.547
1687531145.771,-59.570,-49.805,-37.598,-69.824,-189.453
1687531145.775,-59.570,-50.781,-34.180,-71.289,-117.676
1687531145.779,-61.523,-46.387,-35.156,-65.918,-96.191
1687531145.783,-65.918,-44.434,-34.668,-59.570,-63.477
1687531145.787,-68.359,-43.457,-30.762,-52.246,-24.414
1687531145.791,-58.594,-34.180,-32.227,-47.852,191.895
1687531145.795,-54.688,-32.715,-32.715,-44.922,281.250
1687531145.798,-48.340,-38.574,-34.180,-41.016,-53.711
1687531145.802,-57.617,-35.645,-39.551,-41.504,-126.953
1687531145.806,-65.430,-39.062,-41.992,-38.574,133.789
1687531145.810,-65.430,-42.480,-40.527,-45.898,153.809
1687531145.814,-62.012,-37.598,-38.086,-59.570,-214.844
1687531145.778,-60.059,-34.180,-34.668,-48.828,-247.559
1687531145.782,-69.336,-32.227,-34.180,-49.805,-98.145
1687531145.786,-80.566,-32.227,-36.621,-59.570,-86.914
1687531145.790,-81.055,-31.250,-35.156,-56.152,-159.668
1687531145.794,-69.336,-33.203,-32.227,-61.523,-174.316
1687531145.798,-63.965,-35.156,-31.738,-64.941,-8.789
1687531145.802,-68.359,-36.621,-39.551,-65.430,76.660
1687531145.805,-70.801,-35.156,-37.598,-64.453,-64.453
1687531145.809,-69.336,-34.668,-35.645,-63.477,-40.527
1687531145.813,-62.988,-38.574,-39.551,-58.594,117.676
1687531145.817,-66.406,-40.039,-36.621,-59.570,-33.203
1687531145.821,-72.754,-39.062,-33.203,-54.688,-151.855
1687531145.784,-77.637,-38.086,-34.668,-46.387,-8.301
1687531145.788,-69.336,-38.574,-37.109,-60.547,-41.016
1687531145.792,-51.758,-38.086,-38.086,-70.801,-192.871
1687531145.796,-37.109,-37.109,-35.645,-71.777,-218.262
1687531145.800,-35.156,-37.109,-34.668,-57.617,-78.613
1687531145.804,-69.336,-32.227,-34.180,-54.688,6.348
1687531145.808,-98.633,-31.250,-31.738,-57.129,3.418
1687531145.811,-87.891,-39.062,-33.203,-51.270,-26.367
1687531145.815,-65.918,-41.504,-31.738,-46.875,119.629
1687531145.819,-48.828,-41.504,-26.367,-41.504,241.211
1687531145.823,-38.086,-43.457,-28.809,-54.688,-51.270
1687531145.827,-29.785,-43.945,-32.715,-62.988,-111.816
1687531145.789,-19.531,-41.992,-34.668,-63.477,-114.258
1687531145.793,-4.883,-41.504,-37.598,-64.453,-119.629
1687531145.797,-2.441,-38.574,-33.203,-68.848,-119.629
1687531145.801,-5.859,-33.691,-32.715,-71.289,-111.816
1687531145.805,1.953,-33.203,-34.180,-64.453,35.645
1687531145.809,15.625,-36.133,-36.133,-58.594,71.289
1687531145.813,25.879,-41.016,-41.504,-63.477,47.852
1687531145.816,23.438,-41.992,-41.016,-72.754,57.129
1687531145.820,14.648,-38.086,-35.645,-65.430,197.266
1687531145.824,14.160,-39.062,-36.133,-71.777,69.824
1687531145.828,25.879,-43.457,-39.062,-79.590,-152.832
1687531145.832,28.809,-41.504,-38.574,-71.777,-92.285
1687531145.827,28.809,-41.992,-41.992,-73.730,-83.496
1687531145.831,21.484,-42.480,-40.527,-78.613,-121.582
1687531145.835,10.254,-41.992,-37.109,-81.543,-67.871
1687531145.839,25.391,-39.062,-35.645,-84.473,-70.801
1687531145.843,36.133,-35.645,-32.227,-96.680,-36.133
1687531145.847,30.273,-40.039,-32.227,-98.145,33.203
1687531145.851,15.625,-41.992,-30.273,-89.355,115.723
1687531145.854,-1.953,-40.039,-28.320,-87.891,314.453
1687531145.858,4.883,-42.480,-25.391,-88.379,481.934
1687531145.862,17.090,-44.922,-27.344,-98.633,109.863
1687531145.866,16.113,-40.039,-30.762,-98.145,-196.777
1687531145.870,7.812,-35.156,-33.203,-90.332,-135.742
1687531145.831,-1.953,-35.645,-35.645,-106.934,-126.953
1687531145.835,1.465,-36.621,-34.668,-115.234,-167.969
1687531145.839,14.160,-32.227,-32.227,-104.980,-152.832
1687531145.843,12.207,-29.297,-33.691,-103.516,-75.195
1687531145.847,2.930,-36.133,-41.016,-103.027,-73.730
1687531145.851,2.441,-38.574,-41.016,-92.285,-61.523
1687531145.855,3.418,-37.109,-40.527,-99.609,-54.688
1687531145.858,5.371,-36.621,-43.457,-96.191,233.887
1687531145.862,20.020,-31.738,-37.109,-82.520,119.141
1687531145.866,17.578,-31.250,-32.227,-84.473,-231.934
1687531145.870,0.488,-36.621,-35.156,-81.543,-131.836
1687531145.874,1.465,-32.715,-39.062,-83.984,-116.699
1687531145.834,11.719,-31.250,-38.086,-91.309,-184.570
1687531145.838,19.531,-31.738,-36.133,-97.656,-196.777
1687531145.842,7.324,-31.738,-35.645,-97.168,-87.402
1687531145.846,-2.930,-35.645,-35.156,-97.656,-52.734
1687531145.850,3.418,-35.156,-37.109,-99.609,-29.785
1687531145.854,13.672,-36.621,-37.109,-99.121,-31.738
1687531145.858,17.090,-38.086,-33.691,-100.098,187.012
1687531145.861,10.742,-34.180,-33.691,-93.262,417.480
1687531145.865,-1.953,-38.086,-38.086,-92.773,66.895
1687531145.869,-4.395,-43.457,-35.645,-103.516,-106.445
1687531145.873,5.371,-44.434,-29.785,-104.004,-36.133
1687531145.877,0.488,-46.387,-35.645,-97.168,-99.121
1687531145.838,-6.348,-47.363,-42.480,-96.680,-180.664
1687531145.842,-10.254,-41.992,-37.598,-91.797,-123.535
1687531145.846,-11.230,-40.039,-34.668,-97.168,-73.730
1687531145.850,0.000,-40.039,-36.133,-99.609,-105.957
1687531145.854,3.906,-41.504,-32.227,-96.680,-174.316
1687531145.858,-5.859,-49.316,-35.645,-89.844,24.414
1687531145.862,-6.836,-41.016,-36.621,-82.031,240.234
1687531145.865,-9.277,-33.691,-30.273,-96.680,0.977
1687531145.869,-5.371,-41.504,-28.809,-93.750,-235.840
1687531145.873,-3.418,-41.504,-31.250,-90.820,-118.652
1687531145.877,-7.324,-37.109,-32.227,-97.656,55.176
1687531145.881,-14.160,-37.109,-32.715,-93.750,29.297
1687531145.841,-20.508,-38.574,-34.668,-94.238,-61.035
1687531145.845,-17.090,-41.992,-34.668,-100.586,23.438
1687531145.849,-3.906,-48.828,-34.180,-95.215,40.527
1687531145.853,0.000,-41.504,-32.715,-89.844,-162.109
1687531145.857,-19.043,-30.762,-36.621,-99.609,-89.844
1687531145.861,-30.273,-33.203,-36.133,-99.121,232.422
1687531145.865,-23.926,-36.621,-35.645,-98.633,438.965
1687531145.868,-12.695,-32.715,-40.039,-98.145,63.477
1687531145.872,-9.766,-32.227,-40.039,-91.309,-215.332
1687531145.876,-15.137,-36.621,-41.016,-86.914,-87.402
1687531145.880,-18.066,-37.109,-43.945,-95.703,-50.293
1687531145.884,-16.602,-30.273,-39.551,-100.586,-179.199
1687531145.847,-15.137,-24.902,-37.109,-94.727,-188.965
1687531145.851,-12.695,-24.902,-39.062,-90.820,-10.254
1687531145.855,-21.484,-26.855,-35.645,-89.844,1.953
1687531145.859,-29.297,-27.344,-35.156,-92.773,-152.344
1687531145.863,-19.531,-30.273,-34.668,-94.238,-144.531
1687531145.867,-7.324,-29.297,-33.203,-90.820,31.250
1687531145.871,-6.836,-29.297,-29.297,-86.914,3.418
1687531145.874,-22.461,-29.297,-25.879,-82.520,-103.516
1687531145.878,-49.316,-28.320,-27.344,-81.055,-9.277
1687531145.882,-76.660,-31.738,-32.715,-87.891,88.867
1687531145.886,-82.520,-35.156,-31.738,-95.215,-104.980
1687531145.890,-83.008,-31.738,-31.738,-90.820,-198.242
1687531145.852,-92.773,-24.902,-31.250,-74.707,-67.383
1687531145.856,-105.469,-25.879,-30.762,-75.195,-14.648
