timestamps,TP9,AF7,AF8,TP10,Right AUX
1687530758.029,28.809,-44.434,-30.762,28.320,34.668
1687530758.033,13.672,-40.039,-22.949,20.020,-58.594
1687530758.037,-56.152,-34.668,-18.066,-30.762,-198.242
1687530758.041,-78.613,-30.273,-19.043,-43.945,-162.109
1687530758.045,-30.762,-33.203,-20.996,-10.254,-76.172
1687530758.049,36.621,-29.785,-20.020,30.762,84.473
1687530758.053,30.273,-26.367,-19.043,17.090,82.520
1687530758.056,-40.527,-27.832,-20.020,-27.344,239.746
1687530758.060,-78.125,-28.809,-21.484,-48.340,245.605
1687530758.064,-41.016,-29.297,-20.996,-28.320,-64.941
1687530758.068,23.438,-29.297,-23.926,25.879,116.211
1687530758.072,28.809,-33.203,-26.367,30.273,188.965
1687530826.368,-54.688,-42.480,-18.066,-44.434,-124.023
1687530826.372,-57.617,-42.969,-20.508,-53.223,-126.465
1687530826.376,-12.207,-39.551,-20.508,-14.648,-76.172
1687530826.380,32.715,-39.062,-18.066,8.789,74.707
1687530826.384,1.953,-39.062,-20.020,-20.996,14.160
1687530826.388,-56.641,-40.039,-21.484,-45.410,-184.082
1687530826.392,-63.477,-38.574,-20.996,-54.199,-172.363
1687530826.395,-29.297,-40.527,-23.438,-29.785,72.754
1687530826.399,4.883,-42.480,-24.414,11.719,303.711
1687530826.403,-14.648,-38.086,-23.926,-18.555,58.594
1687530826.407,-67.383,-36.621,-23.926,-55.176,-113.281
1687530826.411,-87.402,-37.109,-25.879,-56.641,-22.949
1687530844.174,12.207,-25.879,-28.809,-1.465,-153.809
1687530844.178,-15.625,-27.344,-34.180,-3.418,-106.934
1687530844.182,-7.324,-25.879,-33.691,-3.906,-40.039
1687530844.186,15.137,-24.414,-29.297,-5.371,-55.176
1687530844.190,20.020,-25.879,-25.391,-14.648,-126.465
1687530844.194,18.066,-28.320,-23.438,-11.719,-24.902
1687530844.198,4.395,-32.227,-26.855,6.836,297.363
1687530844.201,5.859,-35.645,-26.367,6.836,151.367
1687530844.205,20.020,-35.645,-24.414,-4.395,-165.039
1687530844.209,8.789,-37.598,-29.785,-8.789,-98.633
1687530844.213,-0.977,-34.180,-34.668,-6.836,289.551
1687530844.217,-6.348,-29.297,-31.250,-9.277,183.105
1687530891.798,4.883,-31.738,-35.645,-1.465,-2.930
1687530891.802,-42.480,-29.785,-41.992,-30.762,-215.332
1687530891.806,-46.387,-39.551,-38.574,-41.504,-209.473
1687530891.810,-40.039,-52.246,-37.109,-37.598,-97.656
1687530891.814,-17.090,-56.152,-37.109,-18.066,-100.098
1687530891.818,-14.160,-51.270,-29.785,-23.438,-35.645
1687530891.822,-52.734,-46.387,-23.438,-46.387,-76.660
1687530891.825,-78.613,-48.828,-28.320,-57.129,85.449
1687530891.829,-63.965,-46.875,-33.203,-41.504,219.727
1687530891.833,-12.207,-44.922,-34.180,-12.207,7.324
1687530891.837,-5.859,-47.852,-29.785,-2.441,24.902
1687530891.841,-48.828,-53.711,-30.762,-44.434,106.445
1687530928.039,-32.227,-68.359,37.109,0.488,-137.207
1687530928.043,-40.527,-67.871,26.367,-3.906,-76.172
1687530928.047,-50.293,-62.500,23.438,-14.648,-79.590
1687530928.051,-48.340,-55.664,22.949,-27.344,-153.320
1687530928.055,-39.551,-55.176,16.602,-22.949,-129.883
1687530928.059,-37.598,-53.711,14.648,-18.555,43.945
1687530928.063,-45.410,-50.293,12.207,-25.391,75.684
1687530928.066,-55.176,-51.758,6.836,-39.551,37.109
1687530928.070,-51.270,-51.758,8.789,-55.176,-41.992
1687530928.074,-41.016,-44.922,6.836,-59.570,115.723
1687530928.078,-36.133,-40.039,5.859,-56.152,230.957
1687530928.082,-37.598,-38.086,7.812,-46.875,-88.867
1687530972.320,-46.387,-26.855,-37.598,-48.340,-173.340
1687530972.324,-51.270,-22.949,-28.320,-43.945,-59.082
1687530972.328,-67.871,-23.438,-33.691,-41.504,117.676
1687530972.332,-72.754,-28.809,-36.621,-49.805,-5.859
1687530972.336,-60.059,-30.273,-33.691,-53.223,-150.879
1687530972.340,-56.152,-27.344,-37.109,-51.758,22.949
1687530972.344,-62.012,-29.297,-33.203,-51.270,253.418
1687530972.347,-73.730,-34.668,-31.738,-56.152,75.195
1687530972.351,-68.359,-31.738,-34.668,-60.059,-166.016
1687530972.355,-46.875,-27.344,-32.715,-53.711,-99.609
1687530972.359,-33.203,-31.738,-36.133,-54.688,75.684
1687530972.363,-29.297,-30.762,-36.133,-60.059,-55.176
1687530972.379,-39.551,-30.273,-33.691,-59.570,-172.852
1687530972.383,-45.410,-29.297,-32.715,-70.312,-73.242
1687530972.387,-41.016,-23.926,-31.738,-75.195,-91.797
1687530972.391,-43.945,-26.367,-31.250,-66.406,-247.070
1687530972.395,-61.035,-35.156,-35.156,-69.824,-224.609
1687530972.399,-81.543,-39.551,-41.504,-67.383,94.238
1687530972.403,-87.402,-36.621,-38.574,-61.035,377.930
1687530972.406,-73.242,-30.273,-34.180,-66.895,57.129
1687530972.410,-59.570,-26.367,-36.133,-61.523,-139.648
1687530972.414,-59.570,-22.461,-36.133,-62.988,-43.457
1687530972.418,-72.266,-26.367,-33.203,-70.312,-109.375
1687530972.422,-82.520,-31.738,-38.086,-70.801,-155.273
1687530972.424,-71.777,-30.762,-42.480,-68.359,-115.234
1687530972.428,-61.035,-29.297,-38.574,-60.547,-77.637
1687530972.432,-62.988,-35.645,-38.086,-51.270,-92.285
1687530972.436,-77.637,-41.992,-39.062,-42.480,-101.074
1687530972.440,-89.844,-45.410,-35.156,-55.176,-26.367
1687530972.444,-70.312,-40.527,-30.273,-60.059,35.645
1687530972.448,-60.547,-35.645,-27.832,-54.688,58.594
1687530972.451,-59.082,-38.086,-29.297,-53.223,28.320
1687530972.455,-61.523,-39.062,-32.227,-56.152,-13.672
1687530972.459,-71.777,-36.133,-34.668,-59.570,292.969
1687530972.463,-64.941,-31.738,-37.598,-57.129,329.102
1687530972.467,-49.316,-26.367,-41.504,-56.641,-91.309
1687530972.469,-38.086,-25.391,-38.574,-52.734,-91.797
1687530972.473,-43.945,-28.809,-36.133,-53.711,-40.527
1687530972.477,-49.805,-31.250,-38.086,-46.387,-140.625
1687530972.481,-47.852,-33.203,-35.645,-48.340,-141.602
1687530972.485,-42.969,-33.203,-30.762,-55.176,-79.590
1687530972.489,-40.527,-31.250,-29.297,-49.805,-12.207
1687530972.493,-49.805,-32.715,-29.297,-50.781,20.508
1687530972.496,-65.918,-33.691,-27.832,-54.688,-169.434
1687530972.500,-58.594,-31.250,-29.297,-59.082,53.223
1687530972.504,-48.828,-32.227,-33.203,-62.012,267.090
1687530972.508,-46.387,-33.203,-32.715,-61.035,-142.578
1687530972.512,-50.293,-30.273,-29.785,-53.711,-179.688
1687530972.514,-61.035,-29.785,-33.691,-57.129,-65.430
1687530972.518,-59.570,-30.273,-35.156,-58.594,-128.906
1687530972.522,-49.805,-29.785,-35.645,-60.547,-189.941
1687530972.526,-48.828,-29.785,-38.574,-67.871,-133.301
1687530972.530,-56.641,-26.367,-36.133,-64.453,-61.035
1687530972.534,-66.895,-19.531,-32.715,-60.059,-41.504
1687530972.538,-62.500,-20.996,-36.133,-61.523,-16.113
1687530972.541,-46.875,-21.973,-34.180,-55.176,-37.109
1687530972.545,-48.340,-18.066,-32.715,-50.781,122.070
1687530972.549,-47.852,-18.066,-36.621,-44.922,124.023
1687530972.553,-49.316,-18.555,-34.668,-54.688,-70.801
1687530972.557,-53.711,-17.090,-32.715,-71.289,-16.602
1687530972.559,-40.039,-19.531,-30.762,-60.059,183.105
1687530972.563,-31.250,-20.996,-30.273,-49.805,1.465
1687530972.567,-38.574,-22.949,-30.273,-41.016,-147.949
1687530972.571,-50.781,-20.508,-26.367,-37.109,-49.805
1687530972.575,-53.223,-13.672,-25.391,-46.387,-94.238
1687530972.579,-39.551,-13.672,-25.879,-49.805,-92.773
1687530972.583,-32.227,-14.648,-25.879,-47.363,-89.355
1687530972.586,-39.062,-18.066,-28.809,-38.574,80.078
1687530972.590,-51.758,-15.625,-31.250,-38.086,165.039
1687530972.594,-52.734,-7.812,-32.227,-49.805,-100.586
1687530972.598,-37.109,-4.883,-30.762,-50.293,-90.332
1687530972.602,-28.320,-9.277,-32.715,-47.363,-86.914
1687530972.605,-29.785,-11.719,-33.691,-38.574,-73.242
1687530972.609,-47.852,-10.254,-34.180,-42.480,8.301
1687530972.613,-63.477,-15.625,-36.621,-52.246,-33.203
1687530972.617,-57.617,-17.090,-34.180,-50.293,-16.602
1687530972.621,-50.781,-15.625,-34.180,-58.594,-17.090
1687530972.625,-53.223,-20.508,-37.598,-69.336,-28.320
1687530972.629,-66.406,-21.484,-39.551,-63.965,78.125
1687530972.632,-77.637,-18.066,-37.598,-59.082,290.527
1687530972.636,-66.406,-18.066,-34.180,-67.383,79.102
1687530972.640,-50.781,-16.602,-34.180,-66.406,-135.742
1687530972.644,-52.734,-21.484,-37.598,-54.688,23.926
1687530972.648,-52.734,-21.973,-39.062,-51.758,77.637
1687530972.649,-56.152,-17.090,-36.621,-52.246,-141.602
1687530972.653,-49.805,-15.625,-33.691,-55.664,-200.684
1687530972.657,-36.133,-19.043,-33.691,-61.035,-173.828
1687530972.661,-29.297,-19.043,-35.156,-58.594,-114.258
1687530972.665,-47.363,-15.137,-37.109,-52.734,-60.547
1687530972.669,-64.453,-15.625,-32.227,-42.969,-136.230
1687530972.673,-43.945,-16.113,-27.832,-41.504,141.113
1687530972.676,-29.785,-21.973,-28.809,-46.875,328.613
1687530972.680,-29.785,-22.949,-28.320,-39.551,-61.035
1687530972.684,-35.645,-16.602,-28.320,-36.621,-218.750
1687530972.688,-57.129,-20.020,-27.344,-51.758,-109.375
1687530972.692,-64.941,-20.996,-26.855,-62.012,-105.957
1687530972.694,-53.711,-19.043,-27.344,-59.570,-176.270
1687530972.698,-55.664,-19.531,-26.367,-60.547,-174.805
1687530972.702,-62.500,-18.555,-22.461,-54.199,-95.703
1687530972.706,-59.570,-18.555,-18.555,-60.547,-109.863
1687530972.710,-50.781,-15.625,-23.926,-50.293,-104.492
1687530972.714,-48.340,-14.160,-30.762,-42.969,2.930
1687530972.718,-40.039,-9.277,-27.832,-41.504,191.406
1687530972.721,-34.180,-10.254,-27.344,-41.016,122.559
1687530972.725,-51.758,-18.066,-28.320,-57.129,-66.895
1687530972.729,-56.152,-20.020,-23.926,-66.406,-47.852
1687530972.733,-29.785,-17.090,-15.625,-51.270,250.488
1687530972.737,-7.812,-15.625,-16.113,-25.879,124.512
1687530972.739,-5.859,-13.184,-12.695,-32.227,-180.176
1687530972.743,-10.742,-8.789,-12.207,-41.016,-131.836
1687530972.747,-17.090,-12.695,-20.020,-43.457,-89.355
1687530972.751,-2.441,-17.578,-22.461,-52.734,-146.484
1687530972.755,16.602,-11.230,-16.602,-41.016,-189.453
1687530972.759,13.184,-5.371,-14.160,-25.391,46.875
1687530972.763,1.465,-3.418,-12.207,-20.020,145.020
1687530972.766,-5.371,-4.883,-12.207,-18.555,59.570
1687530972.770,3.906,-7.324,-10.742,-12.207,-22.949
1687530972.774,20.996,-5.371,-6.836,-10.742,102.051
1687530972.778,26.367,1.465,-3.418,-11.719,220.703
1687530972.782,18.066,1.465,2.441,-11.230,-9.277
1687530972.799,14.648,-2.441,3.906,-13.184,-43.945
1687530972.803,28.320,-5.371,3.418,-1.953,-3.906
1687530972.807,39.062,-8.789,3.418,8.789,-59.082
1687530972.811,41.992,-4.883,3.418,4.883,-117.676
1687530972.815,24.414,-4.883,3.906,-2.930,-13.184
1687530972.819,8.789,-6.348,3.906,2.930,99.609
1687530972.823,24.902,-2.441,0.000,-1.953,76.172
1687530972.826,29.297,-1.465,-2.930,-1.953,-62.500
1687530972.830,31.738,-1.953,-1.465,12.207,-85.449
1687530972.834,22.949,0.977,-0.977,20.996,187.012
1687530972.838,10.742,0.488,-6.348,20.020,164.062
1687530972.842,23.926,-4.883,-12.695,5.859,-54.199
1687530972.844,30.273,-6.348,-13.184,3.906,26.855
1687530972.848,30.762,-2.930,-6.348,18.066,205.078
1687530972.852,22.949,-1.465,-6.348,15.137,-66.406
1687530972.856,5.371,-4.883,-8.301,11.719,-189.453
1687530972.860,0.488,-5.371,-4.883,3.906,-67.383
1687530972.864,6.836,-2.441,-6.836,-6.836,-62.012
1687530972.868,15.137,-5.371,-9.277,-6.348,-66.406
1687530972.871,6.836,-9.277,-9.277,-11.719,-117.676
1687530972.875,-14.160,-10.254,-8.789,-7.324,38.086
1687530972.879,-21.484,-13.184,-4.883,-2.441,132.324
1687530972.883,-3.418,-14.160,-4.395,-8.789,-170.410
1687530972.887,1.465,-12.695,-8.789,-25.879,-223.145
1687530972.889,-20.508,-16.113,-11.719,-34.180,-30.273
1687530972.893,-33.691,-16.602,-11.230,-29.297,-54.688
1687530972.897,-24.902,-16.602,-14.160,-16.602,-166.992
1687530972.901,-14.160,-16.113,-14.648,-19.531,-107.422
1687530972.905,-14.160,-12.207,-8.301,-35.156,-14.648
1687530972.909,-15.137,-17.578,-10.254,-35.156,34.180
1687530972.913,-26.855,-20.996,-16.113,-43.945,43.945
1687530972.916,-34.180,-22.949,-16.602,-65.430,45.898
1687530972.920,-19.531,-22.461,-16.602,-56.641,127.441
1687530972.924,-17.090,-20.996,-16.113,-49.316,49.805
1687530972.928,-28.809,-20.020,-18.066,-60.059,-108.887
1687530972.932,-42.969,-20.020,-23.438,-62.500,32.715
1687530972.934,-46.875,-23.438,-24.414,-67.383,114.746
1687530972.938,-31.738,-22.461,-22.461,-65.430,-84.473
1687530972.942,-26.855,-22.461,-21.484,-62.012,-168.945
1687530972.946,-29.785,-24.414,-19.531,-50.293,-9.277
1687530972.950,-39.551,-23.438,-19.531,-41.992,54.199
1687530972.954,-49.316,-22.461,-23.438,-54.688,-47.852
1687530972.958,-41.504,-23.438,-23.926,-57.129,-57.617
1687530972.961,-26.855,-17.578,-20.996,-41.992,112.305
1687530972.965,-20.996,-13.672,-23.438,-34.180,167.969
1687530972.969,-28.809,-16.602,-25.391,-38.574,-106.934
1687530972.973,-40.527,-18.555,-27.832,-47.363,-196.289
1687530972.977,-32.227,-15.137,-31.738,-53.711,-156.250
1687530972.980,-16.113,-12.207,-31.738,-50.781,-172.852
1687530972.984,-14.160,-17.090,-31.738,-40.039,-197.266
1687530972.988,-32.227,-19.531,-32.715,-36.621,-124.023
1687530972.992,-41.504,-18.066,-32.227,-52.246,-85.938
1687530972.996,-40.039,-20.508,-32.715,-56.641,-120.605
1687530973.000,-34.180,-23.438,-32.227,-44.922,-81.543
1687530973.004,-32.227,-25.879,-35.156,-42.969,-45.410
1687530973.007,-43.457,-25.391,-32.715,-33.691,277.344
1687530973.011,-55.176,-26.855,-33.691,-35.645,237.793
1687530973.015,-40.527,-25.879,-38.086,-53.223,-101.074
1687530973.019,-14.160,-16.602,-37.598,-49.805,41.992
1687530973.023,-8.301,-15.137,-40.527,-43.945,58.594
1687530973.024,-4.883,-12.695,-40.527,-52.246,-180.176
1687530973.028,-14.648,-13.184,-40.527,-61.035,-182.129
1687530973.032,-10.254,-15.137,-37.109,-71.289,-101.562
1687530973.036,-2.441,-11.230,-37.598,-68.359,-40.527
1687530973.040,-10.742,-16.113,-38.086,-47.852,-60.059
1687530973.044,-25.391,-17.090,-34.180,-48.340,-71.289
1687530973.048,-51.270,-18.555,-34.180,-53.223,213.379
1687530973.051,-53.223,-26.855,-33.203,-54.688,270.020
1687530973.055,-37.598,-24.414,-33.691,-61.523,-54.688
1687530973.059,-38.086,-26.855,-36.621,-58.594,-153.809
1687530973.063,-52.734,-25.879,-36.621,-49.316,-22.461
1687530973.067,-61.523,-20.508,-37.109,-48.340,-42.969
1687530973.069,-53.223,-19.043,-37.598,-50.293,-101.074
1687530973.073,-43.945,-22.949,-45.898,-54.688,-117.188
1687530973.077,-39.551,-26.367,-52.734,-57.617,-67.871
1687530973.081,-32.227,-19.043,-44.434,-40.039,-99.121
1687530973.085,-38.574,-17.090,-40.039,-38.086,-123.535
1687530973.089,-52.246,-18.555,-44.434,-51.758,-42.480
1687530973.093,-45.898,-20.996,-47.852,-48.828,143.066
1687530973.096,-31.738,-22.461,-45.898,-44.434,97.656
1687530973.100,-36.133,-17.578,-44.434,-48.828,-132.324
1687530973.104,-42.480,-14.648,-51.758,-50.293,-10.254
1687530973.108,-24.414,-14.160,-50.293,-30.762,182.617
1687530973.112,-20.020,-16.602,-35.156,-26.367,5.859
1687530973.114,-39.551,-21.973,-32.227,-47.363,-216.309
1687530973.118,-60.547,-33.203,-39.062,-68.848,-60.059
1687530973.122,-80.566,-40.039,-42.480,-80.566,119.629
1687530973.126,-97.656,-44.922,-41.016,-97.656,-78.125
1687530973.130,-101.562,-52.246,-36.621,-112.793,-161.621
1687530973.134,-104.004,-51.270,-32.227,-106.445,71.777
1687530973.138,-109.863,-51.270,-32.715,-104.980,121.582
1687530973.141,-111.328,-50.781,-27.832,-104.980,-117.188
1687530973.145,-134.766,-54.688,-31.250,-120.117,-168.945
1687530973.149,-135.254,-56.641,-38.086,-121.582,54.199
1687530973.153,-108.887,-56.641,-37.109,-97.656,75.684
1687530973.157,-105.469,-60.059,-39.551,-103.516,-125.000
1687530973.174,-106.445,-55.176,-37.598,-99.121,-56.641
1687530973.178,-103.516,-50.293,-30.762,-85.938,46.875
1687530973.182,-84.961,-44.434,-26.855,-78.613,-69.824
1687530973.186,-70.312,-42.969,-29.297,-72.754,-182.129
1687530973.190,-66.406,-44.434,-31.738,-72.754,-106.934
1687530973.194,-71.289,-43.457,-32.227,-62.988,2.930
1687530973.198,-82.031,-41.504,-34.668,-57.617,45.410
1687530973.201,-74.219,-44.434,-37.109,-71.289,-118.164
1687530973.205,-57.129,-46.875,-39.551,-71.777,-145.020
1687530973.209,-51.270,-41.504,-41.504,-68.848,183.105
1687530973.213,-52.246,-41.504,-43.457,-61.523,105.957
1687530973.217,-54.199,-44.434,-45.898,-51.758,-145.020
1687530973.220,-46.387,-37.109,-46.875,-57.129,-57.617
1687530973.224,-37.598,-31.738,-47.852,-55.176,-12.695
1687530973.228,-34.668,-34.180,-47.363,-45.410,-75.195
1687530973.232,-26.367,-36.621,-43.945,-33.691,-65.430
1687530973.236,-42.969,-36.621,-48.340,-21.973,38.574
1687530973.240,-45.410,-41.016,-49.805,-31.250,59.570
1687530973.244,-23.926,-40.039,-45.898,-33.691,-37.598
1687530973.247,-15.625,-32.715,-44.434,-24.414,-108.398
1687530973.251,-20.020,-32.227,-47.363,-31.738,82.520
1687530973.255,-35.645,-33.203,-50.781,-35.645,230.957
1687530973.259,-39.551,-36.621,-50.781,-46.387,-74.219
1687530973.263,-29.785,-39.062,-51.270,-58.105,-196.777
1687530973.277,-21.484,-34.180,-52.246,-51.758,-166.504
1687530973.281,-19.043,-28.320,-46.875,-37.109,-161.133
1687530973.285,-31.738,-28.809,-41.016,-24.414,-131.348
1687530973.289,-39.062,-30.762,-43.457,-30.273,-106.445
1687530973.293,-29.785,-31.250,-45.898,-33.691,-83.008
1687530973.297,-15.137,-33.203,-46.387,-22.949,-5.371
1687530973.301,-14.648,-29.785,-53.711,-18.555,21.484
1687530973.304,-25.879,-29.297,-61.035,-22.461,-4.395
1687530973.308,-30.273,-33.203,-59.082,-21.484,231.445
1687530973.312,-17.578,-29.785,-55.664,-13.184,181.152
1687530973.316,-4.395,-29.785,-59.570,-15.625,-168.457
1687530973.320,-11.230,-29.785,-61.523,-19.531,-13.672
1687530973.310,-19.043,-30.273,-56.641,-22.461,157.227
1687530973.314,-27.344,-32.227,-58.594,-32.715,-56.641
1687530973.318,-27.832,-31.738,-63.477,-33.691,-167.969
1687530973.322,-19.043,-30.762,-61.035,-37.109,-109.863
1687530973.326,-13.184,-29.785,-57.129,-37.598,-133.301
1687530973.330,-20.020,-27.344,-55.664,-33.691,-95.215
1687530973.334,-29.785,-24.902,-56.641,-40.039,21.973
1687530973.337,-26.367,-27.344,-58.594,-38.086,149.414
1687530973.341,-16.113,-32.227,-55.176,-22.461,270.996
1687530973.345,-14.160,-34.180,-55.664,-19.531,-9.766
1687530973.349,-31.250,-34.180,-62.012,-13.184,-162.598
1687530973.353,-40.527,-36.621,-64.453,-20.508,-107.910
1687530973.354,-27.832,-35.156,-62.012,-30.273,-96.680
1687530973.358,-13.672,-35.156,-60.547,-34.668,-104.004
1687530973.362,-9.277,-40.039,-62.988,-32.227,-70.801
1687530973.366,-20.020,-39.551,-61.035,-26.855,-0.488
1687530973.370,-40.039,-32.715,-61.523,-39.062,-50.781
1687530973.374,-33.203,-27.832,-63.965,-38.086,-92.285
1687530973.378,-17.578,-26.367,-62.012,-38.086,61.035
1687530973.381,-21.973,-36.621,-63.965,-33.203,271.484
1687530973.385,-29.297,-45.410,-70.801,-30.762,109.863
1687530973.389,-34.180,-41.016,-71.777,-40.039,-108.887
1687530973.393,-31.738,-37.598,-65.918,-36.133,47.852
1687530973.397,-12.695,-36.621,-63.965,-29.297,224.121
1687530973.399,-7.324,-33.691,-64.941,-38.574,-14.648
1687530973.403,-31.250,-36.621,-68.359,-36.133,-170.898
1687530973.407,-61.523,-39.062,-67.383,-27.832,-82.520
1687530973.411,-66.406,-33.691,-62.988,-36.133,-76.660
1687530973.415,-50.293,-33.203,-62.012,-34.668,-78.613
1687530973.419,-43.457,-36.621,-63.965,-30.762,-80.566
1687530973.423,-52.246,-40.039,-64.453,-24.414,157.715
1687530973.426,-69.336,-39.551,-64.453,-20.508,257.812
1687530973.430,-67.871,-38.086,-65.918,-26.367,-80.566
1687530973.434,-43.945,-40.039,-66.895,-31.250,-107.910
1687530973.438,-32.715,-43.945,-65.430,-34.180,-111.328
1687530973.442,-41.504,-46.387,-62.988,-30.273,-170.410
1687530973.445,-59.082,-46.875,-67.383,-39.551,-126.953
1687530973.449,-69.336,-45.898,-69.336,-44.434,-150.879
1687530973.453,-57.617,-43.945,-66.895,-34.668,-41.504
1687530973.457,-43.457,-39.551,-67.383,-33.203,-51.758
1687530973.461,-39.062,-36.621,-67.871,-16.113,-112.793
1687530973.465,-46.387,-41.992,-68.359,-7.324,-22.461
1687530973.469,-50.293,-42.969,-64.941,-13.184,189.453
1687530973.472,-39.062,-38.574,-63.965,-17.090,29.297
1687530973.476,-32.227,-44.434,-62.988,-11.719,-245.117
1687530973.480,-34.180,-42.480,-61.035,-4.395,-71.289
1687530973.484,-38.086,-37.598,-62.500,-8.789,183.105
1687530973.488,-44.922,-41.504,-65.918,-18.066,31.738
1687530973.491,-45.898,-42.480,-62.988,-20.996,-143.555
1687530973.495,-39.551,-42.480,-62.988,-15.137,-30.762
1687530973.499,-36.621,-42.480,-64.941,-19.531,0.977
1687530973.503,-46.387,-44.922,-65.430,-22.949,-73.242
1687530973.507,-47.852,-42.969,-67.871,-29.785,-154.297
1687530973.511,-36.133,-40.039,-62.988,-23.438,48.340
1687530973.515,-31.738,-45.410,-62.988,-10.254,331.055
1687530973.518,-32.227,-44.434,-61.035,-21.973,40.527
1687530973.522,-33.203,-38.086,-55.664,-15.625,-134.277
1687530973.526,-38.086,-37.109,-60.059,-4.883,0.488
1687530973.530,-26.367,-37.598,-62.988,-12.207,-15.137
1687530973.534,-5.859,-37.598,-59.082,-2.930,-184.570
1687530973.553,-2.441,-31.738,-55.176,8.301,-141.602
1687530973.557,-9.766,-30.762,-54.199,0.977,-64.941
1687530973.561,-22.461,-34.668,-55.176,-2.930,-70.312
1687530973.565,-24.902,-42.480,-59.570,-6.836,-96.680
1687530973.569,-9.277,-45.410,-62.500,-9.766,-96.191
1687530973.573,-6.836,-39.062,-61.035,-11.719,135.742
1687530973.577,-20.508,-38.086,-60.059,-19.043,130.371
1687530973.580,-34.180,-42.480,-63.477,-32.227,-95.215
1687530973.584,-27.832,-41.992,-59.082,-35.645,-115.234
1687530973.588,-16.602,-39.551,-59.570,-30.273,263.184
1687530973.592,-10.742,-42.480,-65.918,-28.320,213.379
1687530973.596,-11.719,-45.898,-65.430,-36.621,-168.945
1687530973.597,-21.973,-46.387,-66.406,-38.086,-129.883
1687530973.601,-22.949,-45.898,-64.941,-33.203,-66.895
1687530973.605,-16.602,-41.504,-60.059,-26.855,-123.535
1687530973.609,-7.812,-40.527,-57.129,-28.809,-149.902
1687530973.613,-14.648,-46.387,-59.570,-33.203,-66.406
1687530973.617,-25.879,-45.898,-57.129,-22.461,-1.465
1687530973.621,-22.461,-44.434,-51.758,-22.949,-39.551
1687530973.624,-15.625,-46.387,-52.246,-20.996,-115.234
1687530973.628,-5.859,-49.805,-56.152,-14.160,23.926
1687530973.632,1.465,-45.898,-58.594,-16.602,198.242
1687530973.636,-8.789,-43.457,-57.129,-12.207,-36.621
1687530973.640,-20.508,-42.969,-52.734,-9.766,-117.676
1687530973.639,-17.090,-37.109,-53.223,-20.508,-111.328
1687530973.643,-8.301,-38.086,-56.152,-26.367,-161.621
1687530973.647,-2.930,-37.109,-55.176,-15.625,-140.625
1687530973.651,-13.672,-36.621,-56.641,-21.484,-83.496
1687530973.655,-21.484,-38.574,-59.082,-33.691,-71.777
1687530973.659,-13.672,-43.457,-56.152,-27.832,-125.977
1687530973.663,16.113,-44.922,-50.293,0.977,-122.559
1687530973.666,12.207,-36.621,-56.152,-1.953,-51.270
1687530973.670,-27.344,-30.273,-62.012,-22.949,136.230
1687530973.674,-42.969,-27.832,-62.500,-30.273,201.172
1687530973.678,-28.320,-23.438,-70.312,-56.641,-3.418
1687530973.682,-13.672,-20.996,-74.219,-59.570,-68.848
1687530973.684,-22.461,-21.484,-83.984,-49.316,144.531
1687530973.688,-36.621,-16.602,-95.703,-54.688,40.039
1687530973.692,-43.945,-12.695,-96.191,-46.875,-199.707
1687530973.696,-33.691,-2.930,-95.703,-44.922,-118.164
1687530973.700,-26.367,1.953,-104.980,-45.410,-62.988
1687530973.704,-32.715,2.441,-116.211,-44.434,-104.980
1687530973.708,-41.992,1.953,-121.582,-53.711,-32.715
1687530973.711,-50.781,4.395,-123.535,-55.176,149.902
1687530973.715,-42.480,7.324,-125.977,-67.383,134.277
1687530973.719,-14.648,15.137,-126.465,-69.824,-179.688
1687530973.723,-5.371,22.949,-126.465,-68.848,-181.641
1687530973.727,-6.836,20.996,-125.000,-71.289,33.203
1687530973.729,-6.836,23.438,-123.047,-69.824,-14.160
1687530973.733,3.906,27.832,-128.418,-80.078,-141.113
1687530973.737,15.137,28.809,-135.254,-90.332,-146.484
1687530973.741,13.184,30.273,-136.719,-79.590,-84.473
1687530973.745,7.324,33.691,-133.789,-65.918,-72.754
1687530973.749,-17.578,27.344,-132.324,-73.730,-95.215
1687530973.753,-29.297,21.484,-133.301,-82.520,-41.992
1687530973.756,-12.695,26.367,-130.859,-61.523,205.566
1687530973.760,-4.395,26.855,-133.301,-51.270,123.535
1687530973.764,-1.465,22.949,-135.254,-55.176,-63.477
1687530973.768,-8.301,27.344,-123.047,-47.852,124.023
1687530973.772,-10.254,26.367,-115.723,-44.922,151.855
1687530973.775,-0.488,21.973,-117.676,-39.062,-82.520
1687530973.779,2.930,20.020,-114.746,-44.434,-176.270
1687530973.783,0.488,12.207,-108.398,-42.480,0.977
1687530973.787,-10.254,2.441,-103.516,-37.598,16.602
1687530973.791,-16.113,-5.371,-103.516,-55.176,-152.344
1687530973.795,-1.953,-7.812,-94.727,-48.828,-127.930
1687530973.799,3.418,-2.930,-84.473,-27.832,170.410
1687530973.802,-2.441,-3.418,-89.844,-27.344,323.730
1687530973.806,-13.184,-12.207,-93.750,-41.992,-21.484
1687530973.810,-16.113,-15.137,-86.914,-39.551,-95.703
1687530973.814,6.836,-12.207,-81.543,-36.621,-51.270
1687530973.818,16.113,-11.230,-79.102,-39.062,-77.637
1687530973.819,4.883,-11.230,-75.195,-20.508,-119.141
1687530973.823,-3.906,-14.648,-74.219,-14.160,-153.809
1687530973.827,-13.672,-14.160,-73.730,-24.414,-152.832
1687530973.831,-5.371,-15.625,-71.289,-30.762,-162.598
1687530973.835,7.324,-19.043,-72.754,-33.203,-140.137
1687530973.839,-1.465,-19.043,-72.266,-28.809,-48.340
1687530973.843,-15.137,-20.508,-70.312,-31.250,317.871
1687530973.846,-23.926,-21.973,-69.336,-38.086,251.465
1687530973.850,-11.230,-20.508,-64.941,-46.875,-135.254
1687530973.854,-6.836,-21.973,-67.383,-43.945,-16.602
1687530973.858,-13.672,-20.508,-69.336,-32.227,117.676
1687530973.862,-17.578,-20.020,-67.383,-16.602,-37.598
1687530973.879,-23.926,-24.902,-67.383,-11.719,-121.582
1687530973.883,-17.090,-26.367,-66.406,-18.066,-85.938
1687530973.887,-1.953,-28.320,-64.941,-17.578,-53.223
1687530973.891,-0.977,-30.273,-64.941,-5.859,-95.215
1687530973.895,-12.695,-30.273,-65.430,0.488,-143.066
1687530973.899,-20.996,-32.715,-61.523,2.930,-16.602
1687530973.903,-10.742,-27.832,-58.594,5.859,54.688
1687530973.906,3.418,-26.367,-59.570,-3.906,24.902
1687530973.910,-2.441,-31.250,-59.570,-18.066,-102.539
1687530973.914,-6.836,-29.785,-56.152,-8.301,31.250
1687530973.918,-16.602,-32.715,-54.199,-8.301,213.867
1687530973.922,-17.090,-41.504,-53.223,-18.066,-54.688
1687530973.924,0.000,-39.551,-51.758,-10.742,-128.418
1687530973.928,0.488,-37.109,-52.246,-10.742,-105.469
1687530973.932,-9.766,-43.457,-57.129,-13.672,-105.469
1687530973.936,-12.695,-39.062,-54.199,-10.254,-114.746
1687530973.940,-4.883,-33.203,-46.875,-0.488,-122.070
1687530973.944,3.906,-32.715,-49.316,-5.371,10.742
1687530973.948,1.465,-35.645,-47.852,-14.648,35.156
1687530973.951,-3.418,-39.551,-46.387,-8.301,-83.008
1687530973.955,-15.137,-35.156,-49.805,-6.836,-75.195
1687530973.959,-20.508,-32.227,-48.828,-3.418,235.352
1687530973.963,-7.324,-29.785,-42.969,5.859,320.801
1687530973.967,-4.395,-27.344,-41.504,-1.465,-60.059
1687530973.969,-15.625,-28.809,-43.457,1.465,-104.004
1687530973.973,-25.391,-34.668,-43.457,-1.953,-58.105
1687530973.977,-30.273,-38.086,-42.480,-18.555,-173.828
1687530973.981,-14.648,-33.691,-47.852,-20.020,-154.297
1687530973.985,-5.859,-34.180,-50.781,-21.484,-71.289
1687530973.989,-11.230,-36.621,-49.805,-17.090,64.941
1687530973.993,-17.578,-35.645,-43.945,-11.719,65.918
1687530973.996,-19.043,-34.668,-41.504,-20.996,-67.383
1687530974.000,-6.836,-38.086,-42.969,-22.461,52.246
1687530974.004,-3.906,-35.645,-43.945,-9.277,159.180
1687530974.008,-11.719,-36.621,-48.340,-9.766,-86.426
1687530974.012,-20.020,-38.086,-45.410,-23.926,-112.793
1687530974.014,-25.879,-35.156,-40.527,-29.785,-13.184
1687530974.018,-13.184,-36.621,-42.480,-32.715,-23.926
1687530974.022,-1.465,-33.203,-40.039,-36.133,-116.699
1687530974.026,-5.371,-29.297,-38.574,-28.809,-91.309
1687530974.030,-19.531,-33.691,-42.969,-26.855,-48.340
1687530974.034,-35.645,-36.133,-45.898,-34.668,-37.109
1687530974.038,-26.855,-35.156,-44.434,-41.016,-26.855
1687530974.041,-13.184,-36.621,-41.504,-42.969,-98.633
1687530974.045,-18.066,-37.109,-41.504,-40.039,102.539
1687530974.049,-30.273,-38.574,-45.898,-41.016,120.605
1687530974.053,-45.898,-37.598,-48.340,-40.527,-80.078
1687530974.057,-36.621,-36.133,-44.434,-36.133,-34.668
1687530974.061,-23.926,-34.668,-44.922,-41.504,40.527
1687530974.065,-25.879,-36.621,-43.457,-46.875,-46.387
1687530974.069,-34.180,-40.039,-43.457,-50.781,-121.582
1687530974.073,-43.945,-35.156,-50.781,-54.688,15.137
1687530974.077,-6.836,-22.949,-42.480,-27.832,96.680
1687530974.081,20.996,-28.809,-33.691,-14.160,36.133
1687530974.085,0.977,-42.480,-21.973,-24.414,27.832
1687530974.088,-28.809,-50.781,-17.578,-33.203,151.855
1687530974.092,-52.734,-56.641,-17.090,-44.434,197.754
1687530974.096,-45.898,-61.035,-5.371,-55.664,-8.301
1687530974.100,-37.109,-69.336,6.348,-49.316,-69.824
1687530974.104,-39.551,-74.219,6.348,-33.203,-81.055
1687530974.104,-48.340,-79.590,6.348,-37.598,-120.117
1687530974.108,-71.777,-90.820,8.789,-49.805,-156.738
1687530974.112,-75.684,-92.285,13.672,-55.664,-118.164
1687530974.116,-66.406,-95.703,21.973,-52.734,20.996
1687530974.120,-63.477,-105.469,26.855,-36.621,-2.930
1687530974.124,-68.848,-106.445,30.762,-25.391,-37.598
1687530974.128,-77.148,-104.492,34.668,-21.973,26.855
1687530974.131,-85.449,-107.910,40.039,-22.461,238.770
1687530974.135,-86.426,-116.699,37.109,-29.785,194.336
1687530974.139,-67.871,-119.141,37.109,-31.738,-100.586
1687530974.143,-79.590,-121.582,38.574,-32.715,-3.418
1687530974.147,-105.957,-123.535,31.250,-38.574,116.699
1687530974.149,-109.375,-122.070,31.738,-47.363,-71.289
1687530974.153,-94.727,-117.188,29.297,-44.434,-239.258
1687530974.157,-83.496,-116.699,21.484,-41.992,-148.438
1687530974.161,-74.219,-116.699,17.090,-45.898,-14.648
1687530974.165,-80.078,-109.375,13.184,-44.922,-20.020
1687530974.169,-83.984,-102.539,11.230,-40.527,-61.035
1687530974.173,-76.172,-98.145,8.789,-39.062,170.898
1687530974.176,-65.918,-91.309,8.301,-38.086,373.535
1687530974.180,-54.199,-84.961,5.859,-41.016,14.648
1687530974.184,-74.219,-83.984,3.418,-37.598,-133.301
1687530974.188,-81.055,-79.102,0.000,-43.457,0.977
1687530974.192,-52.734,-74.707,-1.465,-46.875,0.488
1687530974.195,-48.340,-79.102,-4.395,-51.758,-145.996
1687530974.199,-58.594,-76.660,-8.301,-52.734,-135.742
1687530974.203,-70.312,-68.359,-13.672,-46.387,-38.086
1687530974.207,-88.867,-69.824,-21.973,-53.711,-70.801
1687530974.211,-74.219,-67.383,-15.625,-46.875,-172.363
1687530974.215,-50.781,-62.500,-7.812,-45.410,-84.473
1687530974.219,-51.758,-62.500,-11.719,-46.875,223.145
1687530974.222,-58.105,-58.594,-9.277,-35.156,127.441
1687530974.226,-61.035,-58.105,-6.348,-36.621,-80.078
1687530974.230,-48.340,-59.082,-11.230,-39.062,-39.551
1687530974.234,-31.250,-59.082,-16.113,-21.973,150.879
1687530974.238,-23.926,-56.152,-16.113,-17.578,17.578
1687530974.239,-33.203,-54.688,-13.184,-18.066,-180.664
1687530974.243,-45.410,-56.641,-13.184,-14.160,-74.219
1687530974.247,-45.410,-52.734,-12.695,-24.414,-151.855
1687530974.251,-34.180,-51.270,-12.695,-27.832,-230.469
1687530974.255,-23.438,-48.340,-17.578,-19.531,-201.660
1687530974.259,-32.715,-47.363,-20.020,-21.484,-9.766
1687530974.263,-46.875,-51.758,-18.555,-26.367,136.230
1687530974.266,-46.875,-54.199,-19.531,-35.645,-56.152
1687530974.270,-36.133,-49.316,-19.531,-42.480,-218.750
1687530974.274,-34.180,-46.875,-20.508,-30.762,35.645
1687530974.278,-47.852,-46.387,-22.461,-29.297,214.355
1687530974.282,-62.012,-43.945,-20.996,-34.180,6.836
1687530974.299,-54.688,-47.363,-18.555,-36.133,-95.215
1687530974.303,-35.645,-43.945,-19.043,-28.320,-37.598
1687530974.307,-27.832,-38.574,-23.438,-29.297,-25.879
1687530974.311,-34.180,-41.992,-19.531,-32.715,-132.324
1687530974.315,-44.434,-43.457,-19.531,-25.391,-117.676
1687530974.319,-46.387,-39.062,-19.043,-31.738,0.488
1687530974.323,-35.645,-37.598,-16.602,-34.668,-62.988
1687530974.326,-18.555,-38.086,-19.531,-32.227,-208.984
1687530974.330,-5.371,-32.715,-21.973,-27.344,-173.340
1687530974.334,-12.695,-29.297,-19.531,-7.324,211.914
1687530974.338,-37.598,-38.574,-8.789,-27.344,171.875
1687530974.342,-34.668,-40.039,-8.789,-32.715,-206.055
1687530974.344,-20.508,-37.109,-11.719,-13.672,-39.062
1687530974.348,-33.691,-39.551,-15.137,-31.250,127.441
1687530974.352,-48.340,-36.133,-20.996,-38.574,-96.680
1687530974.356,-53.711,-31.250,-20.508,-38.574,-173.340
1687530974.360,-47.852,-31.738,-20.508,-47.852,-148.438
1687530974.364,-41.016,-35.645,-25.879,-51.270,-95.703
1687530974.368,-41.992,-34.668,-24.902,-48.340,-41.992
1687530974.371,-46.875,-33.691,-24.902,-41.992,-132.812
1687530974.375,-53.223,-30.762,-26.855,-34.668,28.809
1687530974.379,-51.758,-36.133,-29.297,-43.945,177.734
1687530974.383,-40.039,-38.086,-25.391,-53.711,-101.074
1687530974.387,-34.668,-29.785,-19.531,-40.527,-168.457
1687530974.389,-52.246,-29.785,-20.508,-34.668,-65.430
1687530974.393,-55.176,-29.785,-21.973,-34.180,-62.988
1687530974.397,-36.133,-27.832,-21.973,-45.410,-120.117
1687530974.401,-28.809,-26.855,-19.043,-46.875,-54.688
1687530974.405,-27.832,-27.832,-20.020,-38.574,40.527
1687530974.409,-37.598,-31.738,-26.855,-40.039,87.891
1687530974.413,-48.340,-33.691,-26.367,-45.898,85.449
1687530974.416,-41.016,-32.715,-19.043,-43.945,-15.625
1687530974.420,-33.203,-30.273,-18.555,-31.738,90.332
1687530974.424,-29.785,-26.855,-22.949,-32.715,39.062
1687530974.428,-33.203,-24.902,-21.973,-41.016,-161.621
1687530974.432,-34.180,-27.344,-20.996,-41.992,-15.625
1687530974.434,-17.090,-24.414,-27.832,-37.109,48.828
1687530974.438,3.418,-21.484,-30.273,-36.621,-160.156
1687530974.442,6.348,-24.902,-30.273,-44.434,-185.059
1687530974.446,4.883,-24.414,-31.738,-42.480,-79.102
1687530974.450,-16.113,-24.902,-34.668,-41.016,-101.562
1687530974.454,-26.855,-25.879,-33.203,-51.270,-67.871
1687530974.458,-16.602,-21.484,-26.367,-54.688,-48.828
1687530974.461,-21.484,-20.508,-21.484,-40.039,66.895
1687530974.465,-32.227,-17.578,-20.508,-33.691,280.273
1687530974.469,-44.434,-20.020,-20.508,-48.340,-5.859
1687530974.473,-46.875,-19.531,-21.484,-55.176,-122.070
1687530974.477,-33.691,-18.066,-19.531,-50.293,-100.586
1687530974.480,-25.879,-23.438,-18.555,-40.527,-183.105
1687530974.484,-32.715,-23.926,-21.484,-37.109,-130.371
1687530974.488,-58.105,-26.367,-25.879,-37.598,-67.383
1687530974.492,-60.547,-22.949,-23.926,-33.203,-38.574
1687530974.496,-39.551,-22.949,-26.855,-36.133,-5.371
1687530974.500,-31.250,-24.902,-24.902,-28.809,19.531
1687530974.504,-32.715,-25.879,-25.391,-19.043,16.113
1687530974.507,-46.875,-24.414,-28.320,-13.184,345.703
1687530974.511,-52.734,-23.926,-25.391,-20.508,347.168
1687530974.515,-39.551,-28.809,-28.320,-37.598,-129.883
1687530974.519,-32.227,-28.320,-28.320,-40.527,-84.473
1687530974.523,-31.250,-23.926,-27.832,-36.621,124.023
1687530974.524,-41.016,-25.391,-30.762,-35.645,-41.992
1687530974.528,-43.945,-26.367,-30.762,-45.898,-163.574
1687530974.532,-40.527,-25.879,-29.785,-45.410,-111.816
1687530974.536,-29.297,-26.367,-30.762,-31.738,-64.941
1687530974.540,-28.320,-24.902,-29.785,-32.227,-53.711
1687530974.544,-46.875,-24.414,-31.250,-39.551,7.812
1687530974.548,-55.176,-25.391,-29.785,-37.598,160.645
1687530974.551,-42.969,-20.996,-27.344,-36.621,181.641
1687530974.555,-31.250,-20.020,-29.297,-39.551,-105.469
1687530974.559,-33.203,-29.785,-27.832,-32.227,-141.113
1687530974.563,-49.805,-31.738,-24.902,-31.250,62.012
1687530974.567,-63.477,-26.367,-24.414,-37.109,-33.691
1687530974.569,-52.246,-25.391,-23.926,-35.645,-153.809
1687530974.573,-40.039,-30.273,-24.902,-40.039,-156.250
1687530974.577,-41.504,-28.320,-25.391,-37.109,-144.531
1687530974.581,-50.293,-25.879,-25.391,-37.598,-62.988
1687530974.585,-51.270,-22.949,-24.414,-46.387,-101.074
1687530974.589,-35.156,-23.438,-21.973,-41.992,-62.012
1687530974.593,-22.461,-25.879,-21.973,-36.621,194.824
1687530974.596,-17.578,-26.855,-25.879,-32.227,84.473
1687530974.600,-29.297,-27.832,-27.344,-23.438,-138.672
1687530974.604,-42.480,-25.391,-25.391,-23.438,-59.570
1687530974.608,-40.527,-24.414,-27.344,-29.785,140.137
1687530974.612,-28.809,-22.949,-29.785,-37.109,-5.859
1687530974.615,-21.484,-24.414,-32.227,-31.250,-98.145
1687530974.619,-22.949,-24.414,-31.738,-18.066,87.891
1687530974.623,-37.109,-25.391,-28.320,-20.020,74.219
1687530974.627,-41.016,-31.250,-21.484,-29.785,-116.699
1687530974.631,-24.414,-29.297,-20.508,-25.391,-176.758
1687530974.635,-12.695,-23.438,-23.926,-21.973,2.930
1687530974.639,-13.184,-25.391,-25.879,-25.391,128.906
1687530974.642,-24.902,-25.391,-30.762,-27.832,-9.766
1687530974.646,-30.273,-24.414,-30.762,-31.250,-117.676
1687530974.650,-24.414,-24.902,-27.832,-40.527,12.207
1687530974.654,-18.555,-23.438,-25.879,-42.480,40.039
1687530974.658,-24.414,-24.902,-22.461,-36.621,-162.598
1687530974.676,-34.180,-26.855,-20.996,-22.949,-107.910
1687530974.680,-35.645,-30.762,-26.367,-39.062,-73.242
1687530974.684,-33.203,-29.785,-26.367,-50.293,-135.254
1687530974.688,-27.832,-22.461,-20.996,-53.223,-128.906
1687530974.692,-34.180,-19.531,-21.973,-58.594,-58.594
1687530974.696,-53.223,-18.066,-28.809,-50.293,145.508
1687530974.700,-59.570,-22.949,-30.273,-60.547,146.484
1687530974.703,-46.387,-22.949,-32.715,-69.824,-52.246
1687530974.707,-40.527,-23.926,-35.645,-64.941,-53.223
1687530974.711,-41.504,-24.414,-32.227,-45.410,148.926
1687530974.715,-49.805,-21.973,-25.879,-34.668,63.477
1687530974.719,-53.711,-23.926,-22.949,-50.293,-165.039
1687530974.719,-40.527,-23.438,-23.438,-50.781,-101.562
1687530974.723,-36.133,-20.508,-25.879,-53.711,-43.457
1687530974.727,-41.504,-21.484,-27.344,-54.199,-143.066
1687530974.731,-57.617,-31.738,-33.691,-56.152,-100.098
1687530974.735,-62.988,-36.133,-39.062,-68.359,-40.527
1687530974.739,-47.852,-32.227,-32.227,-68.848,-42.969
1687530974.743,-45.410,-26.855,-26.367,-55.664,-9.277
1687530974.746,-41.016,-27.344,-25.391,-45.410,-82.031
1687530974.750,-44.434,-28.320,-24.414,-45.898,-23.926
1687530974.754,-66.406,-30.762,-25.879,-49.316,192.383
1687530974.758,-57.129,-31.738,-26.855,-57.129,-25.391
1687530974.762,-37.598,-26.855,-23.438,-60.547,-189.453
1687530974.764,-25.391,-24.414,-23.438,-55.176,-114.746
1687530974.768,-33.203,-23.926,-23.926,-39.551,-59.570
1687530974.772,-45.410,-21.484,-24.414,-38.086,-93.262
1687530974.776,-32.715,-19.043,-26.855,-41.504,-128.418
1687530974.780,-20.996,-25.879,-28.320,-42.480,-83.984
1687530974.784,-27.344,-30.762,-26.367,-56.152,-9.277
1687530974.788,-35.645,-32.227,-28.320,-54.688,40.039
1687530974.791,-55.664,-35.156,-33.691,-55.176,-36.133
1687530974.795,-60.059,-37.109,-34.668,-59.082,155.762
1687530974.799,-44.922,-34.668,-27.344,-51.758,227.051
1687530974.803,-37.109,-32.227,-26.367,-42.480,-80.078
1687530974.807,-54.199,-31.250,-26.855,-40.039,-32.227
1687530974.809,-78.613,-30.762,-27.832,-55.664,82.520
1687530974.813,-77.148,-31.250,-26.855,-67.871,-110.352
1687530974.817,-67.871,-31.738,-25.879,-66.406,-150.391
1687530974.821,-62.012,-32.715,-28.320,-58.594,-51.758
1687530974.825,-67.383,-30.273,-24.414,-59.082,-102.539
1687530974.829,-86.426,-27.344,-27.344,-56.641,-54.199
1687530974.833,-84.473,-23.438,-29.785,-53.223,-19.043
1687530974.836,-63.965,-23.438,-29.297,-44.434,58.105
1687530974.840,-57.617,-28.320,-37.109,-44.922,186.035
1687530974.844,-61.035,-25.879,-36.621,-52.734,-47.363
1687530974.848,-70.801,-22.461,-30.273,-52.246,-155.273
1687530974.852,-68.359,-27.344,-27.832,-47.363,-70.801
1687530974.854,-54.199,-27.832,-23.926,-47.363,-64.941
1687530974.858,-48.340,-25.391,-23.926,-43.945,-94.727
1687530974.862,-57.129,-27.344,-24.902,-38.574,-70.312
1687530974.866,-61.035,-26.367,-25.879,-49.316,-88.867
1687530974.870,-54.199,-30.273,-24.414,-54.688,-114.746
1687530974.874,-52.734,-32.227,-28.809,-62.500,-35.645
1687530974.878,-49.805,-28.320,-34.668,-70.801,45.410
1687530974.881,-51.758,-28.320,-33.691,-54.199,197.266
1687530974.885,-71.289,-28.320,-36.133,-55.176,88.867
1687530974.889,-83.984,-31.250,-36.621,-80.078,-110.840
1687530974.893,-71.777,-35.645,-34.668,-85.449,-23.926
1687530974.897,-60.059,-34.180,-31.738,-81.055,91.797
1687530974.899,-59.570,-27.832,-31.738,-77.148,39.062
1687530974.903,-62.988,-26.855,-34.668,-69.824,-106.934
1687530974.907,-63.965,-31.250,-32.227,-76.172,-17.090
1687530974.911,-50.781,-33.691,-35.156,-75.195,4.395
1687530974.915,-33.691,-33.203,-33.203,-57.617,-124.512
1687530974.919,-35.645,-28.320,-28.809,-55.664,-78.125
1687530974.923,-50.293,-28.320,-32.715,-57.129,129.883
1687530974.926,-57.129,-29.297,-35.645,-51.758,216.309
1687530974.930,-49.316,-29.785,-29.785,-57.617,-69.336
1687530974.934,-37.598,-28.320,-22.949,-53.223,-174.316
1687530974.938,-35.156,-27.344,-23.438,-51.270,-139.160
1687530974.942,-44.922,-32.227,-28.320,-54.688,-160.645
1687530974.946,-52.246,-31.250,-27.832,-55.664,-116.211
1687530974.950,-40.527,-24.902,-22.461,-56.152,-144.531
1687530974.954,-27.344,-19.043,-23.926,-53.711,-55.664
1687530974.958,-24.902,-20.996,-23.926,-50.781,-54.199
1687530974.962,-35.645,-23.926,-23.438,-45.410,-166.504
1687530974.966,-50.293,-27.344,-29.297,-54.199,-131.348
1687530974.970,-46.875,-25.879,-27.832,-65.918,149.414
1687530974.973,-32.715,-21.973,-24.414,-55.176,169.922
1687530974.977,-31.738,-25.391,-23.926,-60.059,-183.594
1687530974.981,-51.758,-32.227,-25.391,-70.312,-91.309
1687530974.985,-66.895,-32.227,-25.879,-61.035,93.750
1687530974.989,-62.988,-27.832,-24.414,-47.363,-52.734
1687530974.989,-46.387,-25.391,-21.484,-44.922,-181.152
1687530974.993,-42.480,-23.438,-26.367,-53.223,-71.289
1687530974.997,-51.270,-22.949,-31.738,-68.848,4.883
1687530975.001,-56.152,-26.367,-29.297,-63.477,-68.359
1687530975.005,-53.223,-29.785,-32.715,-61.035,-91.309
1687530975.009,-44.922,-26.367,-30.762,-57.129,133.301
1687530975.013,-32.715,-19.531,-24.414,-41.992,336.426
1687530975.016,-36.133,-19.531,-25.879,-52.734,29.297
1687530975.020,-58.105,-21.973,-25.879,-64.453,-94.727
1687530975.024,-67.871,-23.926,-24.902,-63.477,84.473
1687530975.028,-55.176,-24.902,-27.344,-64.941,56.152
1687530975.032,-44.922,-24.902,-24.902,-48.828,-79.102
1687530975.049,-49.316,-25.879,-25.879,-54.199,-92.285
1687530975.053,-62.012,-26.855,-27.344,-63.965,-25.879
1687530975.057,-65.918,-24.902,-24.414,-56.641,-30.273
1687530975.061,-60.059,-23.438,-28.320,-54.199,-140.137
1687530975.065,-53.711,-24.902,-29.785,-55.664,-57.617
1687530975.069,-48.828,-27.832,-26.855,-67.383,31.250
1687530975.073,-61.035,-25.879,-31.738,-74.219,-29.297
1687530975.076,-69.824,-24.902,-31.738,-63.965,20.020
1687530975.080,-65.918,-24.414,-29.785,-55.176,-21.973
1687530975.084,-58.594,-20.996,-32.227,-54.199,218.262
1687530975.088,-50.293,-22.949,-32.227,-56.641,296.875
1687530975.092,-57.129,-24.902,-31.250,-56.152,-93.750
1687530975.094,-71.289,-25.391,-35.156,-62.012,-129.883
1687530975.098,-63.477,-26.367,-38.574,-70.801,-106.445
1687530975.102,-48.828,-27.832,-37.598,-72.266,-199.707
1687530975.106,-46.875,-26.367,-29.785,-60.547,-213.379
1687530975.110,-58.105,-25.879,-27.344,-54.688,-105.469
1687530975.114,-69.336,-26.367,-33.691,-69.824,-26.367
1687530975.118,-57.129,-24.414,-29.785,-75.684,4.395
1687530975.121,-38.086,-25.879,-29.297,-81.543,-152.344
1687530975.125,-31.738,-28.320,-34.180,-82.031,-19.043
1687530975.129,-41.504,-25.391,-33.203,-71.289,252.930
1687530975.133,-53.711,-19.531,-30.762,-77.637,-67.871
1687530975.137,-35.645,-19.043,-30.762,-78.125,-221.191
1687530975.139,-33.203,-28.320,-29.785,-63.965,-114.258
1687530975.143,-40.527,-32.227,-29.785,-53.711,-142.090
1687530975.147,-42.480,-23.926,-30.762,-55.176,-159.668
1687530975.151,-67.871,-23.438,-32.715,-69.336,-62.500
1687530975.155,-74.219,-23.438,-33.691,-76.660,-45.410
1687530975.159,-60.547,-19.531,-30.762,-77.637,4.883
1687530975.163,-58.105,-21.973,-30.762,-70.801,98.145
1687530975.166,-67.871,-25.879,-28.809,-62.012,81.055
1687530975.170,-79.590,-29.297,-25.391,-56.152,147.461
1687530975.174,-79.102,-34.180,-23.438,-59.082,138.672
1687530975.178,-59.570,-32.227,-22.461,-63.477,-46.875
1687530975.182,-43.945,-30.273,-20.508,-54.688,-9.277
1687530975.184,-54.688,-28.320,-17.578,-41.992,191.406
1687530975.188,-69.336,-23.926,-18.066,-41.992,23.438
1687530975.192,-62.988,-27.832,-20.508,-59.570,-149.414
1687530975.196,-44.434,-30.273,-21.484,-59.082,-128.418
1687530975.200,-31.250,-30.273,-21.973,-45.898,-147.949
1687530975.204,-39.551,-30.273,-25.391,-37.109,-157.715
1687530975.208,-61.035,-27.832,-28.320,-43.457,-62.500
1687530975.211,-62.500,-22.949,-23.926,-48.828,74.707
1687530975.215,-52.734,-28.809,-23.438,-51.270,113.281
1687530975.219,-41.016,-34.668,-26.367,-61.523,-102.539
1687530975.223,-35.156,-30.273,-27.832,-50.293,-188.477
1687530975.227,-51.270,-23.926,-26.367,-41.504,-105.469
1687530975.230,-62.012,-20.508,-25.391,-55.176,-147.461
1687530975.234,-59.082,-26.367,-25.391,-68.848,-176.758
1687530975.238,-49.316,-24.414,-23.438,-66.406,-40.527
1687530975.242,-41.504,-11.230,-22.461,-50.293,11.719
1687530975.246,-54.688,-11.230,-22.461,-50.293,-76.660
1687530975.250,-61.523,-18.066,-22.461,-59.570,-96.680
1687530975.254,-59.570,-18.555,-28.320,-68.848,-8.789
1687530975.257,-61.035,-23.438,-31.738,-70.312,225.098
1687530975.261,-45.410,-29.297,-26.367,-41.992,114.746
1687530975.265,-49.316,-21.973,-33.691,-32.715,-140.137
1687530975.269,-66.406,-14.160,-40.527,-56.152,-16.602
1687530975.273,-51.758,-7.324,-40.039,-70.801,31.738
1687530975.274,-32.715,-4.395,-43.945,-65.430,-125.977
1687530975.278,-27.832,-2.930,-47.363,-48.828,-157.227
1687530975.282,-39.062,0.977,-56.152,-54.688,-43.945
1687530975.286,-56.641,2.930,-60.059,-61.523,-76.172
1687530975.290,-59.082,2.930,-66.406,-68.359,-132.812
1687530975.294,-45.898,11.230,-69.824,-74.707,-89.355
1687530975.298,-37.109,18.066,-74.219,-69.336,134.766
1687530975.301,-44.922,20.996,-83.008,-81.543,330.078
1687530975.305,-55.664,24.414,-88.867,-95.215,-11.719
1687530975.309,-49.805,29.785,-91.309,-86.914,-206.543
1687530975.313,-31.738,31.738,-94.727,-74.707,-63.965
1687530975.317,-24.414,34.668,-102.051,-74.219,-97.656
1687530975.319,-40.527,38.086,-103.027,-81.543,-149.414
1687530975.323,-57.617,37.598,-104.980,-95.703,-74.219
1687530975.327,-48.340,39.062,-107.910,-97.656,-80.078
1687530975.331,-33.691,43.457,-102.051,-90.820,-94.727
1687530975.335,-28.320,45.898,-97.168,-83.984,-114.258
1687530975.339,-28.320,41.504,-100.586,-75.684,-83.496
1687530975.343,-41.016,39.062,-105.957,-63.965,138.672
1687530975.346,-32.715,45.898,-105.469,-71.289,90.820
1687530975.350,-16.602,46.875,-99.121,-74.219,-157.227
1687530975.354,-20.020,42.969,-97.656,-68.359,-52.734
1687530975.358,-33.691,40.039,-98.633,-75.684,309.082
1687530975.362,-47.852,39.062,-90.332,-66.406,152.832
1687530975.365,-32.715,37.598,-83.008,-61.035,-170.410
1687530975.369,-16.113,34.180,-81.543,-64.941,-106.445
1687530975.373,-18.555,29.297,-77.637,-50.293,-42.969
1687530975.377,-24.414,25.391,-70.312,-45.898,-98.145
1687530975.381,-42.480,24.414,-63.477,-46.875,-83.496
1687530975.385,-45.410,23.438,-62.500,-43.945,92.285
1687530975.389,-34.180,22.461,-62.500,-60.059,137.207
1687530975.392,-27.832,16.113,-62.500,-64.941,-17.578
1687530975.396,-41.992,9.277,-65.430,-60.059,-92.773
1687530975.400,-58.594,8.789,-62.988,-56.152,135.742
1687530975.404,-53.223,11.719,-61.035,-55.664,211.426
1687530975.408,-40.039,14.160,-60.059,-69.336,-145.508
1687530975.445,-30.762,9.277,-56.641,-60.059,-153.809
1687530975.449,-31.250,6.348,-55.664,-40.527,-32.715
1687530975.453,-48.828,5.371,-53.711,-42.969,-82.031
1687530975.457,-48.828,-0.488,-50.781,-51.270,-165.527
1687530975.461,-24.902,-0.488,-47.363,-48.828,-158.203
1687530975.465,-20.996,0.977,-44.922,-33.691,-62.500
1687530975.469,-33.203,-3.418,-45.898,-27.344,-34.668
1687530975.472,-41.992,-8.789,-43.457,-27.344,-100.586
1687530975.476,-56.152,-7.324,-41.992,-27.344,-55.176
1687530975.480,-48.828,-8.789,-44.434,-36.133,192.383
1687530975.484,-27.344,-5.859,-41.504,-39.551,179.199
1687530975.488,-29.297,-5.859,-38.574,-43.945,-13.672
1687530975.469,-48.828,-9.277,-41.016,-43.457,42.969
1687530975.473,-56.152,-10.742,-40.039,-32.227,207.031
1687530975.477,-46.387,-13.672,-36.133,-41.016,35.156
1687530975.481,-37.598,-10.254,-30.273,-45.898,-152.344
1687530975.485,-36.133,-9.766,-30.762,-47.852,-61.523
1687530975.489,-44.434,-11.719,-31.738,-47.852,54.199
1687530975.493,-50.781,-13.184,-31.250,-45.898,-20.508
1687530975.496,-37.109,-17.090,-37.109,-53.711,-167.480
1687530975.500,-19.531,-17.090,-38.086,-41.016,23.438
1687530975.504,-16.602,-13.184,-33.203,-32.227,170.898
1687530975.508,-20.508,-12.695,-28.809,-37.109,-80.566
1687530975.512,-35.156,-20.996,-27.344,-35.156,-122.070
1687530975.515,-37.598,-22.461,-27.832,-38.086,-68.359
1687530975.519,-16.113,-15.625,-21.973,-41.016,22.461
1687530975.523,-7.324,-11.230,-24.902,-39.551,-58.594
1687530975.527,-18.066,-13.672,-28.320,-21.973,-103.027
1687530975.531,-31.738,-17.090,-23.926,-16.113,28.320
1687530975.535,-30.762,-19.043,-22.461,-33.203,-8.301
1687530975.539,-18.555,-18.555,-22.949,-33.203,-47.363
1687530975.542,-13.672,-14.648,-20.020,-25.879,-65.430
1687530975.546,-25.391,-16.602,-28.320,-18.555,66.895
1687530975.550,-33.203,-16.113,-32.715,-24.902,120.117
1687530975.554,-28.320,-9.277,-21.973,-45.410,-66.406
1687530975.558,-15.625,-13.184,-18.555,-44.434,-75.195
1687530975.559,-7.812,-15.625,-19.043,-33.691,59.570
1687530975.563,-18.066,-13.672,-18.555,-36.621,-102.539
1687530975.567,-26.367,-16.602,-18.066,-36.133,-169.922
1687530975.571,-18.066,-12.695,-20.020,-38.086,36.133
1687530975.575,-16.602,-15.137,-20.020,-32.227,45.898
1687530975.579,-16.113,-21.484,-24.414,-26.367,-64.941
1687530975.583,-19.043,-18.066,-23.926,-31.250,-96.680
1687530975.586,-38.574,-22.461,-24.902,-36.621,62.012
1687530975.590,-39.062,-24.902,-29.785,-45.898,271.484
1687530975.594,-22.461,-19.531,-25.391,-46.875,11.230
1687530975.598,-18.555,-20.508,-22.461,-43.457,-172.852
1687530975.602,-30.273,-20.508,-28.320,-41.992,-106.445
1687530975.604,-44.434,-19.531,-29.785,-41.992,-101.074
1687530975.608,-46.387,-20.996,-29.785,-50.781,-157.227
1687530975.612,-37.109,-18.066,-32.715,-55.176,-120.117
1687530975.616,-27.832,-15.137,-30.273,-46.875,-36.621
1687530975.620,-23.926,-12.207,-25.391,-38.574,-54.199
1687530975.624,-27.344,-13.184,-24.902,-38.086,-32.715
1687530975.628,-34.180,-17.578,-27.344,-51.758,-57.129
1687530975.631,-35.156,-20.508,-25.879,-60.059,188.477
1687530975.635,-28.809,-23.438,-24.414,-45.898,195.312
1687530975.639,-23.438,-23.438,-26.855,-33.203,-98.633
1687530975.643,-33.203,-21.973,-30.273,-25.391,-34.668
1687530975.647,-43.457,-20.996,-25.879,-29.297,19.531
1687530975.649,-33.691,-20.020,-22.461,-41.992,-136.230
1687530975.653,-26.367,-19.531,-20.508,-55.664,-161.621
1687530975.657,-30.762,-26.855,-22.949,-59.082,-47.852
1687530975.661,-46.875,-26.855,-32.227,-46.387,-2.930
1687530975.665,-62.012,-24.414,-28.809,-47.852,-83.008
1687530975.669,-43.457,-25.391,-22.949,-51.758,-81.055
1687530975.673,-23.438,-23.438,-24.414,-43.945,191.406
1687530975.676,-24.414,-27.344,-23.926,-38.574,293.945
1687530975.680,-30.762,-30.273,-25.391,-47.852,117.188
1687530975.684,-50.293,-28.809,-21.484,-48.340,-81.543
1687530975.688,-52.734,-26.367,-18.555,-41.504,-46.387
1687530975.692,-36.133,-27.344,-21.484,-44.434,0.000
1687530975.694,-29.297,-23.438,-23.438,-40.527,-130.371
1687530975.698,-30.762,-22.949,-27.832,-33.691,-149.902
1687530975.702,-46.387,-25.391,-31.738,-43.945,-141.113
1687530975.706,-56.641,-28.320,-34.668,-49.805,-165.527
1687530975.710,-40.039,-26.367,-32.227,-51.270,-160.156
1687530975.714,-31.738,-25.391,-27.344,-45.410,-34.180
1687530975.718,-39.551,-28.809,-26.367,-36.621,122.070
1687530975.721,-51.758,-24.414,-26.855,-35.645,35.645
1687530975.725,-61.523,-22.949,-25.879,-42.969,-129.883
1687530975.729,-50.781,-30.762,-26.855,-51.758,-42.969
1687530975.733,-35.156,-28.809,-28.809,-41.504,221.191
1687530975.737,-42.480,-24.414,-27.344,-31.250,124.023
1687530975.739,-54.688,-25.391,-31.250,-49.805,-135.254
1687530975.743,-41.992,-18.555,-46.387,-47.363,-64.453
1687530975.747,-11.230,-13.184,-41.992,-20.020,22.461
1687530975.751,-6.348,-26.855,-22.461,-20.508,-120.605
1687530975.755,-32.227,-42.480,-15.137,-39.551,-162.109
1687530975.759,-62.988,-47.852,-13.672,-47.852,89.355
1687530975.763,-72.754,-47.363,-10.742,-44.922,110.840
1687530975.766,-68.848,-52.734,-2.930,-49.316,-116.699
1687530975.770,-62.988,-59.082,3.906,-53.223,-158.203
1687530975.774,-64.941,-63.965,7.324,-61.523,23.438
1687530975.778,-92.773,-74.707,9.277,-59.570,54.688
1687530975.782,-111.328,-83.008,16.113,-60.547,-211.914
1687530975.799,-104.980,-92.285,21.973,-74.219,-221.680
1687530975.803,-94.727,-96.680,24.414,-69.336,-141.602
1687530975.807,-95.215,-98.145,31.250,-68.359,-162.109
1687530975.811,-104.004,-99.121,37.109,-68.848,-153.809
1687530975.815,-111.328,-102.539,40.039,-64.453,-111.328
1687530975.819,-101.562,-106.934,40.039,-72.754,-12.695
1687530975.823,-83.984,-111.328,41.992,-80.566,-23.438
1687530975.826,-84.473,-114.258,42.480,-88.867,-129.395
1687530975.830,-85.938,-112.793,37.598,-77.148,-98.633
1687530975.834,-75.195,-110.352,38.574,-57.617,290.039
1687530975.838,-64.453,-102.539,36.621,-63.965,229.492
1687530975.842,-65.918,-99.609,33.691,-59.570,-149.414
1687530975.879,-72.754,-101.562,29.785,-42.969,-47.363
1687530975.883,-76.172,-97.656,23.926,-36.133,25.879
1687530975.887,-83.984,-91.797,22.461,-35.645,-80.566
1687530975.891,-82.031,-84.961,23.926,-26.855,-119.141
1687530975.895,-60.059,-78.125,24.414,-25.391,55.176
1687530975.899,-60.547,-74.707,24.414,-23.926,114.258
1687530975.903,-71.289,-72.266,20.020,-20.020,-0.977
1687530975.906,-74.219,-72.754,17.090,-36.133,-114.258
1687530975.910,-73.242,-69.336,13.672,-32.715,-20.508
1687530975.914,-62.988,-65.918,10.254,-23.438,162.109
1687530975.918,-53.223,-64.941,6.348,-22.461,-49.316
1687530975.922,-62.012,-67.871,1.953,-24.902,-121.582
1687530975.889,-79.590,-71.289,-0.488,-22.461,-31.738
1687530975.893,-63.477,-61.035,2.930,-24.414,-70.312
1687530975.897,-36.133,-55.664,5.371,-32.715,-169.434
1687530975.901,-37.598,-55.176,-3.906,-30.762,-142.578
1687530975.905,-42.969,-51.758,-9.766,-20.020,-87.891
1687530975.909,-42.969,-48.828,-7.812,-18.555,30.762
1687530975.913,-48.340,-50.781,-14.648,-32.227,104.980
1687530975.916,-35.156,-50.781,-16.602,-37.109,116.211
1687530975.920,-25.391,-48.828,-14.160,-22.949,279.785
1687530975.924,-37.109,-46.875,-16.113,-18.066,233.887
1687530975.928,-60.547,-44.922,-19.043,-42.969,-82.520
1687530975.932,-53.711,-41.504,-17.090,-47.363,-31.250
1687530976.372,-35.645,-43.945,-13.672,-31.738,91.797
1687530976.376,-33.203,-43.945,-10.742,-32.715,-37.598
1687530976.380,-32.715,-33.203,-11.719,-38.574,-79.102
1687530976.384,-45.898,-32.227,-16.602,-21.973,-16.113
1687530976.388,-52.246,-38.086,-15.137,-25.391,-9.766
1687530976.392,-43.945,-40.039,-18.066,-36.621,23.926
1687530976.396,-33.691,-39.062,-22.461,-26.367,-24.414
1687530976.399,-41.504,-39.062,-18.555,-22.949,93.262
1687530976.403,-55.176,-36.621,-18.066,-32.227,377.441
1687530976.407,-53.223,-37.598,-24.902,-44.922,82.520
1687530976.411,-38.574,-40.527,-26.367,-43.945,-170.410
1687530976.415,-31.250,-34.668,-27.344,-40.527,-50.293
1687530976.374,-31.250,-31.738,-24.902,-30.273,-64.453
1687530976.378,-40.527,-32.715,-28.809,-32.715,-117.676
1687530976.382,-61.035,-31.738,-34.668,-42.480,-77.148
1687530976.386,-50.293,-28.320,-31.250,-45.410,-122.070
1687530976.390,-29.785,-32.715,-29.297,-43.457,-153.320
1687530976.394,-18.555,-30.762,-25.391,-29.297,-151.855
1687530976.398,-22.461,-25.879,-24.414,-22.461,-58.105
1687530976.401,-37.109,-31.738,-30.762,-17.090,219.727
1687530976.405,-27.832,-36.133,-30.762,-16.113,109.863
1687530976.409,-20.020,-36.621,-26.855,-38.086,-107.422
1687530976.413,-18.066,-31.738,-28.809,-39.062,-30.762
1687530976.417,-23.926,-28.809,-30.273,-27.832,151.367
1687530976.378,-35.645,-30.273,-29.785,-30.273,-28.809
1687530976.382,-33.203,-33.203,-27.344,-32.227,-179.688
1687530976.386,-30.273,-36.621,-30.273,-30.273,-79.590
1687530976.390,-31.250,-35.156,-38.574,-38.086,-83.984
1687530976.394,-42.480,-36.621,-41.016,-41.992,-113.281
1687530976.398,-55.176,-39.551,-38.574,-40.039,-82.520
1687530976.402,-47.852,-38.086,-30.762,-32.715,109.863
1687530976.405,-37.598,-39.062,-26.855,-27.832,139.160
1687530976.409,-35.156,-37.598,-28.809,-36.621,-90.820
1687530976.413,-41.016,-28.809,-25.879,-39.551,-133.789
1687530976.417,-57.129,-25.391,-23.438,-36.621,-39.062
1687530976.421,-62.988,-27.344,-26.855,-40.039,-62.500
1687530976.382,-55.664,-32.227,-24.902,-41.504,-43.457
1687530976.386,-49.316,-34.668,-26.367,-37.598,-36.133
1687530976.390,-52.734,-31.250,-33.203,-39.062,-26.855
1687530976.394,-62.012,-32.227,-33.203,-41.016,1.465
1687530976.398,-64.453,-32.227,-31.250,-50.293,-104.980
1687530976.402,-49.316,-25.879,-34.668,-55.176,-13.672
1687530976.406,-29.297,-24.414,-34.668,-39.062,204.590
1687530976.409,-30.762,-31.738,-33.203,-20.508,112.793
1687530976.413,-47.363,-32.227,-35.156,-20.996,-78.613
1687530976.417,-48.828,-25.391,-30.273,-29.785,-40.527
1687530976.421,-40.527,-27.832,-31.250,-35.156,146.973
1687530976.425,-37.598,-31.250,-36.621,-40.039,54.199
1687530976.389,-41.016,-31.250,-33.691,-30.762,-125.488
1687530976.393,-56.152,-28.809,-30.762,-26.855,-66.406
1687530976.397,-63.477,-26.855,-37.598,-34.180,12.695
1687530976.401,-44.922,-30.762,-35.156,-31.738,-28.320
1687530976.405,-29.297,-32.227,-26.855,-29.785,-170.410
1687530976.409,-36.133,-30.762,-26.367,-31.738,70.801
1687530976.413,-52.734,-30.273,-28.320,-33.691,375.977
1687530976.416,-50.293,-34.668,-28.320,-40.039,54.199
1687530976.420,-35.645,-35.645,-23.926,-41.016,-171.875
1687530976.424,-28.809,-26.855,-28.809,-38.574,-55.176
1687530976.428,-28.320,-26.367,-33.691,-36.621,-12.695
1687530976.432,-41.016,-29.785,-32.227,-33.691,-72.754
1687530976.393,-50.781,-27.832,-32.715,-33.203,-120.605
1687530976.397,-40.039,-26.367,-34.180,-32.227,-91.309
1687530976.401,-25.879,-20.020,-30.762,-33.203,-58.105
1687530976.405,-27.832,-20.020,-28.809,-33.691,-181.641
1687530976.409,-42.969,-25.391,-30.273,-36.133,-137.207
1687530976.413,-53.223,-31.738,-29.297,-38.086,82.031
1687530976.417,-48.340,-34.668,-28.809,-41.016,13.672
1687530976.420,-32.227,-31.738,-28.320,-49.316,-44.434
1687530976.424,-25.391,-28.809,-24.902,-51.270,-152.344
1687530976.428,-38.086,-26.855,-23.926,-41.504,189.453
1687530976.432,-54.199,-30.273,-27.344,-38.086,382.812
1687530976.436,-49.805,-35.156,-24.414,-47.852,-125.488
1687530976.398,-40.527,-34.180,-23.926,-48.828,-221.680
1687530976.402,-27.832,-28.809,-21.484,-39.062,-131.348
1687530976.406,-27.832,-27.344,-21.973,-39.551,-100.586
1687530976.410,-48.340,-28.320,-27.832,-53.223,-133.301
1687530976.414,-42.480,-26.855,-30.762,-49.805,-105.469
1687530976.418,-31.738,-29.785,-35.645,-43.457,-38.086
1687530976.422,-35.156,-36.621,-37.109,-44.922,-17.578
1687530976.425,-42.480,-32.715,-36.133,-42.480,-16.602
1687530976.429,-54.688,-29.297,-35.645,-41.016,77.637
1687530976.433,-51.270,-31.738,-33.691,-31.250,267.090
1687530976.437,-26.855,-26.855,-30.762,-32.715,5.371
1687530976.441,-16.602,-22.461,-32.227,-58.105,-131.836
1687530976.409,-24.902,-22.949,-30.762,-56.641,-50.293
1687530976.413,-34.668,-21.484,-27.344,-32.227,-31.250
1687530976.417,-39.062,-20.508,-27.344,-34.668,-75.684
1687530976.421,-36.621,-26.367,-28.809,-41.016,-140.625
1687530976.425,-26.367,-22.949,-29.785,-38.574,-87.891
1687530976.429,-25.391,-17.090,-27.832,-42.969,-28.320
1687530976.433,-41.016,-19.531,-23.438,-35.156,-35.156
1687530976.436,-46.387,-18.555,-23.438,-32.227,-33.203
1687530976.440,-34.668,-22.949,-22.461,-30.273,194.824
1687530976.444,-21.973,-26.855,-23.926,-22.461,165.527
1687530976.448,-24.414,-25.879,-29.297,-24.414,-49.805
1687530976.452,-46.875,-28.809,-31.738,-25.391,70.801
1687530976.415,-54.199,-29.785,-28.809,-22.461,207.520
1687530976.419,-36.133,-27.344,-24.902,-28.320,-16.602
1687530976.423,-28.320,-28.320,-29.785,-38.086,-154.785
1687530976.427,-37.109,-29.297,-35.156,-43.945,-97.168
1687530976.431,-50.781,-28.320,-34.668,-42.480,-105.957
1687530976.435,-54.688,-34.180,-35.645,-42.969,-65.430
1687530976.439,-45.410,-31.250,-31.738,-52.246,-50.293
1687530976.442,-29.297,-25.879,-24.414,-41.992,95.703
1687530976.446,-20.996,-27.832,-24.414,-40.039,197.754
1687530976.450,-32.715,-25.879,-32.227,-41.992,-23.926
1687530976.454,-37.109,-20.508,-27.832,-32.715,-132.812
1687530976.458,-28.809,-15.625,-23.926,-34.180,-109.375
1687530976.418,-22.949,-20.020,-28.809,-36.133,-64.941
1687530976.422,-15.137,-21.973,-26.855,-34.668,-128.906
1687530976.426,-24.902,-18.555,-21.973,-40.527,-125.977
1687530976.430,-39.551,-20.508,-20.020,-46.387,7.812
1687530976.434,-31.250,-22.949,-26.367,-48.828,-21.484
1687530976.438,-18.066,-26.367,-24.414,-42.480,-54.688
1687530976.442,-18.555,-23.926,-20.020,-35.645,0.488
1687530976.445,-29.297,-27.344,-19.043,-28.809,136.230
1687530976.449,-41.504,-32.715,-20.508,-23.926,41.992
1687530976.453,-32.715,-27.832,-23.926,-32.227,-196.777
1687530976.457,-20.996,-26.855,-21.484,-37.598,-71.289
1687530976.461,-27.832,-32.227,-25.391,-36.621,108.887
1687530976.423,-32.227,-31.738,-29.297,-26.367,-22.949
1687530976.427,-39.551,-26.855,-24.902,-30.273,-154.785
1687530976.431,-38.574,-24.902,-22.461,-35.645,10.254
1687530976.435,-25.391,-25.879,-24.414,-35.645,29.785
1687530976.439,-22.949,-28.320,-29.297,-31.738,-116.211
1687530976.443,-29.785,-29.785,-29.297,-24.902,-42.969
1687530976.447,-44.922,-32.715,-28.320,-22.949,183.105
1687530976.450,-46.387,-31.250,-28.320,-31.250,266.113
1687530976.454,-28.320,-26.367,-32.227,-43.945,-92.773
1687530976.458,-19.043,-30.273,-31.250,-38.086,-248.535
1687530976.462,-29.785,-32.715,-35.156,-32.715,-136.719
1687530976.466,-49.316,-28.320,-43.457,-23.926,-67.383
1687530976.445,-48.340,-28.320,-40.039,-30.273,-136.230
1687530976.449,-35.156,-27.832,-36.621,-39.551,-137.695
1687530976.453,-24.902,-24.902,-34.180,-36.621,-35.156
1687530976.457,-27.344,-28.809,-32.715,-25.879,-71.777
1687530976.461,-46.875,-34.180,-40.039,-20.020,-112.305
1687530976.465,-56.152,-33.203,-43.945,-37.598,-26.367
1687530976.469,-41.016,-27.344,-40.527,-49.316,303.223
1687530976.472,-30.273,-20.508,-39.062,-51.270,252.930
1687530976.476,-35.156,-23.438,-37.109,-42.969,-80.078
1687530976.480,-35.645,-29.785,-34.180,-33.203,28.320
1687530976.484,-51.270,-27.344,-31.250,-38.574,151.367
1687530976.488,-43.945,-25.391,-29.297,-41.504,-92.773
1687530976.491,-24.414,-26.367,-29.785,-37.109,-241.699
1687530976.495,-33.203,-26.855,-30.762,-26.855,-161.621
1687530976.499,-44.434,-27.344,-28.809,-14.160,-122.559
1687530976.503,-42.480,-28.809,-31.250,-14.648,-156.250
1687530976.507,-32.227,-26.367,-27.344,-15.137,-175.781
1687530976.511,-24.414,-24.414,-23.438,-17.090,19.531
1687530976.515,-16.113,-25.879,-25.391,-12.695,73.730
1687530976.518,-24.902,-22.949,-21.484,-21.484,-50.781
1687530976.522,-44.922,-16.602,-29.785,-41.992,-46.875
1687530976.526,-37.598,-18.555,-40.527,-48.828,75.684
1687530976.530,-22.949,-21.484,-41.504,-59.082,186.035
1687530976.534,-13.672,-16.602,-38.574,-69.336,-22.461
1687530976.549,-8.789,-15.137,-37.109,-67.383,-113.770
1687530976.553,-13.672,-15.625,-35.645,-64.453,-71.289
1687530976.557,-4.395,-15.137,-36.133,-66.895,-51.270
1687530976.561,5.371,-15.625,-36.133,-66.406,-154.297
1687530976.565,-3.906,-20.508,-35.156,-68.359,-157.715
1687530976.569,-24.902,-24.414,-41.504,-71.289,35.645
1687530976.573,-45.898,-26.367,-39.062,-69.824,13.672
1687530976.576,-42.969,-24.414,-33.691,-60.059,-89.844
1687530976.580,-33.691,-22.461,-31.738,-60.059,-194.336
1687530976.584,-29.785,-21.484,-29.297,-52.246,169.922
1687530976.588,-41.504,-24.414,-32.227,-41.504,373.535
1687530976.592,-63.965,-30.273,-38.086,-44.922,-91.797
1687530976.594,-57.129,-28.809,-34.180,-38.086,-123.047
1687530976.598,-32.715,-23.926,-27.344,-28.809,14.648
1687530976.602,-26.855,-22.461,-30.762,-24.902,-135.742
1687530976.606,-35.645,-20.996,-31.250,-21.973,-176.758
1687530976.610,-52.734,-18.066,-29.297,-26.367,-48.828
1687530976.614,-56.152,-20.020,-30.273,-32.715,32.227
1687530976.618,-41.504,-21.973,-30.762,-36.621,-75.684
1687530976.621,-36.133,-24.902,-38.086,-41.992,-235.352
1687530976.625,-44.922,-24.902,-38.574,-32.227,-66.895
1687530976.629,-60.059,-23.438,-31.250,-34.668,129.395
1687530976.633,-62.012,-26.367,-32.227,-54.688,-113.281
1687530976.637,-44.434,-24.902,-34.668,-59.570,-113.770
1687530976.639,-35.645,-22.461,-28.809,-53.223,61.035
1687530976.643,-46.387,-24.414,-30.273,-41.992,-40.039
1687530976.647,-67.383,-25.391,-35.645,-49.805,-117.188
1687530976.651,-72.754,-22.949,-31.250,-64.941,-128.906
1687530976.655,-50.293,-20.508,-28.809,-62.012,-100.098
1687530976.659,-36.621,-23.438,-27.344,-50.781,-69.824
1687530976.663,-45.410,-26.855,-28.320,-51.270,27.344
1687530976.666,-63.965,-31.738,-32.715,-58.594,41.504
1687530976.670,-67.871,-28.320,-31.250,-55.664,132.324
1687530976.674,-51.270,-20.508,-32.715,-56.641,82.031
1687530976.678,-40.527,-21.484,-33.691,-56.152,-141.602
1687530976.682,-44.434,-23.438,-29.785,-46.875,-43.945
1687530976.685,-57.617,-25.391,-29.297,-45.898,58.594
1687530976.689,-67.383,-25.879,-29.297,-49.805,-4.395
1687530976.693,-51.270,-24.414,-24.902,-49.316,-96.191
1687530976.697,-41.504,-24.414,-25.391,-47.852,-31.250
1687530976.701,-46.387,-30.273,-25.391,-43.945,32.227
1687530976.705,-58.594,-30.762,-24.414,-44.434,-33.691
1687530976.709,-69.824,-23.438,-23.438,-48.340,-71.777
1687530976.712,-53.711,-21.973,-25.879,-49.316,23.438
1687530976.716,-36.133,-19.531,-22.949,-42.969,152.344
1687530976.720,-31.738,-20.996,-26.367,-36.133,-116.211
1687530976.724,-44.922,-26.367,-29.297,-33.203,-173.828
1687530976.728,-53.223,-24.902,-24.414,-40.527,-40.039
1687530976.729,-40.039,-23.926,-25.879,-51.270,-66.895
1687530976.733,-31.250,-27.832,-25.391,-51.758,-118.652
1687530976.737,-31.250,-28.809,-24.902,-49.316,-85.938
1687530976.741,-33.691,-23.926,-26.367,-42.480,-39.062
1687530976.745,-40.527,-21.973,-23.438,-32.227,-11.719
1687530976.749,-31.738,-21.484,-20.020,-36.621,-17.090
1687530976.753,-22.461,-20.996,-20.020,-45.410,-1.953
1687530976.756,-26.367,-22.461,-20.508,-36.133,203.125
1687530976.760,-36.133,-24.414,-18.555,-28.809,176.758
1687530976.764,-46.875,-25.879,-14.648,-37.598,-73.242
1687530976.768,-38.574,-24.902,-12.207,-39.551,-13.672
1687530976.772,-21.484,-21.484,-13.672,-26.367,45.410
1687530976.789,-24.414,-21.973,-15.137,-35.156,-77.637
1687530976.793,-37.109,-28.320,-16.602,-38.574,-141.113
1687530976.797,-56.152,-23.438,-14.648,-32.715,-35.645
1687530976.801,-61.035,-20.508,-15.625,-37.598,-52.246
1687530976.805,-42.969,-24.414,-20.020,-43.457,-148.926
1687530976.809,-30.762,-23.438,-17.578,-30.762,-154.297
1687530976.813,-37.598,-21.973,-20.508,-22.461,101.074
1687530976.816,-58.105,-18.555,-23.438,-19.043,381.348
1687530976.820,-53.223,-17.090,-20.020,-20.508,18.066
1687530976.824,-28.320,-14.160,-14.648,-17.578,-201.172
1687530976.828,-23.926,-13.672,-13.672,-20.996,-107.422
1687530976.832,-31.250,-19.531,-17.090,-41.016,-91.309
1687530976.819,-33.203,-22.461,-18.066,-37.109,-128.418
1687530976.823,-35.645,-22.461,-20.996,-32.715,-133.789
1687530976.827,-31.738,-22.461,-21.484,-38.086,-71.777
1687530976.831,-23.926,-23.438,-17.090,-26.855,-98.145
1687530976.835,-28.320,-24.414,-20.020,-20.996,-128.418
1687530976.839,-45.410,-27.344,-23.438,-28.320,-11.719
1687530976.843,-52.734,-30.273,-22.949,-37.598,95.703
1687530976.846,-41.504,-29.785,-20.508,-40.039,-45.898
1687530976.850,-34.668,-29.297,-20.508,-35.645,-51.270
1687530976.854,-37.598,-29.297,-21.973,-34.180,89.844
1687530976.858,-53.223,-30.762,-22.461,-24.902,312.012
1687530976.862,-72.266,-31.250,-24.414,-26.367,315.918
1687530976.864,-55.176,-30.762,-20.996,-46.387,-67.383
1687530976.868,-35.645,-24.902,-17.578,-45.898,-144.043
1687530976.872,-42.969,-23.438,-21.973,-44.922,-54.688
1687530976.876,-51.758,-27.344,-20.996,-53.711,-104.980
1687530976.880,-61.035,-28.809,-16.602,-51.270,-191.406
1687530976.884,-54.688,-29.785,-16.602,-42.969,-33.203
1687530976.888,-38.086,-29.297,-19.043,-31.250,62.012
1687530976.891,-36.621,-23.438,-20.508,-26.367,-64.941
1687530976.895,-47.363,-26.367,-20.020,-35.156,-172.363
1687530976.899,-45.410,-31.250,-17.090,-17.090,-23.438
1687530976.903,-18.555,-26.367,-17.090,1.953,90.820
1687530976.907,-16.602,-19.043,-22.461,-37.109,-82.031
1687530976.924,-37.109,-18.066,-28.320,-61.035,-104.004
1687530976.928,-41.992,-18.066,-29.297,-41.016,41.016
1687530976.932,-53.711,-8.789,-34.180,-38.086,-13.672
1687530976.936,-52.734,1.465,-42.480,-47.852,-189.453
1687530976.940,-41.504,6.836,-51.270,-61.035,-173.340
1687530976.944,-41.016,14.648,-54.688,-66.895,-40.527
1687530976.948,-45.410,19.531,-62.988,-69.336,32.227
1687530976.951,-58.594,21.484,-77.148,-79.590,-45.410
1687530976.955,-55.664,24.902,-82.031,-83.984,-71.289
1687530976.959,-47.363,28.809,-85.938,-85.449,271.973
1687530976.963,-49.316,29.297,-96.191,-92.773,252.930
1687530976.967,-50.781,30.762,-98.145,-99.609,-75.195
1687530976.970,-59.570,35.156,-95.703,-101.562,-9.766
1687530976.974,-61.523,39.551,-98.633,-108.887,0.488
1687530976.978,-45.898,43.945,-97.656,-106.934,-130.859
1687530976.982,-36.133,43.457,-96.680,-100.586,-183.594
1687530976.986,-44.922,42.480,-101.074,-97.168,-73.730
1687530976.990,-56.152,41.504,-102.051,-90.332,6.836
1687530976.994,-48.340,43.457,-100.586,-88.867,-82.520
1687530976.997,-26.367,44.922,-98.145,-82.520,-150.391
1687530977.001,-13.672,45.898,-100.098,-70.801,28.320
1687530977.005,-19.531,46.387,-104.004,-62.500,197.266
1687530977.009,-29.297,44.434,-98.145,-61.035,-73.242
1687530977.013,-27.832,44.434,-93.750,-59.082,-125.977
1687530977.014,-19.531,39.062,-92.773,-68.359,-35.156
1687530977.018,-0.488,37.109,-83.984,-61.035,-88.379
1687530977.022,9.766,37.598,-78.125,-54.199,-113.770
1687530977.026,-20.508,32.227,-74.219,-64.941,-128.418
1687530977.030,-28.809,31.250,-71.777,-61.035,-53.711
1687530977.034,-3.906,29.297,-67.383,-53.223,61.523
1687530977.038,11.230,28.809,-58.594,-53.711,-14.160
1687530977.041,10.742,25.879,-59.570,-45.898,-131.348
1687530977.045,-14.160,20.020,-60.547,-45.410,138.672
1687530977.049,-27.832,11.719,-58.105,-49.805,240.234
1687530977.053,-2.930,8.789,-59.570,-49.805,-27.832
1687530977.057,12.207,9.277,-60.059,-50.781,-19.043
1687530977.059,4.395,9.277,-53.711,-42.969,77.637
1687530977.063,-20.020,5.371,-51.758,-41.016,-28.320
1687530977.067,-35.156,3.418,-51.270,-49.316,-125.977
1687530977.071,-15.137,2.441,-45.898,-52.246,-12.695
1687530977.075,-3.906,1.465,-43.457,-52.734,67.871
1687530977.079,-9.766,-0.977,-43.945,-46.875,-39.551
1687530977.083,-15.625,-4.395,-41.992,-52.246,-58.594
1687530977.086,-24.902,4.883,-39.062,-52.246,178.711
1687530977.090,-24.902,6.836,-36.621,-49.316,368.652
1687530977.094,-21.973,6.348,-37.598,-54.688,31.250
1687530977.098,-23.438,1.465,-35.156,-49.316,-166.992
1687530977.102,-32.227,-4.395,-36.133,-32.715,-76.660
1687530977.104,-42.969,-4.883,-37.598,-33.203,-72.266
1687530977.108,-34.180,-8.301,-32.715,-45.410,-139.648
1687530977.112,-17.090,-11.230,-26.855,-37.598,-140.625
1687530977.116,-3.418,-12.207,-23.438,-26.855,-137.695
1687530977.120,-6.836,-13.184,-25.391,-24.414,-97.656
1687530977.124,-20.020,-9.277,-28.809,-26.367,-74.707
1687530977.128,-16.602,-9.277,-30.762,-25.879,-38.086
1687530977.131,-5.859,-13.672,-31.738,-26.367,199.707
1687530977.135,-1.953,-12.695,-36.133,-36.621,178.711
1687530977.139,-9.766,-13.672,-37.109,-40.527,-100.586
1687530977.143,-29.297,-8.789,-32.715,-43.457,-50.293
1687530977.147,-29.785,-7.324,-30.762,-50.293,168.945
1687530977.149,-16.113,-10.254,-32.715,-49.316,-14.160
1687530977.153,-11.719,-13.672,-35.645,-43.945,-205.566
1687530977.157,-12.695,-12.695,-31.250,-36.133,-102.539
1687530977.161,-16.602,-12.695,-24.902,-23.438,-117.676
1687530977.165,-16.113,-21.973,-27.344,-25.879,-211.914
1687530977.169,-6.348,-24.414,-30.273,-34.668,-174.805
1687530977.173,-13.184,-20.508,-30.762,-26.367,88.379
1687530977.176,-16.602,-22.461,-27.832,-19.531,178.711
1687530977.180,-22.949,-26.367,-27.832,-23.926,-106.445
1687530977.184,-30.762,-25.879,-29.297,-28.809,-204.590
1687530977.188,-22.949,-26.367,-28.809,-36.621,-160.645
1687530977.192,-14.160,-24.414,-24.902,-41.504,-148.926
1687530977.194,-16.113,-27.832,-22.461,-43.945,-175.781
1687530977.198,-31.738,-33.691,-25.391,-34.180,-150.391
1687530977.202,-28.809,-25.879,-22.461,-23.438,-53.223
1687530977.206,-16.113,-19.043,-18.555,-23.926,-45.410
1687530977.210,-7.324,-19.043,-23.926,-28.809,-136.230
1687530977.214,-3.906,-19.531,-29.297,-33.691,-17.578
1687530977.218,-19.043,-18.066,-24.902,-23.926,322.266
1687530977.221,-35.156,-19.043,-25.879,-25.879,209.473
1687530977.225,-25.879,-20.996,-24.902,-35.156,-120.117
1687530977.229,-13.184,-24.902,-20.020,-33.691,-42.480
1687530977.233,-20.996,-29.785,-20.996,-37.598,113.770
1687530977.237,-27.832,-27.344,-22.461,-35.156,2.441
1687530977.241,-35.156,-23.926,-20.508,-36.133,-150.391
1687530977.245,-34.668,-22.461,-17.090,-39.062,-52.734
1687530977.249,-21.973,-25.879,-21.973,-43.945,13.184
1687530977.253,-26.855,-31.250,-28.809,-49.805,-77.148
1687530977.257,-41.016,-27.344,-24.902,-44.434,-101.562
1687530977.261,-44.922,-26.367,-21.484,-41.504,22.949
1687530977.265,-35.645,-26.855,-20.996,-39.551,135.742
1687530977.268,-31.250,-22.949,-17.090,-36.621,-77.148
1687530977.272,-33.203,-25.879,-18.066,-37.598,-184.082
1687530977.276,-40.039,-30.273,-23.926,-37.109,48.340
1687530977.280,-46.875,-23.438,-24.414,-40.039,128.906
1687530977.284,-40.039,-21.484,-20.020,-55.664,-102.051
1687530977.299,-35.156,-23.926,-18.066,-56.152,-83.496
1687530977.303,-30.273,-23.926,-23.438,-44.922,-74.219
1687530977.307,-31.250,-26.367,-26.367,-43.457,-88.867
1687530977.311,-54.199,-27.832,-25.391,-49.805,-81.543
1687530977.315,-55.664,-22.949,-28.320,-52.246,-122.559
1687530977.319,-36.133,-17.578,-20.996,-40.039,109.375
1687530977.323,-31.250,-17.578,-16.113,-39.551,156.250
1687530977.326,-35.156,-19.043,-18.066,-46.875,-106.934
1687530977.330,-36.133,-20.508,-20.020,-41.504,-80.566
1687530977.334,-32.227,-21.484,-23.926,-41.504,183.105
1687530977.338,-12.695,-23.926,-24.414,-51.270,66.895
1687530977.342,0.488,-24.414,-22.461,-55.176,-221.191
1687530977.344,-12.695,-25.391,-24.414,-48.340,-77.148
1687530977.348,-34.180,-24.414,-24.414,-45.898,21.484
1687530977.352,-40.527,-19.043,-24.414,-51.270,-103.027
1687530977.356,-36.133,-19.531,-27.832,-46.875,-159.668
1687530977.360,-40.527,-23.438,-31.250,-47.852,-76.660
1687530977.364,-47.363,-25.391,-28.809,-58.105,-22.949
1687530977.368,-59.082,-27.344,-25.391,-48.828,-41.992
1687530977.371,-63.477,-32.227,-23.926,-48.828,-29.785
1687530977.375,-46.387,-33.203,-21.484,-53.223,73.242
1687530977.379,-35.645,-31.738,-22.461,-42.480,242.188
1687530977.383,-43.945,-32.227,-30.762,-45.898,40.527
1687530977.387,-59.570,-27.832,-24.414,-51.758,-115.234
1687530977.389,-66.895,-29.785,-20.996,-47.363,-63.477
1687530977.393,-57.129,-30.762,-23.438,-47.363,-133.301
1687530977.397,-41.016,-28.809,-23.926,-51.758,-124.023
1687530977.401,-34.668,-27.832,-27.832,-42.480,-65.918
1687530977.405,-56.152,-30.273,-37.109,-52.734,-45.898
1687530977.409,-64.453,-27.832,-48.828,-60.059,-80.566
1687530977.413,-16.602,-16.113,-39.062,-23.438,-64.453
1687530977.416,-9.766,-29.785,-23.438,-25.391,-45.898
1687530977.420,-38.574,-55.176,-14.648,-37.598,191.895
1687530977.424,-61.523,-54.199,-8.789,-30.273,256.348
1687530977.428,-77.637,-46.387,-4.883,-39.062,-173.340
1687530977.432,-70.801,-49.805,1.953,-50.293,-161.133
1687530977.434,-65.430,-57.617,14.648,-50.781,72.266
1687530977.438,-72.266,-67.383,18.066,-53.711,-23.438
1687530977.442,-85.449,-74.707,17.090,-44.434,-76.660
1687530977.446,-92.285,-79.102,22.949,-35.156,-30.762
1687530977.450,-82.520,-85.449,29.785,-38.086,-40.039
1687530977.454,-71.289,-93.262,34.668,-40.527,-52.734
1687530977.458,-72.754,-100.098,33.691,-40.527,-98.145
1687530977.461,-76.172,-99.121,37.109,-26.367,31.738
1687530977.465,-86.426,-102.539,43.945,-11.230,234.863
1687530977.469,-87.891,-108.887,45.898,-19.531,-44.434
1687530977.473,-73.730,-109.375,50.781,-27.832,-137.207
1687530977.477,-72.266,-108.398,52.734,-23.926,2.930
1687530977.479,-80.078,-106.445,52.734,-16.113,-6.348
1687530977.483,-86.426,-104.004,49.316,-19.043,-89.844
1687530977.487,-76.660,-101.074,42.969,-32.227,-93.262
1687530977.491,-58.594,-92.773,41.504,-32.227,-74.707
1687530977.495,-55.664,-94.727,36.133,-29.785,-176.270
1687530977.499,-61.523,-99.609,27.344,-26.855,-131.836
1687530977.503,-74.219,-95.215,21.973,-29.297,-41.504
1687530977.506,-78.613,-91.309,22.949,-31.738,131.836
1687530977.510,-64.941,-86.914,18.066,-29.297,96.680
1687530977.514,-53.223,-82.031,16.602,-24.902,-54.199
1687530977.518,-55.176,-83.496,15.625,-22.461,64.453
1687530977.522,-62.500,-80.078,12.695,-22.949,107.910
1687530977.526,-62.012,-69.336,16.602,-20.020,33.691
1687530977.530,-44.922,-60.059,16.113,-22.949,-88.867
1687530977.534,-34.668,-60.547,11.719,-18.066,22.461
1687530977.538,-41.504,-62.500,7.812,-11.230,67.871
1687530977.542,-56.641,-56.152,7.324,-20.996,-62.012
1687530977.546,-58.594,-57.617,4.883,-33.203,-80.078
1687530977.550,-42.480,-59.570,4.395,-38.574,134.766
1687530977.553,-35.645,-58.105,3.906,-28.320,261.230
1687530977.557,-32.227,-56.152,2.930,-25.391,-72.266
1687530977.561,-39.062,-51.270,2.930,-26.367,-152.344
1687530977.565,-42.969,-49.316,-1.953,-18.555,-107.422
1687530977.569,-26.367,-47.363,-1.465,-14.648,-85.449
1687530977.569,-13.184,-41.992,0.977,-14.648,-132.812
1687530977.573,-18.066,-40.527,0.977,-16.113,-158.203
1687530977.577,-27.344,-40.527,-0.977,-18.555,-95.215
1687530977.581,-30.762,-41.016,-2.930,-21.973,-66.895
1687530977.585,-24.414,-41.016,-3.418,-28.320,-144.531
1687530977.589,-19.531,-40.527,-3.906,-25.879,-123.047
1687530977.593,-21.973,-38.086,-8.301,-23.926,252.441
1687530977.596,-34.180,-37.598,-8.301,-26.855,312.500
1687530977.600,-47.852,-40.039,-5.859,-32.227,-84.961
1687530977.604,-45.898,-42.969,-16.113,-40.039,-10.254
1687530977.608,-30.762,-42.969,-21.484,-35.156,111.816
1687530977.612,-31.738,-37.109,-16.602,-33.691,-98.633
1687530977.614,-42.969,-36.621,-15.625,-33.691,-136.719
1687530977.618,-52.246,-37.109,-15.137,-28.320,-54.688
1687530977.622,-49.316,-35.156,-17.090,-43.457,-91.797
1687530977.626,-34.668,-32.227,-17.578,-39.062,-191.406
1687530977.630,-28.320,-30.273,-13.184,-26.855,-169.434
1687530977.634,-39.551,-34.180,-18.555,-39.551,105.469
1687530977.638,-51.758,-33.203,-19.531,-41.992,176.758
1687530977.641,-46.875,-30.762,-13.184,-44.434,-36.621
1687530977.645,-34.180,-30.762,-12.695,-47.852,-149.902
1687530977.649,-20.996,-27.344,-17.090,-37.598,25.391
1687530977.653,-34.668,-28.809,-19.043,-32.715,203.613
1687530977.657,-58.105,-32.227,-20.508,-42.969,-75.684
1687530977.674,-52.246,-30.273,-24.414,-52.734,-134.766
1687530977.678,-38.086,-33.203,-24.902,-52.246,-145.020
1687530977.682,-31.738,-33.203,-18.555,-41.992,-144.531
1687530977.686,-34.180,-35.645,-20.508,-51.270,-133.789
1687530977.690,-41.504,-29.785,-29.785,-52.734,-130.371
1687530977.694,-34.180,-24.902,-25.391,-27.832,21.484
1687530977.698,-42.480,-34.668,-15.137,-38.574,73.242
1687530977.701,-58.105,-44.922,-15.625,-60.547,-37.109
1687530977.705,-54.199,-46.875,-15.625,-54.199,-84.473
1687530977.709,-61.035,-44.434,-16.113,-51.270,226.562
1687530977.713,-67.383,-48.828,-18.066,-58.594,318.848
1687530977.717,-59.082,-46.387,-15.137,-66.895,-66.895
1687530977.719,-53.711,-41.504,-13.672,-63.965,-152.832
1687530977.723,-46.875,-44.434,-17.578,-60.547,-43.945
1687530977.727,-49.805,-45.410,-22.949,-60.547,-63.477
1687530977.731,-59.570,-39.551,-23.926,-62.500,-108.398
1687530977.735,-47.363,-40.039,-21.973,-62.988,-15.625
1687530977.739,-33.691,-41.016,-20.020,-63.477,91.309
1687530977.743,-37.598,-40.039,-18.555,-60.547,121.094
1687530977.746,-55.176,-37.598,-18.555,-55.664,-60.547
1687530977.750,-62.012,-36.133,-24.414,-50.293,-9.277
1687530977.754,-48.828,-42.480,-29.297,-45.898,194.336
1687530977.758,-38.574,-39.062,-23.438,-50.781,-40.527
1687530977.762,-36.621,-33.691,-26.367,-54.688,-165.527
1687530977.764,-47.363,-35.156,-27.344,-46.875,-36.621
1687530977.768,-55.664,-32.715,-20.020,-44.434,-36.133
1687530977.772,-41.992,-32.227,-23.926,-57.129,-158.203
1687530977.776,-31.738,-34.668,-27.832,-57.617,-181.152
1687530977.780,-32.227,-33.691,-28.320,-44.434,-182.129
1687530977.784,-45.410,-35.156,-27.344,-41.016,-65.918
1687530977.788,-53.711,-37.109,-27.344,-49.805,38.574
1687530977.791,-42.969,-33.691,-29.297,-44.922,-81.055
1687530977.795,-34.668,-30.273,-23.926,-37.109,15.137
1687530977.799,-32.227,-34.180,-27.832,-40.527,25.879
1687530977.803,-38.086,-34.668,-35.645,-41.016,-145.996
1687530977.807,-49.316,-32.715,-33.691,-39.551,-110.840
1687530977.809,-38.086,-28.320,-30.273,-29.297,89.355
1687530977.813,-12.695,-23.926,-22.461,-28.809,-15.137
1687530977.817,-5.371,-23.438,-20.508,-22.461,-210.449
1687530977.821,-16.113,-22.461,-21.484,-20.996,-127.441
1687530977.825,-37.109,-27.832,-21.484,-41.992,-81.055
1687530977.829,-37.598,-30.273,-19.531,-43.457,43.457
1687530977.833,-24.902,-26.855,-22.461,-36.621,-5.859
1687530977.836,-19.043,-29.297,-22.461,-30.273,59.082
1687530977.840,-22.461,-29.785,-21.484,-19.043,219.238
1687530977.844,-33.691,-29.785,-21.973,-27.832,-53.711
1687530977.848,-31.738,-25.879,-22.949,-33.203,-154.785
1687530977.852,-23.926,-20.508,-23.438,-30.273,-145.996
1687530977.855,-17.578,-19.531,-21.973,-32.715,-176.270
1687530977.859,-20.508,-21.484,-23.926,-33.691,-214.844
1687530977.863,-38.574,-24.414,-20.508,-34.668,-150.879
1687530977.867,-41.016,-25.391,-20.020,-32.715,-2.441
1687530977.871,-29.297,-23.438,-23.438,-36.621,-66.406
1687530977.875,-24.414,-23.438,-25.391,-36.133,-74.707
1687530977.879,-29.297,-23.926,-27.832,-32.227,47.363
1687530977.882,-52.734,-22.949,-25.391,-31.738,232.910
1687530977.886,-53.223,-21.973,-25.391,-38.086,160.645
1687530977.890,-31.250,-20.020,-24.902,-49.805,-110.840
1687530977.894,-36.621,-21.484,-24.414,-49.316,-44.922
1687530977.898,-41.504,-20.508,-21.484,-41.992,71.777
1687530977.899,-44.922,-19.531,-21.973,-50.293,-59.082
1687530977.903,-45.410,-20.020,-25.879,-46.387,-145.996
1687530977.907,-39.062,-19.531,-25.391,-41.016,-40.039
1687530977.911,-29.297,-21.973,-28.809,-47.363,-53.223
1687530977.915,-26.367,-20.508,-33.203,-38.574,-33.691
1687530977.919,-41.992,-18.555,-31.250,-36.621,-12.207
1687530977.923,-48.828,-18.555,-28.320,-46.875,97.656
1687530977.926,-40.039,-12.695,-26.367,-49.316,347.656
1687530977.930,-28.809,-13.184,-28.809,-47.363,47.852
1687530977.934,-28.320,-20.020,-28.809,-53.711,-136.230
1687530977.938,-39.062,-21.973,-23.926,-51.270,-23.438
1687530977.942,-48.828,-25.391,-23.438,-42.480,-76.172
1687530977.944,-44.434,-25.391,-20.508,-42.969,-129.883
1687530977.948,-31.250,-22.461,-21.973,-46.387,-91.309
1687530977.952,-28.320,-17.578,-26.367,-39.062,-27.344
1687530977.956,-45.410,-22.949,-27.344,-35.645,-40.039
1687530977.960,-63.965,-30.762,-28.809,-47.852,-118.164
1687530977.964,-55.176,-28.320,-31.250,-53.223,-114.258
1687530977.968,-39.062,-24.414,-28.320,-47.852,143.066
1687530977.971,-40.527,-28.320,-30.762,-45.410,138.672
1687530977.975,-57.617,-29.297,-32.227,-46.387,-134.766
1687530977.979,-66.895,-24.414,-28.809,-51.758,-93.750
1687530977.983,-61.035,-30.762,-34.180,-46.387,146.973
1687530977.987,-47.852,-32.715,-39.062,-51.270,47.852
1687530977.989,-40.039,-26.367,-30.762,-58.594,-188.965
1687530977.993,-49.805,-27.344,-34.180,-56.152,-108.887
1687530977.997,-48.340,-27.344,-42.969,-35.156,-30.762
1687530978.001,-32.715,-24.414,-25.391,-19.043,-67.383
1687530978.005,-44.434,-33.691,-13.672,-51.758,-149.414
1687530978.009,-56.641,-39.062,-18.066,-60.059,34.668
1687530978.013,-48.828,-32.715,-18.555,-30.273,136.719
1687530978.016,-57.129,-30.762,-16.602,-18.066,-87.402
1687530978.020,-56.641,-34.180,-17.090,-38.574,-189.941
1687530978.024,-36.621,-38.574,-20.020,-47.363,78.125
1687530978.028,-27.344,-37.109,-22.461,-32.715,223.145
1687530978.032,-28.809,-34.180,-19.531,-20.996,-58.594
1687530978.049,-51.270,-34.180,-15.625,-31.738,-93.750
1687530978.053,-58.594,-33.691,-16.602,-43.457,-90.820
1687530978.057,-40.039,-32.715,-20.508,-38.574,-122.070
1687530978.061,-27.832,-31.250,-21.484,-34.668,-156.738
1687530978.065,-30.273,-37.598,-20.020,-39.062,-102.051
1687530978.069,-36.621,-39.551,-26.367,-41.992,78.613
1687530978.073,-31.738,-35.645,-23.926,-37.109,70.801
1687530978.076,-14.648,-34.180,-20.996,-44.922,-86.914
1687530978.080,-3.906,-28.809,-26.855,-57.129,-68.359
1687530978.084,-5.859,-25.879,-24.902,-50.781,241.211
1687530978.088,-21.484,-28.320,-24.902,-43.457,176.270
1687530978.092,-40.527,-32.227,-30.762,-54.688,-65.430
1687530978.094,-34.668,-31.738,-34.180,-59.570,69.336
1687530978.098,-29.297,-34.180,-33.203,-51.758,117.676
1687530978.102,-37.109,-32.227,-31.738,-49.805,-18.066
1687530978.106,-41.016,-27.344,-28.809,-41.016,-98.633
1687530978.110,-55.664,-29.785,-28.320,-42.969,-29.785
1687530978.114,-56.641,-38.086,-31.250,-62.500,-31.250
1687530978.118,-35.645,-38.574,-31.738,-57.129,-96.191
1687530978.121,-33.691,-37.109,-31.250,-42.480,-172.363
1687530978.125,-47.852,-36.621,-28.320,-29.297,-19.043
1687530978.129,-59.082,-35.156,-28.809,-31.250,138.672
1687530978.133,-51.758,-38.574,-30.273,-41.016,-124.512
1687530978.137,-36.621,-37.598,-26.855,-38.574,-183.594
1687530978.140,-33.691,-32.715,-28.320,-35.645,-40.527
1687530978.144,-44.922,-28.320,-28.809,-34.668,-34.180
1687530978.148,-58.594,-31.738,-27.344,-36.621,-101.074
1687530978.152,-45.898,-33.691,-30.273,-39.062,-104.492
1687530978.156,-33.691,-29.785,-31.250,-35.156,-8.789
1687530978.160,-29.785,-30.273,-31.250,-32.227,79.590
1687530978.164,-36.133,-28.320,-29.297,-39.062,91.797
1687530978.167,-50.781,-30.762,-29.785,-39.551,-9.277
1687530978.171,-44.922,-34.180,-33.203,-36.621,156.738
1687530978.175,-25.879,-31.738,-31.738,-39.551,180.664
1687530978.179,-23.438,-29.297,-30.273,-43.945,-122.070
1687530978.183,-38.086,-26.855,-32.227,-38.574,-74.707
1687530978.184,-45.410,-24.902,-31.738,-26.855,61.035
1687530978.188,-32.715,-23.926,-30.762,-24.902,-111.328
1687530978.192,-21.484,-23.438,-33.691,-24.414,-159.180
1687530978.196,-22.949,-24.414,-33.691,-23.438,-68.848
1687530978.200,-25.391,-24.414,-30.762,-29.297,-23.438
1687530978.204,-41.016,-27.344,-29.297,-32.715,-12.207
1687530978.208,-45.410,-26.367,-26.367,-41.992,16.113
1687530978.211,-31.738,-31.250,-26.855,-43.457,124.023
1687530978.215,-30.273,-34.180,-31.738,-36.621,251.465
1687530978.219,-35.156,-29.297,-31.738,-39.062,37.598
1687530978.223,-50.293,-31.738,-31.250,-37.598,-142.578
1687530978.227,-43.945,-35.645,-31.738,-36.133,-61.523
1687530978.229,-27.344,-33.203,-30.273,-37.598,-109.863
1687530978.233,-25.391,-29.297,-26.855,-31.250,-126.465
1687530978.237,-21.973,-24.414,-20.996,-25.879,-83.008
1687530978.241,-36.621,-27.832,-19.531,-34.180,-54.688
1687530978.245,-41.992,-23.926,-19.531,-36.621,-76.660
1687530978.249,-33.203,-25.879,-20.996,-26.855,-96.680
1687530978.253,-29.785,-32.227,-23.438,-27.344,-68.848
1687530978.256,-36.621,-26.367,-22.461,-27.832,276.367
1687530978.260,-45.410,-24.902,-29.297,-32.715,319.336
1687530978.264,-41.504,-26.855,-27.832,-40.039,-77.637
1687530978.268,-32.715,-28.809,-19.043,-29.785,-106.934
1687530978.272,-25.879,-26.855,-24.414,-28.809,31.738
1687530978.274,-23.926,-26.855,-24.414,-32.227,-63.477
1687530978.278,-31.738,-29.785,-23.926,-30.273,-134.277
1687530978.282,-34.668,-27.832,-23.926,-28.809,-61.035
1687530978.286,-23.438,-26.855,-20.996,-28.809,-128.906
1687530978.290,-16.602,-20.508,-22.461,-30.273,-178.223
1687530978.294,-19.043,-17.578,-22.461,-31.250,-58.105
1687530978.298,-38.574,-25.391,-23.926,-40.527,234.375
1687530978.301,-48.340,-28.809,-25.391,-44.434,274.414
1687530978.305,-38.086,-27.832,-23.926,-40.039,-27.832
1687530978.309,-31.250,-30.762,-28.809,-42.969,-116.211
1687530978.313,-30.273,-33.691,-32.715,-49.805,-52.734
1687530978.317,-37.598,-32.715,-27.344,-45.898,-58.594
1687530978.319,-55.176,-30.762,-25.879,-45.410,-153.809
1687530978.323,-52.734,-28.809,-27.344,-49.316,-184.082
1687530978.327,-35.156,-28.320,-24.414,-41.992,-161.133
1687530978.331,-29.297,-27.832,-19.043,-31.250,-117.188
1687530978.335,-36.133,-26.367,-19.531,-27.344,-134.277
1687530978.339,-50.781,-28.809,-23.438,-32.227,-98.633
1687530978.343,-44.922,-31.250,-18.066,-29.297,153.809
1687530978.346,-28.809,-27.832,-19.531,-26.367,62.500
1687530978.350,-25.879,-31.250,-27.832,-28.320,-266.113
1687530978.354,-37.598,-35.156,-24.414,-27.344,-131.348
1687530978.358,-51.270,-32.715,-23.926,-28.320,158.203
1687530978.362,-50.293,-31.250,-29.785,-40.527,64.453
1687530978.365,-41.992,-28.809,-26.367,-51.758,-179.688
1687530978.369,-40.527,-27.344,-23.438,-38.086,-114.258
1687530978.373,-43.457,-24.902,-28.320,-33.691,40.039
1687530978.377,-51.270,-21.484,-27.344,-38.574,-51.270
1687530978.381,-49.805,-23.926,-21.484,-33.691,-136.230
1687530978.385,-42.480,-28.320,-23.926,-32.715,143.066
1687530978.389,-33.203,-34.180,-25.879,-22.949,265.137
1687530978.392,-29.297,-33.691,-26.367,-20.020,-96.680
1687530978.396,-52.246,-29.297,-32.715,-36.621,-172.852
1687530978.400,-56.152,-27.832,-34.180,-42.969,25.391
1687530978.404,-38.086,-25.879,-25.391,-32.227,23.438
1687530978.408,-35.645,-24.902,-27.344,-30.273,-123.047
1687530978.424,-38.574,-28.809,-35.156,-29.785,-131.348
1687530978.428,-54.688,-31.738,-34.668,-41.504,-68.359
1687530978.432,-59.082,-33.691,-36.133,-53.223,-46.875
1687530978.436,-41.504,-34.180,-34.668,-46.875,-96.191
1687530978.440,-35.645,-31.738,-28.320,-39.551,-121.094
1687530978.444,-38.574,-29.297,-26.367,-36.133,144.043
1687530978.448,-55.176,-28.809,-26.855,-41.504,211.426
1687530978.451,-63.965,-27.832,-27.344,-47.852,-74.707
1687530978.455,-49.316,-25.391,-27.344,-48.340,-146.484
1687530978.459,-39.551,-24.902,-24.902,-47.363,138.672
1687530978.463,-44.922,-30.762,-24.902,-30.273,83.496
1687530978.467,-61.523,-29.297,-27.344,-33.203,-218.262
1687530978.469,-63.965,-22.949,-26.367,-43.457,-55.664
1687530978.473,-53.711,-26.855,-26.367,-33.203,19.531
1687530978.477,-41.992,-26.855,-29.785,-41.016,-148.438
1687530978.481,-38.574,-27.832,-28.809,-42.480,-156.250
1687530978.485,-53.711,-32.227,-23.438,-16.113,57.129
1687530978.489,-52.246,-26.855,-28.809,-10.742,94.238
1687530978.493,-46.875,-18.555,-34.180,-44.434,-21.973
1687530978.496,-47.363,-15.625,-36.621,-61.035,-73.730
1687530978.500,-44.434,-17.090,-43.457,-56.641,61.035
1687530978.504,-49.805,-16.602,-44.434,-51.270,231.934
1687530978.508,-55.176,-10.254,-41.504,-56.641,-16.113
1687530978.512,-48.828,-9.277,-43.945,-61.035,-128.906
1687530978.514,-38.086,-12.695,-53.223,-68.359,-146.484
1687530978.518,-29.297,-14.648,-52.246,-66.895,-155.273
1687530978.522,-32.715,-12.207,-39.551,-52.734,-110.840
1687530978.526,-53.223,-10.254,-38.086,-51.270,-111.816
1687530978.530,-46.875,-6.836,-39.551,-50.781,-71.777
1687530978.534,-26.367,-9.766,-35.156,-38.086,-27.344
1687530978.538,-29.297,-18.066,-37.598,-45.410,-23.926
1687530978.541,-31.738,-16.602,-34.180,-44.922,-0.488
1687530978.545,-38.574,-11.719,-26.855,-20.020,194.824
1687530978.549,-40.527,-14.648,-34.668,-14.648,257.324
1687530978.553,-19.531,-18.555,-35.156,-37.109,-105.469
1687530978.557,-15.625,-15.137,-34.180,-48.340,-143.555
1687530978.559,-29.297,-14.648,-37.109,-40.039,54.199
1687530978.563,-42.480,-18.066,-33.203,-41.992,-81.055
1687530978.567,-36.133,-19.043,-26.367,-43.457,-182.129
1687530978.571,-23.438,-18.066,-26.367,-42.969,-97.168
1687530978.575,-22.461,-19.043,-31.250,-47.363,-123.047
1687530978.579,-27.344,-20.996,-29.785,-38.086,-84.473
1687530978.583,-44.922,-20.996,-29.297,-40.527,-43.945
1687530978.586,-53.223,-20.020,-34.180,-46.875,54.688
1687530978.590,-38.086,-13.184,-34.668,-36.621,216.797
1687530978.594,-20.996,-13.672,-32.227,-35.645,4.883
1687530978.598,-29.297,-19.531,-33.691,-47.852,-145.020
1687530978.602,-54.199,-20.020,-33.691,-45.410,-12.207
1687530978.604,-55.176,-19.531,-31.738,-41.016,-30.273
1687530978.608,-37.598,-20.508,-31.250,-41.992,-132.812
1687530978.612,-30.762,-24.902,-34.180,-39.062,-70.312
1687530978.616,-35.645,-24.902,-38.574,-43.945,-11.230
1687530978.620,-46.387,-24.902,-37.109,-45.898,-97.656
1687530978.624,-53.711,-30.762,-36.133,-49.316,-88.867
1687530978.628,-42.480,-28.320,-33.203,-45.898,-41.016
1687530978.631,-28.809,-23.438,-29.785,-43.945,188.477
1687530978.635,-31.738,-25.879,-31.250,-34.668,156.738
1687530978.639,-40.527,-29.785,-33.203,-29.785,-166.992
1687530978.643,-50.781,-31.250,-37.109,-38.086,-38.574
1687530978.647,-42.969,-31.250,-35.156,-34.180,214.355
1687530978.667,-17.578,-31.738,-26.367,-20.020,37.598
1687530978.671,-2.441,-25.879,-27.344,-19.043,-161.621
1687530978.675,-17.578,-18.066,-34.180,-40.527,-105.957
1687530978.679,-45.898,-18.066,-39.062,-53.711,-125.977
1687530978.683,-37.109,-15.137,-45.410,-48.828,-109.863
1687530978.687,-21.973,-11.230,-58.105,-50.781,-136.230
1687530978.691,-29.785,-4.395,-66.895,-65.430,61.523
1687530978.694,-40.527,0.977,-68.359,-63.477,239.258
1687530978.698,-48.828,4.883,-69.824,-71.777,-35.645
1687530978.702,-39.062,11.230,-74.219,-80.078,-97.168
1687530978.706,-26.367,17.090,-79.590,-74.219,-1.465
1687530978.710,-23.438,24.414,-83.008,-65.918,-57.617
1687530978.695,-30.273,28.809,-83.984,-61.523,-104.980
1687530978.699,-43.457,30.273,-84.473,-74.219,-19.043
1687530978.703,-42.969,28.320,-90.332,-78.125,89.355
1687530978.707,-21.973,31.250,-93.750,-66.895,13.672
1687530978.711,-17.090,36.621,-95.215,-61.035,-96.680
1687530978.715,-27.344,38.574,-98.633,-64.941,-42.480
1687530978.719,-39.062,39.551,-99.121,-64.941,125.977
1687530978.722,-36.133,37.109,-100.098,-62.988,61.523
1687530978.726,-16.602,35.645,-103.027,-71.289,-141.113
1687530978.730,-15.625,33.691,-104.492,-73.242,-48.340
1687530978.734,-24.414,32.715,-104.004,-61.523,155.762
1687530978.738,-34.668,39.062,-97.656,-75.195,56.641
1687530978.739,-32.227,38.574,-92.285,-80.078,-156.738
1687530978.743,-22.949,32.715,-93.262,-71.289,-88.867
1687530978.747,-18.555,30.273,-92.773,-66.406,-28.809
1687530978.751,-11.719,24.414,-89.844,-49.316,-84.961
1687530978.755,-26.855,18.555,-85.938,-49.316,-165.039
1687530978.759,-46.875,21.484,-77.148,-52.734,-19.043
1687530978.763,-23.926,24.902,-68.848,-52.734,298.340
1687530978.766,-2.441,24.902,-65.918,-53.711,48.340
1687530978.770,-10.254,20.020,-64.941,-46.387,-195.801
1687530978.774,-20.020,19.043,-65.430,-49.316,-80.078
1687530978.778,-17.090,22.949,-62.500,-53.711,-48.828
1687530978.782,2.930,25.391,-60.547,-49.805,-199.707
1687530978.800,18.555,23.438,-58.105,-56.641,-163.574
1687530978.804,35.645,20.508,-57.617,-47.363,-114.258
1687530978.808,21.484,16.602,-56.641,-41.992,-123.535
1687530978.812,0.977,13.184,-51.758,-52.734,-101.074
1687530978.816,12.695,12.207,-43.457,-42.969,-102.051
1687530978.820,17.090,8.789,-42.480,-41.504,-44.922
1687530978.824,9.277,5.859,-45.410,-46.387,-43.945
1687530978.827,-15.625,6.836,-44.434,-36.621,3.418
1687530978.831,-31.250,6.348,-44.922,-43.457,-29.297
1687530978.835,-24.902,1.465,-40.039,-42.480,248.047
1687530978.839,-17.090,-3.418,-34.668,-21.484,415.039
1687530978.843,-10.742,-6.348,-38.086,-24.902,-53.223
1687530978.844,-17.578,-9.277,-38.086,-21.484,-126.953
1687530978.848,-35.156,-12.695,-34.180,-14.160,-98.633
1687530978.852,-26.367,-16.113,-38.086,-27.832,-187.988
1687530978.856,-16.113,-14.160,-35.645,-33.203,-145.508
1687530978.860,-13.672,-10.742,-29.297,-21.973,-41.504
1687530978.864,-18.555,-14.648,-32.227,-17.578,13.184
1687530978.868,-33.691,-19.043,-38.574,-32.715,-8.301
1687530978.871,-29.785,-18.066,-36.133,-42.969,-94.727
1687530978.875,-15.625,-11.719,-28.809,-37.598,20.020
1687530978.879,-16.113,-7.812,-29.785,-31.738,314.941
1687530978.883,-30.762,-12.695,-35.645,-34.668,69.336
1687530978.887,-45.410,-14.160,-34.668,-43.945,-82.031
1687530978.889,-42.480,-9.766,-26.855,-43.945,-49.316
1687530978.893,-25.391,-14.160,-21.484,-28.320,-124.512
1687530978.897,-16.113,-17.090,-18.066,-31.250,-136.230
1687530978.901,-32.715,-19.531,-22.949,-43.945,-108.398
1687530978.905,-54.199,-23.438,-26.367,-42.969,-33.203
1687530978.909,-42.969,-22.949,-21.973,-40.039,38.574
1687530978.913,-29.297,-20.020,-23.438,-29.785,24.414
1687530978.916,-27.832,-19.043,-27.832,-29.785,-80.078
1687530978.920,-33.691,-21.973,-28.320,-27.344,150.391
1687530978.924,-42.969,-25.879,-24.414,-27.344,138.672
1687530978.928,-39.551,-24.902,-23.438,-34.668,-79.102
1687530978.932,-18.066,-26.855,-22.461,-30.762,33.203
1687530978.934,-10.254,-32.715,-24.902,-29.297,194.824
1687530978.938,-18.066,-29.297,-21.973,-21.484,35.156
1687530978.942,-33.203,-26.367,-21.484,-28.809,-185.059
1687530978.946,-28.320,-26.855,-25.391,-35.156,-56.152
1687530978.950,-8.301,-29.785,-28.320,-26.367,-30.273
1687530978.954,0.977,-30.762,-32.227,-30.762,-48.340
1687530978.958,6.836,-26.855,-28.809,-32.715,-30.273
1687530978.961,-4.395,-23.926,-27.832,-27.344,76.172
1687530978.965,-12.207,-21.484,-28.320,-23.438,168.945
1687530978.969,3.418,-20.508,-23.438,-22.949,-104.004
1687530978.973,21.973,-20.020,-14.648,-16.602,-202.637
1687530978.977,20.020,-22.949,-12.207,-7.324,-147.949
1687530978.980,4.395,-32.715,-20.020,0.000,-119.629
1687530978.984,9.766,-35.645,-25.391,7.324,-137.207
1687530978.988,20.996,-24.414,-28.320,2.930,-212.402
1687530978.992,14.648,-20.020,-25.391,-0.977,-111.328
1687530978.996,7.324,-23.438,-20.996,4.883,-19.043
1687530979.000,3.418,-23.438,-21.973,2.930,-33.203
1687530979.004,-2.441,-20.020,-30.273,-9.277,13.184
1687530979.007,10.254,-16.113,-31.738,0.977,187.988
1687530979.011,25.879,-11.719,-31.250,6.348,40.527
1687530979.015,29.297,-5.371,-33.691,-0.977,-120.605
1687530979.019,20.508,-2.441,-28.809,14.648,21.973
1687530979.023,6.348,-8.789,-27.832,21.484,11.719
1687530979.025,9.277,-13.184,-30.762,-0.977,-88.379
1687530979.029,28.320,-8.789,-28.320,-11.719,-143.066
1687530979.033,26.855,-7.324,-24.414,-2.930,-7.324
1687530979.037,8.301,-9.766,-24.414,0.488,32.227
1687530979.041,-0.488,-14.648,-23.926,-1.953,-118.164
1687530979.045,9.766,-14.160,-20.996,-10.254,-98.633
1687530979.049,25.391,-10.742,-19.531,-9.766,65.430
1687530979.052,22.461,-12.695,-22.461,7.812,198.730
1687530979.056,15.137,-14.160,-25.879,18.066,50.781
1687530979.060,2.930,-17.578,-25.391,-4.883,-119.141
1687530979.064,-5.371,-19.043,-21.973,-23.438,-62.988
1687530979.068,2.441,-20.996,-21.973,-12.695,-52.246
1687530979.069,5.371,-27.344,-24.414,-6.348,-128.906
1687530979.073,-1.465,-31.738,-27.832,-8.789,-43.457
1687530979.077,-16.602,-32.227,-31.738,-7.324,-19.531
1687530979.081,-19.531,-33.203,-29.297,-21.484,-94.238
1687530979.085,-6.836,-33.691,-25.391,-29.785,-89.844
1687530979.089,0.977,-33.691,-29.785,-15.137,-38.086
1687530979.093,-6.836,-34.668,-31.250,-1.953,231.445
1687530979.096,-17.090,-30.762,-30.762,-10.254,220.215
1687530979.100,-20.996,-29.785,-33.203,-17.578,-121.094
1687530979.104,-9.277,-28.320,-26.855,-16.602,-141.113
1687530979.108,0.977,-30.273,-27.344,-13.184,219.238
1687530979.112,-7.324,-34.180,-30.762,0.488,154.297
1687530979.122,-20.508,-33.691,-31.250,-1.953,-171.875
1687530979.126,-26.367,-36.621,-37.109,-12.695,-108.887
1687530979.130,-3.418,-40.039,-40.039,-3.418,-68.848
1687530979.134,22.949,-35.156,-37.598,2.930,-83.008
1687530979.138,14.160,-31.738,-33.691,0.000,-110.352
1687530979.142,-8.301,-32.227,-37.109,17.578,127.930
1687530979.146,-15.625,-33.203,-42.480,11.230,186.523
1687530979.149,-1.465,-32.715,-42.969,-18.555,-53.711
1687530979.153,9.766,-31.738,-41.992,-16.113,-155.762
1687530979.157,15.625,-32.227,-42.480,-7.812,-3.906
1687530979.161,2.441,-34.180,-41.016,-11.719,123.047
1687530979.165,-14.648,-36.133,-41.992,-13.672,-130.371
1687530979.174,0.977,-33.203,-40.527,-1.953,-149.414
1687530979.178,11.230,-36.621,-34.180,2.441,-19.043
1687530979.182,6.348,-43.945,-36.133,0.488,-14.648
1687530979.186,0.488,-45.410,-39.551,-3.906,-80.566
1687530979.190,-0.977,-47.852,-42.480,-10.742,-68.359
1687530979.194,8.301,-47.852,-40.527,-4.395,-6.348
1687530979.198,18.555,-44.922,-43.945,-7.812,38.086
1687530979.201,19.531,-41.992,-46.875,-13.672,-47.852
1687530979.205,6.836,-41.992,-43.457,-4.883,-123.047
1687530979.209,-19.531,-46.387,-44.922,5.859,237.793
1687530979.213,-16.113,-46.875,-43.945,2.930,260.254
1687530979.217,7.324,-44.434,-43.457,-12.207,-155.762
1687530979.220,22.949,-43.945,-43.457,-7.812,-137.695
1687530979.224,15.625,-43.945,-43.457,-4.883,-23.926
1687530979.228,-0.977,-47.363,-47.852,-15.137,-128.418
1687530979.232,1.465,-49.805,-47.363,-14.160,-116.699
1687530979.236,16.113,-46.875,-39.551,1.953,-13.672
1687530979.240,21.484,-47.852,-48.340,-10.254,87.891
1687530979.244,21.973,-45.898,-57.617,-9.277,102.539
1687530979.247,28.320,-37.109,-52.246,23.926,-62.988
1687530979.251,33.691,-42.969,-36.133,22.461,18.555
1687530979.255,17.578,-59.082,-28.809,8.789,174.805
1687530979.259,3.418,-66.406,-30.762,1.953,-75.195
1687530979.263,-12.207,-71.777,-26.855,-3.418,-124.023
1687530979.264,-33.691,-74.707,-24.414,-2.930,53.223
1687530979.268,-33.691,-80.078,-13.184,-12.207,6.836
1687530979.272,-28.809,-88.379,-10.254,-17.578,-117.188
1687530979.276,-29.297,-91.797,-11.719,-14.160,-90.820
1687530979.280,-38.574,-98.145,1.465,-4.395,-65.430
1687530979.284,-54.199,-104.980,5.371,11.719,60.547
1687530979.288,-57.129,-115.723,1.953,1.465,40.527
1687530979.291,-41.016,-122.559,5.371,-11.230,-101.562
1687530979.295,-33.203,-120.117,9.766,6.836,152.344
1687530979.299,-43.945,-131.836,14.648,9.277,184.082
1687530979.303,-54.688,-134.766,13.184,6.836,-107.910
1687530979.307,-58.105,-132.324,16.602,13.184,-99.121
1687530979.311,-52.734,-138.672,20.020,12.207,45.410
1687530979.315,-45.410,-145.508,19.043,11.230,-51.270
1687530979.319,-48.340,-146.484,11.230,18.555,-147.949
1687530979.323,-67.871,-142.578,7.324,12.207,2.930
1687530979.327,-69.336,-140.137,6.836,-8.301,18.066
1687530979.331,-48.828,-134.277,2.441,-20.020,-62.012
1687530979.335,-33.691,-123.047,4.883,-5.371,-45.898
1687530979.338,-40.527,-120.117,1.465,8.789,100.098
1687530979.342,-51.758,-124.512,-5.371,20.020,202.148
1687530979.346,-48.340,-119.629,-4.883,5.371,-57.129
1687530979.350,-44.434,-115.234,-6.348,0.000,-147.949
1687530979.354,-26.367,-112.793,-9.766,12.207,-104.492
1687530979.354,-19.531,-110.840,-11.230,8.789,-80.078
1687530979.358,-35.645,-108.398,-10.742,16.113,-97.656
1687530979.362,-44.922,-103.027,-13.184,14.160,-109.863
1687530979.366,-35.156,-95.703,-16.113,9.277,-22.949
1687530979.370,-18.066,-93.750,-19.531,16.113,3.418
1687530979.374,-14.160,-93.750,-23.438,23.926,-41.992
1687530979.378,-20.020,-93.262,-29.297,22.461,-85.938
1687530979.381,-24.414,-96.191,-36.621,27.832,174.805
1687530979.385,-12.695,-90.820,-34.180,32.715,181.641
1687530979.389,3.418,-83.496,-35.156,21.973,-107.422
1687530979.393,11.230,-84.961,-41.504,23.926,4.395
1687530979.397,2.930,-83.496,-40.527,13.672,118.652
1687530979.399,-11.230,-75.195,-36.133,1.953,-34.180
1687530979.403,-3.418,-71.777,-38.574,7.324,-203.125
1687530979.407,17.090,-71.289,-40.039,9.766,-142.578
1687530979.411,24.902,-69.824,-41.504,5.859,-111.328
1687530979.415,14.648,-67.871,-41.992,12.207,-165.039
1687530979.419,0.977,-69.824,-40.039,24.414,-93.262
1687530979.423,7.324,-70.312,-42.480,27.832,117.676
1687530979.426,17.090,-70.801,-41.992,37.598,304.688
1687530979.430,28.809,-70.312,-43.457,37.109,-17.578
1687530979.434,24.902,-67.871,-51.270,29.297,-257.324
1687530979.438,-3.906,-68.848,-51.758,26.855,-94.727
1687530979.442,-0.977,-68.359,-53.223,21.973,-51.270
1687530979.444,13.184,-67.383,-60.059,20.020,-152.832
1687530979.448,16.602,-63.965,-57.617,20.508,-162.598
1687530979.452,17.090,-64.453,-55.664,22.461,-111.816
1687530979.456,11.719,-65.430,-57.129,17.578,-110.352
1687530979.460,4.883,-61.523,-60.059,7.812,-186.035
1687530979.464,12.207,-61.523,-62.988,8.301,-193.359
1687530979.468,20.020,-60.059,-61.523,15.625,127.441
1687530979.471,18.555,-57.617,-61.523,13.672,171.387
1687530979.475,6.348,-55.176,-63.477,7.324,-172.852
1687530979.479,-6.836,-55.664,-68.359,4.395,-88.867
1687530979.483,6.836,-55.176,-63.965,5.371,117.676
1687530979.487,23.438,-56.641,-57.129,8.789,-26.367
1687530979.489,15.137,-61.035,-58.594,17.578,-221.191
1687530979.493,5.371,-56.641,-57.617,27.344,-114.258
1687530979.497,1.465,-56.152,-58.105,29.297,-31.250
1687530979.501,7.324,-60.059,-58.105,13.672,-144.043
1687530979.505,10.742,-61.523,-60.059,-2.930,-189.453
1687530979.509,6.348,-62.012,-57.129,9.766,75.195
1687530979.513,-12.695,-61.035,-55.176,17.578,201.172
1687530979.516,-29.297,-65.430,-61.035,5.859,-59.082
1687530979.520,-20.020,-64.453,-61.523,-5.859,-147.461
1687530979.524,-11.230,-56.641,-56.641,0.977,7.324
1687530979.528,0.488,-57.129,-58.105,10.254,16.113
1687530979.532,-1.465,-57.617,-61.035,-5.371,-107.910
1687530979.549,-2.441,-51.270,-60.059,-9.277,-45.898
1687530979.553,15.625,-48.828,-57.617,-8.789,53.711
1687530979.557,27.832,-56.641,-64.941,-12.695,14.648
1687530979.561,41.016,-57.617,-71.777,-5.371,-95.703
1687530979.565,27.832,-54.199,-71.289,-3.906,-27.344
1687530979.569,1.953,-58.594,-71.777,-2.441,110.352
1687530979.573,14.648,-60.059,-74.707,8.789,125.000
1687530979.576,22.949,-64.453,-63.965,6.836,-84.473
1687530979.580,-0.488,-72.266,-54.688,4.395,-177.246
1687530979.584,-17.578,-71.289,-57.129,14.648,205.078
1687530979.588,-29.785,-63.477,-63.477,9.277,211.426
1687530979.592,-17.578,-63.477,-64.941,-3.906,-173.828
1687530979.595,-1.465,-64.453,-65.430,0.488,-104.004
1687530979.599,0.977,-62.988,-65.918,11.719,-62.988
1687530979.603,-3.906,-65.430,-64.941,4.395,-39.551
1687530979.607,-16.113,-61.523,-62.500,2.930,-93.750
1687530979.611,-9.277,-57.129,-62.988,13.184,-51.270
1687530979.615,3.418,-60.059,-61.523,4.883,46.875
1687530979.619,10.254,-63.965,-57.617,1.953,-118.164
1687530979.622,6.836,-57.617,-55.176,14.648,-173.340
1687530979.626,-13.672,-54.199,-57.129,15.625,38.574
1687530979.630,-27.344,-57.617,-59.570,4.395,207.031
1687530979.634,-17.578,-55.664,-58.105,-1.465,-102.051
1687530979.638,-11.230,-55.176,-56.152,-4.883,-211.914
1687530979.639,-5.371,-51.758,-54.688,-4.883,-144.043
1687530979.643,-12.695,-53.711,-60.059,1.953,-124.023
1687530979.647,-19.043,-62.012,-64.453,2.930,-104.980
1687530979.651,2.930,-60.059,-66.895,-3.906,-124.512
1687530979.655,11.719,-55.176,-62.988,1.953,-113.770
1687530979.659,-0.488,-55.664,-64.941,8.301,-62.988
1687530979.663,-13.672,-56.641,-67.383,-6.836,78.125
1687530979.666,-16.113,-59.570,-68.848,-21.484,-28.809
1687530979.670,-3.906,-60.059,-67.871,-8.301,140.137
1687530979.674,-0.488,-60.059,-61.523,-12.695,269.531
1687530979.678,-2.441,-53.711,-60.059,0.000,-36.621
1687530979.682,-10.254,-44.922,-58.594,7.324,-51.758
1687530979.684,-22.949,-49.805,-57.617,-6.836,35.645
1687530979.688,-17.578,-54.199,-54.199,-3.418,-45.410
1687530979.692,-8.789,-59.082,-56.641,-8.789,-135.254
1687530979.696,-10.254,-60.059,-59.570,-10.254,-46.387
1687530979.700,-14.648,-57.617,-65.430,-5.371,39.062
1687530979.704,-22.949,-62.500,-68.848,-5.371,-10.742
1687530979.708,-14.160,-58.105,-64.941,-5.859,-88.379
1687530979.711,-0.977,-50.293,-65.430,5.371,72.754
1687530979.715,-9.277,-52.246,-66.406,6.348,315.918
1687530979.719,-16.602,-53.223,-62.988,-8.789,12.207
1687530979.723,-21.484,-55.176,-62.012,-20.020,-105.957
1687530979.727,-12.207,-52.246,-62.988,-19.531,-23.926
1687530979.729,1.953,-49.316,-58.594,-16.113,-104.492
1687530979.733,5.371,-53.711,-54.199,-13.184,-175.781
1687530979.737,-4.395,-57.617,-55.176,-2.930,-164.062
1687530979.741,-8.789,-63.477,-55.664,4.883,-44.922
1687530979.745,1.465,-63.965,-53.223,7.324,-62.500
1687530979.749,10.254,-61.035,-53.711,8.301,-30.762
1687530979.753,15.137,-62.012,-59.082,1.953,102.539
1687530979.756,7.324,-60.059,-57.129,7.324,244.141
1687530979.760,-6.836,-56.152,-56.152,8.301,161.133
1687530979.764,0.488,-57.617,-60.547,-2.930,-82.520
1687530979.768,17.578,-50.781,-54.688,-3.418,-91.797
1687530979.772,19.043,-52.246,-50.293,6.836,148.926
1687530979.774,-0.977,-61.523,-54.199,2.441,104.492
1687530979.778,-13.184,-58.105,-56.152,-9.277,-153.809
1687530979.782,-3.418,-53.711,-55.176,-6.836,-145.996
1687530979.786,10.742,-52.246,-50.293,1.953,-52.246
1687530979.790,21.484,-53.711,-45.898,12.695,-83.984
1687530979.794,8.789,-55.176,-43.945,12.207,-62.012
1687530979.798,-16.113,-56.641,-47.363,13.184,208.008
1687530979.801,-20.020,-60.547,-48.340,3.418,244.629
1687530979.805,0.488,-57.617,-46.875,-14.648,-91.309
1687530979.809,1.465,-48.828,-46.875,-2.441,-173.828
1687530979.813,-9.277,-45.410,-48.828,1.465,-98.145
1687530979.817,-15.625,-46.387,-52.246,-9.277,-36.133
1687530979.819,-21.973,-48.340,-55.664,-13.184,-65.918
1687530979.823,-12.695,-53.223,-58.105,-18.555,-166.016
1687530979.827,3.418,-53.711,-58.105,-13.672,-67.383
1687530979.831,-1.953,-52.246,-58.105,-10.742,-27.344
1687530979.835,-13.184,-52.734,-56.641,-11.230,-80.566
1687530979.839,-10.742,-51.270,-55.176,-15.625,32.227
1687530979.843,1.953,-47.363,-54.199,-13.672,245.117
1687530979.846,11.719,-47.363,-56.641,-1.465,108.398
1687530979.850,11.230,-46.387,-58.105,-5.859,-200.684
1687530979.854,-4.883,-46.387,-54.199,-10.742,-90.332
1687530979.858,-18.555,-46.875,-52.734,-5.371,75.684
1687530979.862,-6.348,-43.457,-54.199,-11.230,-84.473
1687530979.865,1.953,-45.898,-52.246,-12.695,-197.266
1687530979.869,2.441,-47.363,-52.246,-7.324,-79.102
1687530979.873,-6.348,-50.293,-55.176,-5.859,-30.273
1687530979.877,-18.555,-50.293,-55.664,-15.625,-117.188
1687530979.881,-4.883,-42.969,-53.711,-23.438,-161.133
1687530979.885,9.766,-41.504,-53.711,-10.742,83.496
1687530979.889,0.000,-44.922,-60.547,-18.066,295.898
1687530979.892,-25.391,-43.945,-58.105,-26.367,27.344
1687530979.896,-37.109,-43.945,-53.711,-21.484,-156.250
1687530979.900,-28.809,-47.852,-54.688,-23.438,-28.320
1687530979.904,-28.320,-51.270,-56.641,-22.949,-33.691
1687530979.908,-22.461,-53.223,-61.523,-21.973,-162.598
1687530979.924,-26.855,-50.293,-63.965,-30.273,-155.273
1687530979.928,-41.016,-49.316,-61.035,-27.344,-97.168
1687530979.932,-22.461,-46.875,-51.758,-12.695,-59.082
1687530979.936,-2.930,-44.922,-52.246,-17.090,-96.680
1687530979.940,2.441,-45.898,-53.223,-20.996,-31.250
1687530979.944,-15.137,-48.828,-53.223,-9.766,245.117
1687530979.948,-34.668,-47.852,-55.664,-4.883,284.180
1687530979.951,-23.926,-46.875,-55.176,-3.906,-33.691
1687530979.955,-5.371,-46.875,-52.246,-12.695,-177.246
1687530979.959,0.000,-42.480,-53.223,-20.996,27.832
1687530979.963,-12.695,-42.969,-53.711,-15.625,72.754
1687530979.967,-27.344,-43.945,-50.781,-18.066,-137.695
1687530979.969,-24.414,-42.480,-52.734,-23.438,-179.199
1687530979.973,-12.207,-41.016,-52.734,-27.832,-86.914
1687530979.977,-2.930,-40.039,-53.711,-24.414,-150.391
1687530979.981,-7.812,-41.016,-53.223,-16.113,-167.480
1687530979.985,-20.020,-41.504,-49.316,-21.484,-27.344
1687530979.989,-14.160,-37.598,-51.758,-34.668,23.926
1687530979.993,-9.277,-36.621,-57.617,-34.668,-41.016
1687530979.996,1.953,-36.133,-56.641,-30.762,-87.402
1687530980.000,-1.953,-34.180,-58.105,-25.879,54.688
1687530980.004,-25.391,-39.551,-57.617,-24.414,265.625
1687530980.008,-25.879,-39.062,-57.617,-27.344,31.738
1687530980.012,-14.648,-38.574,-56.641,-36.133,-197.266
1687530980.014,-8.301,-38.574,-53.223,-38.086,-125.488
1687530980.018,-8.789,-38.574,-52.246,-31.250,-76.172
1687530980.022,-28.320,-39.551,-52.246,-35.645,-81.543
1687530980.026,-32.227,-40.527,-49.805,-37.598,-122.070
1687530980.030,-20.020,-46.875,-48.828,-34.668,-138.672
1687530980.034,-16.602,-42.969,-49.316,-24.414,-91.797
1687530980.038,-25.391,-41.992,-46.875,-21.973,1.953
1687530980.041,-38.086,-46.387,-44.922,-27.832,-91.309
1687530980.045,-38.574,-47.852,-41.992,-30.273,151.855
1687530980.049,-33.203,-51.758,-42.480,-37.598,336.914
1687530980.053,-24.414,-50.293,-42.480,-37.598,-61.523
1687530980.057,-15.137,-45.410,-43.457,-21.484,-119.629
1687530980.059,-18.555,-44.434,-44.922,-17.578,-14.648
1687530980.063,-27.344,-44.922,-47.852,-29.785,-116.699
1687530980.067,-17.090,-41.504,-49.805,-37.598,-186.523
1687530980.071,-4.883,-36.621,-47.852,-24.902,-163.574
1687530980.075,-7.324,-37.109,-43.945,-14.648,-118.652
1687530980.079,-25.879,-38.086,-47.852,-30.762,-90.820
1687530980.083,-27.344,-42.480,-51.758,-28.320,-52.734
1687530980.086,-20.996,-48.828,-42.969,-15.625,92.773
1687530980.090,-27.344,-46.387,-43.945,-28.320,151.367
1687530980.094,-21.484,-43.945,-49.316,-33.691,-94.238
1687530980.098,-45.410,-46.875,-49.316,-41.992,-153.809
1687530980.102,-52.246,-46.387,-49.805,-39.062,53.711
1687530980.104,-24.902,-45.410,-47.363,-33.691,8.301
1687530980.108,-22.949,-48.340,-46.875,-40.039,-170.410
1687530980.112,-28.320,-46.387,-49.316,-31.738,-155.273
1687530980.116,-35.156,-41.016,-47.852,-28.320,-52.246
1687530980.120,-53.223,-42.969,-42.480,-36.133,-37.598
1687530980.124,-48.828,-44.434,-42.480,-38.086,-79.102
1687530980.128,-23.438,-41.504,-41.992,-34.668,-27.344
1687530980.131,-18.066,-42.480,-40.527,-23.926,155.273
1687530980.135,-30.762,-44.434,-43.945,-28.320,107.910
1687530980.139,-46.875,-40.039,-43.457,-39.551,-42.480
1687530980.143,-43.945,-33.203,-28.809,-32.715,-8.789
1687530980.147,-24.414,-28.320,-22.949,-27.344,-17.578
1687530980.150,-10.254,-23.438,-26.855,-29.785,-35.156
1687530980.154,-13.184,-22.461,-28.809,-20.508,-78.125
1687530980.158,-19.043,-25.879,-32.715,-13.184,-13.672
1687530980.162,-13.672,-28.320,-29.785,-23.438,14.648
1687530980.166,-6.348,-25.391,-30.273,-31.738,-107.422
1687530980.170,-9.766,-30.762,-33.203,-27.344,-145.996
1687530980.174,-16.602,-33.691,-35.156,-15.137,40.039
1687530980.177,-29.297,-28.320,-33.203,-11.719,198.730
1687530980.181,-35.645,-25.879,-31.738,-26.367,-40.039
1687530980.185,-22.461,-27.832,-41.016,-23.438,-210.938
1687530980.189,-9.766,-29.785,-41.016,-16.602,-160.645
1687530980.193,-13.672,-26.855,-38.574,-28.320,-124.512
1687530980.209,-26.855,-29.297,-37.598,-31.738,-135.254
1687530980.213,-38.086,-34.180,-32.227,-32.715,-142.578
1687530980.217,-30.762,-36.621,-36.133,-33.691,-91.309
1687530980.221,-16.602,-36.133,-40.527,-28.320,-118.164
1687530980.225,-20.020,-38.086,-39.551,-31.250,-142.578
1687530980.229,-37.109,-40.039,-43.457,-39.062,-100.098
1687530980.233,-39.062,-41.504,-43.945,-36.133,231.445
1687530980.236,-27.832,-43.457,-45.898,-46.387,331.055
1687530980.240,-29.297,-44.922,-53.223,-53.223,-96.680
1687530980.244,-38.574,-43.457,-57.129,-46.387,-51.758
1687530980.248,-52.734,-42.480,-57.617,-40.039,178.223
1687530980.252,-58.594,-45.898,-55.176,-46.875,3.906
1687530980.239,-50.781,-48.828,-55.176,-57.129,-146.484
1687530980.243,-37.598,-44.434,-57.617,-53.711,-61.035
1687530980.247,-32.227,-39.551,-56.152,-51.270,-27.344
1687530980.251,-39.551,-40.039,-58.594,-53.223,-150.391
1687530980.255,-47.852,-41.016,-59.082,-54.199,-208.984
1687530980.259,-37.109,-36.621,-53.711,-48.340,-37.598
1687530980.263,-18.066,-34.668,-52.246,-50.781,33.203
1687530980.266,-20.020,-34.180,-48.340,-50.781,-10.254
1687530980.270,-42.969,-37.109,-46.875,-48.340,-93.750
1687530980.274,-61.035,-40.039,-48.828,-48.340,40.039
1687530980.278,-57.617,-36.621,-48.828,-38.574,275.879
1687530980.282,-44.434,-40.039,-48.340,-49.316,33.691
1687530980.300,-42.480,-43.457,-48.828,-49.316,-116.211
1687530980.304,-53.711,-40.039,-48.340,-37.598,-44.922
1687530980.308,-64.941,-41.992,-48.828,-51.270,-44.922
1687530980.312,-56.152,-43.945,-50.781,-56.641,-124.023
1687530980.316,-35.156,-41.504,-50.781,-51.270,-125.488
1687530980.320,-25.879,-39.551,-50.781,-49.316,64.453
1687530980.324,-19.531,-35.645,-49.316,-46.875,109.863
1687530980.327,-18.555,-36.621,-49.805,-46.875,-10.254
1687530980.331,-13.672,-35.156,-50.293,-47.852,-45.898
1687530980.335,-10.254,-29.785,-51.758,-47.363,280.273
1687530980.339,-18.066,-30.762,-51.758,-52.734,397.949
1687530980.343,-24.902,-30.273,-51.270,-50.781,-75.195
1687530980.768,-46.875,-33.203,-46.875,-52.246,-152.832
1687530980.772,-56.641,-38.574,-48.340,-52.734,-60.547
1687530980.776,-32.715,-33.203,-53.223,-46.875,-159.180
1687530980.780,-27.344,-33.203,-52.246,-51.270,-168.945
1687530980.784,-41.016,-40.039,-51.270,-50.781,-82.031
1687530980.788,-52.734,-34.668,-51.270,-37.109,51.270
1687530980.792,-59.082,-37.109,-48.340,-37.598,-34.180
1687530980.795,-46.387,-40.527,-47.363,-43.945,-213.867
1687530980.799,-35.156,-33.203,-46.875,-42.969,-29.297
1687530980.803,-37.598,-36.621,-43.945,-31.250,151.367
1687530980.807,-49.316,-34.180,-37.109,-25.391,15.137
1687530980.811,-52.734,-31.738,-36.133,-37.598,-153.320
1687530980.770,-40.039,-38.574,-36.621,-41.016,-118.652
1687530980.774,-34.180,-40.527,-34.180,-43.945,-20.996
1687530980.778,-33.203,-41.992,-39.551,-44.922,-119.141
1687530980.782,-38.086,-37.598,-40.039,-25.879,-178.223
1687530980.786,-48.340,-35.156,-34.668,-32.227,-145.020
1687530980.790,-44.922,-40.039,-32.715,-50.781,-123.535
1687530980.794,-30.273,-38.574,-35.645,-47.363,-96.191
1687530980.797,-30.762,-36.133,-35.645,-48.828,-73.730
1687530980.801,-48.828,-36.621,-35.156,-48.340,133.301
1687530980.805,-59.570,-36.621,-38.086,-46.387,221.680
1687530980.809,-40.527,-32.227,-37.109,-50.781,-110.840
1687530980.813,-33.691,-31.250,-36.133,-56.152,-131.348
1687530980.821,-42.969,-37.598,-41.992,-50.781,106.445
1687530980.825,-46.875,-39.062,-40.039,-44.922,15.625
1687530980.829,-56.641,-39.551,-36.133,-51.758,-151.855
1687530980.833,-52.734,-42.480,-38.574,-43.945,-79.102
1687530980.837,-33.691,-41.504,-36.133,-34.668,-15.137
1687530980.841,-22.461,-40.527,-29.297,-35.645,-57.617
1687530980.845,-42.969,-43.457,-32.227,-41.504,-46.875
1687530980.848,-66.895,-44.922,-41.016,-50.781,131.348
1687530980.852,-60.547,-41.504,-41.504,-51.270,151.367
1687530980.856,-45.898,-38.574,-41.504,-56.641,-89.355
1687530980.860,-41.504,-34.180,-42.480,-56.641,-104.492
1687530980.864,-50.781,-32.715,-38.086,-45.898,-30.273
1687530980.823,-62.012,-35.156,-38.086,-46.387,-70.801
1687530980.827,-54.688,-35.156,-39.551,-47.852,-122.070
1687530980.831,-37.598,-37.598,-39.062,-47.852,-145.508
1687530980.835,-24.414,-38.086,-41.992,-38.574,-30.762
1687530980.839,-29.297,-36.133,-38.086,-30.762,-1.465
1687530980.843,-42.480,-35.645,-36.133,-35.645,-48.828
1687530980.847,-40.527,-34.668,-36.133,-34.668,-111.328
1687530980.850,-28.809,-34.668,-37.109,-33.691,129.395
1687530980.854,-22.461,-37.598,-42.480,-30.273,173.828
1687530980.858,-19.531,-32.227,-39.062,-19.043,-95.703
1687530980.862,-31.738,-30.762,-40.039,-23.926,-54.199
1687530980.866,-42.480,-36.133,-40.039,-33.203,5.371
1687530980.825,-33.203,-36.621,-35.645,-38.574,-66.895
1687530980.829,-26.855,-34.180,-34.668,-50.293,-113.281
1687530980.833,-34.668,-25.391,-32.715,-49.805,5.371
1687530980.837,-45.898,-23.438,-30.762,-35.156,-16.602
1687530980.841,-43.457,-26.367,-32.227,-32.715,-90.820
1687530980.845,-36.133,-28.809,-37.598,-58.105,-96.191
1687530980.849,-29.785,-32.715,-37.109,-65.918,96.680
1687530980.852,-32.715,-36.133,-39.551,-49.316,367.676
1687530980.856,-46.875,-36.621,-41.992,-51.270,104.492
1687530980.860,-57.617,-37.598,-37.598,-62.500,-178.711
1687530980.864,-53.711,-38.574,-33.691,-60.547,-108.887
1687530980.868,-38.574,-35.645,-27.832,-48.340,-114.258
1687530980.831,-31.738,-30.762,-25.391,-52.734,-187.500
1687530980.835,-36.133,-31.250,-26.367,-52.246,-149.414
1687530980.839,-23.926,-30.273,-27.832,-35.156,-115.234
1687530980.843,-4.395,-18.555,-37.598,-43.945,-104.980
1687530980.847,-11.719,-13.672,-41.992,-55.664,-90.820
1687530980.851,-14.648,-14.648,-42.480,-47.363,41.504
1687530980.855,-17.578,-10.742,-50.781,-34.668,308.105
1687530980.858,-37.109,-4.883,-62.012,-33.691,287.109
1687530980.862,-27.344,2.441,-63.965,-53.223,-3.418
1687530980.866,-7.324,8.301,-66.895,-64.941,-69.336
1687530980.870,-12.695,9.766,-72.754,-62.012,198.242
1687530980.874,-27.344,13.672,-80.566,-65.918,172.852
1687530980.833,-34.668,17.090,-82.520,-74.219,-140.137
1687530980.837,-39.062,20.996,-83.496,-83.008,-128.418
1687530980.841,-40.039,25.391,-91.309,-85.449,-79.102
1687530980.845,-26.855,26.367,-93.750,-77.637,-164.062
1687530980.849,-38.086,28.320,-98.145,-83.496,-165.039
1687530980.853,-48.828,33.203,-100.098,-90.332,97.168
1687530980.857,-35.645,39.062,-104.004,-93.262,122.070
1687530980.860,-32.715,40.527,-110.840,-95.215,-98.145
1687530980.864,-25.879,41.992,-108.398,-85.449,-145.508
1687530980.868,-33.203,42.969,-107.422,-79.102,30.762
1687530980.872,-54.199,41.504,-109.375,-82.031,185.547
1687530980.876,-42.969,44.922,-105.957,-92.285,-41.016
1687530980.836,-18.555,47.852,-106.445,-82.520,-158.203
