timestamps,TP9,AF7,AF8,TP10,Right AUX
1687734287.400,-93.262,-30.762,-34.668,-48.828,-168.945
1687734287.404,-48.340,-33.691,-36.133,-43.457,-55.664
1687734287.408,-5.371,-34.180,-36.133,-33.203,145.508
1687734287.412,-18.555,-32.227,-37.109,-41.504,-0.488
1687734287.416,-55.664,-40.039,-39.062,-47.363,-157.227
1687734287.420,-79.590,-41.992,-41.992,-45.410,0.000
1687734287.424,-50.781,-37.598,-41.992,-37.598,-14.648
1687734287.427,-3.906,-33.691,-35.156,-29.785,-208.496
1687734287.431,-10.742,-36.133,-36.133,-39.062,-175.293
1687734287.435,-55.664,-43.945,-42.480,-45.410,77.637
1687734287.439,-93.750,-44.922,-44.922,-54.199,71.289
1687734287.443,-58.594,-39.551,-41.992,-52.734,-95.703
1687734287.445,-2.441,-38.574,-35.645,-46.387,-84.473
1687734287.449,-5.371,-37.109,-37.109,-48.828,-20.020
1687734287.453,-41.992,-37.598,-42.480,-54.688,-89.844
1687734287.457,-82.520,-39.062,-49.316,-64.941,-136.230
1687734287.461,-59.082,-43.945,-52.734,-64.453,-117.188
1687734287.465,-0.488,-39.551,-45.410,-54.199,-59.570
1687734287.469,-1.953,-34.668,-43.457,-52.734,-14.648
1687734287.472,-40.039,-39.062,-49.316,-61.523,-105.469
1687734287.476,-79.590,-37.109,-47.852,-64.453,-100.586
1687734287.480,-59.570,-36.133,-40.527,-50.781,208.496
1687734287.484,-1.953,-37.109,-40.039,-44.922,127.441
1687734287.488,9.277,-34.180,-41.016,-56.152,-198.730
1687734287.490,-17.090,-34.180,-45.410,-62.500,-134.766
1687734287.494,-58.105,-36.133,-48.340,-65.430,-61.523
1687734287.498,-46.875,-33.203,-45.898,-64.941,-139.648
1687734287.502,21.484,-26.367,-47.363,-57.129,-160.645
1687734287.506,41.016,-30.762,-48.828,-56.152,-35.645
1687734287.510,1.465,-38.574,-50.781,-60.547,39.551
1687734287.514,-48.340,-36.621,-47.363,-58.594,-66.895
1687734287.517,-55.664,-36.621,-46.387,-53.711,-120.117
1687734287.521,-15.625,-38.574,-51.270,-47.852,-22.949
1687734287.525,-0.977,-38.086,-49.316,-48.340,-11.719
1687734287.529,-29.297,-37.598,-43.457,-58.594,-135.254
1687734287.533,-77.148,-35.645,-45.898,-71.777,-95.703
1687734287.535,-91.309,-39.062,-48.828,-68.848,111.328
1687734287.539,-38.574,-39.062,-43.945,-54.688,85.449
1687734287.543,-6.348,-38.574,-43.457,-50.781,-130.371
1687734287.547,-25.879,-44.922,-49.805,-54.688,-54.199
1687734287.551,-68.359,-42.480,-46.875,-52.734,78.613
1687734287.555,-84.473,-40.527,-45.898,-44.922,61.523
1687734287.559,-37.109,-41.016,-52.734,-41.992,-13.184
1687734287.562,0.977,-38.574,-52.246,-35.156,-74.219
1687734287.566,-15.137,-35.156,-45.898,-28.320,221.191
1687734287.570,-63.477,-34.180,-43.457,-34.668,173.828
1687734287.574,-90.332,-34.668,-41.992,-40.527,-153.809
1687734287.578,-52.734,-36.133,-41.504,-35.645,-127.930
1687734287.580,-17.090,-33.691,-45.410,-32.715,-37.598
1687734287.584,-25.391,-29.297,-48.340,-32.715,-41.992
1687734287.588,-58.594,-38.086,-50.781,-38.086,-104.980
1687734287.592,-91.797,-41.504,-48.828,-38.574,-80.566
1687734287.596,-59.570,-37.598,-50.293,-30.762,-37.109
1687734287.600,-6.836,-39.551,-53.223,-24.902,-29.297
1687734287.604,-5.371,-39.062,-45.410,-28.320,-52.734
1687734287.607,-39.551,-39.062,-46.875,-33.203,92.773
1687734287.611,-76.172,-38.574,-52.246,-34.180,146.973
1687734287.615,-46.875,-30.273,-50.781,-29.297,-98.633
1687734287.619,7.812,-29.297,-49.805,-20.996,-168.457
1687734287.623,2.930,-36.621,-49.316,-20.020,48.828
1687734287.625,-31.738,-39.551,-51.758,-26.855,40.039
1687734287.629,-73.730,-36.133,-57.617,-37.598,-202.148
1687734287.633,-53.711,-35.156,-58.105,-31.250,-172.852
1687734287.637,2.930,-33.691,-53.711,-23.926,-130.371
1687734287.641,-2.930,-36.133,-57.129,-32.715,-199.219
1687734287.645,-37.109,-38.086,-57.129,-36.621,-92.285
1687734287.649,-74.707,-39.551,-51.270,-35.156,6.836
1687734287.652,-61.035,-41.992,-48.340,-25.391,218.262
1687734287.656,-2.930,-36.621,-44.434,-20.508,276.367
1687734287.660,8.301,-33.203,-44.922,-24.902,-123.047
1687734287.664,-18.555,-31.738,-43.945,-22.461,-177.246
1687734287.668,-61.035,-31.738,-40.527,-25.879,2.441
1687734287.670,-54.688,-35.645,-43.457,-28.809,-93.262
1687734287.674,5.371,-36.621,-43.457,-15.137,-167.969
1687734287.678,17.090,-36.621,-44.922,-18.066,-96.680
1687734287.682,-14.160,-37.598,-47.363,-26.855,-104.004
1687734287.686,-52.734,-37.598,-44.922,-30.273,-181.641
1687734287.690,-59.570,-36.133,-43.457,-30.762,-69.336
1687734287.694,-10.254,-35.645,-41.016,-16.113,202.637
1687734287.697,19.531,-38.086,-36.133,-10.254,238.770
1687734287.701,4.395,-39.062,-35.156,-15.137,-72.266
1687734287.705,-38.574,-34.180,-40.527,-23.926,-176.270
1687734287.709,-65.918,-37.598,-47.852,-36.133,0.000
1687734287.713,-25.391,-44.434,-51.270,-35.156,-64.453
1687734287.715,14.160,-36.133,-49.805,-24.414,-167.480
1687734287.719,-0.488,-33.691,-49.316,-29.297,-90.332
1687734287.723,-47.363,-34.180,-47.363,-39.062,-67.871
1687734287.727,-65.430,-32.715,-44.922,-30.273,-130.859
1687734287.731,-16.602,-32.227,-42.969,-18.555,-199.219
1687734287.735,23.438,-30.273,-41.992,-12.695,-79.102
1687734287.739,5.371,-35.156,-44.922,-15.137,184.082
1687734287.742,-38.574,-38.086,-43.945,-21.973,66.895
1687734287.746,-71.289,-36.133,-42.969,-33.203,-85.449
1687734287.750,-32.715,-33.691,-43.945,-26.855,-66.895
1687734287.754,20.020,-29.785,-42.969,-11.230,151.367
1687734287.758,4.883,-34.668,-46.387,-27.832,6.348
1687734287.762,-40.527,-38.574,-49.316,-39.551,-98.633
1687734287.766,-76.660,-37.109,-46.875,-40.527,42.480
1687734287.770,-53.223,-39.062,-47.852,-37.109,36.133
1687734287.774,-6.836,-38.086,-50.293,-33.203,-83.008
1687734287.778,-8.301,-41.992,-50.293,-35.156,-124.512
1687734287.782,-47.363,-46.387,-50.293,-42.480,30.762
1687734287.786,-89.844,-41.504,-45.898,-53.711,62.988
1687734287.789,-64.941,-39.551,-47.852,-51.758,-86.914
1687734287.793,-14.160,-39.551,-52.734,-45.410,-165.527
1687734287.797,-16.602,-39.062,-53.711,-41.992,-25.391
1687734287.801,-54.199,-38.086,-53.711,-44.434,-31.738
1687734287.805,-102.051,-41.016,-54.688,-51.758,-191.895
1687734287.822,-82.031,-43.945,-55.176,-42.969,-169.922
1687734287.826,-22.461,-41.992,-54.199,-33.203,-153.809
1687734287.830,-19.043,-41.504,-52.246,-30.273,-118.652
1687734287.834,-45.898,-40.039,-48.828,-32.715,-81.055
1687734287.838,-83.984,-36.133,-39.551,-36.133,-119.141
1687734287.842,-74.707,-35.156,-38.086,-23.438,125.977
1687734287.846,-14.648,-38.086,-41.992,-17.090,120.117
1687734287.849,-1.465,-36.133,-39.551,-23.926,-76.660
1687734287.853,-29.297,-34.668,-40.527,-25.879,-35.156
1687734287.857,-71.777,-38.086,-42.480,-20.020,188.477
1687734287.861,-73.242,-39.062,-44.922,-25.391,52.734
1687734287.865,-9.766,-35.156,-41.504,-23.926,-151.367
1687734287.865,14.160,-35.645,-41.504,-23.926,-129.395
1687734287.869,-20.020,-35.645,-45.410,-28.809,-161.621
1687734287.873,-70.801,-35.156,-41.504,-32.227,-189.453
1687734287.877,-79.590,-27.344,-37.109,-31.250,-165.527
1687734287.881,-21.973,-28.320,-44.922,-24.414,-111.328
1687734287.885,6.836,-33.203,-48.828,-22.461,-28.320
1687734287.889,-23.438,-34.668,-45.898,-26.855,48.340
1687734287.892,-66.406,-41.992,-46.875,-35.156,-23.438
1687734287.896,-84.961,-43.945,-48.828,-38.574,81.055
1687734287.900,-46.875,-43.945,-45.898,-31.738,265.625
1687734287.904,-15.137,-44.434,-47.852,-33.691,-76.660
1687734287.908,-27.344,-42.480,-47.363,-35.156,-215.820
1687734287.910,-64.453,-37.109,-41.992,-41.504,-73.730
1687734287.914,-91.797,-37.598,-41.504,-42.969,-152.344
1687734287.918,-45.410,-35.645,-41.992,-31.250,-194.336
1687734287.922,6.836,-32.715,-40.039,-27.344,-115.723
1687734287.926,-4.395,-34.180,-39.062,-32.227,-29.297
1687734287.930,-46.387,-35.156,-40.527,-37.598,32.227
1687734287.934,-79.590,-39.062,-45.410,-43.945,-26.855
1687734287.937,-46.387,-42.969,-41.992,-36.133,-62.012
1687734287.941,-0.488,-45.410,-41.504,-22.949,294.922
1687734287.945,-9.766,-45.410,-43.457,-27.832,373.535
1687734287.949,-48.340,-48.340,-43.945,-40.527,5.371
1687734287.953,-86.914,-50.293,-44.434,-44.922,-94.238
1687734287.955,-58.105,-45.410,-46.387,-42.480,-60.059
1687734287.959,-4.883,-42.969,-43.457,-31.250,-116.699
1687734287.963,-7.324,-38.574,-40.527,-26.855,-183.594
1687734287.967,-40.039,-38.574,-42.969,-36.133,-93.262
1687734287.971,-74.219,-37.109,-43.945,-41.504,-25.391
1687734287.975,-47.363,-36.133,-40.527,-36.133,21.484
1687734287.979,9.766,-31.738,-40.039,-27.344,65.918
1687734287.982,12.695,-30.273,-44.434,-23.926,145.508
1687734287.986,-24.902,-32.715,-41.992,-26.367,140.625
1687734287.990,-71.289,-34.180,-39.551,-40.039,-108.398
1687734287.994,-59.082,-37.109,-41.504,-36.621,-61.035
1687734287.998,-6.348,-38.086,-41.504,-22.461,33.691
1687734288.000,2.441,-37.109,-43.457,-33.203,-117.188
1687734288.004,-30.762,-37.109,-43.945,-44.434,-188.965
1687734288.008,-80.078,-35.645,-42.480,-45.410,-102.051
1687734288.012,-76.172,-33.691,-37.109,-39.062,-50.293
1687734288.016,-19.531,-32.715,-32.227,-26.855,-101.074
1687734288.020,-2.930,-31.250,-41.504,-31.250,-77.148
1687734288.024,-28.320,-30.762,-45.410,-33.203,-12.695
1687734288.027,-68.359,-36.133,-43.457,-24.414,283.691
1687734288.031,-73.242,-40.039,-38.574,-22.949,197.266
1687734288.035,-27.832,-37.598,-37.598,-31.738,-139.160
1687734288.039,-4.883,-34.180,-40.527,-35.156,-133.789
1687734288.043,-30.762,-34.668,-45.410,-34.668,81.055
1687734288.047,-75.684,-31.250,-47.363,-43.945,-38.574
1687734288.051,-87.402,-31.738,-43.457,-53.711,-162.109
1687734288.055,-37.109,-32.227,-45.898,-45.410,-59.570
1687734288.059,-6.836,-31.738,-45.898,-40.039,-64.453
1687734288.063,-33.203,-38.086,-42.480,-51.758,-192.871
1687734288.067,-76.660,-37.598,-49.805,-60.059,-105.957
1687734288.071,-92.285,-34.180,-50.293,-53.223,184.570
1687734288.074,-45.410,-38.086,-47.852,-39.551,208.008
1687734288.078,-6.348,-38.086,-53.711,-43.457,-104.004
1687734288.082,-20.996,-34.180,-52.734,-51.270,-181.152
1687734288.086,-64.453,-32.715,-48.828,-49.316,-101.562
1687734288.090,-91.797,-31.738,-51.270,-44.922,-150.391
1687734288.092,-52.246,-28.320,-50.781,-42.969,-200.684
1687734288.096,-2.441,-24.414,-47.852,-33.203,-143.555
1687734288.100,-12.207,-28.809,-45.410,-34.180,-12.207
1687734288.104,-58.594,-32.715,-44.434,-44.434,-33.691
1687734288.108,-93.750,-36.133,-46.387,-45.898,-109.863
1687734288.112,-53.711,-35.156,-43.945,-33.203,-36.133
1687734288.116,-5.371,-29.785,-42.969,-25.879,267.090
1687734288.119,-17.578,-28.809,-41.504,-33.691,316.895
1687734288.123,-49.316,-30.762,-37.598,-37.109,2.930
1687734288.127,-86.914,-26.855,-40.039,-38.574,-113.770
1687734288.131,-68.359,-29.785,-42.480,-41.992,0.488
1687734288.135,-8.789,-33.203,-38.574,-38.574,-80.566
1687734288.165,-5.859,-28.320,-35.156,-35.645,-177.246
1687734288.169,-47.363,-30.762,-39.062,-41.992,-154.297
1687734288.173,-91.797,-37.109,-38.086,-47.852,-124.023
1687734288.177,-72.754,-33.691,-39.062,-45.410,-112.305
1687734288.181,-17.578,-30.762,-43.457,-44.922,-93.262
1687734288.185,-15.137,-36.621,-45.410,-47.363,110.352
1687734288.189,-45.410,-37.598,-43.457,-50.293,171.387
1687734288.192,-82.520,-34.180,-39.551,-56.641,-85.449
1687734288.196,-70.801,-39.551,-41.504,-58.105,-204.102
1687734288.200,-14.648,-43.945,-41.504,-47.852,-36.621
1687734288.204,-3.906,-37.598,-36.621,-41.016,11.719
1687734288.208,-35.156,-34.180,-38.086,-38.574,-143.555
1687734288.195,-76.172,-33.203,-37.598,-38.086,-149.414
1687734288.199,-82.031,-38.574,-38.574,-41.992,-155.273
1687734288.203,-29.785,-36.133,-38.086,-29.297,-186.035
1687734288.207,-9.766,-33.203,-39.551,-29.785,-138.672
1687734288.211,-41.992,-33.691,-41.504,-41.504,-83.008
1687734288.215,-89.844,-33.203,-39.062,-42.480,-24.414
1687734288.219,-99.609,-33.203,-40.527,-41.992,-41.992
1687734288.222,-70.312,-30.273,-43.945,-35.156,-125.488
1687734288.226,-56.641,-28.320,-39.062,-29.297,-44.434
1687734288.230,-78.613,-30.273,-36.621,-37.598,88.379
1687734288.234,-124.023,-32.227,-38.086,-46.875,-38.574
1687734288.238,-133.301,-25.391,-37.109,-50.781,-106.934
1687734288.240,-84.473,-25.391,-41.504,-50.293,-70.312
1687734288.244,-54.688,-31.250,-44.922,-39.062,264.648
1687734288.248,-67.871,-31.250,-41.992,-39.551,366.699
1687734288.252,-109.863,-35.645,-41.992,-56.641,-0.488
1687734288.256,-139.648,-38.574,-44.922,-61.523,-58.105
1687734288.260,-89.355,-35.156,-39.551,-53.223,34.180
1687734288.264,-32.227,-30.762,-37.598,-56.152,-7.812
1687734288.267,-39.062,-30.762,-39.062,-60.059,-127.930
1687734288.271,-77.148,-34.180,-38.574,-58.594,8.301
1687734288.275,-101.074,-32.715,-41.992,-61.523,201.660
1687734288.279,-49.316,-26.367,-41.016,-55.176,-57.617
1687734288.283,7.324,-23.926,-43.457,-46.875,-118.652
1687734288.286,-9.277,-30.273,-45.410,-45.410,104.980
1687734288.290,-55.664,-31.250,-45.898,-45.898,11.719
1687734288.294,-97.168,-30.273,-45.898,-50.781,-134.277
1687734288.298,-70.801,-34.668,-40.527,-46.875,-67.871
1687734288.302,-23.438,-40.039,-38.574,-36.621,-65.430
1687734288.306,-30.273,-42.480,-40.527,-38.086,-59.570
1687734288.310,-70.312,-41.504,-40.039,-48.828,20.508
1687734288.313,-111.328,-37.598,-36.621,-48.340,22.949
1687734288.317,-85.938,-38.574,-38.086,-33.203,195.801
1687734288.321,-27.832,-37.598,-37.598,-30.762,127.930
1687734288.325,-23.438,-32.715,-32.715,-39.551,-161.621
1687734288.329,-54.199,-34.668,-29.785,-42.969,-106.445
1687734288.330,-105.469,-37.109,-30.762,-42.480,141.113
1687734288.334,-94.727,-39.062,-31.250,-44.434,-72.266
1687734288.338,-31.250,-43.945,-34.180,-43.945,-268.066
1687734288.342,-20.508,-43.945,-38.086,-45.898,-163.574
1687734288.346,-50.293,-43.457,-40.039,-47.852,-100.098
1687734288.350,-90.820,-38.086,-44.434,-55.176,-136.230
1687734288.354,-83.008,-32.227,-43.457,-58.105,-88.867
1687734288.357,-25.391,-31.250,-38.086,-38.574,120.117
1687734288.361,-3.418,-33.691,-41.504,-25.879,216.309
1687734288.365,-29.785,-34.668,-42.969,-39.062,-77.148
1687734288.369,-77.148,-35.156,-41.992,-44.922,-181.152
1687734288.373,-82.031,-36.133,-40.039,-35.645,-96.191
1687734288.377,-27.344,-44.922,-41.504,-37.109,-103.027
1687734288.381,-3.418,-44.922,-42.480,-36.621,-93.262
1687734288.385,-26.855,-34.668,-33.691,-32.715,-11.230
1687734288.389,-73.730,-34.668,-33.691,-41.016,30.762
1687734288.393,-83.496,-36.621,-36.621,-43.945,-69.824
1687734288.397,-31.250,-31.738,-34.668,-39.062,-82.520
1687734288.401,-5.371,-29.297,-35.156,-37.109,-10.254
1687734288.404,-26.855,-32.715,-37.598,-35.645,321.777
1687734288.408,-77.637,-36.621,-38.574,-46.387,304.688
1687734288.412,-94.727,-34.180,-35.645,-50.293,-122.559
1687734288.416,-43.945,-36.133,-35.645,-45.898,-186.035
1687734288.420,-6.348,-37.598,-36.621,-42.480,-125.488
1687734288.420,-18.555,-34.180,-38.574,-40.039,-179.688
1687734288.424,-68.848,-34.668,-40.039,-52.734,-192.871
1687734288.428,-100.098,-32.227,-35.645,-58.594,-115.234
1687734288.432,-55.176,-29.785,-30.762,-50.293,-131.348
1687734288.436,-11.230,-35.156,-28.320,-43.945,-94.727
1687734288.440,-22.461,-37.109,-27.344,-42.480,-9.766
1687734288.444,-63.965,-34.668,-26.367,-41.992,160.156
1687734288.447,-97.656,-33.203,-24.902,-37.598,329.590
1687734288.451,-59.082,-31.738,-28.809,-36.133,-48.340
1687734288.455,-11.719,-32.715,-31.250,-37.109,-217.285
1687734288.459,-18.555,-33.203,-26.367,-39.551,-81.543
1687734288.463,-55.176,-31.250,-28.320,-47.363,-133.789
1687734288.465,-95.703,-29.297,-33.691,-56.152,-181.152
1687734288.469,-59.570,-31.738,-33.691,-43.945,-118.164
1687734288.473,0.977,-34.668,-30.273,-31.250,-41.992
1687734288.477,-4.883,-35.156,-25.391,-33.203,-58.105
1687734288.481,-41.504,-35.156,-25.879,-44.434,-153.320
1687734288.485,-84.473,-32.715,-29.785,-50.293,2.930
1687734288.489,-64.453,-32.227,-28.320,-41.016,216.309
1687734288.492,-14.160,-34.180,-31.738,-43.945,86.914
1687734288.496,-10.742,-36.133,-30.273,-47.852,-19.531
1687734288.500,-46.875,-30.762,-25.391,-50.781,65.430
1687734288.504,-96.191,-27.832,-29.785,-55.664,330.078
1687734288.508,-81.055,-29.785,-33.203,-61.523,132.812
1687734288.510,-22.461,-29.785,-30.273,-62.500,-182.617
1687734288.514,-10.254,-30.762,-26.367,-63.965,-134.277
1687734288.518,-38.574,-31.250,-26.855,-65.430,-100.586
1687734288.522,-81.055,-32.227,-25.879,-65.918,-133.301
1687734288.526,-70.312,-33.203,-21.973,-67.871,-132.812
1687734288.530,-15.137,-31.738,-24.414,-57.617,7.324
1687734288.534,3.418,-26.855,-25.879,-43.945,83.008
1687734288.537,-20.020,-30.273,-31.250,-55.176,-65.430
1687734288.541,-63.965,-27.832,-28.320,-59.570,-204.102
1687734288.545,-67.871,-24.902,-23.926,-46.875,70.312
1687734288.549,-13.184,-24.902,-29.785,-45.410,145.508
1687734288.553,5.859,-26.855,-30.762,-51.758,-161.621
1687734288.570,-25.391,-29.785,-32.227,-53.223,-146.973
1687734288.574,-66.406,-27.832,-26.855,-57.617,-61.523
1687734288.578,-83.496,-23.926,-23.438,-59.082,-111.328
1687734288.582,-39.551,-23.438,-26.855,-51.270,-179.688
1687734288.586,-3.418,-21.484,-26.367,-47.363,-168.945
1687734288.590,-25.879,-25.879,-29.297,-48.828,-61.035
1687734288.594,-74.219,-34.668,-33.691,-60.547,-1.953
1687734288.597,-94.727,-32.227,-28.809,-67.383,-71.289
1687734288.601,-48.828,-30.762,-23.438,-62.500,-118.164
1687734288.605,-12.207,-33.691,-25.879,-58.594,165.527
1687734288.609,-25.879,-35.645,-26.367,-62.012,124.512
1687734288.613,-68.359,-31.738,-27.832,-66.895,8.301
1687734288.615,-101.074,-29.785,-30.273,-67.871,25.391
1687734288.619,-64.453,-32.227,-29.785,-59.082,-24.902
1687734288.623,-22.461,-27.832,-29.297,-51.758,-95.215
1687734288.627,-33.203,-28.809,-27.832,-52.246,-147.461
1687734288.631,-71.777,-31.250,-26.367,-57.129,-130.371
1687734288.635,-109.863,-32.227,-27.344,-56.641,-12.207
1687734288.639,-77.637,-28.809,-28.320,-48.340,31.250
1687734288.642,-23.438,-25.391,-28.320,-46.387,-78.125
1687734288.646,-29.785,-25.391,-25.391,-48.340,103.516
1687734288.650,-65.430,-22.949,-23.926,-47.852,217.773
1687734288.654,-107.422,-22.949,-28.809,-56.152,-33.203
1687734288.658,-85.449,-29.297,-32.227,-58.594,-78.125
1687734288.662,-27.832,-30.762,-27.832,-48.828,-54.688
1687734288.666,-25.879,-27.344,-27.344,-44.434,-61.035
1687734288.670,-61.035,-30.273,-28.809,-50.781,-146.484
1687734288.674,-104.980,-36.133,-33.691,-62.500,-180.176
1687734288.678,-79.102,-31.738,-35.645,-50.781,-29.785
1687734288.682,-18.555,-25.391,-31.738,-41.992,-45.410
1687734288.686,-12.695,-22.949,-30.273,-49.805,-130.371
1687734288.689,-45.410,-22.461,-30.762,-52.734,-61.035
1687734288.693,-101.562,-26.367,-29.785,-54.199,353.516
1687734288.697,-95.703,-30.273,-26.855,-49.316,291.504
1687734288.701,-28.320,-27.832,-24.414,-41.992,-138.184
1687734288.705,-15.625,-26.855,-25.879,-44.434,-175.781
1687734288.705,-46.875,-33.203,-24.902,-44.922,-85.449
1687734288.709,-82.520,-31.738,-19.531,-46.875,-123.535
1687734288.713,-83.984,-33.203,-19.043,-48.340,-148.438
1687734288.717,-33.691,-36.133,-22.949,-43.457,-3.906
1687734288.721,-10.742,-39.062,-26.855,-41.992,9.277
1687734288.725,-33.203,-39.551,-22.949,-42.969,-22.461
1687734288.729,-77.637,-35.156,-18.066,-46.387,-27.344
1687734288.732,-89.844,-39.551,-22.461,-45.898,26.855
1687734288.736,-37.109,-35.645,-29.297,-32.227,233.887
1687734288.740,-4.883,-24.414,-26.855,-30.762,-9.766
1687734288.744,-27.344,-22.461,-23.438,-39.062,-187.500
1687734288.748,-72.266,-23.926,-25.879,-41.504,-55.664
1687734288.750,-94.727,-29.785,-32.715,-43.457,-20.996
1687734288.754,-48.828,-32.227,-21.973,-32.715,-152.832
1687734288.758,-14.648,-33.203,-14.160,-25.391,-147.461
1687734288.762,-34.180,-33.203,-23.926,-35.645,-88.379
1687734288.766,-71.289,-36.133,-27.832,-46.875,-130.859
1687734288.770,-94.727,-36.621,-27.344,-49.805,-51.270
1687734288.774,-52.246,-30.273,-27.344,-41.504,-5.859
1687734288.777,-1.953,-29.297,-21.973,-26.367,305.664
1687734288.781,-15.137,-36.621,-25.391,-36.621,281.738
1687734288.785,-60.059,-37.109,-28.809,-57.617,-150.391
1687734288.789,-95.703,-30.273,-24.902,-62.500,-130.371
1687734288.793,-62.012,-29.297,-28.320,-56.641,39.062
1687734288.810,-7.812,-29.297,-29.297,-52.246,-159.180
1687734288.814,-17.090,-26.367,-28.809,-52.246,-280.762
1687734288.818,-59.082,-29.785,-28.809,-50.293,-217.773
1687734288.822,-95.703,-27.832,-31.738,-52.734,-154.297
1687734288.826,-62.500,-25.879,-32.227,-49.316,-151.367
1687734288.830,-8.789,-30.762,-26.855,-40.527,-145.020
1687734288.834,-22.461,-32.227,-22.461,-41.504,89.355
1687734288.837,-62.988,-28.809,-26.367,-46.387,210.449
1687734288.841,-102.539,-26.855,-30.273,-55.176,-15.625
1687734288.845,-81.543,-26.367,-27.832,-52.734,-101.074
1687734288.849,-30.762,-30.762,-25.879,-45.898,45.410
1687734288.853,-31.250,-36.621,-24.414,-46.875,50.293
1687734288.840,-59.082,-34.668,-23.438,-47.852,-104.980
1687734288.844,-104.004,-35.156,-25.879,-51.270,-99.121
1687734288.848,-89.355,-35.156,-25.391,-47.852,-65.918
1687734288.852,-24.414,-33.203,-21.484,-41.992,-88.867
1687734288.856,-16.602,-36.133,-27.344,-46.387,-61.035
1687734288.860,-40.527,-29.297,-24.902,-45.898,58.105
1687734288.864,-80.078,-27.832,-23.438,-51.270,80.078
1687734288.867,-78.613,-36.621,-33.203,-52.734,7.324
1687734288.871,-26.367,-36.621,-35.156,-45.898,22.461
1687734288.875,-11.230,-34.180,-29.785,-43.457,-39.551
1687734288.879,-38.086,-30.762,-31.250,-47.363,293.457
1687734288.883,-85.449,-31.250,-33.691,-46.875,417.969
1687734288.900,-87.891,-31.250,-26.367,-46.875,-78.125
1687734288.904,-33.203,-30.273,-27.832,-44.434,-156.738
1687734288.908,-9.277,-30.273,-38.086,-40.039,-120.605
1687734288.912,-44.922,-33.203,-37.598,-56.152,-186.523
1687734288.916,-93.750,-32.715,-35.645,-74.219,-170.898
1687734288.920,-94.238,-24.414,-43.945,-64.453,30.762
1687734288.924,-47.363,-22.949,-38.086,-50.293,76.172
1687734288.927,-34.668,-29.297,-30.762,-58.105,-136.719
1687734288.931,-57.617,-28.320,-37.598,-64.941,-242.188
1687734288.935,-95.215,-24.414,-39.551,-62.988,-65.918
1687734288.939,-116.699,-30.273,-37.598,-65.430,-22.461
1687734288.943,-68.359,-35.156,-36.133,-58.594,-201.660
1687734288.945,-24.414,-36.621,-33.691,-53.223,-150.879
1687734288.949,-33.691,-30.762,-28.809,-54.688,26.367
1687734288.953,-72.754,-34.180,-29.785,-56.641,-61.035
1687734288.957,-98.145,-38.086,-33.203,-56.641,-140.625
1687734288.961,-52.246,-30.273,-32.715,-44.922,-62.500
1687734288.965,-14.160,-34.668,-29.785,-41.504,-13.672
1687734288.969,-30.762,-39.551,-32.715,-50.293,-16.602
1687734288.972,-65.430,-38.574,-36.621,-59.570,1.953
1687734288.976,-100.586,-36.133,-33.691,-68.848,20.508
1687734288.980,-66.406,-34.668,-28.809,-53.711,258.789
1687734288.984,-18.066,-37.109,-24.902,-45.410,167.969
1687734288.988,-29.785,-36.621,-22.949,-52.246,-137.207
1687734288.990,-61.035,-31.738,-24.902,-54.199,-91.309
1687734288.994,-94.238,-29.785,-32.715,-62.500,-74.707
1687734288.998,-55.664,-31.250,-36.133,-55.664,-126.465
1687734289.002,-1.953,-29.297,-34.668,-49.805,-89.844
1687734289.006,-0.977,-20.020,-29.785,-50.781,11.230
1687734289.010,-31.250,-20.508,-24.902,-49.316,99.609
1687734289.014,-72.266,-30.762,-29.785,-61.035,12.695
1687734289.017,-50.781,-30.273,-29.297,-64.941,-121.582
1687734289.021,0.000,-27.832,-28.809,-52.246,15.137
1687734289.025,-3.906,-26.855,-29.785,-51.270,132.324
1687734289.029,-40.527,-25.879,-27.344,-59.082,-97.168
1687734289.033,-83.984,-27.344,-30.762,-61.035,-159.668
1687734289.035,-80.566,-34.180,-32.715,-54.688,-52.246
1687734289.039,-25.391,-31.250,-27.832,-41.992,-116.699
1687734289.043,-15.137,-29.785,-28.809,-40.527,-171.875
1687734289.047,-48.828,-35.156,-32.227,-56.152,-119.629
1687734289.051,-91.797,-31.738,-34.668,-65.918,-53.223
1687734289.055,-90.332,-28.809,-34.668,-60.059,-38.086
1687734289.059,-36.621,-32.715,-33.691,-52.246,-41.992
1687734289.062,-25.391,-33.691,-35.645,-53.711,5.371
1687734289.066,-57.617,-37.109,-32.715,-51.270,323.242
1687734289.070,-101.562,-40.039,-23.926,-52.246,415.039
1687734289.074,-108.398,-34.668,-21.484,-62.988,-6.348
1687734289.078,-57.617,-33.203,-27.344,-58.105,-143.555
1687734289.080,-30.273,-36.621,-31.250,-52.734,-124.023
1687734289.084,-54.688,-37.598,-33.203,-58.594,-183.105
1687734289.088,-95.703,-34.180,-36.133,-63.477,-214.844
1687734289.092,-106.934,-29.297,-38.086,-67.871,-142.578
1687734289.096,-62.500,-28.320,-37.109,-62.012,-65.918
1687734289.100,-25.391,-33.203,-29.785,-51.758,7.324
1687734289.104,-41.504,-30.273,-26.367,-48.828,-94.727
1687734289.107,-95.703,-29.785,-29.785,-55.664,-9.277
1687734289.111,-121.582,-34.668,-34.668,-57.617,298.340
1687734289.115,-76.660,-34.180,-40.527,-55.664,-23.926
1687734289.119,-33.203,-30.273,-38.086,-55.176,-217.285
1687734289.123,-46.387,-29.297,-33.691,-62.012,-162.598
1687734289.125,-85.938,-33.691,-31.738,-64.453,-184.570
1687734289.129,-113.281,-32.715,-27.344,-63.477,-195.801
1687734289.133,-72.754,-29.785,-28.320,-64.941,-177.246
1687734289.137,-26.855,-31.250,-29.297,-64.453,-101.074
1687734289.141,-34.668,-28.320,-22.949,-59.570,-87.891
1687734289.145,-68.848,-26.855,-23.926,-63.477,-46.875
1687734289.149,-105.957,-27.832,-27.344,-65.918,43.945
1687734289.152,-78.125,-35.156,-26.855,-55.176,437.988
1687734289.156,-33.203,-41.016,-30.762,-55.176,334.473
1687734289.160,-35.156,-37.109,-31.250,-62.500,-92.285
1687734289.164,-69.824,-34.180,-25.879,-68.359,-70.312
1687734289.168,-113.770,-34.668,-29.297,-72.754,10.742
1687734289.170,-90.332,-34.668,-28.809,-65.918,-99.609
1687734289.174,-37.598,-38.574,-24.414,-57.129,-166.016
1687734289.178,-37.109,-33.203,-22.949,-54.688,-89.355
1687734289.182,-70.312,-31.250,-25.391,-60.059,6.836
1687734289.186,-112.305,-38.574,-24.902,-70.801,-38.574
1687734289.190,-92.773,-33.203,-24.414,-67.383,-61.523
1687734289.194,-36.621,-32.715,-30.273,-58.594,172.363
1687734289.197,-29.297,-37.598,-32.715,-59.082,215.332
1687734289.201,-60.059,-36.621,-33.691,-67.383,-86.426
1687734289.205,-105.469,-38.574,-30.273,-69.824,-134.277
1687734289.209,-100.586,-39.062,-27.344,-63.477,-28.320
1687734289.213,-45.410,-38.574,-30.762,-63.965,-93.262
1687734289.217,-32.715,-40.527,-33.691,-65.918,-173.828
1687734289.221,-58.105,-42.969,-30.762,-66.406,-129.395
1687734289.225,-104.004,-44.922,-26.855,-67.871,8.789
1687734289.229,-107.422,-41.992,-26.367,-67.871,-35.645
1687734289.233,-48.828,-41.016,-24.902,-57.617,-122.559
1687734289.237,-23.438,-38.574,-24.902,-50.293,5.859
1687734289.241,-45.898,-34.668,-29.785,-48.828,241.699
1687734289.244,-88.867,-35.645,-34.668,-54.199,151.367
1687734289.248,-97.656,-35.645,-32.715,-64.453,-115.723
1687734289.252,-43.457,-31.250,-27.344,-61.523,-155.762
1687734289.256,-15.137,-30.273,-27.832,-56.152,101.074
1687734289.260,-37.598,-29.785,-26.367,-60.059,-68.848
1687734289.275,-83.984,-33.691,-31.250,-69.824,-244.141
1687734289.279,-95.215,-39.062,-31.738,-73.730,-140.625
1687734289.283,-48.340,-35.645,-30.273,-67.871,-91.309
1687734289.287,-20.508,-33.203,-32.715,-64.453,-42.969
1687734289.291,-37.109,-33.691,-30.762,-68.848,-160.645
1687734289.295,-83.008,-27.832,-34.180,-73.242,51.270
1687734289.299,-109.375,-25.879,-32.227,-67.383,391.113
1687734289.302,-63.477,-24.902,-26.367,-58.594,44.434
1687734289.306,-27.344,-26.367,-32.227,-62.012,-219.727
1687734289.310,-41.504,-28.320,-36.621,-63.477,-101.074
1687734289.314,-86.914,-34.180,-38.574,-69.336,-106.445
1687734289.318,-136.719,-35.156,-32.715,-77.637,-198.730
1687734289.320,-107.422,-37.109,-29.297,-72.266,-151.855
1687734289.324,-58.105,-34.668,-36.133,-72.266,-94.238
1687734289.328,-58.105,-29.785,-37.598,-75.684,-167.969
1687734289.332,-89.844,-32.715,-33.691,-79.590,-190.918
1687734289.336,-124.512,-32.715,-34.668,-86.914,-93.262
1687734289.340,-92.773,-30.762,-34.180,-82.031,30.762
1687734289.344,-36.621,-28.320,-33.203,-72.266,7.812
1687734289.347,-33.203,-28.809,-30.273,-69.824,41.016
1687734289.351,-63.477,-37.109,-29.785,-70.801,101.074
1687734289.355,-104.980,-37.598,-28.320,-57.617,277.832
1687734289.359,-83.984,-35.156,-25.879,-41.016,302.246
1687734289.363,-27.832,-35.156,-24.414,-38.086,-97.656
1687734289.365,-20.508,-30.273,-24.414,-39.062,-215.332
1687734289.369,-47.852,-26.367,-23.438,-41.016,-138.184
1687734289.373,-98.145,-28.320,-21.484,-52.246,-190.430
1687734289.377,-87.402,-35.156,-23.926,-49.805,-172.852
1687734289.381,-21.484,-38.086,-25.879,-38.574,-72.266
1687734289.385,-18.066,-40.527,-26.367,-45.898,-24.414
1687734289.389,-51.270,-34.668,-23.926,-56.641,-33.691
1687734289.392,-94.238,-26.855,-25.391,-62.500,-175.293
1687734289.396,-95.703,-39.062,-29.297,-65.430,-10.254
1687734289.400,-43.945,-45.898,-32.227,-61.523,264.648
1687734289.404,-32.715,-36.133,-36.133,-66.406,-48.828
1687734289.408,-58.105,-34.668,-35.645,-75.684,-153.320
1687734289.410,-103.027,-38.086,-33.691,-82.520,-20.996
1687734289.414,-102.539,-34.668,-25.391,-69.824,-69.336
1687734289.418,-46.387,-32.715,-18.066,-57.129,-117.188
1687734289.422,-23.926,-34.668,-23.926,-59.082,-107.422
1687734289.426,-51.270,-30.762,-32.715,-62.988,-75.195
1687734289.430,-98.633,-24.902,-30.273,-69.336,20.508
1687734289.434,-110.840,-28.320,-28.809,-73.242,57.617
1687734289.437,-55.664,-29.297,-27.344,-58.105,36.133
1687734289.441,-21.484,-30.273,-24.902,-45.898,302.734
1687734289.445,-44.434,-35.156,-26.855,-58.105,248.535
1687734289.449,-86.426,-35.156,-24.902,-63.477,-70.312
1687734289.453,-103.027,-35.156,-18.066,-52.246,-105.957
1687734289.455,-58.105,-31.250,-19.531,-39.062,-9.766
1687734289.459,-20.996,-29.785,-19.043,-35.645,-95.215
1687734289.463,-37.109,-32.227,-7.812,-38.086,-173.340
1687734289.467,-82.520,-35.156,-4.883,-41.016,-167.480
1687734289.471,-111.328,-36.621,-14.160,-41.992,-132.324
1687734289.475,-71.777,-33.203,-18.555,-38.574,4.883
1687734289.479,-28.809,-33.691,-18.066,-36.621,-27.344
1687734289.482,-37.109,-33.691,-21.484,-35.156,52.734
1687734289.486,-74.707,-35.156,-26.367,-47.852,168.945
1687734289.490,-104.492,-36.133,-27.832,-57.129,-106.445
1687734289.494,-65.918,-33.691,-25.391,-51.270,-187.988
1687734289.498,-16.113,-33.691,-24.902,-51.270,-103.516
1687734289.501,-25.879,-35.645,-27.832,-52.246,-65.918
1687734289.505,-68.359,-36.133,-29.297,-56.152,-123.535
1687734289.509,-106.445,-34.668,-26.855,-55.664,-86.914
1687734289.513,-79.590,-34.668,-23.926,-44.922,86.914
1687734289.517,-27.344,-33.203,-26.855,-48.340,-16.113
1687734289.521,-30.762,-24.902,-25.391,-59.570,-25.391
1687734289.525,-62.500,-20.996,-23.926,-64.941,13.672
1687734289.528,-102.051,-23.438,-24.414,-66.895,227.539
1687734289.532,-85.938,-28.320,-24.902,-62.988,189.941
1687734289.536,-29.785,-30.762,-27.344,-62.500,-144.531
1687734289.540,-23.438,-29.297,-27.344,-57.617,-199.219
1687734289.544,-61.523,-32.715,-24.414,-65.430,-147.949
1687734289.547,-104.980,-37.598,-21.484,-71.777,-186.035
1687734289.551,-92.773,-39.062,-28.320,-59.082,-219.238
1687734289.555,-45.410,-37.598,-27.832,-53.711,-96.191
1687734289.559,-35.156,-36.621,-21.484,-58.105,-62.988
1687734289.563,-58.594,-37.598,-22.949,-60.547,-88.379
1687734289.567,-106.934,-39.062,-29.297,-64.453,-74.707
1687734289.571,-109.375,-38.086,-27.832,-52.734,128.418
1687734289.574,-48.828,-40.527,-24.902,-33.203,280.273
1687734289.578,-25.879,-43.945,-28.809,-35.156,-34.180
1687734289.582,-53.711,-42.480,-33.203,-46.387,-119.629
1687734289.586,-96.680,-40.527,-35.645,-51.758,-38.086
1687734289.590,-100.586,-41.504,-32.715,-52.734,-103.516
1687734289.590,-46.387,-42.480,-33.691,-49.316,-191.895
1687734289.594,-17.090,-40.039,-35.156,-44.922,-150.879
1687734289.598,-46.387,-40.039,-36.133,-54.199,-97.168
1687734289.602,-91.309,-41.016,-33.691,-64.941,-108.887
1687734289.606,-94.238,-38.086,-33.203,-63.477,-62.988
1687734289.610,-42.480,-39.062,-35.645,-57.617,-12.695
1687734289.614,-3.906,-37.109,-32.227,-51.270,288.086
1687734289.617,-18.555,-37.109,-33.691,-56.641,203.613
1687734289.621,-65.430,-38.574,-36.621,-67.383,-74.707
1687734289.625,-90.332,-36.621,-35.156,-64.941,-61.035
1687734289.629,-46.387,-36.621,-31.250,-49.805,124.512
1687734289.633,-4.883,-38.086,-30.762,-51.270,-24.902
1687734289.650,-19.531,-40.039,-32.715,-53.223,-194.336
1687734289.654,-61.035,-33.691,-34.668,-54.199,-119.141
1687734289.658,-88.867,-29.297,-29.297,-56.152,-79.590
1687734289.662,-55.176,-33.203,-35.645,-52.246,-121.094
1687734289.666,-17.090,-36.133,-40.039,-51.758,-158.203
1687734289.670,-31.738,-37.109,-35.156,-55.176,5.371
1687734289.674,-74.707,-36.133,-31.738,-62.012,64.453
1687734289.677,-105.469,-39.062,-27.344,-64.941,-50.293
1687734289.681,-69.824,-36.133,-25.879,-63.965,-122.559
1687734289.685,-15.625,-29.785,-30.762,-58.594,52.734
1687734289.689,-13.672,-30.762,-33.203,-57.617,139.160
1687734289.693,-47.363,-31.250,-29.785,-67.871,-95.703
1687734289.695,-90.332,-27.344,-29.297,-75.684,-107.910
1687734289.699,-71.289,-31.738,-30.762,-75.684,-20.020
1687734289.703,-17.578,-40.039,-32.227,-68.848,-101.074
1687734289.707,-14.648,-38.574,-29.785,-70.801,-191.406
1687734289.711,-45.898,-33.691,-27.344,-77.637,-102.539
1687734289.715,-91.309,-33.691,-31.738,-76.660,34.180
1687734289.719,-83.496,-40.527,-34.180,-73.242,-0.488
1687734289.722,-20.020,-38.086,-36.133,-64.453,-14.648
1687734289.726,-9.766,-32.227,-37.109,-59.570,53.711
1687734289.730,-44.434,-33.691,-33.203,-56.641,352.539
1687734289.734,-78.125,-27.344,-31.250,-58.105,418.945
1687734289.738,-63.477,-22.949,-30.273,-68.359,-33.203
1687734289.740,-3.906,-28.809,-34.180,-69.824,-159.180
1687734289.744,20.020,-27.832,-35.645,-61.035,-116.211
1687734289.748,-6.836,-27.832,-34.668,-66.406,-140.137
1687734289.752,-53.711,-26.367,-33.691,-81.543,-99.121
1687734289.756,-57.617,-27.344,-33.691,-80.566,-86.426
1687734289.760,-5.859,-25.879,-32.227,-67.383,-78.613
1687734289.764,7.812,-20.996,-32.227,-59.570,-3.906
1687734289.767,-28.320,-29.785,-34.180,-61.523,-126.465
1687734289.771,-81.055,-32.715,-32.227,-64.941,-41.504
1687734289.775,-101.074,-37.598,-34.180,-63.965,175.781
1687734289.779,-51.270,-40.039,-33.203,-62.988,-95.703
1687734289.783,-20.020,-35.156,-28.809,-57.617,-170.898
1687734289.785,-48.340,-41.016,-30.762,-64.453,66.406
1687734289.789,-91.309,-41.504,-31.738,-71.289,-38.086
1687734289.793,-112.793,-40.039,-37.109,-72.754,-131.348
1687734289.797,-68.359,-39.062,-36.133,-70.801,-123.047
1687734289.801,-25.879,-34.668,-28.320,-60.059,-175.293
1687734289.805,-42.480,-31.250,-31.250,-51.270,-24.414
1687734289.809,-85.938,-37.109,-34.668,-56.641,0.488
1687734289.812,-108.887,-37.598,-32.227,-55.664,-36.621
1687734289.816,-65.430,-34.180,-31.250,-42.480,198.242
1687734289.820,-23.926,-39.551,-34.180,-40.527,159.180
1687734289.824,-35.645,-37.598,-33.203,-46.875,-171.387
1687734289.828,-77.148,-33.691,-29.785,-51.758,-206.055
1687734289.832,-105.957,-34.180,-22.949,-53.711,-124.512
1687734289.836,-62.500,-32.227,-23.438,-41.992,-119.629
1687734289.840,-18.555,-36.133,-36.133,-40.039,-74.219
1687734289.844,-22.461,-33.691,-32.227,-37.598,-36.133
1687734289.848,-54.688,-27.344,-31.738,-32.715,-53.711
1687734289.852,-95.703,-29.785,-36.133,-38.574,-61.035
1687734289.856,-61.523,-30.273,-28.809,-34.668,-36.133
1687734289.859,-11.230,-34.668,-26.367,-28.320,47.363
1687734289.863,-20.996,-37.598,-30.273,-30.762,151.367
1687734289.867,-56.641,-38.086,-34.668,-41.992,-46.875
1687734289.871,-92.285,-36.621,-28.320,-41.504,-127.441
1687734289.875,-68.848,-30.762,-29.785,-34.668,-93.262
1687734289.875,-18.555,-36.133,-39.062,-33.203,-121.094
1687734289.879,-22.949,-39.062,-40.039,-37.598,-135.254
1687734289.883,-68.848,-33.203,-32.715,-42.480,-141.602
1687734289.887,-123.047,-39.062,-30.762,-47.852,-83.496
1687734289.891,-109.863,-45.410,-34.180,-45.898,15.137
1687734289.895,-50.781,-44.434,-35.156,-38.574,66.895
1687734289.899,-43.945,-44.922,-38.086,-42.480,78.125
1687734289.902,-75.684,-46.387,-37.598,-48.340,378.906
1687734289.906,-118.164,-41.016,-36.621,-42.969,452.148
1687734289.910,-108.887,-37.598,-34.668,-42.480,-3.906
1687734289.914,-45.898,-39.062,-33.203,-40.039,-134.766
1687734289.918,-26.855,-40.527,-36.133,-40.527,-117.188
1687734289.935,-57.617,-45.898,-36.621,-52.734,-194.824
1687734289.939,-101.074,-47.363,-36.621,-47.363,-165.527
1687734289.943,-102.539,-47.363,-36.133,-32.227,-160.645
1687734289.947,-45.898,-43.945,-32.227,-28.320,-170.410
1687734289.951,-13.672,-41.504,-27.832,-31.250,-152.832
1687734289.955,-25.879,-40.527,-24.902,-33.691,-125.488
1687734289.959,-61.035,-37.109,-21.973,-21.484,34.668
1687734289.962,-73.730,-34.180,-16.113,-10.254,244.141
1687734289.966,-30.273,-34.180,-19.043,-11.719,-69.824
1687734289.970,3.418,-36.621,-15.625,-11.230,-267.090
1687734289.974,-9.277,-37.109,-11.719,-16.113,-73.730
1687734289.978,-55.176,-38.574,-24.414,-24.902,-125.488
1687734289.965,-78.613,-40.039,-27.344,-26.855,-287.109
1687734289.969,-31.250,-37.109,-25.879,-26.855,-218.262
1687734289.973,6.348,-37.109,-30.273,-28.809,-119.141
1687734289.977,-16.602,-42.480,-31.738,-38.086,-96.191
1687734289.981,-60.547,-41.992,-34.180,-44.434,-126.953
1687734289.985,-89.355,-40.039,-36.621,-46.875,-26.367
1687734289.989,-58.105,-42.969,-34.180,-51.270,101.562
1687734289.992,-8.789,-40.039,-27.832,-42.480,23.438
1687734289.996,-16.602,-38.574,-18.555,-44.434,-114.258
1687734290.000,-63.965,-39.551,-22.461,-54.688,-89.355
1687734290.004,-100.586,-34.180,-29.785,-39.062,200.684
1687734290.008,-68.848,-33.691,-31.738,-30.273,212.402
1687734290.025,-19.043,-37.109,-32.227,-32.715,-127.441
1687734290.029,-22.949,-38.086,-33.691,-34.668,-76.660
1687734290.033,-57.617,-38.574,-34.180,-40.527,-12.207
1687734290.037,-94.727,-34.180,-33.691,-50.293,-153.320
1687734290.041,-64.453,-28.809,-35.156,-46.387,-229.004
1687734290.045,-6.836,-28.809,-39.551,-39.062,-74.219
1687734290.049,-10.254,-28.320,-35.156,-37.109,50.781
1687734290.052,-49.805,-28.809,-32.227,-37.598,-120.117
1687734290.056,-91.797,-32.715,-36.621,-41.504,-206.543
1687734290.060,-70.312,-35.156,-34.668,-39.062,-19.531
1687734290.064,-14.160,-30.273,-33.691,-28.320,32.227
1687734290.068,-11.230,-29.297,-33.691,-33.691,-131.836
1687734290.070,-41.016,-34.180,-34.180,-41.992,-121.094
1687734290.074,-84.961,-33.203,-32.715,-42.480,91.309
1687734290.078,-77.148,-31.250,-33.691,-46.387,91.797
1687734290.082,-13.672,-27.832,-38.086,-39.062,-171.875
1687734290.086,-5.859,-30.762,-39.062,-39.551,-186.523
1687734290.090,-47.852,-40.527,-38.574,-54.688,102.539
1687734290.094,-92.773,-38.574,-40.527,-55.176,67.871
1687734290.097,-89.355,-38.574,-41.992,-57.129,-56.641
1687734290.101,-30.762,-42.969,-40.039,-54.688,-37.598
1687734290.105,-4.883,-41.504,-34.668,-44.922,179.688
1687734290.109,-30.762,-39.062,-36.621,-46.387,217.773
1687734290.113,-82.031,-36.621,-34.668,-49.805,-61.523
1687734290.131,-89.844,-33.203,-29.785,-50.293,-137.695
1687734290.135,-35.645,-35.645,-29.297,-43.945,-64.941
1687734290.139,-9.766,-36.133,-33.203,-41.016,-77.148
1687734290.143,-31.250,-31.738,-34.668,-45.410,-181.641
1687734290.147,-74.219,-29.297,-29.297,-43.945,-62.012
1687734290.151,-88.379,-31.250,-28.320,-44.434,76.172
1687734290.155,-37.109,-34.668,-31.738,-43.457,-7.812
1687734290.158,1.953,-31.250,-33.691,-42.480,-88.379
1687734290.162,-16.602,-34.180,-34.180,-43.457,3.418
1687734290.166,-61.523,-37.598,-33.203,-48.828,-38.574
1687734290.170,-89.355,-36.133,-31.250,-55.176,-162.109
1687734290.174,-45.898,-38.086,-32.715,-50.781,-142.090
1687734290.160,-1.953,-41.992,-37.598,-40.527,38.086
1687734290.164,-16.602,-42.969,-33.691,-40.527,5.859
1687734290.168,-59.082,-42.969,-32.227,-43.457,-209.473
1687734290.172,-85.449,-41.016,-31.738,-44.434,-190.430
1687734290.176,-43.457,-41.504,-33.203,-36.621,-52.734
1687734290.180,3.906,-42.969,-34.180,-28.809,-44.922
1687734290.184,-4.883,-40.527,-33.691,-33.691,-71.289
1687734290.187,-46.387,-38.574,-38.086,-46.387,62.500
1687734290.191,-85.938,-40.039,-40.039,-60.059,38.086
1687734290.195,-51.758,-39.062,-40.039,-52.734,-59.570
1687734290.199,1.953,-37.109,-38.086,-40.527,-61.035
1687734290.203,-4.395,-40.527,-37.109,-45.410,-64.453
1687734290.205,-41.504,-40.039,-33.203,-42.480,300.781
1687734290.209,-83.984,-37.598,-38.574,-44.922,354.492
1687734290.213,-61.035,-39.062,-42.480,-46.387,-46.875
1687734290.217,-2.930,-40.039,-41.992,-39.062,-147.949
1687734290.221,-0.977,-34.180,-41.992,-34.180,-86.426
1687734290.225,-37.598,-28.809,-39.551,-41.992,-8.301
1687734290.229,-86.914,-29.297,-43.457,-53.711,-13.672
1687734290.232,-83.008,-32.227,-46.387,-47.852,113.770
1687734290.236,-30.762,-34.668,-43.457,-37.109,336.914
1687734290.240,-19.531,-34.668,-47.363,-40.527,71.777
1687734290.244,-48.340,-33.203,-45.410,-47.363,-125.000
1687734290.248,-93.262,-36.133,-43.457,-51.270,-10.254
1687734290.250,-86.426,-37.109,-43.945,-42.969,-50.293
1687734290.254,-29.785,-39.551,-41.016,-35.156,-188.477
1687734290.258,-15.137,-40.527,-42.969,-38.574,-143.555
1687734290.262,-41.016,-36.621,-43.457,-42.969,-50.781
1687734290.266,-87.891,-36.621,-46.875,-52.734,-90.820
1687734290.270,-89.355,-39.551,-41.504,-53.711,-64.453
1687734290.274,-32.715,-41.504,-41.504,-51.758,13.184
1687734290.277,-5.371,-41.504,-42.480,-47.852,292.969
1687734290.281,-24.414,-46.387,-39.551,-50.293,357.910
1687734290.285,-70.801,-45.898,-42.480,-67.383,-42.480
1687734290.289,-80.566,-41.992,-38.086,-64.941,-144.531
1687734290.293,-25.879,-39.062,-33.203,-46.875,-94.238
1687734290.295,5.371,-39.062,-38.086,-44.922,-194.824
1687734290.299,-20.996,-42.969,-43.457,-55.664,-154.785
1687734290.303,-65.430,-38.574,-41.016,-54.199,-129.883
1687734290.307,-87.402,-35.156,-37.109,-52.734,-111.328
1687734290.311,-41.504,-37.109,-38.086,-47.852,-112.305
1687734290.315,1.465,-37.109,-38.574,-42.480,-130.371
1687734290.319,-10.742,-42.480,-36.621,-42.969,104.980
1687734290.322,-50.293,-39.551,-34.180,-39.062,218.750
1687734290.326,-74.707,-35.156,-32.227,-44.434,-81.543
1687734290.330,-30.762,-35.645,-33.691,-44.434,-187.988
1687734290.334,14.648,-35.645,-35.156,-35.156,-64.453
1687734290.338,4.395,-37.109,-31.738,-36.133,-15.137
1687734290.340,-41.016,-41.992,-34.180,-51.758,-101.074
1687734290.344,-82.031,-40.039,-36.133,-55.664,-127.441
1687734290.348,-50.781,-39.551,-38.086,-44.434,58.594
1687734290.352,-2.930,-41.016,-43.457,-47.363,22.949
1687734290.356,-15.137,-39.062,-46.875,-57.129,-128.418
1687734290.360,-57.129,-39.062,-49.316,-69.824,29.297
1687734290.364,-92.285,-34.180,-44.434,-69.824,371.094
1687734290.367,-60.059,-27.832,-41.992,-57.617,183.594
1687734290.371,-8.301,-33.203,-42.480,-52.246,-159.668
1687734290.375,-11.719,-36.133,-41.016,-54.199,-137.207
1687734290.379,-51.270,-34.668,-43.457,-51.758,68.848
1687734290.383,-100.586,-39.062,-43.945,-55.176,-44.922
1687734290.387,-78.125,-38.574,-42.969,-52.734,-178.223
1687734290.391,-18.555,-33.203,-45.898,-38.086,11.230
1687734290.395,-19.531,-37.598,-43.945,-36.621,97.656
1687734290.399,-55.664,-39.551,-43.457,-42.480,-166.504
1687734290.403,-95.215,-39.062,-41.992,-41.016,-221.680
1687734290.407,-81.543,-38.086,-36.133,-33.691,-39.062
1687734290.411,-22.949,-38.574,-36.621,-27.344,4.395
1687734290.414,-6.836,-36.133,-35.156,-29.785,-106.934
1687734290.418,-33.691,-27.832,-31.250,-36.621,-152.344
1687734290.422,-81.055,-27.344,-37.109,-41.016,7.324
1687734290.426,-82.031,-33.203,-40.039,-41.016,-30.273
1687734290.430,-30.273,-41.016,-45.410,-36.621,-190.918
1687734290.445,-16.602,-43.457,-48.340,-37.109,-139.160
1687734290.449,-47.852,-43.945,-43.945,-45.410,-104.980
1687734290.453,-93.262,-40.039,-42.969,-46.875,-116.211
1687734290.457,-100.586,-39.551,-42.969,-48.828,-109.863
1687734290.461,-43.457,-41.016,-47.852,-45.898,-13.672
1687734290.465,-19.043,-41.992,-43.457,-32.715,295.410
1687734290.469,-43.945,-42.480,-39.062,-36.621,151.855
1687734290.472,-83.496,-38.574,-39.062,-41.992,-121.094
1687734290.476,-95.703,-36.133,-37.109,-38.574,-60.059
1687734290.480,-43.457,-38.574,-41.016,-34.668,139.160
1687734290.484,2.930,-40.527,-42.480,-35.645,1.953
1687734290.488,-6.348,-43.945,-40.527,-46.875,-205.078
1687734290.490,-47.363,-43.457,-45.898,-58.594,-115.723
1687734290.494,-67.871,-42.480,-45.898,-64.453,-81.543
1687734290.498,-15.137,-40.527,-40.039,-53.711,-123.047
1687734290.502,31.250,-38.086,-36.621,-47.363,-65.430
1687734290.506,2.930,-40.527,-40.039,-54.199,-48.828
1687734290.510,-49.805,-38.574,-39.551,-55.664,-20.996
1687734290.514,-72.266,-32.227,-35.645,-53.711,-9.766
1687734290.517,-38.574,-34.668,-35.645,-50.781,-29.297
1687734290.521,-4.395,-42.480,-37.598,-43.457,121.582
1687734290.525,-11.230,-36.133,-40.039,-46.387,359.863
1687734290.529,-50.781,-29.785,-42.480,-68.848,95.215
1687734290.533,-84.961,-32.227,-44.922,-74.219,-145.020
1687734290.535,-53.711,-29.297,-37.109,-62.988,-109.863
1687734290.539,-7.324,-25.879,-37.109,-64.941,-173.340
1687734290.543,-22.461,-30.762,-43.945,-74.707,-184.570
1687734290.547,-59.570,-33.691,-36.133,-73.730,-84.473
1687734290.551,-97.656,-31.738,-30.762,-80.078,-25.391
1687734290.555,-70.312,-35.156,-35.156,-77.637,-21.484
1687734290.559,-11.719,-37.109,-38.086,-67.383,-74.219
1687734290.562,-9.277,-37.598,-38.086,-68.359,-23.438
1687734290.566,-44.434,-40.039,-41.016,-64.941,332.520
1687734290.570,-88.379,-42.969,-42.969,-70.801,247.070
1687734290.574,-63.965,-40.527,-39.551,-66.406,-92.285
1687734290.578,2.930,-37.109,-33.691,-51.270,-28.809
1687734290.580,5.371,-32.227,-36.621,-44.434,266.602
1687734290.584,-31.738,-26.855,-38.574,-49.316,134.766
1687734290.588,-76.660,-23.926,-36.133,-59.570,-99.609
1687734290.592,-72.754,-27.832,-35.156,-58.594,-97.168
1687734290.596,-18.066,-31.250,-35.645,-52.734,-48.828
1687734290.600,-0.977,-32.227,-28.809,-52.246,41.992
1687734290.604,-32.715,-33.203,-34.180,-62.988,-65.918
1687734290.607,-83.496,-32.227,-41.992,-68.848,55.176
1687734290.611,-80.566,-30.762,-37.598,-58.105,204.590
1687734290.615,-19.531,-25.391,-37.109,-53.223,-75.195
1687734290.619,3.418,-25.391,-35.645,-55.664,-97.168
1687734290.623,-20.508,-34.180,-36.621,-62.988,29.785
1687734290.625,-64.941,-38.086,-33.691,-69.824,-64.453
1687734290.629,-76.660,-35.645,-30.273,-68.848,-133.301
1687734290.633,-26.367,-38.574,-33.203,-64.453,-41.992
1687734290.637,0.977,-38.086,-38.086,-58.594,-24.414
1687734290.641,-20.996,-36.133,-34.668,-61.523,-89.844
1687734290.645,-63.965,-36.133,-31.738,-64.941,6.348
1687734290.649,-79.102,-27.832,-29.297,-48.828,68.359
1687734290.652,-30.762,-31.738,-22.949,-26.855,347.656
1687734290.656,3.418,-41.016,-29.785,-26.367,317.383
1687734290.660,-14.160,-42.480,-33.691,-37.598,-92.773
1687734290.664,-52.246,-39.551,-27.832,-38.086,-132.324
1687734290.668,-73.242,-31.738,-28.320,-41.992,-131.348
1687734290.672,-29.297,-30.762,-31.250,-35.156,-146.484
1687734290.676,13.184,-34.180,-31.250,-27.832,-153.809
1687734290.680,0.000,-32.227,-30.273,-33.691,-175.781
1687734290.684,-41.016,-36.133,-30.273,-36.133,-81.055
1687734290.688,-67.383,-38.574,-30.273,-36.133,-109.375
1687734290.692,-35.645,-35.645,-30.762,-33.203,-149.414
1687734290.696,11.719,-39.551,-32.715,-23.926,95.215
1687734290.699,5.859,-40.039,-31.250,-19.043,281.738
1687734290.703,-41.504,-34.180,-32.227,-31.250,-21.973
1687734290.707,-75.195,-30.273,-33.203,-38.574,-131.836
1687734290.711,-41.504,-32.227,-35.645,-33.691,-54.199
1687734290.715,13.672,-35.645,-35.156,-27.344,-90.820
1687734290.715,8.789,-32.227,-32.715,-32.227,-141.602
1687734290.719,-30.273,-31.250,-33.203,-38.086,-117.676
1687734290.723,-69.824,-35.645,-30.762,-34.668,-23.926
1687734290.727,-54.688,-35.156,-32.715,-28.320,-60.547
1687734290.731,2.930,-35.156,-35.156,-21.484,-145.020
1687734290.735,7.812,-40.039,-31.738,-21.484,-37.598
1687734290.739,-30.762,-40.527,-32.227,-21.973,359.375
1687734290.742,-76.172,-34.180,-36.133,-33.691,346.680
1687734290.746,-63.965,-32.715,-39.062,-39.551,-89.844
1687734290.750,-3.906,-38.086,-35.645,-29.297,-87.891
1687734290.754,7.324,-40.527,-34.180,-25.391,98.633
1687734290.758,-20.508,-33.691,-33.203,-29.785,-46.387
1687734290.760,-63.477,-29.785,-25.879,-27.344,-203.125
1687734290.764,-61.035,-34.180,-24.414,-24.902,-133.301
1687734290.768,-0.977,-34.668,-33.691,-26.367,-46.875
1687734290.772,16.113,-36.133,-40.527,-31.738,-97.656
1687734290.776,-16.113,-37.598,-39.062,-38.086,-57.617
1687734290.780,-61.035,-37.109,-35.645,-38.086,99.121
1687734290.784,-64.941,-37.598,-36.133,-36.621,76.172
1687734290.787,-15.625,-34.180,-36.133,-30.762,-38.086
1687734290.791,8.789,-33.691,-35.156,-24.414,-113.281
1687734290.795,-20.508,-35.645,-36.133,-26.855,50.293
1687734290.799,-71.777,-39.062,-33.203,-30.762,249.023
1687734290.803,-78.125,-40.039,-25.391,-32.715,-44.434
1687734290.821,-29.297,-39.551,-31.250,-36.133,-133.789
1687734290.825,4.883,-36.621,-33.691,-32.715,-84.473
1687734290.829,-12.695,-34.180,-32.715,-25.879,-164.062
1687734290.833,-58.594,-38.574,-33.691,-29.785,-195.801
1687734290.837,-81.055,-38.086,-35.156,-37.598,-97.656
1687734290.841,-31.738,-33.203,-36.133,-30.762,22.949
1687734290.845,4.395,-35.156,-39.551,-26.367,26.367
1687734290.848,-20.508,-34.180,-35.156,-32.715,4.395
1687734290.852,-60.547,-31.738,-31.738,-39.551,29.297
1687734290.856,-83.496,-30.762,-34.180,-33.203,292.969
1687734290.860,-41.992,-32.227,-36.621,-21.973,353.027
1687734290.864,3.906,-31.738,-38.086,-27.344,-2.441
1687734290.865,-14.160,-29.297,-42.969,-31.250,-97.656
1687734290.869,-55.176,-30.762,-43.457,-35.645,-91.797
1687734290.873,-82.031,-28.809,-37.598,-32.227,-101.074
1687734290.877,-45.898,-30.762,-33.203,-23.438,-123.535
1687734290.881,5.371,-34.668,-31.250,-17.578,-150.879
1687734290.885,-2.930,-38.086,-34.180,-17.578,-113.770
1687734290.889,-44.922,-40.527,-40.039,-28.809,-28.809
1687734290.892,-86.914,-37.598,-41.016,-29.297,-97.168
1687734290.896,-55.176,-37.598,-36.133,-15.137,-29.297
1687734290.900,4.395,-40.527,-37.109,-15.137,128.906
1687734290.904,4.883,-38.086,-40.527,-20.996,-37.109
1687734290.908,-28.809,-32.227,-33.203,-25.879,-97.168
1687734290.910,-73.730,-31.738,-28.320,-39.062,34.180
1687734290.914,-59.570,-29.785,-33.203,-36.133,-8.301
1687734290.918,-5.859,-32.715,-38.086,-31.738,-123.047
1687734290.922,-1.465,-30.273,-39.062,-36.133,-158.203
1687734290.926,-35.156,-23.926,-39.062,-41.992,-89.355
1687734290.930,-83.008,-27.832,-40.527,-48.828,-25.391
1687734290.934,-73.730,-30.273,-36.621,-42.480,-40.039
1687734290.937,-15.137,-27.832,-36.621,-38.086,-11.230
1687734290.941,-9.766,-34.668,-45.410,-36.621,199.707
1687734290.945,-39.062,-33.691,-44.434,-29.785,200.195
1687734290.949,-76.660,-28.809,-36.133,-32.715,-119.141
1687734290.953,-71.777,-25.879,-31.250,-30.273,-174.316
1687734290.955,-13.184,-23.926,-26.367,-16.113,-86.426
1687734290.959,2.441,-26.367,-29.297,-13.184,-98.145
1687734290.963,-25.879,-29.785,-34.668,-22.461,-149.902
1687734290.967,-65.918,-32.715,-33.691,-27.344,-86.914
1687734290.971,-71.289,-41.016,-32.227,-26.855,-35.645
1687734290.975,-17.578,-44.922,-34.180,-23.438,-79.102
1687734290.979,10.742,-36.621,-40.039,-22.949,-76.172
1687734290.982,-8.789,-34.668,-41.504,-25.879,102.539
1687734290.986,-42.480,-33.691,-37.598,-23.438,192.383
1687734290.990,-59.082,-31.738,-35.645,-24.902,-117.676
1687734290.994,-16.113,-36.133,-36.133,-20.020,-215.820
1687734290.998,17.090,-36.133,-37.598,-16.113,-38.086
1687734291.002,-5.371,-33.691,-34.668,-21.973,-53.711
1687734291.006,-59.082,-38.086,-38.086,-31.738,-161.621
1687734291.010,-84.473,-40.039,-41.016,-41.992,-91.797
1687734291.014,-36.621,-32.715,-41.016,-37.109,115.234
1687734291.018,0.000,-29.785,-42.969,-35.645,-9.766
1687734291.022,-16.602,-30.762,-42.480,-36.621,39.062
1687734291.026,-60.547,-30.762,-41.016,-37.598,137.695
1687734291.029,-90.820,-35.156,-40.527,-36.133,286.621
1687734291.033,-43.945,-30.762,-39.062,-21.484,212.402
1687734291.037,9.766,-28.320,-37.109,-16.602,-160.156
1687734291.041,-0.488,-31.738,-41.016,-24.414,-145.996
1687734291.045,-45.410,-28.320,-41.992,-30.273,-37.109
1687734291.045,-82.031,-30.273,-37.598,-30.273,-127.930
1687734291.049,-51.270,-34.180,-42.480,-29.785,-195.801
1687734291.053,-2.930,-31.738,-45.410,-27.832,-106.445
1687734291.057,-5.371,-32.715,-40.527,-30.273,-105.469
1687734291.061,-42.480,-33.691,-41.016,-38.086,-107.422
1687734291.065,-84.961,-33.691,-46.875,-52.246,-95.215
1687734291.069,-56.152,-31.250,-49.316,-41.992,22.461
1687734291.072,3.906,-28.809,-43.457,-24.414,276.855
1687734291.076,2.441,-31.738,-41.016,-36.133,-53.711
1687734291.080,-36.133,-37.598,-46.387,-50.293,-231.445
1687734291.084,-79.102,-39.062,-45.898,-51.270,-80.078
1687734291.088,-60.059,-36.133,-43.945,-41.504,-92.773
1687734291.090,-1.465,-38.086,-46.387,-32.715,-128.906
1687734291.094,7.324,-35.156,-45.898,-29.297,-170.410
1687734291.098,-29.785,-32.715,-46.387,-35.645,-100.098
1687734291.102,-82.520,-33.203,-50.293,-46.875,-89.355
1687734291.106,-68.359,-27.344,-46.875,-38.574,-148.926
1687734291.110,-7.324,-25.391,-45.898,-29.297,-21.484
1687734291.114,5.371,-28.320,-47.852,-22.461,186.035
1687734291.117,-22.949,-34.668,-47.363,-27.344,84.961
1687734291.121,-62.988,-30.273,-46.387,-39.062,-71.777
1687734291.125,-60.059,-24.414,-44.434,-34.180,-57.617
1687734291.129,-8.301,-29.785,-46.875,-22.461,271.484
1687734291.133,11.719,-30.273,-50.293,-23.438,189.453
1687734291.135,-20.508,-30.273,-55.664,-36.621,-125.488
1687734291.139,-72.754,-30.762,-55.176,-48.828,-97.656
1687734291.143,-80.566,-33.203,-51.758,-43.945,-70.801
1687734291.147,-29.785,-37.598,-48.828,-30.273,-110.352
1687734291.151,-6.836,-37.598,-43.945,-25.391,-118.164
1687734291.155,-26.367,-28.809,-43.945,-33.691,9.766
1687734291.159,-70.312,-24.902,-44.922,-37.109,64.453
1687734291.162,-89.355,-29.297,-43.457,-32.715,-73.242
1687734291.166,-36.133,-31.250,-43.457,-28.320,-160.156
1687734291.170,9.766,-31.738,-41.992,-11.230,21.973
1687734291.174,-9.277,-26.855,-41.992,1.465,127.441
1687734291.178,-55.664,-25.391,-46.387,-10.742,-110.352
1687734291.195,-73.730,-30.762,-47.363,-17.090,-148.438
1687734291.199,-28.320,-31.738,-42.480,-11.719,-77.637
1687734291.203,18.066,-25.391,-37.598,-7.812,-153.320
1687734291.207,0.977,-20.020,-39.062,-20.508,-211.426
1687734291.211,-50.293,-25.391,-41.016,-31.738,-105.469
1687734291.215,-81.543,-31.250,-37.598,-23.438,44.922
1687734291.219,-45.898,-34.668,-41.016,-19.531,-32.715
1687734291.222,-1.953,-30.273,-43.457,-20.020,-118.652
1687734291.226,-6.836,-27.344,-42.480,-20.996,-112.305
1687734291.230,-46.875,-29.785,-46.875,-21.484,124.512
1687734291.234,-91.797,-30.762,-46.387,-34.668,111.328
1687734291.238,-65.918,-28.809,-42.480,-42.969,-159.668
1687734291.240,-8.301,-24.414,-44.434,-37.598,-104.980
1687734291.244,-11.230,-27.832,-47.852,-46.875,-33.203
1687734291.248,-44.434,-33.691,-44.922,-55.664,-130.859
1687734291.252,-76.172,-28.320,-41.016,-57.617,-169.922
1687734291.256,-50.293,-26.855,-41.504,-55.176,-161.133
1687734291.260,12.695,-27.832,-42.480,-43.457,-60.059
1687734291.264,23.926,-19.531,-36.621,-35.645,79.102
1687734291.267,-15.137,-23.926,-38.086,-33.203,-81.543
1687734291.271,-75.195,-34.668,-41.992,-33.691,-21.484
1687734291.275,-66.895,-31.250,-40.039,-22.461,161.621
1687734291.279,-13.672,-26.855,-42.969,-17.578,-98.145
1687734291.283,-18.066,-28.320,-45.898,-25.879,-183.594
1687734291.287,-52.246,-31.738,-45.410,-36.133,-75.195
1687734291.291,-101.074,-34.668,-46.875,-48.340,-152.832
1687734291.295,-103.027,-36.133,-44.922,-46.387,-113.281
1687734291.299,-35.156,-38.086,-45.410,-27.832,-117.676
1687734291.303,-8.301,-41.992,-48.340,-20.020,12.695
1687734291.307,-39.551,-42.969,-44.922,-33.691,45.410
1687734291.311,-82.520,-39.062,-48.340,-43.945,-101.074
1687734291.314,-83.984,-36.621,-54.688,-40.527,-115.234
1687734291.318,-25.879,-31.738,-56.641,-27.832,203.613
1687734291.322,4.395,-28.809,-50.781,-20.996,270.996
1687734291.326,-16.602,-29.297,-43.457,-31.738,-123.535
1687734291.330,-63.477,-31.250,-44.922,-41.016,-204.590
1687734291.330,-79.590,-23.438,-43.945,-41.504,-102.539
1687734291.334,-30.762,-20.508,-49.316,-36.621,-114.746
1687734291.338,1.953,-26.855,-48.340,-33.691,-164.062
1687734291.342,-19.043,-29.297,-49.805,-46.387,-108.887
1687734291.346,-65.430,-28.320,-49.316,-54.199,-5.859
1687734291.350,-93.262,-30.273,-42.969,-57.617,-6.348
1687734291.354,-50.293,-34.180,-44.434,-55.664,-95.215
1687734291.357,-6.836,-36.621,-48.340,-47.852,40.527
1687734291.361,-26.855,-37.598,-48.828,-46.387,267.578
1687734291.365,-73.242,-41.016,-43.457,-47.852,10.742
1687734291.369,-98.633,-39.551,-40.039,-47.363,-144.531
1687734291.373,-58.594,-37.598,-34.668,-38.574,-23.438
1687734291.375,-14.648,-42.480,-36.133,-29.297,-37.598
1687734291.379,-18.066,-38.574,-38.086,-20.508,-116.699
1687734291.383,-65.430,-30.762,-35.645,-24.902,-150.879
1687734291.387,-117.676,-34.668,-43.457,-45.898,-95.215
1687734291.391,-85.938,-34.180,-48.828,-44.434,-110.840
1687734291.395,-31.250,-30.762,-44.434,-26.367,-6.836
1687734291.399,-36.621,-35.645,-41.504,-32.227,82.520
1687734291.402,-77.637,-32.227,-43.945,-40.527,309.570
1687734291.406,-118.652,-31.738,-44.922,-41.992,286.621
1687734291.410,-82.520,-31.738,-41.504,-34.668,-19.531
1687734291.414,-21.484,-26.855,-35.156,-26.367,-62.988
1687734291.418,-22.461,-30.762,-33.203,-32.715,146.973
1687734291.420,-52.246,-33.203,-33.691,-40.527,23.438
1687734291.424,-95.215,-25.879,-32.715,-56.152,-210.449
1687734291.428,-82.031,-24.414,-32.715,-57.617,-177.734
1687734291.432,-22.949,-25.879,-39.551,-53.223,-77.148
1687734291.436,-7.812,-22.461,-41.016,-60.547,-67.871
1687734291.440,-36.621,-16.113,-36.621,-59.570,-111.328
1687734291.444,-83.496,-12.207,-33.203,-60.547,73.242
1687734291.447,-70.801,-15.137,-31.738,-58.105,227.051
1687734291.451,-11.719,-16.602,-35.156,-52.734,-62.012
1687734291.455,-7.812,-17.090,-36.133,-49.805,-64.453
1687734291.459,-41.016,-18.066,-31.738,-51.758,91.309
1687734291.463,-83.984,-17.578,-35.156,-60.547,-38.574
1687734291.465,-82.031,-22.461,-36.621,-61.035,-188.965
1687734291.469,-20.996,-28.320,-34.668,-48.340,-157.715
1687734291.473,-2.441,-23.926,-38.574,-41.016,-116.211
1687734291.477,-32.227,-23.926,-36.621,-43.457,-185.059
1687734291.481,-72.266,-22.461,-33.203,-44.434,-178.223
1687734291.485,-77.637,-22.949,-32.715,-34.668,-79.590
1687734291.489,-21.484,-25.879,-31.738,-24.414,137.207
1687734291.492,13.672,-17.578,-34.180,-24.414,130.371
1687734291.496,-8.301,-20.020,-34.180,-35.645,-87.891
1687734291.500,-56.641,-30.762,-33.691,-49.316,-80.566
1687734291.504,-71.777,-33.203,-36.133,-49.805,162.598
1687734291.508,-19.531,-29.785,-32.715,-42.969,90.332
1687734291.512,11.719,-33.691,-32.715,-41.016,-116.699
1687734291.516,-17.578,-38.574,-40.039,-45.898,-110.352
1687734291.520,-68.359,-40.039,-40.527,-51.270,-67.871
1687734291.524,-94.238,-42.480,-35.156,-50.781,-145.020
1687734291.528,-49.805,-39.551,-34.180,-41.016,-150.391
1687734291.532,-10.254,-31.738,-35.156,-28.809,-52.246
1687734291.536,-22.461,-30.762,-41.016,-30.273,46.387
1687734291.539,-61.523,-32.227,-42.969,-40.527,-23.438
1687734291.543,-94.238,-28.809,-35.156,-37.109,-155.273
1687734291.547,-55.664,-28.320,-31.738,-28.320,-15.625
1687734291.551,-4.883,-32.715,-30.762,-28.809,39.551
1687734291.555,-11.719,-30.273,-31.250,-32.715,-148.438
1687734291.570,-46.875,-29.785,-31.250,-34.180,-131.836
1687734291.574,-88.379,-29.297,-36.133,-43.457,-48.340
1687734291.578,-57.617,-23.926,-37.109,-40.527,-49.805
1687734291.582,-3.906,-28.320,-38.086,-29.297,-134.277
1687734291.586,-13.672,-30.762,-40.527,-37.598,-128.418
1687734291.590,-51.758,-29.785,-41.992,-46.875,211.914
1687734291.594,-89.355,-29.297,-43.457,-51.758,171.875
1687734291.597,-59.082,-23.926,-39.551,-46.875,-7.324
1687734291.601,4.883,-22.461,-34.668,-31.738,-2.441
1687734291.605,6.348,-23.438,-36.133,-29.785,168.945
1687734291.609,-30.762,-20.508,-38.574,-37.109,101.562
1687734291.613,-71.289,-20.508,-33.203,-37.598,-135.254
1687734291.630,-59.082,-30.273,-31.738,-36.133,-87.891
1687734291.634,-3.418,-32.227,-39.062,-32.227,-19.531
1687734291.638,4.883,-29.297,-39.062,-30.762,-84.473
1687734291.642,-29.297,-29.297,-38.574,-36.621,-159.180
1687734291.646,-75.684,-31.250,-40.039,-45.898,-83.008
1687734291.650,-65.918,-26.367,-34.180,-41.504,-4.395
1687734291.654,-5.371,-24.414,-33.203,-30.273,-59.082
1687734291.657,6.836,-26.855,-30.273,-35.645,-178.223
1687734291.661,-31.250,-25.391,-31.250,-38.574,-29.297
1687734291.665,-83.496,-25.879,-31.250,-40.039,125.488
1687734291.669,-84.473,-22.949,-29.297,-45.898,-82.031
1687734291.673,-27.344,-24.902,-31.738,-42.480,-149.414
1687734291.660,-4.883,-26.855,-37.109,-38.086,-42.480
1687734291.664,-28.809,-23.926,-39.551,-42.480,-7.812
1687734291.668,-66.406,-22.461,-39.062,-48.340,-109.863
1687734291.672,-80.566,-30.273,-36.133,-52.246,-145.508
1687734291.676,-31.250,-35.645,-33.691,-44.434,0.977
1687734291.680,4.883,-28.320,-33.691,-34.180,43.457
1687734291.684,-13.672,-24.414,-30.762,-36.621,-44.434
1687734291.687,-56.641,-22.949,-26.367,-39.062,-30.273
1687734291.691,-77.637,-17.578,-22.949,-40.039,11.230
1687734291.695,-34.180,-20.020,-28.809,-35.645,-99.121
1687734291.699,-1.465,-27.344,-38.086,-30.762,-140.137
1687734291.703,-21.484,-30.762,-40.527,-29.785,-103.027
1687734291.705,-65.430,-30.273,-36.621,-29.785,176.758
1687734291.709,-88.867,-25.879,-32.715,-29.785,280.762
1687734291.713,-42.480,-25.879,-28.809,-28.320,-42.480
1687734291.717,2.930,-29.785,-30.273,-30.273,-162.598
1687734291.721,-7.324,-29.785,-31.738,-33.691,-140.137
1687734291.725,-58.594,-31.738,-30.762,-40.039,-48.828
1687734291.729,-91.309,-31.250,-30.273,-41.992,-5.859
1687734291.732,-47.852,-31.738,-30.273,-36.133,34.180
1687734291.736,8.789,-33.203,-28.320,-20.508,200.684
1687734291.740,3.906,-34.180,-29.297,-24.902,31.738
1687734291.744,-38.086,-33.203,-30.273,-37.598,-186.035
1687734291.748,-77.148,-33.203,-27.832,-33.203,-66.895
1687734291.750,-47.852,-37.598,-25.391,-26.855,-59.570
1687734291.754,9.766,-34.668,-25.391,-28.320,-160.645
1687734291.758,6.836,-32.227,-28.320,-31.250,-147.949
1687734291.762,-35.156,-31.250,-28.809,-35.645,-113.281
1687734291.766,-85.938,-29.785,-30.762,-45.410,-62.500
1687734291.770,-70.801,-31.738,-30.762,-46.875,-54.688
1687734291.774,-12.695,-31.250,-31.738,-35.156,-101.074
1687734291.777,-11.230,-31.250,-36.133,-26.367,285.645
1687734291.781,-49.805,-29.297,-33.203,-31.738,344.727
1687734291.785,-92.285,-26.855,-32.227,-50.293,-167.969
1687734291.789,-78.125,-31.250,-30.273,-52.246,-249.023
1687734291.793,-22.461,-36.133,-31.738,-43.945,-113.281
1687734291.795,-15.137,-33.691,-33.203,-43.945,-134.277
1687734291.799,-45.898,-32.227,-30.273,-47.852,-200.684
1687734291.803,-89.355,-27.832,-32.715,-58.105,-113.770
1687734291.807,-84.473,-29.297,-31.250,-54.199,-49.316
1687734291.811,-25.879,-39.551,-35.156,-43.945,-124.512
1687734291.815,-9.766,-41.504,-36.133,-49.805,-72.754
1687734291.819,-40.039,-34.180,-34.668,-51.758,58.594
1687734291.822,-88.867,-32.715,-40.039,-56.152,171.387
1687734291.826,-95.703,-35.156,-39.062,-66.406,-37.598
1687734291.830,-35.156,-29.297,-36.133,-56.152,-100.098
1687734291.834,-3.906,-23.438,-31.250,-46.875,-28.809
1687734291.838,-28.809,-24.414,-31.250,-47.363,-75.195
1687734291.842,-74.707,-25.879,-32.227,-45.898,-132.324
1687734291.846,-87.891,-29.297,-29.785,-41.992,-45.898
1687734291.850,-42.969,-38.086,-29.297,-33.203,98.145
1687734291.854,-7.324,-32.715,-28.320,-30.273,6.836
1687734291.858,-27.344,-23.926,-27.832,-36.621,-108.398
1687734291.862,-76.660,-27.344,-37.598,-47.363,-17.090
1687734291.866,-99.609,-28.320,-40.527,-50.781,195.312
1687734291.869,-54.688,-32.715,-38.086,-49.805,114.746
1687734291.873,-11.230,-36.621,-35.156,-48.340,-131.348
1687734291.877,-26.367,-32.227,-32.227,-49.805,-157.227
1687734291.881,-69.336,-34.180,-29.785,-46.387,31.250
1687734291.885,-98.633,-34.180,-28.320,-55.176,-31.250
1687734291.885,-55.664,-28.809,-29.297,-53.711,-110.352
1687734291.889,-10.742,-27.832,-28.320,-39.551,-54.688
1687734291.893,-29.297,-28.809,-32.227,-43.945,-48.340
1687734291.897,-68.359,-29.785,-34.180,-54.688,-18.555
1687734291.901,-101.562,-30.273,-35.645,-59.082,-67.383
1687734291.905,-69.336,-28.320,-37.598,-49.316,45.410
1687734291.909,-25.879,-27.344,-40.039,-43.457,283.691
1687734291.912,-31.250,-24.902,-37.109,-47.363,15.625
1687734291.916,-72.754,-24.902,-36.133,-58.105,-162.109
1687734291.920,-121.582,-34.180,-40.039,-73.730,-48.828
1687734291.924,-94.238,-41.016,-37.109,-62.988,-83.008
1687734291.928,-33.691,-39.551,-37.598,-48.828,-179.199
1687734291.945,-29.785,-42.480,-37.109,-51.270,-145.508
1687734291.949,-68.848,-41.992,-35.645,-59.082,-12.207
1687734291.953,-118.164,-41.504,-38.574,-64.941,-55.664
1687734291.957,-95.703,-37.598,-34.668,-55.176,-106.934
1687734291.961,-37.598,-33.691,-30.273,-45.898,-58.105
1687734291.965,-31.250,-33.691,-29.297,-45.410,66.895
1687734291.969,-64.941,-35.645,-29.785,-55.176,108.887
1687734291.972,-109.863,-36.621,-32.715,-68.359,78.613
1687734291.976,-92.773,-38.574,-29.297,-67.871,-1.953
1687734291.980,-22.949,-35.156,-27.344,-46.875,269.531
1687734291.984,-8.301,-31.250,-33.203,-40.527,306.152
1687734291.988,-37.109,-29.785,-33.691,-56.641,-70.312
1687734291.990,-70.801,-27.832,-34.180,-66.895,-108.887
1687734291.994,-66.406,-26.855,-36.621,-72.754,-101.562
1687734291.998,-13.184,-29.785,-35.645,-66.895,-151.367
1687734292.002,-5.371,-29.297,-37.109,-64.453,-153.320
1687734292.006,-45.410,-26.855,-35.645,-62.500,-161.133
1687734292.010,-97.168,-26.367,-35.645,-66.895,-68.359
1687734292.014,-110.352,-24.414,-35.645,-74.707,-14.648
1687734292.017,-61.035,-30.762,-38.086,-73.730,-139.648
1687734292.021,-30.762,-34.668,-37.109,-63.965,91.797
1687734292.025,-53.711,-32.227,-35.156,-60.547,344.727
1687734292.029,-102.539,-36.133,-33.691,-71.289,-1.953
1687734292.033,-118.164,-35.645,-34.668,-66.406,-132.324
1687734292.035,-57.129,-28.809,-34.180,-51.758,-42.480
1687734292.039,-15.137,-24.902,-33.203,-45.410,-89.355
1687734292.043,-34.668,-25.391,-31.250,-46.875,-142.090
1687734292.047,-80.566,-26.855,-28.809,-49.316,-119.629
1687734292.051,-111.816,-29.297,-31.250,-54.199,-55.176
1687734292.055,-68.359,-35.156,-32.227,-54.688,-40.039
1687734292.059,-24.902,-34.180,-34.180,-53.223,-17.578
1687734292.062,-36.621,-33.203,-33.691,-49.805,68.359
1687734292.066,-74.707,-35.156,-30.762,-43.457,306.641
1687734292.070,-104.980,-34.180,-30.762,-47.852,255.371
1687734292.074,-62.500,-30.762,-30.762,-51.270,-71.289
1687734292.078,-13.672,-30.762,-32.715,-47.363,-84.961
1687734292.080,-27.344,-34.180,-35.645,-51.270,-58.105
1687734292.084,-66.406,-35.156,-31.250,-59.570,-184.082
1687734292.088,-97.656,-34.668,-23.926,-57.129,-208.984
1687734292.092,-62.988,-35.645,-25.879,-51.270,-120.605
1687734292.096,-9.277,-39.062,-28.320,-44.922,-101.074
1687734292.100,-20.508,-36.133,-25.391,-44.922,-69.336
1687734292.104,-59.082,-31.250,-24.902,-49.805,-70.801
1687734292.107,-99.609,-31.250,-26.367,-55.664,2.441
1687734292.111,-77.148,-33.691,-30.762,-51.758,136.719
1687734292.115,-16.602,-35.645,-30.762,-48.340,-146.484
1687734292.119,-18.066,-35.156,-26.855,-55.176,-242.676
1687734292.123,-53.223,-35.645,-26.855,-57.617,-117.676
1687734292.127,-94.238,-34.668,-26.855,-60.059,-123.535
1687734292.131,-79.102,-36.133,-25.879,-57.129,-113.281
1687734292.135,-19.531,-35.156,-28.809,-51.270,-122.070
1687734292.139,-11.719,-30.273,-30.273,-46.875,-12.207
1687734292.143,-46.875,-34.180,-32.715,-51.270,-110.840
1687734292.147,-84.473,-34.180,-35.156,-53.711,-113.770
1687734292.151,-72.266,-37.109,-28.809,-47.363,90.820
1687734292.154,-15.625,-37.109,-27.344,-41.016,311.035
1687734292.158,0.488,-35.156,-29.297,-45.898,278.809
1687734292.162,-28.809,-37.109,-26.855,-58.594,-116.699
1687734292.166,-76.172,-34.180,-25.391,-65.430,-114.258
1687734292.170,-83.008,-29.297,-25.879,-64.453,-35.645
1687734292.170,-30.762,-30.762,-29.297,-57.129,-118.164
1687734292.174,-10.742,-33.203,-25.879,-49.805,-111.328
1687734292.178,-36.133,-34.668,-19.043,-51.758,-123.535
1687734292.182,-74.219,-29.785,-19.531,-53.711,-44.922
1687734292.186,-88.379,-25.879,-21.484,-54.688,-61.035
1687734292.190,-39.062,-28.809,-19.531,-49.316,-84.473
1687734292.194,-2.930,-26.855,-18.555,-40.527,63.965
1687734292.197,-24.414,-26.367,-25.391,-43.457,310.059
1687734292.201,-68.848,-30.762,-30.273,-61.523,62.500
1687734292.205,-90.332,-32.227,-26.367,-67.871,-138.672
1687734292.209,-45.898,-27.832,-26.367,-64.453,-44.434
1687734292.213,-8.789,-28.320,-26.855,-66.895,-69.336
1687734292.215,-21.484,-28.809,-25.879,-64.453,-131.348
1687734292.219,-62.500,-28.809,-23.438,-68.848,-153.320
1687734292.223,-93.750,-31.250,-20.020,-74.707,-41.016
1687734292.227,-49.805,-32.227,-21.484,-64.941,-35.156
1687734292.231,-8.789,-31.250,-20.996,-53.711,-128.418
1687734292.235,-24.902,-29.297,-18.066,-47.852,-54.199
1687734292.239,-60.547,-32.227,-14.160,-38.574,157.227
1687734292.242,-88.867,-29.785,-19.043,-42.480,67.871
1687734292.246,-59.082,-25.879,-26.855,-48.828,-78.125
1687734292.250,-15.625,-29.785,-24.414,-47.852,-46.387
1687734292.254,-19.043,-30.762,-21.973,-39.062,185.059
1687734292.258,-57.617,-31.738,-21.973,-39.551,105.469
1687734292.261,-101.562,-36.621,-21.484,-53.223,-148.926
1687734292.265,-63.965,-33.203,-19.531,-38.574,-123.535
1687734292.269,-8.301,-32.227,-18.066,-31.250,-110.352
1687734292.273,-18.555,-35.645,-22.461,-43.457,-117.188
1687734292.277,-53.711,-37.598,-25.391,-51.758,-131.836
1687734292.281,-104.492,-38.574,-31.250,-62.500,70.801
1687734292.285,-90.332,-33.203,-37.598,-63.477,150.879
1687734292.288,-22.949,-26.367,-32.227,-56.152,-97.656
1687734292.292,-18.066,-25.879,-29.297,-64.941,-129.395
1687734292.296,-62.012,-33.203,-31.738,-77.637,65.430
1687734292.300,-103.027,-32.715,-28.320,-75.195,100.098
1687734292.304,-87.891,-30.762,-21.484,-64.941,-110.840
1687734292.320,-26.855,-31.738,-22.949,-51.270,-149.414
1687734292.324,-12.695,-33.203,-27.344,-45.898,-94.727
1687734292.328,-43.457,-27.344,-21.484,-48.340,-150.879
1687734292.332,-93.750,-26.367,-24.902,-57.617,-186.035
1687734292.336,-86.426,-31.738,-29.785,-51.270,-118.164
1687734292.340,-25.879,-28.809,-29.785,-40.527,45.410
1687734292.344,-9.277,-21.484,-27.344,-39.551,30.273
1687734292.347,-36.621,-24.902,-23.926,-42.480,-30.273
1687734292.351,-88.379,-31.250,-23.438,-53.711,-76.660
1687734292.355,-95.703,-28.809,-26.367,-47.852,150.879
1687734292.359,-37.598,-24.902,-24.414,-35.156,267.090
1687734292.363,-9.766,-30.762,-23.926,-38.574,-86.426
1687734292.365,-33.203,-33.691,-27.344,-43.457,-163.574
1687734292.369,-77.637,-34.668,-26.855,-52.734,-57.617
1687734292.373,-93.750,-35.156,-31.738,-61.523,-174.316
1687734292.377,-41.992,-35.156,-34.668,-58.105,-205.566
1687734292.381,-15.137,-37.598,-29.785,-59.082,-100.586
1687734292.385,-39.062,-35.156,-30.273,-67.383,-38.086
1687734292.389,-84.473,-29.297,-31.250,-73.242,-5.371
1687734292.392,-102.539,-25.879,-27.344,-71.777,-63.965
1687734292.396,-50.781,-27.344,-26.367,-59.082,4.883
1687734292.400,-10.742,-29.785,-27.832,-48.340,168.457
1687734292.404,-22.461,-27.344,-29.785,-58.105,-86.426
1687734292.408,-66.895,-25.879,-28.320,-69.336,-196.777
1687734292.410,-102.051,-29.297,-24.902,-69.336,-64.453
1687734292.414,-58.594,-27.832,-25.879,-59.082,-85.938
1687734292.418,-10.742,-28.809,-27.344,-49.805,-174.316
1687734292.422,-25.391,-34.668,-26.367,-59.570,-128.906
1687734292.426,-65.430,-34.668,-25.879,-67.383,61.035
1687734292.430,-102.051,-35.645,-26.367,-65.430,15.137
1687734292.434,-62.988,-31.738,-26.367,-53.711,-62.500
1687734292.437,-4.883,-26.367,-27.832,-47.363,-11.719
1687734292.441,-3.906,-24.414,-24.414,-42.969,240.234
1687734292.445,-44.434,-27.344,-22.949,-46.875,246.582
1687734292.449,-90.820,-30.762,-26.367,-49.805,-54.199
1687734292.453,-62.012,-29.785,-23.438,-40.527,-85.938
1687734292.457,-6.836,-30.762,-20.020,-39.551,-66.406
1687734292.461,-5.371,-34.180,-20.508,-43.457,-124.023
1687734292.465,-39.062,-39.062,-19.531,-47.363,-65.430
1687734292.469,-85.449,-35.645,-20.020,-58.105,40.039
1687734292.473,-66.406,-33.203,-21.973,-56.152,10.254
1687734292.477,-1.953,-29.785,-21.484,-40.527,-48.828
1687734292.481,1.465,-29.785,-22.461,-43.945,-76.172
1687734292.484,-31.738,-35.156,-25.879,-56.641,3.906
1687734292.488,-78.125,-34.180,-27.344,-56.641,96.680
1687734292.492,-75.684,-32.227,-28.809,-58.105,-133.789
1687734292.496,-13.672,-34.668,-25.879,-53.711,-196.777
1687734292.500,0.488,-31.250,-19.531,-46.387,-78.125
1687734292.500,-39.062,-35.645,-22.461,-53.711,-103.516
1687734292.504,-96.680,-38.086,-24.414,-67.383,-125.488
1687734292.508,-91.797,-29.785,-20.996,-68.848,-131.348
1687734292.512,-35.156,-33.691,-25.391,-70.801,-121.582
1687734292.516,-16.113,-40.527,-27.344,-71.289,-186.523
1687734292.520,-37.109,-39.062,-22.461,-66.406,-104.004
1687734292.524,-82.520,-40.039,-23.438,-75.684,50.293
1687734292.527,-91.797,-37.109,-24.902,-82.520,250.000
1687734292.531,-35.156,-37.109,-21.484,-80.566,297.363
1687734292.535,-6.836,-38.086,-24.902,-93.262,-35.156
1687734292.539,-28.320,-32.715,-23.926,-101.074,-120.117
1687734292.543,-77.637,-33.691,-22.949,-101.562,-45.410
1687734292.545,-97.168,-35.645,-20.020,-103.516,-121.582
1687734292.549,-42.480,-31.250,-19.043,-89.844,-166.504
1687734292.553,-10.742,-34.668,-23.438,-81.543,-88.867
1687734292.557,-27.344,-38.574,-26.855,-81.055,-54.199
1687734292.561,-68.848,-36.133,-27.832,-79.102,-154.297
1687734292.565,-103.027,-40.039,-35.645,-90.820,-127.441
1687734292.569,-59.082,-37.598,-36.133,-81.543,142.090
1687734292.572,-13.672,-39.551,-29.785,-63.477,288.574
1687734292.576,-23.926,-42.480,-35.156,-73.242,-62.012
1687734292.580,-63.477,-41.016,-32.715,-79.590,-174.805
1687734292.584,-104.004,-40.527,-32.227,-81.055,-60.059
1687734292.588,-67.383,-41.504,-34.668,-70.801,-83.984
1687734292.590,-9.277,-43.945,-33.691,-54.688,-91.797
1687734292.594,-14.648,-37.598,-30.273,-53.223,-69.824
1687734292.598,-58.594,-37.598,-26.367,-60.547,-60.547
1687734292.602,-98.145,-35.645,-30.273,-68.848,-60.547
1687734292.606,-68.359,-37.109,-32.715,-68.359,-89.844
1687734292.610,-19.043,-37.598,-32.227,-62.988,58.594
1687734292.614,-27.344,-33.203,-37.598,-67.871,259.277
1687734292.617,-63.965,-33.691,-41.504,-69.824,159.668
1687734292.621,-106.934,-32.227,-36.621,-69.824,-22.949
1687734292.625,-81.055,-37.598,-32.227,-61.035,-33.203
1687734292.629,-20.996,-42.969,-32.715,-47.363,185.547
1687734292.633,-20.508,-38.574,-37.109,-50.293,51.758
1687734292.635,-47.363,-36.133,-38.086,-61.523,-207.520
1687734292.639,-91.309,-40.527,-39.551,-63.477,-141.113
1687734292.643,-76.660,-34.180,-39.551,-47.852,-73.242
1687734292.647,-13.672,-27.832,-35.645,-37.598,-131.836
1687734292.651,-5.371,-30.273,-31.250,-33.203,-143.066
1687734292.655,-38.574,-34.180,-33.203,-31.250,7.324
1687734292.659,-84.961,-40.039,-38.574,-36.621,89.844
1687734292.662,-83.008,-41.992,-39.062,-32.715,-57.129
1687734292.666,-21.484,-41.016,-33.203,-23.926,-198.730
1687734292.670,7.812,-41.016,-28.809,-23.926,-51.758
1687734292.674,-20.996,-42.969,-36.621,-33.691,27.832
1687734292.678,-72.754,-43.945,-45.898,-52.246,-94.238
1687734292.695,-65.918,-40.039,-44.434,-56.152,1.953
1687734292.699,-6.348,-40.039,-50.293,-43.945,131.836
1687734292.703,15.625,-40.527,-48.828,-47.852,11.230
1687734292.707,-13.184,-42.480,-44.434,-57.617,-153.320
1687734292.711,-72.754,-44.922,-44.922,-60.059,-99.121
1687734292.715,-91.797,-41.504,-42.480,-60.547,17.090
1687734292.719,-41.016,-39.062,-39.551,-50.293,6.348
1687734292.722,-16.602,-41.504,-39.551,-46.875,-8.789
1687734292.726,-43.457,-42.480,-40.039,-51.270,-51.270
1687734292.730,-90.332,-41.016,-37.109,-51.270,156.738
1687734292.734,-113.770,-44.434,-41.016,-52.246,182.129
1687734292.738,-60.547,-45.898,-39.551,-42.969,-98.633
1687734292.744,-18.066,-42.480,-34.668,-34.668,-132.324
1687734292.748,-47.363,-43.945,-41.504,-43.457,-114.258
1687734292.752,-92.285,-44.922,-43.945,-48.340,-88.867
1687734292.756,-116.699,-43.945,-44.922,-48.828,-56.641
1687734292.760,-75.195,-44.922,-45.898,-38.574,-27.344
1687734292.764,-27.832,-46.875,-41.992,-30.273,79.590
1687734292.768,-36.621,-51.270,-40.039,-29.785,-38.086
1687734292.771,-70.312,-52.246,-36.621,-36.621,-204.102
1687734292.775,-101.562,-46.875,-38.574,-39.551,-28.320
1687734292.779,-61.523,-42.480,-39.062,-20.996,166.992
1687734292.783,-9.277,-38.574,-39.062,-16.113,-119.141
1687734292.787,-17.090,-37.109,-41.016,-23.438,-223.145
1687734292.785,-53.223,-39.062,-42.480,-27.832,-115.723
1687734292.789,-94.727,-41.992,-41.016,-31.738,-120.117
1687734292.793,-71.777,-42.969,-35.645,-23.438,-115.723
1687734292.797,-16.602,-35.645,-32.715,-15.137,-131.836
1687734292.801,-14.160,-39.062,-29.785,-14.160,-38.086
1687734292.805,-54.199,-43.945,-32.715,-24.902,3.906
1687734292.809,-104.980,-41.016,-35.645,-32.715,-38.086
1687734292.812,-83.008,-42.480,-33.203,-32.715,18.555
1687734292.816,-18.066,-41.016,-37.109,-24.414,332.031
1687734292.820,-14.160,-39.062,-42.969,-21.973,381.836
1687734292.824,-46.875,-37.598,-42.969,-31.738,29.297
1687734292.828,-91.309,-39.062,-41.016,-44.922,-124.023
1687734292.830,-83.984,-40.527,-44.434,-37.598,-96.191
1687734292.834,-28.320,-39.551,-46.387,-27.832,-146.973
1687734292.838,-12.695,-42.480,-43.457,-29.297,-193.848
1687734292.842,-38.574,-44.922,-40.527,-30.273,-116.699
1687734292.846,-96.191,-40.527,-39.551,-38.086,-64.941
1687734292.850,-99.609,-36.621,-40.039,-44.434,-80.566
1687734292.854,-38.086,-40.039,-43.457,-40.039,-87.402
1687734292.857,-20.508,-41.992,-49.316,-30.762,88.867
1687734292.861,-53.711,-39.062,-42.480,-27.832,313.965
1687734292.865,-96.680,-36.621,-40.039,-37.598,-35.645
1687734292.869,-97.168,-31.250,-45.898,-39.551,-194.824
1687734292.873,-39.062,-34.180,-41.504,-34.180,-59.570
1687734292.875,-5.859,-37.598,-37.598,-27.832,-119.629
1687734292.879,-26.855,-35.156,-41.992,-32.227,-185.059
1687734292.883,-68.848,-25.879,-39.062,-37.598,-140.137
1687734292.887,-80.078,-20.996,-35.156,-29.785,-41.992
1687734292.891,-26.367,-25.879,-44.922,-22.949,-72.754
1687734292.895,7.324,-33.203,-45.898,-20.996,-38.574
1687734292.899,-12.207,-32.227,-41.504,-21.484,0.488
1687734292.902,-56.152,-30.273,-48.340,-22.461,241.699
1687734292.906,-76.172,-29.785,-49.316,-20.508,321.289
1687734292.910,-25.391,-31.738,-45.410,-19.531,-7.324
1687734292.914,20.508,-31.738,-41.992,-15.137,-46.875
1687734292.918,-0.977,-26.855,-38.574,-21.484,36.133
1687734292.921,-51.270,-28.320,-42.480,-39.551,-102.051
1687734292.925,-74.219,-25.391,-39.062,-40.527,-166.016
1687734292.929,-34.180,-24.902,-41.992,-34.180,-59.570
1687734292.933,4.883,-27.344,-48.340,-32.715,-54.688
1687734292.937,-5.859,-27.344,-48.828,-34.668,-139.648
1687734292.941,-51.758,-30.273,-45.898,-41.504,-143.555
1687734292.945,-91.797,-35.645,-47.852,-48.340,73.242
1687734292.948,-51.758,-33.691,-47.852,-38.574,145.508
1687734292.952,4.883,-25.391,-43.457,-37.109,-176.270
1687734292.956,0.488,-27.344,-41.504,-38.086,-268.066
1687734292.960,-35.645,-33.691,-40.039,-35.156,-209.961
1687734292.964,-74.707,-39.062,-40.527,-40.039,-185.059
1687734292.966,-48.340,-40.039,-43.457,-35.156,-207.520
1687734292.970,13.184,-36.621,-45.898,-20.996,-217.285
1687734292.974,20.996,-33.203,-43.945,-8.789,-48.828
1687734292.978,-12.207,-32.227,-39.551,-11.230,-83.984
1687734292.982,-59.082,-37.109,-39.551,-17.578,-128.906
1687734292.986,-43.945,-34.180,-36.133,-10.254,-31.738
1687734292.990,18.555,-24.414,-28.809,1.465,230.957
1687734292.993,27.344,-27.832,-26.367,1.953,158.203
1687734292.997,-12.207,-34.668,-27.832,-12.207,-171.875
1687734293.001,-62.988,-35.156,-33.203,-23.438,-147.949
1687734293.005,-54.688,-31.738,-36.621,-15.625,81.543
1687734293.009,8.301,-24.902,-39.062,-10.742,-81.543
1687734293.012,17.578,-25.391,-37.598,-20.508,-251.953
1687734293.016,-16.602,-27.832,-34.180,-32.227,-138.184
1687734293.020,-64.941,-25.391,-37.598,-43.457,-105.957
1687734293.024,-80.078,-34.668,-43.457,-53.223,-156.250
1687734293.028,-21.973,-39.062,-48.828,-49.805,-160.156
1687734293.032,5.859,-35.156,-46.875,-48.340,0.488
1687734293.036,-17.578,-35.156,-44.922,-46.875,172.363
1687734293.039,-60.547,-32.715,-43.457,-49.316,-53.223
1687734293.043,-66.895,-30.762,-42.969,-51.758,-198.242
1687734293.047,-13.184,-31.738,-43.457,-46.875,-101.074
1687734293.051,16.602,-29.297,-41.504,-44.922,-79.102
1687734293.055,-8.789,-35.645,-46.875,-49.316,-175.781
1687734293.070,-58.594,-40.039,-48.828,-53.223,-126.953
1687734293.074,-78.125,-35.156,-43.457,-53.223,-1.465
1687734293.078,-29.785,-34.180,-38.086,-43.457,-82.520
1687734293.082,5.371,-34.180,-43.945,-34.180,-108.398
1687734293.086,-10.742,-28.809,-43.945,-33.691,22.949
1687734293.090,-54.688,-36.133,-47.852,-38.574,241.211
1687734293.094,-81.055,-44.434,-51.270,-45.410,164.062
1687734293.097,-27.832,-41.016,-44.434,-39.062,-69.336
1687734293.101,16.602,-41.504,-42.969,-28.320,-36.621
1687734293.105,1.953,-38.086,-41.016,-19.531,174.316
1687734293.109,-46.875,-37.109,-42.969,-33.203,71.777
1687734293.113,-81.543,-36.621,-43.457,-44.922,-169.922
1687734293.115,-41.016,-38.086,-45.410,-35.645,-142.578
1687734293.119,3.906,-42.480,-45.410,-25.391,-90.332
1687734293.123,-4.395,-42.480,-42.969,-22.949,-123.535
1687734293.127,-39.062,-38.086,-38.086,-27.832,-194.336
1687734293.131,-80.566,-41.016,-43.945,-41.992,-162.109
1687734293.135,-54.199,-43.945,-52.734,-47.852,-51.758
1687734293.139,2.930,-34.180,-44.922,-37.109,-48.828
1687734293.142,3.906,-31.250,-38.086,-28.320,-105.469
1687734293.146,-34.668,-37.109,-36.133,-33.203,-32.715
1687734293.150,-79.102,-32.227,-38.086,-40.039,229.980
1687734293.154,-58.594,-33.691,-41.504,-42.969,6.836
1687734293.158,-7.812,-38.086,-40.039,-40.039,-119.629
1687734293.160,-11.230,-35.645,-38.574,-42.969,34.180
1687734293.164,-46.875,-35.645,-41.504,-50.293,-50.781
1687734293.168,-87.891,-34.668,-43.457,-54.199,-154.297
1687734293.172,-71.777,-35.645,-38.574,-53.223,-110.352
1687734293.176,-17.578,-32.227,-41.504,-44.922,-16.602
1687734293.180,-15.625,-32.715,-45.410,-47.852,4.883
1687734293.184,-44.922,-41.016,-45.410,-54.688,-1.465
1687734293.187,-89.355,-40.527,-43.457,-57.129,14.160
1687734293.191,-82.520,-33.691,-32.715,-44.922,254.883
1687734293.195,-23.926,-33.691,-35.156,-32.715,370.605
1687734293.199,-6.836,-37.598,-41.504,-39.551,-4.395
1687734293.203,-34.180,-32.715,-37.109,-50.781,-182.617
1687734293.205,-85.938,-35.645,-42.969,-58.105,-131.348
1687734293.209,-87.891,-41.504,-43.457,-51.270,-124.512
1687734293.213,-33.203,-39.062,-43.945,-41.992,-116.699
1687734293.217,-15.625,-38.086,-45.898,-47.852,-129.883
1687734293.221,-36.133,-34.180,-45.410,-48.828,-104.980
1687734293.225,-83.496,-33.691,-46.875,-51.758,-100.586
1687734293.229,-101.562,-33.203,-44.434,-55.176,-109.375
1687734293.232,-41.016,-28.320,-38.574,-41.992,5.371
1687734293.236,-6.836,-29.297,-39.062,-36.621,210.938
1687734293.240,-34.180,-33.203,-42.480,-49.805,-62.500
1687734293.244,-90.820,-35.645,-41.016,-64.941,-170.898
1687734293.248,-109.863,-36.133,-38.086,-59.082,-0.488
1687734293.250,-52.246,-37.109,-36.133,-45.410,-94.727
1687734293.254,-11.230,-34.180,-39.551,-47.852,-160.156
1687734293.258,-26.855,-32.715,-42.480,-48.828,-104.980
1687734293.262,-68.848,-28.809,-41.992,-49.805,-21.973
1687734293.266,-100.098,-27.344,-41.504,-55.664,-81.055
1687734293.270,-54.199,-31.738,-36.621,-46.875,-73.242
1687734293.274,2.441,-31.250,-34.668,-35.156,26.855
1687734293.277,-2.441,-24.414,-33.691,-32.227,286.133
1687734293.281,-40.527,-22.949,-33.203,-38.574,310.059
1687734293.285,-79.590,-31.250,-35.156,-49.805,-80.566
1687734293.289,-47.363,-32.227,-35.156,-47.852,-141.602
1687734293.293,6.836,-28.809,-33.691,-41.016,-87.891
1687734293.297,0.000,-32.227,-34.668,-44.922,-150.879
1687734293.301,-45.410,-33.691,-40.039,-56.152,-173.828
1687734293.305,-84.473,-27.344,-41.504,-55.176,-84.961
1687734293.309,-55.176,-27.832,-37.598,-45.898,62.988
1687734293.313,-3.906,-27.344,-40.039,-41.504,-41.016
1687734293.317,-10.742,-26.367,-43.457,-43.457,-140.137
1687734293.321,-52.734,-31.250,-41.992,-45.410,48.828
1687734293.324,-93.262,-31.250,-37.109,-41.016,232.910
1687734293.328,-72.754,-34.180,-36.133,-41.016,-30.273
1687734293.332,-19.531,-39.551,-38.086,-39.551,-213.379
1687734293.336,-20.020,-37.598,-40.527,-36.133,-155.273
1687734293.340,-54.199,-36.621,-37.598,-47.363,-91.309
1687734293.340,-96.191,-36.133,-35.156,-54.688,-42.969
1687734293.344,-87.891,-36.133,-37.109,-41.016,-20.996
1687734293.348,-24.414,-37.109,-39.062,-33.203,13.672
1687734293.352,-15.625,-40.039,-41.992,-35.645,-20.020
1687734293.356,-48.340,-44.434,-43.945,-42.969,-54.199
1687734293.360,-85.449,-38.574,-43.945,-51.270,15.625
1687734293.364,-70.801,-34.180,-48.340,-42.480,321.777
1687734293.367,-9.277,-32.715,-46.875,-34.668,422.852
1687734293.371,7.324,-33.691,-40.527,-41.016,11.230
1687734293.375,-18.066,-34.668,-39.551,-41.016,-171.387
1687734293.379,-67.871,-32.715,-41.504,-41.992,-162.109
1687734293.383,-80.078,-34.668,-45.410,-41.992,-162.598
1687734293.385,-24.902,-36.133,-47.363,-38.086,-142.578
1687734293.389,-2.930,-32.227,-47.363,-34.668,-149.902
1687734293.393,-25.879,-32.227,-46.875,-41.016,-121.582
1687734293.397,-69.336,-36.621,-47.363,-60.547,-93.750
1687734293.401,-79.102,-32.715,-46.387,-65.918,-106.934
1687734293.405,-21.973,-35.156,-46.387,-62.500,20.508
1687734293.409,15.137,-37.598,-43.457,-62.012,122.070
1687734293.412,0.000,-29.297,-40.039,-62.988,71.777
1687734293.416,-41.016,-28.809,-43.945,-72.266,-112.793
1687734293.420,-62.988,-30.762,-48.828,-74.707,-68.359
1687734293.424,-16.602,-30.762,-41.992,-54.688,154.785
1687734293.428,15.625,-36.621,-39.551,-49.805,-36.133
1687734293.445,-9.277,-37.598,-38.574,-55.664,-103.516
1687734293.449,-58.594,-37.109,-39.551,-59.082,-54.199
1687734293.453,-95.703,-38.086,-39.551,-63.477,-62.500
1687734293.457,-58.105,-36.621,-37.109,-55.176,-63.477
1687734293.461,-8.301,-36.133,-35.156,-42.480,-117.676
1687734293.465,-17.578,-41.504,-36.133,-39.551,-15.137
1687734293.469,-56.641,-41.504,-36.133,-43.945,-0.977
1687734293.472,-93.262,-37.109,-36.621,-50.781,-31.250
1687734293.476,-58.594,-38.086,-35.156,-41.992,-22.949
1687734293.480,-5.859,-37.598,-30.762,-28.320,184.082
1687734293.484,-11.719,-35.645,-36.133,-26.855,318.359
1687734293.488,-50.293,-34.668,-39.551,-40.039,5.859
1687734293.490,-96.680,-35.156,-39.062,-52.246,-91.309
1687734293.494,-76.172,-33.203,-42.480,-49.316,-91.797
1687734293.498,-23.438,-32.227,-42.969,-43.945,-180.176
1687734293.502,-23.438,-38.574,-36.133,-48.340,-162.109
1687734293.506,-59.082,-40.527,-41.016,-60.059,-103.516
1687734293.510,-103.027,-39.062,-42.480,-63.477,-15.625
1687734293.514,-81.543,-35.645,-37.598,-51.758,-11.719
1687734293.517,-20.508,-35.645,-41.992,-43.945,-146.484
1687734293.521,-11.719,-38.574,-41.992,-42.480,-39.551
1687734293.525,-42.969,-33.203,-39.551,-48.828,177.734
1687734293.529,-89.844,-36.133,-42.480,-62.012,-79.102
1687734293.533,-80.566,-35.645,-38.574,-51.758,-116.211
1687734293.535,-17.090,-32.227,-35.645,-37.109,40.039
1687734293.539,-2.930,-28.809,-32.715,-36.133,-77.148
1687734293.543,-34.668,-29.297,-30.762,-43.945,-154.297
1687734293.547,-82.520,-33.691,-32.715,-51.270,-119.141
1687734293.551,-85.938,-34.180,-31.250,-47.852,-60.547
1687734293.555,-30.273,-34.668,-32.227,-39.062,19.531
1687734293.559,-5.371,-29.785,-34.668,-34.180,51.758
1687734293.562,-29.297,-27.344,-31.738,-32.715,45.410
1687734293.566,-77.637,-32.715,-27.344,-40.039,273.926
1687734293.570,-90.820,-35.156,-33.691,-42.480,285.156
1687734293.574,-42.969,-31.738,-35.645,-37.598,-28.809
1687734293.578,-20.996,-33.203,-33.203,-41.504,-144.043
1687734293.595,-46.875,-36.133,-36.133,-48.828,-167.969
1687734293.599,-92.285,-34.180,-30.762,-58.594,-133.789
1687734293.603,-109.375,-31.738,-23.438,-59.570,-135.742
1687734293.607,-59.082,-28.320,-23.438,-49.316,-100.586
1687734293.611,-28.809,-27.832,-27.344,-42.969,38.086
1687734293.615,-51.758,-29.297,-29.785,-50.293,-34.180
1687734293.619,-86.914,-28.320,-28.320,-56.641,-147.461
1687734293.622,-106.445,-26.855,-27.344,-49.316,-35.156
1687734293.626,-61.035,-27.832,-25.879,-39.551,136.719
1687734293.630,-17.090,-30.273,-30.762,-41.992,-87.402
1687734293.634,-22.461,-29.297,-33.203,-38.086,-225.586
1687734293.638,-60.547,-30.762,-26.855,-38.086,-107.422
1687734293.625,-92.773,-36.133,-29.785,-45.410,-92.285
1687734293.629,-46.875,-37.598,-30.762,-41.016,-200.684
1687734293.633,4.883,-36.621,-34.668,-37.109,-166.016
1687734293.637,-7.812,-30.762,-32.715,-39.062,14.160
1687734293.641,-48.340,-28.320,-26.367,-42.969,-37.598
1687734293.645,-87.402,-28.809,-29.785,-49.805,-4.883
1687734293.649,-57.617,-30.273,-31.250,-50.293,80.078
1687734293.652,2.930,-26.367,-26.855,-39.062,180.176
1687734293.656,-0.488,-22.949,-26.367,-40.527,66.406
1687734293.660,-43.945,-28.320,-29.785,-53.711,-168.457
1687734293.664,-87.402,-32.715,-32.227,-62.500,-129.395
1687734293.668,-65.918,-29.297,-30.762,-52.734,201.172
1687734293.670,-13.184,-30.273,-31.250,-46.387,235.352
1687734293.674,-13.672,-39.062,-32.227,-58.594,-109.375
1687734293.678,-49.316,-36.621,-32.715,-66.895,-161.133
1687734293.682,-88.379,-29.297,-29.785,-74.707,-122.559
1687734293.686,-70.801,-25.879,-27.832,-76.660,-173.340
1687734293.690,-14.648,-25.879,-28.809,-66.406,-144.043
1687734293.694,-10.254,-28.809,-29.785,-63.477,72.266
1687734293.697,-41.992,-25.879,-27.344,-63.477,255.371
1687734293.701,-83.984,-21.484,-25.879,-73.242,-37.598
1687734293.705,-77.148,-25.391,-27.344,-81.055,-195.312
1687734293.709,-19.531,-29.785,-26.855,-70.312,-22.461
1687734293.713,-2.930,-29.297,-23.438,-65.430,-34.180
1687734293.715,-36.133,-28.320,-26.367,-73.242,-170.410
1687734293.719,-84.473,-26.367,-27.832,-78.613,-163.574
1687734293.723,-87.891,-27.832,-25.879,-75.195,-67.871
1687734293.727,-38.574,-29.785,-28.320,-68.848,-39.062
1687734293.731,-17.578,-25.879,-26.855,-66.895,-156.250
1687734293.735,-39.551,-32.227,-27.344,-68.848,-145.508
1687734293.739,-89.355,-37.598,-29.785,-76.172,112.793
1687734293.742,-100.586,-29.785,-25.391,-74.707,40.039
1687734293.746,-48.340,-28.809,-25.879,-68.359,-119.141
1687734293.750,-17.090,-29.785,-26.855,-62.012,-83.496
1687734293.754,-33.203,-29.785,-26.855,-55.664,178.711
1687734293.758,-73.730,-26.367,-29.297,-65.430,83.496
1687734293.760,-92.773,-22.461,-30.273,-74.707,-122.070
1687734293.764,-43.945,-24.902,-32.715,-63.477,-135.742
1687734293.768,-3.418,-23.438,-31.250,-53.711,-130.371
1687734293.772,-21.484,-27.344,-28.320,-59.082,-89.844
1687734293.776,-60.547,-34.180,-27.344,-65.430,-148.438
1687734293.780,-88.867,-32.715,-33.203,-64.453,-38.574
1687734293.784,-52.246,-26.855,-31.738,-59.570,131.836
1687734293.787,-5.371,-27.344,-26.367,-63.965,-8.789
1687734293.791,-18.555,-34.668,-30.762,-73.730,-148.926
1687734293.795,-61.523,-37.109,-33.691,-74.219,-32.715
1687734293.799,-95.215,-35.156,-33.203,-73.242,40.039
1687734293.803,-56.641,-28.809,-31.250,-62.500,-130.859
1687734293.820,-8.301,-25.879,-33.203,-56.641,-149.414
1687734293.824,-12.207,-26.855,-29.785,-50.781,80.078
1687734293.828,-42.969,-20.508,-22.461,-46.875,107.422
1687734293.832,-94.727,-19.043,-22.461,-56.641,-58.105
1687734293.836,-80.078,-25.879,-23.438,-51.270,-48.340
1687734293.840,-25.391,-29.297,-24.414,-41.992,73.730
1687734293.844,-28.320,-26.855,-24.902,-44.922,76.660
1687734293.847,-67.871,-26.855,-26.367,-53.711,19.531
1687734293.851,-114.746,-31.250,-25.391,-58.105,4.883
1687734293.855,-89.844,-27.344,-20.020,-47.852,243.164
1687734293.859,-21.973,-20.020,-18.555,-44.922,206.055
1687734293.863,-11.230,-23.926,-25.391,-52.246,-106.934
1687734293.865,-44.922,-30.762,-28.809,-55.176,-71.289
1687734293.869,-88.379,-31.250,-28.320,-60.547,-67.871
1687734293.873,-72.266,-27.344,-35.156,-58.594,-173.828
1687734293.877,-4.395,-22.949,-29.785,-41.504,-178.711
1687734293.881,4.883,-27.832,-26.367,-30.273,-164.551
1687734293.885,-28.320,-31.738,-29.297,-38.574,-108.398
1687734293.889,-66.406,-31.738,-26.367,-45.898,14.160
1687734293.892,-62.988,-32.715,-19.531,-43.945,-5.859
1687734293.896,-5.371,-31.738,-20.020,-36.133,-1.953
1687734293.900,12.207,-35.156,-27.344,-32.715,97.168
1687734293.904,-17.090,-37.109,-27.832,-38.574,-91.797
1687734293.908,-62.012,-37.109,-27.344,-41.504,-171.387
1687734293.925,-72.266,-36.133,-33.203,-46.875,-86.426
1687734293.929,-18.066,-34.180,-33.203,-47.363,-64.453
1687734293.933,6.836,-30.273,-29.297,-42.480,-132.812
1687734293.937,-13.672,-23.438,-25.879,-41.504,-46.387
1687734293.941,-58.594,-25.391,-24.414,-40.527,51.758
1687734293.945,-79.590,-29.785,-28.809,-39.062,-11.230
1687734293.949,-33.203,-33.203,-32.227,-42.480,-50.293
1687734293.952,-2.441,-34.668,-29.785,-44.922,-70.312
1687734293.956,-26.855,-30.273,-27.344,-43.457,238.281
1687734293.960,-79.102,-27.344,-30.762,-50.293,267.578
1687734293.964,-103.027,-29.785,-29.297,-56.641,-88.867
1687734293.968,-57.129,-31.250,-28.320,-47.363,-119.629
1687734293.956,-18.555,-28.320,-30.273,-41.504,-81.543
1687734293.960,-33.203,-31.738,-29.785,-41.992,-140.137
1687734293.964,-82.031,-37.109,-31.738,-48.340,-128.418
1687734293.968,-116.211,-41.016,-31.738,-54.199,-37.598
1687734293.972,-71.777,-41.016,-28.320,-53.223,-32.715
1687734293.976,-20.996,-35.156,-24.902,-44.922,-56.152
1687734293.980,-28.320,-31.250,-26.367,-41.016,-46.387
1687734293.983,-71.289,-34.668,-23.926,-53.223,31.250
1687734293.987,-105.469,-33.691,-22.461,-57.129,-45.410
1687734293.991,-69.824,-31.738,-24.414,-50.781,-114.746
1687734293.995,-17.578,-32.227,-23.438,-46.875,-168.945
1687734293.999,-20.996,-35.156,-23.926,-40.527,-17.578
1687734294.000,-59.570,-35.645,-24.902,-45.898,293.457
1687734294.004,-103.027,-32.715,-23.438,-57.129,-49.316
1687734294.008,-73.730,-28.320,-23.438,-50.293,-250.977
1687734294.012,-15.137,-20.020,-22.949,-39.062,-92.773
1687734294.016,-20.996,-20.020,-23.926,-40.039,-85.449
1687734294.020,-53.223,-22.949,-21.484,-43.457,-27.832
1687734294.024,-99.121,-32.227,-24.414,-51.758,2.441
1687734294.027,-87.891,-37.109,-27.344,-47.363,156.250
1687734294.031,-31.250,-35.645,-29.297,-36.621,291.992
1687734294.035,-34.180,-40.039,-30.762,-49.805,-33.203
1687734294.039,-69.336,-36.133,-30.273,-61.035,-110.840
1687734294.043,-114.746,-35.156,-30.273,-61.035,110.352
1687734294.045,-108.398,-33.691,-27.344,-61.035,9.766
1687734294.049,-44.434,-33.691,-29.297,-58.594,-134.277
1687734294.053,-27.344,-37.109,-30.273,-61.035,-124.023
1687734294.057,-61.035,-34.180,-29.297,-67.871,-99.121
1687734294.061,-104.492,-35.156,-29.297,-74.219,-98.145
1687734294.065,-98.633,-34.180,-29.785,-68.359,-107.422
1687734294.069,-37.598,-33.691,-31.250,-51.270,41.016
1687734294.072,-11.230,-36.621,-32.227,-43.457,222.168
1687734294.076,-30.762,-34.668,-32.227,-46.387,-39.551
1687734294.080,-74.707,-37.109,-30.273,-48.340,-140.137
1687734294.084,-85.938,-35.645,-27.832,-44.922,21.973
1687734294.088,-30.762,-29.785,-24.902,-37.598,5.371
1687734294.090,2.441,-29.297,-23.926,-28.809,-141.113
1687734294.094,-20.508,-33.203,-26.367,-28.320,-147.949
1687734294.098,-72.754,-36.621,-30.762,-41.504,-104.004
1687734294.102,-94.727,-33.203,-32.715,-46.387,-147.949
1687734294.106,-50.781,-32.227,-31.738,-41.504,-178.711
1687734294.110,-17.090,-32.715,-31.250,-41.016,-42.969
1687734294.114,-41.504,-37.109,-36.133,-42.480,250.000
1687734294.117,-83.496,-36.133,-33.203,-48.828,105.957
1687734294.121,-106.934,-32.715,-30.762,-54.688,-215.820
1687734294.125,-68.848,-37.109,-33.691,-46.875,-175.293
1687734294.129,-24.902,-41.016,-31.250,-36.133,45.410
1687734294.133,-42.480,-34.180,-28.809,-48.340,-43.945
1687734294.137,-82.031,-26.855,-28.809,-57.129,-111.328
1687734294.141,-101.074,-24.414,-30.273,-48.340,-65.430
1687734294.145,-59.570,-26.855,-27.344,-46.387,-73.242
1687734294.149,-3.906,-31.250,-25.391,-42.480,-134.766
1687734294.153,0.977,-31.738,-21.973,-44.922,-212.891
1687734294.157,-33.691,-28.320,-26.367,-59.570,23.438
1687734294.161,-79.590,-26.855,-32.715,-70.312,100.586
1687734294.164,-37.598,-20.996,-26.367,-63.477,-110.352
1687734294.168,22.461,-19.531,-26.367,-52.246,-177.246
1687734294.172,-4.883,-21.973,-31.250,-57.617,-54.688
1687734294.176,-54.688,-26.367,-35.156,-60.059,37.598
1687734294.180,-93.262,-31.738,-32.227,-63.477,-133.789
1687734294.196,-70.801,-30.762,-27.344,-60.059,-222.656
1687734294.200,-16.113,-32.227,-26.855,-49.316,-112.793
1687734294.204,-21.484,-35.645,-34.180,-54.688,1.953
1687734294.208,-62.988,-33.203,-37.109,-69.824,-30.273
1687734294.212,-110.352,-31.738,-28.320,-72.754,-102.539
1687734294.216,-96.191,-32.227,-22.461,-59.082,236.328
1687734294.220,-28.809,-32.715,-27.344,-47.363,285.156
1687734294.223,-25.879,-35.645,-33.691,-63.965,-60.547
1687734294.227,-62.988,-41.016,-34.668,-76.660,-82.031
1687734294.231,-109.375,-38.086,-37.109,-75.195,159.668
1687734294.235,-100.098,-30.762,-36.621,-65.430,79.590
1687734294.239,-38.086,-37.109,-33.203,-58.105,-144.531
1687734294.240,-18.066,-37.109,-26.855,-58.105,-77.148
1687734294.244,-39.551,-32.715,-23.926,-50.293,-39.551
1687734294.248,-87.402,-36.621,-19.531,-46.875,-80.566
1687734294.252,-91.309,-40.527,-23.438,-45.410,-160.645
1687734294.256,-38.086,-42.480,-32.715,-43.457,-83.008
1687734294.260,-12.695,-32.227,-30.273,-42.480,61.035
1687734294.264,-34.180,-28.320,-26.855,-41.016,25.879
1687734294.267,-80.566,-32.227,-31.250,-53.223,-73.730
1687734294.271,-96.191,-35.645,-29.785,-59.570,-25.391
1687734294.275,-46.387,-36.621,-26.855,-46.387,237.793
1687734294.279,-18.555,-37.598,-27.832,-50.293,38.574
1687734294.283,-41.504,-36.133,-31.250,-60.059,-135.254
1687734294.285,-85.449,-29.785,-34.180,-63.477,-30.273
1687734294.289,-107.910,-26.367,-31.738,-68.359,-83.984
1687734294.293,-63.965,-31.250,-27.832,-63.965,-124.512
1687734294.297,-28.809,-30.273,-27.344,-58.105,-99.609
1687734294.301,-45.410,-29.785,-28.320,-59.570,-41.992
1687734294.305,-93.262,-29.297,-30.762,-65.918,-5.859
1687734294.309,-118.652,-25.391,-31.250,-65.918,-67.383
1687734294.312,-75.195,-31.250,-28.320,-59.082,-55.176
1687734294.316,-29.297,-32.227,-27.832,-46.875,291.504
1687734294.320,-37.109,-30.273,-26.367,-40.039,375.000
1687734294.324,-75.684,-31.738,-27.344,-52.246,-70.312
1687734294.328,-111.816,-26.855,-29.297,-60.059,-174.805
1687734294.330,-80.078,-22.461,-28.320,-49.805,-109.375
1687734294.334,-28.809,-27.344,-28.809,-45.410,-217.773
1687734294.338,-36.621,-34.180,-30.273,-55.176,-208.984
1687734294.342,-74.707,-34.668,-23.438,-61.523,-155.273
1687734294.346,-111.328,-35.645,-20.508,-64.453,-117.676
1687734294.350,-79.590,-39.062,-23.926,-55.176,-67.383
1687734294.354,-28.320,-40.039,-24.902,-51.758,-42.480
1687734294.357,-36.621,-34.180,-22.461,-52.734,37.598
1687734294.361,-82.031,-31.250,-20.020,-46.875,197.754
1687734294.365,-131.348,-32.715,-16.602,-57.129,20.020
1687734294.369,-112.305,-32.715,-19.531,-60.547,-118.164
1687734294.373,-46.387,-30.273,-22.949,-55.664,6.348
1687734294.375,-41.504,-35.645,-20.508,-65.430,-2.930
1687734294.379,-74.707,-42.969,-20.996,-76.172,-180.176
1687734294.383,-116.211,-35.645,-20.508,-77.637,-190.918
1687734294.387,-110.352,-31.250,-16.602,-69.824,-144.043
1687734294.391,-50.781,-32.715,-16.113,-59.570,-110.352
1687734294.395,-35.645,-35.645,-19.043,-55.664,-62.988
1687734294.399,-68.359,-38.086,-23.926,-59.570,-63.477
1687734294.402,-111.816,-37.109,-22.461,-66.895,157.715
1687734294.406,-102.051,-32.227,-22.461,-55.176,318.359
1687734294.410,-38.574,-32.715,-28.809,-46.387,37.109
1687734294.414,-16.602,-32.227,-29.297,-43.945,-132.324
1687734294.418,-44.434,-24.902,-27.344,-49.805,-103.027
1687734294.421,-97.168,-25.391,-29.297,-58.105,-62.012
1687734294.425,-102.051,-29.297,-27.344,-55.664,-188.477
1687734294.429,-44.434,-28.320,-24.414,-55.664,-120.605
1687734294.433,-22.461,-28.809,-24.414,-57.617,8.789
1687734294.437,-48.828,-27.832,-24.902,-58.105,-130.371
1687734294.441,-95.703,-25.391,-21.973,-61.523,-193.359
1687734294.445,-111.816,-24.414,-21.484,-69.336,104.004
1687734294.448,-62.988,-25.879,-23.438,-60.059,284.668
1687734294.452,-33.203,-35.645,-26.367,-62.500,-83.984
1687734294.456,-52.734,-33.203,-25.391,-73.242,-219.727
1687734294.460,-96.680,-31.738,-27.832,-76.172,-108.398
1687734294.464,-119.141,-32.227,-25.879,-72.266,-103.027
1687734294.468,-66.406,-30.762,-22.461,-69.824,-122.070
1687734294.472,-23.438,-28.809,-24.902,-68.848,-86.914
1687734294.476,-32.715,-22.461,-25.879,-67.871,53.711
1687734294.480,-73.730,-24.414,-21.484,-76.172,-31.250
1687734294.484,-110.352,-28.809,-20.996,-79.590,-182.617
1687734294.488,-70.801,-34.180,-23.926,-68.359,-48.828
1687734294.492,-20.508,-35.156,-23.926,-53.711,215.332
1687734294.495,-28.320,-33.691,-27.832,-54.688,173.340
1687734294.499,-69.824,-34.668,-28.320,-71.289,-161.133
1687734294.503,-108.887,-33.691,-28.320,-71.777,-198.730
1687734294.507,-81.055,-32.715,-27.832,-64.453,-7.324
1687734294.511,-27.344,-32.715,-26.367,-62.988,-91.309
1687734294.510,-34.180,-34.180,-27.344,-63.477,-213.379
1687734294.514,-72.266,-36.133,-27.344,-67.871,-175.781
1687734294.518,-107.910,-36.621,-26.855,-72.266,-139.648
1687734294.522,-83.008,-45.898,-23.438,-73.730,-149.902
1687734294.526,-30.762,-45.410,-18.555,-66.895,-93.262
1687734294.530,-29.297,-38.574,-20.996,-58.105,11.230
1687734294.534,-64.941,-36.133,-26.855,-59.082,269.531
1687734294.537,-104.980,-30.273,-23.438,-70.801,13.672
1687734294.541,-81.543,-34.180,-20.020,-68.359,-195.801
1687734294.545,-20.508,-36.621,-18.555,-54.688,-67.871
1687734294.549,-16.113,-36.621,-20.508,-55.664,-90.332
1687734294.553,-46.387,-35.156,-21.484,-61.035,-149.414
1687734294.570,-86.426,-28.320,-20.508,-64.453,-118.164
1687734294.574,-74.219,-22.461,-16.113,-61.035,-53.223
1687734294.578,-18.555,-22.949,-18.555,-51.270,-80.078
1687734294.582,-10.254,-31.250,-23.438,-49.316,-96.680
1687734294.586,-48.828,-36.133,-26.367,-61.035,-92.285
1687734294.590,-99.609,-34.668,-24.902,-67.871,46.875
1687734294.594,-102.539,-34.668,-23.926,-64.941,10.254
1687734294.597,-43.945,-31.738,-24.902,-55.176,-44.922
1687734294.601,-14.648,-31.250,-26.367,-51.758,83.984
1687734294.605,-40.527,-32.715,-25.391,-52.734,311.035
1687734294.609,-90.332,-35.156,-25.391,-65.430,304.688
1687734294.613,-92.285,-34.180,-24.414,-67.871,-60.547
1687734294.615,-36.621,-30.273,-17.090,-55.664,-153.809
1687734294.619,-14.648,-36.133,-19.043,-56.152,-80.566
1687734294.623,-33.691,-40.039,-22.461,-53.223,-62.500
1687734294.627,-75.195,-35.156,-14.648,-50.781,-100.098
1687734294.631,-99.609,-35.645,-15.137,-53.711,-91.797
1687734294.635,-54.199,-41.016,-23.438,-50.293,-12.207
1687734294.639,-22.461,-38.574,-21.973,-50.293,-66.895
1687734294.642,-37.598,-33.203,-23.926,-54.199,-184.082
1687734294.646,-79.590,-30.273,-27.344,-60.059,-93.750
1687734294.650,-106.445,-30.273,-20.996,-56.152,314.941
1687734294.654,-59.082,-31.738,-19.043,-52.246,85.938
1687734294.658,-13.184,-36.133,-18.555,-53.223,-174.316
1687734294.660,-25.391,-37.598,-13.184,-56.152,-35.156
1687734294.664,-70.312,-33.203,-18.066,-65.918,-91.797
1687734294.668,-104.004,-35.645,-28.809,-72.754,-146.484
1687734294.672,-62.500,-38.574,-29.785,-67.383,-56.152
1687734294.676,-17.090,-32.715,-27.832,-54.688,-24.902
1687734294.680,-24.902,-29.785,-25.879,-53.711,-14.160
1687734294.684,-59.082,-33.691,-24.414,-60.059,14.160
1687734294.687,-101.074,-38.086,-24.414,-67.383,80.566
1687734294.691,-64.941,-33.691,-19.531,-54.688,353.516
1687734294.695,-12.207,-34.668,-18.555,-46.387,346.191
1687734294.699,-25.391,-41.504,-22.461,-62.500,-32.227
1687734294.703,-63.965,-41.016,-21.973,-64.453,-109.863
1687734294.705,-108.887,-36.621,-21.973,-61.523,-48.828
1687734294.709,-84.961,-35.156,-20.020,-54.199,-152.344
1687734294.713,-23.926,-41.992,-22.949,-52.246,-195.801
1687734294.717,-18.066,-44.434,-28.809,-54.688,-138.672
1687734294.721,-55.176,-41.016,-26.367,-59.082,-125.000
1687734294.725,-102.051,-39.062,-22.949,-63.477,-26.855
1687734294.729,-86.914,-39.062,-22.949,-56.641,30.762
1687734294.732,-26.367,-35.645,-22.461,-44.922,104.004
1687734294.736,-10.254,-31.738,-21.484,-35.156,262.695
1687734294.740,-40.039,-35.156,-22.949,-44.434,-17.578
1687734294.744,-85.449,-34.668,-18.555,-59.082,-222.168
1687734294.748,-83.008,-32.227,-21.973,-66.895,-104.980
1687734294.752,-27.344,-35.156,-26.367,-59.082,-114.258
1687734294.756,-10.254,-29.785,-24.902,-60.547,-192.871
1687734294.760,-41.992,-26.855,-27.344,-79.102,-125.977
1687734294.764,-91.309,-29.297,-30.273,-83.984,26.855
1687734294.768,-97.168,-28.809,-30.762,-90.332,-8.789
1687734294.772,-39.551,-31.250,-30.273,-90.820,-66.406
1687734294.776,-20.508,-35.156,-32.715,-93.262,-70.312
1687734294.779,-47.363,-34.180,-34.668,-97.168,245.117
1687734294.783,-92.285,-32.227,-33.203,-99.121,237.793
1687734294.787,-107.422,-33.691,-31.738,-101.562,-148.438
1687734294.791,-49.805,-31.250,-35.645,-95.703,-120.605
1687734294.795,-14.160,-34.668,-35.645,-91.309,25.391
1687734294.795,-35.156,-43.945,-32.715,-97.656,-114.746
1687734294.799,-79.590,-41.504,-28.809,-101.074,-166.504
1687734294.803,-104.980,-37.598,-22.949,-94.238,-118.652
1687734294.807,-55.664,-41.504,-23.926,-82.520,-120.117
1687734294.811,-19.043,-45.410,-31.738,-78.613,-65.430
1687734294.815,-41.016,-40.039,-33.691,-77.637,-11.719
1687734294.819,-84.473,-32.715,-29.785,-74.219,13.672
1687734294.822,-115.723,-37.598,-29.785,-70.801,106.445
1687734294.826,-68.359,-40.039,-29.297,-68.848,-85.938
1687734294.830,-15.137,-42.480,-31.738,-62.012,-213.867
1687734294.834,-30.762,-46.875,-31.250,-63.965,-123.535
1687734294.838,-74.707,-47.852,-28.320,-68.359,-122.559
1687734294.840,-112.793,-44.922,-29.297,-68.359,-140.625
1687734294.844,-75.684,-35.156,-28.809,-52.246,-110.352
1687734294.848,-20.020,-34.668,-24.902,-43.945,-35.645
1687734294.852,-31.250,-39.551,-30.762,-55.176,-72.754
1687734294.856,-74.707,-43.457,-36.133,-61.035,-146.484
1687734294.860,-109.375,-41.504,-30.273,-62.500,-79.102
1687734294.864,-78.613,-35.156,-30.273,-56.152,213.379
1687734294.867,-25.391,-37.598,-30.762,-52.246,172.852
1687734294.871,-24.414,-39.062,-31.738,-54.199,-41.504
1687734294.875,-57.617,-36.133,-31.250,-53.711,-53.223
1687734294.879,-101.562,-33.691,-26.855,-53.711,193.848
1687734294.883,-86.426,-35.645,-30.273,-52.734,80.078
1687734294.885,-31.738,-38.086,-29.297,-42.969,-190.918
1687734294.889,-25.879,-37.109,-27.344,-41.504,-147.949
1687734294.893,-52.734,-31.738,-28.320,-49.316,-134.766
1687734294.897,-96.680,-33.203,-33.203,-57.129,-91.797
1687734294.901,-85.938,-35.156,-36.621,-59.570,-128.418
1687734294.905,-16.602,-31.250,-35.645,-56.152,-52.246
1687734294.909,-0.488,-30.273,-39.062,-54.688,155.273
1687734294.912,-36.621,-30.762,-38.574,-60.547,-1.465
1687734294.916,-78.613,-31.738,-38.086,-69.336,-137.207
1687734294.920,-72.754,-32.715,-38.086,-63.965,34.180
1687734294.924,-10.742,-29.297,-38.086,-47.852,107.422
1687734294.928,1.465,-28.809,-38.086,-44.434,-84.961
1687734294.945,-44.434,-33.691,-38.086,-46.387,-120.117
1687734294.949,-96.680,-38.086,-34.668,-51.758,20.508
1687734294.953,-106.445,-42.480,-34.668,-55.176,-40.039
1687734294.957,-53.711,-40.039,-38.086,-41.504,-88.867
1687734294.961,-31.250,-38.574,-36.621,-36.621,-117.188
1687734294.965,-59.570,-39.062,-31.250,-49.316,-23.926
1687734294.969,-103.516,-33.203,-31.738,-56.641,30.273
1687734294.972,-120.605,-35.645,-33.203,-50.293,-41.504
1687734294.976,-68.848,-41.016,-30.273,-37.109,-54.199
1687734294.980,-26.367,-38.574,-26.367,-24.902,169.434
1687734294.984,-36.621,-32.715,-24.902,-25.879,166.992
1687734294.988,-81.055,-33.203,-23.926,-38.574,-112.793
1687734294.990,-101.562,-38.086,-23.438,-39.062,-102.051
1687734294.994,-49.316,-35.645,-23.438,-31.738,-12.207
1687734294.998,-2.930,-31.250,-28.320,-35.156,-157.715
1687734295.002,-20.508,-36.133,-35.645,-40.039,-208.496
1687734295.006,-67.871,-41.504,-34.180,-39.062,-122.559
1687734295.010,-99.609,-38.574,-28.809,-44.922,-2.930
1687734295.014,-59.570,-36.133,-24.414,-45.898,10.742
1687734295.017,-17.090,-38.574,-24.414,-43.945,-171.875
1687734295.021,-27.344,-33.691,-24.902,-43.457,-100.098
1687734295.025,-68.848,-34.668,-24.902,-46.387,208.008
1687734295.029,-111.328,-41.992,-32.715,-60.059,54.199
1687734295.033,-77.637,-40.527,-37.598,-56.641,-73.242
1687734295.051,-17.578,-36.621,-28.809,-40.039,-32.715
1687734295.055,-20.996,-36.621,-29.297,-40.527,-43.457
1687734295.059,-63.965,-35.156,-33.691,-50.781,-165.527
1687734295.063,-107.422,-32.715,-29.785,-55.664,-168.457
1687734295.067,-81.055,-32.227,-32.715,-54.199,30.762
1687734295.071,-23.926,-34.668,-29.785,-44.922,15.625
1687734295.075,-21.973,-36.621,-25.391,-41.016,-31.738
1687734295.078,-55.664,-34.668,-28.809,-47.363,18.066
1687734295.082,-97.656,-29.785,-24.902,-48.340,184.082
1687734295.086,-77.148,-27.344,-22.949,-35.645,292.480
1687734295.090,-23.438,-26.855,-27.344,-35.156,-21.973
1687734295.094,-17.578,-24.414,-24.902,-42.480,-130.859
1687734295.081,-48.828,-22.949,-24.902,-42.969,-28.320
1687734295.085,-95.215,-28.320,-28.809,-43.457,-109.375
1687734295.089,-76.660,-32.227,-31.250,-41.992,-156.738
1687734295.093,-20.508,-30.762,-32.227,-35.156,-63.965
1687734295.097,-7.812,-35.156,-29.785,-28.320,-50.293
1687734295.101,-34.180,-37.109,-25.879,-33.203,-19.043
1687734295.105,-80.566,-35.156,-22.949,-45.410,-69.824
1687734295.108,-77.637,-34.180,-25.391,-44.434,-66.406
1687734295.112,-20.996,-36.621,-24.414,-31.250,-20.020
1687734295.116,-1.953,-41.016,-23.926,-29.785,-157.715
1687734295.120,-33.203,-38.086,-22.949,-41.992,-280.273
1687734295.124,-74.707,-35.156,-19.531,-41.016,-19.531
1687734295.125,-78.613,-32.227,-19.043,-33.203,247.559
1687734295.129,-27.832,-29.785,-20.508,-32.227,-88.379
1687734295.133,3.418,-31.738,-20.996,-27.344,-248.047
1687734295.137,-13.184,-30.273,-18.066,-28.320,-147.949
1687734295.141,-57.129,-25.879,-13.672,-39.062,-140.625
1687734295.145,-79.102,-28.809,-17.578,-43.945,-132.812
1687734295.149,-37.109,-33.203,-23.926,-42.480,-51.270
1687734295.152,-4.883,-32.715,-23.926,-38.574,166.992
1687734295.156,-20.996,-31.738,-23.926,-32.227,349.609
1687734295.160,-61.523,-29.297,-21.973,-44.922,25.879
1687734295.164,-91.309,-29.785,-21.973,-53.223,-163.086
1687734295.168,-48.828,-30.273,-24.414,-42.480,-49.805
1687734295.170,-2.441,-28.320,-22.949,-37.109,-103.516
1687734295.174,-19.531,-29.785,-22.949,-41.992,-156.250
1687734295.178,-65.918,-34.180,-25.391,-41.992,-120.605
1687734295.182,-100.098,-37.598,-28.809,-44.922,-122.559
1687734295.186,-62.988,-37.109,-29.785,-44.434,-125.488
1687734295.190,-8.301,-32.227,-23.926,-37.109,-56.641
1687734295.194,-13.672,-25.391,-23.438,-32.715,22.461
1687734295.197,-61.523,-24.902,-31.738,-40.527,162.109
1687734295.201,-103.516,-30.762,-31.738,-58.105,27.832
1687734295.205,-70.801,-31.738,-28.320,-56.641,-146.973
1687734295.209,-21.484,-33.691,-27.344,-48.828,25.391
1687734295.213,-32.715,-35.156,-25.879,-52.734,124.023
1687734295.215,-71.289,-37.109,-23.438,-52.734,-135.254
1687734295.219,-115.723,-36.621,-19.531,-53.223,-187.012
1687734295.223,-95.215,-31.250,-16.602,-46.875,-36.133
1687734295.227,-36.621,-31.738,-18.066,-39.062,-74.219
1687734295.231,-35.156,-36.133,-23.438,-44.434,-178.223
1687734295.235,-66.895,-38.086,-20.020,-50.293,-29.785
1687734295.239,-108.398,-36.133,-16.113,-48.828,251.953
1687734295.242,-91.797,-36.621,-20.508,-43.945,85.449
1687734295.246,-35.645,-38.574,-26.855,-40.039,-181.152
1687734295.250,-30.273,-41.016,-31.738,-41.016,-140.137
1687734295.254,-60.059,-38.086,-32.227,-38.086,171.387
1687734295.258,-97.656,-35.156,-26.855,-47.852,131.836
1687734295.260,-87.891,-35.645,-25.391,-51.758,-137.695
1687734295.264,-28.809,-35.645,-28.320,-41.016,-100.586
1687734295.268,-12.207,-39.551,-30.273,-42.969,-56.641
1687734295.272,-37.598,-41.016,-27.832,-44.434,-104.980
1687734295.276,-86.914,-35.645,-21.973,-49.805,-104.492
1687734295.280,-90.820,-31.738,-21.973,-49.316,34.668
1687734295.284,-29.785,-32.715,-24.414,-36.133,114.746
1687734295.287,-7.324,-29.785,-24.902,-37.109,-121.582
1687734295.291,-32.715,-28.809,-26.367,-43.457,-196.289
1687734295.295,-84.473,-34.180,-24.902,-53.223,-50.293
1687734295.299,-98.633,-38.086,-27.344,-54.688,-55.176
1687734295.303,-37.598,-35.645,-30.273,-44.922,-182.617
1687734295.320,-3.906,-31.250,-23.926,-40.039,-133.301
1687734295.324,-25.879,-34.180,-24.902,-41.016,87.402
1687734295.328,-70.312,-35.156,-29.785,-49.805,28.809
1687734295.332,-90.820,-33.691,-30.762,-51.270,-99.609
1687734295.336,-38.574,-32.715,-30.762,-41.992,-65.430
1687734295.340,-4.883,-35.645,-29.785,-40.039,25.391
1687734295.344,-22.949,-37.109,-29.297,-45.898,29.297
1687734295.347,-69.824,-39.551,-31.738,-52.734,-49.805
1687734295.351,-101.562,-38.574,-28.320,-48.828,-44.922
1687734295.355,-55.664,-41.016,-26.367,-35.645,167.969
1687734295.359,-15.625,-44.922,-31.250,-36.621,179.199
1687734295.363,-34.668,-45.898,-32.227,-51.758,-116.211
1687734295.365,-73.242,-40.039,-31.250,-61.035,-164.551
1687734295.369,-104.004,-39.062,-34.668,-61.523,-113.281
1687734295.373,-67.383,-41.504,-30.762,-62.012,-107.910
1687734295.377,-17.090,-43.945,-27.344,-60.059,-35.156
1687734295.381,-20.508,-44.922,-27.832,-53.711,-2.930
1687734295.385,-54.199,-39.551,-24.902,-50.293,36.621
1687734295.389,-93.262,-35.156,-22.461,-52.734,15.137
1687734295.392,-64.453,-34.668,-22.461,-49.805,-83.496
1687734295.396,-10.254,-36.133,-23.926,-33.691,32.227
1687734295.400,-7.812,-37.109,-24.902,-25.391,192.871
1687734295.404,-41.016,-36.621,-24.902,-39.551,-57.617
1687734295.408,-88.379,-32.715,-21.973,-49.316,-105.957
1687734295.410,-71.777,-30.762,-21.973,-54.199,-40.039
1687734295.414,-8.301,-34.180,-23.438,-52.246,-133.301
1687734295.418,-5.859,-42.969,-26.367,-58.105,-180.664
1687734295.422,-43.457,-46.387,-28.809,-69.336,-94.727
1687734295.426,-86.426,-42.480,-30.273,-77.148,5.371
1687734295.430,-77.148,-41.992,-28.320,-68.848,14.160
1687734295.434,-19.531,-43.945,-27.344,-56.641,39.062
1687734295.437,-6.348,-47.363,-29.785,-54.688,70.312
1687734295.441,-32.715,-45.898,-31.250,-49.805,337.402
1687734295.445,-74.707,-38.086,-25.879,-44.434,406.250
1687734295.449,-80.078,-39.062,-24.414,-58.594,52.246
1687734295.453,-29.785,-39.062,-29.785,-66.895,-117.676
1687734295.455,-11.230,-42.480,-34.668,-71.289,-87.402
1687734295.459,-37.598,-43.457,-40.527,-79.590,-110.352
1687734295.463,-83.008,-44.922,-42.969,-82.520,-184.570
1687734295.467,-83.008,-46.387,-39.062,-70.801,-112.793
1687734295.471,-22.461,-41.016,-35.156,-53.711,-43.457
1687734295.475,-2.441,-41.992,-33.691,-52.246,-39.551
1687734295.479,-29.297,-39.551,-30.273,-53.223,-64.453
1687734295.482,-68.848,-37.109,-26.855,-52.734,32.715
1687734295.486,-87.402,-38.086,-31.250,-50.293,301.270
1687734295.490,-43.457,-37.598,-32.227,-49.805,68.359
1687734295.494,-14.160,-38.086,-30.273,-50.781,-164.062
1687734295.498,-34.180,-34.668,-34.668,-51.758,-72.266
1687734295.501,-76.172,-33.691,-33.203,-66.406,-93.750
1687734295.505,-95.703,-36.621,-29.297,-70.801,-189.941
1687734295.509,-47.852,-33.691,-32.715,-58.594,-195.801
1687734295.513,-3.906,-36.133,-32.715,-57.617,-67.383
1687734295.517,-19.531,-42.480,-33.691,-65.430,-105.469
1687734295.521,-70.801,-47.852,-40.039,-83.496,-114.746
1687734295.525,-106.445,-47.852,-41.504,-97.168,-34.668
1687734295.528,-65.918,-42.969,-37.598,-83.496,279.297
1687734295.532,-18.066,-43.457,-40.039,-72.754,463.379
1687734295.536,-31.738,-39.062,-44.922,-84.473,24.902
1687734295.540,-71.777,-36.621,-44.434,-87.891,-34.668
1687734295.544,-104.492,-41.504,-41.992,-76.660,44.922
1687734295.545,-67.383,-41.016,-44.434,-63.965,-117.188
1687734295.549,-14.160,-39.551,-45.410,-59.570,-178.223
1687734295.553,-22.461,-41.504,-41.504,-62.012,-152.344
1687734295.557,-54.199,-37.109,-36.621,-63.965,-170.410
1687734295.561,-95.703,-35.645,-36.621,-68.359,-113.770
1687734295.565,-75.684,-41.504,-37.109,-66.406,-106.445
1687734295.569,-15.625,-39.551,-34.668,-56.152,-6.836
1687734295.572,-16.113,-38.086,-33.203,-43.945,193.359
1687734295.576,-54.199,-35.645,-36.133,-51.270,-77.148
1687734295.580,-99.121,-33.203,-37.598,-58.594,-184.570
1687734295.584,-86.426,-40.039,-39.062,-53.711,-109.863
1687734295.588,-27.832,-35.645,-36.133,-51.270,-91.797
1687734295.592,-16.113,-32.227,-31.738,-47.852,-48.828
1687734295.596,-57.129,-38.086,-40.039,-56.641,-77.148
1687734295.600,-100.586,-38.086,-41.992,-66.895,5.371
1687734295.604,-85.449,-36.133,-40.527,-58.594,-23.438
1687734295.608,-23.926,-33.203,-40.527,-55.176,-131.348
1687734295.612,-0.488,-29.297,-39.551,-58.105,-75.195
1687734295.616,-29.785,-28.809,-37.109,-56.152,178.223
1687734295.619,-77.637,-26.855,-35.156,-63.965,65.918
1687734295.623,-84.473,-27.832,-36.133,-74.707,-180.664
1687734295.627,-28.809,-32.227,-35.156,-62.012,-195.312
1687734295.631,-2.930,-31.250,-30.762,-45.410,51.758
1687734295.635,-33.203,-34.668,-33.203,-54.199,-27.344
1687734295.652,-86.426,-41.016,-37.109,-62.988,-238.770
1687734295.656,-100.586,-43.457,-36.133,-58.105,-149.414
1687734295.660,-45.410,-42.969,-38.086,-56.641,-54.199
1687734295.664,-5.859,-35.156,-34.180,-55.664,-7.812
1687734295.668,-20.996,-32.227,-33.691,-59.082,-129.883
1687734295.672,-61.035,-36.621,-34.668,-67.383,-31.738
1687734295.676,-73.242,-38.086,-33.203,-63.965,238.770
1687734295.679,-19.043,-34.668,-32.227,-56.152,27.344
1687734295.683,17.090,-36.621,-31.250,-56.641,-212.891
1687734295.687,-3.906,-37.598,-27.832,-50.781,-115.234
1687734295.691,-59.570,-36.133,-26.855,-49.805,-54.199
1687734295.695,-102.051,-35.645,-30.273,-55.176,-138.672
1687734295.695,-59.570,-36.621,-33.203,-45.898,-158.691
1687734295.699,-10.254,-33.203,-31.250,-33.691,-70.312
1687734295.703,-22.949,-32.227,-30.762,-35.156,-35.645
1687734295.707,-64.453,-32.227,-30.273,-41.016,-138.184
1687734295.711,-96.680,-29.785,-29.297,-45.410,-61.523
1687734295.715,-64.941,-31.250,-35.645,-48.340,71.289
1687734295.719,-18.066,-33.203,-39.062,-43.457,22.949
1687734295.722,-23.926,-31.738,-35.645,-41.992,-55.176
1687734295.726,-60.059,-28.320,-28.809,-43.945,-90.820
1687734295.730,-96.191,-27.832,-28.809,-41.016,164.062
1687734295.734,-68.848,-29.785,-35.156,-35.645,282.227
1687734295.738,-14.648,-31.738,-36.621,-40.039,-38.086
1687734295.741,-14.160,-32.227,-36.621,-45.898,-195.312
1687734295.745,-48.828,-34.180,-34.180,-47.852,-100.098
1687734295.749,-94.238,-35.645,-35.645,-52.246,-109.375
1687734295.753,-77.148,-41.992,-40.527,-49.316,-183.594
1687734295.757,-26.855,-49.316,-43.457,-49.316,-126.953
1687734295.761,-23.438,-47.363,-42.969,-51.758,26.855
1687734295.765,-52.246,-43.457,-43.457,-49.805,-32.227
1687734295.768,-98.633,-38.574,-43.457,-51.758,-140.137
1687734295.772,-83.984,-37.109,-40.527,-47.363,-6.348
1687734295.776,-20.996,-35.645,-39.551,-33.203,241.211
1687734295.780,-13.672,-38.086,-43.457,-39.551,31.738
1687734295.784,-46.875,-36.133,-42.969,-53.223,-211.914
1687734295.785,-87.402,-29.297,-38.574,-55.664,-124.512
1687734295.789,-77.148,-29.297,-39.551,-45.410,-149.902
1687734295.793,-17.090,-37.109,-34.668,-32.715,-187.012
1687734295.797,-8.789,-38.574,-33.203,-36.133,-137.695
1687734295.801,-41.016,-39.062,-35.645,-45.898,-89.844
1687734295.805,-89.355,-41.992,-40.527,-56.641,-50.781
1687734295.809,-89.355,-41.016,-36.621,-53.223,-87.891
1687734295.812,-32.715,-41.504,-28.320,-34.668,-58.105
1687734295.816,-14.648,-38.086,-25.879,-20.996,263.672
1687734295.820,-35.645,-33.691,-24.902,-16.602,345.703
1687734295.824,-80.566,-37.598,-26.367,-27.832,-37.109
1687734295.828,-87.891,-33.691,-27.832,-30.273,-57.617
1687734295.831,-33.203,-35.156,-27.832,-18.066,83.008
1687734295.835,-3.906,-45.410,-32.715,-21.973,-95.703
1687734295.839,-20.508,-43.945,-34.180,-25.879,-171.875
1687734295.843,-60.059,-34.180,-32.715,-21.484,-69.824
1687734295.847,-81.055,-32.715,-33.691,-27.344,-86.426
1687734295.851,-36.133,-30.273,-30.762,-27.832,-48.340
1687734295.855,-7.812,-29.297,-30.762,-26.367,-33.203
1687734295.858,-27.832,-31.250,-32.227,-29.785,-65.430
1687734295.862,-71.289,-37.109,-33.691,-35.156,111.816
1687734295.866,-97.168,-43.457,-34.180,-41.504,-72.266
1687734295.870,-52.246,-41.504,-32.227,-38.086,-250.977
1687734295.874,-10.254,-41.992,-33.691,-38.574,-126.953
1687734295.875,-16.113,-44.922,-37.109,-44.434,-79.102
1687734295.879,-47.363,-43.457,-35.156,-47.852,-143.066
1687734295.883,-83.008,-45.410,-31.738,-50.293,-79.102
1687734295.887,-54.688,-47.852,-33.691,-44.434,100.098
1687734295.891,-3.418,-38.574,-34.180,-39.062,15.625
1687734295.895,-3.418,-31.738,-29.785,-36.133,-70.801
1687734295.899,-42.969,-37.109,-32.227,-42.969,17.090
