timestamps,TP9,AF7,AF8,TP10,Right AUX
1687767055.287,-63.477,-47.363,-24.414,-37.598,-83.008
1687767055.291,-44.922,-50.293,-20.020,-41.992,-117.676
1687767055.295,-33.691,-50.293,-24.902,-25.879,-88.379
1687767055.299,-31.250,-50.781,-25.391,-25.391,9.277
1687767055.303,-29.297,-44.434,-23.926,-55.176,14.160
1687767055.307,-31.738,-40.039,-24.414,-40.527,-42.480
1687767055.311,-37.109,-39.062,-22.949,-36.621,-104.492
1687767055.314,-36.133,-43.457,-18.066,-36.621,-57.129
1687767055.318,-42.480,-50.781,-20.508,-18.555,257.324
1687767055.322,-50.293,-42.480,-19.531,-27.832,97.168
1687767055.326,-42.969,-34.668,-17.090,-43.945,-187.012
1687767055.330,-35.156,-33.203,-19.043,-42.480,-75.684
1687767055.330,-32.227,-38.086,-20.996,-39.551,-131.836
1687767055.334,-23.926,-44.434,-25.879,-43.945,-172.363
1687767055.338,-21.484,-41.016,-33.203,-47.852,-112.793
1687767055.342,-46.387,-36.621,-37.109,-45.410,-107.910
1687767055.346,-53.223,-44.434,-32.227,-28.320,-31.738
1687767055.350,-50.293,-44.434,-22.949,-24.414,70.801
1687767055.354,-72.266,-51.270,-10.742,-43.457,20.508
1687767055.357,-72.266,-55.664,-7.324,-48.828,231.934
1687767055.361,-84.961,-61.035,-14.160,-49.316,494.141
1687767055.365,-84.961,-59.082,-2.441,-49.805,167.969
1687767055.369,-60.547,-44.922,27.832,-23.926,-84.961
1687767055.373,-62.988,-54.688,12.695,-35.645,-70.312
1687767055.377,-67.871,-66.406,-14.160,-50.781,-136.230
1687767055.381,-70.801,-69.336,-8.301,-50.293,-111.816
1687767055.385,-58.105,-68.848,-8.301,-60.547,-51.758
1687767055.389,-41.504,-70.312,-12.695,-50.781,-87.402
1687767055.393,-18.555,-71.289,-8.789,-43.457,-151.367
1687767055.397,-7.812,-67.383,-5.859,-33.691,-97.656
1687767055.401,-42.969,-59.082,-8.301,-33.203,107.910
1687767055.404,-61.523,-62.500,-16.113,-35.156,339.355
1687767055.408,-28.809,-64.941,-12.207,-12.207,196.289
1687767055.412,6.836,-52.246,4.883,-2.441,15.137
1687767055.416,5.371,-39.062,3.906,-9.277,31.738
1687767055.420,-26.855,-53.223,-16.602,-26.367,-45.898
1687767055.435,-34.180,-65.918,-20.996,-41.992,-130.859
1687767055.439,-27.832,-64.453,-17.090,-43.457,-110.840
1687767055.443,-33.691,-60.059,-18.555,-42.480,-53.711
1687767055.447,-32.715,-51.270,-10.254,-26.367,-84.961
1687767055.451,-17.578,-47.852,-6.836,-21.484,-86.426
1687767055.455,-32.227,-49.316,-12.207,-39.551,-55.664
1687767055.459,-70.312,-50.293,-18.555,-33.203,210.938
1687767055.462,-68.848,-55.664,-11.719,-10.254,462.402
1687767055.466,-45.898,-45.410,-5.859,-13.672,50.293
1687767055.470,-30.762,-29.297,-5.859,-15.137,-71.777
1687767055.474,-25.879,-36.133,-8.789,1.465,38.086
1687767055.478,-18.555,-27.344,-6.836,-12.695,-144.043
1687767055.466,-16.602,-24.414,-4.883,-31.738,-132.812
1687767055.470,-27.344,-37.598,-18.555,-31.738,-17.090
1687767055.474,-37.109,-40.039,-26.367,-40.039,-16.113
1687767055.478,-28.809,-36.621,-18.555,-45.410,-94.238
1687767055.482,-11.230,-30.762,-15.625,-46.387,-143.555
1687767055.486,-19.043,-39.551,-20.996,-37.109,-21.484
1687767055.490,-26.855,-40.527,-12.207,-30.762,17.578
1687767055.493,-15.137,-39.551,-14.648,-25.391,-122.559
1687767055.497,-23.438,-44.922,-24.902,-33.691,-252.930
1687767055.501,-27.344,-39.551,-11.719,-37.598,7.324
1687767055.505,-9.277,-41.016,-11.719,-21.973,196.289
1687767055.509,-14.648,-47.852,-22.949,-20.020,-62.988
1687767055.524,-18.066,-36.133,-14.160,-27.832,-110.352
1687767055.528,-11.230,-28.809,-12.695,-36.133,67.383
1687767055.532,-19.531,-34.668,-24.414,-49.805,83.496
1687767055.536,-19.531,-39.062,-25.391,-58.594,-82.031
1687767055.540,-18.555,-41.504,-15.625,-44.434,-54.199
1687767055.544,-21.973,-42.969,-12.207,-30.273,297.852
1687767055.548,-40.527,-42.969,-9.766,-30.762,333.496
1687767055.551,-66.895,-49.316,-9.766,-37.598,-60.547
1687767055.555,-76.172,-53.223,-20.508,-29.297,-171.387
1687767055.559,-76.660,-49.805,-26.367,-28.320,-1.953
1687767055.563,-70.801,-43.457,-20.508,-27.344,24.414
1687767055.567,-63.477,-45.898,-18.555,-33.203,-126.465
1687767055.602,-55.664,-51.270,-26.855,-47.363,-76.172
1687767055.606,-41.016,-44.434,-34.180,-40.039,-66.895
1687767055.610,-37.109,-41.992,-32.227,-35.645,-69.336
1687767055.614,-31.738,-39.551,-19.531,-25.879,-121.094
1687767055.618,-16.113,-30.762,-20.020,-28.809,-38.086
1687767055.622,-22.949,-31.250,-25.391,-35.645,83.496
1687767055.626,-12.207,-39.062,-26.367,-27.344,4.883
1687767055.629,-11.230,-46.387,-27.832,-24.414,-102.051
1687767055.633,-6.836,-35.645,-21.484,-7.812,31.250
1687767055.637,5.371,-24.902,-12.695,15.625,194.336
1687767055.641,-32.715,-40.039,-24.414,-15.137,-50.293
1687767055.645,-48.340,-45.898,-35.156,-45.898,-125.488
1687767055.616,-41.504,-40.039,-21.973,-36.133,-49.805
1687767055.620,-22.949,-49.805,-5.371,-16.113,-38.086
1687767055.624,0.488,-56.641,5.371,4.883,-97.656
1687767055.628,-30.273,-32.227,-8.301,-13.672,-109.863
1687767055.632,-67.383,-21.484,-22.949,-60.059,-53.711
1687767055.636,-59.082,-25.391,-23.926,-56.641,65.918
1687767055.640,-58.594,-24.902,-26.367,-38.086,52.246
1687767055.643,-55.664,-27.344,-27.832,-39.062,4.395
1687767055.647,-56.641,-34.668,-22.461,-42.480,86.426
1687767055.651,-58.594,-35.156,-19.043,-39.551,12.695
1687767055.655,-59.570,-29.297,-25.879,-41.504,-66.895
1687767055.659,-62.500,-32.715,-26.855,-45.410,-17.090
1687767055.675,-52.734,-41.504,-29.785,-51.270,43.457
1687767055.679,-55.176,-42.480,-26.855,-42.480,-60.059
1687767055.683,-60.059,-39.062,-29.297,-26.855,-144.043
1687767055.687,-61.523,-43.457,-27.832,-45.898,-57.129
1687767055.691,-37.598,-40.039,-33.203,-56.152,338.379
1687767055.695,-0.488,-25.391,-36.621,-17.090,474.121
1687767055.699,5.859,-23.926,-16.602,3.906,110.352
1687767055.702,-38.574,-45.410,-4.883,-23.926,58.594
1687767055.706,-69.824,-54.688,-0.488,-43.945,318.848
1687767055.710,-69.336,-49.316,4.883,-54.688,235.840
1687767055.714,-91.797,-62.012,10.254,-89.844,-86.914
1687767055.718,-114.258,-73.242,18.555,-108.887,-109.375
1687767055.704,-129.395,-74.707,17.090,-115.723,-102.539
1687767055.708,-139.160,-72.266,7.812,-122.559,-148.438
1687767055.712,-135.254,-80.566,4.883,-115.723,-84.961
1687767055.716,-138.672,-84.473,10.742,-97.656,-74.707
1687767055.720,-129.883,-74.707,19.043,-90.820,-57.129
1687767055.724,-136.719,-79.590,20.020,-110.840,48.340
1687767055.728,-139.648,-78.125,18.066,-103.027,51.758
1687767055.731,-112.793,-64.941,15.625,-73.730,176.270
1687767055.735,-96.680,-74.707,3.906,-74.219,114.746
1687767055.739,-104.492,-81.055,-7.324,-78.125,-23.926
1687767055.743,-102.051,-73.242,-8.789,-73.242,-34.668
1687767055.747,-93.750,-76.172,-2.441,-66.406,186.523
1687767055.751,-97.656,-70.312,8.301,-58.594,289.062
1687767055.755,-88.379,-59.082,8.301,-61.035,-67.871
1687767055.759,-85.449,-60.059,-4.883,-61.035,-57.617
1687767055.763,-85.449,-62.500,-12.207,-51.758,9.766
1687767055.767,-66.406,-57.129,-13.672,-55.664,-105.469
1687767055.771,-44.922,-57.617,-11.230,-63.477,-104.980
1687767055.775,-33.691,-49.316,-5.859,-47.852,87.891
1687767055.778,-33.691,-47.363,-5.371,-33.691,174.805
1687767055.782,-34.668,-64.941,-5.371,-34.668,-78.125
1687767055.786,-42.480,-60.059,-8.789,-22.461,-122.070
1687767055.790,-69.336,-58.594,-19.531,-32.715,-13.184
1687767055.794,-66.406,-58.105,-17.578,-49.805,34.180
1687767055.810,-37.598,-46.387,-4.883,-25.391,-18.555
1687767055.814,-27.832,-38.574,11.230,-6.836,-133.301
1687767055.818,-44.922,-42.480,-5.859,-25.391,-11.230
1687767055.822,-62.012,-51.270,-27.344,-29.785,-16.602
1687767055.826,-56.641,-61.523,-23.926,-25.391,-53.223
1687767055.830,-56.152,-55.664,-30.762,-28.320,-40.527
1687767055.834,-49.316,-39.062,-27.344,-17.578,193.848
1687767055.837,-26.855,-35.156,-20.996,-20.996,435.547
1687767055.841,-26.367,-37.109,-24.902,-34.180,39.062
1687767055.845,-37.109,-43.945,-18.555,-28.809,-135.742
1687767055.849,-37.598,-54.199,-17.578,-31.738,-113.281
1687767055.853,-49.805,-55.664,-21.973,-38.574,-126.465
1687767055.870,-49.316,-57.129,-19.043,-38.086,-141.602
1687767055.874,-39.062,-56.152,-21.973,-28.320,-76.660
1687767055.878,-41.016,-50.781,-31.738,-32.227,58.594
1687767055.882,-46.875,-47.363,-28.320,-49.316,-41.504
1687767055.886,-62.500,-49.805,-28.320,-55.176,-154.297
1687767055.890,-52.734,-50.293,-30.762,-46.387,44.434
1687767055.894,-34.180,-46.875,-28.320,-37.109,260.742
1687767055.897,-28.809,-43.457,-27.344,-30.273,70.801
1687767055.901,-28.320,-37.598,-21.484,-23.438,-157.227
1687767055.905,-46.875,-42.969,-21.484,-28.809,19.531
1687767055.909,-79.590,-54.688,-32.227,-30.762,216.309
1687767055.913,-86.914,-50.781,-32.227,-26.855,39.062
1687767055.899,-70.801,-49.805,-25.879,-28.320,-56.152
1687767055.903,-53.711,-49.805,-19.043,-34.180,-49.805
1687767055.907,-38.086,-46.387,-18.066,-31.250,-79.102
1687767055.911,-20.508,-43.457,-22.949,-45.410,-102.051
1687767055.915,-4.883,-37.598,-27.832,-54.688,-126.465
1687767055.919,-12.207,-42.969,-34.180,-34.180,166.016
1687767055.923,-22.949,-38.574,-34.180,-30.762,315.430
1687767055.926,-20.508,-13.672,-23.926,-22.461,-6.836
1687767055.930,-32.227,-23.926,-27.832,-23.438,-52.246
1687767055.934,-41.016,-49.805,-42.969,-48.828,-34.668
1687767055.938,-30.762,-46.387,-34.180,-45.898,-86.914
1687767055.942,-18.066,-43.457,-19.043,-40.527,-126.465
1687767055.946,-22.949,-54.199,-29.785,-39.551,-196.777
1687767055.950,-38.086,-53.711,-35.156,-33.691,99.609
1687767055.954,-34.180,-44.434,-31.738,-34.180,98.633
1687767055.958,-18.066,-44.434,-35.645,-35.645,-145.508
1687767055.962,-19.043,-41.992,-33.691,-30.273,5.371
1687767055.966,-23.438,-32.227,-24.414,-33.691,93.262
1687767055.970,-32.227,-40.527,-26.855,-30.762,46.875
1687767055.973,-41.504,-46.875,-36.621,-41.992,-60.059
1687767055.977,-23.926,-35.156,-35.156,-37.109,5.859
1687767055.981,-8.789,-32.715,-29.297,-12.207,284.668
1687767055.985,-13.672,-42.480,-36.133,-29.297,124.512
1687767055.989,-33.203,-50.781,-38.086,-49.316,-112.305
1687767055.989,-30.762,-46.875,-31.250,-29.297,-43.945
1687767055.993,-25.879,-50.781,-37.598,-26.855,-14.648
1687767055.997,-39.551,-56.641,-42.480,-44.922,-68.848
1687767056.001,-40.527,-39.062,-26.367,-36.133,-90.820
1687767056.005,-36.133,-39.551,-16.602,-30.762,42.480
1687767056.009,-27.344,-46.387,-23.926,-37.109,63.965
1687767056.013,-36.133,-45.898,-28.809,-40.527,-52.734
1687767056.016,-43.945,-50.293,-32.227,-58.105,-75.195
1687767056.020,-30.762,-47.363,-35.645,-55.176,180.664
1687767056.024,-21.973,-41.016,-38.574,-31.250,384.766
1687767056.028,-19.043,-37.109,-30.273,-14.160,18.555
1687767056.032,-48.828,-47.363,-14.648,-38.086,-136.230
1687767056.036,-71.289,-55.176,-13.184,-63.477,-59.082
1687767056.040,-57.617,-43.457,-10.742,-55.176,-103.516
1687767056.044,-40.527,-40.039,-7.812,-50.293,-131.348
1687767056.048,-68.359,-47.363,-13.672,-64.941,-84.961
1687767056.052,-83.496,-45.898,-13.672,-81.055,-7.812
1687767056.056,-52.734,-48.828,-16.113,-64.453,-58.105
1687767056.060,-41.992,-50.293,-18.066,-55.664,7.812
1687767056.063,-43.945,-53.711,-25.879,-79.590,89.844
1687767056.067,-51.270,-58.105,-22.949,-78.613,115.723
1687767056.071,-81.055,-49.805,-25.391,-72.266,-14.648
1687767056.075,-82.031,-52.734,-44.922,-79.590,-92.285
1687767056.079,-70.312,-60.547,-44.922,-70.801,23.926
1687767056.080,-74.219,-56.152,-30.762,-65.918,12.207
1687767056.084,-66.406,-49.805,-28.320,-53.223,-97.656
1687767056.088,-61.523,-49.316,-33.691,-43.457,-100.586
1687767056.092,-70.801,-47.852,-25.391,-52.246,-42.480
1687767056.096,-76.172,-46.875,-16.113,-34.180,-33.691
1687767056.100,-70.312,-48.340,-16.602,-31.738,-7.324
1687767056.104,-68.848,-51.270,-18.555,-51.270,-80.566
1687767056.107,-73.730,-51.270,-22.949,-48.828,141.602
1687767056.111,-55.176,-42.480,-24.902,-29.785,325.195
1687767056.115,-26.367,-29.297,-32.715,-33.203,-12.695
1687767056.119,-38.574,-35.156,-47.852,-52.734,-142.090
1687767056.123,-54.688,-54.688,-39.551,-60.059,-113.281
1687767056.128,-51.270,-62.988,-34.180,-63.477,-109.375
1687767056.132,-43.945,-47.363,-35.156,-45.410,-48.340
1687767056.136,-40.527,-25.879,-28.320,-15.137,4.883
1687767056.140,-31.738,-23.438,-18.555,-20.996,6.348
1687767056.144,-35.645,-36.621,-26.367,-47.363,-46.387
1687767056.148,-40.039,-41.016,-32.715,-55.176,-31.738
1687767056.152,-31.738,-31.738,-26.367,-36.133,77.148
1687767056.155,-37.109,-44.434,-40.039,-32.227,184.082
1687767056.159,-41.016,-45.898,-45.410,-47.852,-63.477
1687767056.163,-49.805,-31.250,-28.809,-46.875,-157.715
1687767056.167,-59.082,-34.668,-24.414,-43.457,-31.738
1687767056.171,-60.059,-45.410,-32.227,-47.363,-37.109
1687767056.185,-64.453,-45.898,-37.598,-54.199,-59.570
1687767056.189,-79.102,-45.898,-32.715,-54.688,-47.363
1687767056.193,-64.453,-36.621,-28.809,-47.852,-36.621
1687767056.197,-36.133,-22.949,-31.250,-24.414,-49.316
1687767056.201,-39.551,-41.504,-38.086,-34.180,28.809
1687767056.205,-61.523,-48.828,-30.762,-41.504,31.738
1687767056.209,-77.637,-34.668,-15.625,-27.344,229.980
1687767056.212,-99.121,-44.922,-19.043,-43.945,569.824
1687767056.216,-96.191,-52.734,-22.461,-57.129,183.594
1687767056.220,-76.172,-46.875,-25.879,-55.176,-160.156
1687767056.224,-67.383,-44.434,-27.832,-52.246,-26.855
1687767056.228,-55.176,-40.527,-26.855,-56.152,17.578
1687767056.216,-44.434,-28.809,-28.320,-57.129,-55.664
1687767056.220,-27.832,-26.367,-36.133,-47.363,-97.656
1687767056.224,-16.602,-34.668,-40.527,-39.062,-21.973
1687767056.228,-3.418,-21.973,-13.672,-37.598,-28.320
1687767056.232,-6.348,-24.414,-19.043,-41.992,-125.000
1687767056.236,-34.668,-42.969,-46.875,-54.199,42.969
1687767056.240,-44.434,-34.668,-34.668,-64.941,163.086
1687767056.243,-41.016,-35.156,-25.879,-62.988,23.926
1687767056.247,-18.066,-31.738,-26.367,-49.316,-63.477
1687767056.251,-20.996,-29.297,-25.879,-42.969,47.363
1687767056.255,-44.434,-36.133,-34.668,-42.969,322.266
1687767056.259,-62.012,-40.039,-36.133,-42.480,110.840
1687767056.290,-51.758,-42.969,-23.926,-34.668,-163.086
1687767056.294,-34.180,-43.945,-21.484,-29.297,-104.004
1687767056.298,-49.316,-50.293,-30.762,-44.434,-116.699
1687767056.302,-51.758,-41.992,-21.484,-59.082,-133.789
1687767056.306,-46.875,-32.715,-22.949,-49.316,-124.512
1687767056.310,-64.941,-41.992,-39.551,-39.551,184.082
1687767056.314,-55.664,-47.852,-31.250,-42.969,333.496
1687767056.317,-46.387,-36.621,-34.180,-30.762,46.875
1687767056.321,-76.172,-40.527,-40.039,-50.293,-66.895
1687767056.325,-76.172,-55.176,-26.367,-54.199,120.117
1687767056.329,-57.129,-44.434,-16.602,-31.250,82.031
1687767056.333,-53.223,-38.574,-14.648,-34.668,-135.254
1687767056.322,-52.246,-47.852,-18.555,-43.945,-100.098
1687767056.326,-55.664,-49.316,-20.996,-58.105,-59.570
1687767056.330,-76.660,-45.898,-24.414,-64.941,-88.867
1687767056.334,-83.984,-36.621,-25.879,-73.730,-88.867
1687767056.338,-58.594,-19.531,-14.648,-69.824,-14.160
1687767056.342,-60.547,-18.555,-13.672,-62.012,46.875
1687767056.346,-77.148,-37.598,-28.809,-79.590,-7.812
1687767056.349,-76.660,-28.809,-32.227,-96.191,-109.863
1687767056.353,-80.566,-13.672,-21.484,-98.145,-35.645
1687767056.357,-89.844,-19.043,-22.949,-109.863,34.180
1687767056.361,-106.445,-24.902,-22.461,-120.605,-43.945
1687767056.365,-110.352,-18.555,-20.020,-124.023,-59.570
1687767056.365,-138.672,-12.207,-27.344,-146.484,47.363
1687767056.369,-178.223,-17.578,-20.020,-179.688,280.762
1687767056.373,-198.730,-10.742,-20.996,-210.449,49.316
1687767056.377,-207.031,-4.883,-30.273,-217.773,-156.738
1687767056.381,-206.055,-7.812,-25.879,-199.707,-10.254
1687767056.385,-211.426,-12.695,-20.508,-206.543,27.344
1687767056.389,-208.496,0.977,-16.113,-220.215,-34.668
1687767056.392,-193.848,23.438,-25.879,-205.078,-57.129
1687767056.396,-200.684,1.953,-45.410,-221.191,131.348
1687767056.400,-214.355,-11.230,-25.879,-237.793,172.852
1687767056.404,-224.609,-4.883,-22.461,-246.582,-69.824
1687767056.408,-247.070,-3.906,-35.645,-242.188,-104.492
1687767056.412,-244.141,-0.488,-25.879,-220.215,-98.145
1687767056.416,-236.328,-1.465,-33.203,-225.586,-97.168
1687767056.420,-207.031,14.648,-57.617,-200.195,-140.137
1687767056.424,-180.176,15.137,-80.078,-185.547,-61.523
1687767056.428,-188.965,-1.465,-63.477,-200.684,35.645
1687767056.432,-170.898,11.230,-62.012,-190.918,-20.996
1687767056.436,-156.250,10.254,-70.312,-181.641,-102.539
1687767056.439,-145.996,9.766,-50.781,-186.523,8.301
1687767056.443,-155.762,9.277,-51.270,-191.406,222.656
1687767056.447,-173.828,-3.906,-51.270,-191.895,-14.160
1687767056.451,-156.250,1.465,-57.617,-193.848,-149.902
1687767056.455,-157.715,7.812,-66.406,-195.801,-48.340
1687767056.455,-139.160,16.602,-60.547,-173.828,-63.965
1687767056.459,-108.887,13.184,-65.430,-145.020,-112.305
1687767056.463,-116.211,-14.160,-73.730,-142.578,-75.684
1687767056.467,-131.836,-14.160,-81.543,-142.578,65.430
1687767056.471,-124.023,-2.441,-83.984,-140.137,109.863
1687767056.475,-102.051,-1.465,-66.895,-123.047,41.992
1687767056.479,-109.375,-16.113,-72.266,-117.188,-9.277
1687767056.482,-107.910,-31.250,-77.637,-118.164,169.434
1687767056.486,-97.168,-37.598,-82.031,-109.863,362.793
1687767056.490,-76.172,-34.668,-79.102,-104.004,57.129
1687767056.494,-60.059,-33.691,-69.824,-78.125,-123.535
1687767056.498,-64.941,-42.969,-63.965,-58.594,-54.688
1687767056.501,-62.012,-47.363,-59.082,-62.500,-117.676
1687767056.505,-44.434,-47.852,-55.664,-50.781,-191.406
1687767056.509,-32.715,-50.781,-45.898,-31.250,-105.957
1687767056.513,-29.297,-56.641,-42.969,-19.043,-18.555
1687767056.517,-14.160,-64.941,-44.922,-9.766,-68.848
1687767056.521,-18.555,-71.777,-43.945,-14.160,-29.297
1687767056.525,-35.645,-72.266,-42.480,-0.488,100.098
1687767056.528,-10.742,-73.242,-42.969,20.508,367.188
1687767056.532,5.859,-68.359,-35.156,24.414,203.125
1687767056.536,8.789,-63.965,-30.273,34.180,-124.023
1687767056.540,8.789,-74.219,-41.992,29.785,-74.219
1687767056.544,2.930,-74.707,-54.199,20.020,-51.758
1687767056.545,17.578,-68.359,-53.711,27.832,-71.289
1687767056.549,36.621,-71.777,-45.410,52.734,-45.410
1687767056.553,45.410,-72.754,-41.992,52.734,-26.367
1687767056.557,30.273,-69.824,-39.551,36.621,-73.730
1687767056.561,38.086,-59.082,-34.668,42.480,-83.984
1687767056.565,52.246,-53.711,-32.715,48.828,27.344
1687767056.569,49.805,-69.336,-35.156,60.059,324.219
1687767056.572,55.664,-68.848,-42.969,63.477,403.320
1687767056.576,66.406,-50.781,-30.762,59.570,-10.742
1687767056.580,72.266,-48.340,-20.508,63.477,-146.484
1687767056.584,45.898,-59.570,-25.879,56.641,-2.930
1687767056.588,18.066,-74.219,-42.969,42.969,-26.367
1687767056.591,17.578,-65.918,-43.457,55.664,-96.680
1687767056.595,30.762,-54.688,-29.785,54.199,-40.527
1687767056.599,42.969,-59.570,-33.203,33.203,-61.523
1687767056.603,40.527,-62.012,-35.645,26.367,-109.375
1687767056.607,55.176,-52.734,-20.020,38.574,-126.465
1687767056.611,71.777,-52.246,-21.484,47.852,23.926
1687767056.615,72.266,-57.617,-42.480,30.762,174.805
1687767056.618,59.082,-53.711,-41.992,17.578,-0.488
1687767056.622,43.457,-54.199,-41.016,42.480,-137.695
1687767056.626,29.785,-50.293,-29.297,48.340,66.406
1687767056.630,18.555,-54.688,-18.066,28.809,298.340
1687767056.634,21.973,-62.012,-14.160,20.020,68.359
1687767056.650,16.113,-59.570,-24.902,12.695,-96.680
1687767056.654,16.113,-59.082,-28.809,21.973,-4.395
1687767056.658,23.926,-59.082,-22.949,26.855,12.207
1687767056.662,23.438,-54.199,-33.691,29.785,-42.969
1687767056.666,12.695,-52.734,-32.715,27.344,-45.410
1687767056.670,3.906,-53.223,-25.391,22.949,238.770
1687767056.674,18.066,-56.641,-30.762,24.414,369.141
1687767056.677,25.879,-59.082,-33.203,14.160,-20.508
1687767056.681,27.832,-65.918,-29.785,8.789,-101.562
1687767056.685,29.297,-63.477,-30.273,-1.953,80.078
1687767056.689,14.648,-53.711,-28.809,7.812,1.465
1687767056.693,20.996,-45.410,-18.066,24.414,-133.789
1687767056.696,23.926,-46.387,-24.414,11.230,-3.906
1687767056.700,15.625,-64.453,-35.156,6.348,41.992
1687767056.704,7.812,-70.801,-36.133,5.371,-72.754
1687767056.708,-11.230,-62.500,-24.414,-2.930,-116.211
1687767056.712,-19.531,-44.434,-14.160,7.324,-55.664
1687767056.716,-11.230,-36.133,-13.184,5.371,23.438
1687767056.720,-5.371,-45.410,-16.113,-6.348,-20.508
1687767056.723,-9.277,-43.945,-24.902,-4.883,-134.766
1687767056.727,-16.113,-38.086,-20.020,-4.395,-34.180
1687767056.731,-4.395,-41.504,-7.812,26.855,166.016
1687767056.735,9.766,-40.039,-9.766,28.320,-18.066
1687767056.739,4.883,-39.551,-11.719,0.000,-92.773
1687767056.741,-16.602,-53.711,-17.090,-12.207,-9.277
1687767056.745,-36.621,-56.641,-24.414,-28.809,-40.527
1687767056.749,-30.762,-41.016,-20.020,-28.809,-114.258
1687767056.753,-22.949,-40.527,-14.160,-18.066,-99.609
1687767056.757,-20.020,-49.805,-14.648,-17.090,202.637
1687767056.761,-12.207,-50.293,-25.879,-25.391,288.574
1687767056.765,-16.113,-52.246,-28.320,-35.156,-28.809
1687767056.768,-13.184,-54.688,-15.625,-28.809,-61.523
1687767056.772,-3.906,-55.176,-24.414,-11.719,48.340
1687767056.776,-16.602,-45.898,-32.227,-9.277,-10.742
1687767056.780,-32.227,-48.340,-20.508,-26.367,-162.598
1687767056.784,-47.363,-48.340,-14.648,-42.480,-106.445
1687767056.787,-52.734,-51.270,-10.742,-30.273,104.004
1687767056.791,-8.301,-52.734,-4.883,-5.859,4.883
1687767056.795,25.391,-41.504,-10.254,-6.348,-137.695
1687767056.799,5.371,-42.969,-33.203,-16.602,-83.008
1687767056.803,0.000,-45.410,-49.316,-23.438,-67.871
1687767056.807,-19.043,-48.340,-57.129,-37.109,-17.578
1687767056.811,-30.762,-47.852,-62.988,-34.668,23.438
1687767056.814,0.488,-41.016,-67.871,-27.344,116.699
1687767056.818,11.719,-37.598,-68.359,-8.789,364.746
1687767056.822,13.672,-36.621,-70.801,-8.301,198.242
1687767056.826,20.508,-31.738,-70.312,-8.789,-152.344
1687767056.830,31.250,-26.855,-68.359,-3.418,-130.371
1687767056.875,41.504,-24.902,-69.336,-2.441,-104.004
1687767056.879,41.992,-24.902,-67.871,2.930,-156.738
1687767056.883,43.457,-31.738,-66.406,-4.883,-164.062
1687767056.887,41.992,-30.273,-62.012,15.625,-120.117
1687767056.891,45.898,-23.926,-61.035,25.391,-31.738
1687767056.895,49.805,-23.438,-68.359,20.508,54.199
1687767056.899,47.363,-39.551,-64.453,24.902,20.996
1687767056.902,53.223,-54.688,-75.195,20.508,230.469
1687767056.906,55.176,-47.852,-80.566,20.996,297.363
1687767056.910,53.223,-30.762,-68.848,31.250,-79.102
1687767056.914,43.945,-20.996,-64.453,29.297,-127.441
1687767056.918,32.227,-23.926,-43.457,18.555,35.156
1687767056.891,44.434,-33.203,-31.738,18.555,-11.230
1687767056.895,59.082,-29.785,-35.156,15.137,-146.484
1687767056.899,54.199,-18.555,-39.062,15.137,-104.004
1687767056.903,17.578,-34.180,-47.363,6.348,-68.848
1687767056.907,-0.488,-39.062,-42.480,-1.465,-137.695
1687767056.911,3.906,-34.180,-41.016,7.812,-91.309
1687767056.915,15.137,-45.410,-49.805,21.973,42.969
1687767056.918,22.949,-45.898,-49.805,19.531,152.344
1687767056.922,26.367,-37.598,-41.016,3.418,-44.434
1687767056.926,44.922,-27.832,-36.133,3.418,-178.711
1687767056.930,23.438,-27.344,-51.270,2.441,7.324
1687767056.934,0.977,-23.926,-47.363,-0.977,-5.371
1687767056.936,12.207,-13.184,-26.367,1.953,-102.051
1687767056.940,14.648,-26.855,-30.273,-4.395,-58.594
1687767056.944,23.438,-30.762,-33.203,1.953,-7.812
1687767056.948,8.301,-24.414,-37.109,4.395,-27.344
1687767056.952,-5.859,-40.039,-38.086,-25.879,-133.301
1687767056.956,-6.836,-47.852,-30.762,-36.133,-143.555
1687767056.960,-0.977,-42.480,-30.762,-22.949,143.555
1687767056.963,23.926,-39.062,-28.320,5.371,458.496
1687767056.967,35.645,-39.062,-34.180,12.207,183.105
1687767056.971,17.578,-42.969,-43.945,-12.695,-188.965
1687767056.975,-2.930,-40.039,-35.645,-7.812,76.660
1687767056.979,-5.371,-29.785,-21.484,0.000,171.387
1687767056.981,-9.277,-36.621,-35.156,-16.602,-87.891
1687767056.985,-7.324,-47.363,-43.457,-21.484,-70.312
1687767056.989,13.184,-46.387,-29.297,-4.395,-10.742
1687767056.993,6.348,-46.875,-29.785,5.371,-68.848
1687767056.997,-20.996,-45.410,-34.668,-15.137,-146.973
1687767057.001,-21.484,-51.270,-28.809,-40.527,13.672
1687767057.005,-5.371,-59.570,-26.367,-35.645,163.086
1687767057.008,11.719,-48.340,-30.273,-26.855,-57.129
1687767057.012,17.090,-41.016,-28.320,-20.020,-173.340
1687767057.016,-4.395,-44.434,-17.578,-25.391,4.883
1687767057.020,-27.344,-41.992,-19.043,-27.344,169.922
1687767057.024,-33.691,-37.598,-18.066,-20.020,-72.266
1687767057.026,-28.320,-37.598,-22.461,-27.832,-180.176
1687767057.030,-33.203,-44.922,-31.250,-37.598,-96.680
1687767057.034,-38.574,-49.805,-28.809,-27.832,-35.645
1687767057.038,-28.320,-52.246,-22.461,-23.438,-31.738
1687767057.042,-18.066,-39.062,-14.648,-29.785,-67.383
1687767057.046,-20.020,-33.691,-19.043,-35.156,266.113
1687767057.050,-16.602,-44.922,-28.320,-36.133,442.383
1687767057.053,-2.930,-53.711,-24.902,-34.668,56.641
1687767057.057,-1.465,-47.363,-21.484,-25.879,-119.629
1687767057.061,-12.207,-37.109,-29.297,-22.949,130.859
1687767057.065,-18.555,-44.922,-34.668,-38.086,124.023
1687767057.069,-31.250,-44.434,-36.621,-37.109,-178.711
1687767057.086,-36.621,-47.852,-41.016,-45.410,-169.922
1687767057.090,-29.785,-51.270,-35.645,-59.570,-104.004
1687767057.094,-23.438,-51.270,-24.902,-47.852,-156.250
1687767057.098,-16.113,-54.688,-20.996,-37.598,-195.312
1687767057.102,-14.648,-49.316,-20.508,-31.738,-56.152
1687767057.106,-7.324,-46.875,-26.367,-18.555,127.930
1687767057.110,-5.859,-43.945,-28.320,-15.137,94.238
1687767057.113,-11.719,-41.992,-28.320,-18.066,-67.871
1687767057.117,-10.742,-43.457,-29.785,-14.160,25.391
1687767057.121,-14.160,-59.082,-24.902,-16.602,282.715
1687767057.125,-14.160,-60.547,-30.273,-46.387,35.645
1687767057.129,-12.207,-43.945,-29.785,-58.105,-165.527
1687767057.115,-27.344,-53.223,-29.297,-48.828,-83.008
1687767057.119,-41.016,-60.059,-31.738,-47.363,-17.578
1687767057.123,-27.832,-47.363,-31.250,-45.410,-45.898
1687767057.127,-33.691,-47.363,-36.133,-39.062,-101.074
1687767057.131,-49.805,-51.758,-30.762,-35.645,34.668
1687767057.135,-59.082,-50.293,-16.113,-36.621,187.500
1687767057.139,-58.105,-47.363,-19.531,-34.180,130.371
1687767057.142,-56.152,-43.945,-25.879,-38.574,17.090
1687767057.146,-57.129,-37.598,-18.555,-46.387,78.125
1687767057.150,-32.227,-37.109,-14.648,-41.016,-2.441
1687767057.154,-26.855,-45.410,-32.227,-33.691,-100.098
1687767057.158,-28.320,-42.969,-41.016,-36.621,-44.922
1687767057.190,-20.020,-36.133,-28.809,-45.898,227.539
1687767057.194,-24.902,-43.457,-41.504,-55.664,318.359
1687767057.198,-23.926,-51.758,-52.246,-59.570,1.953
1687767057.202,-20.020,-54.199,-44.434,-65.430,-65.430
1687767057.206,-18.555,-50.293,-34.180,-51.758,-14.160
1687767057.210,-6.836,-50.781,-20.996,-33.691,-4.883
1687767057.214,-22.949,-49.805,-23.438,-42.480,-67.871
1687767057.217,-33.691,-44.434,-27.832,-42.480,-18.066
1687767057.221,-40.039,-46.875,-32.715,-32.715,175.293
1687767057.225,-41.504,-46.387,-33.203,-30.762,86.426
1687767057.229,-23.438,-48.340,-29.785,-34.668,-62.012
1687767057.233,-28.320,-50.293,-34.668,-37.109,-12.207
1687767057.207,-36.621,-52.246,-35.645,-44.434,25.391
1687767057.211,-31.738,-49.316,-27.832,-42.480,-64.453
1687767057.215,-37.109,-37.598,-23.438,-30.762,-59.570
1687767057.219,-54.199,-47.852,-34.668,-54.199,-16.113
1687767057.223,-54.688,-50.293,-36.133,-62.500,6.836
1687767057.227,-63.965,-42.480,-31.738,-62.500,-11.230
1687767057.231,-62.500,-43.945,-35.645,-60.547,-13.184
1687767057.234,-60.059,-49.805,-41.504,-45.898,281.250
1687767057.238,-53.223,-42.969,-32.715,-38.086,256.348
1687767057.242,-48.828,-46.387,-35.156,-39.062,-59.570
1687767057.246,-50.293,-47.363,-33.691,-42.969,-76.172
1687767057.250,-31.738,-28.320,-17.090,-41.504,0.488
1687767057.255,-25.391,-36.621,-20.508,-41.992,-25.879
1687767057.259,-39.551,-51.758,-30.762,-38.574,-107.422
1687767057.263,-62.988,-59.082,-36.133,-40.527,-53.711
1687767057.267,-67.383,-63.477,-38.086,-46.875,215.820
1687767057.271,-62.012,-53.711,-33.691,-53.711,229.492
1687767057.275,-55.176,-43.945,-29.785,-55.176,11.719
1687767057.279,-54.688,-54.199,-31.738,-45.898,104.004
1687767057.282,-54.199,-62.500,-34.668,-41.504,175.781
1687767057.286,-56.641,-56.641,-30.762,-31.250,-41.504
1687767057.290,-47.363,-50.781,-24.414,-31.738,-136.230
1687767057.294,-26.367,-39.062,-38.086,-49.805,-62.500
1687767057.298,-48.340,-36.133,-49.805,-56.152,-117.676
1687767057.297,-60.547,-42.969,-44.922,-59.082,-162.598
1687767057.301,-64.941,-48.340,-43.945,-68.848,-96.680
1687767057.305,-79.102,-41.016,-37.109,-55.664,17.090
1687767057.309,-45.410,-41.016,-34.668,-41.992,-73.242
1687767057.313,-61.035,-60.059,-40.527,-51.758,-80.566
1687767057.317,-74.707,-52.246,-34.668,-54.688,3.418
1687767057.321,-63.965,-36.621,-23.438,-46.875,166.504
1687767057.324,-79.102,-58.105,-23.926,-40.527,390.625
1687767057.328,-42.969,-66.895,-33.203,-48.828,85.938
1687767057.332,-12.695,-56.152,-31.738,-60.059,-92.773
1687767057.336,-10.254,-50.293,-21.484,-52.246,-60.059
1687767057.340,-19.043,-49.805,-23.438,-50.293,-191.895
1687767057.342,-28.809,-47.852,-31.250,-53.223,-259.277
1687767057.346,-26.855,-41.504,-23.438,-32.715,-152.832
1687767057.350,-20.508,-46.387,-18.066,-26.367,-58.105
1687767057.354,-7.324,-36.133,-19.043,-33.203,-103.027
1687767057.358,-13.184,-36.621,-27.344,-31.738,-159.668
1687767057.362,-35.156,-49.805,-32.715,-42.969,-25.879
1687767057.366,-36.621,-57.617,-27.344,-31.250,344.238
1687767057.369,0.977,-62.988,-17.090,-28.809,192.871
1687767057.373,8.789,-44.922,-4.395,-19.043,-110.840
1687767057.377,9.766,-38.086,-12.207,-23.438,-2.441
1687767057.381,9.277,-54.199,-18.555,-31.250,59.570
1687767057.385,-5.371,-61.523,-20.996,-23.438,-103.516
1687767057.400,-8.789,-60.547,-18.066,-22.461,-110.840
1687767057.404,4.883,-62.500,-14.160,-30.762,-25.391
1687767057.408,7.324,-59.570,-20.508,-39.551,-59.082
1687767057.412,-6.836,-50.781,-18.066,-39.062,-91.797
1687767057.416,-5.371,-48.340,-12.695,-42.480,-32.227
1687767057.420,-8.789,-44.922,-5.859,-27.832,258.301
1687767057.424,-9.766,-48.828,-8.789,-27.344,291.016
1687767057.427,10.742,-47.363,-11.230,-32.715,-24.414
1687767057.431,0.000,-45.898,-7.812,-32.227,-112.305
1687767057.435,-4.883,-48.828,-11.719,-19.531,77.148
1687767057.439,7.812,-57.129,-15.137,-18.066,177.734
1687767057.443,16.602,-60.059,-16.602,-29.297,-33.203
1687767057.446,27.832,-51.270,-19.043,-24.902,-131.348
1687767057.450,6.836,-49.316,-12.207,-32.715,-128.418
1687767057.454,8.301,-46.875,-12.695,-40.039,-64.941
1687767057.458,17.578,-42.480,-19.043,-35.156,-46.875
1687767057.462,9.277,-34.180,-24.902,-34.180,-9.766
1687767057.466,8.301,-34.180,-21.973,-38.086,-31.250
1687767057.470,14.160,-40.527,-20.508,-35.156,-84.961
1687767057.473,14.648,-40.039,-26.367,-44.922,-129.883
1687767057.477,14.160,-41.992,-20.508,-51.758,-32.715
1687767057.481,5.371,-42.969,-15.137,-26.855,333.496
1687767057.485,0.977,-41.992,-9.277,-21.484,156.738
1687767057.489,6.348,-47.363,-11.230,-38.574,-115.723
1687767057.490,-9.766,-51.758,-16.113,-24.414,-32.715
1687767057.494,-3.906,-42.480,-13.672,-8.301,-38.086
1687767057.498,-13.184,-44.922,-18.066,-25.879,-83.984
1687767057.502,-30.762,-48.340,-21.484,-28.320,-125.977
1687767057.506,-34.668,-37.598,-15.625,-8.301,23.926
1687767057.510,-32.715,-36.621,-18.066,-24.902,141.602
1687767057.514,-32.227,-51.758,-27.344,-46.875,97.168
1687767057.517,-37.598,-61.523,-35.156,-44.922,22.461
1687767057.521,-35.645,-54.688,-31.738,-49.316,147.461
1687767057.525,-41.504,-53.711,-15.137,-46.387,258.301
1687767057.529,-27.344,-50.781,-11.719,-47.363,-40.527
1687767057.533,-10.742,-45.410,-11.230,-51.270,-62.500
1687767057.537,-1.465,-61.523,-5.859,-28.320,30.762
1687767057.541,-2.441,-66.895,-7.324,-19.531,-89.844
1687767057.545,-29.785,-45.898,-16.602,-30.762,-117.676
1687767057.549,-27.344,-41.504,-27.832,-38.086,-85.938
1687767057.553,-26.367,-42.480,-31.250,-38.574,-58.594
1687767057.557,-34.668,-36.133,-30.762,-29.297,8.301
1687767057.561,-25.879,-30.273,-25.879,-39.551,-28.809
1687767057.564,-23.438,-40.527,-28.320,-41.016,12.695
1687767057.568,-26.855,-46.875,-28.320,-24.414,20.020
1687767057.572,-38.574,-43.457,-18.066,-40.039,-145.508
1687767057.576,-61.035,-49.316,-15.625,-61.523,-199.219
1687767057.580,-67.383,-47.363,-22.461,-48.340,-24.414
1687767057.596,-62.988,-47.363,-28.320,-48.340,98.633
1687767057.600,-66.895,-49.316,-32.227,-63.965,-25.391
1687767057.604,-57.129,-43.945,-32.227,-56.641,-99.609
1687767057.608,-41.504,-33.691,-30.762,-34.668,69.824
1687767057.612,-35.156,-23.926,-32.715,-29.297,181.152
1687767057.616,-26.367,-25.879,-22.949,-35.645,-24.902
1687767057.620,-40.039,-40.039,-21.484,-46.875,-100.098
1687767057.623,-31.738,-47.363,-34.668,-58.105,121.582
1687767057.627,-36.621,-47.363,-34.668,-41.504,341.797
1687767057.631,-62.500,-49.316,-27.832,-52.246,34.668
1687767057.635,-53.223,-44.434,-25.879,-76.172,-92.285
1687767057.639,-54.688,-43.457,-22.461,-62.012,24.902
1687767057.657,-50.781,-44.434,-25.391,-52.734,-54.199
1687767057.661,-41.016,-42.480,-24.414,-59.570,-170.898
1687767057.665,-37.598,-41.504,-23.926,-57.129,-68.359
1687767057.669,-43.945,-35.645,-21.484,-36.621,38.086
1687767057.673,-60.547,-36.621,-19.043,-41.504,-0.488
1687767057.677,-60.547,-41.504,-27.344,-43.457,-39.062
1687767057.681,-45.898,-47.852,-32.715,-47.852,80.566
1687767057.684,-41.504,-52.246,-29.785,-65.430,96.191
1687767057.688,-53.223,-50.293,-24.414,-60.547,-108.398
1687767057.692,-64.941,-46.387,-22.949,-53.711,-178.223
1687767057.696,-64.941,-43.945,-24.414,-55.664,-47.363
1687767057.700,-48.828,-49.316,-21.484,-51.270,275.391
1687767057.700,-46.875,-53.711,-15.137,-53.223,79.590
1687767057.704,-44.434,-47.852,-13.184,-46.875,-164.062
1687767057.708,-52.246,-52.734,-24.414,-48.340,-74.219
1687767057.712,-47.852,-55.664,-34.668,-62.988,-73.242
1687767057.716,-29.785,-49.805,-31.738,-55.176,-92.773
1687767057.720,-40.527,-53.223,-25.391,-51.270,7.324
1687767057.724,-47.363,-51.270,-22.949,-46.875,102.051
1687767057.727,-40.527,-52.246,-27.344,-44.434,71.777
1687767057.731,-29.785,-57.129,-31.250,-44.922,0.488
1687767057.735,-23.438,-47.852,-32.715,-33.691,-12.695
1687767057.739,-20.996,-41.992,-23.438,-38.086,-23.438
1687767057.743,-32.715,-33.691,-22.949,-56.152,-105.957
1687767057.776,-40.527,-20.508,-22.949,-42.969,-173.828
1687767057.780,-33.691,-20.508,-10.254,-32.227,-129.883
1687767057.784,-47.363,-35.645,-15.137,-33.691,198.730
1687767057.788,-60.059,-41.992,-23.926,-22.949,356.445
1687767057.792,-37.598,-34.180,-21.973,-29.297,-26.367
1687767057.796,-40.527,-41.992,-17.090,-42.480,13.672
1687767057.800,-66.406,-49.805,-20.508,-44.434,205.078
1687767057.803,-60.547,-39.062,-15.137,-46.875,-31.250
1687767057.807,-54.688,-35.156,-16.602,-37.598,-40.039
1687767057.811,-67.871,-43.945,-25.879,-38.086,127.930
1687767057.815,-69.336,-55.664,-26.855,-43.945,6.348
1687767057.819,-58.594,-48.340,-24.414,-32.715,-120.117
1687767057.781,-37.598,-30.762,-21.973,-15.625,-135.254
1687767057.785,-29.785,-27.832,-20.020,-10.742,63.477
1687767057.789,-50.293,-42.969,-29.297,-35.156,193.359
1687767057.793,-57.617,-51.270,-37.109,-52.246,-83.984
1687767057.797,-47.852,-53.223,-33.691,-46.387,-97.656
1687767057.801,-46.875,-48.340,-30.762,-40.039,56.152
1687767057.805,-46.387,-41.016,-27.832,-36.621,59.570
1687767057.808,-49.316,-42.969,-24.902,-46.387,-25.391
1687767057.812,-52.246,-36.621,-28.320,-46.875,-94.238
1687767057.816,-49.316,-30.762,-26.855,-41.016,-29.785
1687767057.820,-35.156,-33.203,-17.090,-47.363,-35.156
1687767057.824,-27.344,-33.691,-23.438,-44.434,-92.773
1687767057.823,-50.781,-35.645,-29.785,-35.645,-115.234
1687767057.827,-46.875,-40.039,-28.320,-43.457,237.305
1687767057.831,-52.246,-42.969,-25.879,-42.480,245.117
1687767057.835,-52.734,-37.598,-23.438,-39.551,-180.664
1687767057.839,-39.062,-39.551,-28.809,-45.898,-104.492
1687767057.843,-49.316,-44.922,-27.832,-39.551,50.781
1687767057.847,-50.293,-41.504,-18.555,-47.852,-11.230
1687767057.850,-46.387,-41.504,-22.461,-52.246,-166.016
1687767057.854,-56.641,-41.504,-29.785,-43.945,-116.211
1687767057.858,-50.293,-40.527,-23.926,-37.109,236.328
1687767057.862,-44.434,-40.527,-20.996,-41.504,360.840
1687767057.866,-50.781,-36.133,-23.926,-58.594,65.918
1687767057.866,-48.828,-34.668,-30.762,-62.988,-85.449
1687767057.870,-38.574,-36.621,-30.762,-59.570,66.406
1687767057.874,-34.180,-39.551,-30.762,-50.781,-16.113
1687767057.878,-41.504,-39.062,-30.762,-42.480,-178.711
1687767057.882,-49.316,-35.156,-18.066,-42.480,-76.172
1687767057.886,-50.781,-39.551,-20.996,-36.133,20.508
1687767057.890,-45.410,-52.246,-35.645,-46.875,-82.520
1687767057.893,-37.109,-48.828,-27.344,-57.129,-125.488
1687767057.897,-43.457,-41.504,-33.203,-53.711,54.688
1687767057.901,-47.363,-47.852,-37.598,-44.434,365.723
1687767057.905,-44.922,-46.387,-28.809,-53.711,110.352
1687767057.909,-50.293,-37.109,-36.133,-69.824,-151.367
1687767057.941,-47.363,-33.203,-41.992,-62.500,-56.641
1687767057.945,-47.852,-37.109,-41.504,-70.801,-136.230
1687767057.949,-58.105,-49.805,-34.668,-74.707,-199.707
1687767057.953,-60.547,-45.410,-23.926,-54.199,-44.434
1687767057.957,-52.734,-36.133,-28.809,-53.711,0.488
1687767057.961,-50.781,-45.898,-37.598,-68.848,-72.266
1687767057.965,-47.852,-43.457,-34.180,-61.523,-33.203
1687767057.968,-44.434,-30.762,-35.645,-45.898,3.418
1687767057.972,-47.363,-29.297,-32.715,-46.875,290.527
1687767057.976,-45.410,-33.203,-23.926,-35.645,168.945
1687767057.980,-51.758,-33.203,-33.203,-40.039,-133.301
1687767057.984,-33.691,-46.387,-49.805,-55.176,-38.086
1687767057.988,-28.320,-50.293,-41.016,-44.434,28.809
1687767057.992,-36.133,-42.969,-25.879,-30.762,-80.078
1687767057.996,-39.551,-46.875,-38.086,-47.852,-182.617
1687767058.000,-43.945,-44.922,-42.969,-61.035,-102.051
1687767058.004,-30.762,-41.016,-35.156,-53.223,2.930
1687767058.008,-32.227,-39.551,-31.738,-49.805,27.832
1687767058.012,-35.645,-27.832,-24.414,-41.504,67.871
1687767058.015,-41.504,-24.902,-30.762,-53.223,137.207
1687767058.019,-49.805,-34.180,-40.527,-66.895,34.180
1687767058.023,-39.062,-33.691,-31.738,-51.758,-137.207
1687767058.027,-33.691,-42.969,-33.691,-48.828,-143.555
1687767058.031,-49.805,-45.898,-29.297,-48.828,-10.254
1687767058.105,-55.176,-43.945,-29.297,-51.758,-36.621
1687767058.109,-45.410,-46.875,-41.504,-57.129,-136.719
1687767058.113,-45.410,-47.363,-44.434,-44.922,-65.430
1687767058.117,-43.945,-46.875,-39.551,-35.645,154.297
1687767058.121,-30.762,-41.992,-37.598,-27.832,48.828
1687767058.125,-27.344,-43.457,-34.668,-34.668,-122.559
1687767058.129,-24.414,-37.109,-31.738,-34.668,8.301
1687767058.132,-27.832,-35.645,-32.715,-22.461,92.773
1687767058.136,-26.855,-41.992,-35.645,-25.391,-8.789
1687767058.140,-14.648,-29.785,-32.227,-37.598,-61.523
1687767058.144,-30.273,-23.438,-22.461,-35.156,-29.785
1687767058.148,-50.781,-34.180,-26.367,-40.527,-8.301
1687767058.150,-58.105,-47.852,-37.109,-45.410,-32.715
1687767058.154,-55.176,-49.316,-37.598,-35.156,-121.582
1687767058.158,-37.598,-44.434,-33.691,-34.668,-61.035
1687767058.162,-44.922,-43.945,-36.133,-35.156,341.797
1687767058.166,-54.199,-39.551,-32.715,-27.832,283.203
1687767058.170,-53.711,-35.645,-24.414,-39.551,17.090
1687767058.174,-45.410,-39.551,-29.297,-37.598,180.664
1687767058.177,-39.551,-43.457,-37.109,-31.250,302.246
1687767058.181,-41.504,-44.434,-40.039,-48.828,-20.508
1687767058.185,-55.176,-46.387,-41.016,-41.992,-120.605
1687767058.189,-52.734,-44.434,-41.016,-42.480,45.898
1687767058.193,-52.246,-46.875,-35.645,-53.711,33.203
1687767058.158,-67.871,-48.828,-37.598,-63.965,-44.922
1687767058.162,-75.195,-45.898,-41.992,-73.730,-67.871
1687767058.166,-59.570,-41.504,-34.668,-63.965,19.531
1687767058.170,-40.039,-43.457,-36.621,-62.012,-21.484
1687767058.174,-24.414,-48.340,-40.039,-55.664,-145.996
1687767058.178,-38.086,-48.340,-41.504,-46.387,62.500
1687767058.182,-59.082,-41.504,-38.086,-40.039,218.262
1687767058.185,-30.273,-40.527,-36.621,-41.016,17.090
1687767058.189,4.883,-52.734,-36.621,-40.039,-70.312
1687767058.193,-12.695,-43.945,-28.320,-46.875,40.039
1687767058.197,-29.785,-51.758,-33.691,-50.781,51.270
1687767058.201,-19.043,-46.875,-33.203,-47.852,-43.945
1687767058.164,-32.227,-25.879,-32.715,-61.035,-31.250
1687767058.168,-35.156,-46.387,-42.969,-61.523,-25.879
1687767058.172,-11.230,-65.430,-41.016,-56.152,-18.066
1687767058.176,-14.648,-59.570,-20.996,-37.109,-31.250
1687767058.180,-31.250,-40.527,-20.996,-28.320,-31.250
1687767058.184,-39.062,-48.828,-34.180,-51.270,56.641
1687767058.188,-45.898,-62.012,-26.367,-38.574,62.988
1687767058.191,-31.250,-63.477,-28.320,-38.574,11.230
1687767058.195,-20.508,-54.199,-33.203,-60.059,-96.680
1687767058.199,-38.086,-46.875,-25.879,-44.922,99.609
1687767058.203,-32.227,-56.152,-23.438,-42.480,270.020
1687767058.207,-27.832,-63.965,-25.391,-58.594,-57.617
1687767058.198,2.930,-55.664,-29.785,-42.969,-105.957
1687767058.202,14.160,-44.922,-26.855,-31.250,10.254
1687767058.206,-17.090,-50.293,-20.996,-45.898,-50.293
1687767058.210,-2.930,-53.223,-22.461,-41.504,-45.410
1687767058.214,20.508,-47.363,-14.648,-28.809,-3.418
1687767058.218,-8.789,-53.711,-8.789,-28.320,79.102
1687767058.222,-38.086,-60.547,-13.672,-24.902,41.992
1687767058.225,-35.645,-53.223,-16.602,-25.879,-122.559
1687767058.229,-50.293,-45.898,-22.461,-27.344,-49.316
1687767058.233,-43.457,-50.293,-26.367,-18.555,234.375
1687767058.237,-22.949,-51.270,-21.973,-20.508,314.453
1687767058.241,-20.508,-48.828,-18.555,-23.438,381.348
1687767058.255,-34.180,-55.176,-28.320,-19.043,229.980
1687767058.259,-40.527,-49.316,-28.809,-23.438,-99.121
1687767058.263,-33.203,-43.457,-20.996,-29.785,-121.094
1687767058.267,-12.207,-51.270,-26.367,-37.598,-157.227
1687767058.271,-5.859,-52.246,-30.762,-44.922,-75.684
1687767058.275,-24.414,-56.641,-31.738,-58.105,-36.621
1687767058.279,-18.555,-56.641,-27.832,-69.336,-81.055
1687767058.282,-11.719,-58.594,-24.902,-66.895,-83.008
1687767058.286,-26.855,-59.570,-22.949,-43.945,90.820
1687767058.290,-22.461,-52.246,-24.414,-24.902,386.719
1687767058.294,-27.832,-49.805,-32.227,-26.367,213.379
1687767058.298,-41.504,-53.711,-35.645,-25.879,-62.500
1687767058.319,-45.898,-57.129,-29.785,-25.879,-68.359
1687767058.323,-46.875,-53.711,-36.621,-40.039,-163.574
1687767058.327,-26.367,-48.828,-39.062,-37.598,-166.504
1687767058.331,-20.508,-38.086,-33.691,-20.508,-104.980
1687767058.335,-32.227,-39.551,-36.621,-43.945,-139.160
1687767058.339,-32.227,-49.316,-42.480,-55.664,-69.336
1687767058.343,-8.789,-46.875,-45.410,-11.230,-95.703
1687767058.346,0.000,-45.410,-31.250,0.488,-22.949
1687767058.350,-31.250,-51.758,-12.695,-28.320,32.715
1687767058.354,-64.453,-59.570,-13.184,-47.363,-109.375
1687767058.358,-76.172,-54.199,-10.742,-63.477,-145.020
1687767058.362,-83.496,-49.805,-0.488,-71.289,-40.527
1687767058.324,-118.652,-75.195,-5.371,-87.402,136.230
1687767058.328,-127.441,-88.379,2.441,-104.980,-87.402
1687767058.332,-115.234,-74.707,19.531,-90.332,-158.691
1687767058.336,-143.066,-83.984,13.184,-88.867,-33.203
1687767058.340,-158.203,-91.309,3.418,-105.957,0.977
1687767058.344,-147.461,-83.008,9.766,-101.074,-43.945
1687767058.348,-146.484,-90.332,18.066,-96.680,-9.277
1687767058.351,-146.484,-95.703,17.090,-107.910,78.613
1687767058.355,-154.297,-90.820,12.695,-106.445,-100.586
1687767058.359,-135.254,-86.914,2.441,-100.098,-172.852
1687767058.363,-110.352,-78.125,0.000,-79.590,-6.348
1687767058.367,-96.191,-74.707,0.000,-70.312,9.277
1687767058.377,-102.051,-87.891,-7.812,-75.195,-42.969
1687767058.381,-107.910,-83.984,-6.348,-66.895,-57.617
1687767058.385,-79.590,-62.988,-7.324,-49.805,-65.918
1687767058.389,-63.965,-65.918,-15.625,-44.922,214.844
1687767058.393,-83.984,-80.566,-23.926,-53.223,470.703
1687767058.397,-75.195,-78.125,-20.508,-63.477,296.875
1687767058.401,-67.383,-73.730,-12.207,-74.219,167.480
1687767058.404,-71.289,-71.289,-7.324,-63.477,102.539
1687767058.408,-61.523,-61.035,-6.836,-48.828,-132.812
1687767058.412,-60.547,-75.195,-20.508,-46.875,-203.125
1687767058.416,-64.453,-74.219,-33.203,-46.387,-64.453
1687767058.420,-70.312,-49.805,-30.273,-43.457,87.402
1687767058.421,-76.172,-48.340,-17.578,-59.570,-7.812
1687767058.425,-76.172,-47.852,-14.160,-61.523,-69.824
1687767058.429,-66.406,-41.504,-15.625,-42.480,42.969
1687767058.433,-57.129,-41.992,-18.555,-45.410,9.277
1687767058.437,-67.871,-55.664,-26.367,-69.824,-82.520
1687767058.441,-77.637,-63.477,-26.367,-74.707,-41.504
1687767058.445,-62.012,-55.664,-21.484,-51.270,203.613
1687767058.448,-56.641,-56.152,-24.414,-43.945,353.027
1687767058.452,-66.895,-56.641,-29.785,-51.758,-10.254
1687767058.456,-53.223,-48.828,-27.344,-41.504,-188.965
1687767058.460,-43.945,-44.434,-26.367,-50.293,-89.844
1687767058.464,-51.758,-47.852,-38.086,-63.965,-110.352
1687767058.499,-44.434,-53.711,-39.062,-62.988,-188.477
1687767058.503,-41.016,-47.852,-26.367,-65.430,-106.445
1687767058.507,-45.898,-44.434,-25.879,-61.035,29.785
1687767058.511,-48.340,-51.270,-30.762,-51.758,-40.527
1687767058.515,-41.992,-44.922,-26.855,-49.805,-115.234
1687767058.519,-52.246,-43.457,-31.250,-42.969,7.324
1687767058.523,-73.242,-37.598,-36.621,-44.434,305.176
1687767058.526,-89.844,-36.133,-38.574,-46.387,206.055
1687767058.530,-71.777,-41.504,-38.574,-47.852,-79.590
1687767058.534,-54.688,-38.574,-39.062,-46.875,-48.340
1687767058.538,-61.523,-43.945,-43.945,-51.758,-70.801
1687767058.542,-41.992,-41.504,-32.715,-36.621,-88.379
1687767058.526,-47.852,-31.250,-15.625,-22.949,-113.770
1687767058.530,-76.660,-36.621,-24.414,-44.922,-66.895
1687767058.534,-80.566,-40.039,-32.227,-61.035,-58.594
1687767058.538,-67.871,-33.203,-28.809,-55.664,-32.227
1687767058.542,-48.828,-31.250,-21.484,-41.016,18.555
1687767058.546,-63.965,-39.062,-31.250,-55.176,96.680
1687767058.550,-76.660,-41.504,-39.062,-62.500,174.805
1687767058.553,-63.965,-44.434,-37.109,-57.617,129.395
1687767058.557,-53.223,-38.086,-37.598,-43.945,75.684
1687767058.561,-40.039,-36.621,-34.668,-28.809,37.109
1687767058.565,-34.668,-37.109,-29.297,-33.203,-13.672
1687767058.569,-37.109,-30.273,-31.738,-43.945,-37.109
1687767058.608,-29.297,-28.320,-42.480,-39.062,-43.945
1687767058.612,-29.297,-28.320,-34.668,-20.020,221.680
1687767058.616,-50.781,-32.715,-22.949,-26.367,464.844
1687767058.620,-59.082,-34.180,-17.578,-47.363,51.758
1687767058.624,-70.801,-36.621,-12.695,-63.965,-68.359
1687767058.628,-105.957,-49.316,-25.391,-73.730,115.723
1687767058.632,-104.492,-58.105,-35.156,-90.820,4.395
1687767058.635,-77.148,-42.480,-30.762,-93.750,-108.887
1687767058.639,-67.871,-38.574,-28.809,-66.895,-55.664
1687767058.643,-85.938,-42.969,-31.250,-59.082,210.938
1687767058.647,-86.914,-44.434,-37.109,-72.754,31.250
1687767058.651,-64.941,-56.641,-35.645,-55.664,-129.395
1687767058.608,-64.941,-50.293,-37.598,-52.734,13.184
1687767058.612,-66.406,-43.457,-43.945,-68.848,-123.047
1687767058.616,-71.777,-43.457,-44.922,-61.035,-257.324
1687767058.620,-76.660,-40.527,-37.598,-62.012,-228.516
1687767058.624,-75.195,-46.875,-29.785,-59.570,-146.973
1687767058.628,-65.430,-54.688,-26.367,-46.875,-121.094
1687767058.632,-55.176,-53.223,-31.738,-38.574,-48.828
1687767058.635,-54.199,-41.992,-28.809,-42.480,-45.898
1687767058.639,-66.406,-32.715,-25.879,-56.152,-88.867
1687767058.643,-69.824,-32.715,-33.203,-43.457,-31.738
1687767058.647,-47.852,-35.645,-34.180,-33.691,-38.086
1687767058.651,-45.410,-37.109,-40.527,-51.270,-92.285
1687767058.664,-53.711,-41.016,-36.621,-50.293,-12.207
1687767058.668,-55.664,-39.551,-28.320,-37.598,-21.973
1687767058.672,-55.176,-38.574,-20.508,-33.203,-104.492
1687767058.676,-41.016,-41.992,-24.902,-30.762,-85.938
1687767058.680,-37.109,-44.434,-34.180,-28.320,199.707
1687767058.684,-39.062,-46.875,-27.832,-20.996,559.570
1687767058.688,-38.574,-47.852,-24.902,-37.598,297.852
1687767058.691,-46.875,-47.852,-25.879,-34.668,6.348
1687767058.695,-39.551,-36.133,-21.973,-20.020,21.973
1687767058.699,-35.156,-35.156,-23.926,-27.344,-100.586
1687767058.703,-39.062,-45.410,-27.832,-29.297,-136.719
1687767058.707,-35.156,-40.527,-28.809,-35.156,-25.879
1687767058.708,-45.898,-39.551,-30.273,-35.156,-8.789
1687767058.712,-46.875,-49.316,-32.227,-41.992,-121.094
1687767058.716,-39.551,-46.387,-22.949,-33.203,-124.023
1687767058.720,-42.969,-36.133,-20.508,-32.227,-18.066
1687767058.724,-44.434,-33.691,-38.086,-43.457,64.941
1687767058.728,-37.598,-34.668,-33.691,-29.785,33.691
1687767058.732,-41.016,-41.504,-22.461,-37.109,-38.574
1687767058.735,-46.875,-44.434,-26.367,-43.945,117.676
1687767058.739,-47.363,-36.133,-29.297,-32.715,411.133
1687767058.743,-39.062,-37.598,-32.227,-36.133,195.312
1687767058.747,-35.156,-33.203,-40.039,-34.180,-80.078
1687767058.751,-46.387,-30.762,-41.504,-24.902,-13.672
1687767058.781,-40.527,-26.855,-29.297,-20.508,-74.219
1687767058.785,-24.414,-20.020,-24.414,-24.414,-147.949
1687767058.789,-17.578,-40.527,-37.109,-41.504,-27.344
1687767058.793,-39.062,-49.805,-42.480,-49.316,4.395
1687767058.797,-27.344,-36.133,-29.297,-36.621,-143.066
1687767058.801,-12.207,-33.691,-23.926,-38.574,-78.125
1687767058.805,-30.762,-41.504,-29.785,-50.293,84.473
1687767058.808,-43.945,-38.086,-33.203,-34.668,253.418
1687767058.812,-51.270,-31.738,-37.109,-26.855,122.070
1687767058.816,-28.809,-32.227,-32.227,-24.414,-160.156
1687767058.820,-9.766,-31.738,-23.926,-30.273,-160.156
1687767058.824,-15.137,-20.996,-23.926,-27.832,-109.863
1687767058.827,-9.277,-20.996,-31.250,-38.086,-173.340
1687767058.831,-11.230,-33.691,-46.387,-46.875,-180.664
1687767058.835,-17.090,-45.898,-45.410,-54.688,-65.430
1687767058.839,-18.066,-50.781,-34.668,-50.781,-32.227
1687767058.843,-35.156,-39.551,-28.809,-41.016,-77.148
1687767058.847,-52.246,-39.551,-31.250,-47.363,-56.152
1687767058.851,-62.988,-47.852,-38.574,-42.480,80.078
1687767058.854,-48.828,-48.828,-44.922,-31.738,149.902
1687767058.858,-33.203,-48.828,-42.480,-31.738,30.273
1687767058.862,-41.992,-46.875,-44.922,-41.504,-94.238
1687767058.866,-50.293,-41.504,-46.387,-32.715,113.281
1687767058.870,-62.012,-53.223,-51.270,-35.645,233.887
1687767058.901,-68.848,-62.012,-44.922,-41.504,-84.961
1687767058.905,-42.969,-35.645,-23.926,-33.203,-78.613
1687767058.909,-48.828,-34.180,-33.691,-41.992,53.711
1687767058.913,-53.223,-43.945,-41.016,-48.340,-59.570
1687767058.917,-45.898,-39.551,-41.992,-55.664,-167.969
1687767058.921,-40.039,-44.922,-39.062,-44.922,30.273
1687767058.925,-22.949,-36.133,-34.180,-28.809,192.871
1687767058.928,-38.574,-29.785,-45.410,-36.621,13.672
1687767058.932,-39.551,-35.156,-40.039,-34.668,-187.988
1687767058.936,-25.879,-31.250,-27.344,-35.645,-90.332
1687767058.940,-28.809,-29.297,-30.273,-39.551,-5.859
1687767058.944,-11.719,-41.992,-31.250,-30.762,-109.863
1687767058.963,-24.902,-47.363,-34.180,-43.945,-66.406
1687767058.967,-40.039,-42.480,-37.109,-44.434,34.180
1687767058.971,-41.992,-46.875,-34.180,-33.691,288.086
1687767058.975,-54.688,-35.156,-31.250,-44.434,223.145
1687767058.979,-60.547,-23.926,-29.785,-47.363,-98.145
1687767058.983,-49.316,-20.996,-27.832,-38.086,11.719
1687767058.987,-34.668,-22.461,-24.902,-37.109,59.082
1687767058.990,-31.738,-31.250,-27.832,-29.785,-89.844
1687767058.994,-28.809,-33.691,-33.203,-40.039,-135.254
1687767058.998,-25.879,-28.320,-32.227,-36.133,10.254
1687767059.002,-30.762,-29.785,-22.949,-22.949,62.988
1687767059.006,-40.039,-38.574,-23.438,-31.250,-89.355
1687767059.007,-45.898,-40.039,-31.250,-42.969,-125.977
1687767059.011,-48.828,-40.039,-42.480,-58.594,-36.621
1687767059.015,-42.480,-41.016,-42.969,-52.246,-20.996
1687767059.019,-34.668,-48.340,-39.551,-54.199,-122.559
1687767059.023,-30.273,-48.340,-35.156,-50.293,-60.547
1687767059.027,-27.344,-38.086,-32.715,-39.551,164.551
1687767059.031,-38.574,-34.668,-32.227,-41.016,121.094
1687767059.034,-35.645,-30.273,-25.879,-42.480,-142.578
1687767059.038,-13.184,-30.762,-32.715,-31.250,-75.195
1687767059.042,-20.996,-33.203,-35.156,-23.438,126.953
1687767059.046,-33.203,-31.250,-34.668,-41.992,-52.734
1687767059.050,-38.086,-32.715,-40.039,-43.457,-126.465
1687767059.012,-31.250,-25.391,-42.480,-25.391,53.223
1687767059.016,-22.949,-26.367,-36.621,-25.391,12.695
1687767059.020,-37.109,-30.762,-26.855,-46.387,-127.930
1687767059.024,-46.387,-26.855,-31.738,-46.387,-109.375
1687767059.028,-50.293,-39.062,-38.086,-47.852,79.102
1687767059.032,-43.457,-48.340,-33.203,-35.645,113.770
1687767059.036,-31.250,-38.086,-42.480,-31.250,-13.672
1687767059.039,-36.133,-41.992,-47.363,-45.898,-0.977
1687767059.043,-42.969,-42.480,-41.504,-42.969,-12.207
1687767059.047,-60.547,-35.645,-45.898,-51.758,-53.223
1687767059.051,-66.406,-36.133,-43.457,-56.641,-55.664
1687767059.055,-41.016,-31.738,-35.156,-41.992,-66.895
1687767059.066,-35.156,-27.832,-28.809,-30.273,107.910
1687767059.070,-32.227,-35.156,-31.738,-23.926,387.207
1687767059.074,-22.949,-39.062,-39.551,-17.578,122.070
1687767059.078,-18.066,-32.227,-39.062,-23.926,-137.695
1687767059.082,-3.906,-28.320,-25.391,-18.555,-84.961
1687767059.086,-19.531,-40.039,-29.297,-25.879,-105.957
1687767059.090,-44.434,-47.852,-38.574,-29.785,-62.012
1687767059.093,-37.598,-37.109,-36.133,-13.672,2.441
1687767059.097,-33.691,-28.809,-35.156,-9.277,-36.621
1687767059.101,-46.875,-38.574,-32.227,-29.785,-96.680
1687767059.105,-45.410,-38.086,-29.785,-21.973,-77.148
1687767059.109,-41.504,-32.715,-26.855,-6.348,31.738
1687767059.170,-44.434,-38.086,-29.785,-26.855,280.273
1687767059.174,-47.363,-49.316,-38.086,-23.926,375.977
1687767059.178,-32.227,-49.316,-39.551,-14.160,227.051
1687767059.182,-21.973,-43.945,-31.250,-15.137,24.902
1687767059.186,-27.832,-46.875,-25.879,3.418,1.465
1687767059.190,-15.137,-34.180,-22.949,-4.395,41.504
1687767059.194,-21.484,-29.785,-33.691,-25.879,80.078
1687767059.197,-50.781,-36.133,-51.270,-54.199,147.949
1687767059.201,-70.801,-37.598,-43.945,-87.891,-3.906
1687767059.205,-80.566,-41.016,-35.645,-85.938,-169.922
1687767059.209,-68.359,-41.992,-35.156,-72.266,-172.363
1687767059.213,-49.316,-40.527,-21.973,-71.289,67.383
1687767059.177,-43.457,-35.645,-20.996,-60.059,69.336
1687767059.181,-21.484,-34.668,-31.250,-51.270,-190.918
1687767059.185,-23.438,-33.203,-27.344,-50.781,-148.926
1687767059.189,-76.660,-46.387,-31.738,-49.805,153.320
1687767059.193,-57.129,-46.387,-25.879,-49.805,120.605
1687767059.197,-13.672,-32.227,-18.066,-41.016,-61.035
1687767059.201,-41.016,-34.180,-23.438,-42.969,127.930
1687767059.204,-74.219,-36.621,-26.367,-47.852,176.270
1687767059.208,-66.406,-30.273,-27.832,-38.574,-69.336
1687767059.212,-73.242,-31.250,-36.621,-41.504,-207.031
1687767059.216,-58.594,-38.574,-38.574,-41.504,-91.309
1687767059.220,-64.941,-48.340,-38.086,-46.875,-60.059
1687767059.182,-65.430,-41.992,-38.086,-45.410,-178.223
1687767059.186,-45.898,-30.762,-31.250,-46.387,-171.875
1687767059.190,-38.574,-37.109,-31.738,-44.434,-124.512
1687767059.194,-49.316,-45.898,-32.227,-43.457,-64.453
1687767059.198,-46.875,-51.758,-33.203,-57.617,-8.301
1687767059.202,-21.973,-43.945,-31.738,-42.480,-38.086
1687767059.206,-14.160,-31.250,-24.414,-20.508,33.691
1687767059.209,-23.926,-36.133,-21.484,-19.043,5.371
1687767059.213,-16.602,-42.969,-20.996,-32.715,-118.652
1687767059.217,-6.348,-39.062,-20.996,-30.273,-73.242
1687767059.221,9.766,-32.715,-20.996,-26.855,-4.883
1687767059.225,-1.465,-39.551,-35.645,-34.180,-22.461
1687767059.307,-32.715,-53.711,-45.410,-37.598,-182.129
1687767059.311,-11.719,-48.828,-32.715,-39.062,-106.934
1687767059.315,18.066,-32.715,-34.668,-31.250,5.371
1687767059.319,13.184,-47.363,-30.762,-56.152,-138.672
1687767059.323,6.836,-46.387,-20.020,-70.801,-204.102
1687767059.327,-48.340,-40.039,-24.414,-63.477,-15.625
1687767059.331,-88.379,-56.152,-38.574,-61.035,373.535
1687767059.334,-74.707,-56.641,-37.109,-59.570,387.207
1687767059.338,-76.660,-48.828,-29.785,-47.852,363.281
1687767059.342,-59.570,-49.316,-29.297,-30.273,237.793
1687767059.346,-47.852,-51.270,-23.926,-32.227,-110.840
1687767059.350,-55.664,-50.293,-21.973,-33.691,-129.883
1687767059.313,-38.574,-50.781,-24.902,-32.227,-143.555
1687767059.317,-18.555,-44.434,-18.066,-38.574,-79.102
1687767059.321,-19.043,-36.621,-14.648,-42.480,12.695
1687767059.325,-19.043,-43.457,-20.508,-33.203,-74.219
1687767059.329,-26.855,-52.246,-27.832,-40.527,-132.812
1687767059.333,-20.020,-49.805,-32.227,-41.016,74.219
1687767059.337,-4.395,-38.086,-18.555,-42.480,195.801
1687767059.340,-10.254,-43.457,-16.602,-46.875,-17.578
1687767059.344,-21.484,-58.594,-30.273,-41.992,-143.555
1687767059.348,-31.250,-53.223,-33.203,-43.457,-75.684
1687767059.352,-33.203,-46.875,-32.715,-58.105,-28.320
1687767059.356,-31.738,-62.012,-27.832,-41.504,-17.578
1687767059.351,-50.781,-54.199,-21.484,-36.621,-51.758
1687767059.355,-55.664,-37.109,-11.719,-60.059,-23.926
1687767059.359,-50.781,-38.086,-19.043,-57.617,-27.344
1687767059.363,-44.922,-36.621,-29.785,-37.109,-97.168
1687767059.367,-38.574,-39.551,-20.996,-29.785,-42.480
1687767059.371,-28.320,-35.156,-20.996,-36.133,245.605
1687767059.375,-7.324,-39.551,-24.414,-36.133,159.668
1687767059.378,-12.207,-47.363,-28.320,-42.480,-109.863
1687767059.382,-10.254,-45.410,-33.203,-43.945,-71.289
1687767059.386,22.949,-40.039,-27.832,-38.574,17.578
1687767059.390,5.859,-40.039,-23.926,-34.180,-106.934
1687767059.394,-9.277,-40.039,-18.066,-25.391,-165.039
1687767059.365,-9.277,-42.969,-22.949,-23.926,-53.223
1687767059.369,-12.207,-43.457,-22.949,-2.930,-53.223
1687767059.373,-18.555,-52.246,-22.949,-19.043,-126.465
1687767059.377,-62.988,-53.223,-32.715,-51.758,-121.582
1687767059.381,-73.730,-54.199,-35.156,-35.645,57.617
1687767059.385,-67.383,-65.430,-41.992,-42.480,329.590
1687767059.389,-63.965,-51.270,-41.016,-51.270,450.684
1687767059.392,-39.062,-46.875,-37.109,-36.621,400.879
1687767059.396,-9.277,-44.434,-31.738,-43.457,66.406
1687767059.400,-11.719,-43.457,-28.320,-57.129,-177.246
1687767059.404,-7.324,-38.574,-27.832,-56.152,-219.727
1687767059.408,-7.324,-34.180,-27.344,-62.012,-183.105
1687767059.485,-36.133,-42.969,-27.344,-53.711,-65.918
1687767059.489,-50.781,-45.898,-31.250,-37.598,-101.074
1687767059.493,-52.246,-41.016,-28.320,-40.527,-166.992
1687767059.497,-57.617,-34.668,-29.297,-47.852,-163.574
1687767059.501,-45.410,-51.270,-31.250,-38.574,175.293
1687767059.505,-22.461,-54.688,-22.461,-28.809,239.258
1687767059.509,-30.273,-40.527,-25.879,-29.785,-5.859
1687767059.512,-55.664,-47.852,-30.273,-48.828,58.594
1687767059.516,-56.152,-53.223,-28.809,-49.316,322.266
1687767059.520,-48.828,-42.969,-33.203,-41.504,187.988
1687767059.524,-46.387,-46.875,-36.133,-62.012,-104.004
1687767059.528,-41.016,-51.270,-27.344,-60.547,-18.066
1687767059.490,-37.598,-40.527,-26.855,-46.387,-28.809
1687767059.494,-30.273,-41.016,-31.738,-64.941,-198.242
1687767059.498,-32.715,-50.293,-29.297,-70.312,-227.051
1687767059.502,-39.062,-55.664,-21.973,-61.035,-151.367
1687767059.506,-41.992,-51.758,-22.461,-58.105,-41.992
1687767059.510,-35.645,-48.340,-34.668,-58.594,18.066
1687767059.514,-34.668,-42.969,-33.203,-66.895,-16.113
1687767059.517,-52.734,-39.551,-35.645,-62.012,33.203
1687767059.521,-41.504,-44.434,-39.062,-61.035,47.363
1687767059.525,-26.367,-53.711,-27.832,-53.223,-58.105
1687767059.529,-39.551,-52.246,-24.414,-52.734,-49.316
1687767059.533,-37.109,-41.992,-17.578,-47.363,10.742
1687767059.496,-39.551,-46.387,-22.461,-38.574,-47.363
1687767059.500,-35.156,-62.500,-26.855,-44.922,-79.590
1687767059.504,-13.672,-55.176,-23.926,-31.738,-77.148
1687767059.508,1.953,-31.738,-22.949,-19.531,152.344
1687767059.512,-14.160,-27.344,-28.320,-33.691,153.809
1687767059.516,-34.668,-25.391,-36.621,-48.340,-83.496
1687767059.520,-25.879,-16.602,-38.086,-33.203,6.348
1687767059.523,-17.090,-13.672,-42.969,-34.180,36.621
1687767059.527,-13.184,-14.648,-55.176,-38.574,-92.773
1687767059.531,-17.090,-14.648,-62.988,-31.738,-121.094
1687767059.535,-19.531,-12.695,-64.941,-38.574,90.820
1687767059.539,0.000,-9.766,-71.777,-35.156,165.039
1687767059.575,7.812,-14.648,-81.543,-37.109,-84.961
1687767059.579,20.020,-14.160,-83.496,-12.207,-145.996
1687767059.583,6.836,-18.555,-83.984,-13.184,4.395
1687767059.587,-12.207,-28.320,-70.312,-24.414,306.641
1687767059.591,2.930,-18.066,-69.336,-17.090,497.070
1687767059.595,3.906,-10.742,-80.566,-41.992,473.633
1687767059.599,13.184,-7.812,-74.707,-33.691,175.293
1687767059.602,13.672,-8.301,-73.730,-31.738,-71.777
1687767059.606,4.883,0.977,-68.848,-53.711,-148.438
1687767059.610,4.395,-6.836,-68.848,-46.387,-138.184
1687767059.614,24.414,-13.184,-62.012,-25.391,-68.359
1687767059.618,50.781,-9.277,-55.664,-19.043,-86.426
1687767059.667,33.691,-19.043,-69.336,-39.062,-151.367
1687767059.671,40.527,-9.766,-73.242,-30.273,-188.965
1687767059.675,46.875,-3.418,-61.035,2.441,81.543
1687767059.679,22.949,-13.184,-58.594,-7.812,111.328
1687767059.683,31.738,-19.531,-59.082,-10.742,-165.527
1687767059.687,28.320,-13.184,-55.176,2.441,15.625
1687767059.691,11.230,-21.973,-56.152,-11.719,100.098
1687767059.694,0.977,-29.297,-56.152,-7.812,-47.852
1687767059.698,-19.043,-22.949,-62.500,-0.977,-108.398
1687767059.702,-23.926,-23.926,-59.082,-2.441,-59.570
1687767059.706,-20.996,-26.855,-43.457,-1.465,-54.688
1687767059.710,-20.508,-29.297,-36.621,-14.648,-126.953
1687767059.670,-18.555,-27.344,-38.574,-15.625,-220.215
1687767059.674,-17.090,-22.461,-35.156,1.953,-43.945
1687767059.678,2.441,-24.414,-36.621,-5.859,208.984
1687767059.682,-1.953,-27.344,-44.434,-20.996,39.551
1687767059.686,-12.695,-35.645,-41.504,-30.762,-41.504
1687767059.690,1.465,-35.645,-39.062,-24.902,46.387
1687767059.694,1.953,-30.762,-41.016,-19.043,10.742
1687767059.697,0.977,-32.715,-41.504,-15.137,-69.824
1687767059.701,9.766,-28.320,-43.457,-17.090,-139.648
1687767059.705,-1.465,-28.809,-43.457,-18.555,-7.324
1687767059.709,-19.531,-28.809,-32.227,-12.695,18.555
1687767059.713,-6.836,-12.695,-21.484,-18.066,-168.945
1687767059.771,5.371,-17.090,-30.762,-25.879,-83.984
1687767059.775,-13.184,-28.320,-39.551,-39.062,-43.457
1687767059.779,-34.668,-31.738,-41.504,-42.969,-86.914
1687767059.783,-32.715,-36.621,-38.574,-35.156,-146.484
1687767059.787,-35.156,-32.715,-32.227,-27.832,-42.480
1687767059.791,-34.668,-32.227,-33.691,-37.109,132.812
1687767059.795,-26.855,-42.480,-32.227,-45.410,-13.672
1687767059.798,-17.090,-41.992,-25.879,-41.504,-76.172
1687767059.802,-12.695,-27.344,-22.949,-35.645,1.953
1687767059.806,-25.879,-33.203,-36.621,-53.711,34.180
1687767059.810,-23.926,-36.621,-43.457,-62.500,-78.125
1687767059.814,-15.137,-17.090,-26.367,-45.410,-147.949
1687767059.776,-30.273,-17.578,-19.531,-41.992,50.781
1687767059.780,-54.199,-28.809,-24.902,-30.273,395.508
1687767059.784,-41.504,-29.297,-26.367,-28.320,488.281
1687767059.788,-16.113,-29.297,-24.414,-44.434,214.355
1687767059.792,-11.719,-32.227,-14.648,-32.227,32.715
1687767059.796,-30.273,-36.621,-16.602,-35.645,6.836
1687767059.800,-54.688,-38.574,-25.879,-40.527,-49.805
1687767059.803,-50.781,-41.504,-28.320,-43.945,25.391
1687767059.807,-36.621,-42.480,-25.391,-39.551,-20.020
1687767059.811,-30.762,-32.227,-21.973,-32.715,-116.211
1687767059.815,-44.434,-31.250,-24.414,-46.875,-187.012
1687767059.819,-65.430,-36.621,-28.809,-57.129,-184.570
1687767059.783,-53.711,-23.926,-24.414,-42.480,-81.055
1687767059.787,-15.137,-20.508,-26.367,-23.438,-68.359
1687767059.791,-10.742,-33.203,-33.691,-38.574,-74.219
1687767059.795,-39.062,-35.156,-26.367,-59.082,-65.430
1687767059.799,-51.758,-31.250,-20.508,-59.082,148.438
1687767059.803,-58.105,-39.551,-22.949,-59.570,193.359
1687767059.807,-57.129,-44.434,-19.531,-57.129,-40.527
1687767059.810,-47.852,-43.457,-12.207,-56.152,34.668
1687767059.814,-39.551,-41.992,-17.578,-64.941,126.465
1687767059.818,-33.203,-39.062,-23.438,-67.383,-66.895
1687767059.822,-22.461,-38.086,-21.973,-66.895,-51.270
1687767059.826,-28.320,-43.457,-23.926,-61.035,92.285
1687767059.846,-41.504,-46.875,-27.344,-58.594,40.527
1687767059.850,-39.551,-50.781,-25.879,-38.086,-22.949
1687767059.854,-43.457,-43.457,-21.973,-33.203,-84.473
1687767059.858,-58.594,-37.598,-23.438,-39.062,-21.973
1687767059.862,-47.852,-48.340,-27.344,-34.668,377.441
1687767059.866,-40.039,-43.457,-22.949,-26.855,613.770
1687767059.870,-41.504,-37.109,-11.719,-25.879,536.133
1687767059.873,-38.086,-48.828,-15.137,-29.297,141.602
1687767059.877,-48.828,-49.316,-25.391,-36.621,-192.871
1687767059.881,-38.574,-45.410,-18.066,-48.828,-174.805
1687767059.885,-23.438,-52.734,-19.531,-39.062,-151.367
1687767059.889,-22.461,-53.223,-26.855,-41.504,-13.672
1687767059.893,-18.066,-45.410,-24.902,-60.059,80.078
1687767059.897,-14.160,-39.551,-25.391,-59.570,-114.746
1687767059.901,-16.113,-45.898,-27.344,-60.059,-105.469
1687767059.905,-29.785,-44.434,-26.367,-57.129,4.395
1687767059.909,-41.504,-39.551,-26.367,-45.898,-124.512
1687767059.913,-44.922,-39.551,-23.438,-34.668,-51.270
1687767059.917,-41.992,-36.133,-16.602,-28.320,117.676
1687767059.920,-41.016,-37.598,-17.090,-40.527,72.266
1687767059.924,-39.551,-39.062,-20.996,-51.270,-130.859
1687767059.928,-36.133,-37.598,-23.438,-53.223,-195.801
1687767059.932,-49.316,-39.551,-24.414,-50.781,-62.012
1687767059.936,-64.453,-39.551,-26.367,-52.734,197.754
1687767059.936,-56.641,-37.598,-26.367,-49.316,54.199
1687767059.940,-31.250,-42.969,-24.414,-45.410,-188.477
1687767059.944,-21.973,-45.898,-20.020,-56.152,-53.223
1687767059.948,-46.387,-41.016,-20.508,-55.664,9.277
1687767059.952,-61.523,-38.086,-20.996,-59.570,-77.148
1687767059.956,-60.059,-44.434,-15.625,-56.641,-139.648
1687767059.960,-44.434,-53.711,-11.230,-54.688,-25.879
1687767059.963,-40.527,-43.945,-11.230,-58.594,18.555
1687767059.967,-54.688,-43.457,-17.090,-50.293,-67.871
1687767059.971,-63.965,-48.828,-20.020,-31.738,-135.254
1687767059.975,-54.199,-34.180,-22.461,-29.297,55.176
1687767059.979,-42.480,-32.227,-29.297,-31.738,416.992
1687767059.968,-28.809,-36.133,-26.855,-27.832,133.789
1687767059.972,-29.785,-33.691,-20.996,-28.809,-140.137
1687767059.976,-44.434,-34.668,-30.273,-36.133,-40.039
1687767059.980,-61.035,-37.109,-33.203,-46.875,-108.398
1687767059.984,-67.871,-42.480,-24.902,-43.945,-209.961
1687767059.988,-62.988,-47.852,-20.508,-27.344,19.531
1687767059.992,-49.805,-45.898,-18.066,-34.668,141.602
1687767059.995,-57.129,-42.480,-22.949,-60.547,-104.980
1687767059.999,-61.035,-41.016,-30.762,-65.430,-183.594
1687767060.003,-39.551,-42.969,-27.344,-50.293,-15.137
1687767060.007,-39.062,-46.387,-22.949,-35.645,317.383
1687767060.011,-41.504,-42.480,-28.320,-29.785,194.336
1687767060.028,-45.898,-38.574,-39.551,-46.875,-69.824
1687767060.032,-42.969,-36.621,-39.062,-48.340,47.363
1687767060.036,-40.039,-36.621,-28.809,-42.969,-0.488
1687767060.040,-42.969,-41.016,-21.484,-46.387,-154.785
1687767060.044,-48.340,-39.551,-24.902,-51.758,-98.633
1687767060.048,-63.965,-41.016,-29.297,-53.223,177.246
1687767060.052,-72.754,-41.992,-25.391,-47.852,326.660
1687767060.055,-56.641,-40.039,-23.926,-42.480,3.906
1687767060.059,-38.086,-45.410,-32.227,-41.992,-123.535
1687767060.063,-30.762,-51.758,-30.273,-34.180,66.895
1687767060.067,-39.062,-43.945,-26.367,-32.227,69.824
1687767060.071,-41.016,-25.879,-25.391,-43.457,-130.859
1687767060.100,-49.316,-31.738,-26.855,-39.551,-119.141
1687767060.104,-41.016,-41.504,-31.250,-30.273,-52.734
1687767060.108,-19.043,-36.133,-27.344,-24.902,-113.281
1687767060.112,-42.480,-27.344,-32.227,-25.879,-159.668
1687767060.116,-52.734,-33.203,-37.109,-32.715,-55.664
1687767060.120,-30.762,-41.504,-34.180,-34.180,116.211
1687767060.124,-31.250,-38.086,-30.273,-41.504,106.934
1687767060.127,-30.762,-35.645,-29.785,-44.434,-49.316
1687767060.131,-22.949,-32.715,-28.320,-38.086,-8.301
1687767060.135,-34.180,-26.367,-27.344,-28.320,374.512
1687767060.139,-47.363,-20.996,-34.180,-39.062,301.270
1687767060.143,-47.852,-27.344,-39.551,-50.781,-91.309
1687767060.160,-49.316,-28.809,-32.715,-34.180,-63.477
1687767060.164,-50.293,-33.203,-30.762,-42.480,-28.809
1687767060.168,-50.781,-29.785,-33.691,-53.223,-164.551
1687767060.172,-41.992,-26.367,-31.738,-39.551,-152.344
1687767060.176,-27.832,-30.762,-27.832,-33.203,-32.715
1687767060.180,-27.832,-32.715,-30.273,-33.203,23.438
1687767060.184,-34.668,-30.273,-36.621,-23.926,-28.320
1687767060.187,-36.621,-20.020,-30.762,-36.133,-32.227
1687767060.191,-35.156,-21.484,-26.367,-48.340,43.457
1687767060.195,-39.551,-34.180,-34.180,-39.062,35.156
1687767060.199,-42.480,-33.203,-38.574,-39.062,-39.551
1687767060.203,-44.434,-28.809,-38.574,-40.527,-26.855
1687767060.205,-50.293,-31.738,-41.504,-38.574,62.500
1687767060.209,-57.617,-30.762,-41.504,-32.227,-10.254
1687767060.213,-49.805,-34.180,-31.250,-21.973,-55.664
1687767060.217,-43.457,-32.227,-30.762,-36.133,-32.715
1687767060.221,-48.340,-27.832,-38.574,-49.805,183.594
1687767060.225,-52.246,-33.203,-41.992,-43.457,216.309
1687767060.229,-43.945,-33.691,-37.598,-50.781,3.418
1687767060.232,-28.809,-27.832,-40.039,-57.617,106.934
1687767060.236,-18.066,-24.414,-40.039,-47.363,110.352
1687767060.240,-22.461,-19.043,-27.344,-40.039,-97.656
1687767060.244,-33.203,-18.555,-23.926,-42.480,-201.172
1687767060.248,-35.156,-23.438,-27.832,-35.156,4.883
1687767060.210,-30.762,-20.020,-33.203,-20.996,182.617
1687767060.214,-23.926,-24.414,-40.527,-40.039,-37.109
1687767060.218,-24.414,-38.574,-37.598,-47.363,-100.586
1687767060.222,-29.785,-31.738,-24.902,-29.785,0.488
1687767060.226,-25.391,-12.695,-25.391,-22.461,-32.715
1687767060.230,-41.016,-18.066,-38.086,-39.551,-71.289
1687767060.234,-62.500,-35.645,-45.410,-59.082,-45.898
1687767060.237,-67.383,-38.086,-43.457,-59.570,99.609
1687767060.241,-60.059,-30.273,-36.133,-42.969,381.836
1687767060.245,-54.688,-29.297,-35.645,-48.340,158.691
1687767060.249,-55.664,-33.691,-37.598,-54.199,-183.594
1687767060.253,-41.016,-36.133,-34.668,-52.734,-132.812
1687767060.252,-28.809,-37.109,-39.062,-32.715,-145.020
1687767060.256,-33.691,-31.250,-37.109,-25.879,-155.762
1687767060.260,-41.016,-33.691,-25.391,-21.484,-78.613
1687767060.264,-44.434,-51.270,-27.832,-14.648,20.996
1687767060.268,-43.457,-66.406,-30.762,-36.133,-16.113
1687767060.272,-29.785,-66.406,-29.785,-44.434,-67.383
1687767060.276,-36.133,-65.430,-38.086,-50.293,-20.996
1687767060.279,-39.062,-65.430,-39.062,-27.344,235.840
1687767060.283,-45.410,-70.312,-42.969,-10.254,318.359
1687767060.287,-43.945,-67.871,-48.828,-36.621,24.902
1687767060.291,-34.180,-58.105,-43.945,-53.711,-75.195
1687767060.295,-24.414,-57.617,-45.410,-45.410,-52.734
1687767060.296,-17.578,-58.105,-40.527,-51.270,-101.562
1687767060.300,-29.785,-56.152,-34.668,-58.594,-144.531
1687767060.304,-13.672,-47.852,-33.203,-40.527,-70.801
1687767060.308,-27.832,-47.363,-33.203,-45.410,1.953
1687767060.312,-52.246,-52.246,-35.156,-57.129,-73.730
1687767060.316,-40.039,-44.434,-25.879,-36.621,-32.227
1687767060.320,-36.621,-44.434,-19.043,-30.762,176.270
1687767060.323,-39.551,-54.199,-29.785,-32.715,429.688
1687767060.327,-34.180,-44.434,-26.855,-26.367,163.086
1687767060.331,-24.902,-42.480,-19.043,-30.762,-163.574
1687767060.335,-36.621,-47.852,-27.832,-35.156,-83.984
1687767060.339,-37.109,-46.387,-33.203,-29.297,-50.781
1687767060.342,-30.273,-42.480,-27.344,-30.273,-85.938
1687767060.346,-29.297,-36.621,-22.949,-31.738,-60.547
1687767060.350,-33.691,-38.086,-21.484,-32.715,-34.668
1687767060.354,-45.898,-48.340,-25.391,-41.504,-141.602
1687767060.358,-41.992,-52.246,-28.809,-39.062,-152.344
1687767060.362,-43.457,-48.828,-33.203,-41.016,-48.340
1687767060.366,-46.875,-42.969,-35.645,-45.410,218.750
1687767060.369,-33.203,-38.574,-33.691,-30.273,106.445
1687767060.373,-38.574,-32.227,-26.855,-31.250,-209.961
1687767060.377,-45.898,-28.320,-25.879,-39.062,-69.824
1687767060.381,-28.809,-31.738,-27.832,-38.086,10.742
1687767060.385,-35.645,-38.574,-36.133,-49.805,-105.469
1687767060.393,-37.598,-38.574,-35.645,-53.223,-143.555
1687767060.397,-21.973,-38.574,-32.227,-47.852,28.320
1687767060.401,-37.598,-48.340,-39.062,-55.664,62.500
1687767060.405,-34.180,-48.340,-36.621,-67.871,-199.219
1687767060.409,-23.926,-43.457,-34.180,-60.547,-150.391
1687767060.413,-40.527,-48.828,-36.133,-52.246,164.551
1687767060.417,-50.293,-34.668,-30.273,-40.527,262.207
1687767060.420,-63.965,-22.461,-25.879,-34.668,-27.344
1687767060.424,-60.547,-33.203,-38.086,-41.016,-139.160
1687767060.428,-38.574,-39.062,-42.480,-37.598,-42.480
1687767060.432,-41.992,-40.039,-41.016,-22.461,-39.062
1687767060.436,-52.246,-43.945,-41.504,-32.715,-60.059
1687767060.475,-52.734,-37.598,-39.062,-42.480,-14.648
1687767060.479,-51.270,-32.715,-27.832,-22.949,0.000
1687767060.483,-40.527,-41.016,-26.367,-19.043,-66.406
1687767060.487,-31.738,-35.156,-35.156,-23.926,-165.527
1687767060.491,-30.762,-26.855,-31.738,-24.902,-89.355
1687767060.495,-29.785,-26.367,-28.320,-19.043,357.422
1687767060.499,-38.574,-30.273,-36.133,-21.973,375.488
1687767060.502,-29.785,-23.438,-31.738,-27.344,-54.199
1687767060.506,-20.508,-16.113,-25.391,-27.344,2.930
1687767060.510,-34.180,-30.273,-36.133,-40.039,57.617
1687767060.514,-42.480,-38.574,-42.480,-41.016,-113.770
1687767060.518,-29.785,-37.598,-40.039,-41.992,-95.703
1687767060.479,-14.648,-29.297,-46.387,-52.734,0.000
1687767060.483,-30.273,-30.273,-45.898,-40.039,72.266
1687767060.487,-45.410,-36.133,-35.645,-32.227,25.879
1687767060.491,-46.387,-34.668,-35.645,-41.992,-101.074
1687767060.495,-43.457,-38.574,-37.598,-48.828,132.812
1687767060.499,-41.504,-39.551,-41.992,-49.805,382.324
1687767060.503,-44.434,-39.062,-46.875,-67.383,72.754
1687767060.506,-34.180,-48.340,-42.480,-73.242,-13.672
1687767060.510,-41.016,-47.363,-39.551,-83.984,13.184
1687767060.514,-49.316,-34.180,-42.480,-89.355,-89.355
1687767060.518,-53.711,-34.180,-41.992,-72.754,-111.328
1687767060.522,-50.781,-43.945,-35.156,-50.293,-101.074
1687767060.567,-35.645,-49.316,-38.086,-50.781,-44.434
1687767060.571,-38.086,-47.852,-38.574,-65.918,-63.477
1687767060.575,-49.316,-41.504,-28.809,-62.988,-119.629
1687767060.579,-55.664,-41.016,-30.273,-53.223,-95.215
1687767060.583,-50.293,-42.969,-33.203,-41.992,235.352
1687767060.587,-47.852,-49.316,-37.598,-29.297,311.523
1687767060.591,-49.805,-42.480,-36.133,-24.414,-32.715
1687767060.594,-48.828,-31.250,-26.367,-35.156,17.578
1687767060.598,-58.105,-39.551,-33.691,-53.223,60.059
1687767060.602,-59.570,-39.062,-38.086,-59.082,-63.477
1687767060.606,-46.387,-31.250,-32.715,-50.293,-125.977
1687767060.610,-50.293,-38.574,-32.227,-51.270,26.855
1687767060.580,-67.871,-52.734,-26.855,-50.781,170.410
1687767060.584,-69.336,-48.828,-22.461,-48.340,-105.957
1687767060.588,-55.664,-37.109,-29.785,-47.363,-170.410
1687767060.592,-40.527,-40.527,-34.180,-54.688,-48.340
1687767060.596,-47.852,-41.016,-35.645,-57.617,-24.414
1687767060.600,-33.203,-35.645,-34.668,-47.363,-1.465
1687767060.604,-20.996,-36.133,-26.855,-40.527,73.242
1687767060.607,-41.504,-39.062,-25.879,-33.691,126.465
1687767060.611,-45.898,-35.645,-31.738,-36.133,19.043
1687767060.615,-41.504,-30.273,-28.809,-40.527,-119.141
1687767060.619,-52.734,-37.598,-27.344,-39.062,-150.879
1687767060.623,-69.336,-37.598,-27.832,-39.551,-13.184
1687767060.659,-61.035,-31.250,-27.344,-23.438,43.457
1687767060.663,-46.875,-27.832,-28.320,-32.715,-69.336
1687767060.667,-58.594,-26.367,-31.250,-45.410,-92.285
1687767060.671,-60.547,-31.738,-29.297,-20.508,163.574
1687767060.675,-37.598,-29.785,-16.113,-9.277,374.512
1687767060.679,-45.898,-39.062,-21.484,-24.902,150.879
1687767060.683,-51.758,-50.781,-34.180,-33.691,98.633
1687767060.686,-48.340,-49.316,-37.109,-21.973,245.117
1687767060.690,-48.828,-44.434,-34.668,-25.391,34.668
1687767060.694,-37.598,-41.504,-27.344,-22.949,-133.301
1687767060.698,-35.645,-45.898,-30.273,-28.809,-17.090
1687767060.702,-29.785,-43.945,-26.855,-41.016,41.016
1687767060.685,-20.508,-33.691,-14.160,-40.527,-123.535
1687767060.689,-35.156,-38.574,-22.949,-49.316,-174.316
1687767060.693,-43.945,-43.457,-38.086,-49.805,-39.551
1687767060.697,-40.527,-44.922,-37.598,-45.410,-50.781
1687767060.701,-42.480,-48.340,-35.156,-51.758,-83.984
1687767060.705,-31.738,-48.340,-33.203,-46.387,40.039
1687767060.709,-30.762,-48.340,-34.180,-39.551,98.145
1687767060.712,-49.805,-54.199,-44.922,-56.152,24.414
1687767060.716,-44.922,-49.805,-48.340,-49.316,-99.121
1687767060.720,-35.156,-43.457,-43.945,-46.875,-103.027
1687767060.724,-20.020,-43.945,-44.922,-58.105,-34.668
1687767060.728,-18.555,-43.945,-46.387,-46.875,-33.203
1687767060.747,-27.344,-35.645,-42.969,-36.133,-96.680
1687767060.751,-28.809,-36.621,-41.016,-41.992,-149.902
1687767060.755,-34.180,-46.387,-41.504,-45.898,100.098
1687767060.759,-46.875,-46.387,-37.598,-36.621,411.621
1687767060.763,-50.293,-46.387,-34.180,-48.340,181.152
1687767060.767,-49.316,-48.828,-33.203,-58.105,25.879
1687767060.771,-33.203,-46.387,-27.832,-40.527,97.656
1687767060.774,-26.367,-41.504,-24.902,-40.527,-82.031
1687767060.778,-57.617,-50.781,-36.133,-48.828,-160.156
1687767060.782,-61.035,-58.594,-44.434,-49.316,-25.391
1687767060.786,-47.363,-58.105,-37.109,-38.574,172.363
1687767060.790,-52.246,-61.035,-33.203,-35.156,-58.594
1687767060.790,-55.664,-55.176,-35.645,-30.273,-180.176
1687767060.794,-51.758,-47.363,-36.133,-30.762,-28.809
1687767060.798,-50.293,-42.969,-35.156,-42.480,-89.355
1687767060.802,-63.965,-52.734,-38.086,-46.875,-127.441
1687767060.806,-77.637,-54.199,-35.645,-45.410,15.625
1687767060.810,-55.176,-52.246,-38.086,-45.898,80.566
1687767060.814,-35.156,-50.781,-46.387,-43.945,46.875
1687767060.817,-31.250,-37.109,-41.016,-43.457,-123.535
1687767060.821,-40.527,-38.574,-42.480,-44.434,-194.824
1687767060.825,-47.363,-45.410,-46.387,-41.504,-77.148
1687767060.829,-24.902,-43.945,-42.480,-27.832,-162.598
1687767060.833,-12.695,-41.016,-31.738,-20.508,-205.566
1687767060.851,-22.949,-41.504,-35.645,-27.832,-179.199
1687767060.855,-41.504,-45.898,-46.875,-28.320,86.914
1687767060.859,-41.016,-42.480,-38.086,-25.879,317.871
1687767060.863,-30.762,-43.945,-28.320,-37.109,-31.250
1687767060.867,-35.156,-43.945,-27.344,-46.875,-129.395
1687767060.871,-37.598,-42.969,-30.762,-37.598,-0.977
1687767060.875,-42.480,-44.922,-36.621,-45.410,-32.715
1687767060.878,-41.504,-43.457,-39.551,-54.199,-120.605
1687767060.882,-31.250,-48.340,-40.039,-28.320,-53.223
1687767060.886,-28.320,-50.293,-42.969,-31.250,-20.020
1687767060.890,-34.668,-43.457,-42.969,-46.387,-117.676
1687767060.894,-47.363,-41.016,-44.922,-47.363,-156.250
1687767060.857,-48.828,-40.527,-38.086,-42.969,-85.449
1687767060.861,-22.461,-38.574,-25.391,-20.508,201.172
1687767060.865,-20.508,-41.504,-35.645,-32.227,-20.996
1687767060.869,-29.785,-49.316,-43.457,-49.316,-188.477
1687767060.873,-32.715,-52.246,-46.387,-38.574,0.488
1687767060.877,-31.250,-37.598,-37.598,-47.852,55.176
1687767060.881,-4.395,-34.180,-31.738,-50.293,29.785
1687767060.884,9.766,-44.922,-45.410,-41.016,22.949
1687767060.888,5.859,-43.457,-48.340,-30.273,33.203
1687767060.892,1.953,-41.016,-40.039,-25.391,0.977
1687767060.896,-15.137,-36.133,-39.551,-22.949,-103.516
1687767060.900,-23.438,-31.250,-42.480,-30.273,-72.266
1687767060.955,-7.812,-35.645,-37.109,-19.043,27.832
1687767060.959,-17.578,-31.250,-43.945,-9.277,-12.695
1687767060.963,-37.109,-32.227,-52.734,-38.086,-35.645
1687767060.967,-23.926,-36.621,-49.316,-50.293,-62.500
1687767060.971,-10.742,-42.480,-43.945,-54.199,191.406
1687767060.975,0.488,-45.898,-42.480,-41.992,522.461
1687767060.979,-17.578,-37.109,-42.480,-32.227,215.332
1687767060.982,-56.152,-31.250,-41.504,-44.922,-53.711
1687767060.986,-56.152,-34.668,-45.410,-35.645,49.316
1687767060.990,-40.527,-39.062,-41.504,-10.742,-39.062
1687767060.994,-41.504,-42.480,-41.992,-16.113,-166.504
1687767060.998,-42.480,-45.410,-46.875,-16.113,-19.043
1687767060.960,-49.316,-50.293,-41.016,-9.766,68.359
1687767060.964,-51.758,-41.992,-39.062,-22.461,-70.312
1687767060.968,-30.273,-35.645,-35.156,-23.438,-99.609
1687767060.972,-24.902,-45.410,-28.320,-0.488,-84.473
1687767060.976,-11.719,-38.086,-27.832,12.695,-29.297
1687767060.980,2.930,-32.227,-29.785,5.859,56.641
1687767060.984,-27.832,-37.598,-37.109,-13.672,98.633
1687767060.987,-44.922,-33.203,-37.109,-25.879,168.457
1687767060.991,-28.809,-36.133,-33.203,-19.043,110.352
1687767060.995,-5.371,-35.156,-33.203,-4.883,-64.941
1687767060.999,-2.930,-32.227,-32.715,-6.836,-4.883
1687767061.003,-21.484,-48.828,-35.645,-18.555,79.102
1687767061.003,-28.320,-56.152,-41.016,-16.602,-63.965
1687767061.007,-15.625,-43.945,-41.992,-22.461,-108.887
1687767061.011,0.977,-33.203,-32.715,-16.113,-46.387
1687767061.015,-19.531,-41.992,-35.645,-5.859,-41.504
1687767061.019,-36.133,-47.852,-32.715,-12.207,-133.789
1687767061.023,-36.621,-42.969,-20.996,-14.160,-85.938
1687767061.027,-32.715,-40.527,-20.508,-13.184,72.266
1687767061.030,-28.320,-38.574,-21.484,-4.883,247.559
1687767061.034,-16.113,-37.598,-21.973,9.277,423.340
1687767061.038,-27.832,-39.551,-33.203,-11.230,171.387
1687767061.042,-43.457,-47.363,-36.133,-30.762,-50.781
1687767061.046,-33.691,-42.480,-30.273,-20.020,-16.113
1687767061.046,-44.922,-36.133,-37.598,-13.672,-88.867
1687767061.050,-40.039,-41.016,-40.527,-27.832,-77.637
1687767061.054,-39.062,-41.992,-38.574,-21.484,36.133
1687767061.058,-50.781,-41.016,-36.621,-22.949,29.785
1687767061.062,-50.293,-44.922,-35.156,-30.273,0.488
1687767061.066,-38.574,-50.293,-34.668,-22.949,25.879
1687767061.070,-22.461,-48.340,-36.133,-24.414,183.594
1687767061.073,-32.227,-37.598,-35.645,-15.625,500.000
1687767061.077,-39.062,-31.738,-28.320,-11.230,126.465
1687767061.081,-23.438,-34.180,-28.809,-21.484,-208.984
1687767061.085,-19.043,-37.109,-39.551,-14.160,-69.824
1687767061.089,-14.648,-41.992,-47.363,-20.020,-70.312
1687767061.150,-11.230,-39.062,-41.504,-24.414,-164.551
1687767061.154,-13.672,-34.668,-31.250,-15.137,-134.277
1687767061.158,-15.625,-42.480,-37.598,-23.438,-3.418
1687767061.162,-28.320,-62.012,-41.504,-36.133,-19.043
1687767061.166,-38.086,-63.477,-34.668,-48.828,-74.707
1687767061.170,-46.387,-62.012,-35.156,-52.734,7.812
1687767061.174,-61.523,-67.383,-42.969,-51.758,230.469
1687767061.177,-62.988,-71.289,-41.992,-37.109,128.906
1687767061.181,-60.547,-78.125,-39.551,-26.367,-142.578
1687767061.185,-57.617,-78.613,-40.039,-44.434,-33.691
1687767061.189,-34.668,-79.102,-39.062,-44.922,-27.832
1687767061.193,-30.762,-71.777,-37.598,-40.039,-161.133
1687767061.213,-23.438,-62.988,-40.527,-38.086,-137.695
1687767061.217,-15.625,-63.965,-41.016,-20.020,-12.207
1687767061.221,-38.574,-59.570,-33.691,-20.996,-10.254
1687767061.225,-58.105,-65.430,-38.574,-40.039,-125.000
1687767061.229,-47.363,-70.312,-49.805,-36.133,-131.348
1687767061.233,-41.016,-67.383,-50.781,-39.062,69.824
1687767061.237,-30.762,-65.918,-59.570,-49.316,162.109
1687767061.240,3.418,-53.223,-67.871,-26.367,-15.137
1687767061.244,-9.277,-60.547,-54.199,-19.043,-55.176
1687767061.248,-54.199,-80.566,-29.297,-30.762,-5.859
1687767061.252,-77.148,-80.566,-16.602,-52.246,-65.918
1687767061.256,-84.961,-79.102,-10.742,-65.918,-108.398
1687767061.219,-84.473,-84.473,-0.977,-66.895,-72.266
1687767061.223,-95.703,-90.820,-1.953,-88.379,-20.996
1687767061.227,-120.117,-102.051,-8.301,-109.863,-26.855
1687767061.231,-135.254,-108.887,-6.348,-117.676,-104.004
1687767061.235,-144.531,-102.539,-3.906,-131.836,-16.602
1687767061.239,-149.414,-102.051,-5.371,-129.883,180.664
1687767061.243,-154.297,-105.957,-2.930,-130.859,57.129
1687767061.246,-152.832,-103.516,3.418,-135.742,-89.844
1687767061.250,-166.992,-109.375,0.000,-139.160,17.090
1687767061.254,-184.082,-110.840,-1.953,-138.184,254.883
1687767061.258,-168.457,-104.980,4.883,-128.906,112.305
1687767061.262,-140.625,-101.074,3.418,-112.305,-158.203
1687767061.241,-139.160,-98.145,-1.953,-95.703,25.391
1687767061.245,-149.414,-91.797,-0.977,-93.262,118.164
1687767061.249,-145.996,-89.844,-6.836,-79.590,-62.500
1687767061.253,-140.625,-84.473,-13.672,-58.105,-103.516
1687767061.257,-126.465,-76.660,-9.766,-52.246,49.316
1687767061.261,-120.117,-79.102,-12.695,-59.082,172.852
1687767061.265,-108.887,-80.566,-19.531,-69.824,9.277
1687767061.268,-92.285,-84.961,-25.879,-71.289,-30.762
1687767061.272,-83.984,-79.590,-25.879,-71.289,-3.906
1687767061.276,-81.055,-71.777,-17.090,-72.754,-40.527
1687767061.280,-73.242,-73.730,-15.625,-68.359,-13.672
1687767061.284,-70.312,-68.359,-20.508,-72.754,-37.598
1687767061.296,-63.965,-65.430,-24.902,-57.617,121.094
1687767061.300,-47.363,-66.895,-27.832,-44.922,406.738
1687767061.304,-43.457,-62.988,-22.949,-53.711,429.199
1687767061.308,-44.434,-59.570,-18.066,-43.945,277.832
1687767061.312,-45.898,-56.152,-28.320,-68.848,-59.082
1687767061.316,-47.852,-55.176,-31.250,-76.660,-109.375
1687767061.320,-56.641,-61.035,-28.320,-60.059,-70.312
1687767061.323,-62.988,-65.918,-34.180,-69.824,-29.785
1687767061.327,-42.969,-72.266,-39.062,-73.242,110.352
1687767061.331,-40.039,-67.871,-37.109,-56.641,-58.594
1687767061.335,-45.898,-64.453,-40.527,-60.547,-185.059
1687767061.339,-78.125,-62.988,-38.574,-65.430,-156.250
1687767061.331,-105.469,-49.805,-38.086,-38.086,-90.820
1687767061.335,-81.055,-46.875,-33.691,-38.574,-44.922
1687767061.339,-79.590,-55.176,-26.367,-48.828,-164.551
1687767061.343,-85.938,-52.246,-24.414,-45.410,-53.223
1687767061.347,-58.594,-46.875,-21.484,-44.922,30.762
1687767061.351,-35.156,-55.176,-30.273,-33.203,-36.621
1687767061.355,-31.250,-59.570,-35.156,-26.367,-43.457
1687767061.358,-40.039,-59.082,-43.945,-37.109,74.707
1687767061.362,-31.738,-48.340,-44.434,-38.086,224.121
1687767061.366,-20.508,-44.434,-30.273,-31.738,-15.137
1687767061.370,-41.016,-55.176,-35.645,-22.949,-111.328
1687767061.374,-51.270,-50.293,-50.293,-36.621,-74.707
1687767061.377,-41.504,-46.387,-56.641,-51.758,-117.676
1687767061.381,-39.551,-46.387,-44.434,-47.363,-181.641
1687767061.385,-33.691,-48.340,-35.156,-40.527,-120.117
1687767061.389,-12.695,-52.734,-40.527,-43.457,22.949
1687767061.393,-13.184,-51.758,-36.133,-29.785,-84.961
1687767061.397,-22.949,-53.223,-36.133,-28.809,-45.898
1687767061.401,-23.926,-52.734,-36.133,-28.809,113.281
1687767061.404,-30.762,-49.316,-27.832,-10.742,281.738
1687767061.408,-24.902,-39.551,-29.785,-23.438,109.375
1687767061.412,-20.996,-31.738,-32.715,-30.273,-164.551
1687767061.416,-28.320,-32.715,-27.832,-30.273,-37.598
1687767061.420,-18.066,-29.297,-26.855,-20.020,17.578
1687767061.419,-28.320,-34.668,-33.203,-17.090,-72.754
1687767061.423,-36.621,-49.805,-45.898,-42.480,-57.617
1687767061.427,-50.781,-61.523,-48.828,-55.664,-13.184
1687767061.431,-73.730,-65.430,-39.551,-46.387,-54.688
1687767061.435,-53.711,-58.105,-35.156,-46.875,-40.039
1687767061.439,-44.922,-62.988,-41.016,-63.477,-14.648
1687767061.443,-21.484,-60.059,-38.574,-60.059,202.637
1687767061.446,-37.109,-37.598,-39.551,-47.852,420.410
1687767061.450,-69.336,-34.668,-46.387,-58.594,209.473
1687767061.454,-59.570,-43.945,-42.969,-61.523,51.758
1687767061.458,-26.855,-29.785,-34.668,-20.020,32.227
1687767061.462,-9.277,-27.344,-33.203,-22.949,25.391
1687767061.466,-26.367,-54.199,-45.898,-42.969,-83.008
1687767061.470,-46.387,-61.035,-50.293,-44.922,-84.473
1687767061.474,-56.152,-63.965,-48.828,-40.039,-39.062
1687767061.478,-56.152,-62.012,-50.781,-26.855,-50.293
1687767061.482,-39.062,-43.457,-43.457,-23.438,-150.391
1687767061.486,-17.090,-37.109,-34.180,-17.578,-60.547
1687767061.490,-11.719,-43.457,-35.156,-23.926,191.895
1687767061.493,-20.020,-47.852,-36.133,-24.414,97.656
1687767061.497,-19.531,-41.992,-34.180,-20.508,-97.168
1687767061.501,-16.113,-45.898,-38.086,-18.066,-53.711
1687767061.505,2.930,-46.875,-38.086,-21.973,85.449
1687767061.509,-3.418,-42.969,-37.598,-22.949,-78.125
1687767061.540,-43.457,-52.246,-46.387,-32.715,-118.652
1687767061.544,-46.875,-56.641,-41.992,-41.016,-35.645
1687767061.548,-29.785,-59.570,-36.133,-44.434,-47.852
1687767061.552,-30.762,-51.270,-34.668,-48.828,-51.758
1687767061.556,-46.875,-45.898,-38.574,-50.781,-83.984
1687767061.560,-70.801,-43.945,-48.340,-45.898,156.250
1687767061.564,-78.125,-39.062,-51.758,-30.762,303.223
1687767061.567,-75.195,-43.457,-50.781,-42.969,-56.641
1687767061.571,-61.035,-42.480,-41.016,-38.574,-173.828
1687767061.575,-47.363,-35.156,-31.738,-23.926,19.531
1687767061.579,-50.293,-37.109,-33.203,-36.621,52.246
1687767061.583,-49.316,-48.828,-36.621,-47.852,-100.098
1687767061.572,-47.852,-49.805,-35.156,-37.109,-113.770
1687767061.576,-56.641,-39.062,-30.762,-32.227,-71.777
1687767061.580,-56.152,-42.480,-37.109,-37.109,-52.246
1687767061.584,-40.527,-40.527,-37.109,-41.504,-163.086
1687767061.588,-27.344,-26.855,-36.133,-52.246,-168.945
1687767061.592,-29.297,-28.809,-49.316,-58.105,54.199
1687767061.596,-33.203,-41.992,-49.805,-59.570,107.910
1687767061.599,-23.438,-46.875,-41.504,-55.664,-67.383
1687767061.603,-33.691,-45.410,-37.109,-54.688,-43.945
1687767061.607,-48.340,-41.992,-31.250,-49.316,-4.395
1687767061.611,-36.133,-37.109,-31.250,-35.645,-87.402
1687767061.615,-34.180,-42.480,-41.504,-52.246,-123.535
1687767061.616,-45.898,-42.969,-42.969,-71.289,30.273
1687767061.620,-63.477,-36.133,-40.527,-60.547,281.250
1687767061.624,-74.707,-30.762,-41.016,-68.359,39.551
1687767061.628,-90.820,-31.250,-37.109,-79.102,-182.617
1687767061.632,-102.539,-32.715,-40.039,-79.590,-13.184
1687767061.636,-83.984,-32.227,-47.363,-80.078,167.969
1687767061.640,-78.613,-28.320,-48.828,-76.660,104.004
1687767061.643,-83.496,-25.879,-45.898,-78.125,-32.715
1687767061.647,-86.426,-26.855,-36.133,-75.195,116.699
1687767061.651,-85.938,-32.227,-27.832,-65.918,173.828
1687767061.655,-72.754,-29.297,-23.438,-68.359,-122.559
1687767061.659,-81.055,-32.227,-28.809,-92.285,-102.051
1687767061.680,-89.844,-41.504,-46.387,-93.262,145.508
1687767061.684,-81.543,-37.109,-41.992,-85.449,92.773
1687767061.688,-96.680,-35.156,-30.273,-101.562,-127.441
1687767061.692,-105.957,-31.738,-21.484,-114.746,-43.945
1687767061.696,-99.609,-24.902,-20.020,-124.023,91.797
1687767061.700,-115.723,-22.949,-26.367,-134.766,46.387
1687767061.704,-116.699,-20.508,-23.438,-138.672,-49.316
1687767061.707,-110.352,-17.090,-30.273,-126.465,-19.531
1687767061.711,-123.047,-19.531,-35.156,-125.000,139.160
1687767061.715,-161.133,-26.855,-34.180,-151.855,20.996
1687767061.719,-183.105,-22.949,-36.133,-180.664,-129.395
1687767061.723,-183.594,-22.949,-41.504,-189.941,-88.867
1687767061.706,-176.758,-32.227,-38.574,-173.340,-62.988
1687767061.710,-155.762,-29.297,-34.180,-166.504,-56.641
1687767061.714,-168.945,-18.555,-40.039,-166.504,-114.746
1687767061.718,-183.594,-15.625,-44.922,-180.664,-117.188
1687767061.722,-181.152,-19.531,-49.316,-183.105,-54.688
1687767061.726,-168.945,-18.555,-46.875,-157.715,-98.633
1687767061.730,-148.438,-20.508,-33.203,-149.902,-63.477
1687767061.733,-151.367,-20.020,-28.320,-149.414,112.793
1687767061.737,-161.621,-21.973,-43.457,-159.180,19.043
1687767061.741,-137.695,-30.762,-45.898,-139.648,-82.520
1687767061.745,-109.375,-33.203,-40.527,-120.605,-54.199
1687767061.749,-108.887,-40.527,-47.852,-121.582,139.648
1687767061.752,-123.047,-45.410,-50.293,-104.004,400.391
1687767061.756,-100.098,-30.273,-30.273,-73.242,142.578
1687767061.760,-62.012,-8.789,-15.625,-39.062,-59.570
1687767061.764,-52.734,-13.672,-30.762,-41.992,-58.594
1687767061.768,-46.387,-28.809,-46.875,-58.594,-129.883
1687767061.772,-68.848,-46.875,-58.105,-68.848,-27.344
1687767061.776,-77.637,-49.805,-62.500,-69.824,36.133
1687767061.779,-50.781,-39.062,-50.781,-44.922,216.309
1687767061.783,-20.996,-31.250,-21.973,-9.277,191.406
1687767061.787,1.465,-34.180,-22.949,1.953,-124.512
1687767061.791,-1.465,-41.016,-54.199,-17.090,-115.723
1687767061.795,-18.555,-39.551,-55.176,-33.203,-74.707
1687767061.795,-32.715,-47.852,-45.410,-29.297,-145.508
1687767061.799,-14.160,-58.594,-38.574,-19.531,-184.570
1687767061.803,15.625,-55.664,-36.133,-5.859,-113.770
1687767061.807,24.414,-54.199,-44.434,-7.324,-118.652
1687767061.811,22.949,-55.664,-44.434,-10.254,-80.566
1687767061.815,0.977,-54.199,-41.504,-7.812,-113.770
1687767061.819,-18.066,-60.059,-42.969,1.465,115.234
1687767061.822,-22.949,-78.125,-41.992,13.672,379.395
1687767061.826,-25.391,-94.238,-42.480,10.742,49.805
1687767061.830,-11.230,-94.727,-38.574,11.719,-65.430
1687767061.834,0.000,-91.309,-29.785,23.926,-41.992
1687767061.838,6.836,-89.844,-39.062,20.508,-123.047
1687767061.841,-0.488,-77.148,-34.180,9.766,-137.695
1687767061.845,-9.277,-74.219,-23.438,6.836,-108.398
1687767061.849,-13.672,-78.613,-29.785,-6.836,24.414
1687767061.853,-25.391,-72.754,-28.320,-12.207,-62.988
1687767061.857,-14.160,-72.754,-27.344,-23.438,-201.660
1687767061.861,-3.906,-75.195,-28.809,-13.184,-59.082
1687767061.865,-1.465,-70.801,-28.320,-8.789,139.160
1687767061.868,-8.789,-71.289,-26.855,-19.043,22.949
1687767061.872,-7.812,-69.824,-33.203,-4.395,-170.410
1687767061.876,-7.812,-73.730,-38.574,-5.371,-54.199
1687767061.880,14.160,-77.148,-30.762,0.488,9.766
1687767061.884,15.625,-71.777,-35.645,4.395,-49.316
1687767061.886,-5.371,-75.195,-45.898,-9.766,-30.762
1687767061.890,-3.418,-67.383,-40.039,-18.555,45.898
1687767061.894,0.000,-55.664,-40.039,-11.719,81.055
1687767061.898,0.488,-62.500,-46.387,-7.324,1.465
1687767061.902,1.465,-65.918,-41.016,-12.207,15.625
1687767061.906,2.930,-61.035,-35.156,-15.625,199.707
1687767061.910,-23.438,-58.594,-35.156,-15.625,309.570
1687767061.913,-32.227,-55.664,-35.645,-11.230,40.527
1687767061.917,1.465,-51.270,-15.625,1.953,-85.449
1687767061.921,0.488,-46.875,-18.066,-4.883,44.434
1687767061.925,-39.062,-61.523,-39.062,-18.555,25.391
1687767061.929,-42.480,-65.430,-44.922,-35.156,-122.559
1687767061.948,-27.832,-56.641,-39.062,-25.879,-87.402
1687767061.952,-26.367,-60.059,-33.691,-21.484,19.531
1687767061.956,-9.766,-56.641,-34.668,-17.578,40.039
1687767061.960,2.441,-53.711,-33.691,-4.395,-63.965
1687767061.964,-6.836,-62.012,-41.504,-8.301,-64.941
1687767061.968,-8.789,-51.758,-32.227,4.395,197.754
1687767061.972,5.371,-42.969,-17.578,4.395,178.223
1687767061.975,17.090,-57.617,-43.945,-6.348,-81.055
1687767061.979,4.395,-56.641,-43.457,-3.418,15.137
1687767061.983,0.488,-42.480,-16.113,0.977,108.398
1687767061.987,8.301,-47.852,-24.902,-16.113,-61.523
1687767061.991,-2.441,-54.199,-44.434,-27.344,-180.176
1687767062.005,-7.324,-46.875,-41.504,-42.480,-134.766
1687767062.009,-1.953,-41.016,-33.691,-47.852,-34.668
1687767062.013,1.465,-34.668,-41.016,-39.551,-71.289
1687767062.017,13.672,-41.504,-35.156,-38.574,-83.984
1687767062.021,10.742,-43.945,-35.156,-44.434,-50.293
1687767062.025,-18.555,-42.480,-33.203,-48.340,1.465
1687767062.029,-29.297,-48.340,-27.344,-33.691,15.137
1687767062.032,-42.969,-49.805,-36.621,-31.250,-4.883
1687767062.036,-58.594,-51.758,-35.645,-31.250,98.145
1687767062.040,-57.129,-52.246,-29.297,-22.461,385.742
1687767062.044,-43.457,-45.410,-19.531,-9.766,184.570
1687767062.048,-38.086,-47.852,-21.973,-17.578,-117.188
1687767062.037,-42.969,-58.594,-35.156,-41.992,-8.789
1687767062.041,-44.922,-59.082,-39.551,-53.711,-53.223
1687767062.045,-42.480,-50.781,-32.715,-33.203,-165.527
1687767062.049,-27.832,-48.340,-26.367,-25.391,-134.766
1687767062.053,-10.742,-46.387,-33.691,-24.902,-57.617
1687767062.057,-23.438,-43.945,-36.621,-15.625,16.602
1687767062.061,-36.621,-45.410,-35.156,-33.691,-2.930
1687767062.064,-41.992,-50.293,-37.598,-46.875,90.332
1687767062.068,-35.645,-45.898,-38.086,-44.434,123.535
1687767062.072,-18.555,-35.156,-28.809,-51.270,-20.996
1687767062.076,-13.184,-36.621,-31.738,-41.016,-93.262
1687767062.080,-20.996,-44.434,-39.551,-34.180,21.973
1687767062.080,-27.344,-38.574,-29.297,-27.344,279.785
1687767062.084,-40.039,-33.691,-22.949,-26.855,80.078
1687767062.088,-61.035,-35.645,-29.785,-39.551,-164.551
1687767062.092,-46.387,-40.039,-39.062,-41.016,-82.520
1687767062.096,-36.133,-45.898,-37.598,-41.016,-16.113
1687767062.100,-45.410,-38.574,-33.203,-40.527,-15.625
1687767062.104,-41.016,-40.527,-34.668,-34.180,14.648
1687767062.107,-46.875,-53.711,-42.480,-33.691,186.523
1687767062.111,-58.105,-53.711,-34.668,-18.066,324.219
1687767062.115,-56.152,-48.828,-29.297,-22.949,79.590
1687767062.119,-55.176,-49.805,-41.992,-45.898,-166.992
1687767062.123,-51.270,-49.805,-48.828,-51.270,-69.336
1687767062.127,-29.297,-41.016,-41.504,-36.133,-67.871
1687767062.131,-27.832,-44.434,-38.574,-34.668,-142.578
1687767062.135,-37.598,-53.711,-39.551,-37.109,-29.785
1687767062.139,-37.598,-47.363,-37.598,-28.809,7.812
1687767062.143,-28.809,-35.156,-34.180,-27.344,-88.867
1687767062.147,-14.648,-41.016,-43.457,-28.809,-48.340
1687767062.151,-20.508,-37.109,-41.504,-38.086,86.914
1687767062.154,-26.855,-27.344,-26.855,-27.832,231.445
1687767062.158,-32.227,-35.156,-25.879,-35.645,103.516
1687767062.162,-35.156,-42.969,-25.879,-58.594,-126.953
1687767062.166,-34.668,-47.363,-32.227,-54.688,-76.172
1687767062.170,-41.016,-41.016,-39.551,-45.410,25.391
1687767062.170,-41.016,-34.180,-32.715,-26.855,4.395
1687767062.174,-24.902,-29.297,-28.809,-24.414,-92.773
1687767062.178,-21.973,-20.996,-27.344,-25.879,32.715
1687767062.182,-20.996,-35.645,-35.645,-22.949,113.281
1687767062.186,-19.531,-52.246,-39.551,-24.902,-48.828
1687767062.190,-44.434,-39.551,-35.156,-32.227,-63.965
1687767062.194,-62.988,-39.062,-31.738,-39.551,153.320
1687767062.197,-54.688,-46.387,-27.832,-14.160,280.762
1687767062.201,-45.898,-40.527,-39.062,-30.762,6.348
1687767062.205,-35.156,-30.273,-44.922,-49.805,-117.676
1687767062.209,-26.367,-25.391,-45.410,-39.062,-97.168
1687767062.213,-21.973,-24.414,-50.781,-43.945,-112.305
1687767062.226,-18.066,-22.949,-60.547,-39.551,-142.578
1687767062.230,-12.207,-18.555,-64.941,-38.086,-92.773
1687767062.234,6.348,-8.789,-56.641,-34.668,70.312
1687767062.238,23.438,-6.836,-62.500,-27.832,-30.273
1687767062.242,21.973,-12.207,-74.219,-31.250,-182.617
1687767062.246,12.695,-2.441,-71.777,-18.066,-35.645
1687767062.250,26.367,8.301,-65.430,8.301,197.266
1687767062.253,39.062,3.906,-65.918,10.742,102.051
1687767062.257,37.109,-1.465,-72.754,-9.277,-131.348
1687767062.261,41.504,-1.953,-70.312,-14.160,-51.758
1687767062.265,45.898,-4.395,-63.477,-3.418,126.465
1687767062.269,47.852,-7.812,-62.012,-3.906,-50.293
1687767062.275,36.621,-11.719,-60.059,-8.301,-71.777
1687767062.279,36.133,-14.160,-58.594,5.371,35.156
1687767062.283,45.898,-10.254,-54.199,19.043,-64.453
1687767062.287,33.203,-15.625,-52.246,24.902,-72.754
1687767062.291,21.973,-12.695,-56.152,16.602,-17.578
1687767062.295,22.949,-9.277,-55.664,3.418,147.949
1687767062.299,24.902,-18.066,-52.246,0.488,424.316
1687767062.302,31.250,-17.090,-42.969,2.441,151.855
1687767062.306,31.250,-23.438,-43.945,-5.859,-84.473
1687767062.310,23.438,-29.297,-51.758,-13.672,92.285
1687767062.314,16.602,-21.484,-41.504,-1.953,96.191
1687767062.318,8.789,-20.996,-30.273,-3.906,-114.746
1687767062.322,18.555,-20.996,-28.809,-3.418,-85.449
1687767062.326,17.578,-20.508,-35.645,-6.836,-72.266
1687767062.330,-0.488,-9.277,-31.250,-8.301,-95.703
1687767062.334,-8.789,-8.301,-34.668,-6.348,-107.910
1687767062.338,-10.254,-18.066,-46.875,-4.883,-60.059
1687767062.342,-1.953,-9.766,-37.109,1.953,-4.395
1687767062.346,0.488,-12.695,-33.203,2.930,-19.531
1687767062.349,-11.230,-28.320,-39.551,-18.555,-4.395
1687767062.353,-13.184,-29.785,-41.504,-36.133,-5.371
1687767062.357,-13.184,-28.320,-40.039,-22.461,284.180
1687767062.361,-12.207,-28.320,-36.621,-31.250,195.801
1687767062.365,-13.184,-32.715,-41.016,-40.527,-162.598
1687767062.365,-0.977,-30.762,-38.574,-26.367,-125.488
1687767062.369,4.883,-23.438,-28.320,-16.602,-114.746
1687767062.373,-6.348,-27.344,-29.785,-29.785,-131.836
1687767062.377,-9.766,-27.832,-32.715,-36.133,-98.633
1687767062.381,-7.812,-26.855,-34.180,-31.738,-60.059
1687767062.385,-1.953,-25.391,-28.320,-30.273,-42.480
1687767062.389,-6.836,-26.855,-23.438,-20.996,26.367
1687767062.392,-8.301,-30.762,-29.785,-17.090,25.879
1687767062.396,-19.531,-27.344,-25.879,-6.836,191.406
1687767062.400,-27.344,-13.672,-22.461,-5.859,247.070
1687767062.404,-24.414,-15.137,-29.785,-22.461,-130.371
1687767062.408,-38.086,-31.738,-34.180,-34.668,-173.828
1687767062.411,-35.156,-32.227,-30.762,-32.227,-73.242
1687767062.415,-23.926,-32.715,-26.855,-31.250,-127.930
1687767062.419,-40.527,-35.645,-28.320,-30.762,-212.402
1687767062.423,-41.992,-28.320,-23.438,-23.926,-187.988
1687767062.427,-22.461,-22.461,-20.020,-34.668,5.371
1687767062.431,-14.160,-24.414,-26.367,-36.621,76.172
1687767062.435,-20.508,-21.973,-29.785,-33.203,-62.500
1687767062.438,-14.160,-26.367,-31.250,-33.691,-11.719
1687767062.442,-8.789,-22.461,-30.762,-21.484,145.020
1687767062.446,-24.414,-17.090,-37.109,-23.926,-7.324
1687767062.450,-31.738,-28.320,-34.668,-35.645,-121.094
1687767062.454,-28.320,-31.738,-24.414,-34.668,61.035
1687767062.455,-32.715,-25.391,-24.414,-31.738,62.012
1687767062.459,-46.875,-26.855,-28.320,-48.340,-92.285
1687767062.463,-50.781,-30.762,-28.320,-59.082,-83.984
1687767062.467,-41.016,-26.855,-20.508,-37.109,-48.340
1687767062.471,-35.156,-23.438,-13.672,-35.645,2.441
1687767062.475,-51.758,-28.809,-18.066,-36.133,-25.879
1687767062.479,-50.781,-39.062,-20.996,-35.645,-117.676
1687767062.482,-33.203,-35.645,-14.160,-25.879,100.098
1687767062.486,-29.785,-29.297,-15.137,-6.836,336.914
1687767062.490,-28.809,-37.598,-15.625,-20.996,26.855
1687767062.494,-32.227,-38.574,-17.090,-51.270,-95.215
1687767062.498,-29.785,-40.039,-28.320,-61.035,18.555
1687767062.505,-19.043,-35.156,-24.902,-51.758,-88.867
1687767062.509,-19.531,-25.879,-19.531,-45.898,-89.844
1687767062.513,-22.461,-37.598,-22.461,-50.293,-79.590
1687767062.517,-32.715,-41.504,-23.438,-26.367,-42.480
1687767062.521,-40.039,-32.227,-24.414,-12.207,-49.316
1687767062.525,-24.414,-18.066,-18.555,-21.973,-114.746
1687767062.529,-14.648,-16.602,-14.648,-20.996,31.250
1687767062.532,-25.879,-28.809,-19.043,-28.320,44.922
1687767062.536,-36.621,-41.016,-30.273,-40.039,-138.672
1687767062.540,-30.762,-42.480,-31.738,-41.992,-201.660
1687767062.544,-22.949,-34.668,-25.879,-30.273,36.133
1687767062.548,-20.996,-34.180,-23.926,-26.367,165.039
1687767062.544,-22.461,-33.691,-31.738,-45.898,-42.480
1687767062.548,-14.648,-41.992,-33.691,-52.734,-88.867
1687767062.552,-7.324,-47.363,-27.344,-51.270,-32.715
1687767062.556,-15.625,-37.598,-28.320,-44.434,-5.371
1687767062.560,-28.320,-34.180,-30.273,-28.809,-2.441
1687767062.564,-40.527,-38.574,-36.621,-23.438,35.645
1687767062.568,-51.270,-40.039,-37.109,-23.438,140.137
1687767062.571,-63.477,-47.363,-33.691,-25.879,367.188
1687767062.575,-58.594,-43.945,-32.227,-29.297,252.930
1687767062.579,-54.199,-33.691,-20.508,-38.574,-38.574
1687767062.583,-64.453,-35.645,-22.949,-61.035,-54.199
1687767062.587,-49.805,-29.297,-22.949,-52.734,-70.312
1687767062.607,-34.180,-20.020,-18.555,-51.758,-147.461
1687767062.611,-45.898,-23.438,-24.414,-56.152,-114.746
1687767062.615,-45.898,-33.203,-26.855,-50.781,-32.715
1687767062.619,-44.922,-38.574,-34.180,-58.594,-63.965
1687767062.623,-47.852,-40.527,-39.551,-51.758,-136.230
1687767062.627,-45.898,-43.945,-26.855,-53.711,14.160
1687767062.631,-51.758,-37.598,-24.414,-52.734,143.555
1687767062.634,-47.363,-42.480,-29.297,-37.109,37.598
1687767062.638,-30.762,-40.527,-25.879,-42.480,-69.336
1687767062.642,-51.270,-39.551,-27.344,-43.945,-2.930
1687767062.646,-69.824,-39.551,-22.949,-20.508,184.570
1687767062.650,-56.152,-38.574,-24.902,-31.738,-14.648
1687767062.650,-57.129,-40.039,-33.691,-52.246,-139.648
1687767062.654,-54.688,-49.316,-34.180,-49.805,5.859
1687767062.658,-38.574,-45.898,-25.391,-41.016,4.883
1687767062.662,-52.246,-37.109,-23.926,-38.574,-130.859
1687767062.666,-59.570,-46.875,-29.297,-48.828,-116.699
1687767062.670,-27.344,-38.086,-21.484,-47.363,82.520
1687767062.674,-23.926,-28.809,-18.555,-34.180,203.613
1687767062.677,-40.527,-33.691,-21.484,-25.391,48.828
1687767062.681,-41.504,-34.668,-20.508,-29.785,-77.148
1687767062.685,-60.059,-37.598,-30.273,-38.086,91.797
1687767062.689,-57.617,-35.645,-39.551,-30.762,309.082
1687767062.693,-38.574,-22.461,-30.273,-33.203,124.023
1687767062.696,-32.227,-19.531,-26.855,-45.410,-104.980
1687767062.700,-31.738,-25.879,-29.785,-41.992,-129.883
1687767062.704,-43.457,-26.367,-26.367,-40.039,-138.672
1687767062.708,-44.922,-21.973,-26.367,-34.668,-103.516
1687767062.712,-41.992,-12.695,-30.273,-39.551,-103.516
1687767062.716,-43.457,-15.137,-29.297,-41.016,-61.035
1687767062.720,-40.527,-24.902,-32.715,-35.645,16.113
1687767062.723,-40.039,-17.090,-27.832,-46.387,-43.457
1687767062.727,-44.922,-26.367,-22.949,-50.781,4.883
1687767062.731,-45.898,-38.086,-30.273,-49.805,217.773
1687767062.735,-48.340,-29.785,-33.203,-57.129,110.840
1687767062.739,-44.434,-17.090,-28.320,-58.594,-106.934
1687767062.740,-42.480,-20.020,-26.855,-57.129,-48.828
1687767062.744,-47.852,-22.461,-29.297,-52.734,-25.391
1687767062.748,-48.340,-18.066,-31.250,-43.945,-107.422
1687767062.752,-37.109,-17.578,-24.414,-39.551,-100.586
1687767062.756,-26.855,-24.414,-20.020,-44.922,-45.898
1687767062.760,-45.898,-31.738,-32.715,-55.664,50.781
1687767062.764,-43.945,-27.344,-29.297,-43.945,41.992
1687767062.767,-38.574,-22.949,-30.762,-49.316,31.738
1687767062.771,-58.594,-29.785,-41.016,-48.340,186.523
1687767062.775,-68.848,-36.621,-37.109,-41.992,364.746
1687767062.779,-62.012,-31.738,-29.785,-41.992,88.379
1687767062.783,-47.363,-24.902,-20.996,-36.133,-166.504
1687767062.787,-37.598,-27.832,-21.484,-51.758,-72.754
1687767062.791,-43.457,-39.062,-34.668,-52.246,-2.930
1687767062.795,-47.363,-40.527,-38.574,-39.551,-131.836
1687767062.799,-48.828,-37.598,-28.320,-42.969,-115.234
1687767062.803,-56.641,-36.133,-27.832,-47.363,28.809
1687767062.807,-59.082,-33.203,-32.227,-36.621,52.246
1687767062.811,-45.410,-31.738,-21.973,-26.367,94.238
1687767062.814,-34.668,-29.297,-15.137,-33.203,78.125
1687767062.818,-49.805,-34.668,-24.414,-36.133,182.129
1687767062.822,-58.594,-39.062,-29.785,-40.039,96.191
1687767062.826,-43.945,-33.203,-21.484,-36.621,-111.816
1687767062.830,-35.645,-27.344,-11.230,-27.832,2.930
1687767062.829,-42.969,-33.203,-18.555,-42.480,-19.043
1687767062.833,-52.734,-33.203,-24.902,-44.434,-94.727
1687767062.837,-52.734,-24.902,-31.250,-48.340,-52.246
1687767062.841,-49.316,-24.902,-36.133,-49.316,73.730
1687767062.845,-41.992,-30.762,-31.738,-47.363,55.176
1687767062.849,-32.715,-20.996,-38.574,-61.523,-41.992
1687767062.853,-21.973,-10.254,-39.551,-38.574,67.871
1687767062.856,-30.762,-20.996,-27.344,-20.020,205.566
1687767062.860,-68.848,-38.574,-22.949,-49.805,277.344
1687767062.864,-83.984,-39.062,-19.531,-64.941,6.836
1687767062.868,-75.195,-35.156,-21.484,-55.664,-111.816
1687767062.872,-82.520,-39.551,-23.926,-77.637,-12.695
1687767062.876,-93.262,-41.992,-24.902,-107.910,-56.641
1687767062.880,-97.168,-41.992,-26.367,-104.004,-106.934
1687767062.884,-83.984,-44.434,-33.203,-94.238,-42.969
1687767062.888,-94.238,-48.828,-33.691,-76.172,-61.523
1687767062.892,-109.375,-48.340,-34.180,-74.707,-82.031
1687767062.896,-109.863,-56.641,-40.039,-85.938,-23.926
1687767062.900,-101.074,-59.570,-39.551,-81.055,18.555
1687767062.903,-95.703,-53.223,-38.574,-75.684,321.289
1687767062.907,-92.773,-42.480,-37.598,-67.383,198.730
1687767062.911,-72.266,-35.156,-27.832,-64.453,-189.941
1687767062.915,-72.266,-40.039,-24.414,-69.824,-50.781
1687767062.919,-85.938,-37.598,-30.762,-60.547,15.625
1687767062.920,-83.984,-38.574,-35.645,-69.336,-98.633
1687767062.924,-73.242,-47.852,-36.133,-74.219,-113.281
1687767062.928,-68.359,-47.363,-35.156,-69.824,-63.477
1687767062.932,-78.613,-41.016,-31.738,-73.242,-37.109
1687767062.936,-75.195,-44.434,-26.855,-71.777,-6.836
1687767062.940,-55.176,-43.457,-26.855,-57.617,-20.020
1687767062.944,-41.992,-30.762,-28.320,-35.156,151.367
1687767062.947,-53.711,-29.785,-34.668,-50.293,469.238
1687767062.951,-60.547,-29.785,-29.297,-65.430,173.828
1687767062.955,-74.707,-31.738,-21.973,-54.199,-141.602
1687767062.959,-84.473,-42.480,-25.391,-62.012,-21.973
1687767062.963,-67.383,-43.945,-28.320,-69.824,-48.340
1687767062.968,-62.988,-45.410,-27.832,-49.316,-115.234
1687767062.972,-68.359,-50.293,-29.297,-35.645,-77.637
1687767062.976,-60.059,-47.363,-31.250,-41.992,-27.832
1687767062.980,-64.453,-41.016,-24.414,-49.805,-70.801
1687767062.984,-70.801,-32.715,-14.160,-41.504,-160.156
1687767062.988,-54.688,-20.508,-14.160,-31.738,-13.672
1687767062.992,-41.016,-25.879,-21.484,-34.668,153.809
1687767062.995,-51.758,-24.902,-32.227,-46.387,29.297
1687767062.999,-55.176,-25.879,-32.227,-47.363,-158.203
1687767063.003,-39.062,-36.621,-30.273,-37.109,-43.945
1687767063.007,-37.109,-33.691,-26.855,-30.762,160.156
1687767063.011,-26.855,-25.879,-14.648,-29.785,4.395
1687767063.016,-33.691,-23.438,-33.691,-40.527,-150.879
1687767063.020,-57.617,-34.180,-47.363,-35.156,10.742
1687767063.024,-58.594,-43.457,-34.180,-41.504,91.797
1687767063.028,-52.734,-46.387,-29.785,-56.152,-75.684
1687767063.032,-36.621,-39.062,-27.344,-60.059,-140.625
1687767063.036,-35.645,-29.785,-30.762,-61.035,149.902
1687767063.040,-49.316,-36.133,-38.574,-37.109,361.328
1687767063.043,-59.082,-39.062,-34.668,-39.551,137.207
1687767063.047,-68.359,-26.367,-28.809,-54.688,-90.332
1687767063.051,-71.777,-24.414,-28.320,-49.316,-99.609
1687767063.055,-58.105,-27.344,-23.926,-48.340,-57.617
1687767063.059,-44.434,-21.973,-24.902,-40.527,-159.668
1687767063.069,-43.945,-23.926,-30.762,-30.273,-62.012
1687767063.073,-29.785,-25.879,-27.832,-25.879,105.957
1687767063.077,-28.809,-26.367,-28.320,-29.785,-0.488
1687767063.081,-62.012,-30.273,-32.715,-50.293,-155.273
1687767063.085,-68.359,-40.527,-30.273,-56.641,-166.016
1687767063.089,-52.734,-42.480,-25.879,-40.039,248.047
1687767063.093,-40.527,-39.551,-20.508,-21.973,454.102
1687767063.096,-28.320,-38.574,-18.555,-29.297,-32.227
1687767063.100,-35.156,-35.156,-31.250,-42.969,-198.242
1687767063.104,-46.875,-28.809,-31.738,-47.363,-75.195
1687767063.108,-35.156,-33.203,-36.133,-57.617,-123.047
1687767063.112,-16.113,-34.180,-45.898,-58.594,-145.996
1687767063.130,-6.836,-21.973,-35.156,-56.152,-98.145
1687767063.134,-32.715,-22.461,-27.832,-61.523,-58.594
1687767063.138,-52.246,-37.109,-34.668,-50.293,-69.336
1687767063.142,-51.270,-44.922,-29.785,-28.809,-95.703
1687767063.146,-32.715,-28.320,-12.207,-10.742,147.949
1687767063.150,-27.832,-15.625,-12.207,-13.184,291.992
1687767063.154,-55.176,-22.461,-15.625,-26.367,35.156
1687767063.157,-56.641,-30.762,-15.137,-13.672,-10.742
1687767063.161,-46.875,-36.621,-17.090,-8.789,104.492
1687767063.165,-51.758,-29.297,-19.043,-34.180,148.926
1687767063.169,-54.199,-31.250,-27.832,-55.664,-86.426
1687767063.173,-54.199,-37.109,-31.250,-44.922,-146.973
1687767063.161,-54.199,-35.645,-31.250,-50.293,-25.391
1687767063.165,-43.945,-40.039,-30.273,-59.082,-49.805
1687767063.169,-44.434,-39.551,-27.832,-44.922,-145.020
1687767063.173,-32.715,-30.762,-30.273,-34.180,-70.312
1687767063.177,-39.062,-39.551,-34.180,-38.086,20.996
1687767063.181,-33.691,-30.762,-29.297,-40.527,-6.348
1687767063.185,-20.020,-7.324,-35.645,-47.852,-97.168
1687767063.188,-26.367,-17.090,-36.621,-35.156,-4.883
1687767063.192,-28.320,-20.508,-35.645,-33.203,117.676
1687767063.196,-29.297,-16.113,-36.133,-38.574,-9.277
1687767063.200,-36.133,-21.973,-29.297,-31.738,-121.582
1687767063.204,-46.875,-31.250,-29.297,-30.273,11.230
1687767063.204,-41.016,-30.762,-29.297,-22.461,198.242
1687767063.208,-40.039,-26.855,-31.738,-36.621,26.367
1687767063.212,-23.438,-21.973,-26.367,-49.316,-93.750
1687767063.216,-28.320,-22.461,-22.461,-41.016,-17.090
1687767063.220,-44.434,-30.762,-26.855,-44.922,0.488
1687767063.224,-30.762,-27.344,-23.926,-36.621,-3.418
1687767063.228,-33.691,-21.973,-19.531,-22.461,-9.277
1687767063.231,-43.945,-22.461,-26.367,-19.043,146.973
1687767063.235,-46.875,-22.949,-30.273,-2.441,445.312
1687767063.239,-49.805,-25.391,-37.109,-13.184,231.445
1687767063.243,-40.527,-20.996,-33.691,-37.109,-107.910
1687767063.247,-36.133,-21.484,-21.484,-39.551,-41.504
1687767063.251,-36.621,-26.367,-23.926,-41.992,-7.812
1687767063.255,-28.809,-27.344,-25.879,-47.363,-82.520
1687767063.259,-39.551,-37.109,-31.738,-47.852,-101.074
1687767063.263,-36.133,-33.691,-37.109,-38.086,-25.391
1687767063.267,-15.137,-22.461,-22.949,-19.043,-29.297
1687767063.271,-22.949,-31.738,-20.996,-15.137,-49.316
1687767063.275,-37.598,-39.062,-32.715,-37.598,13.672
1687767063.278,-36.621,-33.203,-35.156,-47.852,196.777
1687767063.282,-27.344,-28.809,-34.668,-45.898,87.891
1687767063.286,-28.809,-32.715,-29.785,-49.805,-62.012
1687767063.290,-25.391,-30.762,-28.809,-32.227,29.785
1687767063.294,-3.906,-17.578,-29.297,-16.113,32.227
1687767063.309,-13.672,-20.020,-29.297,-39.062,-74.219
1687767063.313,-47.363,-25.391,-24.902,-47.363,-88.867
1687767063.317,-61.035,-27.344,-25.391,-38.574,-41.992
1687767063.321,-63.965,-28.809,-23.438,-49.316,-31.738
1687767063.325,-54.199,-27.344,-20.020,-38.574,-45.410
1687767063.329,-39.551,-31.738,-21.973,-29.785,43.945
1687767063.333,-34.668,-41.504,-25.879,-39.062,169.434
1687767063.336,-37.109,-42.969,-30.762,-35.156,293.945
1687767063.340,-38.086,-31.250,-32.715,-34.180,69.336
1687767063.344,-41.016,-26.855,-32.715,-43.457,-131.836
1687767063.348,-50.293,-26.367,-27.832,-43.457,-89.844
1687767063.352,-33.203,-25.391,-20.508,-35.156,-35.645
1687767063.356,-32.715,-28.320,-19.043,-36.133,-61.523
1687767063.360,-46.387,-30.273,-14.160,-36.621,-109.863
1687767063.364,-54.688,-35.645,-15.137,-40.527,-48.828
1687767063.368,-65.430,-42.480,-26.367,-54.199,-58.594
1687767063.372,-54.199,-39.551,-21.484,-43.457,-178.711
1687767063.376,-48.828,-41.016,-19.531,-23.926,-84.473
1687767063.380,-32.227,-42.480,-20.508,-36.133,92.285
1687767063.383,-38.086,-41.504,-23.438,-47.852,-42.969
1687767063.387,-53.223,-47.363,-34.668,-40.527,-145.020
1687767063.391,-32.715,-38.086,-28.809,-29.785,-27.344
1687767063.395,-25.391,-17.578,-19.531,-16.602,208.008
1687767063.399,-37.109,-17.578,-21.973,-23.926,51.758
1687767063.415,-39.062,-31.738,-28.320,-30.273,-104.980
1687767063.419,-37.598,-31.738,-25.879,-35.156,-40.527
1687767063.423,-38.574,-29.297,-14.648,-45.898,-1.465
1687767063.427,-35.645,-34.668,-20.508,-39.551,-20.508
1687767063.431,-38.086,-26.367,-24.902,-50.293,-80.078
1687767063.435,-39.062,-22.461,-16.602,-52.734,198.730
1687767063.439,-46.387,-29.297,-17.090,-40.039,303.223
1687767063.442,-43.945,-24.414,-20.020,-43.457,0.488
1687767063.446,-23.438,-19.531,-22.949,-38.086,-124.023
1687767063.450,-14.160,-23.438,-29.297,-24.414,87.402
1687767063.454,-30.762,-16.113,-30.762,-17.090,265.625
1687767063.458,-43.945,-13.184,-37.109,-29.785,12.207
1687767063.447,-27.832,-20.508,-48.340,-43.945,-106.445
1687767063.451,-5.859,-11.719,-45.410,-40.527,-58.105
1687767063.455,1.953,-3.418,-35.156,-31.738,-99.121
1687767063.459,2.930,-0.488,-36.133,-36.621,-185.059
1687767063.463,-4.395,-0.488,-38.086,-36.133,0.488
1687767063.467,-20.508,-10.254,-43.457,-39.062,130.371
1687767063.471,-27.344,-20.996,-41.016,-42.969,41.504
1687767063.474,-20.996,-35.156,-37.598,-39.062,-9.766
1687767063.478,-6.348,-31.738,-37.109,-31.250,4.395
1687767063.482,-2.441,-25.391,-30.762,-21.973,27.832
1687767063.486,0.000,-17.090,-27.832,-22.949,-83.008
1687767063.490,9.277,-10.742,-27.832,-23.926,-146.484
1687767063.489,-12.207,-24.414,-30.273,-26.855,-54.688
1687767063.493,-27.832,-29.297,-31.738,-26.367,145.996
1687767063.497,-34.180,-33.691,-37.598,-31.250,-7.812
1687767063.501,-50.781,-36.621,-35.645,-33.691,-94.727
1687767063.505,-34.180,-30.762,-36.133,-43.457,101.562
1687767063.509,-24.414,-38.086,-39.551,-41.016,126.953
1687767063.513,-32.227,-45.410,-27.832,-34.180,93.262
1687767063.516,-37.109,-44.922,-24.414,-41.016,14.648
1687767063.520,-40.527,-44.922,-23.926,-28.809,127.441
1687767063.524,-27.832,-38.086,-15.137,-10.254,373.047
1687767063.528,-15.625,-25.879,-11.719,-11.230,91.309
1687767063.532,-19.531,-39.062,-19.043,-22.949,-164.062
1687767063.538,-27.344,-56.152,-32.715,-35.645,-135.254
1687767063.542,-17.090,-44.434,-33.691,-39.551,-160.645
1687767063.546,-16.602,-34.668,-33.203,-47.363,-172.852
1687767063.550,-20.020,-34.668,-25.879,-23.926,-91.309
1687767063.554,-13.184,-38.574,-18.066,-4.395,-26.855
1687767063.558,-30.273,-46.387,-21.484,-24.414,-39.551
1687767063.562,-44.434,-53.711,-20.996,-39.551,-85.449
1687767063.565,-30.762,-52.246,-15.137,-31.738,-36.621
1687767063.569,-16.113,-51.758,-17.090,-30.762,142.578
1687767063.573,-17.578,-46.387,-22.461,-44.434,29.785
1687767063.577,-13.672,-39.551,-17.578,-39.062,-189.453
1687767063.581,-38.574,-45.898,-19.531,-29.785,-91.309
1687767063.580,-47.852,-38.086,-19.043,-28.809,-20.020
1687767063.584,-34.668,-30.762,-17.578,-31.250,-92.285
1687767063.588,-20.508,-33.691,-19.043,-33.203,-127.441
1687767063.592,-16.602,-32.715,-20.020,-28.320,22.461
1687767063.596,-45.410,-37.598,-20.020,-33.203,83.984
1687767063.600,-51.758,-41.504,-20.020,-36.133,-14.160
1687767063.604,-54.688,-39.062,-22.949,-25.391,27.344
1687767063.607,-50.781,-42.969,-32.227,-23.926,141.602
1687767063.611,-38.574,-47.363,-33.203,-30.762,291.016
1687767063.615,-36.133,-50.293,-24.414,-38.574,57.617
1687767063.619,-38.086,-43.945,-22.461,-36.621,-77.637
1687767063.623,-41.016,-35.156,-27.832,-42.480,25.879
1687767063.626,-42.969,-37.598,-29.785,-46.387,-52.734
1687767063.630,-48.828,-38.574,-27.832,-51.758,-113.281
1687767063.634,-34.180,-28.320,-14.160,-48.828,-62.500
1687767063.638,-24.902,-29.297,-16.602,-39.062,-61.523
1687767063.642,-41.504,-30.762,-31.738,-53.711,-151.367
1687767063.646,-14.648,-17.578,-25.879,-47.852,-76.172
1687767063.650,0.977,-24.902,-22.461,-41.504,74.219
1687767063.653,-18.066,-41.016,-29.297,-41.504,228.516
1687767063.657,-33.203,-47.852,-33.691,-49.805,123.047
1687767063.661,-48.828,-42.480,-29.785,-44.434,-130.371
1687767063.665,-60.059,-27.344,-37.598,-30.273,-32.227
1687767063.669,-56.152,-26.855,-40.527,-42.480,42.480
1687767063.671,-48.828,-38.086,-31.250,-35.645,-104.980
1687767063.675,-52.246,-47.363,-27.344,-38.574,-95.215
1687767063.679,-58.594,-39.551,-25.391,-51.270,55.176
1687767063.683,-53.223,-30.762,-25.879,-44.922,27.344
1687767063.687,-47.363,-33.203,-21.973,-42.969,-66.895
1687767063.691,-49.805,-42.480,-24.414,-61.523,-20.508
1687767063.695,-57.129,-41.504,-27.832,-47.363,229.004
1687767063.698,-63.477,-37.109,-21.484,-30.273,444.336
1687767063.702,-54.688,-42.969,-23.926,-32.227,33.691
1687767063.706,-48.828,-41.992,-27.344,-33.691,-203.125
1687767063.710,-63.477,-32.227,-27.832,-49.805,-64.453
1687767063.714,-62.012,-34.180,-27.832,-38.574,-86.914
1687767063.716,-50.293,-37.109,-24.902,-34.180,-138.184
1687767063.720,-38.574,-31.738,-30.273,-48.828,-100.586
1687767063.724,-24.414,-34.180,-31.250,-41.504,-57.617
1687767063.728,-41.504,-30.762,-27.344,-30.762,-39.062
1687767063.732,-56.641,-25.879,-32.227,-41.016,-39.551
1687767063.736,-50.781,-33.691,-29.785,-36.133,14.160
1687767063.740,-51.758,-28.809,-28.809,-23.438,352.051
1687767063.743,-61.035,-32.227,-27.344,-34.180,282.227
1687767063.747,-55.176,-41.992,-23.438,-48.340,-132.324
1687767063.751,-52.734,-47.852,-25.879,-39.551,-92.773
1687767063.755,-47.852,-40.039,-17.090,-32.227,8.301
1687767063.759,-24.902,-27.344,-15.137,-28.809,-86.914
1687767063.759,-38.574,-36.133,-33.203,-32.227,-207.031
1687767063.763,-55.176,-40.039,-33.691,-42.480,-51.758
1687767063.767,-49.805,-41.504,-30.273,-47.852,19.531
1687767063.771,-48.340,-41.016,-27.832,-44.922,-100.098
1687767063.775,-49.316,-37.109,-25.391,-52.734,-51.758
1687767063.779,-32.715,-40.039,-20.996,-52.246,261.719
1687767063.783,-33.203,-39.062,-15.137,-47.363,385.742
1687767063.786,-41.016,-41.504,-15.137,-56.641,58.105
1687767063.790,-34.180,-37.109,-17.090,-45.410,-146.484
1687767063.794,-41.504,-28.320,-20.996,-37.109,77.148
1687767063.798,-46.387,-33.203,-24.414,-45.898,169.434
1687767063.802,-37.109,-28.320,-20.020,-46.387,-69.336
1687767063.821,-43.945,-27.832,-27.344,-59.570,-134.766
1687767063.825,-49.316,-35.645,-38.086,-56.152,-127.441
1687767063.829,-49.316,-40.039,-39.062,-45.410,-118.652
1687767063.833,-51.270,-42.480,-40.039,-59.570,-193.359
1687767063.837,-34.668,-34.668,-39.551,-56.152,-93.750
1687767063.841,-39.062,-29.785,-40.039,-49.805,87.891
1687767063.845,-49.805,-36.133,-43.457,-59.570,1.465
1687767063.848,-35.645,-37.598,-36.133,-48.340,-108.887
1687767063.852,-23.926,-36.621,-37.109,-36.621,-28.320
1687767063.856,-30.273,-41.016,-37.109,-32.715,301.270
