timestamps,TP9,AF7,AF8,TP10,Right AUX
1687767138.221,-56.152,-81.543,-44.434,-42.480,-71.777
1687767138.225,-44.434,-60.547,-49.805,-50.293,-59.570
1687767138.229,-72.266,-41.992,-54.688,-88.867,-129.395
1687767138.233,-85.938,-48.828,-59.570,-96.680,-136.719
1687767138.237,-85.449,-55.176,-63.965,-104.492,-17.578
1687767138.241,-99.121,-52.734,-65.430,-120.117,130.859
1687767138.245,-113.770,-57.617,-67.383,-141.113,68.359
1687767138.248,-103.027,-62.988,-62.988,-132.812,-52.246
1687767138.252,-87.402,-59.082,-59.082,-108.887,-119.629
1687767138.256,-66.406,-55.176,-60.059,-106.934,223.633
1687767138.260,-65.918,-54.688,-51.758,-97.168,330.566
1687767138.264,-81.055,-54.199,-45.410,-99.121,-45.410
1687767138.268,-52.246,-49.316,-20.020,-89.844,-80.078
1687767138.272,-44.922,-55.176,-26.367,-88.867,57.129
1687767138.276,-48.828,-49.316,-29.785,-73.242,-32.227
1687767138.279,-67.383,-48.828,-27.832,-73.730,-110.840
1687767138.283,-65.430,-58.594,-23.438,-76.172,-13.184
1687767138.287,-61.523,-56.641,-29.297,-67.383,-40.527
1687767138.291,-62.500,-49.805,-23.438,-71.777,-193.359
1687767138.295,-53.711,-51.758,-21.484,-75.684,-192.871
1687767138.310,-58.594,-55.176,-27.344,-52.734,37.598
1687767138.314,-61.523,-51.270,-23.926,-62.500,21.484
1687767138.318,-61.035,-49.805,-32.227,-80.566,-139.160
1687767138.322,-64.453,-51.758,-41.016,-86.426,-107.910
1687767138.326,-62.500,-54.199,-48.828,-69.336,254.395
1687767138.330,-58.105,-52.246,-39.551,-54.688,273.926
1687767138.334,-57.617,-48.340,-34.180,-75.684,-33.203
1687767138.337,-63.477,-55.176,-45.898,-81.055,-14.648
1687767138.341,-69.336,-64.453,-41.016,-61.035,243.164
1687767138.345,-55.176,-61.523,-28.320,-59.082,148.926
1687767138.349,-52.734,-66.895,-31.250,-67.871,-111.816
1687767138.353,-59.082,-76.660,-35.156,-71.777,-56.152
1687767138.376,-50.293,-71.777,-18.555,-66.895,-0.977
1687767138.380,-45.410,-76.172,-13.672,-62.988,-116.211
1687767138.384,-41.992,-59.082,-27.832,-55.176,-205.078
1687767138.388,-37.109,-94.727,-25.391,-65.918,-126.465
1687767138.392,-32.715,-289.062,-20.508,-87.402,-22.949
1687767138.396,-37.598,-379.395,-18.555,-71.777,-70.312
1687767138.400,-35.645,-364.258,-17.578,-54.199,-1.465
1687767138.403,-45.410,-364.258,-23.926,-74.219,213.867
1687767138.407,-37.598,-354.492,-30.762,-82.520,104.492
1687767138.411,-32.715,-344.727,-36.133,-77.637,-175.781
1687767138.415,-41.016,-328.613,-40.039,-80.566,-184.082
1687767138.419,-18.555,-309.082,-36.133,-62.988,79.590
1687767138.381,-4.395,-291.016,-27.832,-39.551,33.691
1687767138.385,-20.508,-282.227,-32.227,-52.734,-138.184
1687767138.389,-41.504,-278.320,-50.781,-74.219,-71.777
1687767138.393,-41.016,-267.090,-116.211,-72.754,12.207
1687767138.397,-42.480,-250.488,-165.527,-70.312,17.090
1687767138.401,-54.199,-238.770,-173.828,-62.988,-53.223
1687767138.405,-53.223,-234.375,-190.918,-65.918,-3.906
1687767138.408,-59.082,-223.145,-190.430,-75.195,112.305
1687767138.412,-71.289,-214.844,-175.293,-74.219,-1.953
1687767138.416,-74.707,-217.285,-166.992,-69.336,-47.363
1687767138.420,-62.500,-211.426,-162.109,-73.730,1.953
1687767138.424,-48.828,-197.266,-171.387,-93.750,-17.090
1687767138.447,-35.645,-184.570,-186.035,-84.473,-128.906
1687767138.451,-28.320,-178.711,-183.594,-81.543,-149.902
1687767138.455,-27.344,-176.270,-173.828,-71.289,-39.551
1687767138.459,-25.391,-166.016,-172.852,-45.898,279.297
1687767138.463,-30.273,-155.762,-184.570,-34.180,445.801
1687767138.467,-37.109,-149.902,-192.383,-39.551,369.629
1687767138.471,-39.551,-141.113,-190.918,-34.180,188.965
1687767138.474,-31.738,-131.836,-199.707,-41.504,20.996
1687767138.478,-44.434,-132.324,-214.355,-66.895,-169.922
1687767138.482,-43.945,-133.789,-219.238,-55.176,-198.242
1687767138.486,-36.621,-130.859,-211.914,-49.805,-79.102
1687767138.490,-57.129,-137.695,-200.684,-88.379,-51.758
1687767138.505,-68.848,-136.719,-189.453,-88.867,-121.094
1687767138.509,-65.918,-125.000,-182.617,-62.012,-81.543
1687767138.513,-74.707,-123.047,-176.758,-59.570,60.059
1687767138.517,-76.660,-121.094,-165.527,-64.941,-11.719
1687767138.521,-66.895,-121.094,-157.227,-64.941,-60.059
1687767138.525,-72.266,-119.141,-151.855,-62.988,27.832
1687767138.529,-73.242,-114.258,-139.648,-55.664,84.473
1687767138.532,-60.059,-110.352,-129.883,-59.082,-60.547
1687767138.536,-66.406,-103.027,-120.605,-60.059,-129.883
1687767138.540,-77.148,-105.469,-114.746,-67.871,-69.824
1687767138.544,-66.895,-105.957,-112.793,-73.730,213.867
1687767138.548,-57.129,-97.656,-123.535,-65.918,212.402
1687767138.596,-49.316,-97.168,-130.859,-65.918,-97.168
1687767138.600,-44.434,-98.145,-115.234,-58.594,-74.219
1687767138.604,-44.922,-99.121,-108.398,-60.547,-38.574
1687767138.608,-45.410,-95.703,-100.586,-59.570,-167.969
1687767138.612,-33.203,-86.914,-89.844,-60.059,-169.922
1687767138.616,-31.738,-78.613,-91.309,-58.105,45.898
1687767138.620,-53.223,-82.031,-101.074,-59.082,48.828
1687767138.623,-59.082,-82.520,-105.957,-76.172,-119.141
1687767138.627,-43.945,-76.172,-102.539,-87.402,-206.055
1687767138.631,-39.062,-71.289,-107.422,-89.844,-27.344
1687767138.635,-34.668,-72.266,-111.328,-79.590,7.812
1687767138.639,-30.273,-71.777,-108.887,-89.355,-105.957
1687767138.600,-32.227,-65.918,-103.516,-82.520,-59.082
1687767138.604,-38.086,-63.477,-90.820,-62.012,161.133
1687767138.608,-40.527,-67.871,-84.473,-59.082,145.508
1687767138.612,-49.316,-70.801,-91.797,-58.594,-107.910
1687767138.616,-51.758,-68.848,-85.938,-41.016,17.578
1687767138.620,-37.598,-55.664,-71.777,-50.781,196.289
1687767138.624,-45.898,-57.617,-71.777,-72.754,98.633
1687767138.627,-55.664,-69.824,-82.520,-65.918,-40.039
1687767138.631,-46.387,-61.035,-85.449,-56.152,-120.117
1687767138.635,-41.992,-54.199,-84.473,-56.641,-93.750
1687767138.639,-43.457,-58.105,-87.402,-58.594,-123.047
1687767138.643,-51.758,-54.199,-94.727,-65.918,-183.594
1687767138.642,-54.199,-49.805,-124.512,-59.082,-88.867
1687767138.646,-44.434,-54.199,-152.344,-56.641,134.766
1687767138.650,-51.270,-57.617,-160.645,-72.754,-4.883
1687767138.654,-61.035,-59.570,-173.828,-67.383,-194.336
1687767138.658,-54.199,-63.477,-168.945,-71.777,-85.938
1687767138.662,-46.875,-58.594,-159.668,-73.730,7.324
1687767138.666,-36.621,-51.270,-164.551,-48.340,-48.828
1687767138.669,-34.180,-56.641,-162.598,-62.012,-41.016
1687767138.673,-36.133,-61.035,-158.203,-69.336,112.305
1687767138.677,-24.414,-62.988,-149.902,-58.105,-48.828
1687767138.681,-28.809,-58.105,-144.043,-67.383,-199.707
1687767138.685,-62.500,-52.246,-139.160,-48.828,-142.578
1687767138.670,-80.566,-49.805,-136.230,-35.645,62.012
1687767138.674,-83.496,-45.898,-148.926,-42.480,398.438
1687767138.678,-83.008,-46.387,-150.879,-40.527,360.840
1687767138.682,-68.359,-40.039,-131.836,-33.691,42.969
1687767138.686,-60.547,-31.738,-128.906,-35.645,-26.855
1687767138.690,-63.965,-33.691,-126.953,-45.410,-84.961
1687767138.694,-61.035,-33.691,-116.211,-53.223,-88.867
1687767138.697,-59.570,-33.203,-111.328,-55.176,-56.152
1687767138.701,-65.430,-38.086,-107.910,-49.805,-20.508
1687767138.705,-77.637,-42.480,-103.516,-55.176,-91.309
1687767138.709,-74.219,-44.922,-100.098,-52.734,-175.293
1687767138.713,-71.777,-46.875,-103.027,-47.363,-66.895
1687767138.732,-84.473,-51.270,-104.492,-62.988,309.082
1687767138.736,-84.961,-49.316,-84.961,-52.734,304.688
1687767138.740,-76.172,-43.945,-73.730,-36.133,-55.664
1687767138.744,-69.824,-42.480,-66.406,-53.711,-78.125
1687767138.748,-72.754,-42.969,-59.082,-65.430,-69.336
1687767138.752,-79.590,-48.340,-65.918,-69.336,-53.223
1687767138.756,-74.219,-38.574,-64.941,-59.570,-63.965
1687767138.759,-86.426,-41.992,-70.801,-49.316,76.172
1687767138.763,-99.121,-51.270,-76.660,-55.176,110.352
1687767138.767,-87.891,-51.758,-103.027,-80.078,-204.102
1687767138.771,-84.473,-53.711,-131.348,-85.938,-203.125
1687767138.775,-92.773,-43.945,-128.906,-64.941,26.855
1687767138.820,-90.332,-36.133,-129.883,-52.734,-20.020
1687767138.824,-85.938,-37.598,-129.883,-67.871,-135.254
1687767138.828,-77.637,-34.668,-119.141,-65.430,-109.863
1687767138.832,-71.289,-29.785,-109.863,-53.223,27.344
1687767138.836,-79.590,-31.250,-96.680,-51.758,115.234
1687767138.840,-91.797,-34.668,-88.379,-57.617,34.668
1687767138.844,-108.398,-31.738,-83.008,-58.105,-12.695
1687767138.847,-98.145,-23.926,-77.637,-39.062,-0.488
1687767138.851,-78.125,-22.949,-78.613,-36.133,-108.887
1687767138.855,-82.031,-26.855,-70.801,-43.457,-145.020
1687767138.859,-81.055,-27.344,-50.293,-50.293,-62.500
1687767138.863,-85.938,-28.809,-37.109,-53.711,285.645
1687767138.833,-90.820,-28.320,-27.344,-58.594,178.711
1687767138.837,-88.867,-28.809,-16.113,-59.082,-127.441
1687767138.841,-84.473,-25.879,-18.555,-63.477,-7.324
1687767138.845,-77.148,-22.949,-24.414,-74.707,2.930
1687767138.849,-61.035,-17.090,-20.996,-60.059,-127.930
1687767138.853,-52.246,-18.066,-11.719,-64.453,-51.758
1687767138.857,-46.387,-24.902,-10.254,-64.453,134.277
1687767138.860,-40.527,-18.066,-3.418,-37.598,-1.465
1687767138.864,-35.156,-15.137,-16.602,-51.270,-175.781
1687767138.868,-31.250,-22.949,-51.758,-66.895,-170.410
1687767138.872,-38.574,-22.461,-76.660,-46.387,-20.020
1687767138.876,-35.645,-25.391,-83.496,-45.410,20.996
1687767138.865,-41.016,-26.367,-90.332,-67.383,-132.812
1687767138.869,-38.574,-16.602,-83.984,-63.477,-88.867
1687767138.873,-37.109,-21.973,-67.383,-64.941,32.715
1687767138.877,-44.434,-32.227,-65.430,-74.219,42.969
1687767138.881,-35.645,-25.879,-60.547,-66.406,67.871
1687767138.885,-30.273,-22.461,-49.316,-68.848,172.363
1687767138.889,-32.227,-27.344,-48.828,-74.219,215.820
1687767138.892,-32.715,-26.855,-49.316,-69.824,41.992
1687767138.896,-31.738,-28.320,-41.992,-57.617,-105.957
1687767138.900,-30.273,-34.668,-29.785,-42.969,-63.965
1687767138.904,-35.645,-38.086,-10.742,-54.199,268.555
1687767138.908,-56.152,-29.297,-4.883,-54.199,401.855
1687767138.913,-63.965,-30.762,2.930,-63.477,141.113
1687767138.917,-54.688,-38.574,22.461,-76.172,-138.184
1687767138.921,-41.992,-28.809,37.598,-59.082,-122.070
1687767138.925,-29.785,-16.113,47.363,-54.688,-127.441
1687767138.929,-41.504,-18.066,49.805,-57.129,-133.301
1687767138.933,-49.316,-23.926,58.105,-53.223,48.340
1687767138.937,-47.363,-24.414,66.406,-44.434,74.707
1687767138.940,-41.992,-21.484,77.637,-50.781,3.418
1687767138.944,-42.480,-16.602,85.449,-48.340,-120.605
1687767138.948,-38.086,-17.090,80.078,-37.109,31.738
1687767138.952,-41.992,-17.578,86.426,-58.105,214.355
1687767138.956,-41.504,-14.648,83.496,-63.477,-115.723
1687767139.030,-22.461,-16.113,82.520,-49.805,-244.141
1687767139.034,-18.555,-16.602,92.773,-53.711,-84.961
1687767139.038,-16.602,-13.672,90.820,-83.008,-96.680
1687767139.042,1.953,-4.395,84.473,-80.566,-171.875
1687767139.046,-0.977,0.488,75.684,-69.336,-87.891
1687767139.050,-21.484,0.000,76.660,-63.965,6.836
1687767139.054,-41.992,2.441,92.773,-66.406,-9.277
1687767139.057,-38.086,8.789,103.516,-52.734,-111.328
1687767139.061,-42.480,9.766,106.934,-37.598,-101.562
1687767139.065,-41.504,8.789,99.609,-29.297,219.238
1687767139.069,-30.273,10.742,98.633,-24.414,198.730
1687767139.073,-38.086,9.766,111.816,-13.672,-124.512
1687767139.045,-56.641,10.254,119.141,-25.391,-181.152
1687767139.049,-76.660,8.789,125.488,-48.340,-128.906
1687767139.053,-71.777,11.719,133.789,-42.480,-174.316
1687767139.057,-64.941,16.602,137.207,-31.250,-197.266
1687767139.061,-77.637,10.742,118.164,-58.105,6.348
1687767139.065,-96.191,5.859,112.305,-79.102,169.922
1687767139.069,-114.258,3.418,131.836,-90.332,6.836
1687767139.072,-115.723,-0.488,144.043,-85.449,-113.770
1687767139.076,-114.258,-2.441,142.090,-101.562,-28.809
1687767139.080,-120.605,-11.719,128.906,-129.883,-40.527
1687767139.084,-132.812,-16.602,122.070,-116.211,-89.355
1687767139.088,-128.906,-10.254,118.164,-121.582,-34.668
1687767139.123,-145.020,-3.418,118.164,-138.184,43.457
1687767139.127,-154.785,6.348,120.605,-125.488,-42.480
1687767139.131,-144.043,8.301,124.512,-115.723,-82.520
1687767139.135,-136.230,3.906,115.234,-115.234,0.977
1687767139.139,-131.836,10.742,108.887,-135.254,174.805
1687767139.143,-145.020,20.020,99.121,-141.602,94.238
1687767139.147,-155.273,22.461,88.867,-135.254,-81.055
1687767139.150,-166.504,22.949,93.262,-135.254,39.062
1687767139.154,-173.828,22.949,103.516,-112.305,106.934
1687767139.158,-172.852,16.602,102.051,-132.324,-104.492
1687767139.162,-156.738,17.578,95.703,-139.160,-194.336
1687767139.166,-154.297,11.719,105.469,-132.324,-100.098
1687767139.230,-171.387,-6.836,111.816,-156.738,24.414
1687767139.234,-162.109,-15.625,101.074,-142.578,23.926
1687767139.238,-148.926,-22.461,98.145,-128.418,-77.148
1687767139.242,-136.230,-30.273,125.488,-147.949,-20.996
1687767139.246,-133.301,-24.414,152.832,-134.766,380.371
1687767139.250,-133.789,-16.113,166.016,-107.910,456.055
1687767139.254,-106.445,-15.625,176.758,-104.980,83.008
1687767139.257,-81.543,-14.648,173.828,-103.516,20.508
1687767139.261,-98.633,-18.555,174.805,-104.004,-6.348
1687767139.265,-104.004,-22.461,186.523,-101.562,-185.059
1687767139.269,-86.426,-20.020,183.105,-67.871,-106.934
1687767139.273,-72.266,-18.066,182.617,-49.316,35.645
1687767139.234,-83.008,-22.461,176.758,-73.242,-76.660
1687767139.238,-79.102,-22.949,175.293,-64.453,-174.316
1687767139.242,-61.035,-13.672,179.688,-55.176,-154.297
1687767139.246,-39.551,-12.207,175.781,-66.406,9.277
1687767139.250,-38.086,-15.625,171.387,-60.547,-5.859
1687767139.254,-49.805,-15.137,190.918,-41.016,-92.285
1687767139.258,-59.082,-22.949,209.961,-31.738,-0.977
1687767139.261,-73.730,-28.809,210.449,-23.438,13.672
1687767139.265,-85.449,-31.250,217.773,-27.344,-90.820
1687767139.269,-71.289,-28.809,226.562,-38.086,-129.395
1687767139.273,-51.270,-22.949,236.816,-32.227,-119.629
1687767139.277,-51.758,-26.367,235.352,-31.250,-54.199
1687767139.273,-47.363,-32.227,229.004,-19.531,-63.477
1687767139.277,-43.457,-31.738,223.633,-11.230,-101.074
1687767139.281,-40.527,-26.855,218.750,-16.113,5.371
1687767139.285,-41.504,-32.227,199.707,-29.785,272.949
1687767139.289,-47.363,-39.062,184.570,-29.297,104.004
1687767139.293,-39.062,-41.992,186.035,-20.020,-125.000
1687767139.297,-35.156,-45.410,180.176,-29.297,-12.695
1687767139.300,-42.480,-44.922,162.598,-26.367,37.598
1687767139.304,-53.223,-47.852,151.855,-42.969,-105.469
1687767139.308,-41.504,-53.223,145.508,-50.293,-102.539
1687767139.312,-29.785,-51.758,138.672,-31.250,11.719
1687767139.316,-23.926,-48.828,133.789,-24.902,-61.035
1687767139.276,-4.395,-47.852,127.441,-22.461,-177.734
1687767139.280,-4.395,-46.387,132.812,-20.996,-67.871
1687767139.284,-13.184,-41.992,118.652,-25.879,123.047
1687767139.288,-17.578,-43.945,106.934,-25.391,23.438
1687767139.292,-22.461,-50.293,113.281,-28.809,-34.668
1687767139.296,-24.414,-56.152,104.980,-48.828,40.527
1687767139.300,-18.555,-56.641,96.680,-35.156,94.727
1687767139.303,-28.320,-53.711,95.703,-31.738,-19.531
1687767139.307,-25.391,-57.617,82.031,-52.246,-106.445
1687767139.311,-12.695,-62.988,67.871,-30.762,-104.492
1687767139.315,-11.719,-62.500,67.383,-51.270,-29.297
1687767139.319,-20.508,-64.941,72.754,-69.824,-31.738
1687767139.374,-17.578,-74.219,81.543,-43.945,-33.203
1687767139.378,-23.926,-77.148,89.355,-47.363,25.391
1687767139.382,-13.184,-67.383,84.473,-49.316,54.199
1687767139.386,-20.508,-68.848,85.449,-48.340,-35.645
1687767139.390,-29.785,-73.730,92.773,-49.316,-138.184
1687767139.394,-18.555,-70.312,97.656,-36.621,116.699
1687767139.398,-30.273,-74.219,97.656,-41.992,508.789
1687767139.401,-18.066,-65.918,107.910,-30.273,486.328
1687767139.405,-9.766,-60.059,107.422,-13.672,340.332
1687767139.409,-3.418,-63.477,99.609,-46.387,13.672
1687767139.413,13.672,-53.711,106.934,-45.410,-153.320
1687767139.417,2.930,-57.617,103.027,-44.922,-178.223
1687767139.379,-19.043,-63.965,90.820,-59.082,-169.434
1687767139.383,-22.461,-62.500,82.031,-70.801,-22.461
1687767139.387,-7.324,-59.570,83.496,-48.828,-126.465
1687767139.391,-10.742,-62.500,83.008,-36.621,-214.355
1687767139.395,-29.297,-66.406,79.102,-50.781,-114.258
1687767139.399,-27.832,-59.570,77.637,-46.875,252.441
1687767139.403,-27.344,-56.641,79.590,-29.297,528.320
1687767139.406,-8.789,-56.152,82.520,-23.438,146.973
1687767139.410,-2.930,-62.012,73.242,-49.805,-202.637
1687767139.414,-14.648,-65.918,66.406,-56.152,-76.660
1687767139.418,-14.648,-69.336,67.871,-58.594,-99.121
1687767139.422,-19.043,-71.777,64.453,-57.617,-241.211
1687767139.405,-20.020,-67.383,57.617,-50.781,-93.262
1687767139.409,-12.695,-68.359,48.828,-47.852,232.910
1687767139.413,-19.043,-71.777,48.828,-50.293,-47.363
1687767139.417,-22.461,-62.500,58.594,-52.734,-307.617
1687767139.421,-24.902,-60.059,59.570,-58.594,-99.609
1687767139.425,-32.715,-62.012,61.035,-38.574,35.156
1687767139.429,-31.250,-65.918,64.453,-26.367,-11.719
1687767139.432,-29.785,-68.848,63.965,-53.223,-101.074
1687767139.436,-30.762,-62.500,69.336,-46.875,-37.598
1687767139.440,-26.367,-62.012,69.824,-45.410,33.203
1687767139.444,-29.785,-63.477,62.500,-59.570,-78.125
1687767139.448,-34.668,-59.570,57.129,-51.758,-89.844
1687767139.420,-46.875,-58.594,50.781,-48.828,50.293
1687767139.424,-51.758,-54.688,49.316,-44.922,-112.793
1687767139.428,-42.480,-43.945,54.688,-45.898,-197.266
1687767139.432,-36.133,-46.875,53.711,-46.387,-9.277
1687767139.436,-36.621,-53.711,55.176,-42.480,66.895
1687767139.440,-43.945,-50.781,53.711,-50.293,41.016
1687767139.444,-48.340,-49.316,49.316,-64.941,-46.387
1687767139.447,-39.062,-43.945,50.293,-64.941,-97.168
1687767139.451,-41.016,-37.109,54.199,-32.715,222.656
1687767139.455,-46.387,-44.922,52.734,-35.645,486.816
1687767139.459,-47.363,-49.316,32.715,-55.176,395.508
1687767139.463,-40.527,-46.875,25.879,-59.082,56.641
1687767139.467,-28.320,-53.223,38.086,-70.801,-93.262
1687767139.471,-28.320,-51.270,39.062,-58.105,-141.113
1687767139.475,-26.855,-42.480,36.621,-63.477,-235.840
1687767139.479,-21.484,-51.270,41.992,-62.988,-88.867
1687767139.483,-30.762,-51.270,48.828,-42.969,144.531
1687767139.487,-55.176,-47.852,43.945,-37.109,-22.949
1687767139.491,-48.340,-45.898,41.016,-48.340,-99.609
1687767139.494,-39.551,-41.992,43.457,-53.711,89.844
1687767139.498,-40.527,-45.410,36.621,-46.387,231.445
1687767139.502,-39.551,-46.387,32.227,-61.035,-114.258
1687767139.506,-30.762,-41.992,26.855,-71.777,-221.191
1687767139.510,-32.715,-49.805,25.879,-64.941,-57.129
1687767139.525,-41.016,-58.594,33.691,-55.176,-115.723
1687767139.529,-48.340,-53.711,38.574,-68.848,-186.035
1687767139.533,-53.223,-54.688,38.086,-69.824,-152.832
1687767139.537,-53.223,-61.523,28.809,-65.430,-30.762
1687767139.541,-62.500,-63.965,24.414,-73.730,-8.301
1687767139.545,-52.734,-59.570,30.273,-67.871,-4.395
1687767139.549,-45.898,-63.477,23.926,-66.895,16.113
1687767139.552,-51.270,-63.965,20.996,-61.035,275.879
1687767139.556,-49.316,-49.316,25.391,-44.434,392.578
1687767139.560,-37.598,-43.457,27.832,-42.480,-6.348
1687767139.564,-21.484,-54.199,27.344,-50.781,-170.898
1687767139.568,-30.273,-54.688,28.809,-56.641,-101.562
1687767139.586,-23.926,-49.805,27.832,-69.336,-161.133
1687767139.590,-25.879,-51.758,27.832,-77.148,-126.465
1687767139.594,-24.414,-52.734,28.809,-75.195,-15.137
1687767139.598,-13.184,-61.035,23.438,-55.176,20.508
1687767139.602,-48.340,-67.871,23.438,-56.641,-82.520
1687767139.606,-67.383,-58.594,27.832,-71.777,-41.016
1687767139.610,-55.176,-50.781,20.996,-66.406,80.566
1687767139.613,-42.480,-50.781,6.836,-58.105,-5.859
1687767139.617,-34.668,-48.828,1.953,-62.500,-130.859
1687767139.621,-41.016,-50.293,3.906,-67.871,-129.395
1687767139.625,-61.035,-54.199,-1.465,-74.219,60.547
1687767139.629,-59.082,-49.316,-0.977,-62.012,265.625
1687767139.600,-49.316,-48.340,2.441,-53.223,-79.102
1687767139.604,-43.945,-49.805,-1.953,-60.547,-211.426
1687767139.608,-34.668,-48.340,-4.883,-59.570,-14.648
1687767139.612,-38.086,-45.898,-4.395,-68.359,-66.895
1687767139.616,-32.715,-41.504,-1.465,-63.965,-72.266
1687767139.620,-32.715,-45.410,-1.465,-49.805,30.762
1687767139.624,-45.898,-45.898,0.488,-59.082,136.719
1687767139.627,-38.086,-41.016,5.371,-50.781,-31.250
1687767139.631,-27.832,-41.016,11.719,-44.922,-212.891
1687767139.635,-25.879,-41.504,5.371,-82.031,-188.965
1687767139.639,-18.066,-42.969,5.859,-82.520,-101.562
1687767139.643,-8.301,-44.922,20.508,-54.688,-127.930
1687767139.678,-37.598,-48.828,28.320,-60.547,-99.121
1687767139.682,-59.082,-44.922,42.480,-60.547,-51.270
1687767139.686,-34.180,-41.016,41.992,-38.086,312.988
1687767139.690,-25.879,-49.805,32.227,-42.480,305.664
1687767139.694,-6.836,-45.410,37.598,-57.617,-80.078
1687767139.698,-4.883,-42.480,38.086,-46.875,27.832
1687767139.702,-67.383,-55.176,25.879,-39.062,78.613
1687767139.705,-93.262,-53.711,24.414,-35.645,-124.023
1687767139.709,-67.871,-49.316,35.156,-39.062,-152.832
1687767139.713,-64.453,-52.246,29.297,-46.387,0.000
1687767139.717,-48.828,-46.875,24.902,-45.898,-21.484
1687767139.721,-25.391,-40.039,27.832,-29.297,-74.219
1687767139.735,-31.250,-47.363,23.438,-38.086,-65.918
1687767139.739,-18.555,-45.898,15.625,-44.434,85.449
1687767139.743,-12.695,-41.016,12.207,-57.129,147.461
1687767139.747,-23.926,-43.945,12.695,-70.801,-81.055
1687767139.751,-26.367,-39.551,13.184,-47.363,-73.730
1687767139.755,-22.949,-48.340,17.090,-52.246,93.750
1687767139.759,-18.555,-55.176,23.438,-60.059,-42.480
1687767139.762,-29.785,-49.316,14.648,-51.758,-178.223
1687767139.766,-12.207,-51.758,10.742,-34.180,-111.328
1687767139.770,-3.418,-49.805,9.766,-18.066,-39.062
1687767139.774,-20.020,-48.828,12.695,-34.668,-116.211
1687767139.778,-27.344,-46.875,22.949,-48.340,-178.711
1687767139.740,-17.090,-43.457,22.949,-46.875,-105.469
1687767139.744,-3.418,-44.922,16.113,-41.504,274.902
1687767139.748,-1.465,-42.969,21.973,-41.992,312.988
1687767139.752,-4.883,-43.945,32.227,-65.918,-81.543
1687767139.756,-2.441,-47.852,31.738,-52.734,-70.312
1687767139.760,3.418,-42.969,15.137,-47.363,125.488
1687767139.764,17.578,-41.992,13.672,-56.641,-9.277
1687767139.767,8.789,-41.016,26.367,-52.734,-109.863
1687767139.771,-24.414,-49.316,20.996,-52.246,4.395
1687767139.775,-27.344,-56.641,17.090,-50.781,-31.250
1687767139.779,-14.648,-51.758,18.555,-59.082,-106.445
1687767139.783,-13.672,-51.758,28.320,-45.898,-57.617
1687767139.810,-23.926,-44.922,26.367,-41.504,23.926
1687767139.814,-34.668,-44.434,17.090,-41.504,-20.996
1687767139.818,-38.574,-50.781,38.574,-29.785,-133.789
1687767139.822,-18.066,-43.945,45.410,-25.879,-175.781
1687767139.826,-4.395,-33.691,28.320,-17.578,156.738
1687767139.830,6.836,-27.832,-4.395,2.930,459.961
1687767139.834,-7.812,-42.969,3.418,-19.531,181.641
1687767139.837,-45.410,-59.570,57.617,-69.824,-52.734
1687767139.841,-46.875,-55.664,75.684,-60.059,-58.594
1687767139.845,-28.320,-51.758,70.312,-52.246,-92.773
1687767139.849,-15.137,-52.734,86.914,-68.359,-155.762
1687767139.853,-4.883,-48.340,99.121,-59.570,-82.520
1687767139.885,-33.691,-38.086,105.957,-43.457,112.305
1687767139.889,-47.363,-30.273,140.137,-67.871,-107.910
1687767139.893,-30.273,-33.203,169.434,-88.867,-160.645
1687767139.897,-36.621,-30.273,176.758,-75.684,-29.297
1687767139.901,-63.477,-31.250,188.477,-88.867,-81.543
1687767139.905,-59.570,-35.156,200.684,-83.008,-58.594
1687767139.909,-42.480,-32.227,201.660,-82.520,52.734
1687767139.912,-48.828,-31.250,197.754,-81.055,69.824
1687767139.916,-52.246,-37.109,197.266,-61.523,29.297
1687767139.920,-19.531,-35.156,187.500,-68.359,37.109
1687767139.924,2.441,-27.344,179.199,-74.219,-52.734
1687767139.928,-49.805,-34.668,173.340,-62.988,144.043
1687767139.964,-72.754,-39.062,171.875,-41.016,304.688
1687767139.968,-45.410,-41.992,168.457,-40.527,-37.109
1687767139.972,-36.621,-42.969,144.043,-36.133,-110.840
1687767139.976,-53.711,-34.668,117.676,-45.898,-15.137
1687767139.980,-56.641,-35.645,93.750,-64.941,-9.277
1687767139.984,-34.180,-34.668,66.406,-55.176,5.859
1687767139.988,-18.555,-31.738,77.148,-22.949,79.590
1687767139.991,-32.227,-32.715,108.398,-28.320,136.230
1687767139.995,-39.551,-31.250,127.441,-47.852,-54.199
1687767139.999,-37.598,-35.156,133.301,-41.504,-157.227
1687767140.003,-39.551,-36.621,124.512,-44.922,-127.441
1687767140.007,-31.250,-28.809,110.352,-40.527,-45.410
1687767140.111,-31.250,-27.832,101.074,-26.367,-21.484
1687767140.115,-25.879,-28.809,86.426,-44.434,-160.156
1687767140.119,-30.762,-27.344,63.477,-56.152,-62.988
1687767140.123,-29.785,-31.738,45.410,-16.113,179.199
1687767140.127,-36.133,-34.668,42.480,-19.531,-4.883
1687767140.131,-40.039,-34.180,34.180,-48.828,-51.270
1687767140.135,-37.109,-34.668,30.273,-41.504,137.207
1687767140.138,-43.945,-33.203,27.832,-30.273,98.145
1687767140.142,-46.875,-35.645,9.766,-41.504,-105.957
1687767140.146,-37.109,-37.598,0.977,-48.828,-143.066
1687767140.150,-20.996,-36.133,0.000,-40.527,89.844
1687767140.154,-11.230,-30.762,-12.207,-54.688,25.879
1687767140.115,2.930,-28.320,-22.949,-71.289,-209.473
1687767140.119,0.000,-28.809,-30.762,-56.641,-164.551
1687767140.123,-21.484,-28.809,-30.762,-41.504,12.207
1687767140.127,-37.598,-30.273,-31.738,-43.945,-11.719
1687767140.131,-44.434,-36.133,-38.574,-43.945,-134.277
1687767140.135,-43.457,-44.922,-36.133,-44.922,-6.836
1687767140.139,-49.316,-54.688,-22.461,-43.945,246.094
1687767140.142,-47.852,-65.430,-14.160,-39.551,28.320
1687767140.146,-41.992,-73.730,-11.719,-31.738,-133.301
1687767140.150,-66.895,-61.035,-22.461,-56.152,-70.312
1687767140.154,-79.102,-46.875,-24.414,-84.961,115.723
1687767140.158,-88.379,-46.875,-10.742,-94.727,37.109
1687767140.120,-109.863,-42.969,-14.160,-126.953,-131.348
1687767140.124,-129.395,-43.457,-22.949,-153.809,0.000
1687767140.128,-165.527,-46.387,-27.832,-168.457,270.020
1687767140.132,-177.734,-51.758,-29.297,-206.543,106.445
1687767140.136,-190.918,-54.199,-24.414,-231.445,-24.902
1687767140.140,-219.238,-51.758,-25.391,-253.418,112.793
1687767140.144,-228.027,-52.734,-37.109,-277.832,85.449
1687767140.147,-233.887,-42.969,-36.133,-291.016,-112.305
1687767140.151,-229.980,-37.109,-19.043,-314.453,-118.164
1687767140.155,-220.215,-36.621,-18.066,-312.988,59.082
1687767140.159,-257.812,-24.414,-22.949,-297.852,53.711
1687767140.163,-263.184,-16.602,-25.879,-317.383,-120.605
1687767140.150,-272.461,-16.113,-36.621,-318.359,-118.164
1687767140.154,-283.691,-5.371,-54.688,-319.336,104.492
1687767140.158,-267.090,6.836,-68.848,-333.984,56.641
1687767140.162,-278.809,9.277,-76.172,-358.398,-67.871
1687767140.166,-285.645,5.371,-83.496,-364.746,66.406
1687767140.170,-275.879,10.742,-88.379,-336.914,125.977
1687767140.174,-277.832,13.184,-92.773,-337.402,32.227
1687767140.177,-273.438,14.648,-92.773,-323.730,41.992
1687767140.181,-253.906,31.250,-95.703,-292.969,60.547
1687767140.185,-245.605,39.062,-101.074,-291.016,-2.441
1687767140.189,-238.770,19.531,-110.840,-314.453,-136.719
1687767140.193,-222.168,12.207,-122.559,-323.730,-168.945
1687767140.158,-200.684,21.484,-126.953,-302.246,-5.859
1687767140.162,-177.734,20.020,-125.000,-254.395,131.836
1687767140.166,-148.438,22.949,-122.070,-226.562,6.348
1687767140.170,-116.699,19.043,-129.395,-228.027,-153.809
1687767140.174,-114.746,10.254,-134.766,-223.633,-57.129
1687767140.178,-141.113,12.695,-134.277,-188.965,334.961
1687767140.182,-159.668,10.254,-141.113,-167.969,114.746
1687767140.185,-122.559,8.789,-137.695,-145.020,-118.164
1687767140.189,-56.641,20.508,-135.742,-114.746,76.172
1687767140.193,-43.945,7.812,-142.578,-121.582,-43.457
1687767140.197,-46.875,-18.066,-139.648,-99.121,-207.031
1687767140.201,-24.902,-26.855,-125.977,-72.754,-115.234
1687767140.261,-19.531,-25.391,-116.699,-69.824,-3.906
1687767140.265,-8.301,-28.809,-114.258,-54.688,-83.008
1687767140.269,17.090,-37.598,-99.121,-30.762,-179.199
1687767140.273,25.879,-40.527,-88.867,-16.602,-136.719
1687767140.277,39.551,-40.039,-87.891,21.973,194.336
1687767140.281,64.453,-41.016,-77.637,42.969,397.949
1687767140.285,67.383,-50.781,-86.914,37.109,442.871
1687767140.288,69.336,-65.430,-85.449,61.523,311.035
1687767140.292,72.754,-62.988,-64.941,54.688,-136.230
1687767140.296,81.543,-57.129,-57.129,37.598,-188.477
1687767140.300,90.820,-63.477,-42.480,42.969,-139.160
1687767140.304,86.914,-66.895,-38.574,50.293,-94.238
1687767140.305,103.027,-66.895,-45.410,81.543,212.891
1687767140.309,127.930,-65.430,-46.387,82.031,247.070
1687767140.313,130.859,-59.082,-38.574,77.148,-160.645
1687767140.317,152.344,-56.641,-29.785,84.961,-139.160
1687767140.321,160.645,-56.152,-32.227,78.613,31.738
1687767140.325,109.375,-62.988,-40.527,75.195,-49.316
1687767140.329,58.594,-71.289,-38.574,72.266,-47.363
1687767140.332,41.504,-71.289,-25.879,60.059,-51.270
1687767140.336,54.688,-66.406,-23.926,68.359,-99.121
1687767140.340,70.312,-68.359,-37.598,90.820,-176.758
1687767140.344,73.242,-76.660,-40.039,75.195,-153.809
1687767140.348,80.078,-79.590,-34.668,55.664,-50.781
1687767140.324,74.707,-74.219,-24.902,73.730,-99.609
1687767140.328,78.125,-72.266,-21.484,90.332,-108.887
1687767140.332,86.426,-70.801,-32.227,77.148,-110.352
1687767140.336,78.125,-69.336,-37.109,66.895,-26.855
1687767140.340,75.195,-67.383,-31.250,65.430,-4.883
1687767140.344,72.266,-66.406,-35.156,57.617,-80.078
1687767140.348,68.848,-69.824,-35.645,49.805,11.230
1687767140.351,75.195,-65.918,-32.715,59.570,181.152
1687767140.355,82.031,-70.312,-28.320,62.500,-33.203
1687767140.359,71.777,-80.078,-27.832,48.340,-261.719
1687767140.363,72.754,-73.242,-24.902,54.199,-148.926
1687767140.367,63.477,-72.754,-24.902,52.246,-48.828
1687767140.329,65.430,-73.242,-17.090,34.180,-99.609
1687767140.333,56.641,-66.895,-4.883,30.762,-129.395
1687767140.337,49.805,-72.266,-11.719,41.016,-69.824
1687767140.341,45.410,-73.242,-10.742,37.598,16.113
1687767140.345,55.664,-73.242,-3.906,20.996,-20.508
1687767140.349,58.594,-75.684,-5.859,20.996,16.113
1687767140.353,49.805,-71.777,-9.766,22.949,168.457
1687767140.356,57.617,-70.801,-13.184,36.621,401.855
1687767140.360,62.012,-68.359,-9.277,30.273,422.852
1687767140.364,49.316,-63.477,-5.371,26.855,63.477
1687767140.368,36.133,-63.965,-2.930,34.668,-10.254
1687767140.372,23.926,-68.848,-3.906,21.973,-100.586
1687767140.350,11.230,-70.312,-3.418,20.996,-242.188
1687767140.354,20.020,-69.824,2.441,20.508,-153.320
1687767140.358,18.066,-70.801,-3.418,15.137,-24.414
1687767140.362,20.508,-75.195,-2.930,15.137,-48.828
1687767140.366,43.457,-72.754,3.906,8.789,-60.547
1687767140.370,27.344,-66.895,0.488,18.066,9.277
1687767140.374,5.859,-75.195,-6.836,23.926,225.098
1687767140.377,7.324,-75.195,-4.395,15.625,74.219
1687767140.381,13.184,-73.242,1.465,16.602,-134.766
1687767140.385,12.695,-79.102,1.465,7.812,-76.660
1687767140.389,6.348,-79.590,-7.812,-0.488,188.477
1687767140.393,-6.348,-82.031,-17.578,-2.441,321.777
1687767140.396,-1.953,-81.055,-5.371,2.930,321.289
1687767140.400,15.137,-72.266,8.301,-4.883,152.832
1687767140.404,19.043,-73.730,-5.371,-20.020,-108.887
1687767140.408,17.578,-77.148,-13.184,-6.836,-138.184
1687767140.412,18.066,-70.801,4.395,1.953,-139.160
1687767140.416,-3.906,-74.219,4.395,-8.789,91.797
1687767140.420,6.836,-77.148,4.883,0.000,232.422
1687767140.423,-1.465,-78.125,4.395,-7.324,-20.508
1687767140.427,-22.461,-77.637,-0.488,-15.137,-132.324
1687767140.431,-2.930,-71.777,2.930,-13.184,11.719
1687767140.435,-14.160,-70.312,11.719,-20.020,14.160
1687767140.439,-41.016,-72.266,17.578,-13.672,-190.430
1687767140.500,-43.945,-71.289,14.160,-10.254,-188.477
1687767140.504,-41.504,-75.684,4.883,-12.695,-126.953
1687767140.508,-41.992,-81.543,-0.488,-2.441,-170.410
1687767140.512,-29.785,-66.406,1.953,-16.602,-170.410
1687767140.516,9.766,-54.199,-5.859,-9.766,-74.707
1687767140.520,4.883,-61.035,-16.113,6.348,121.094
1687767140.524,-27.344,-74.219,-4.395,-7.812,33.203
1687767140.527,-48.340,-81.543,7.812,-32.715,-97.656
1687767140.531,-47.363,-80.078,8.789,-39.062,-69.824
1687767140.535,-29.297,-80.566,5.371,-30.273,-58.105
1687767140.539,-10.254,-82.520,5.859,-46.387,-75.684
1687767140.543,1.953,-78.613,3.418,-55.176,-111.816
1687767140.506,16.113,-72.266,-0.977,-35.645,-98.145
1687767140.510,13.672,-73.242,-4.883,-18.555,-0.977
1687767140.514,-10.742,-76.660,-3.906,-38.574,-47.363
1687767140.518,0.977,-76.660,-5.859,-35.645,-108.398
1687767140.522,-5.371,-72.266,-4.395,-14.648,37.598
1687767140.526,-32.227,-72.266,4.395,-18.066,216.797
1687767140.530,-27.344,-70.312,7.324,-7.324,105.469
1687767140.533,-33.691,-67.383,2.930,-0.488,-52.734
1687767140.537,-50.781,-68.848,0.000,-12.207,140.625
1687767140.541,-42.480,-68.359,2.930,-3.906,185.547
1687767140.545,-20.996,-65.918,1.465,-13.184,-113.770
1687767140.549,-16.602,-64.941,-3.906,-28.320,-120.605
1687767140.561,-25.391,-65.430,-6.348,-28.809,-48.828
1687767140.565,-31.250,-63.477,-8.301,-28.320,-51.758
1687767140.569,-37.109,-57.129,-11.230,-25.391,-133.301
1687767140.573,-50.781,-62.500,-16.602,-36.621,-87.891
1687767140.577,-42.969,-62.012,-9.766,-46.875,131.348
1687767140.581,-46.387,-64.941,-2.930,-45.898,69.824
1687767140.585,-49.805,-74.219,-10.742,-48.828,-20.996
1687767140.588,-26.367,-71.777,-8.301,-25.879,42.969
1687767140.592,-23.926,-68.359,-11.230,-19.531,212.891
1687767140.596,-34.180,-61.035,-19.531,-12.695,343.262
1687767140.600,-26.367,-56.152,-19.531,-19.043,228.027
1687767140.604,-21.973,-51.758,-15.625,-44.922,-67.871
1687767140.621,-18.555,-53.711,-13.672,-55.176,-159.180
1687767140.625,-14.160,-50.293,-13.672,-59.082,-109.375
1687767140.629,-20.508,-48.828,-11.230,-43.457,-104.492
1687767140.633,-22.949,-55.176,-9.277,-51.270,-8.301
1687767140.637,-35.645,-48.340,-6.836,-46.875,6.348
1687767140.641,-50.781,-45.898,-6.836,-34.668,-82.520
1687767140.645,-61.523,-50.293,-11.230,-40.527,-42.480
1687767140.648,-60.547,-48.828,-15.137,-33.691,20.020
1687767140.652,-57.129,-46.387,-16.602,-32.227,-44.434
1687767140.656,-47.363,-47.363,-11.230,-42.480,-123.047
1687767140.660,-42.480,-50.293,-7.812,-44.922,-144.531
1687767140.664,-45.898,-49.316,-12.207,-38.086,91.309
1687767140.634,-55.664,-49.805,-13.184,-28.320,263.672
1687767140.638,-54.688,-52.246,-7.324,-35.156,-81.543
1687767140.642,-55.176,-48.828,-11.230,-58.105,-152.344
1687767140.646,-43.945,-44.922,-15.625,-51.270,25.391
1687767140.650,-37.598,-47.852,-18.066,-41.992,0.000
1687767140.654,-41.504,-52.246,-24.414,-53.711,-65.918
1687767140.658,-38.086,-50.293,-25.391,-47.363,30.273
1687767140.661,-41.992,-50.781,-15.625,-37.598,122.559
1687767140.665,-34.180,-44.922,-4.883,-47.852,-5.859
1687767140.669,-34.668,-45.410,-10.254,-53.711,-100.098
1687767140.673,-45.898,-50.781,-14.648,-52.246,-109.375
1687767140.677,-42.480,-52.246,-7.812,-49.316,-95.215
1687767140.726,-29.297,-51.270,-4.883,-51.270,-112.305
1687767140.730,-36.621,-44.922,-0.488,-49.805,-157.715
1687767140.734,-54.688,-55.664,-2.441,-44.434,-110.352
1687767140.738,-68.848,-58.105,-7.324,-39.062,294.434
1687767140.742,-78.125,-45.410,-9.766,-32.715,294.434
1687767140.746,-65.430,-45.410,-1.953,-55.664,-61.523
1687767140.750,-61.523,-46.387,4.395,-57.129,181.152
1687767140.753,-67.383,-44.434,-4.395,-41.992,324.219
1687767140.757,-62.988,-41.992,-3.906,-46.387,1.953
1687767140.761,-68.359,-40.527,4.883,-47.852,-112.305
1687767140.765,-71.289,-45.898,-2.930,-41.504,2.930
1687767140.769,-65.430,-51.758,-4.395,-45.898,-47.852
1687767140.731,-68.359,-50.293,0.488,-58.594,-147.461
1687767140.735,-65.918,-49.805,-1.465,-53.223,-86.914
1687767140.739,-68.848,-50.293,-4.883,-54.688,13.184
1687767140.743,-66.895,-48.340,-3.906,-54.199,-43.945
1687767140.747,-73.730,-50.293,-5.859,-53.711,-9.766
1687767140.751,-75.684,-49.316,-16.602,-70.801,62.012
1687767140.755,-69.336,-46.387,-17.090,-65.430,108.887
1687767140.758,-65.430,-43.945,-17.578,-64.453,-31.738
1687767140.762,-66.406,-47.852,-26.855,-58.105,-208.496
1687767140.766,-63.477,-50.781,-27.344,-52.734,-181.641
1687767140.770,-69.336,-56.152,-30.762,-63.965,11.230
1687767140.774,-88.867,-55.176,-31.738,-68.359,-47.363
1687767140.788,-80.078,-50.781,-26.855,-62.988,-142.578
1687767140.792,-79.102,-48.828,-27.832,-65.430,-34.668
1687767140.796,-73.242,-47.363,-32.715,-62.012,-10.254
1687767140.800,-68.848,-47.363,-33.203,-44.922,-95.215
1687767140.804,-82.031,-44.922,-31.738,-52.246,-192.383
1687767140.808,-71.289,-45.410,-29.785,-51.758,36.133
1687767140.812,-78.125,-43.945,-28.809,-31.250,490.723
1687767140.815,-73.242,-45.410,-40.039,-39.551,426.758
1687767140.819,-66.406,-49.316,-44.434,-56.641,50.781
1687767140.823,-83.008,-48.828,-38.086,-68.359,-60.547
1687767140.827,-71.777,-49.316,-39.062,-63.965,-147.461
1687767140.831,-75.684,-50.781,-42.969,-43.457,-210.938
1687767140.829,-84.961,-53.711,-48.340,-36.133,-105.957
1687767140.833,-68.359,-44.922,-46.387,-51.758,28.809
1687767140.837,-82.031,-40.039,-41.504,-67.871,-35.645
1687767140.841,-88.867,-43.945,-45.410,-58.594,-131.348
1687767140.845,-79.590,-42.480,-47.363,-69.336,-23.438
1687767140.849,-83.984,-42.969,-47.363,-65.430,56.641
1687767140.853,-84.473,-43.457,-45.410,-53.223,-29.297
1687767140.856,-71.289,-44.434,-41.016,-41.504,-129.395
1687767140.860,-55.176,-47.363,-33.203,-41.504,-97.168
1687767140.864,-58.105,-42.480,-31.738,-44.434,222.168
1687767140.868,-74.219,-47.363,-32.227,-34.668,369.141
1687767140.872,-85.449,-53.711,-35.645,-34.180,-23.438
1687767140.877,-66.895,-54.199,-39.551,-37.109,-123.047
1687767140.881,-52.246,-52.734,-38.574,-42.969,-117.676
1687767140.885,-56.152,-50.781,-41.504,-45.898,-151.367
1687767140.889,-56.641,-59.570,-36.133,-42.969,-139.160
1687767140.893,-76.172,-64.453,-33.203,-52.734,-60.547
1687767140.897,-86.426,-57.617,-41.016,-64.941,96.680
1687767140.901,-68.848,-55.664,-37.109,-52.246,19.531
1687767140.904,-74.219,-54.199,-37.598,-38.574,-82.031
1687767140.908,-74.707,-51.758,-40.527,-52.734,36.133
1687767140.912,-60.059,-49.805,-37.109,-47.852,129.883
1687767140.916,-67.383,-50.293,-36.621,-33.203,-110.352
1687767140.920,-55.664,-46.387,-37.109,-30.762,-195.312
1687767140.935,-53.223,-41.016,-41.504,-44.922,-125.000
1687767140.939,-57.129,-40.527,-45.898,-67.871,-168.945
1687767140.943,-50.293,-40.527,-45.410,-67.871,-214.355
1687767140.947,-38.086,-40.527,-39.551,-53.223,-70.801
1687767140.951,-44.922,-44.434,-39.551,-45.898,102.539
1687767140.955,-47.363,-49.805,-48.340,-36.621,18.066
1687767140.959,-41.504,-45.898,-50.781,-57.129,-44.434
1687767140.962,-43.457,-35.156,-45.898,-57.617,-1.953
1687767140.966,-44.434,-38.574,-45.898,-52.246,303.711
1687767140.970,-49.805,-43.945,-45.410,-60.547,343.262
1687767140.974,-53.223,-43.457,-40.527,-57.129,-81.543
1687767140.978,-50.781,-43.457,-36.621,-57.129,-174.316
1687767140.995,-33.203,-38.574,-38.086,-60.547,-98.633
1687767140.999,-21.973,-38.574,-41.992,-62.500,-112.305
1687767141.003,-30.273,-41.504,-42.969,-63.965,-142.578
1687767141.007,-32.227,-41.016,-45.410,-70.312,-151.367
1687767141.011,-20.508,-35.645,-42.480,-67.871,-146.484
1687767141.015,-25.391,-39.551,-41.992,-74.219,-75.195
1687767141.019,-22.949,-39.551,-41.504,-81.055,9.277
1687767141.022,-29.297,-36.133,-37.598,-51.270,86.426
1687767141.026,-35.156,-44.922,-34.668,-50.293,-30.762
1687767141.030,-17.578,-45.410,-32.715,-58.105,-113.770
1687767141.034,-12.695,-46.875,-32.227,-36.621,-83.496
1687767141.038,-12.207,-49.805,-35.645,-41.504,153.320
1687767141.058,-6.348,-46.387,-36.621,-50.781,313.477
1687767141.062,-8.301,-43.457,-33.691,-43.457,-54.688
1687767141.066,-15.625,-44.434,-39.551,-43.457,-124.512
1687767141.070,-12.695,-49.805,-45.898,-57.617,-56.152
1687767141.074,5.371,-48.340,-39.062,-55.664,-58.105
1687767141.078,28.320,-44.922,-34.668,-51.758,17.090
1687767141.082,25.879,-49.805,-39.551,-72.754,43.945
1687767141.085,-7.324,-48.828,-37.598,-69.336,24.414
1687767141.089,-18.066,-47.852,-34.668,-55.664,-118.164
1687767141.093,0.977,-49.316,-39.551,-46.875,-164.551
1687767141.097,10.742,-48.340,-46.387,-47.363,-4.883
1687767141.101,8.301,-48.828,-45.898,-62.988,196.289
1687767141.065,-20.020,-50.781,-44.434,-64.941,18.555
1687767141.069,-38.574,-49.805,-50.293,-56.641,-128.906
1687767141.073,-36.621,-50.781,-48.828,-39.551,3.906
1687767141.077,-45.898,-47.852,-43.457,-36.133,80.566
1687767141.081,-42.969,-46.387,-41.504,-53.223,-59.570
1687767141.085,-35.645,-46.387,-45.410,-46.387,-52.734
1687767141.089,-34.180,-41.992,-54.688,-54.199,21.484
1687767141.092,-32.227,-39.062,-69.336,-65.918,-16.602
1687767141.096,-13.672,-43.457,-64.941,-41.992,-49.316
1687767141.100,-27.832,-48.828,-40.527,-32.227,-75.195
1687767141.104,-56.152,-54.199,-27.832,-58.594,22.461
1687767141.108,-63.965,-58.105,-24.414,-64.453,11.719
1687767141.130,-60.547,-61.035,-14.160,-66.895,-9.277
1687767141.134,-73.730,-67.383,-7.812,-72.266,-13.672
1687767141.138,-84.473,-70.312,-3.418,-90.332,44.922
1687767141.142,-92.285,-68.848,-1.953,-98.633,1.953
1687767141.146,-101.074,-73.730,6.348,-90.820,-64.453
1687767141.150,-111.328,-81.543,18.066,-98.145,27.832
1687767141.154,-106.934,-85.449,24.414,-81.543,348.633
1687767141.157,-97.168,-89.355,26.367,-78.613,429.199
1687767141.161,-103.516,-90.820,22.461,-79.590,423.828
1687767141.165,-98.633,-95.703,20.508,-56.641,295.410
1687767141.169,-92.285,-97.168,23.438,-72.266,-134.766
1687767141.173,-84.961,-100.586,20.996,-79.590,-161.133
1687767141.178,-78.613,-104.980,20.996,-49.316,-116.211
1687767141.182,-85.449,-101.074,24.902,-47.852,-204.590
1687767141.186,-86.914,-96.191,35.645,-40.527,-155.273
1687767141.190,-81.055,-94.727,34.180,-21.973,-127.930
1687767141.194,-67.383,-98.145,17.090,-16.113,-133.301
1687767141.198,-48.340,-95.703,11.230,-7.324,-29.785
1687767141.202,-42.480,-89.355,7.812,-17.578,-83.496
1687767141.205,-33.203,-82.520,1.465,-27.344,-154.297
1687767141.209,-20.020,-71.777,-1.465,-31.250,-154.785
1687767141.213,-8.301,-70.801,0.488,-37.109,-22.949
1687767141.217,-7.812,-66.406,4.883,-33.203,-22.461
1687767141.221,-41.016,-62.500,3.418,-20.508,-182.617
1687767141.234,-57.129,-64.941,-3.418,-31.738,-128.418
1687767141.238,-42.969,-62.012,-6.836,-32.715,163.574
1687767141.242,-34.668,-55.664,-8.301,-16.113,231.445
1687767141.246,-22.461,-53.223,-7.812,-26.855,-22.949
1687767141.250,-13.672,-52.734,-11.719,-20.996,22.461
1687767141.254,-7.324,-53.223,-14.160,-17.578,197.266
1687767141.258,-1.465,-47.852,-7.324,-13.184,85.938
1687767141.261,5.859,-45.898,-7.812,-0.488,-88.867
1687767141.265,-4.883,-44.434,-11.719,-9.766,-99.121
1687767141.269,-15.625,-44.434,-15.137,-23.926,-41.016
1687767141.273,-24.902,-41.016,-11.230,-33.691,-100.586
1687767141.277,-14.648,-38.086,-10.254,-30.762,-160.645
1687767141.241,-5.859,-43.457,-11.719,-29.297,-88.379
1687767141.245,-20.996,-46.387,-5.859,-13.184,295.898
1687767141.249,-23.438,-43.457,-10.742,-6.836,349.121
1687767141.253,-29.785,-44.434,-19.043,-22.461,-4.883
1687767141.257,-37.598,-42.969,-18.066,-30.273,-56.152
1687767141.261,-27.344,-35.645,-21.484,-26.367,9.766
1687767141.265,-3.418,-27.344,-15.137,-22.461,-5.371
1687767141.268,-13.672,-30.273,-8.789,-20.996,1.953
1687767141.272,-20.996,-33.203,-17.578,-30.273,46.875
1687767141.276,-15.625,-33.203,-12.207,-31.738,-13.184
1687767141.280,-25.879,-32.715,-13.184,-28.809,-127.930
1687767141.284,-19.043,-22.461,-23.438,-28.809,-88.867
1687767141.294,16.602,-17.090,-17.578,-19.043,27.832
1687767141.298,14.648,-18.066,-9.766,-13.672,-40.527
1687767141.302,-18.555,-20.996,-11.230,-19.043,-153.320
1687767141.306,-39.062,-22.949,-10.254,-14.160,-94.238
1687767141.310,-36.621,-22.949,-12.207,-5.371,199.707
1687767141.314,-33.203,-19.531,-9.766,0.977,462.402
1687767141.318,-30.762,-16.602,-11.230,-3.906,237.305
1687767141.321,-27.832,-17.090,-16.602,-2.441,-44.922
1687767141.325,-29.297,-20.996,-10.742,5.859,-26.855
1687767141.329,-20.996,-18.555,-20.020,-20.996,1.465
1687767141.333,-22.949,-14.648,-25.391,-19.531,-124.512
1687767141.337,-14.160,-10.254,-12.207,-10.254,-157.715
1687767141.343,-8.789,-13.184,-21.973,-9.766,99.609
1687767141.347,-0.977,-17.578,-30.762,-16.602,-11.719
1687767141.351,0.000,-16.113,-28.320,-22.461,-132.324
1687767141.355,-24.414,-21.484,-32.227,-36.621,-73.242
1687767141.359,-31.250,-30.762,-33.691,-38.574,-128.906
1687767141.363,-49.805,-26.855,-35.156,-35.156,-13.184
1687767141.367,-72.754,-27.344,-31.250,-37.598,74.219
1687767141.370,-57.129,-31.738,-26.855,-29.297,145.508
1687767141.374,-49.316,-28.809,-30.273,-5.859,212.402
1687767141.378,-45.410,-29.785,-24.902,-10.254,-29.297
1687767141.382,-40.039,-34.180,-27.832,-14.648,-100.098
1687767141.386,-38.574,-36.621,-37.109,-10.742,31.738
1687767141.415,-47.852,-41.992,-32.715,-18.066,20.996
1687767141.419,-36.133,-40.527,-29.297,-26.367,-115.234
1687767141.423,-22.949,-37.598,-32.715,-44.434,-77.148
1687767141.427,-17.090,-36.133,-31.738,-34.180,81.543
1687767141.431,-1.465,-33.691,-19.531,-6.348,56.152
1687767141.435,-19.531,-37.109,-16.113,-31.250,-84.961
1687767141.439,-39.551,-36.133,-16.113,-46.387,-5.371
1687767141.442,-22.461,-37.109,-10.742,-40.527,244.141
1687767141.446,-16.602,-34.180,-13.672,-30.762,291.016
1687767141.450,-25.391,-35.156,-20.508,-50.781,-36.133
1687767141.454,-61.035,-35.156,-24.414,-83.496,-152.832
1687767141.458,-86.914,-31.738,-19.531,-67.871,-111.328
1687767141.507,-66.895,-30.273,-18.555,-51.758,-208.984
1687767141.511,-63.477,-39.062,-27.832,-64.941,-157.227
1687767141.515,-71.777,-46.387,-26.367,-63.477,-5.371
1687767141.519,-55.664,-47.852,-29.785,-56.152,-39.551
1687767141.523,-51.758,-48.828,-36.621,-55.664,-180.176
1687767141.527,-59.570,-38.086,-30.762,-47.852,-106.934
1687767141.531,-56.641,-38.086,-30.273,-40.039,67.383
1687767141.534,-44.922,-50.781,-35.156,-55.176,84.961
1687767141.538,-57.617,-50.781,-36.621,-66.406,-95.703
1687767141.542,-50.781,-41.504,-42.480,-77.148,-134.277
1687767141.546,-22.461,-37.109,-45.898,-71.289,-4.395
1687767141.550,-34.180,-35.645,-37.598,-53.711,-104.004
1687767141.510,-41.504,-30.762,-34.180,-59.082,-186.523
1687767141.514,-23.438,-28.320,-34.180,-48.340,-122.070
1687767141.518,-33.691,-30.273,-30.273,-32.715,81.055
1687767141.522,-31.738,-28.320,-29.785,-42.480,214.355
1687767141.526,-31.738,-31.738,-35.645,-65.430,42.480
1687767141.530,-45.410,-32.715,-38.574,-65.430,-0.977
1687767141.534,-41.992,-33.691,-36.133,-64.941,112.305
1687767141.537,-38.086,-36.621,-35.156,-60.547,60.547
1687767141.541,-31.250,-35.156,-35.156,-38.574,-51.758
1687767141.545,-35.156,-39.551,-41.016,-44.922,-96.191
1687767141.549,-48.340,-41.016,-44.922,-47.363,-64.941
1687767141.553,-49.316,-38.574,-43.945,-39.551,-67.871
1687767141.564,-49.805,-40.039,-46.875,-55.664,-110.352
1687767141.568,-39.062,-41.992,-56.152,-43.945,-46.387
1687767141.572,-34.180,-40.039,-53.223,-23.926,41.016
1687767141.576,-32.227,-35.156,-41.016,-33.203,-39.551
1687767141.580,-33.203,-39.062,-38.086,-63.965,-95.215
1687767141.584,-36.133,-43.945,-43.457,-65.918,73.242
1687767141.588,-38.086,-44.434,-44.922,-63.965,122.070
1687767141.591,-39.062,-42.480,-42.480,-53.223,-21.973
1687767141.595,-50.293,-41.016,-44.922,-57.129,-104.492
1687767141.599,-66.406,-43.457,-50.293,-68.359,-30.762
1687767141.603,-36.621,-38.086,-45.898,-45.410,-81.055
1687767141.607,-16.602,-39.062,-43.457,-58.105,-200.195
1687767141.569,2.441,-38.086,-49.805,-55.176,-145.996
1687767141.573,8.301,-37.598,-55.664,-44.922,80.566
1687767141.577,-0.977,-46.387,-54.199,-53.711,315.918
1687767141.581,-7.324,-48.828,-49.316,-42.969,336.914
1687767141.585,-20.020,-46.875,-52.734,-37.109,293.945
1687767141.589,-39.551,-50.781,-57.129,-46.387,228.027
1687767141.593,-79.590,-57.617,-56.641,-57.129,-49.805
1687767141.596,-93.262,-59.082,-55.176,-49.316,-221.191
1687767141.600,-70.801,-56.641,-50.293,-32.227,-138.184
1687767141.604,-48.340,-51.270,-44.434,-37.598,-80.566
1687767141.608,-47.852,-51.758,-45.898,-62.988,-214.355
1687767141.612,-41.992,-47.852,-48.828,-60.059,-276.367
1687767141.656,-33.691,-43.945,-52.246,-51.270,-138.184
1687767141.660,-38.086,-44.922,-54.688,-40.527,-116.211
1687767141.664,-39.062,-43.945,-50.781,-40.527,-208.496
1687767141.668,-38.086,-43.457,-51.270,-55.664,-175.293
1687767141.672,-34.668,-51.758,-50.781,-43.945,-50.293
1687767141.676,-32.715,-50.293,-47.363,-41.504,325.195
1687767141.680,-36.621,-42.969,-49.316,-44.434,242.188
1687767141.683,-26.367,-47.363,-49.316,-37.598,-168.457
1687767141.687,2.441,-43.457,-50.293,-45.898,-82.520
1687767141.691,-13.184,-45.898,-52.734,-54.199,-18.066
1687767141.695,-46.875,-55.664,-49.316,-44.922,-115.723
1687767141.699,-43.945,-53.223,-43.945,-20.020,-63.965
1687767141.661,-35.156,-53.223,-43.457,-9.766,23.438
1687767141.665,-30.762,-58.105,-45.410,-24.902,-41.992
1687767141.669,-30.762,-56.641,-44.434,-36.621,-91.797
1687767141.673,-33.203,-53.711,-47.363,-39.062,-83.008
1687767141.677,-41.016,-57.617,-48.828,-47.363,59.082
1687767141.681,-30.762,-58.105,-51.270,-59.570,80.078
1687767141.685,-16.602,-55.664,-54.688,-54.199,6.836
1687767141.688,-27.832,-57.617,-52.246,-38.574,24.902
1687767141.692,-34.180,-60.059,-52.734,-34.180,-31.738
1687767141.696,-39.551,-61.523,-60.059,-45.898,-182.129
1687767141.700,-52.246,-62.500,-53.223,-50.293,-232.910
1687767141.704,-53.711,-62.500,-48.340,-49.805,-109.863
1687767141.747,-34.180,-65.430,-50.293,-46.387,-14.160
1687767141.751,-36.621,-66.895,-49.805,-36.133,11.230
1687767141.755,-42.480,-62.500,-52.734,-51.270,2.441
1687767141.759,-33.203,-66.895,-53.223,-62.500,53.711
1687767141.763,-34.180,-69.824,-55.664,-45.898,461.914
1687767141.767,-41.504,-61.523,-59.082,-32.227,443.359
1687767141.771,-38.086,-60.059,-59.570,-45.410,-24.414
1687767141.774,-30.273,-61.035,-54.688,-58.105,9.277
1687767141.778,-44.922,-64.453,-51.758,-43.945,89.355
1687767141.782,-42.480,-62.988,-51.758,-35.156,-138.672
1687767141.786,-27.344,-62.500,-53.711,-35.156,-154.785
1687767141.790,-36.133,-68.359,-53.223,-38.574,-61.523
1687767141.759,-42.969,-62.988,-46.387,-44.922,-132.324
1687767141.763,-58.594,-65.918,-42.969,-49.805,-223.633
1687767141.767,-58.594,-67.383,-43.457,-38.574,-130.859
1687767141.771,-32.227,-61.523,-49.316,-24.902,28.809
1687767141.775,-35.645,-63.477,-50.293,-26.367,37.598
1687767141.779,-46.387,-65.918,-49.316,-40.527,-45.898
1687767141.783,-24.902,-61.523,-47.852,-27.832,73.730
1687767141.786,-14.160,-58.594,-44.922,-28.320,150.879
1687767141.790,-27.344,-60.059,-51.270,-47.852,24.414
1687767141.794,-28.320,-61.523,-45.898,-36.621,-62.500
1687767141.798,-15.137,-58.594,-34.668,-11.719,-46.875
1687767141.802,-21.973,-55.176,-37.598,-29.785,51.758
1687767141.806,-20.020,-51.758,-40.527,-39.551,-14.648
1687767141.810,-19.043,-56.152,-39.551,-41.016,-129.395
1687767141.814,-6.836,-57.129,-41.504,-34.180,-85.938
1687767141.818,-21.484,-54.199,-44.922,-32.715,183.594
1687767141.822,-24.902,-51.758,-45.898,-31.738,147.949
1687767141.826,-42.480,-53.223,-52.734,-20.020,-60.547
1687767141.830,-72.266,-58.594,-54.199,-23.438,89.355
1687767141.833,-64.941,-57.617,-43.945,-17.578,319.336
1687767141.837,-54.688,-60.059,-46.875,-23.438,-2.441
1687767141.841,-62.988,-62.500,-53.711,-26.855,-229.980
1687767141.845,-69.336,-58.594,-46.875,-34.180,-100.586
1687767141.849,-50.781,-52.734,-44.434,-33.691,-117.188
1687767141.851,-40.527,-55.664,-55.176,-33.203,-186.523
1687767141.855,-39.551,-60.547,-57.129,-37.598,-167.969
1687767141.859,-30.273,-63.477,-52.246,-37.598,-78.613
1687767141.863,-25.391,-62.012,-54.688,-50.781,-55.176
1687767141.867,-24.902,-60.059,-53.223,-60.547,-73.242
1687767141.871,-19.531,-62.500,-47.852,-56.641,-38.086
1687767141.875,-33.203,-58.594,-40.039,-50.293,216.797
1687767141.878,-35.156,-56.641,-41.992,-46.387,261.719
1687767141.882,-28.809,-61.523,-45.898,-44.434,12.207
1687767141.886,-41.504,-59.570,-37.109,-58.594,-79.590
1687767141.890,-37.598,-58.594,-39.551,-60.547,-61.035
1687767141.894,-43.945,-61.035,-44.434,-47.363,-146.484
1687767141.896,-45.898,-55.664,-43.945,-48.340,-219.727
1687767141.900,-26.367,-55.664,-48.828,-42.969,-130.859
1687767141.904,-12.695,-57.129,-53.223,-38.086,-20.996
1687767141.908,-26.367,-51.758,-46.387,-37.109,-95.215
1687767141.912,-36.133,-55.176,-44.922,-47.363,-229.492
1687767141.916,-10.742,-56.641,-53.711,-51.270,10.742
1687767141.920,-7.324,-49.316,-49.316,-27.832,360.352
1687767141.923,-14.160,-51.758,-43.945,-36.133,73.730
1687767141.927,-52.246,-59.082,-45.898,-63.965,-166.504
1687767141.931,-88.867,-57.617,-50.781,-43.945,-37.109
1687767141.935,-86.914,-56.152,-49.805,-38.086,-23.438
1687767141.939,-69.824,-53.223,-46.875,-45.898,-117.676
1687767141.971,-57.617,-49.805,-49.805,-39.062,-62.500
1687767141.975,-54.688,-49.316,-46.387,-56.152,65.918
1687767141.979,-50.293,-52.246,-51.758,-62.988,-15.625
1687767141.983,-49.316,-47.852,-58.105,-49.316,-82.031
1687767141.987,-40.527,-45.410,-57.129,-43.945,-54.688
1687767141.991,-37.598,-50.293,-58.594,-27.832,199.707
1687767141.995,-57.617,-52.246,-64.453,-29.785,339.355
1687767141.998,-54.688,-48.828,-59.570,-48.340,-19.043
1687767142.002,-46.387,-49.805,-50.781,-47.852,-89.355
1687767142.006,-51.758,-52.246,-49.805,-42.969,36.133
1687767142.010,-56.641,-47.852,-49.316,-44.922,-108.398
1687767142.014,-47.363,-48.828,-49.316,-37.598,-150.879
1687767142.018,-37.109,-49.316,-47.363,-32.227,-107.422
1687767142.022,-30.273,-48.340,-45.410,-50.781,-76.660
1687767142.026,-16.602,-49.316,-45.410,-46.875,-73.242
1687767142.030,1.953,-49.316,-45.410,-36.621,-60.547
1687767142.034,22.949,-49.805,-46.387,-37.598,-0.977
1687767142.038,5.371,-52.246,-48.340,-58.105,78.613
1687767142.042,-65.918,-49.805,-49.805,-61.035,-3.906
1687767142.045,-81.055,-48.828,-52.246,-59.082,-57.129
1687767142.049,-64.453,-53.223,-51.270,-50.293,-33.203
1687767142.053,-70.801,-52.734,-50.781,-42.969,-81.543
1687767142.057,-61.035,-51.758,-54.199,-53.223,-105.957
1687767142.061,-45.898,-52.734,-52.734,-53.223,-95.703
1687767142.044,-50.781,-53.223,-52.246,-39.062,162.109
1687767142.048,-60.547,-62.500,-57.129,-44.434,325.684
1687767142.052,-48.340,-63.477,-54.688,-52.246,8.301
1687767142.056,-45.410,-59.082,-52.734,-44.922,-22.949
1687767142.060,-44.922,-54.688,-47.852,-45.898,138.184
1687767142.064,-42.969,-54.688,-43.457,-57.129,43.457
1687767142.068,-32.227,-51.758,-43.945,-62.500,-28.320
1687767142.071,-24.902,-48.340,-42.969,-49.316,-32.227
1687767142.075,-15.625,-50.293,-45.410,-54.199,-32.227
1687767142.079,0.000,-51.758,-51.270,-61.523,-114.258
1687767142.083,-52.734,-53.711,-49.316,-47.852,-172.852
1687767142.087,-86.914,-54.688,-44.434,-37.598,-132.812
1687767142.106,-55.664,-51.758,-38.574,-37.598,228.027
1687767142.110,-52.246,-49.316,-40.039,-32.227,364.746
1687767142.114,-59.082,-49.316,-41.992,-31.738,25.391
1687767142.118,-49.316,-43.945,-40.527,-29.785,-100.098
1687767142.122,-38.086,-48.340,-48.340,-12.695,-29.297
1687767142.126,-29.297,-53.223,-52.246,-35.156,4.395
1687767142.130,-22.949,-51.758,-49.805,-56.152,-5.859
1687767142.133,-30.762,-51.270,-50.293,-44.922,118.164
1687767142.137,-33.691,-41.016,-55.176,-56.152,303.711
1687767142.141,-32.715,-36.621,-51.758,-48.828,44.922
1687767142.145,-26.367,-45.898,-43.457,-62.012,-132.324
1687767142.149,-27.344,-46.387,-38.574,-65.430,-40.039
1687767142.150,-40.527,-37.109,-39.062,-52.734,-100.586
1687767142.154,-44.922,-35.645,-42.480,-49.316,-160.645
1687767142.158,-47.363,-39.551,-42.480,-48.828,-140.137
1687767142.162,-28.809,-41.016,-48.340,-53.223,-5.859
1687767142.166,-10.254,-40.039,-47.363,-41.504,45.410
1687767142.170,-15.137,-38.086,-41.992,-41.992,-20.508
1687767142.174,-22.949,-33.691,-37.109,-65.430,-26.367
1687767142.177,-58.594,-33.203,-34.180,-57.129,79.102
1687767142.181,-90.332,-40.039,-43.945,-50.293,5.859
1687767142.185,-75.684,-42.480,-47.852,-66.895,-139.648
1687767142.189,-59.570,-45.898,-47.852,-62.012,-118.164
1687767142.193,-30.273,-41.992,-45.410,-41.016,230.957
1687767142.211,-41.992,-43.457,-42.480,-30.762,362.793
1687767142.215,-66.406,-46.875,-48.828,-54.199,-0.488
1687767142.219,-78.125,-50.781,-50.293,-59.570,-74.219
1687767142.223,-73.242,-50.293,-41.992,-60.059,-20.996
1687767142.227,-52.734,-45.410,-40.527,-60.547,-145.508
1687767142.231,-46.875,-45.410,-46.875,-51.758,-121.094
1687767142.235,-45.898,-39.551,-45.410,-52.734,49.316
1687767142.238,-41.504,-41.016,-47.363,-52.734,-11.230
1687767142.242,-46.875,-46.875,-50.293,-73.242,-209.961
1687767142.246,-41.016,-46.875,-51.758,-61.035,-224.609
1687767142.250,-36.133,-38.574,-45.410,-44.922,100.586
1687767142.254,-23.438,-37.109,-41.504,-56.641,400.879
1687767142.224,-9.766,-41.016,-48.828,-53.223,26.367
1687767142.228,-24.902,-49.316,-52.246,-57.617,-186.523
1687767142.232,-38.086,-51.758,-50.781,-62.500,-111.816
1687767142.236,-32.715,-47.363,-46.387,-56.641,-158.691
1687767142.240,-23.926,-49.316,-42.969,-51.758,-119.629
1687767142.244,-39.062,-50.781,-42.480,-47.363,-26.367
1687767142.248,-46.387,-44.922,-37.598,-49.316,57.617
1687767142.251,-48.828,-40.039,-34.668,-60.547,-33.203
1687767142.255,-46.875,-39.062,-39.551,-56.152,-204.102
1687767142.259,-43.457,-34.668,-42.969,-56.641,-170.898
1687767142.263,-61.523,-36.133,-42.480,-72.266,-50.781
1687767142.267,-50.293,-42.480,-43.457,-84.961,-104.980
1687767142.329,-34.668,-39.062,-47.852,-77.148,-104.004
1687767142.333,-42.480,-36.621,-46.875,-61.035,5.859
1687767142.337,-49.316,-41.992,-38.574,-59.570,309.082
1687767142.341,-48.828,-39.062,-32.715,-63.477,300.781
1687767142.345,-45.410,-35.156,-30.762,-55.176,-122.070
1687767142.349,-62.012,-44.922,-40.039,-64.453,-63.477
1687767142.353,-68.359,-60.059,-44.922,-87.891,104.492
1687767142.356,-46.875,-66.895,-33.691,-52.246,-27.344
1687767142.360,-5.371,-53.223,-36.621,-20.996,-128.906
1687767142.364,-15.137,-26.855,-49.805,-36.133,-33.691
1687767142.368,-21.484,-15.625,-54.199,-76.660,51.270
1687767142.372,-19.531,-18.066,-62.012,-95.215,-86.914
1687767142.333,-40.039,-18.555,-70.801,-79.102,-107.910
1687767142.337,-47.363,-19.531,-77.637,-76.660,16.113
1687767142.341,-68.359,-19.531,-89.844,-77.148,0.977
1687767142.345,-80.078,-20.020,-90.820,-97.168,-52.734
1687767142.349,-67.871,-20.508,-98.145,-116.699,23.926
1687767142.353,-57.617,-15.625,-116.699,-107.422,228.516
1687767142.357,-46.387,-12.695,-124.023,-122.070,158.203
1687767142.360,-67.383,-7.324,-128.418,-120.605,-58.594
1687767142.364,-70.801,-9.766,-130.859,-106.934,-48.828
1687767142.368,-53.711,-5.371,-133.301,-117.188,6.836
1687767142.372,-44.922,0.488,-132.812,-120.605,-152.344
1687767142.376,-46.875,-5.371,-133.301,-111.816,-158.691
1687767142.380,-46.387,-6.348,-135.254,-102.051,11.230
1687767142.384,-43.945,-7.324,-137.695,-98.633,35.645
1687767142.388,-32.715,-12.695,-133.301,-83.008,-59.082
1687767142.392,-6.348,-9.277,-129.883,-81.055,-122.070
1687767142.396,-12.695,-10.742,-129.883,-86.914,6.348
1687767142.400,-7.324,-16.602,-120.605,-82.031,397.949
1687767142.404,-13.672,-9.277,-115.234,-74.707,235.352
1687767142.407,-17.578,-4.883,-112.305,-71.289,-43.457
1687767142.411,-16.113,-11.719,-108.398,-65.430,83.984
1687767142.415,-19.043,-14.160,-105.957,-54.688,298.340
1687767142.419,-12.207,-14.648,-99.121,-66.895,52.246
1687767142.423,8.301,-15.137,-93.750,-54.688,-135.254
1687767142.419,-7.812,-12.695,-92.773,-49.805,13.672
1687767142.423,-22.949,-13.672,-95.215,-72.266,-20.020
1687767142.427,-20.996,-18.066,-91.797,-59.570,-124.512
1687767142.431,-14.160,-17.578,-83.008,-52.734,-133.789
1687767142.435,8.301,-15.625,-81.543,-50.781,-1.465
1687767142.439,13.184,-12.207,-83.496,-51.270,-18.066
1687767142.443,-12.695,-18.555,-85.449,-64.453,-6.836
1687767142.446,-33.203,-20.508,-76.660,-70.801,119.141
1687767142.450,-27.832,-11.719,-71.777,-53.711,358.398
1687767142.454,-11.719,-13.184,-69.824,-37.598,487.793
1687767142.458,7.812,-15.137,-62.500,-25.879,340.332
1687767142.462,5.371,-19.531,-62.500,-18.555,-35.156
1687767142.469,-24.414,-28.809,-68.359,-32.227,-144.043
1687767142.473,-41.016,-27.832,-64.941,-52.246,-105.469
1687767142.477,-26.855,-21.973,-62.500,-41.992,-168.945
1687767142.481,-20.508,-22.949,-65.918,-40.039,-207.520
1687767142.485,-16.113,-23.438,-66.406,-46.387,-226.074
1687767142.489,-23.438,-21.973,-59.082,-41.992,-173.340
1687767142.493,-20.020,-20.996,-54.199,-42.480,-154.297
1687767142.496,-11.719,-23.926,-61.035,-42.969,-26.367
1687767142.500,-2.930,-30.273,-64.941,-26.367,78.613
1687767142.504,16.113,-28.809,-59.570,-30.762,-97.168
1687767142.508,-7.324,-28.809,-56.641,-45.898,-125.488
1687767142.512,-19.043,-33.691,-56.641,-18.066,-26.367
1687767142.540,-12.695,-39.551,-57.129,-20.020,-16.602
1687767142.544,-13.672,-41.992,-58.594,-39.062,-67.383
1687767142.548,-9.277,-40.039,-54.199,-45.898,-108.887
1687767142.552,-12.695,-35.645,-46.875,-46.875,27.344
1687767142.556,-1.953,-46.875,-50.781,-28.320,90.820
1687767142.560,5.371,-42.969,-54.199,-30.762,48.828
1687767142.564,-9.277,-40.527,-51.758,-42.969,66.406
1687767142.567,-22.949,-51.270,-48.828,-46.387,248.535
1687767142.571,-22.461,-47.363,-41.992,-34.668,334.473
1687767142.575,-25.879,-43.457,-36.621,-28.809,-8.789
1687767142.579,-17.090,-44.434,-38.574,-20.020,-181.641
1687767142.583,-29.785,-45.898,-41.504,-27.832,-126.953
1687767142.586,-34.668,-45.410,-43.457,-35.645,-92.285
1687767142.590,-20.508,-42.969,-41.992,-31.250,-179.688
1687767142.594,-24.902,-48.340,-38.574,-30.762,-116.211
1687767142.598,-22.461,-48.828,-38.574,-19.531,-37.598
1687767142.602,-6.836,-40.527,-41.992,-25.879,-121.582
1687767142.606,-15.625,-41.016,-45.898,-44.434,17.090
1687767142.610,-19.043,-44.922,-46.875,-39.551,93.750
1687767142.613,-10.254,-41.504,-43.945,-39.062,-36.621
1687767142.617,-13.672,-37.598,-46.387,-42.480,-104.492
1687767142.621,-19.531,-38.086,-45.898,-41.504,-103.027
1687767142.625,-13.184,-40.527,-49.805,-53.223,20.508
1687767142.629,-6.348,-45.898,-49.316,-38.574,20.996
1687767142.633,-16.602,-43.457,-43.457,-29.785,-112.793
1687767142.637,-17.090,-36.621,-40.527,-49.805,-58.594
1687767142.641,-14.648,-39.551,-48.828,-38.086,192.871
1687767142.645,-15.137,-42.969,-50.781,-38.574,77.148
1687767142.649,-29.785,-38.086,-44.434,-41.992,-85.449
1687767142.653,-28.809,-42.480,-43.457,-34.668,51.270
1687767142.657,-27.832,-51.758,-41.016,-41.992,61.035
1687767142.660,-44.434,-41.992,-40.039,-45.898,-101.562
1687767142.664,-19.531,-39.062,-42.480,-47.363,-133.301
1687767142.668,-17.578,-41.016,-49.805,-51.758,-97.168
1687767142.672,-10.742,-37.598,-56.641,-49.805,165.039
1687767142.676,6.348,-42.969,-59.082,-59.570,97.168
1687767142.646,-18.066,-50.781,-60.059,-64.941,-222.168
1687767142.650,-29.785,-49.316,-54.199,-60.059,-142.090
1687767142.654,-31.250,-47.363,-49.805,-39.551,179.688
1687767142.658,-44.922,-50.781,-50.293,-39.551,64.941
1687767142.662,-43.457,-48.828,-51.758,-42.480,-41.992
1687767142.666,-39.062,-38.086,-46.387,-43.457,150.391
1687767142.670,-34.180,-40.039,-46.387,-48.828,171.387
1687767142.673,-44.922,-45.410,-47.363,-51.758,-24.902
1687767142.677,-55.664,-39.551,-43.457,-46.875,-114.258
1687767142.681,-56.152,-44.434,-46.387,-59.570,-42.969
1687767142.685,-53.711,-48.828,-44.434,-52.734,-87.891
1687767142.689,-40.527,-36.621,-39.551,-46.875,-125.488
1687767142.705,-42.480,-39.551,-46.387,-55.664,-56.641
1687767142.709,-56.152,-47.363,-56.152,-58.594,117.676
1687767142.713,-54.199,-45.410,-63.477,-52.246,352.539
1687767142.717,-55.176,-44.434,-60.547,-50.781,192.871
1687767142.721,-60.547,-45.898,-56.641,-57.617,8.789
1687767142.725,-44.434,-44.434,-48.340,-51.758,247.559
1687767142.729,-35.645,-37.598,-44.434,-47.852,231.934
1687767142.732,-41.016,-40.527,-52.734,-50.781,-50.293
1687767142.736,-42.969,-47.363,-56.152,-53.223,-123.047
1687767142.740,-49.316,-45.898,-52.734,-60.547,-97.656
1687767142.744,-44.434,-39.551,-45.898,-54.199,-160.645
1687767142.748,-43.945,-40.527,-41.992,-60.547,-228.027
1687767142.753,-38.574,-39.062,-46.875,-65.430,-133.301
1687767142.757,-13.672,-30.762,-47.363,-53.223,117.188
1687767142.761,-16.113,-34.668,-47.852,-54.688,-12.207
1687767142.765,-58.105,-41.016,-52.734,-64.941,-132.812
1687767142.769,-82.031,-37.598,-55.664,-68.848,-94.238
1687767142.773,-71.777,-40.039,-45.410,-68.848,-77.148
1687767142.777,-50.293,-40.527,-37.598,-45.410,11.719
1687767142.780,-44.922,-41.016,-40.039,-52.734,-13.672
1687767142.784,-34.180,-44.434,-39.551,-60.547,87.891
1687767142.788,-37.109,-42.969,-31.738,-49.316,183.594
1687767142.792,-41.016,-41.504,-28.809,-41.504,-83.496
1687767142.796,-35.156,-40.039,-32.715,-55.176,-141.602
1687767142.813,-47.852,-48.340,-33.691,-70.801,7.812
1687767142.817,-48.340,-51.758,-39.551,-67.871,-68.848
1687767142.821,-42.969,-46.387,-40.527,-64.941,-166.992
1687767142.825,-30.762,-44.434,-35.156,-56.641,-85.938
1687767142.829,-24.902,-39.551,-26.367,-54.688,119.629
1687767142.833,-29.297,-43.945,-26.367,-61.523,147.949
1687767142.837,-30.762,-47.852,-37.598,-53.711,-8.301
1687767142.840,-21.484,-47.363,-34.668,-29.785,-68.359
1687767142.844,-31.250,-56.152,-41.992,-30.273,157.227
1687767142.848,-38.086,-56.641,-41.992,-53.711,147.949
1687767142.852,-36.133,-47.852,-30.273,-63.965,-169.434
1687767142.856,-46.387,-51.270,-32.715,-68.359,-164.551
1687767142.841,-41.016,-56.641,-39.062,-68.359,-46.387
1687767142.845,-40.039,-51.270,-34.668,-56.152,-184.570
1687767142.849,-35.645,-47.852,-39.062,-58.105,-231.934
1687767142.853,-25.879,-48.340,-42.480,-49.316,-125.488
1687767142.857,-19.531,-47.852,-35.645,-48.828,-45.410
1687767142.861,-11.230,-45.410,-41.504,-58.594,-6.836
1687767142.865,-45.410,-42.969,-41.016,-49.316,62.500
1687767142.868,-73.242,-42.480,-31.738,-45.898,106.934
1687767142.872,-57.617,-40.527,-32.715,-40.039,56.152
1687767142.876,-46.387,-39.551,-33.691,-49.805,-52.734
1687767142.880,-42.480,-45.898,-31.738,-58.594,-108.887
1687767142.884,-40.527,-47.363,-33.203,-49.805,70.801
1687767142.886,-45.410,-45.898,-32.715,-35.156,433.594
1687767142.890,-47.363,-43.457,-30.273,-26.855,257.324
1687767142.894,-53.223,-40.527,-30.273,-39.551,-59.082
1687767142.898,-67.871,-43.457,-34.668,-43.457,-19.531
1687767142.902,-53.711,-40.039,-28.809,-33.691,19.043
1687767142.906,-38.574,-36.621,-23.926,-42.480,-15.625
1687767142.910,-37.109,-45.410,-30.273,-64.941,1.953
1687767142.913,-45.410,-49.805,-31.250,-52.734,256.348
1687767142.917,-37.109,-37.109,-30.273,-36.133,252.930
1687767142.921,-24.902,-34.668,-34.668,-25.879,-104.492
1687767142.925,-14.648,-42.480,-38.086,-33.203,-226.074
1687767142.929,-17.578,-41.016,-40.527,-44.922,-201.172
1687767142.931,-34.668,-41.992,-44.922,-40.527,-231.934
1687767142.935,-33.203,-49.805,-48.828,-60.059,-225.586
1687767142.939,-25.391,-46.387,-41.992,-59.570,-98.145
1687767142.943,-28.809,-39.551,-33.691,-48.340,-17.578
1687767142.947,-23.926,-39.551,-35.645,-48.340,-58.105
1687767142.951,-24.414,-40.527,-31.250,-36.133,-87.402
1687767142.955,-30.273,-45.410,-33.691,-31.250,32.715
1687767142.958,-30.273,-42.480,-41.016,-31.738,221.680
1687767142.962,-22.949,-41.992,-40.039,-46.387,-52.246
1687767142.966,-15.625,-45.898,-39.062,-38.086,-206.543
1687767142.970,-17.090,-46.875,-36.621,-31.250,-64.941
1687767142.974,-31.250,-44.922,-40.527,-40.527,-89.844
1687767142.975,-35.156,-44.434,-42.480,-32.715,-142.090
1687767142.979,-29.297,-45.410,-41.992,-54.688,-139.160
1687767142.983,-31.250,-38.574,-38.086,-40.527,-87.402
1687767142.987,-48.340,-33.691,-34.180,-24.902,-100.098
1687767142.991,-48.828,-37.598,-36.621,-37.109,-111.816
1687767142.995,-39.551,-41.504,-42.480,-35.645,29.785
1687767142.999,-40.527,-40.039,-49.805,-23.926,313.965
1687767143.002,-36.621,-37.598,-50.293,-29.297,427.734
1687767143.006,-30.273,-35.645,-45.898,-21.973,6.348
1687767143.010,-31.250,-33.203,-45.410,-37.598,-167.480
1687767143.014,-38.086,-35.156,-47.852,-71.777,-37.598
1687767143.018,-34.180,-41.016,-49.316,-68.359,-95.215
1687767143.021,-19.531,-43.945,-42.969,-49.805,-145.996
1687767143.025,-14.648,-46.387,-42.480,-38.086,-110.840
1687767143.029,-9.277,-45.898,-51.270,-47.852,-63.477
1687767143.033,-8.789,-43.457,-43.457,-65.918,-62.012
1687767143.037,-12.695,-42.969,-31.250,-58.594,-135.254
1687767143.041,-22.461,-48.340,-34.180,-39.062,-16.113
1687767143.045,-45.410,-50.781,-36.621,-20.996,93.262
1687767143.048,-67.871,-47.363,-34.180,-25.879,18.066
1687767143.052,-67.871,-45.898,-39.062,-59.082,-92.773
1687767143.056,-58.594,-46.875,-39.062,-64.453,35.156
1687767143.060,-51.758,-46.387,-40.527,-55.176,132.324
1687767143.064,-54.199,-45.898,-42.969,-59.570,-109.375
1687767143.113,-48.828,-46.387,-41.016,-55.176,-129.395
1687767143.117,-45.410,-44.434,-35.645,-42.969,-89.844
1687767143.121,-57.129,-45.898,-36.133,-43.457,-107.910
1687767143.125,-53.711,-41.504,-38.086,-37.109,-94.727
1687767143.129,-38.574,-38.086,-40.527,-38.574,-41.992
1687767143.133,-31.250,-41.016,-41.016,-41.016,231.445
1687767143.137,-37.598,-44.434,-34.668,-49.316,233.887
1687767143.140,-48.340,-47.363,-29.297,-63.477,-64.941
1687767143.144,-43.945,-47.852,-31.250,-56.152,-87.891
1687767143.148,-31.738,-47.363,-29.785,-51.270,27.344
1687767143.152,-38.086,-45.898,-28.320,-48.828,-23.438
1687767143.156,-38.086,-43.457,-34.180,-48.340,-100.586
1687767143.120,-21.484,-42.969,-29.785,-50.781,-57.129
1687767143.124,-36.621,-45.898,-29.297,-42.969,10.254
1687767143.128,-45.410,-43.945,-36.133,-46.875,-94.727
1687767143.132,-24.414,-44.922,-33.203,-48.340,-146.973
1687767143.136,-29.785,-50.781,-26.855,-42.969,-55.176
1687767143.140,-51.270,-47.852,-23.438,-42.969,68.848
1687767143.144,-36.621,-46.387,-29.785,-50.781,47.852
1687767143.147,-24.414,-42.969,-32.715,-48.340,-74.219
1687767143.151,-47.363,-42.969,-35.156,-48.340,-27.344
1687767143.155,-61.523,-48.340,-35.645,-56.152,-12.207
1687767143.159,-50.781,-34.668,-30.273,-40.039,-121.094
1687767143.163,-40.039,-28.320,-27.344,-53.223,-87.891
1687767143.185,-42.480,-38.086,-34.668,-67.871,62.012
1687767143.189,-31.738,-42.969,-41.504,-67.383,80.566
1687767143.193,-26.367,-47.852,-40.527,-65.430,17.578
1687767143.197,-48.828,-51.270,-38.574,-62.988,-42.480
1687767143.201,-47.852,-47.363,-40.039,-73.242,258.789
1687767143.205,-28.320,-43.457,-41.016,-64.941,466.309
1687767143.209,-43.945,-46.387,-39.551,-42.480,384.277
1687767143.212,-48.340,-46.875,-40.527,-35.156,208.984
1687767143.216,-47.852,-49.316,-39.551,-48.340,-107.422
1687767143.220,-51.270,-46.387,-37.598,-48.340,-202.637
1687767143.224,-40.527,-41.504,-41.992,-52.734,-162.598
1687767143.228,-41.016,-44.434,-31.250,-63.965,-73.730
1687767143.216,-39.062,-45.898,-27.344,-61.035,-40.527
1687767143.220,-26.855,-42.480,-32.715,-60.547,-62.988
1687767143.224,-20.996,-37.598,-24.414,-66.406,-97.656
1687767143.228,-23.926,-36.133,-25.391,-59.082,32.227
1687767143.232,-45.410,-37.598,-30.273,-42.969,302.734
1687767143.236,-44.434,-33.203,-28.320,-40.527,115.234
1687767143.240,-19.043,-39.062,-32.227,-45.410,-38.574
1687767143.243,-16.113,-49.316,-35.645,-48.828,21.484
1687767143.247,-29.785,-45.898,-38.086,-56.641,-60.059
1687767143.251,-67.383,-43.457,-35.645,-52.734,-151.855
1687767143.255,-85.449,-43.457,-31.250,-47.852,-192.383
1687767143.259,-76.172,-51.270,-41.016,-54.199,-34.180
1687767143.289,-56.152,-53.711,-43.457,-47.363,70.312
1687767143.293,-34.668,-46.875,-34.180,-48.340,-113.770
1687767143.297,-42.969,-52.246,-37.598,-63.965,-126.465
1687767143.301,-49.316,-51.270,-48.340,-75.195,-9.766
1687767143.305,-20.996,-43.457,-47.363,-40.039,-12.207
1687767143.309,-11.719,-48.340,-28.809,-1.465,-48.828
1687767143.313,-50.781,-53.223,-14.648,-32.227,19.531
1687767143.316,-67.871,-53.711,-5.859,-58.105,281.738
1687767143.320,-61.035,-57.617,-7.812,-66.895,456.543
1687767143.324,-80.078,-58.594,-4.395,-69.824,109.863
1687767143.328,-106.934,-59.570,9.277,-75.684,-159.180
1687767143.332,-105.469,-68.848,17.090,-75.684,-161.133
1687767143.334,-108.887,-82.031,34.668,-46.875,-96.680
1687767143.338,-103.027,-80.566,33.691,-52.734,-57.129
1687767143.342,-96.191,-82.031,28.320,-45.410,-44.434
1687767143.346,-104.004,-86.914,28.809,-36.133,-8.301
1687767143.350,-92.285,-84.473,40.527,-18.555,5.859
1687767143.365,-86.426,-80.078,41.504,-41.992,-147.461
1687767143.369,-88.379,-83.008,34.180,-44.434,-204.102
1687767143.373,-71.777,-81.543,28.320,-26.855,40.527
1687767143.377,-57.129,-79.590,24.902,-28.320,218.262
1687767143.381,-48.340,-80.078,16.602,-39.062,-41.992
1687767143.385,-52.734,-72.754,16.113,-45.898,-70.801
1687767143.389,-60.059,-67.383,19.531,-35.156,283.691
1687767143.392,-63.477,-68.359,12.207,-23.926,328.613
1687767143.396,-77.637,-66.895,16.602,-20.020,-14.160
1687767143.400,-77.637,-62.012,20.508,-29.785,-122.070
1687767143.404,-59.570,-63.965,9.277,-26.855,-25.391
1687767143.408,-48.340,-70.312,6.836,-23.438,11.230
1687767143.399,-54.688,-63.477,1.465,-26.367,-118.652
1687767143.403,-41.992,-59.082,-11.230,-44.434,-94.238
1687767143.407,-25.391,-59.082,-6.836,-46.875,23.926
1687767143.411,-46.875,-57.617,0.488,-22.461,-37.598
1687767143.415,-49.805,-58.594,3.418,-4.395,-98.633
1687767143.419,-54.688,-56.152,24.414,4.883,-20.508
1687767143.423,-52.734,-55.176,46.387,19.531,68.848
1687767143.426,-31.738,-55.176,52.246,-25.879,-6.836
1687767143.430,-25.879,-56.152,55.176,-79.102,-92.285
1687767143.434,-30.762,-57.129,49.805,-71.289,51.270
1687767143.438,-16.602,-48.340,45.898,-64.941,126.953
1687767143.442,-28.320,-45.898,43.945,-69.336,-85.938
1687767143.516,-50.781,-53.223,35.645,-66.406,-138.184
1687767143.520,-42.969,-56.641,32.227,-61.523,-39.062
1687767143.524,-37.598,-56.641,27.344,-49.805,-136.719
1687767143.528,-21.973,-57.129,24.902,-40.039,-143.066
1687767143.532,3.418,-46.387,26.855,-43.457,-72.266
1687767143.536,-22.461,-39.062,29.785,-25.879,191.406
1687767143.540,-62.500,-49.316,20.020,-21.973,407.715
1687767143.543,-58.594,-54.199,10.254,-40.527,-18.066
1687767143.547,-59.570,-48.340,6.348,-54.688,-198.242
1687767143.551,-60.059,-46.387,4.395,-53.223,-80.566
1687767143.555,-42.969,-47.852,1.953,-51.270,-85.938
1687767143.559,-67.871,-52.734,0.977,-49.316,-117.676
1687767143.521,-76.660,-49.805,2.930,-45.410,-127.441
1687767143.525,-61.035,-45.410,0.000,-56.152,-96.680
1687767143.529,-51.270,-44.922,-1.953,-53.711,-84.473
1687767143.533,-38.086,-41.992,-0.488,-35.645,-46.875
1687767143.537,-26.855,-41.992,0.488,-32.227,40.527
1687767143.541,-27.344,-41.504,1.953,-34.180,26.855
1687767143.545,-34.668,-38.574,2.930,-20.020,-53.223
1687767143.548,-29.785,-39.062,1.465,-15.137,-93.262
1687767143.552,-18.555,-45.410,-4.883,-24.414,-13.184
1687767143.556,-28.320,-43.945,-10.742,-27.344,-0.488
1687767143.560,-27.344,-38.574,-8.301,-28.809,-93.750
1687767143.564,-31.738,-42.480,-12.207,-31.250,-123.047
1687767143.544,-34.668,-43.457,-19.531,-44.434,-34.180
1687767143.548,-26.367,-42.969,-23.926,-54.688,-56.152
1687767143.552,-30.762,-45.898,-22.949,-62.012,-101.562
1687767143.556,-39.062,-40.039,-21.484,-44.922,-49.805
1687767143.560,-45.410,-41.016,-20.508,-41.016,41.016
1687767143.564,-40.527,-45.410,-21.484,-63.965,41.016
1687767143.568,-27.832,-39.062,-23.438,-49.316,20.996
1687767143.571,-41.992,-35.645,-24.902,-49.805,35.645
1687767143.575,-29.785,-36.621,-24.902,-57.617,98.633
1687767143.579,-6.348,-37.109,-27.832,-52.246,-25.391
1687767143.583,-21.484,-31.738,-25.879,-58.105,-97.168
1687767143.587,-36.621,-29.785,-22.949,-62.012,-70.312
1687767143.595,-41.016,-42.969,-23.926,-46.387,180.664
1687767143.599,-59.082,-44.434,-22.461,-39.551,369.629
1687767143.603,-56.641,-32.227,-22.949,-47.363,263.672
1687767143.607,-44.434,-36.133,-25.879,-57.617,30.273
1687767143.611,-58.594,-39.062,-26.855,-55.664,-114.258
1687767143.615,-56.641,-39.551,-27.832,-45.410,-8.301
1687767143.619,-57.129,-40.527,-22.949,-61.035,-35.156
1687767143.622,-56.641,-37.598,-26.367,-53.223,-60.547
1687767143.626,-38.086,-35.156,-30.273,-51.270,128.906
1687767143.630,-37.598,-36.621,-27.832,-71.777,-11.230
1687767143.634,-38.086,-34.668,-25.391,-48.340,-116.699
1687767143.638,-37.598,-29.297,-25.879,-36.133,-12.207
1687767143.634,-38.086,-32.227,-23.438,-47.363,-42.969
1687767143.638,-33.203,-42.480,-22.949,-57.129,-108.887
1687767143.642,-18.066,-41.016,-19.531,-57.617,-95.215
1687767143.646,-5.371,-36.133,-17.578,-53.711,9.766
1687767143.650,-10.742,-35.156,-19.531,-47.363,19.531
1687767143.654,-5.371,-34.668,-21.484,-45.898,-60.059
1687767143.658,-6.836,-34.668,-37.109,-31.738,-13.672
1687767143.661,-36.621,-38.086,-43.945,-32.715,238.770
1687767143.665,-55.664,-36.133,-35.156,-37.109,466.797
1687767143.669,-40.527,-38.086,-30.273,-41.992,327.148
1687767143.673,-38.574,-44.434,-32.227,-58.594,79.102
1687767143.677,-59.082,-48.828,-31.738,-59.570,51.758
1687767143.685,-53.711,-49.805,-26.367,-52.734,-94.238
1687767143.689,-32.227,-45.410,-29.785,-56.641,-201.660
1687767143.693,-26.855,-48.828,-33.691,-57.129,-90.332
1687767143.697,-23.438,-48.828,-41.504,-50.781,-103.027
1687767143.701,-21.973,-42.969,-38.086,-65.918,-211.426
1687767143.705,-15.137,-43.457,-16.113,-83.496,-131.836
1687767143.709,-21.973,-42.969,-14.160,-71.777,-13.672
1687767143.712,-32.227,-33.691,-24.414,-55.176,20.020
1687767143.716,-25.391,-25.879,-15.625,-55.664,-194.336
1687767143.720,-25.879,-28.809,-6.836,-66.406,-223.633
1687767143.724,-35.645,-31.738,-4.883,-59.082,-18.066
1687767143.728,-43.457,-36.133,-7.324,-48.828,-48.340
1687767143.726,-40.527,-33.203,-16.602,-24.414,-85.449
1687767143.730,-47.852,-29.297,-17.578,-12.695,65.430
1687767143.734,-50.781,-26.367,-9.277,-34.180,126.465
1687767143.738,-28.809,-22.949,-7.812,-32.227,31.250
1687767143.742,-20.996,-28.809,-8.789,-34.180,-49.316
1687767143.746,-34.180,-23.926,-4.883,-35.645,16.602
1687767143.750,-34.180,-16.113,-3.906,-21.973,300.781
1687767143.753,-11.719,-20.020,10.742,-6.836,428.711
1687767143.757,-5.859,-16.602,8.789,2.930,275.391
1687767143.761,-18.555,-16.602,11.719,-27.344,29.297
1687767143.765,-35.156,-8.789,29.785,-53.711,-55.664
1687767143.769,-22.461,5.859,29.297,-36.133,-152.832
1687767143.786,-13.184,7.812,18.555,-20.508,-161.133
1687767143.790,-16.602,5.371,0.977,-43.945,-146.973
1687767143.794,18.066,4.395,-1.953,-21.973,-151.367
1687767143.798,45.898,10.742,11.230,14.648,-123.047
1687767143.802,14.160,20.020,28.809,-10.254,-179.199
1687767143.806,-32.715,11.719,41.992,-66.406,-98.633
1687767143.810,-71.777,0.488,51.758,-70.801,197.754
1687767143.813,-93.750,-5.371,63.965,-51.758,24.414
1687767143.817,-85.938,0.488,61.035,-62.500,-148.926
1687767143.821,-83.984,2.930,53.223,-76.172,-34.180
1687767143.825,-92.285,-4.395,42.480,-86.914,-106.445
1687767143.829,-83.496,-6.348,35.645,-76.660,-149.414
1687767143.844,-113.770,-4.395,48.828,-56.152,-65.430
1687767143.848,-136.230,-12.207,52.246,-96.680,87.891
1687767143.852,-118.652,-15.137,38.574,-102.539,-11.230
1687767143.856,-125.000,-16.113,30.273,-72.754,-169.922
1687767143.860,-111.328,-18.066,32.715,-63.477,23.438
1687767143.864,-92.285,-20.020,31.738,-73.730,174.316
1687767143.868,-89.844,-24.414,31.250,-81.543,59.570
1687767143.871,-88.379,-27.832,38.574,-81.543,-37.598
1687767143.875,-90.332,-28.809,40.527,-79.590,-77.637
1687767143.879,-95.703,-25.879,38.574,-57.617,185.059
1687767143.883,-108.887,-29.785,38.574,-59.570,357.422
1687767143.887,-93.750,-33.691,33.203,-88.867,-33.203
1687767143.876,-74.707,-30.273,21.484,-74.707,-211.914
1687767143.880,-77.148,-21.973,13.184,-49.805,-124.512
1687767143.884,-70.801,-20.996,-0.977,-51.758,-131.348
1687767143.888,-82.520,-30.273,-18.066,-67.871,-171.875
1687767143.892,-92.285,-36.133,-21.484,-72.754,-75.195
1687767143.896,-76.172,-28.809,-19.531,-67.871,-1.953
1687767143.900,-84.473,-20.020,-17.578,-77.148,-70.801
1687767143.903,-114.746,-21.484,-20.508,-103.516,-101.562
1687767143.907,-109.863,-27.832,-23.438,-101.074,39.062
1687767143.911,-87.891,-28.809,-34.180,-92.773,1.953
1687767143.915,-101.074,-21.484,-42.480,-97.168,-119.141
1687767143.919,-111.816,-14.648,-37.598,-104.004,-126.465
1687767143.920,-105.469,-22.461,-45.410,-97.656,97.656
1687767143.924,-109.375,-33.203,-52.734,-94.727,265.137
1687767143.928,-106.934,-34.180,-53.223,-104.004,-71.777
1687767143.932,-100.098,-35.645,-50.781,-95.703,-187.500
1687767143.936,-98.145,-34.668,-45.898,-77.148,-11.719
1687767143.940,-87.402,-31.250,-45.898,-69.336,-2.930
1687767143.944,-89.355,-40.527,-44.922,-84.473,-24.902
1687767143.947,-81.543,-38.086,-38.574,-76.172,-71.777
1687767143.951,-66.406,-27.344,-42.969,-71.777,134.277
1687767143.955,-65.918,-27.344,-41.016,-74.219,129.883
1687767143.959,-80.078,-32.715,-26.367,-73.730,-94.238
1687767143.963,-60.547,-40.527,-31.250,-76.660,-137.207
1687767143.996,-38.086,-35.156,-30.762,-75.195,-118.164
1687767144.000,-43.945,-27.344,-26.367,-73.242,-48.340
1687767144.004,-53.711,-33.203,-38.574,-57.617,-95.215
1687767144.008,-101.562,-39.062,-33.691,-73.730,-41.504
1687767144.012,-134.766,-39.551,-30.273,-68.359,94.238
1687767144.016,-113.281,-44.434,-25.391,-55.176,12.207
1687767144.020,-105.469,-37.598,-9.766,-77.637,-31.250
1687767144.023,-114.746,-30.273,-7.812,-77.148,87.891
1687767144.027,-111.328,-39.062,-20.020,-81.055,183.105
1687767144.031,-113.770,-48.340,-25.879,-87.891,-107.422
1687767144.035,-103.516,-47.363,-31.250,-77.148,-176.270
1687767144.039,-78.125,-45.898,-31.738,-65.430,-49.805
1687767144.010,-66.895,-47.852,-18.066,-48.340,-45.898
1687767144.014,-72.266,-50.293,-10.742,-61.523,-98.633
1687767144.018,-69.824,-48.340,-17.090,-81.543,-105.469
1687767144.022,-67.871,-48.340,-27.344,-67.871,63.477
1687767144.026,-63.477,-45.898,-27.344,-62.012,83.496
1687767144.030,-54.199,-45.410,-18.066,-68.359,-16.602
1687767144.034,-63.965,-53.711,-20.020,-79.102,-3.418
1687767144.037,-68.848,-59.570,-29.297,-67.871,1.953
1687767144.041,-42.969,-61.035,-34.180,-55.664,-51.758
1687767144.045,-16.113,-52.734,-44.922,-36.133,-60.547
1687767144.049,-12.207,-43.945,-56.641,-27.344,-88.379
1687767144.053,-16.113,-49.805,-47.363,-39.062,-54.199
1687767144.087,6.836,-48.340,-51.758,-30.762,-92.285
1687767144.091,20.508,-41.016,-64.453,-28.809,-187.500
1687767144.095,-12.695,-44.922,-61.035,-35.645,7.324
1687767144.099,-39.062,-56.641,-61.035,-29.785,405.762
1687767144.103,-34.668,-62.500,-62.500,-26.855,351.074
1687767144.107,-20.508,-56.641,-59.082,-33.691,67.871
1687767144.111,-8.301,-59.570,-54.688,-31.250,127.441
1687767144.114,-6.836,-58.105,-54.199,-20.996,295.898
1687767144.118,21.973,-50.781,-58.594,-23.926,9.766
1687767144.122,22.949,-50.293,-63.477,-34.180,-130.371
1687767144.126,-3.418,-46.875,-54.199,-32.715,20.996
1687767144.130,10.742,-52.246,-43.457,-23.926,-105.469
1687767144.114,-8.789,-59.570,-43.945,-29.785,-231.934
1687767144.118,-24.414,-55.176,-40.527,-46.387,-135.254
1687767144.122,-14.160,-59.082,-39.062,-61.523,-61.035
1687767144.126,-45.898,-64.941,-47.363,-65.918,-81.055
1687767144.130,-72.266,-63.477,-47.363,-56.152,-41.504
1687767144.134,-57.617,-63.477,-43.457,-34.180,53.223
1687767144.138,-28.809,-61.523,-41.992,-28.320,249.023
1687767144.141,-12.207,-58.105,-40.527,-34.180,144.043
1687767144.145,-21.973,-55.176,-44.922,-38.086,-81.543
1687767144.149,-35.645,-53.223,-45.898,-39.551,-104.492
1687767144.153,-43.457,-56.641,-38.086,-33.691,-77.637
1687767144.157,-62.500,-60.059,-29.297,-28.320,-109.863
1687767144.166,-38.574,-50.293,-31.738,-29.297,-148.438
1687767144.170,-35.156,-45.898,-37.109,-39.062,-99.609
1687767144.174,-21.973,-47.852,-34.668,-18.555,254.883
1687767144.178,-19.531,-44.922,-28.809,-11.719,193.848
1687767144.182,-43.457,-46.387,-20.020,-28.809,-104.980
1687767144.186,-28.320,-49.316,-16.113,-18.555,7.324
1687767144.190,-37.109,-44.434,-7.812,-17.090,104.980
1687767144.193,-50.781,-30.762,10.742,-37.109,33.691
1687767144.197,-37.109,-18.066,27.344,-23.926,-127.441
1687767144.201,-20.508,-23.438,20.996,-11.230,-16.113
1687767144.205,-40.039,-32.227,10.254,-65.430,74.707
1687767144.209,-41.016,-22.461,17.090,-73.730,-69.336
1687767144.219,-32.715,-7.324,27.344,-79.102,-79.590
1687767144.223,-46.387,-7.324,33.691,-97.656,-1.465
1687767144.227,-51.758,-6.348,39.551,-79.590,-48.828
1687767144.231,-65.918,-4.883,40.527,-81.543,-139.160
1687767144.235,-57.129,-8.301,42.969,-72.266,-93.262
1687767144.239,-33.203,-4.395,48.828,-47.363,112.305
1687767144.243,-32.227,-6.836,46.875,-37.109,54.688
1687767144.246,2.441,-1.953,53.711,-30.273,-107.910
1687767144.250,22.461,3.906,65.918,-34.668,-34.180
1687767144.254,33.691,4.883,64.941,-13.672,325.195
1687767144.258,14.160,0.488,71.777,11.719,466.797
1687767144.262,-27.832,-6.348,77.148,-2.930,309.570
1687767144.370,-48.340,-0.977,86.426,-19.531,85.449
1687767144.374,-41.504,-6.348,103.027,-18.066,-62.988
1687767144.378,-17.578,-15.625,107.910,-19.043,-168.457
1687767144.382,4.395,-11.230,94.727,-16.113,-202.148
1687767144.386,6.348,-11.230,78.125,-41.504,-141.113
1687767144.390,-6.836,-18.066,64.453,-60.547,-4.883
1687767144.394,-21.973,-9.766,61.523,-52.734,46.875
1687767144.397,-29.785,-12.695,61.523,-45.410,-110.352
1687767144.401,-13.672,-20.020,50.293,-26.367,-74.707
1687767144.405,-18.066,-12.695,37.598,-34.180,21.484
1687767144.409,-52.246,-18.066,28.320,-33.691,-106.934
1687767144.413,-51.758,-24.902,17.578,-31.250,-84.473
1687767144.420,-44.922,-31.250,19.531,-34.668,92.285
1687767144.424,-40.527,-42.969,9.277,-39.551,10.742
1687767144.428,-69.824,-38.574,1.953,-47.852,-139.160
1687767144.432,-82.520,-25.391,6.836,-60.547,-89.355
1687767144.436,-70.801,-26.367,7.812,-62.500,88.379
1687767144.440,-51.758,-25.391,6.348,-54.688,16.602
1687767144.444,-49.805,-29.297,4.395,-61.035,-61.035
1687767144.447,-67.871,-41.016,0.000,-69.336,42.969
1687767144.451,-86.914,-42.969,0.977,-59.570,115.723
1687767144.455,-79.590,-39.062,0.488,-61.035,-13.672
1687767144.459,-48.340,-38.086,-0.488,-74.219,-153.320
1687767144.463,-66.406,-36.621,8.789,-74.707,-77.637
1687767144.423,-80.078,-34.180,7.324,-66.406,-18.066
1687767144.427,-79.590,-38.574,-1.465,-61.035,-86.914
1687767144.431,-77.637,-45.898,-1.465,-78.613,-95.703
1687767144.435,-62.988,-46.875,0.000,-77.637,-6.348
1687767144.439,-41.992,-41.504,-0.977,-60.547,27.344
1687767144.443,-29.297,-40.527,2.441,-54.688,-22.461
1687767144.447,-29.297,-47.363,-0.977,-55.176,-53.711
1687767144.450,-51.758,-51.270,-1.953,-56.152,71.777
1687767144.454,-73.242,-43.945,5.859,-60.547,170.410
1687767144.458,-76.660,-44.434,-1.465,-65.918,-78.125
1687767144.462,-65.918,-46.875,-3.906,-59.570,-196.289
1687767144.466,-60.547,-42.969,-7.324,-60.547,-7.812
1687767144.427,-54.688,-51.758,-20.020,-48.828,-21.484
1687767144.431,-50.293,-51.270,-22.461,-44.434,-126.465
1687767144.435,-56.152,-49.316,-27.344,-58.594,-126.953
1687767144.439,-61.035,-59.082,-38.574,-81.055,-14.160
1687767144.443,-53.711,-57.129,-45.410,-79.590,50.781
1687767144.447,-0.488,-50.293,-35.156,-41.016,-78.125
1687767144.451,-14.160,-56.641,-36.133,-27.344,36.621
1687767144.454,-79.102,-59.570,-40.039,-39.551,273.438
1687767144.458,-52.246,-56.641,-40.527,-31.738,78.125
1687767144.462,-52.734,-59.082,-45.898,-47.852,-125.977
1687767144.466,-67.871,-66.895,-46.387,-48.828,-99.121
1687767144.470,-14.648,-58.594,-41.504,-28.320,-100.098
1687767144.494,-18.066,-50.293,-38.574,-51.270,-183.105
1687767144.498,-50.293,-58.105,-41.504,-39.551,-242.676
1687767144.502,-62.988,-61.035,-51.270,-34.180,-117.676
1687767144.506,-75.195,-60.547,-53.711,-51.270,215.820
1687767144.510,-79.102,-60.059,-53.223,-38.574,74.219
1687767144.514,-86.426,-58.594,-53.223,-22.461,-79.590
1687767144.518,-83.008,-62.988,-55.176,-46.875,68.848
1687767144.521,-61.035,-57.129,-53.711,-41.504,108.887
1687767144.525,-54.199,-56.152,-47.363,-17.578,-54.688
1687767144.529,-58.594,-62.500,-52.734,5.371,-94.727
1687767144.533,-52.734,-67.383,-62.500,9.277,47.852
1687767144.537,-41.992,-63.965,-69.336,4.395,-58.594
1687767144.520,-26.855,-58.105,-72.266,8.301,-142.090
1687767144.524,-38.086,-63.477,-65.918,-10.742,-48.340
1687767144.528,-58.105,-63.965,-55.664,18.066,187.500
1687767144.532,-34.180,-55.664,-46.387,41.016,395.020
1687767144.536,-9.766,-47.852,-50.293,19.531,451.172
1687767144.540,-29.297,-48.828,-65.918,3.418,413.086
1687767144.544,-25.879,-54.688,-61.035,-2.441,99.609
1687767144.547,-47.363,-61.523,-43.457,-12.207,-86.426
1687767144.551,-65.430,-68.848,-44.922,-11.719,-125.000
1687767144.555,-56.641,-72.266,-41.992,-28.320,-86.914
1687767144.559,-37.598,-67.383,-25.391,-20.020,28.320
1687767144.563,-44.922,-72.754,-17.578,3.906,-89.844
1687767144.551,-102.051,-91.309,-11.230,-43.457,-183.105
1687767144.555,-152.832,-98.145,-0.977,-82.520,-47.852
1687767144.559,-178.711,-104.004,11.719,-83.496,-41.016
1687767144.563,-183.105,-105.469,21.484,-119.629,-190.918
1687767144.567,-217.285,-112.305,28.320,-128.418,-158.691
1687767144.571,-244.629,-112.305,21.973,-151.855,-16.602
1687767144.575,-241.211,-105.957,19.531,-158.203,137.207
1687767144.578,-241.211,-101.562,28.320,-123.047,5.859
1687767144.582,-228.027,-87.402,35.156,-122.559,-191.895
1687767144.586,-206.543,-83.984,23.438,-127.441,-68.359
1687767144.590,-223.633,-84.473,8.789,-114.258,328.613
1687767144.594,-207.520,-82.520,0.000,-107.910,472.168
1687767144.580,-187.988,-74.219,-9.766,-104.004,83.496
1687767144.584,-198.242,-66.406,-11.230,-104.004,-38.574
1687767144.588,-179.688,-66.406,-14.160,-91.797,-39.062
1687767144.592,-128.906,-61.523,-25.391,-85.938,-207.031
1687767144.596,-116.211,-55.176,-41.504,-71.777,-145.020
1687767144.600,-117.188,-59.082,-51.758,-34.180,149.902
1687767144.604,-87.891,-60.059,-57.129,-36.621,157.227
1687767144.607,-78.613,-56.641,-72.266,-43.457,-95.215
1687767144.611,-50.781,-56.152,-77.148,-15.625,-132.812
1687767144.615,-25.879,-48.828,-58.105,11.230,189.453
1687767144.619,-17.090,-45.898,-40.527,29.297,324.707
1687767144.623,0.000,-45.410,-43.945,33.203,-59.570
1687767144.629,27.832,-38.574,-57.129,35.156,-187.500
1687767144.633,18.555,-32.227,-66.406,57.129,205.078
1687767144.637,22.949,-27.344,-77.637,42.969,178.223
1687767144.641,18.066,-23.438,-84.961,27.344,-164.062
1687767144.645,-1.953,-20.996,-82.031,21.484,-147.949
1687767144.649,15.137,-29.297,-80.078,36.621,-101.074
1687767144.653,1.953,-27.832,-81.055,39.062,-84.473
1687767144.656,0.000,-24.902,-82.520,12.207,-183.594
1687767144.660,3.906,-26.855,-86.426,20.508,-132.812
1687767144.664,-11.719,-17.578,-83.496,27.344,125.000
1687767144.668,-11.719,-16.602,-67.871,20.020,-89.355
1687767144.672,9.766,-19.043,-64.941,16.602,-153.809
1687767144.684,4.395,-18.066,-69.824,14.160,-11.230
1687767144.688,-1.465,-15.625,-61.523,10.742,-65.918
1687767144.692,2.930,-13.672,-49.316,4.883,-137.207
1687767144.696,-23.926,-18.555,-47.852,-5.371,-75.195
1687767144.700,-19.531,-16.602,-47.852,-12.695,130.371
1687767144.704,20.508,-12.695,-40.527,-6.836,123.535
1687767144.708,5.859,-11.719,-35.645,-22.949,-69.824
1687767144.711,0.977,-11.719,-38.086,-40.527,-65.430
1687767144.715,-8.301,-18.066,-34.668,-17.090,190.918
1687767144.719,-36.621,-17.090,-33.203,8.301,335.449
1687767144.723,-30.273,-14.160,-39.062,-1.953,111.328
1687767144.727,-39.551,-20.996,-42.969,-15.625,-146.973
1687767144.736,-50.781,-24.414,-44.922,-21.484,-110.352
1687767144.740,-41.504,-19.531,-43.457,-31.738,-189.941
1687767144.744,-37.598,-15.137,-43.945,-44.434,-247.559
1687767144.748,-22.461,-11.230,-41.992,-40.527,-92.285
1687767144.752,-30.273,-13.672,-36.133,-17.090,-39.062
1687767144.756,-37.598,-8.301,-28.809,-20.508,-62.500
1687767144.760,-20.020,-0.488,-26.855,-23.438,-3.906
1687767144.763,-9.766,-12.695,-39.062,-24.414,54.688
1687767144.767,-0.977,-26.367,-41.992,-11.230,41.016
1687767144.771,-23.438,-37.109,-35.156,-19.531,-67.871
1687767144.775,-44.922,-36.133,-33.203,-58.105,-137.695
1687767144.779,-44.434,-30.762,-27.344,-70.801,-23.926
1687767144.775,-73.242,-34.180,-27.832,-75.195,-36.621
1687767144.779,-80.566,-38.574,-39.062,-53.711,-142.090
1687767144.783,-95.215,-44.434,-43.945,-71.777,-145.996
1687767144.787,-99.609,-44.922,-46.875,-113.281,-43.457
1687767144.791,-63.477,-37.598,-44.434,-94.727,7.812
1687767144.795,-54.688,-37.598,-47.852,-66.895,-61.523
1687767144.799,-34.180,-38.086,-50.781,-77.148,57.129
1687767144.802,-34.668,-31.250,-45.898,-68.848,83.984
1687767144.806,-33.203,-42.969,-41.992,-57.129,-48.828
1687767144.810,-46.875,-50.781,-39.551,-83.008,-118.164
1687767144.814,-46.875,-41.992,-31.250,-77.148,-107.422
1687767144.818,-18.555,-39.062,-23.438,-55.664,165.527
1687767144.839,-7.324,-39.062,-21.484,-44.434,351.562
1687767144.843,-10.254,-34.668,-13.672,-43.457,306.152
1687767144.847,-20.508,-27.344,-10.254,-56.641,29.785
1687767144.851,-30.273,-24.414,-12.207,-53.711,-40.039
1687767144.855,-19.043,-35.156,-6.836,-46.387,-43.945
1687767144.859,-16.602,-36.621,-1.465,-47.363,-115.234
1687767144.863,-26.855,-29.785,0.977,-50.781,-37.109
1687767144.866,-16.602,-30.762,4.395,-47.852,-15.625
1687767144.870,-14.160,-30.762,12.695,-56.152,-91.309
1687767144.874,-14.648,-30.273,0.977,-48.340,-138.672
1687767144.878,-9.766,-28.809,7.324,-7.324,65.918
1687767144.882,-8.301,-28.809,120.605,-31.738,227.539
1687767144.850,-4.883,-31.250,147.461,-52.246,-88.379
1687767144.854,-1.953,-27.832,95.703,-35.645,-217.285
1687767144.858,-1.953,-28.809,81.543,-59.082,-9.766
1687767144.862,8.301,-17.578,77.148,-56.641,-56.152
1687767144.866,23.438,-20.508,79.590,-29.297,-183.105
1687767144.870,16.113,-31.250,68.848,-31.738,2.441
1687767144.874,9.277,-24.902,75.195,-22.949,112.305
1687767144.877,-13.672,-30.273,102.051,-27.832,-9.766
1687767144.881,-20.996,-41.016,110.840,-55.664,-66.406
1687767144.885,-3.906,-44.922,127.930,-58.594,-90.820
1687767144.889,-2.441,-41.992,137.207,-37.109,39.062
1687767144.893,-10.254,-38.574,107.910,-34.668,-13.184
1687767144.898,3.418,-41.016,83.984,-52.246,-128.906
1687767144.902,3.418,-41.992,73.730,-53.223,-84.473
1687767144.906,21.973,-41.504,58.594,-35.156,208.984
1687767144.910,33.691,-37.598,48.828,-36.133,341.309
1687767144.914,20.020,-41.016,46.387,-41.016,99.609
1687767144.918,9.766,-55.176,38.086,-45.898,35.645
1687767144.922,17.090,-67.383,34.668,-20.996,39.062
1687767144.925,57.129,-60.547,33.203,-1.465,-104.004
1687767144.929,60.547,-34.180,15.625,-20.020,-112.793
1687767144.933,23.926,-30.762,-3.906,-35.645,-104.492
1687767144.937,20.996,-38.086,-12.207,-55.176,-119.141
1687767144.941,17.090,-29.785,-21.973,-73.730,-145.996
1687767144.955,14.160,-32.227,-36.621,-83.984,-202.637
1687767144.959,20.508,-32.227,-48.340,-85.449,-45.898
1687767144.963,9.766,-26.367,-53.711,-87.402,-21.973
1687767144.967,0.488,-25.391,-57.129,-93.262,-86.426
1687767144.971,-0.977,-25.391,-61.523,-96.191,96.680
1687767144.975,14.160,-26.855,-66.406,-96.191,379.395
1687767144.979,25.391,-20.996,-77.637,-92.773,369.141
1687767144.982,40.039,-22.949,-77.148,-87.402,19.043
1687767144.986,28.809,-28.320,-69.824,-83.008,-105.469
1687767144.990,-10.254,-26.855,-78.613,-76.172,155.273
1687767144.994,-6.348,-27.832,-88.867,-61.523,41.992
1687767144.998,18.066,-28.320,-79.102,-62.988,-197.754
1687767145.001,20.020,-28.320,-73.242,-62.012,-158.691
1687767145.005,24.414,-27.832,-71.777,-68.359,-68.848
1687767145.009,26.855,-33.203,-75.684,-69.824,-122.070
1687767145.013,19.531,-39.551,-82.520,-64.941,-128.906
1687767145.017,12.695,-32.715,-75.684,-53.711,-62.988
1687767145.021,14.648,-28.320,-64.941,-36.621,-44.922
1687767145.025,26.367,-33.691,-64.941,-32.715,-25.391
1687767145.028,33.203,-35.156,-68.359,-34.180,-9.277
1687767145.032,18.066,-34.668,-62.988,-33.203,61.035
1687767145.036,11.719,-37.598,-52.246,-19.531,287.598
1687767145.040,23.926,-41.504,-58.105,-44.434,35.156
1687767145.044,32.227,-39.062,-66.895,-58.105,-149.902
1687767145.105,22.949,-39.551,-66.406,-35.156,-46.875
1687767145.109,25.391,-44.922,-70.801,-30.762,-83.984
1687767145.113,24.414,-44.922,-67.871,-26.367,-135.254
1687767145.117,8.789,-44.434,-62.500,-36.133,-111.328
1687767145.121,-7.812,-45.410,-65.430,-47.852,15.137
1687767145.125,-6.348,-47.363,-68.359,-44.434,68.359
1687767145.129,3.418,-46.387,-66.895,-34.668,61.035
1687767145.132,3.418,-44.922,-67.871,-19.043,-36.621
1687767145.136,24.902,-41.992,-57.129,1.465,222.656
1687767145.140,25.391,-41.992,-53.223,0.000,354.492
1687767145.144,8.301,-35.156,-54.199,-22.461,-79.590
1687767145.148,17.578,-34.180,-53.711,-34.180,-139.160
1687767145.182,23.926,-36.621,-52.246,-17.578,-25.391
1687767145.186,19.043,-34.668,-48.340,-12.207,-95.215
1687767145.190,11.719,-42.480,-52.246,-11.719,-123.047
1687767145.194,7.812,-46.875,-57.129,-2.930,-96.191
1687767145.198,10.742,-45.898,-58.105,-5.859,-20.020
1687767145.202,14.160,-42.969,-51.270,-8.789,-78.613
1687767145.206,8.789,-41.992,-54.688,-19.043,-140.625
1687767145.209,0.977,-49.316,-57.617,-23.926,-10.742
1687767145.213,-7.324,-52.246,-59.082,-45.410,-5.371
1687767145.217,5.371,-47.852,-55.176,-35.156,-110.352
1687767145.221,18.555,-41.992,-51.270,-13.672,-50.781
1687767145.225,27.832,-39.062,-56.152,-42.480,40.039
1687767145.257,33.691,-38.086,-59.570,-38.086,-28.320
1687767145.261,43.457,-40.039,-61.523,-16.113,-109.863
1687767145.265,30.273,-43.945,-62.500,-26.367,-81.055
1687767145.269,-13.184,-43.457,-54.688,-24.414,65.430
1687767145.273,-22.949,-47.852,-50.293,-16.113,77.637
1687767145.277,-34.180,-49.805,-52.246,-15.625,83.984
1687767145.281,-22.949,-52.734,-50.781,-16.602,102.539
1687767145.284,-10.742,-47.852,-53.223,-6.348,46.387
1687767145.288,-11.230,-41.016,-55.664,-8.301,-59.082
1687767145.292,-7.324,-41.504,-57.617,-7.812,-184.570
1687767145.296,-7.324,-39.551,-60.059,-14.160,-109.375
1687767145.300,-2.930,-39.551,-70.312,-7.324,234.375
1687767145.288,6.836,-42.480,-71.289,-13.184,96.680
1687767145.292,-11.719,-47.363,-54.199,-37.109,-83.984
1687767145.296,-13.672,-45.898,-43.457,-13.184,-65.918
1687767145.300,-0.977,-42.969,-45.410,-27.832,-42.480
1687767145.304,-12.695,-41.504,-53.711,-54.199,-16.602
1687767145.308,-11.230,-42.480,-59.082,-39.062,13.672
1687767145.312,-11.230,-41.016,-60.059,-44.434,79.590
1687767145.315,-15.137,-43.945,-62.012,-56.152,58.105
1687767145.319,-27.344,-47.852,-58.594,-60.547,-90.332
1687767145.323,-21.484,-46.875,-53.711,-38.086,-171.387
1687767145.327,-13.672,-47.852,-49.316,-14.648,19.043
1687767145.331,-19.531,-51.270,-45.410,-35.156,149.414
1687767145.344,-15.625,-46.875,-43.945,-49.316,-117.676
1687767145.348,-20.508,-42.969,-44.922,-39.551,-166.504
1687767145.352,-33.203,-47.363,-46.387,-41.016,28.809
1687767145.356,-26.855,-51.270,-46.387,-25.879,48.828
1687767145.360,-14.648,-53.711,-45.898,-22.949,-2.930
1687767145.364,-13.672,-42.969,-61.523,-33.691,28.809
1687767145.368,-31.738,-40.527,-60.547,-64.453,270.020
1687767145.371,-47.852,-43.945,-42.969,-90.820,145.508
1687767145.375,-55.664,-52.246,-48.340,-88.379,-146.973
1687767145.379,-53.223,-51.270,-47.363,-91.309,-129.883
1687767145.383,-83.984,-44.434,-43.945,-92.285,-54.688
1687767145.387,-94.238,-50.293,-48.340,-96.680,-135.742
1687767145.481,-69.336,-56.152,-46.387,-80.566,-162.598
1687767145.485,-87.402,-55.664,-62.988,-52.734,-52.246
1687767145.489,-93.750,-55.176,-60.547,-64.941,67.383
1687767145.493,-78.125,-55.176,-40.039,-82.031,-39.551
1687767145.497,-74.219,-47.852,-34.668,-75.684,-105.469
1687767145.501,-63.965,-42.480,-29.785,-62.500,55.664
1687767145.505,-66.406,-46.875,-30.762,-65.918,129.395
1687767145.508,-73.242,-55.664,-33.203,-70.312,-37.109
1687767145.512,-67.871,-53.711,-24.414,-59.082,-151.367
1687767145.516,-59.570,-52.246,-33.203,-47.363,-34.180
1687767145.520,-56.641,-54.688,-45.898,-53.711,0.977
1687767145.524,-46.387,-45.898,-34.668,-52.246,-124.512
1687767145.486,-40.039,-42.480,-31.250,-57.617,-141.113
1687767145.490,-44.922,-49.316,-33.203,-56.641,24.902
1687767145.494,-42.969,-55.176,-30.762,-39.551,316.895
1687767145.498,-35.156,-52.246,-33.691,-62.500,94.727
1687767145.502,-34.668,-51.270,-41.504,-73.730,-86.914
1687767145.506,-39.551,-50.293,-42.480,-53.711,150.391
1687767145.510,-44.434,-52.734,-39.062,-59.082,88.867
1687767145.513,-50.781,-58.105,-46.387,-61.035,-87.402
1687767145.517,-41.504,-53.711,-53.223,-78.613,-110.352
1687767145.521,-23.926,-49.805,-48.340,-73.242,177.734
1687767145.525,-19.531,-52.734,-46.875,-49.316,304.688
1687767145.529,-18.555,-50.781,-49.805,-51.758,-67.383
1687767145.510,-28.320,-53.223,-58.594,-74.219,-204.102
1687767145.514,-42.480,-58.594,-63.965,-82.031,-134.766
1687767145.518,-33.691,-54.199,-60.547,-74.707,-201.172
1687767145.522,-41.992,-57.617,-57.129,-79.102,-190.430
1687767145.526,-52.246,-60.547,-56.641,-63.477,7.324
1687767145.530,-43.457,-54.688,-55.664,-44.434,104.980
1687767145.534,-40.039,-49.805,-51.270,-35.645,-48.340
1687767145.537,-49.805,-49.805,-49.805,-32.227,-70.312
1687767145.541,-40.039,-52.246,-50.781,-39.551,-23.438
1687767145.545,-28.809,-52.246,-51.758,-52.246,-14.160
1687767145.549,-23.926,-42.480,-49.805,-39.062,-38.574
1687767145.553,-27.832,-40.527,-53.711,-39.551,-143.555
1687767145.514,-28.809,-41.504,-49.805,-57.617,-32.227
1687767145.518,-33.691,-45.410,-49.316,-61.035,41.504
1687767145.522,-38.086,-41.992,-54.688,-60.059,-78.125
1687767145.526,-37.598,-42.480,-60.547,-62.012,-82.520
1687767145.530,-42.480,-42.480,-66.406,-56.641,129.395
1687767145.534,-32.715,-37.598,-65.918,-77.148,87.402
1687767145.538,-22.461,-42.969,-64.941,-80.566,-38.086
1687767145.541,-38.574,-45.898,-63.477,-58.594,55.664
1687767145.545,-63.965,-42.480,-68.848,-59.082,44.922
1687767145.549,-70.801,-50.293,-60.547,-64.453,-83.496
1687767145.553,-43.945,-46.875,-53.711,-44.434,-132.812
1687767145.557,-41.504,-30.273,-68.359,-67.871,-118.164
1687767145.521,-81.055,-24.902,-74.219,-105.957,175.293
1687767145.525,-113.281,-27.344,-73.730,-119.629,89.355
1687767145.529,-113.281,-31.738,-78.125,-131.348,-141.602
1687767145.533,-103.516,-29.785,-84.473,-143.555,-86.914
1687767145.537,-112.793,-27.344,-94.727,-153.320,-13.184
1687767145.541,-115.723,-25.879,-95.215,-156.250,-5.859
1687767145.545,-109.863,-23.926,-96.680,-161.621,-72.266
1687767145.548,-108.887,-20.996,-102.051,-166.992,-0.977
1687767145.552,-111.816,-28.809,-100.586,-168.457,5.859
1687767145.556,-97.168,-31.250,-100.098,-172.852,-114.258
1687767145.560,-76.660,-29.785,-105.469,-165.039,-121.582
1687767145.564,-77.148,-35.156,-109.375,-164.062,37.598
1687767145.542,-88.867,-37.598,-107.910,-156.250,77.637
1687767145.546,-102.539,-37.598,-107.910,-145.508,-112.305
1687767145.550,-95.703,-36.621,-107.422,-137.207,-83.496
1687767145.554,-85.938,-41.504,-102.539,-124.512,67.383
1687767145.558,-81.543,-44.434,-100.098,-114.746,8.789
1687767145.562,-71.289,-43.945,-101.074,-124.512,-124.023
1687767145.566,-61.523,-43.945,-105.957,-128.906,-42.969
1687767145.569,-59.570,-45.898,-108.398,-108.398,223.145
1687767145.573,-62.012,-46.875,-105.957,-115.723,150.879
1687767145.577,-57.617,-48.340,-101.562,-120.605,-70.801
1687767145.581,-63.965,-49.805,-101.074,-113.281,17.090
1687767145.585,-79.590,-58.594,-111.328,-117.188,289.551
1687767145.571,-55.664,-63.477,-120.117,-90.332,388.184
1687767145.575,-52.246,-53.223,-113.281,-85.449,411.133
1687767145.579,-79.102,-57.617,-122.070,-105.957,226.074
1687767145.583,-70.801,-68.848,-140.625,-97.656,-187.988
1687767145.587,-58.594,-70.312,-138.672,-81.055,-145.020
1687767145.591,-48.828,-63.477,-139.648,-88.379,-11.230
1687767145.595,-50.781,-60.547,-147.461,-84.961,62.500
1687767145.598,-52.246,-63.477,-152.832,-61.523,340.820
1687767145.602,-34.180,-68.359,-155.273,-66.406,389.160
1687767145.606,-46.875,-83.008,-166.016,-70.801,347.168
1687767145.610,-69.336,-86.914,-171.387,-76.172,65.430
1687767145.614,-65.430,-81.055,-171.387,-103.027,-232.910
1687767145.600,-57.617,-86.426,-176.758,-84.473,-245.117
1687767145.604,-49.316,-93.262,-170.410,-73.242,-206.543
1687767145.608,-50.293,-87.402,-163.574,-73.242,12.695
1687767145.612,-29.297,-85.938,-163.574,-67.871,301.270
1687767145.616,-21.973,-85.449,-154.297,-74.707,177.246
1687767145.620,-31.738,-80.078,-144.043,-78.613,52.246
1687767145.624,-20.508,-82.031,-142.090,-67.383,122.559
1687767145.627,-16.113,-83.984,-140.137,-56.641,-2.441
1687767145.631,-21.973,-86.914,-139.648,-57.129,-120.605
1687767145.635,-47.363,-81.543,-138.184,-51.270,-140.137
1687767145.639,-80.566,-78.613,-136.230,-47.363,122.559
1687767145.643,-78.613,-71.289,-136.719,-36.621,262.207
1687767145.661,-65.430,-71.777,-135.742,-46.387,-97.656
1687767145.665,-63.477,-75.684,-136.719,-63.965,-179.688
1687767145.669,-61.035,-73.242,-137.207,-58.105,-66.895
1687767145.673,-49.805,-73.242,-134.766,-52.246,-107.422
1687767145.677,-48.828,-72.266,-130.859,-39.551,-97.168
1687767145.681,-42.969,-66.406,-113.770,-31.250,-24.414
1687767145.685,-38.086,-66.895,-108.398,-46.875,33.203
1687767145.688,-49.805,-68.359,-114.258,-71.777,-5.371
1687767145.692,-34.668,-63.965,-112.793,-68.848,-149.902
1687767145.696,-21.973,-66.406,-112.793,-45.898,45.898
1687767145.700,-27.832,-67.871,-108.887,-44.434,217.285
1687767145.704,-17.578,-63.965,-101.562,-54.688,-163.086
1687767145.706,-23.438,-66.895,-98.633,-43.457,-245.117
1687767145.710,-30.273,-68.848,-104.492,-41.992,-120.605
1687767145.714,-43.945,-66.895,-107.910,-41.504,-137.695
1687767145.718,-54.199,-59.570,-108.887,-64.453,-146.973
1687767145.722,-27.832,-55.664,-113.770,-72.754,-43.457
1687767145.726,-17.090,-64.941,-127.930,-33.691,20.020
1687767145.730,-54.199,-70.801,-128.418,-55.664,-8.789
1687767145.733,-84.961,-69.824,-122.070,-84.473,-99.609
1687767145.737,-87.402,-71.777,-107.910,-81.055,-168.457
1687767145.741,-103.516,-80.078,-92.773,-100.098,119.141
1687767145.745,-130.859,-84.961,-85.938,-119.629,222.656
1687767145.749,-133.301,-84.961,-76.172,-110.840,-100.098
1687767145.825,-168.457,-89.844,-71.289,-152.832,-100.586
1687767145.829,-232.422,-92.285,-61.035,-171.387,-23.926
1687767145.833,-248.047,-93.750,-51.758,-146.484,-84.473
1687767145.837,-251.953,-100.586,-42.480,-182.617,-120.117
1687767145.841,-261.719,-110.352,-35.645,-196.777,-113.770
1687767145.845,-264.648,-113.770,-26.367,-184.082,-15.625
1687767145.849,-257.812,-104.492,-4.883,-185.059,-16.113
1687767145.852,-257.812,-111.328,4.883,-189.941,-119.629
1687767145.856,-265.137,-121.094,4.883,-186.523,-10.742
1687767145.860,-259.277,-123.047,16.602,-172.852,229.492
1687767145.864,-241.211,-127.441,39.551,-164.551,7.324
1687767145.868,-234.863,-129.883,48.828,-158.203,-139.160
1687767145.830,-232.910,-131.348,55.664,-153.809,-56.152
1687767145.834,-224.609,-132.324,69.336,-150.879,-72.754
1687767145.838,-214.355,-135.254,77.637,-145.508,-51.270
1687767145.842,-182.617,-142.090,81.055,-124.023,-21.484
1687767145.846,-168.945,-137.695,78.125,-109.863,126.465
1687767145.850,-155.762,-139.648,70.312,-100.586,33.691
1687767145.854,-156.250,-143.066,62.988,-84.961,-118.164
1687767145.857,-139.648,-140.137,73.730,-63.965,-48.340
1687767145.861,-125.977,-133.301,80.078,-55.176,169.922
1687767145.865,-117.676,-132.324,73.242,-70.801,141.113
1687767145.869,-122.559,-138.184,70.801,-59.082,-73.242
1687767145.873,-123.047,-141.113,65.430,-54.688,-104.492
1687767145.835,-109.375,-135.254,51.758,-41.992,-103.027
1687767145.839,-94.238,-122.070,42.480,-4.883,-119.629
1687767145.843,-64.941,-116.699,37.109,-7.812,-102.539
1687767145.847,-25.391,-111.328,32.715,6.348,-46.875
1687767145.851,-20.508,-110.840,34.668,8.301,5.371
1687767145.855,-13.184,-107.910,33.203,4.883,-52.246
1687767145.859,25.879,-99.609,16.113,41.016,-49.805
1687767145.862,32.227,-92.285,-2.441,47.852,34.668
1687767145.866,22.949,-88.867,-0.488,59.570,4.883
1687767145.870,35.645,-90.820,-2.930,62.988,-97.168
1687767145.874,63.965,-83.984,-4.883,49.805,-109.375
1687767145.878,64.941,-71.289,0.488,76.660,-26.367
1687767145.914,72.754,-61.523,1.465,83.496,-65.918
1687767145.918,75.195,-58.105,-11.230,87.891,-92.285
1687767145.922,69.336,-52.246,-14.648,90.820,-76.172
1687767145.926,83.984,-45.898,-5.859,78.125,128.906
1687767145.930,82.031,-51.758,-16.602,71.289,505.371
1687767145.934,76.172,-56.641,-29.785,70.801,578.613
1687767145.938,91.797,-49.316,-30.273,85.449,372.070
1687767145.941,81.543,-47.852,-30.762,79.102,14.648
1687767145.945,77.148,-43.945,-27.344,67.383,-123.535
1687767145.949,89.844,-38.086,-30.273,64.453,-153.809
1687767145.953,69.824,-42.480,-36.621,52.734,-78.613
1687767145.957,62.012,-45.410,-38.086,35.156,35.645
1687767145.961,86.426,-42.480,-31.738,40.527,-117.676
1687767145.965,63.965,-41.992,-24.902,58.105,-285.156
1687767145.969,52.734,-39.551,-25.879,69.824,-142.090
1687767145.973,59.570,-32.227,-23.438,58.594,35.156
1687767145.977,46.387,-35.645,-19.043,40.039,-78.613
1687767145.981,56.152,-36.621,-17.090,47.852,-77.148
1687767145.985,58.594,-32.227,-24.902,55.664,81.543
1687767145.988,50.293,-34.180,-24.414,52.246,8.789
1687767145.992,52.246,-37.598,-22.949,43.457,-78.613
1687767145.996,45.898,-31.738,-32.227,25.879,21.484
1687767146.000,35.645,-29.297,-41.016,12.207,80.078
1687767146.004,25.879,-38.574,-41.504,17.090,-1.465
1687767145.974,44.434,-41.992,-38.574,29.297,-118.652
1687767145.978,45.410,-39.062,-42.480,22.461,-142.578
1687767145.982,49.805,-35.156,-35.156,24.414,80.078
1687767145.986,48.828,-37.598,-31.738,41.992,121.094
1687767145.990,30.762,-42.480,-36.621,8.789,-29.297
1687767145.994,34.180,-37.109,-38.574,-7.812,-19.531
1687767145.998,30.762,-37.109,-37.109,4.395,332.031
1687767146.001,25.879,-40.527,-34.668,13.184,404.297
1687767146.005,49.316,-32.227,-30.273,7.812,-42.480
1687767146.009,24.414,-32.227,-32.227,-4.883,-152.344
1687767146.013,-0.488,-34.668,-35.156,-0.977,-104.492
1687767146.017,12.207,-35.156,-36.621,6.348,-61.523
1687767146.023,10.742,-34.180,-38.574,6.836,-64.453
1687767146.027,8.301,-32.715,-40.527,-14.160,-112.305
1687767146.031,12.695,-38.086,-41.992,-14.160,188.477
1687767146.035,15.137,-37.598,-33.691,3.418,241.211
1687767146.039,19.531,-31.738,-33.203,-8.789,-40.039
1687767146.043,17.090,-32.715,-38.574,-15.625,36.621
1687767146.047,-1.465,-35.645,-41.016,-14.648,105.957
1687767146.050,-0.977,-30.273,-40.527,-14.648,-67.871
1687767146.054,3.906,-30.762,-43.945,-18.555,-165.527
1687767146.058,-1.953,-37.598,-41.504,-16.602,-87.402
1687767146.062,8.789,-37.109,-30.762,-11.230,-27.832
1687767146.066,13.672,-33.691,-28.809,-11.719,-95.703
1687767146.079,14.648,-34.180,-36.621,-21.973,-181.152
1687767146.083,13.672,-40.039,-41.016,-34.180,-59.570
1687767146.087,-5.859,-42.480,-32.715,-30.273,10.254
1687767146.091,-19.531,-35.645,-24.414,-20.020,-107.910
1687767146.095,-6.836,-40.039,-20.996,-32.715,-98.633
1687767146.099,-8.301,-45.898,-33.691,-27.832,228.516
1687767146.103,-24.902,-41.992,-42.480,-2.441,412.598
1687767146.106,-4.395,-36.621,-32.227,-34.180,-18.066
1687767146.110,-0.977,-35.645,-23.926,-30.273,-187.012
1687767146.114,-21.973,-33.691,-20.020,-23.438,-70.312
1687767146.118,-22.461,-32.715,-21.973,-47.363,-116.699
1687767146.122,-20.020,-36.133,-27.832,-47.363,-169.922
1687767146.141,-24.414,-41.504,-27.832,-41.504,-138.184
1687767146.145,-31.738,-43.945,-31.738,-51.270,-33.203
1687767146.149,-14.648,-41.992,-37.109,-46.387,-26.855
1687767146.153,-3.906,-40.039,-29.785,-35.645,-84.961
1687767146.157,-15.137,-42.969,-26.367,-39.062,-31.250
1687767146.161,-32.227,-38.574,-27.832,-25.391,146.973
1687767146.165,-33.691,-29.785,-22.949,-21.973,62.012
1687767146.168,-27.832,-35.156,-20.020,-26.855,-174.316
1687767146.172,-24.902,-41.992,-27.344,-31.738,-82.031
1687767146.176,-42.480,-41.992,-27.832,-30.273,160.645
1687767146.180,-39.551,-45.410,-21.973,-31.738,-54.199
1687767146.184,-29.297,-42.480,-18.555,-14.160,-173.828
1687767146.220,-35.645,-39.062,-21.973,-5.371,0.977
1687767146.224,-14.648,-35.645,-25.391,-35.645,-49.805
1687767146.228,-20.996,-31.250,-22.949,-43.457,-201.660
1687767146.232,-30.273,-29.297,-25.391,-34.668,-128.418
1687767146.236,-31.738,-33.203,-36.621,-37.109,73.242
1687767146.240,-50.293,-42.969,-38.574,-41.992,64.453
1687767146.244,-39.062,-42.969,-38.574,-32.715,-105.469
1687767146.247,-13.672,-42.969,-32.227,-17.578,-74.219
1687767146.251,-19.043,-46.387,-16.602,-22.461,7.324
1687767146.255,-41.992,-39.062,-11.719,-46.387,-77.637
1687767146.259,-45.898,-35.156,-8.789,-62.500,-141.602
1687767146.263,-62.988,-41.016,-10.742,-47.852,-104.492
1687767146.226,-82.520,-46.875,-19.531,-55.176,162.598
1687767146.230,-74.219,-45.410,-17.578,-81.543,37.109
1687767146.234,-56.152,-41.504,-14.160,-76.172,-149.902
1687767146.238,-55.176,-42.969,-20.996,-60.547,-21.484
1687767146.242,-61.035,-42.480,-26.367,-65.430,-14.160
1687767146.246,-62.012,-38.086,-22.949,-62.012,-84.961
1687767146.250,-62.988,-42.480,-22.461,-46.387,-72.754
1687767146.253,-60.059,-55.176,-22.949,-53.711,-51.758
1687767146.257,-63.965,-61.035,-29.297,-55.176,-56.641
1687767146.261,-64.941,-55.664,-29.297,-55.176,-111.816
1687767146.265,-46.875,-55.176,-29.297,-70.312,-109.863
1687767146.269,-40.527,-52.246,-35.645,-81.055,20.996
1687767146.277,-44.922,-45.410,-28.809,-76.660,-32.227
1687767146.281,-42.480,-37.598,-20.996,-54.199,-148.438
1687767146.285,-35.645,-31.738,-23.926,-34.668,-32.227
1687767146.289,-34.180,-34.668,-31.738,-51.270,161.621
1687767146.293,-41.992,-35.645,-30.762,-72.754,28.320
1687767146.297,-37.598,-35.156,-24.902,-66.895,34.180
1687767146.301,-28.320,-38.574,-24.414,-59.570,190.918
1687767146.304,-38.086,-42.480,-22.461,-53.223,278.809
1687767146.308,-41.992,-52.734,-21.484,-60.547,321.289
1687767146.312,-38.574,-57.129,-20.996,-59.570,360.352
1687767146.316,-32.715,-48.828,-21.973,-62.012,261.230
1687767146.320,-42.969,-44.434,-24.414,-65.430,-15.625
1687767146.369,-64.453,-49.316,-23.438,-70.312,-157.227
1687767146.373,-62.500,-46.875,-19.043,-63.477,-183.594
1687767146.377,-57.129,-38.086,-15.137,-54.688,-133.301
1687767146.381,-59.570,-37.109,-10.254,-38.086,-99.609
1687767146.385,-51.758,-42.969,-20.508,-38.574,-137.207
1687767146.389,-44.434,-45.410,-27.832,-53.711,-95.215
1687767146.393,-52.246,-43.945,-18.066,-47.363,61.035
1687767146.396,-43.945,-40.039,-14.648,-55.664,0.488
1687767146.400,-26.855,-39.062,-14.648,-48.340,-125.977
1687767146.404,-17.578,-40.527,-4.883,-38.574,-157.715
1687767146.408,-13.672,-37.598,-1.953,-38.086,20.996
1687767146.412,-21.484,-37.598,-13.672,-38.574,306.641
1687767146.374,-25.391,-43.945,-24.414,-40.039,56.152
1687767146.378,-25.391,-43.457,-28.809,-39.062,-125.488
1687767146.382,-16.113,-41.016,-31.250,-42.969,2.441
1687767146.386,-14.648,-40.039,-32.227,-47.363,-62.012
1687767146.390,-19.043,-35.156,-15.625,-41.992,-93.750
1687767146.394,-15.137,-37.109,-12.695,-54.688,-22.461
1687767146.398,-17.578,-41.504,-23.438,-60.059,77.637
1687767146.401,-47.852,-39.551,-19.531,-48.828,-36.621
1687767146.405,-56.152,-44.434,-21.484,-52.246,-194.336
1687767146.409,-59.082,-47.852,-25.391,-47.363,-127.441
1687767146.413,-69.336,-48.828,-16.113,-43.945,10.742
1687767146.417,-65.430,-46.875,-13.184,-42.480,-81.055
1687767146.396,-51.758,-46.387,-21.973,-55.176,-187.988
1687767146.400,-36.133,-40.039,-22.949,-61.523,-102.051
1687767146.404,-31.250,-38.086,-24.902,-62.012,-27.832
1687767146.408,-51.758,-46.875,-29.297,-55.664,-72.266
1687767146.412,-53.711,-49.316,-21.484,-52.246,-91.797
1687767146.416,-31.250,-38.574,-12.695,-47.852,39.551
1687767146.420,-31.738,-35.645,-12.695,-45.410,81.055
1687767146.423,-39.062,-41.992,-7.324,-50.293,-37.598
1687767146.427,-37.109,-45.410,-12.207,-33.203,-158.691
1687767146.431,-43.457,-44.922,-19.531,-33.691,-54.199
1687767146.435,-49.316,-48.828,-14.160,-40.039,312.500
1687767146.439,-47.363,-55.176,-17.090,-51.270,443.359
1687767146.469,-31.250,-48.340,-15.137,-59.082,374.512
1687767146.473,-31.250,-47.852,-14.160,-52.734,40.039
1687767146.477,-43.457,-53.711,-21.484,-49.316,-117.676
1687767146.481,-42.969,-44.922,-23.438,-43.457,-102.051
1687767146.485,-39.062,-36.621,-28.809,-44.922,-49.805
1687767146.489,-39.551,-39.062,-34.668,-45.898,286.133
1687767146.493,-31.738,-37.109,-25.391,-53.711,270.996
1687767146.496,-10.742,-36.621,-20.508,-68.848,-40.039
1687767146.500,-4.395,-44.922,-21.973,-56.152,-50.293
1687767146.504,-30.762,-50.781,-25.391,-22.949,180.664
1687767146.508,-52.246,-50.293,-19.531,-29.297,41.992
1687767146.512,-55.664,-49.316,-15.625,-38.086,-201.172
1687767146.501,-53.223,-44.434,-20.020,-43.457,-177.734
1687767146.505,-49.805,-40.527,-15.625,-34.180,-128.906
1687767146.509,-43.457,-44.922,-18.066,-27.832,-125.000
1687767146.513,-34.668,-47.363,-26.367,-38.086,-140.137
1687767146.517,-41.016,-49.805,-28.320,-41.016,-99.609
1687767146.521,-29.297,-49.805,-19.043,-28.320,-100.098
1687767146.525,-28.809,-47.363,-12.695,-27.344,-132.324
1687767146.528,-27.344,-46.875,-10.254,-27.344,-167.480
1687767146.532,-24.902,-52.246,-11.719,-30.273,-37.109
1687767146.536,-26.855,-53.711,-15.625,-20.996,-2.441
1687767146.540,-40.527,-51.270,-13.184,-29.785,-80.566
1687767146.544,-37.598,-47.363,-14.160,-46.387,-131.348
1687767146.574,-14.160,-40.039,-9.766,-35.645,50.293
1687767146.578,-21.973,-48.828,-17.090,-29.297,302.246
1687767146.582,-41.016,-50.293,-29.297,-36.621,-3.418
1687767146.586,-36.133,-41.504,-22.461,-46.875,-92.773
1687767146.590,-19.531,-45.898,-14.648,-48.340,141.602
1687767146.594,-15.137,-51.758,-17.090,-51.758,59.082
1687767146.598,-22.461,-56.641,-19.043,-51.758,-17.090
1687767146.601,-44.434,-55.176,-23.438,-50.293,-46.387
1687767146.605,-46.875,-45.898,-21.484,-44.434,142.578
1687767146.609,-42.480,-42.969,-17.578,-39.551,99.121
1687767146.613,-48.828,-44.922,-25.879,-49.316,-195.801
1687767146.617,-45.410,-51.270,-28.809,-50.293,-58.594
1687767146.620,-41.016,-48.340,-20.508,-38.086,-13.184
1687767146.624,-52.246,-46.387,-19.531,-52.734,-179.688
1687767146.628,-48.828,-48.828,-20.996,-55.664,-194.824
1687767146.632,-39.062,-49.316,-21.973,-49.316,-138.184
1687767146.636,-45.898,-44.922,-26.367,-48.828,-114.746
1687767146.640,-59.570,-44.434,-19.531,-25.879,-11.230
1687767146.644,-60.059,-45.898,-13.184,-38.086,43.457
1687767146.647,-51.758,-42.480,-20.996,-62.500,-16.113
1687767146.651,-38.086,-38.086,-20.996,-64.453,-35.645
1687767146.655,-36.133,-35.156,-20.020,-53.223,-108.398
1687767146.659,-42.969,-37.109,-26.855,-57.129,-96.680
1687767146.663,-43.457,-40.039,-28.320,-61.523,-3.418
1687767146.649,-33.691,-37.109,-21.973,-55.176,-1.953
1687767146.653,-25.879,-31.250,-12.695,-44.922,21.973
1687767146.657,-22.949,-32.715,-10.742,-47.363,-37.598
1687767146.661,-39.062,-40.527,-15.625,-43.457,94.238
1687767146.665,-36.133,-46.875,-20.996,-41.992,453.613
1687767146.669,-51.758,-51.270,-24.902,-56.641,177.246
1687767146.673,-74.219,-54.688,-25.879,-47.363,-61.523
1687767146.676,-59.082,-50.781,-16.113,-47.852,-23.926
1687767146.680,-50.293,-45.898,-6.836,-57.617,-144.043
1687767146.684,-54.199,-44.434,-7.324,-53.711,-188.965
1687767146.688,-50.293,-40.039,-18.066,-51.270,-172.363
1687767146.692,-50.293,-42.969,-27.832,-27.344,-47.363
1687767146.682,-47.363,-49.805,-27.344,-51.270,-53.223
1687767146.686,-41.016,-49.316,-25.879,-71.289,-135.742
1687767146.690,-43.945,-47.852,-25.879,-57.129,-83.008
1687767146.694,-55.176,-49.805,-21.973,-60.059,206.055
1687767146.698,-60.059,-48.340,-19.043,-59.570,66.895
1687767146.702,-47.852,-45.410,-21.973,-51.270,-119.629
1687767146.706,-37.598,-46.387,-25.391,-54.688,26.855
1687767146.709,-40.527,-42.480,-22.461,-60.059,-20.020
1687767146.713,-49.316,-47.363,-24.414,-61.035,-175.293
1687767146.717,-42.969,-54.688,-23.438,-65.430,-216.309
1687767146.721,-35.156,-46.387,-24.414,-69.336,-7.324
1687767146.725,-27.832,-47.363,-26.367,-59.082,137.695
1687767146.754,-40.527,-50.293,-29.785,-45.898,-99.609
1687767146.758,-83.984,-49.316,-33.691,-63.477,-130.371
1687767146.762,-102.539,-54.199,-32.227,-67.383,16.602
1687767146.766,-92.285,-54.199,-35.156,-55.176,-5.859
1687767146.770,-86.914,-53.223,-28.320,-50.781,-34.180
1687767146.774,-74.219,-53.223,-24.414,-43.457,-18.555
1687767146.778,-64.941,-51.758,-24.414,-36.133,270.996
1687767146.781,-65.430,-48.340,-17.090,-50.781,493.164
1687767146.785,-54.688,-48.828,-22.461,-55.176,152.832
1687767146.789,-55.176,-51.270,-20.996,-49.316,-114.746
1687767146.793,-45.410,-49.805,-22.949,-65.918,-55.664
1687767146.797,-22.949,-47.852,-36.133,-62.012,-68.848
1687767146.845,-35.645,-42.480,-24.902,-40.039,-164.551
1687767146.849,-42.969,-42.969,-12.207,-38.086,-117.676
1687767146.853,-31.250,-46.387,-16.602,-37.598,-62.988
1687767146.857,-33.691,-44.922,-22.949,-50.781,-115.234
1687767146.861,-41.992,-43.945,-28.320,-54.688,-149.902
1687767146.865,-47.852,-41.504,-30.762,-43.457,-15.137
1687767146.869,-41.016,-44.434,-32.227,-61.035,61.523
1687767146.872,-35.156,-48.340,-25.879,-55.664,-87.891
1687767146.876,-37.598,-46.387,-18.555,-55.176,-64.453
1687767146.880,-56.641,-46.387,-18.555,-62.500,14.160
