timestamps,TP9,AF7,AF8,TP10,Right AUX
1687734133.034,-63.965,-37.598,-50.293,-33.691,-156.738
1687734133.038,-53.711,-36.133,-47.852,-27.344,-203.613
1687734133.042,3.906,-31.738,-49.805,-24.414,-94.238
1687734133.046,13.672,-33.203,-53.223,-25.879,-27.344
1687734133.050,-26.855,-37.109,-52.246,-37.109,-116.699
1687734133.054,-80.078,-31.250,-49.805,-40.527,-132.812
1687734133.058,-83.008,-30.273,-51.758,-37.598,161.133
1687734133.061,-16.113,-36.133,-52.246,-37.598,283.691
1687734133.065,1.953,-37.109,-53.223,-42.969,-66.406
1687734133.069,-31.738,-35.156,-52.734,-49.316,-118.652
1687734133.073,-70.801,-33.203,-49.805,-54.688,-25.391
1687734133.077,-75.195,-31.250,-53.223,-50.293,-114.258
1687734133.078,-5.371,-28.809,-55.176,-37.109,-213.867
1687734133.082,23.438,-28.809,-54.688,-32.715,-215.332
1687734133.086,-8.789,-29.785,-54.199,-30.762,78.613
1687734133.090,-55.176,-29.785,-54.199,-32.715,141.602
1687734133.094,-71.777,-27.344,-50.781,-37.598,-83.496
1687734133.098,-20.020,-30.762,-50.781,-35.156,-29.785
1687734133.102,14.160,-35.156,-49.316,-23.438,147.949
1687734133.105,-6.348,-35.156,-45.898,-21.484,36.621
1687734133.109,-59.570,-32.227,-45.898,-35.156,-201.172
1687734133.113,-84.473,-29.297,-43.945,-32.715,-89.355
1687734133.117,-23.438,-29.785,-43.457,-22.461,-0.488
1687734133.121,21.484,-27.832,-47.363,-19.531,-110.352
1687734133.125,1.465,-20.996,-50.293,-20.996,-142.090
1687734133.129,-43.945,-20.996,-44.922,-26.367,-83.008
1687734133.133,-75.195,-23.438,-43.945,-31.738,-27.832
1687734133.137,-23.926,-24.902,-45.898,-25.879,-123.535
1687734133.141,23.926,-25.391,-47.852,-22.949,-117.676
1687734133.145,4.883,-24.902,-51.270,-33.691,-36.133
1687734133.149,-41.992,-30.273,-49.316,-40.039,23.438
1687734133.152,-70.312,-28.320,-39.062,-34.180,-13.184
1687734133.156,-21.973,-27.344,-39.062,-17.578,-71.777
1687734133.160,33.691,-26.855,-38.086,-6.836,180.664
1687734133.164,21.484,-32.227,-39.551,-8.789,284.668
1687734133.168,-22.949,-35.645,-45.410,-22.461,-94.727
1687734133.185,-68.848,-32.715,-45.410,-38.574,-208.008
1687734133.189,-43.945,-28.320,-43.945,-34.180,-114.746
1687734133.193,14.648,-22.461,-47.363,-25.391,-45.410
1687734133.197,7.812,-21.484,-50.293,-34.668,-75.684
1687734133.201,-35.645,-24.414,-43.457,-45.410,-131.836
1687734133.205,-84.473,-31.250,-45.898,-50.781,217.285
1687734133.209,-75.684,-37.598,-50.781,-48.828,238.770
1687734133.212,-15.137,-35.156,-49.316,-46.875,-93.750
1687734133.216,-4.883,-35.645,-50.293,-50.293,-120.605
1687734133.220,-46.875,-39.062,-45.898,-47.852,-15.137
1687734133.224,-98.633,-38.086,-41.504,-49.805,-83.008
1687734133.228,-90.820,-38.086,-40.039,-49.805,-166.016
1687734133.229,-24.902,-38.086,-37.598,-42.480,-105.469
1687734133.233,-7.812,-43.945,-36.133,-47.363,-63.965
1687734133.237,-40.039,-50.293,-38.574,-51.270,-141.602
1687734133.241,-87.891,-49.805,-40.039,-53.223,-237.793
1687734133.245,-92.285,-50.781,-41.016,-55.176,-175.781
1687734133.249,-24.414,-50.293,-38.086,-44.922,-26.367
1687734133.253,1.465,-44.922,-35.645,-46.387,-10.254
1687734133.256,-32.227,-41.016,-33.691,-53.711,-84.961
1687734133.260,-85.938,-37.598,-33.203,-58.594,35.156
1687734133.264,-105.957,-40.527,-39.551,-54.688,496.582
1687734133.268,-42.969,-41.992,-48.340,-50.293,311.523
1687734133.272,-4.883,-39.062,-48.828,-53.711,-118.652
1687734133.288,-26.367,-38.086,-44.922,-56.641,-83.496
1687734133.292,-77.148,-34.668,-41.504,-62.988,-120.605
1687734133.296,-96.191,-35.645,-39.062,-70.312,-145.996
1687734133.300,-33.203,-35.156,-36.621,-61.523,-116.699
1687734133.304,0.977,-31.250,-35.156,-49.805,-112.793
1687734133.308,-27.832,-37.109,-39.062,-52.246,-78.125
1687734133.312,-83.496,-44.434,-36.621,-61.035,-28.809
1687734133.315,-114.258,-40.527,-32.227,-66.895,53.223
1687734133.319,-58.594,-37.109,-40.527,-50.781,348.633
1687734133.323,-17.578,-35.156,-41.016,-41.016,256.348
1687734133.327,-35.156,-33.203,-31.250,-48.828,-189.453
1687734133.331,-78.125,-34.180,-35.645,-53.711,-171.387
1687734133.318,-107.910,-35.645,-36.133,-54.688,-72.266
1687734133.322,-60.059,-35.645,-33.691,-47.363,-179.688
1687734133.326,-9.766,-33.691,-39.551,-42.480,-239.258
1687734133.330,-26.367,-37.109,-40.039,-46.875,-105.957
1687734133.334,-72.266,-36.133,-38.574,-54.199,-109.863
1687734133.338,-107.910,-31.738,-38.086,-59.570,-163.574
1687734133.342,-71.289,-34.180,-39.062,-53.711,-28.320
1687734133.345,-14.160,-27.344,-39.551,-45.410,4.395
1687734133.349,-16.113,-29.785,-38.574,-46.875,-88.379
1687734133.353,-57.129,-38.086,-42.969,-53.711,-98.145
1687734133.357,-103.027,-37.598,-43.457,-66.406,-67.383
1687734133.361,-75.684,-34.180,-39.551,-58.105,81.543
1687734133.363,-12.207,-27.344,-35.645,-39.062,385.742
1687734133.367,-8.789,-34.180,-38.574,-48.340,157.227
1687734133.371,-51.758,-41.016,-40.039,-64.941,-101.074
1687734133.375,-100.586,-36.133,-41.016,-68.848,-83.984
1687734133.379,-83.496,-33.691,-43.945,-60.547,-174.316
1687734133.383,-14.648,-33.203,-50.293,-44.434,-86.426
1687734133.387,1.953,-28.809,-49.316,-39.062,70.801
1687734133.390,-35.156,-27.832,-41.504,-40.527,228.027
1687734133.394,-83.984,-30.762,-37.598,-46.875,76.172
1687734133.398,-77.148,-27.832,-29.785,-43.945,-187.988
1687734133.402,-14.648,-25.879,-30.273,-38.086,-133.301
1687734133.406,1.465,-37.598,-37.598,-42.480,-81.055
1687734133.410,-28.809,-41.504,-36.133,-42.480,-105.469
1687734133.414,-79.590,-39.551,-33.203,-48.828,-170.410
1687734133.418,-88.867,-37.109,-33.691,-49.316,-37.109
1687734133.422,-16.113,-31.738,-35.645,-34.180,28.320
1687734133.426,15.625,-25.391,-34.180,-29.785,-111.816
1687734133.430,-23.438,-30.762,-36.133,-47.363,-52.246
1687734133.434,-81.543,-39.551,-41.992,-62.500,183.105
1687734133.437,-87.402,-31.250,-41.992,-52.246,238.281
1687734133.441,-23.926,-30.762,-41.016,-45.410,-88.867
1687734133.445,6.348,-32.227,-37.598,-46.387,-96.680
1687734133.449,-15.137,-27.344,-35.156,-41.992,137.207
1687734133.453,-67.383,-31.250,-37.598,-47.363,66.406
1687734133.455,-92.285,-34.668,-39.551,-56.641,-124.512
1687734133.459,-36.133,-31.738,-38.574,-46.387,-89.844
1687734133.463,0.977,-34.180,-38.574,-38.574,-47.852
1687734133.467,-20.996,-41.016,-43.457,-43.945,-105.469
1687734133.471,-69.336,-42.480,-41.016,-45.898,-143.066
1687734133.475,-102.051,-40.039,-37.598,-46.875,-43.457
1687734133.479,-49.805,-33.691,-41.504,-36.621,244.629
1687734133.482,2.441,-30.762,-38.574,-28.320,184.570
1687734133.486,-7.324,-30.762,-35.645,-42.480,-166.504
1687734133.490,-52.246,-27.344,-35.156,-50.781,-101.074
1687734133.494,-89.844,-34.180,-37.109,-47.852,-51.270
1687734133.498,-49.316,-38.574,-42.969,-36.133,-92.773
1687734133.498,1.953,-30.762,-43.945,-32.227,-102.539
1687734133.502,-13.184,-33.691,-44.922,-45.898,-95.703
1687734133.506,-62.500,-37.109,-46.387,-56.641,-102.051
1687734133.510,-103.027,-35.645,-48.340,-62.012,-134.766
1687734133.514,-68.848,-31.738,-45.410,-55.664,-136.230
1687734133.518,-8.301,-34.668,-47.363,-49.316,29.297
1687734133.522,-14.160,-38.086,-50.293,-51.270,191.406
1687734133.525,-52.734,-33.691,-45.898,-61.523,-47.852
1687734133.529,-89.844,-35.645,-39.062,-70.801,-217.773
1687734133.533,-65.918,-37.598,-37.598,-60.059,60.059
1687734133.537,2.930,-34.180,-40.039,-49.805,146.973
1687734133.541,11.230,-31.738,-40.039,-56.641,-113.770
1687734133.558,-21.973,-33.691,-41.992,-62.012,-153.809
1687734133.562,-65.918,-32.227,-39.062,-61.035,-1.953
1687734133.566,-60.059,-34.180,-32.227,-50.781,15.137
1687734133.570,-3.906,-37.598,-34.180,-39.551,-187.012
1687734133.574,-1.953,-36.621,-41.504,-40.039,-154.785
1687734133.578,-44.434,-35.645,-42.480,-43.457,-22.949
1687734133.582,-94.727,-39.062,-37.598,-48.828,-21.973
1687734133.585,-97.168,-40.039,-37.598,-49.316,-43.945
1687734133.589,-27.832,-31.738,-37.109,-36.621,-33.203
1687734133.593,-1.465,-31.250,-35.645,-29.297,145.020
1687734133.597,-29.785,-34.180,-34.180,-32.715,37.598
1687734133.601,-81.543,-32.715,-33.203,-36.621,-218.750
1687734133.603,-96.680,-34.180,-34.180,-28.320,-41.504
1687734133.607,-33.203,-38.574,-34.668,-20.996,86.914
1687734133.611,-4.395,-40.527,-37.598,-27.344,-137.695
1687734133.615,-33.691,-40.039,-37.598,-38.086,-187.500
1687734133.619,-85.449,-36.621,-39.551,-56.152,-66.895
1687734133.623,-106.934,-38.086,-43.945,-66.895,-34.180
1687734133.627,-48.828,-40.527,-44.922,-62.500,-21.973
1687734133.630,-11.230,-33.691,-47.852,-56.152,-60.059
1687734133.634,-38.574,-36.621,-49.805,-55.664,38.086
1687734133.638,-87.891,-35.645,-42.480,-61.035,221.191
1687734133.642,-114.746,-28.320,-37.109,-65.430,79.102
1687734133.646,-60.059,-31.250,-35.645,-58.105,-174.805
1687734133.648,-9.277,-29.785,-34.180,-46.875,29.785
1687734133.652,-26.367,-29.785,-38.574,-47.852,176.270
1687734133.656,-75.684,-33.691,-43.457,-59.570,-163.086
1687734133.660,-110.840,-34.180,-44.922,-63.477,-163.086
1687734133.664,-66.406,-35.645,-42.480,-54.688,-101.074
1687734133.668,-17.090,-32.227,-40.527,-49.805,-19.531
1687734133.672,-24.414,-30.762,-39.551,-54.199,-80.566
1687734133.675,-62.988,-32.715,-35.645,-57.129,-183.105
1687734133.679,-94.727,-29.297,-32.715,-52.246,104.492
1687734133.683,-55.664,-25.391,-36.133,-42.480,59.570
1687734133.687,1.953,-23.926,-36.621,-35.156,-185.547
1687734133.691,-1.465,-28.320,-36.621,-39.062,-37.598
1687734133.693,-46.387,-31.250,-39.551,-47.363,43.945
1687734133.697,-92.285,-30.273,-38.086,-50.781,-131.836
1687734133.701,-73.730,-27.344,-35.645,-48.828,-151.855
1687734133.705,-18.066,-26.855,-32.227,-45.410,-54.688
1687734133.709,-19.531,-34.180,-32.715,-52.734,-52.246
1687734133.713,-62.988,-34.668,-32.227,-63.965,36.133
1687734133.717,-103.516,-29.785,-24.902,-69.336,62.500
1687734133.720,-86.426,-33.203,-23.438,-63.477,94.727
1687734133.724,-25.879,-37.109,-25.879,-55.176,129.883
1687734133.728,-11.230,-33.203,-25.879,-56.152,-102.051
1687734133.732,-41.504,-34.180,-28.809,-57.617,-152.832
1687734133.736,-83.984,-35.645,-28.809,-51.270,35.645
1687734133.740,-77.637,-27.344,-20.996,-41.992,33.691
1687734133.744,-19.043,-32.715,-23.438,-38.574,-145.508
1687734133.748,-4.395,-36.621,-29.297,-40.039,-138.184
1687734133.752,-34.180,-29.297,-28.809,-42.480,-67.383
1687734133.756,-76.660,-34.668,-30.762,-47.363,-77.637
1687734133.760,-80.078,-38.086,-33.203,-52.734,-28.809
1687734133.764,-15.137,-31.738,-32.227,-40.039,78.125
1687734133.767,7.324,-28.809,-30.273,-23.926,251.465
1687734133.771,-27.832,-32.227,-26.367,-39.062,71.289
1687734133.775,-75.684,-31.738,-22.949,-55.664,-185.547
1687734133.779,-96.191,-32.715,-26.855,-55.664,-140.137
1687734133.783,-37.598,-37.598,-31.738,-51.270,-100.586
1687734133.783,-9.277,-37.109,-35.645,-59.082,-147.949
1687734133.787,-34.668,-33.691,-33.203,-64.941,-199.707
1687734133.791,-78.125,-31.250,-30.762,-65.918,-81.055
1687734133.795,-98.145,-27.832,-30.273,-65.918,7.324
1687734133.799,-38.574,-29.785,-26.367,-46.875,-28.320
1687734133.803,1.953,-26.367,-23.926,-38.086,-27.344
1687734133.807,-20.996,-27.344,-24.902,-42.480,133.301
1687734133.810,-64.453,-34.668,-28.809,-48.340,291.016
1687734133.814,-93.750,-31.738,-26.367,-59.082,52.734
1687734133.818,-48.340,-30.273,-27.344,-55.176,-51.758
1687734133.822,-2.930,-30.762,-29.785,-48.340,119.141
1687734133.826,-20.996,-28.320,-29.297,-57.617,15.137
1687734133.829,-62.012,-22.461,-27.832,-67.871,-181.641
1687734133.833,-93.750,-22.949,-27.344,-62.012,-161.133
1687734133.837,-51.270,-30.762,-27.344,-45.410,-123.047
1687734133.841,6.348,-29.785,-26.855,-33.203,-79.590
1687734133.845,-0.977,-20.020,-25.879,-31.738,-119.629
1687734133.849,-44.434,-19.531,-23.926,-35.156,-83.008
1687734133.853,-82.031,-22.949,-20.020,-35.156,203.613
1687734133.856,-51.758,-28.320,-22.461,-30.762,122.070
1687734133.860,1.953,-27.832,-25.879,-20.508,-166.504
1687734133.864,-8.301,-28.320,-28.809,-19.043,-103.516
1687734133.868,-59.082,-33.691,-32.227,-34.668,2.441
1687734133.872,-94.727,-28.320,-26.367,-43.457,-103.027
1687734133.873,-73.730,-26.855,-26.855,-39.551,-172.852
1687734133.877,-23.926,-33.691,-32.227,-39.062,-115.723
1687734133.881,-17.090,-35.645,-30.762,-39.062,-99.609
1687734133.885,-56.641,-35.156,-30.762,-44.434,-175.781
1687734133.889,-112.305,-38.086,-30.273,-60.059,-183.105
1687734133.893,-104.492,-41.016,-31.738,-62.988,32.715
1687734133.897,-33.691,-37.109,-33.691,-59.570,100.098
1687734133.900,-12.695,-34.180,-30.273,-58.105,-128.906
1687734133.904,-40.039,-31.250,-25.391,-58.105,-211.914
1687734133.908,-84.473,-29.297,-21.973,-61.523,55.176
1687734133.912,-75.195,-30.762,-20.020,-55.664,184.570
1687734133.916,-5.371,-25.391,-20.020,-46.387,-115.723
1687734133.933,9.277,-26.367,-21.973,-51.270,-208.496
1687734133.937,-20.996,-26.855,-22.461,-53.711,96.680
1687734133.941,-73.730,-26.855,-26.367,-60.059,136.719
1687734133.945,-86.914,-32.715,-24.902,-60.547,-147.949
1687734133.949,-22.461,-39.551,-21.973,-44.434,-97.168
1687734133.953,3.418,-36.621,-23.438,-39.551,11.719
1687734133.957,-27.832,-35.645,-26.367,-45.898,-34.668
1687734133.960,-81.055,-38.086,-24.902,-57.617,-134.766
1687734133.964,-101.074,-35.156,-21.484,-56.152,-49.316
1687734133.968,-40.527,-27.832,-28.320,-48.340,122.070
1687734133.972,-8.789,-26.367,-34.668,-51.270,-43.457
1687734133.976,-36.133,-31.250,-32.715,-55.664,-146.973
1687734133.981,-83.008,-35.645,-33.203,-61.523,20.996
1687734133.985,-111.816,-37.109,-36.133,-66.895,66.406
1687734133.989,-57.129,-29.785,-37.598,-57.617,-100.586
1687734133.993,-14.160,-26.367,-32.715,-57.617,-103.027
1687734133.997,-41.992,-28.809,-31.250,-73.242,-84.961
1687734134.001,-91.797,-31.738,-34.668,-82.520,-42.969
1687734134.005,-112.305,-31.250,-31.250,-78.125,1.953
1687734134.008,-58.594,-39.062,-28.809,-72.266,-90.820
1687734134.012,-9.766,-39.551,-27.832,-62.988,83.496
1687734134.016,-17.578,-30.762,-28.320,-59.082,226.562
1687734134.020,-61.523,-35.156,-30.762,-68.848,-66.406
1687734134.024,-93.750,-34.668,-29.785,-72.266,-163.574
1687734134.024,-56.152,-27.832,-33.203,-64.941,-85.449
1687734134.028,-8.789,-29.297,-35.156,-54.688,-57.617
1687734134.032,-14.648,-29.297,-34.180,-51.758,-107.422
1687734134.036,-61.523,-36.133,-33.203,-59.570,-123.047
1687734134.040,-99.121,-37.109,-30.273,-58.594,-43.945
1687734134.044,-67.383,-34.180,-28.320,-56.152,-27.344
1687734134.048,-14.160,-39.062,-31.250,-59.570,-23.926
1687734134.051,-14.648,-38.086,-34.180,-64.941,0.977
1687734134.055,-55.664,-37.598,-33.203,-69.336,155.273
1687734134.059,-98.633,-37.598,-31.738,-72.266,63.965
1687734134.063,-80.078,-34.180,-32.715,-71.289,-145.508
1687734134.067,-18.555,-33.691,-31.250,-65.918,-57.129
1687734134.068,-12.695,-35.156,-28.320,-66.895,-32.227
1687734134.072,-48.340,-32.715,-28.809,-72.266,-98.145
1687734134.076,-93.750,-30.273,-30.762,-74.707,-117.188
1687734134.080,-90.332,-30.273,-32.227,-63.965,12.207
1687734134.084,-27.832,-30.273,-31.738,-52.246,55.664
1687734134.088,-13.184,-32.227,-28.320,-57.617,1.953
1687734134.092,-47.852,-36.133,-27.344,-65.430,-30.762
1687734134.095,-102.051,-39.062,-30.273,-67.383,101.074
1687734134.099,-112.305,-36.133,-31.738,-62.988,251.953
1687734134.103,-50.293,-31.738,-31.250,-63.477,45.410
1687734134.107,-30.273,-32.227,-33.691,-62.500,-103.027
1687734134.111,-57.129,-32.227,-34.668,-59.082,0.977
1687734134.113,-100.098,-32.715,-36.133,-66.406,-1.465
1687734134.117,-109.375,-31.250,-36.133,-62.012,-131.836
1687734134.121,-37.598,-31.250,-30.273,-53.223,-35.645
1687734134.125,-1.465,-36.621,-33.691,-60.059,14.160
1687734134.129,-33.203,-35.156,-44.434,-70.312,-78.125
1687734134.133,-78.613,-32.715,-45.410,-78.613,-80.078
1687734134.137,-97.168,-36.621,-41.016,-83.496,-81.543
1687734134.140,-39.062,-34.180,-41.504,-69.824,244.629
1687734134.144,4.883,-26.855,-41.016,-65.430,259.766
1687734134.148,-20.996,-34.668,-38.574,-80.566,-131.836
1687734134.152,-73.730,-42.969,-37.109,-81.543,-118.164
1687734134.156,-104.980,-37.109,-37.109,-77.148,-125.977
1687734134.158,-59.082,-35.156,-35.645,-68.848,-154.297
1687734134.162,-15.625,-35.645,-34.180,-66.895,-176.758
1687734134.166,-32.227,-40.039,-31.738,-73.242,-178.711
1687734134.170,-84.473,-41.504,-32.227,-79.102,-102.539
1687734134.174,-119.141,-36.621,-29.297,-74.707,-102.539
1687734134.178,-74.707,-38.086,-24.902,-63.965,-131.348
1687734134.182,-27.832,-39.062,-22.949,-56.641,130.859
1687734134.185,-37.598,-36.621,-23.438,-49.805,242.188
1687734134.189,-83.984,-37.109,-26.855,-54.199,62.500
1687734134.193,-122.070,-37.109,-24.414,-52.734,-42.969
1687734134.197,-82.031,-36.621,-20.020,-34.180,75.195
1687734134.201,-26.367,-38.574,-23.438,-30.273,137.207
1687734134.205,-27.344,-38.574,-26.367,-38.574,-146.973
1687734134.209,-66.895,-34.668,-20.020,-47.852,-164.062
1687734134.213,-103.516,-32.715,-16.602,-53.223,-86.914
1687734134.217,-73.242,-32.715,-23.926,-48.828,-142.090
1687734134.221,-16.602,-32.715,-31.738,-51.270,-151.855
1687734134.225,-17.578,-33.691,-34.180,-58.105,-107.910
1687734134.229,-56.152,-36.133,-40.039,-68.359,91.309
1687734134.232,-104.004,-33.691,-44.434,-76.660,45.410
1687734134.236,-94.727,-34.668,-40.039,-71.289,-160.156
1687734134.240,-27.832,-34.180,-35.156,-55.176,-58.105
1687734134.244,-17.578,-25.879,-35.645,-51.270,24.902
1687734134.248,-62.500,-23.926,-36.133,-71.777,-40.527
1687734134.249,-112.793,-32.227,-36.133,-94.238,-204.102
1687734134.253,-108.398,-38.086,-36.621,-94.238,-81.543
1687734134.257,-45.410,-39.062,-38.086,-89.844,67.871
1687734134.261,-19.043,-35.156,-35.156,-85.938,-112.793
1687734134.265,-45.898,-28.320,-30.762,-84.961,-193.848
1687734134.269,-93.750,-24.902,-31.250,-81.543,-10.254
1687734134.273,-97.168,-25.391,-30.273,-76.172,131.836
1687734134.276,-27.344,-27.832,-25.391,-70.801,-21.973
1687734134.280,-4.883,-28.320,-26.855,-63.477,-133.301
1687734134.284,-41.504,-28.320,-31.250,-63.965,151.855
1687734134.288,-92.285,-29.297,-30.762,-69.336,225.586
1687734134.292,-106.934,-32.227,-31.250,-71.289,-98.145
1687734134.308,-47.363,-34.180,-34.180,-71.289,-104.980
1687734134.312,-22.461,-37.598,-39.062,-71.777,168.457
1687734134.316,-46.387,-33.691,-41.016,-69.336,165.527
1687734134.320,-93.750,-33.203,-41.016,-75.195,-151.367
1687734134.324,-120.117,-37.109,-41.016,-77.148,-108.887
1687734134.328,-68.848,-38.574,-41.016,-69.824,9.766
1687734134.332,-35.156,-38.574,-38.574,-71.289,54.688
1687734134.335,-60.059,-41.016,-34.180,-78.125,-1.953
1687734134.339,-108.398,-39.062,-29.785,-76.660,-62.500
1687734134.343,-141.602,-36.621,-27.832,-71.289,41.992
1687734134.347,-95.215,-41.504,-27.832,-67.871,-51.758
1687734134.351,-43.945,-38.086,-25.879,-64.453,-161.133
1687734134.353,-58.594,-36.621,-30.762,-71.777,-127.441
1687734134.357,-105.469,-38.086,-31.738,-83.496,-99.121
1687734134.361,-139.648,-37.109,-33.203,-85.938,-133.301
1687734134.365,-98.633,-39.062,-37.109,-79.102,-33.691
1687734134.369,-39.551,-40.039,-35.645,-67.871,105.469
1687734134.373,-41.992,-39.062,-32.227,-72.266,57.617
1687734134.377,-80.078,-37.109,-29.785,-78.613,-96.680
1687734134.380,-117.676,-37.109,-30.762,-86.426,-241.211
1687734134.384,-93.750,-36.621,-31.738,-82.520,-39.062
1687734134.388,-41.016,-40.527,-28.809,-71.289,278.320
1687734134.392,-35.645,-41.504,-26.367,-77.148,-18.555
1687734134.396,-71.289,-37.109,-26.855,-73.730,-239.258
1687734134.398,-110.840,-38.574,-26.367,-72.754,-165.039
1687734134.402,-95.215,-41.016,-30.273,-75.195,-160.645
1687734134.406,-34.668,-36.133,-31.738,-71.289,-181.152
1687734134.410,-23.926,-32.715,-31.250,-72.266,-181.641
1687734134.414,-66.895,-35.645,-30.762,-80.566,-109.375
1687734134.418,-119.141,-40.527,-36.133,-92.773,5.859
1687734134.422,-113.281,-41.504,-42.969,-95.215,-9.766
1687734134.425,-42.480,-39.551,-38.086,-84.961,-104.492
1687734134.429,-26.367,-37.109,-29.785,-74.219,161.621
1687734134.433,-59.570,-32.227,-24.414,-76.660,178.711
1687734134.437,-98.633,-31.250,-23.438,-81.543,-141.113
1687734134.441,-101.562,-41.016,-28.809,-79.102,-62.500
1687734134.443,-39.551,-42.969,-30.762,-74.707,2.441
1687734134.447,-9.277,-35.156,-30.762,-71.777,-161.621
1687734134.451,-43.945,-36.621,-30.273,-77.637,-210.449
1687734134.455,-97.656,-41.992,-29.297,-82.520,-121.582
1687734134.459,-111.328,-38.574,-26.367,-78.613,-131.836
1687734134.463,-47.852,-39.551,-23.926,-74.707,-85.449
1687734134.467,-15.137,-41.504,-25.391,-68.848,-79.590
1687734134.470,-39.551,-38.086,-19.531,-63.477,40.039
1687734134.474,-84.473,-36.621,-18.555,-61.523,262.695
1687734134.478,-109.863,-41.992,-20.508,-67.871,83.496
1687734134.482,-51.758,-46.387,-24.902,-67.383,-108.887
1687734134.486,-11.719,-41.016,-29.297,-61.035,2.441
1687734134.489,-36.621,-36.621,-27.832,-70.312,9.277
1687734134.493,-86.426,-36.133,-27.344,-82.520,-166.992
1687734134.497,-121.094,-42.480,-26.367,-84.961,-131.348
1687734134.501,-74.219,-44.434,-28.320,-83.984,-73.730
1687734134.505,-31.738,-40.039,-31.250,-85.938,-82.520
1687734134.509,-48.340,-38.086,-29.785,-83.496,-123.047
1687734134.513,-100.098,-46.387,-33.691,-98.633,-104.492
1687734134.516,-134.766,-48.828,-34.180,-103.516,191.895
1687734134.520,-78.125,-40.039,-27.832,-87.402,87.402
1687734134.524,-19.531,-40.039,-26.367,-84.961,-243.652
1687734134.528,-27.832,-41.992,-25.879,-80.078,-27.344
1687734134.532,-76.660,-41.016,-22.949,-80.078,71.289
1687734134.533,-112.305,-39.551,-21.484,-81.055,-113.281
1687734134.537,-75.684,-41.504,-24.902,-72.754,-107.910
1687734134.541,-24.414,-40.039,-27.832,-69.824,-53.711
1687734134.545,-28.809,-38.574,-32.227,-71.777,-53.711
1687734134.549,-74.219,-38.086,-29.785,-77.148,-96.191
1687734134.553,-116.699,-37.598,-25.879,-78.613,-33.691
1687734134.557,-91.309,-38.574,-25.879,-67.383,197.754
1687734134.560,-31.250,-37.109,-26.367,-57.617,217.773
1687734134.564,-21.973,-30.762,-31.250,-62.012,-38.574
1687734134.568,-62.012,-31.250,-33.691,-70.801,-95.215
1687734134.572,-111.816,-37.109,-32.715,-73.730,90.332
1687734134.576,-94.238,-33.691,-28.809,-64.453,58.105
1687734134.580,-23.926,-29.785,-28.320,-57.617,-91.309
1687734134.584,-9.277,-30.762,-27.344,-55.664,-54.688
1687734134.588,-48.828,-34.668,-24.414,-61.035,-12.207
1687734134.592,-92.773,-33.203,-23.438,-69.336,-20.996
1687734134.596,-83.008,-28.320,-22.949,-62.988,-150.879
1687734134.600,-21.973,-32.227,-21.484,-52.246,-38.574
1687734134.604,0.977,-32.227,-21.484,-42.969,332.520
1687734134.607,-26.855,-26.855,-24.902,-47.363,121.582
1687734134.611,-89.844,-29.297,-29.297,-70.312,-192.871
1687734134.615,-102.539,-38.574,-27.344,-71.289,-64.941
1687734134.619,-34.668,-33.203,-26.367,-56.641,41.016
1687734134.623,-8.789,-26.855,-30.762,-56.152,-54.199
1687734134.623,-38.574,-32.227,-30.762,-68.359,-148.926
1687734134.627,-86.426,-30.762,-29.785,-78.613,-53.711
1687734134.631,-95.215,-24.902,-28.809,-76.660,-7.324
1687734134.635,-29.297,-29.785,-26.855,-65.918,-47.363
1687734134.639,-3.418,-37.598,-30.762,-65.430,-156.250
1687734134.643,-30.762,-33.203,-34.180,-63.965,-33.203
1687734134.647,-82.031,-32.715,-32.715,-62.012,277.344
1687734134.650,-108.887,-36.133,-33.203,-66.406,41.992
1687734134.654,-43.457,-35.156,-29.297,-56.641,-117.676
1687734134.658,-4.395,-34.180,-24.414,-45.898,196.777
1687734134.662,-27.344,-33.691,-24.902,-42.969,170.410
1687734134.666,-69.336,-34.668,-22.461,-50.293,-141.113
1687734134.684,-99.609,-30.762,-24.414,-59.570,-172.363
1687734134.688,-51.758,-31.738,-32.227,-59.082,-149.414
1687734134.692,-10.742,-38.574,-32.715,-61.523,-143.066
1687734134.696,-39.551,-39.062,-33.203,-70.312,-200.195
1687734134.700,-87.402,-36.133,-34.180,-72.266,-147.949
1687734134.704,-125.488,-36.621,-29.785,-79.590,-1.465
1687734134.708,-92.285,-39.062,-33.203,-86.914,36.133
1687734134.711,-34.180,-35.156,-34.668,-83.496,16.602
1687734134.715,-44.434,-34.180,-30.273,-83.984,-57.129
1687734134.719,-94.238,-37.598,-31.250,-88.379,123.535
1687734134.723,-127.441,-38.574,-28.320,-91.309,68.848
1687734134.727,-92.285,-32.715,-26.367,-85.938,-173.340
1687734134.728,-40.527,-28.320,-31.250,-69.336,-102.539
1687734134.732,-42.480,-34.180,-26.367,-61.035,-127.441
1687734134.736,-83.496,-42.480,-23.438,-74.219,-174.316
1687734134.740,-122.070,-40.039,-27.344,-81.543,-140.625
1687734134.744,-99.609,-34.180,-28.809,-69.824,-85.449
1687734134.748,-41.504,-33.691,-26.367,-62.988,22.461
1687734134.752,-26.367,-32.715,-17.090,-60.547,36.621
1687734134.755,-67.871,-30.762,-18.555,-62.500,-37.598
1687734134.759,-121.094,-32.227,-22.949,-66.406,66.895
1687734134.763,-108.887,-33.203,-26.855,-58.105,455.078
1687734134.767,-45.898,-34.180,-32.227,-52.246,277.344
1687734134.771,-34.180,-35.156,-31.738,-62.012,-151.855
1687734134.773,-74.219,-39.062,-31.738,-75.195,-149.902
1687734134.777,-123.535,-35.156,-27.832,-77.637,-110.352
1687734134.781,-121.094,-34.180,-26.367,-76.660,-138.184
1687734134.785,-58.594,-36.621,-27.832,-74.219,-147.949
1687734134.789,-38.086,-38.086,-29.785,-72.266,-95.215
1687734134.793,-65.430,-37.598,-29.297,-74.219,-34.180
1687734134.797,-109.863,-35.156,-27.832,-81.055,-34.180
1687734134.800,-114.258,-36.133,-26.367,-79.590,-74.707
1687734134.804,-44.922,-37.109,-23.438,-59.082,160.156
1687734134.808,-20.508,-41.016,-22.461,-55.664,128.906
1687734134.812,-54.199,-42.480,-22.949,-62.988,-121.582
1687734134.816,-99.121,-41.504,-22.461,-65.430,-66.406
1687734134.818,-117.188,-36.621,-18.555,-65.430,-38.086
1687734134.822,-57.617,-37.598,-21.484,-55.176,-190.430
1687734134.826,-21.973,-37.109,-21.973,-48.828,-200.684
1687734134.830,-48.340,-40.527,-21.973,-49.316,-109.863
1687734134.834,-99.609,-42.969,-20.996,-54.688,-81.055
1687734134.838,-124.023,-35.645,-21.484,-57.129,-7.324
1687734134.842,-68.359,-36.621,-28.320,-52.734,5.371
1687734134.845,-24.414,-37.598,-30.273,-51.758,89.355
1687734134.849,-39.551,-34.668,-27.832,-52.246,162.109
1687734134.853,-93.750,-40.039,-28.320,-68.848,-60.547
1687734134.857,-129.883,-36.133,-27.832,-77.148,-115.723
1687734134.861,-82.520,-32.715,-24.414,-61.035,98.145
1687734134.864,-35.645,-34.180,-24.414,-60.547,164.062
1687734134.868,-47.852,-34.668,-28.320,-70.312,-129.883
1687734134.872,-97.168,-38.574,-31.738,-75.195,-220.215
1687734134.876,-135.742,-41.992,-29.785,-80.078,-86.426
1687734134.880,-86.914,-38.574,-26.367,-71.777,-77.148
1687734134.884,-29.785,-33.691,-28.320,-62.988,-85.449
1687734134.888,-38.086,-32.227,-30.762,-63.965,6.836
1687734134.891,-83.984,-35.156,-33.691,-67.871,157.227
1687734134.895,-125.000,-41.016,-35.645,-74.707,74.707
1687734134.899,-92.285,-38.086,-34.180,-74.219,-150.879
1687734134.903,-33.203,-33.203,-35.645,-71.777,-108.398
1687734134.907,-36.133,-36.621,-39.062,-82.031,-134.766
1687734134.910,-77.148,-37.109,-38.086,-91.797,-217.773
1687734134.914,-120.605,-34.180,-39.062,-95.215,-182.617
1687734134.918,-107.910,-34.668,-39.551,-93.750,-20.508
1687734134.922,-46.387,-33.203,-40.039,-87.402,-9.766
1687734134.926,-34.180,-37.109,-41.992,-83.008,-103.027
1687734134.930,-68.848,-37.109,-41.504,-84.473,-112.793
1687734134.934,-110.352,-35.156,-41.992,-82.520,110.840
1687734134.937,-104.004,-35.645,-44.922,-78.613,295.898
1687734134.941,-42.969,-35.156,-42.969,-76.172,-14.160
1687734134.945,-29.785,-39.551,-35.156,-76.660,-83.984
1687734134.949,-63.477,-39.062,-34.180,-74.707,109.375
1687734134.953,-109.863,-34.668,-33.691,-69.824,-4.395
1687734134.953,-111.816,-35.156,-31.250,-71.777,-177.734
1687734134.957,-40.039,-36.133,-32.715,-69.336,-126.953
1687734134.961,-15.137,-37.109,-35.645,-61.035,-116.699
1687734134.965,-47.852,-37.109,-39.062,-64.453,-147.949
1687734134.969,-94.238,-33.691,-39.062,-68.359,-55.176
1687734134.973,-112.305,-33.203,-39.551,-63.477,49.805
1687734134.977,-59.082,-34.180,-41.992,-48.828,393.555
1687734134.980,-26.855,-40.527,-40.527,-46.875,335.449
1687734134.984,-54.199,-45.898,-38.574,-61.523,-107.910
1687734134.988,-105.469,-44.922,-39.062,-67.871,-53.711
1687734134.992,-118.164,-39.551,-39.062,-73.242,14.160
1687734134.996,-47.852,-37.598,-35.645,-72.754,-74.707
1687734134.998,-0.977,-42.480,-34.180,-69.824,-151.855
1687734135.002,-18.555,-36.133,-36.621,-74.707,-132.812
1687734135.006,-58.105,-31.250,-36.133,-78.613,-115.723
1687734135.010,-77.637,-36.133,-34.668,-76.660,-138.672
1687734135.014,-28.809,-30.762,-34.668,-65.918,-101.074
1687734135.018,13.184,-22.949,-28.809,-54.199,78.125
1687734135.022,-5.859,-23.926,-23.438,-52.734,86.914
1687734135.025,-64.941,-27.344,-26.367,-59.570,-97.168
1687734135.029,-106.934,-28.809,-29.297,-63.477,-152.344
1687734135.033,-62.988,-32.227,-28.809,-54.688,61.523
1687734135.037,-6.348,-33.691,-29.297,-41.016,305.664
1687734135.041,-19.531,-36.133,-25.391,-44.922,37.598
1687734135.058,-72.754,-38.574,-23.438,-57.617,-221.680
1687734135.062,-113.281,-37.598,-25.879,-57.617,-139.160
1687734135.066,-76.172,-38.086,-29.785,-49.316,-103.516
1687734135.070,-21.973,-36.621,-32.227,-54.199,-172.852
1687734135.074,-26.367,-35.645,-35.156,-60.059,-112.305
1687734135.078,-66.895,-36.133,-35.645,-58.594,-49.316
1687734135.082,-117.188,-39.062,-32.715,-68.848,-28.320
1687734135.085,-90.820,-39.062,-29.297,-65.918,-112.305
1687734135.089,-20.020,-34.180,-28.809,-59.082,-187.012
1687734135.093,-20.508,-36.133,-27.344,-55.664,234.863
1687734135.097,-61.523,-35.645,-25.879,-50.293,216.797
1687734135.101,-100.586,-30.762,-25.391,-57.617,-132.324
1687734135.103,-92.285,-32.227,-31.738,-57.129,-77.637
1687734135.107,-31.250,-36.133,-31.738,-44.434,-52.246
1687734135.111,-13.184,-39.062,-24.414,-43.945,-85.449
1687734135.115,-41.992,-42.969,-28.809,-47.363,-125.000
1687734135.119,-92.285,-44.434,-30.762,-45.410,-64.453
1687734135.123,-86.426,-45.898,-28.320,-48.340,-4.395
1687734135.127,-16.602,-44.434,-30.762,-46.875,-25.391
1687734135.130,-2.930,-37.598,-27.832,-43.945,-82.031
1687734135.134,-39.062,-36.133,-29.785,-44.434,26.367
1687734135.138,-89.355,-42.969,-36.133,-48.340,194.824
1687734135.142,-97.656,-45.898,-40.527,-55.176,-109.375
1687734135.146,-35.645,-46.387,-46.875,-51.270,-230.469
1687734135.149,-11.230,-45.898,-47.363,-42.480,57.129
1687734135.153,-42.480,-46.875,-41.504,-47.852,17.090
1687734135.157,-88.379,-42.480,-40.039,-58.594,-233.398
1687734135.161,-102.539,-35.156,-39.062,-56.152,-162.109
1687734135.165,-46.387,-33.691,-32.227,-43.457,-69.336
1687734135.169,-17.578,-40.039,-29.785,-38.574,14.160
1687734135.173,-43.457,-47.363,-34.668,-47.852,-1.953
1687734135.176,-99.609,-47.852,-32.227,-55.176,-49.316
1687734135.180,-125.000,-48.828,-33.203,-44.922,191.895
1687734135.184,-61.035,-48.828,-35.156,-32.227,99.609
1687734135.188,-15.137,-44.434,-29.785,-38.086,-208.984
1687734135.192,-33.691,-39.062,-24.902,-38.086,-137.207
1687734135.195,-74.219,-40.527,-26.855,-39.062,-100.586
1687734135.199,-102.051,-46.875,-34.668,-48.340,-94.727
1687734135.203,-61.035,-51.758,-36.133,-49.805,-109.375
1687734135.207,-14.160,-50.781,-30.762,-44.922,1.953
1687734135.211,-21.973,-48.340,-31.250,-47.852,35.156
1687734135.215,-66.406,-41.016,-30.273,-60.547,-93.262
1687734135.219,-100.098,-35.156,-31.250,-66.895,-13.672
1687734135.222,-57.617,-38.574,-32.227,-53.711,79.590
1687734135.226,-6.836,-38.086,-29.785,-38.086,75.684
1687734135.230,-8.301,-27.344,-25.879,-34.180,-78.125
1687734135.234,-43.945,-19.531,-20.508,-35.645,-87.402
1687734135.238,-90.820,-31.738,-25.391,-48.340,14.648
1687734135.238,-63.477,-40.039,-29.297,-47.363,24.902
1687734135.242,-3.906,-32.715,-27.344,-45.898,-111.328
1687734135.246,-5.371,-31.738,-25.391,-46.387,-140.137
1687734135.250,-50.781,-33.691,-27.344,-52.246,-93.750
1687734135.254,-99.609,-35.645,-27.344,-63.965,-35.645
1687734135.258,-80.078,-38.574,-30.273,-63.965,0.000
1687734135.262,-13.672,-40.527,-33.691,-57.617,-20.996
1687734135.265,-3.418,-39.062,-30.762,-46.387,221.191
1687734135.269,-35.156,-34.668,-27.344,-46.387,249.023
1687734135.273,-73.242,-32.227,-28.320,-59.082,-110.352
1687734135.277,-64.453,-33.691,-30.762,-46.875,-142.578
1687734135.281,2.930,-31.738,-27.344,-28.809,-100.586
1687734135.284,15.137,-33.691,-22.949,-29.785,-132.812
1687734135.288,-27.344,-35.645,-20.508,-34.668,-175.293
1687734135.292,-76.172,-32.227,-22.461,-41.992,-140.137
1687734135.296,-75.195,-31.250,-24.414,-42.480,-128.906
1687734135.300,-5.371,-27.344,-18.066,-31.738,-91.797
1687734135.304,13.184,-30.273,-20.508,-34.668,-82.520
1687734135.308,-14.648,-33.203,-22.949,-30.762,65.430
1687734135.311,-58.105,-32.227,-25.391,-31.738,228.027
1687734135.315,-74.219,-24.902,-29.297,-43.457,1.953
1687734135.319,-9.277,-25.391,-27.344,-38.574,-126.465
1687734135.323,18.555,-33.691,-22.461,-33.691,130.371
1687734135.327,-16.113,-33.203,-22.461,-40.527,180.664
1687734135.328,-63.965,-32.227,-21.484,-50.293,-177.246
1687734135.332,-83.984,-33.691,-18.555,-47.852,-125.488
1687734135.336,-23.926,-35.645,-21.973,-36.621,-65.430
1687734135.340,13.672,-35.156,-25.879,-43.457,-151.855
1687734135.344,-17.578,-36.133,-29.297,-58.594,-111.816
1687734135.348,-73.242,-38.574,-35.156,-66.895,-24.414
1687734135.352,-102.539,-34.180,-33.203,-68.359,246.094
1687734135.355,-48.340,-39.062,-25.391,-64.941,180.664
1687734135.359,3.418,-40.039,-19.531,-62.500,-101.074
1687734135.363,-16.602,-40.527,-20.996,-62.988,-1.953
1687734135.367,-65.918,-40.039,-25.391,-63.477,35.156
1687734135.371,-97.656,-39.551,-27.344,-68.359,-128.418
1687734135.373,-51.758,-40.039,-22.949,-59.570,-132.812
1687734135.377,-3.906,-36.621,-21.484,-52.246,-44.922
1687734135.381,-18.066,-39.551,-25.391,-59.082,-30.762
1687734135.385,-60.059,-40.039,-23.438,-60.059,-79.102
1687734135.389,-98.633,-40.039,-22.461,-65.430,-112.793
1687734135.393,-61.035,-40.039,-23.438,-58.105,32.715
1687734135.397,-8.789,-39.062,-26.855,-50.781,134.766
1687734135.400,-14.160,-39.062,-28.809,-57.129,-29.297
1687734135.404,-54.199,-39.062,-24.902,-63.965,-177.734
1687734135.408,-104.492,-39.062,-30.273,-65.430,82.520
1687734135.412,-80.566,-33.691,-32.227,-56.152,319.824
1687734135.416,-18.066,-33.203,-26.367,-55.664,86.914
1687734135.433,-20.020,-42.480,-30.273,-63.965,-86.426
1687734135.437,-65.430,-42.969,-31.738,-64.941,-40.527
1687734135.441,-105.957,-38.574,-29.297,-61.523,-6.836
1687734135.445,-87.402,-40.039,-25.391,-59.082,-94.727
1687734135.449,-26.367,-36.621,-22.949,-51.270,-117.188
1687734135.453,-15.625,-35.156,-23.926,-44.922,3.906
1687734135.457,-49.805,-40.527,-25.879,-50.781,-21.484
1687734135.460,-94.238,-38.574,-24.414,-58.105,-157.227
1687734135.464,-85.938,-33.691,-21.484,-51.758,-71.289
1687734135.468,-24.902,-31.738,-25.879,-47.363,108.398
1687734135.472,-17.578,-29.297,-28.809,-52.246,-24.414
1687734135.476,-46.875,-25.391,-27.344,-58.594,-127.930
1687734135.494,-87.891,-27.344,-30.273,-64.453,-79.102
1687734135.498,-91.309,-28.809,-28.320,-63.477,-87.891
1687734135.502,-26.855,-29.785,-29.785,-59.570,-86.914
1687734135.506,-5.859,-32.715,-29.297,-62.012,-161.621
1687734135.510,-30.273,-33.203,-28.320,-63.477,-102.051
1687734135.514,-81.543,-34.668,-32.715,-74.219,-3.418
1687734135.518,-105.469,-33.691,-33.203,-82.520,-39.062
1687734135.521,-43.457,-31.250,-28.320,-68.848,-135.254
1687734135.525,-10.254,-30.762,-25.879,-59.570,-10.254
1687734135.529,-38.574,-34.180,-28.320,-58.105,304.199
1687734135.533,-81.055,-37.598,-24.902,-65.918,23.438
1687734135.537,-105.469,-43.457,-27.344,-77.148,-124.023
1687734135.523,-53.223,-40.039,-29.297,-62.500,-37.598
1687734135.527,-9.277,-35.645,-25.391,-48.828,-117.676
1687734135.531,-36.133,-37.598,-25.391,-57.617,-140.137
1687734135.535,-85.938,-36.621,-23.926,-62.012,-60.059
1687734135.539,-115.234,-36.133,-23.438,-64.453,6.348
1687734135.543,-71.289,-36.621,-21.973,-55.664,-21.973
1687734135.547,-21.973,-33.691,-20.996,-46.387,-77.148
1687734135.550,-33.203,-32.227,-20.508,-54.688,-133.789
1687734135.554,-71.777,-35.645,-23.438,-54.688,-75.684
1687734135.558,-97.168,-34.180,-23.926,-53.223,-64.453
1687734135.562,-60.059,-37.598,-23.926,-53.711,-96.680
1687734135.566,-7.812,-40.527,-26.855,-49.316,-37.109
1687734135.568,-8.301,-38.086,-19.531,-41.992,230.469
1687734135.572,-50.781,-38.086,-13.184,-52.734,83.984
1687734135.576,-90.332,-36.133,-21.484,-69.336,-153.809
1687734135.580,-52.246,-32.227,-25.391,-51.758,-86.426
1687734135.584,5.859,-28.809,-22.461,-38.574,-81.055
1687734135.588,-3.906,-31.250,-28.809,-49.805,-31.250
1687734135.592,-49.316,-36.621,-36.621,-54.688,-89.844
1687734135.595,-96.680,-37.598,-36.621,-59.570,7.812
1687734135.599,-77.637,-38.086,-36.133,-57.617,262.207
1687734135.603,-7.812,-35.156,-35.645,-50.293,40.527
1687734135.607,5.371,-33.691,-27.832,-50.293,-200.195
1687734135.611,-38.574,-38.574,-26.367,-51.758,-137.695
1687734135.613,-91.309,-33.691,-33.203,-61.523,-152.344
1687734135.617,-91.309,-34.180,-39.062,-74.219,-200.684
1687734135.621,-32.227,-37.598,-39.551,-68.848,-172.852
1687734135.625,-16.113,-37.109,-33.691,-66.895,-198.730
1687734135.629,-53.711,-39.551,-35.156,-74.707,-208.008
1687734135.633,-97.168,-38.574,-34.180,-78.125,-145.996
1687734135.637,-94.238,-40.527,-37.598,-84.473,-15.625
1687734135.640,-31.250,-42.480,-40.039,-75.195,212.402
1687734135.644,-10.254,-40.527,-36.133,-67.871,157.715
1687734135.648,-40.527,-37.109,-34.180,-71.777,-134.766
1687734135.652,-90.332,-38.086,-36.133,-73.730,-110.840
1687734135.656,-103.516,-43.457,-42.480,-75.684,-5.371
1687734135.658,-40.527,-40.527,-38.574,-65.430,-87.891
1687734135.662,-12.207,-41.016,-36.133,-60.547,-156.738
1687734135.666,-42.480,-41.504,-39.062,-65.918,-69.336
1687734135.670,-89.355,-35.156,-38.574,-69.336,-76.660
1687734135.674,-107.910,-29.297,-35.156,-59.082,-160.645
1687734135.678,-48.340,-34.180,-32.715,-47.363,-110.352
1687734135.682,-13.184,-41.992,-40.039,-47.363,153.809
1687734135.685,-37.109,-37.109,-40.039,-46.875,279.297
1687734135.689,-82.031,-41.016,-37.109,-52.734,-62.012
1687734135.693,-104.004,-42.480,-36.621,-62.012,-99.121
1687734135.697,-44.434,-39.062,-39.551,-53.223,163.574
1687734135.701,1.465,-38.086,-40.039,-47.852,163.574
1687734135.703,-22.949,-35.645,-40.527,-59.570,-86.914
1687734135.707,-76.660,-39.551,-38.574,-68.848,-111.816
1687734135.711,-113.770,-47.852,-37.109,-73.730,-15.137
1687734135.715,-67.383,-52.246,-42.480,-64.453,-32.227
1687734135.719,-16.113,-51.270,-41.992,-55.176,-74.219
1687734135.723,-27.832,-46.387,-36.621,-64.453,-44.434
1687734135.727,-68.848,-40.527,-37.598,-71.777,165.527
1687734135.730,-101.562,-39.062,-42.969,-71.777,101.562
1687734135.734,-58.105,-42.480,-44.922,-68.359,-161.133
1687734135.738,7.812,-41.016,-42.480,-62.500,-109.863
1687734135.742,8.789,-36.133,-40.039,-68.848,-55.176
1687734135.746,-41.016,-40.527,-41.992,-75.684,-142.090
1687734135.750,-92.285,-37.109,-42.969,-77.148,-223.633
1687734135.754,-66.406,-30.273,-38.574,-67.871,-33.691
1687734135.758,-16.113,-33.691,-41.992,-55.664,72.266
1687734135.762,-23.438,-35.156,-40.527,-59.570,-150.879
1687734135.766,-64.453,-33.691,-34.668,-65.918,-157.715
1687734135.770,-110.840,-37.598,-38.574,-67.871,59.570
1687734135.774,-97.168,-40.527,-41.992,-64.453,137.695
1687734135.777,-39.551,-42.480,-41.016,-55.176,-24.902
1687734135.781,-29.785,-45.410,-41.992,-61.035,-218.750
1687734135.785,-69.336,-47.363,-40.527,-69.336,99.609
1687734135.789,-116.699,-46.875,-41.504,-67.383,351.074
1687734135.793,-106.445,-40.527,-41.992,-63.965,-36.621
1687734135.809,-39.062,-41.992,-40.527,-53.711,-127.441
1687734135.813,-21.484,-42.969,-41.992,-52.734,-100.098
1687734135.817,-56.641,-40.039,-45.898,-58.594,-132.812
1687734135.821,-105.957,-46.387,-44.922,-64.941,-112.793
1687734135.825,-110.352,-45.410,-43.457,-67.383,-106.934
1687734135.829,-50.781,-43.457,-47.363,-59.082,132.324
1687734135.833,-29.297,-47.852,-51.758,-58.105,171.875
1687734135.836,-53.223,-46.875,-49.805,-63.965,-104.492
1687734135.840,-100.586,-42.480,-43.457,-65.430,-136.230
1687734135.844,-110.352,-41.016,-43.945,-58.105,24.902
1687734135.848,-50.781,-43.945,-45.898,-53.223,-56.152
1687734135.852,-27.344,-42.969,-45.410,-60.547,-204.102
1687734135.853,-52.734,-36.621,-43.945,-71.289,-124.512
1687734135.857,-101.074,-43.945,-43.457,-78.125,-41.504
1687734135.861,-122.559,-46.875,-44.922,-78.125,-83.984
1687734135.865,-62.988,-46.387,-43.945,-69.336,-105.957
1687734135.869,-24.414,-45.410,-40.527,-64.453,-70.801
1687734135.873,-49.805,-44.434,-39.551,-67.383,-11.230
1687734135.877,-101.562,-44.434,-39.551,-72.266,-55.176
1687734135.880,-126.465,-43.945,-39.062,-70.312,-115.234
1687734135.884,-67.383,-44.922,-38.086,-52.246,49.805
1687734135.888,-22.461,-42.969,-39.062,-37.598,439.941
1687734135.892,-37.109,-40.039,-42.969,-48.340,259.766
1687734135.896,-80.566,-40.039,-40.527,-62.012,-110.840
1687734135.899,-114.258,-41.992,-45.410,-66.406,-46.387
1687734135.903,-66.406,-37.598,-44.922,-53.223,-55.664
1687734135.907,-15.137,-37.109,-38.086,-47.852,-110.840
1687734135.911,-27.344,-37.598,-41.504,-51.758,-129.883
1687734135.915,-68.359,-37.598,-44.922,-55.176,-138.184
1687734135.919,-106.934,-41.992,-44.922,-59.082,-39.551
1687734135.923,-71.777,-40.039,-41.504,-49.805,-10.742
1687734135.926,-10.742,-34.668,-36.133,-42.969,-97.168
1687734135.930,-12.695,-32.715,-30.762,-39.551,223.633
1687734135.934,-63.965,-32.715,-37.109,-51.270,228.027
1687734135.938,-107.910,-30.762,-43.945,-64.453,-134.766
1687734135.942,-72.266,-26.367,-39.551,-49.805,-62.988
1687734135.943,-10.742,-27.832,-39.062,-42.480,-59.570
1687734135.947,-5.371,-30.273,-41.504,-45.410,-159.668
1687734135.951,-37.109,-26.855,-44.922,-53.223,-145.996
1687734135.955,-81.543,-27.832,-44.434,-61.523,-76.172
1687734135.959,-69.824,-29.785,-40.527,-51.758,-61.035
1687734135.963,-11.719,-32.715,-36.621,-46.387,-11.719
1687734135.967,0.000,-30.762,-32.227,-49.316,-32.227
1687734135.970,-40.039,-30.762,-32.715,-48.340,69.336
1687734135.974,-94.727,-37.109,-32.227,-55.664,130.371
1687734135.978,-87.402,-30.273,-23.438,-55.176,-51.758
1687734135.982,-24.902,-26.855,-22.949,-46.387,-120.605
1687734135.986,-8.301,-32.227,-27.832,-39.062,83.008
1687734135.988,-41.016,-33.691,-31.738,-45.898,167.480
1687734135.992,-92.285,-28.809,-34.180,-57.129,-154.297
1687734135.996,-96.191,-22.461,-32.715,-49.316,-152.344
1687734136.000,-30.273,-22.949,-31.250,-43.457,-64.453
1687734136.004,-10.742,-27.832,-32.715,-45.898,-104.004
1687734136.008,-47.852,-31.250,-35.645,-47.363,-52.734
1687734136.012,-101.074,-31.738,-29.297,-54.199,-29.297
1687734136.015,-110.840,-32.227,-28.809,-49.805,123.047
1687734136.019,-49.316,-29.785,-31.738,-37.109,82.520
1687734136.023,-18.555,-28.320,-28.809,-41.504,-186.523
1687734136.027,-44.434,-35.156,-36.133,-53.711,-127.930
1687734136.031,-90.820,-41.016,-32.227,-55.176,-126.465
1687734136.035,-114.746,-41.016,-27.832,-48.340,-114.746
1687734136.039,-58.105,-39.551,-28.320,-36.621,-40.527
1687734136.043,-13.672,-40.039,-26.367,-29.785,29.297
1687734136.047,-36.621,-42.480,-26.855,-39.062,63.477
1687734136.051,-85.938,-39.062,-26.855,-48.340,-102.539
1687734136.055,-118.652,-38.574,-27.344,-47.852,-138.184
1687734136.059,-67.871,-39.062,-25.391,-36.621,126.953
1687734136.062,-18.066,-39.062,-29.785,-36.621,244.141
1687734136.066,-35.645,-41.016,-32.227,-48.340,-90.332
1687734136.070,-74.707,-34.668,-30.762,-48.340,-103.027
1687734136.074,-113.770,-31.738,-28.320,-49.316,124.512
1687734136.078,-74.707,-31.250,-28.809,-45.410,68.359
1687734136.078,-5.859,-29.297,-32.227,-41.016,-140.137
1687734136.082,-15.625,-28.320,-33.691,-50.781,-185.059
1687734136.086,-69.824,-23.438,-29.297,-55.664,-124.023
1687734136.090,-110.840,-26.855,-29.297,-55.176,-38.574
1687734136.094,-77.637,-30.762,-36.621,-52.246,-50.293
1687734136.098,-22.949,-28.320,-37.598,-54.688,43.945
1687734136.102,-23.926,-25.391,-33.203,-46.387,250.488
1687734136.105,-62.012,-26.367,-29.785,-43.457,211.426
1687734136.109,-111.816,-32.715,-30.273,-57.617,-113.281
1687734136.113,-86.914,-31.250,-29.297,-43.945,-148.926
1687734136.117,-16.113,-29.297,-31.738,-32.227,-151.367
1687734136.121,-7.812,-34.668,-32.715,-41.016,-180.664
1687734136.123,-43.457,-36.133,-30.273,-53.223,-200.684
1687734136.127,-84.961,-31.250,-30.273,-54.688,-151.855
1687734136.131,-76.172,-30.273,-30.762,-52.246,-75.195
1687734136.135,-11.230,-32.715,-28.809,-49.316,-178.711
1687734136.139,-0.488,-35.156,-31.738,-53.223,-150.391
1687734136.143,-35.645,-35.156,-36.621,-55.664,42.969
1687734136.147,-82.520,-36.133,-37.109,-59.082,46.387
1687734136.150,-87.402,-36.621,-34.668,-63.965,-33.203
1687734136.154,-21.484,-35.156,-35.645,-56.152,-23.438
1687734136.158,-2.930,-37.598,-40.527,-50.781,108.887
1687734136.162,-35.645,-40.527,-38.086,-48.340,339.844
1687734136.166,-80.078,-37.598,-35.156,-52.246,144.043
1687734136.184,-87.891,-34.668,-31.250,-55.176,-94.238
1687734136.188,-30.273,-32.227,-29.297,-56.152,-39.551
1687734136.192,-6.836,-33.691,-31.738,-58.105,-18.555
1687734136.196,-32.227,-39.551,-32.715,-57.617,-166.992
1687734136.200,-83.496,-41.016,-32.715,-58.594,-129.883
1687734136.204,-110.840,-39.551,-32.715,-60.059,30.762
1687734136.208,-53.711,-36.621,-30.762,-53.223,32.227
1687734136.211,-21.973,-39.062,-33.203,-46.875,-32.715
1687734136.215,-41.016,-41.016,-32.227,-51.758,-117.676
1687734136.219,-81.055,-34.668,-26.855,-49.805,137.207
1687734136.223,-104.492,-30.762,-25.879,-50.293,92.773
1687734136.227,-48.340,-34.180,-28.320,-56.641,-170.898
1687734136.228,-4.395,-35.156,-31.250,-58.105,-0.977
1687734136.232,-19.531,-33.691,-28.809,-61.523,-35.156
1687734136.236,-70.801,-33.691,-28.320,-68.359,-167.969
1687734136.240,-101.074,-33.691,-28.809,-66.895,-123.047
1687734136.244,-45.410,-32.227,-29.297,-56.641,-98.633
1687734136.248,1.465,-31.250,-31.250,-52.246,-74.707
1687734136.252,-15.625,-32.715,-29.785,-47.363,-21.484
1687734136.255,-60.059,-35.156,-29.297,-52.246,-64.453
1687734136.259,-92.773,-35.645,-29.297,-51.758,20.508
1687734136.263,-55.664,-40.039,-30.762,-35.645,326.660
1687734136.267,-1.465,-40.039,-34.668,-35.156,166.016
1687734136.271,-5.371,-34.180,-33.203,-39.062,-120.117
1687734136.274,-48.340,-33.691,-32.715,-42.480,-48.340
1687734136.278,-95.215,-37.109,-32.227,-49.805,-47.363
1687734136.282,-75.195,-37.598,-27.344,-46.875,-111.328
1687734136.286,-6.836,-33.691,-26.855,-33.691,-88.867
1687734136.290,-1.953,-30.273,-29.297,-44.434,-122.559
1687734136.294,-57.129,-35.645,-33.203,-67.383,-78.125
1687734136.298,-112.305,-38.086,-35.645,-72.754,-49.805
1687734136.301,-97.656,-37.598,-40.527,-71.289,-100.098
1687734136.305,-27.344,-33.203,-39.551,-60.547,130.371
1687734136.309,-10.742,-31.738,-37.598,-59.082,76.660
1687734136.313,-42.480,-29.785,-38.574,-62.988,-214.844
1687734136.317,-81.055,-26.855,-32.715,-61.035,-138.184
1687734136.318,-73.242,-33.203,-33.203,-55.176,-30.762
1687734136.322,-8.301,-34.180,-37.109,-43.945,-95.215
1687734136.326,11.230,-35.156,-33.691,-45.898,-170.898
1687734136.330,-24.902,-41.016,-34.668,-47.363,-63.477
1687734136.334,-72.754,-38.574,-33.691,-42.969,12.207
1687734136.338,-72.754,-33.203,-35.645,-36.621,-30.273
1687734136.342,-6.836,-30.273,-39.062,-25.391,-11.719
1687734136.345,17.578,-30.273,-34.668,-22.461,34.668
1687734136.349,-11.230,-35.645,-31.738,-31.250,151.367
1687734136.353,-60.547,-36.133,-34.180,-45.898,-20.508
1687734136.357,-77.148,-31.738,-40.039,-47.363,-148.438
1687734136.361,-19.043,-34.668,-43.457,-43.457,-76.660
1687734136.365,13.184,-38.086,-41.504,-44.434,-67.871
1687734136.369,-11.230,-39.551,-43.457,-49.805,-142.578
1687734136.373,-63.965,-41.992,-44.434,-61.035,-115.723
1687734136.377,-90.332,-41.504,-39.551,-61.523,251.953
1687734136.381,-38.086,-38.086,-39.062,-55.176,239.258
1687734136.385,-1.465,-38.574,-39.551,-53.223,-19.043
1687734136.389,-20.508,-38.574,-39.551,-63.477,8.789
1687734136.392,-67.871,-34.180,-37.109,-65.918,166.504
1687734136.396,-102.051,-33.203,-35.156,-62.012,91.309
1687734136.400,-52.734,-35.156,-39.551,-61.035,-162.598
1687734136.404,-1.465,-39.062,-40.527,-56.152,-87.891
1687734136.408,-15.625,-45.898,-40.039,-56.152,-93.262
1687734136.409,-57.617,-43.945,-37.109,-55.664,-154.785
1687734136.413,-92.285,-40.039,-37.109,-54.688,-186.523
1687734136.417,-52.246,-39.062,-39.551,-51.270,-142.090
1687734136.421,-3.418,-35.156,-33.691,-48.340,-122.070
1687734136.425,-16.113,-39.062,-34.180,-52.734,-125.977
1687734136.429,-62.500,-43.945,-38.574,-66.406,-73.730
1687734136.433,-107.422,-36.133,-37.598,-64.453,65.430
1687734136.436,-76.172,-35.645,-36.133,-52.246,323.730
1687734136.440,-17.090,-38.574,-33.691,-50.781,43.945
1687734136.444,-17.090,-38.574,-35.645,-61.035,-180.664
1687734136.448,-49.805,-38.574,-38.086,-66.406,76.172
1687734136.452,-84.961,-38.086,-36.133,-65.918,-0.488
1687734136.453,-64.941,-39.062,-38.086,-64.453,-180.176
1687734136.457,4.883,-34.668,-38.574,-53.223,-126.953
1687734136.461,17.578,-35.645,-37.109,-55.664,-138.672
1687734136.465,-26.367,-38.574,-37.598,-68.359,-185.547
1687734136.469,-73.242,-36.133,-36.133,-65.430,-150.879
1687734136.473,-66.406,-39.551,-37.598,-53.223,-46.875
1687734136.477,-7.324,-37.598,-33.691,-43.457,159.668
1687734136.480,0.488,-35.156,-31.250,-45.898,162.598
1687734136.484,-35.156,-41.016,-31.738,-56.641,-103.027
1687734136.488,-83.496,-41.016,-33.203,-63.477,-112.793
1687734136.492,-90.332,-37.109,-38.086,-62.500,37.598
1687734136.496,-25.391,-36.621,-38.086,-53.711,-89.355
1687734136.498,-4.883,-36.621,-39.062,-55.664,-163.086
1687734136.502,-35.156,-41.016,-40.527,-66.895,-55.176
1687734136.506,-79.590,-45.410,-36.133,-69.824,-66.895
1687734136.510,-85.938,-38.086,-36.621,-61.035,-106.445
1687734136.514,-22.461,-33.203,-37.598,-52.246,-131.348
1687734136.518,1.953,-36.133,-36.133,-52.734,-13.184
1687734136.522,-29.297,-37.598,-37.598,-56.641,140.137
1687734136.525,-73.242,-35.156,-36.133,-62.500,-16.602
1687734136.529,-90.820,-34.668,-35.156,-69.824,-168.945
1687734136.533,-35.156,-35.156,-37.109,-55.176,111.328
1687734136.537,0.000,-34.180,-38.086,-44.922,388.672
1687734136.541,-25.391,-37.109,-35.156,-53.223,53.711
1687734136.558,-73.730,-38.086,-35.645,-56.152,-203.613
1687734136.562,-104.980,-38.574,-38.086,-64.941,-38.086
1687734136.566,-57.617,-40.039,-37.598,-66.895,-19.531
1687734136.570,-16.113,-41.016,-39.551,-65.430,-157.227
1687734136.574,-37.109,-44.434,-37.109,-64.453,-84.473
1687734136.578,-85.449,-42.969,-37.109,-63.965,-3.418
1687734136.582,-115.723,-43.457,-36.133,-70.312,-54.688
1687734136.585,-65.918,-39.062,-32.715,-62.012,-105.469
1687734136.589,-16.602,-35.645,-30.273,-51.758,-82.520
1687734136.593,-26.367,-41.016,-25.879,-57.129,67.871
1687734136.597,-70.312,-42.480,-29.785,-63.477,13.184
1687734136.601,-108.887,-41.992,-33.203,-60.547,-102.539
1687734136.603,-71.777,-41.016,-31.250,-56.152,62.500
1687734136.607,-18.555,-41.992,-35.156,-51.270,95.215
1687734136.611,-29.785,-43.945,-42.480,-56.152,-126.465
1687734136.615,-71.777,-42.480,-37.109,-61.523,-229.980
1687734136.619,-103.027,-37.598,-33.691,-63.477,-200.195
1687734136.623,-72.266,-35.156,-35.645,-61.523,-49.316
1687734136.627,-18.066,-39.062,-34.668,-56.641,28.320
1687734136.630,-15.137,-41.504,-38.086,-63.477,-116.699
1687734136.634,-52.246,-37.598,-39.551,-65.430,-43.945
1687734136.638,-101.074,-36.621,-38.086,-62.988,243.164
1687734136.642,-82.520,-37.109,-39.062,-61.523,84.473
1687734136.646,-18.066,-34.668,-37.598,-58.594,-104.492
1687734136.650,-13.672,-35.645,-38.086,-57.617,-6.836
1687734136.654,-53.223,-39.062,-41.504,-61.523,-13.672
1687734136.658,-98.633,-40.039,-40.039,-68.359,-65.430
1687734136.662,-93.262,-41.992,-42.969,-66.895,-33.691
1687734136.666,-27.832,-40.039,-44.434,-61.035,-5.859
1687734136.670,-2.930,-33.691,-40.527,-47.363,20.020
1687734136.674,-38.086,-33.203,-35.156,-43.945,-23.926
1687734136.677,-95.703,-39.062,-37.598,-58.105,-88.379
1687734136.681,-105.957,-36.621,-42.969,-47.852,120.117
1687734136.685,-33.691,-31.738,-36.133,-36.133,81.055
1687734136.689,-2.930,-30.762,-33.691,-43.945,-166.016
1687734136.693,-36.133,-34.668,-39.551,-49.316,-102.051
1687734136.693,-84.961,-41.504,-39.062,-55.176,-114.258
1687734136.697,-93.262,-37.598,-38.086,-49.316,-157.715
1687734136.701,-32.715,-36.621,-36.621,-37.598,-169.922
1687734136.705,0.977,-38.086,-34.668,-33.203,-123.047
1687734136.709,-24.902,-38.086,-29.785,-35.156,-14.648
1687734136.713,-83.496,-36.621,-29.785,-44.922,30.762
1687734136.717,-106.934,-34.180,-36.133,-48.340,31.250
1687734136.720,-45.898,-35.156,-35.645,-34.180,141.602
1687734136.724,-9.766,-34.180,-34.180,-24.414,305.176
1687734136.728,-32.715,-33.203,-35.645,-34.180,51.270
1687734136.732,-75.684,-32.227,-34.180,-47.363,-122.070
1687734136.736,-97.656,-28.320,-32.715,-40.527,91.797
1687734136.738,-44.922,-28.809,-31.738,-24.902,72.754
1687734136.742,-1.465,-33.203,-29.785,-24.414,-122.070
1687734136.746,-20.508,-32.227,-29.297,-29.785,-102.539
1687734136.750,-71.777,-33.203,-27.344,-37.598,-79.590
1687734136.754,-112.305,-41.016,-27.832,-42.969,-90.332
1687734136.758,-68.359,-40.527,-26.855,-36.133,0.000
1687734136.762,-24.414,-38.086,-28.809,-34.180,-68.848
1687734136.765,-36.133,-37.598,-27.832,-37.109,159.180
1687734136.769,-71.777,-34.180,-27.832,-43.945,261.719
1687734136.773,-111.816,-33.203,-29.785,-48.828,-138.184
1687734136.777,-77.148,-36.133,-30.762,-36.621,-165.039
1687734136.781,-17.090,-37.109,-30.273,-30.762,-90.332
1687734136.783,-21.484,-35.645,-30.762,-34.180,-129.883
1687734136.787,-62.500,-39.551,-32.227,-37.109,-177.246
1687734136.791,-100.586,-39.062,-29.785,-38.086,-113.281
1687734136.795,-73.730,-32.227,-29.297,-30.762,-46.875
1687734136.799,-16.113,-32.227,-31.738,-26.855,-99.121
1687734136.803,-15.625,-35.645,-34.180,-34.668,-71.289
1687734136.807,-53.223,-35.156,-37.598,-38.086,140.137
1687734136.810,-102.051,-31.738,-35.645,-39.062,203.125
1687734136.814,-95.215,-32.715,-34.180,-42.969,-50.781
1687734136.818,-34.668,-36.621,-37.109,-41.992,-104.004
1687734136.822,-21.484,-35.645,-38.086,-37.598,116.699
1687734136.826,-58.594,-37.109,-38.574,-40.527,147.949
1687734136.828,-105.957,-40.527,-39.062,-56.641,-135.254
1687734136.832,-98.633,-37.109,-34.668,-53.223,-169.922
1687734136.836,-29.785,-37.598,-36.133,-42.480,-145.508
1687734136.840,-6.348,-39.551,-39.062,-45.410,-158.203
1687734136.844,-36.621,-36.621,-33.691,-49.805,-191.406
1687734136.848,-90.820,-35.156,-34.180,-62.012,-110.352
1687734136.852,-100.586,-32.227,-33.691,-54.688,153.320
1687734136.855,-36.133,-26.855,-34.180,-44.434,69.336
1687734136.859,-9.766,-26.367,-31.250,-47.852,-190.430
1687734136.863,-38.574,-27.344,-30.273,-50.781,-116.211
1687734136.867,-89.355,-27.344,-38.086,-64.453,-34.668
1687734136.871,-106.934,-33.203,-36.133,-67.871,-23.926
1687734136.875,-48.340,-41.016,-37.109,-62.012,-105.469
1687734136.879,-13.672,-37.109,-41.504,-59.082,-75.684
1687734136.883,-33.691,-34.668,-38.086,-62.500,0.488
1687734136.887,-75.684,-35.156,-34.180,-63.965,-114.746
1687734136.891,-89.844,-31.738,-37.109,-58.594,-152.832
1687734136.895,-31.738,-29.297,-38.086,-46.875,134.277
1687734136.899,5.859,-31.250,-35.645,-41.992,316.895
1687734136.902,-12.695,-36.133,-36.621,-55.176,23.926
1687734136.906,-55.664,-32.715,-35.156,-56.641,-104.004
1687734136.910,-86.426,-32.715,-34.668,-49.805,137.207
1687734136.914,-43.945,-38.574,-36.621,-44.434,170.410
1687734136.918,1.465,-43.945,-35.156,-44.434,-132.324
1687734136.933,-4.395,-48.828,-33.203,-46.387,-163.574
1687734136.937,-48.340,-40.039,-31.250,-50.781,-100.586
1687734136.941,-92.285,-34.668,-38.086,-58.105,-83.008
1687734136.945,-55.664,-35.645,-41.504,-58.594,-154.785
1687734136.949,1.953,-32.227,-38.086,-50.781,-203.613
1687734136.953,-9.766,-33.691,-41.992,-48.828,125.488
1687734136.957,-58.594,-37.109,-39.551,-56.152,191.895
1687734136.960,-95.215,-37.109,-33.203,-54.688,-193.359
1687734136.964,-67.871,-35.156,-28.809,-44.434,-150.391
1687734136.968,-15.137,-36.621,-32.715,-43.457,65.918
1687734136.972,-15.625,-39.551,-36.621,-47.363,-50.293
1687734136.976,-55.664,-39.551,-29.785,-55.176,-162.109
1687734136.978,-101.074,-41.992,-29.297,-62.988,-99.609
1687734136.982,-84.961,-44.434,-30.273,-53.223,-59.570
1687734136.986,-20.996,-38.086,-25.879,-37.109,-71.777
1687734136.990,-16.602,-35.645,-30.762,-40.039,-154.297
1687734136.994,-56.152,-41.992,-34.180,-48.340,47.852
1687734136.998,-96.680,-39.062,-32.227,-50.781,219.727
1687734137.002,-87.402,-36.133,-29.297,-52.246,-0.488
1687734137.005,-24.414,-39.551,-31.738,-46.875,-60.059
1687734137.009,-15.137,-41.992,-36.621,-47.363,43.945
1687734137.013,-55.664,-46.387,-34.180,-55.664,220.703
1687734137.017,-100.586,-47.363,-34.668,-63.965,10.742
1687734137.021,-99.121,-41.992,-34.180,-63.965,-175.781
1687734137.024,-34.180,-41.504,-31.250,-56.152,-69.336
1687734137.028,-8.789,-41.016,-28.320,-53.711,-79.590
1687734137.032,-34.668,-34.180,-27.344,-52.734,-131.836
1687734137.036,-81.055,-30.273,-28.320,-50.293,-139.160
1687734137.040,-89.844,-33.203,-29.785,-49.316,-67.383
1687734137.044,-28.320,-35.156,-29.297,-45.898,52.734
1687734137.048,0.977,-35.156,-28.320,-48.340,8.301
1687734137.051,-30.273,-34.180,-31.738,-57.129,-57.129
1687734137.055,-82.031,-35.645,-32.227,-57.129,150.879
1687734137.059,-102.051,-35.156,-30.762,-58.594,179.688
1687734137.063,-39.551,-35.645,-34.180,-54.688,-137.207
1687734137.067,4.883,-36.133,-33.203,-44.434,-127.930
1687734137.069,-15.625,-32.227,-30.273,-52.246,-27.344
1687734137.073,-59.570,-34.668,-33.691,-62.012,-137.207
1687734137.077,-97.168,-39.551,-39.551,-66.406,-176.270
1687734137.081,-55.176,-38.086,-41.016,-59.082,-100.098
1687734137.085,-8.789,-36.621,-35.156,-54.688,-110.840
1687734137.089,-26.367,-36.133,-29.785,-54.688,-120.117
1687734137.093,-77.637,-35.645,-35.645,-61.035,-129.883
1687734137.096,-106.445,-38.574,-33.691,-60.547,-23.438
1687734137.100,-55.664,-36.621,-31.738,-53.223,140.625
1687734137.104,-8.301,-38.574,-34.668,-55.664,-7.812
1687734137.108,-16.113,-40.039,-34.668,-56.152,-154.785
1687734137.112,-60.059,-37.109,-38.574,-56.641,50.781
1687734137.113,-105.469,-36.133,-38.086,-56.641,139.160
1687734137.117,-70.801,-33.203,-35.645,-57.129,-98.145
1687734137.121,-18.066,-35.645,-38.086,-58.105,-189.453
1687734137.125,-23.438,-37.109,-37.598,-52.734,-153.809
1687734137.129,-64.941,-38.086,-34.180,-45.898,-92.773
1687734137.133,-106.934,-39.551,-36.621,-50.781,-94.238
1687734137.137,-81.543,-39.551,-37.109,-50.781,-25.391
1687734137.140,-19.531,-34.180,-32.715,-35.156,218.262
1687734137.144,-8.789,-30.762,-32.715,-40.527,77.637
1687734137.148,-43.945,-31.250,-34.668,-61.035,-242.188
1687734137.152,-85.449,-29.785,-40.527,-63.965,-121.582
1687734137.156,-72.754,-32.715,-45.410,-62.988,-18.066
1687734137.159,-8.301,-38.086,-46.387,-65.918,-109.863
1687734137.163,5.371,-35.156,-47.363,-69.336,-152.832
1687734137.167,-27.344,-32.227,-46.387,-68.848,-2.441
1687734137.171,-79.102,-36.621,-49.805,-71.289,74.219
1687734137.175,-83.984,-35.645,-46.875,-62.500,-115.723
1687734137.179,-19.531,-31.738,-44.922,-45.898,-107.422
1687734137.183,-9.277,-32.227,-47.852,-43.457,116.699
1687734137.186,-46.387,-31.250,-43.945,-48.828,202.637
1687734137.190,-94.727,-30.273,-39.551,-61.523,-19.531
1687734137.194,-100.098,-30.762,-41.504,-56.641,-67.871
1687734137.198,-29.297,-32.227,-46.387,-41.016,106.445
1687734137.202,0.000,-36.621,-41.016,-41.504,70.801
1687734137.205,-30.762,-42.969,-37.598,-53.711,-204.102
1687734137.209,-80.566,-41.504,-39.551,-62.988,-166.504
1687734137.213,-98.633,-41.016,-40.527,-62.500,-55.664
1687734137.217,-39.551,-41.504,-39.062,-56.152,-74.707
1687734137.221,-13.184,-41.992,-41.504,-60.059,-123.535
1687734137.225,-43.945,-42.969,-42.969,-60.547,-93.750
1687734137.229,-89.844,-42.480,-40.527,-63.965,162.109
1687734137.232,-110.352,-41.504,-40.527,-66.895,86.914
1687734137.236,-54.688,-40.527,-41.504,-58.105,-150.391
1687734137.240,-12.695,-39.551,-37.598,-48.340,-118.652
1687734137.244,-29.785,-36.621,-36.621,-51.270,-140.625
1687734137.248,-69.824,-33.203,-36.621,-60.059,-222.656
1687734137.248,-94.727,-28.320,-36.133,-54.688,-220.703
1687734137.252,-54.199,-37.598,-42.969,-46.875,-90.332
1687734137.256,-9.277,-47.363,-40.527,-46.875,-56.641
1687734137.260,-25.391,-46.387,-41.504,-52.246,-74.707
1687734137.264,-71.777,-46.387,-50.293,-58.594,-139.160
1687734137.268,-102.539,-46.875,-48.828,-59.570,101.562
1687734137.272,-62.500,-47.363,-44.922,-44.922,312.988
1687734137.275,-10.254,-44.922,-45.410,-40.039,33.691
1687734137.279,-14.160,-38.574,-46.875,-49.316,-149.414
1687734137.283,-55.664,-38.086,-44.434,-50.781,104.004
1687734137.287,-95.703,-38.574,-45.410,-58.105,184.570
1687734137.291,-64.941,-37.109,-44.922,-59.082,-166.016
1687734137.308,-7.812,-34.180,-40.039,-52.246,-208.984
1687734137.312,-12.695,-32.715,-39.551,-54.199,-113.770
1687734137.316,-57.129,-34.180,-39.551,-55.664,-107.422
1687734137.320,-104.980,-35.156,-40.527,-60.059,-156.250
1687734137.324,-82.520,-36.621,-41.992,-61.523,-129.395
1687734137.328,-17.090,-32.715,-37.598,-51.758,-33.691
1687734137.332,-8.789,-31.250,-39.551,-52.246,-31.250
1687734137.335,-46.875,-35.156,-37.598,-60.547,-138.672
1687734137.339,-91.797,-34.668,-32.715,-66.406,-174.316
1687734137.343,-81.055,-33.691,-35.156,-54.688,172.363
1687734137.347,-18.066,-34.180,-38.574,-41.016,134.766
1687734137.351,-5.371,-32.227,-37.109,-56.152,-180.664
1687734137.353,-40.039,-31.250,-34.180,-67.383,-63.477
1687734137.357,-89.844,-31.738,-35.645,-67.383,4.883
1687734137.361,-90.820,-31.738,-31.738,-62.988,-62.988
1687734137.365,-20.020,-28.320,-28.320,-52.246,-99.609
1687734137.369,3.418,-28.320,-29.297,-49.316,-43.945
1687734137.373,-24.414,-29.297,-23.438,-46.387,61.035
1687734137.377,-73.242,-33.203,-25.879,-43.945,39.551
1687734137.380,-88.379,-35.645,-30.273,-46.875,-100.586
1687734137.384,-24.902,-31.738,-30.273,-36.133,52.246
1687734137.388,-1.465,-32.715,-33.691,-30.762,495.605
1687734137.392,-31.250,-35.645,-35.645,-41.992,280.762
1687734137.396,-74.219,-33.691,-36.621,-48.828,-139.648
1687734137.398,-92.773,-32.227,-33.691,-54.199,-134.766
1687734137.402,-27.344,-29.297,-27.832,-45.898,-103.516
1687734137.406,13.184,-23.438,-30.762,-36.621,-179.199
1687734137.410,-16.113,-26.855,-29.785,-34.668,-165.527
1687734137.414,-70.801,-33.203,-29.297,-41.992,-132.812
1687734137.418,-93.750,-31.738,-34.180,-45.410,-138.184
1687734137.422,-40.527,-33.203,-29.785,-42.969,-58.105
1687734137.425,-0.488,-34.668,-29.297,-42.969,-113.770
1687734137.429,-19.043,-32.227,-31.738,-36.621,68.848
1687734137.433,-62.500,-35.645,-30.762,-44.434,41.992
1687734137.437,-88.379,-39.062,-32.715,-53.223,-135.254
1687734137.441,-47.852,-39.551,-31.738,-44.434,11.230
1687734137.444,4.883,-32.715,-31.250,-35.645,-17.090
1687734137.448,-5.371,-29.297,-30.762,-42.480,-142.578
1687734137.452,-58.105,-31.250,-36.621,-54.688,-79.590
1687734137.456,-97.656,-32.227,-41.016,-53.223,-23.926
1687734137.460,-62.988,-31.738,-37.109,-41.016,-33.691
1687734137.464,-8.789,-30.273,-36.621,-40.039,9.766
1687734137.468,-14.648,-32.715,-37.598,-48.828,10.742
1687734137.471,-57.129,-33.691,-33.691,-51.758,123.535
1687734137.475,-94.238,-32.227,-30.273,-47.363,237.793
1687734137.479,-63.477,-32.715,-24.414,-45.410,-9.766
1687734137.483,-1.953,-32.227,-24.414,-51.270,-151.855
1687734137.487,-0.977,-33.691,-28.320,-47.852,38.086
1687734137.490,-46.875,-33.691,-30.762,-48.828,53.711
1687734137.494,-93.262,-31.738,-33.203,-56.152,-127.930
1687734137.498,-79.590,-33.203,-37.598,-49.805,-128.906
1687734137.502,-23.438,-34.668,-42.480,-47.852,7.324
1687734137.506,-12.207,-35.645,-43.457,-46.875,5.371
1687734137.510,-48.340,-35.156,-35.645,-49.805,-123.047
1687734137.514,-94.727,-39.062,-28.809,-59.082,-48.340
1687734137.517,-86.914,-39.551,-31.250,-54.688,209.961
1687734137.521,-24.414,-36.621,-31.250,-38.574,139.648
1687734137.525,-5.859,-36.133,-30.273,-39.062,-167.969
1687734137.529,-40.039,-35.156,-32.227,-44.922,-90.332
1687734137.533,-91.309,-38.086,-32.227,-55.664,-49.316
1687734137.534,-99.609,-38.086,-29.785,-60.059,-189.453
1687734137.538,-31.738,-30.762,-28.809,-46.875,-180.664
1687734137.542,-3.906,-31.250,-31.738,-43.457,-92.285
1687734137.546,-35.156,-36.621,-33.203,-52.734,-44.922
1687734137.550,-84.961,-37.598,-30.273,-59.570,-73.242
1687734137.554,-97.656,-39.062,-29.785,-61.523,-85.938
1687734137.558,-30.762,-37.598,-34.180,-52.246,151.367
1687734137.561,3.418,-32.715,-34.668,-43.457,370.605
1687734137.565,-18.066,-28.809,-27.832,-51.270,110.352
1687734137.569,-61.523,-28.320,-33.203,-61.035,-80.566
1687734137.573,-89.355,-30.762,-41.992,-58.594,112.793
1687734137.577,-35.645,-31.738,-37.109,-46.875,146.973
1687734137.579,-0.488,-35.156,-32.715,-45.898,-90.820
1687734137.583,-21.484,-35.156,-32.715,-42.969,-127.930
1687734137.587,-59.570,-30.273,-23.438,-37.598,-88.379
1687734137.591,-92.285,-30.273,-25.391,-46.875,-78.125
1687734137.595,-41.504,-27.832,-32.715,-48.340,-112.305
1687734137.599,4.395,-29.297,-32.715,-46.875,-101.562
1687734137.603,-16.113,-35.645,-30.762,-49.805,166.992
1687734137.606,-62.500,-38.086,-26.855,-55.176,166.992
1687734137.610,-99.609,-37.598,-32.715,-57.129,-132.324
1687734137.614,-56.152,-32.227,-34.180,-45.898,-142.578
1687734137.618,-7.812,-29.297,-34.180,-39.062,49.805
1687734137.622,-21.484,-31.250,-39.062,-45.410,13.184
1687734137.624,-62.500,-32.227,-34.180,-49.316,-122.070
1687734137.628,-96.680,-32.715,-31.738,-47.852,-55.664
1687734137.632,-64.941,-38.574,-33.691,-45.410,-21.484
1687734137.636,-6.836,-35.156,-28.320,-35.156,-127.441
1687734137.640,-0.488,-25.879,-28.320,-29.785,-148.438
1687734137.644,-45.410,-29.785,-34.180,-42.480,37.598
1687734137.648,-93.262,-34.668,-38.086,-49.316,155.273
1687734137.651,-62.988,-33.691,-36.133,-40.527,30.762
1687734137.655,-1.953,-34.180,-37.109,-40.039,-151.367
1687734137.659,-0.977,-35.645,-35.156,-42.480,14.648
1687734137.663,-42.969,-36.621,-25.879,-35.645,235.352
1687734137.667,-94.238,-36.621,-27.344,-42.480,-52.246
1687734137.683,-83.496,-33.691,-31.250,-48.340,-221.680
1687734137.687,-18.555,-30.273,-32.227,-35.645,-144.531
1687734137.691,-5.859,-36.133,-36.133,-35.156,-157.227
1687734137.695,-39.551,-39.551,-36.621,-44.434,-205.078
1687734137.699,-84.961,-39.062,-31.738,-49.316,-167.480
1687734137.703,-79.590,-39.551,-28.809,-45.898,14.648
1687734137.707,-11.719,-38.574,-28.320,-35.156,66.406
1687734137.710,3.418,-34.180,-26.855,-42.480,-110.840
1687734137.714,-33.691,-37.109,-30.762,-54.199,-177.734
1687734137.718,-87.402,-38.574,-35.645,-49.805,29.297
1687734137.722,-96.680,-37.598,-30.273,-48.340,32.227
1687734137.726,-32.227,-39.551,-30.762,-50.781,-176.758
1687734137.729,-6.348,-40.039,-32.715,-46.875,-85.938
1687734137.733,-34.668,-41.992,-33.203,-45.410,47.363
1687734137.737,-85.938,-41.016,-38.574,-55.664,-134.277
1687734137.741,-107.910,-37.109,-39.551,-50.293,-180.664
1687734137.745,-42.969,-32.227,-35.645,-31.250,-65.430
1687734137.749,-4.395,-33.203,-35.156,-28.320,-29.785
1687734137.753,-35.156,-34.180,-42.480,-33.691,-62.988
1687734137.756,-87.402,-40.039,-46.875,-45.898,-163.574
1687734137.760,-109.863,-43.457,-42.969,-52.246,-2.930
1687734137.764,-46.387,-41.992,-44.922,-40.527,380.859
1687734137.768,-2.930,-42.480,-46.875,-38.086,99.609
1687734137.772,-25.879,-42.969,-44.434,-45.898,-231.934
1687734137.773,-71.777,-40.527,-38.086,-52.246,146.973
1687734137.777,-100.098,-38.086,-33.203,-48.828,240.723
1687734137.781,-52.734,-35.645,-34.180,-41.016,-127.441
1687734137.785,-10.254,-36.133,-37.598,-35.645,-151.367
1687734137.789,-25.391,-39.062,-37.598,-36.133,-94.727
1687734137.793,-69.336,-38.574,-37.109,-39.551,-15.137
1687734137.797,-106.445,-42.480,-40.039,-42.480,18.555
1687734137.800,-71.289,-44.922,-43.945,-39.062,-48.828
1687734137.804,-16.113,-43.457,-42.480,-25.879,112.793
1687734137.808,-21.973,-45.410,-38.574,-25.879,126.953
1687734137.812,-72.754,-51.270,-42.969,-45.898,-130.371
1687734137.816,-118.164,-46.875,-41.992,-51.758,-97.656
1687734137.820,-89.355,-41.504,-38.086,-42.480,-33.691
1687734137.824,-31.250,-46.387,-41.016,-37.598,-146.973
1687734137.828,-26.855,-47.363,-42.480,-41.016,-136.719
1687734137.832,-68.848,-44.434,-42.969,-45.898,6.348
1687734137.836,-118.652,-44.434,-42.969,-53.711,-22.949
1687734137.840,-99.121,-41.992,-38.574,-50.293,-134.766
1687734137.844,-33.203,-38.086,-39.062,-42.969,-148.926
1687734137.847,-18.555,-32.715,-38.086,-39.551,-0.488
1687734137.851,-48.340,-31.250,-34.668,-38.086,150.879
1687734137.855,-93.262,-31.250,-36.621,-43.457,57.617
1687734137.859,-90.332,-34.180,-38.574,-42.969,-67.383
1687734137.863,-32.715,-35.645,-39.062,-33.203,-9.766
1687734137.864,-20.508,-36.133,-39.062,-33.203,-47.852
1687734137.868,-52.246,-33.691,-41.016,-40.039,-169.922
1687734137.872,-97.168,-32.227,-38.574,-49.316,-114.258
1687734137.876,-98.633,-34.668,-35.645,-53.223,-137.695
1687734137.880,-32.715,-37.598,-40.527,-51.758,-81.055
1687734137.884,1.465,-34.668,-45.410,-49.805,-2.441
1687734137.888,-18.555,-32.227,-45.898,-52.246,2.930
1687734137.891,-65.918,-35.156,-45.410,-57.129,246.094
1687734137.895,-71.289,-42.480,-48.340,-55.176,229.980
1687734137.899,3.906,-44.922,-49.316,-52.734,-125.977
1687734137.903,39.062,-36.621,-49.316,-54.199,-93.750
1687734137.907,5.371,-32.227,-49.316,-54.199,-62.988
1687734137.909,-59.082,-33.203,-49.805,-61.523,-164.551
1687734137.913,-96.191,-34.668,-48.828,-65.918,-150.391
1687734137.917,-39.062,-37.109,-41.504,-52.734,-57.617
1687734137.921,-6.836,-41.016,-44.434,-48.340,-29.297
1687734137.925,-38.574,-41.016,-50.293,-52.246,-104.004
1687734137.929,-84.961,-43.457,-49.316,-59.570,-17.090
1687734137.933,-110.352,-43.457,-51.758,-59.082,232.910
1687734137.936,-55.664,-36.133,-52.246,-36.621,364.746
1687734137.940,-10.742,-39.062,-48.828,-32.227,46.875
1687734137.944,-32.227,-42.480,-47.852,-45.410,-136.230
1687734137.948,-81.055,-40.527,-51.758,-54.199,82.520
1687734137.952,-112.305,-40.039,-54.199,-53.223,115.234
1687734137.954,-67.871,-39.062,-52.246,-46.875,-75.195
1687734137.958,-20.508,-42.969,-50.293,-47.852,-143.555
1687734137.962,-30.273,-48.340,-54.199,-55.176,-120.605
1687734137.966,-67.383,-44.434,-56.641,-55.664,-130.859
1687734137.970,-102.539,-39.551,-52.246,-52.734,-126.953
1687734137.974,-66.406,-38.574,-48.828,-45.410,-69.336
1687734137.978,-7.324,-38.086,-52.246,-31.250,166.992
1687734137.981,-8.789,-36.621,-51.758,-27.344,163.086
1687734137.985,-46.875,-36.133,-44.434,-35.645,-191.895
1687734137.989,-86.426,-35.156,-41.992,-37.109,-168.457
1687734137.993,-61.035,-37.598,-41.016,-28.320,-41.992
1687734137.997,-2.930,-41.504,-41.016,-27.344,-148.926
1687734137.999,-5.371,-45.898,-46.875,-37.109,-205.078
1687734138.003,-37.109,-46.387,-47.363,-40.039,-97.168
1687734138.007,-78.125,-39.062,-46.387,-46.387,-94.727
1687734138.011,-70.312,-40.039,-48.340,-50.781,-187.500
1687734138.015,-12.695,-44.434,-52.734,-42.480,-147.949
1687734138.019,0.488,-39.062,-52.246,-33.691,34.668
1687734138.023,-31.738,-38.574,-49.316,-40.527,181.641
1687734138.026,-83.496,-47.363,-49.805,-52.246,4.883
1687734138.030,-85.938,-47.363,-51.758,-50.293,-174.805
1687734138.034,-18.066,-38.086,-45.898,-32.715,84.961
1687734138.038,1.953,-36.133,-46.875,-23.438,282.227
1687734138.042,-24.902,-37.109,-49.316,-27.344,12.695
1687734138.059,-72.266,-38.574,-44.922,-30.762,-77.637
1687734138.063,-85.938,-40.527,-50.293,-31.250,1.465
1687734138.067,-22.461,-35.156,-53.223,-23.438,-75.195
1687734138.071,5.859,-30.762,-48.340,-21.484,-228.516
1687734138.075,-20.508,-31.738,-43.945,-24.414,-161.133
1687734138.079,-68.848,-31.250,-45.410,-32.715,-18.555
1687734138.083,-83.496,-35.645,-49.805,-37.598,-29.297
1687734138.086,-19.043,-35.156,-50.293,-28.320,-144.043
1687734138.090,18.066,-29.297,-46.875,-26.367,-152.832
1687734138.094,-7.324,-27.344,-48.340,-21.973,44.922
1687734138.098,-62.012,-31.738,-46.875,-31.250,7.812
1687734138.102,-86.914,-32.715,-44.434,-43.457,-112.793
1687734138.105,-27.832,-30.762,-43.945,-31.738,-39.551
1687734138.109,16.113,-29.297,-43.457,-29.297,-95.215
1687734138.113,-4.883,-23.438,-38.086,-40.039,-82.520
1687734138.117,-55.664,-28.809,-41.504,-47.852,-76.172
1687734138.121,-85.938,-36.133,-47.852,-42.969,23.438
1687734138.125,-33.203,-30.762,-52.246,-29.297,207.520
1687734138.129,14.648,-29.297,-51.270,-21.973,83.984
1687734138.132,0.000,-32.715,-47.363,-30.273,-124.023
1687734138.136,-47.363,-32.227,-49.316,-35.156,-13.184
1687734138.140,-84.961,-33.691,-47.852,-30.273,425.293
1687734138.144,-41.016,-32.715,-39.551,-29.785,137.695
1687734138.148,12.695,-30.273,-37.598,-28.809,-214.355
1687734138.148,7.812,-28.809,-38.086,-23.926,-125.000
1687734138.152,-33.691,-29.297,-37.109,-24.902,-119.629
1687734138.156,-78.613,-28.809,-39.062,-31.250,-176.270
1687734138.160,-52.246,-30.762,-37.598,-21.973,-163.086
1687734138.164,7.812,-30.762,-30.762,-7.324,-91.309
1687734138.168,4.883,-30.273,-34.180,-19.531,-4.395
1687734138.172,-38.574,-31.250,-40.527,-28.809,-15.137
1687734138.175,-77.148,-27.832,-38.574,-27.344,-93.262
1687734138.179,-59.082,-32.715,-38.574,-18.066,91.309
1687734138.183,7.324,-29.297,-31.738,-3.418,147.461
1687734138.187,14.160,-28.320,-29.297,-14.648,-146.973
1687734138.191,-30.762,-30.273,-31.250,-22.461,-143.555
1687734138.194,-80.078,-26.855,-30.762,-26.367,-115.234
1687734138.198,-77.148,-28.320,-34.180,-28.320,-170.898
1687734138.202,-19.043,-28.809,-39.062,-25.391,-132.812
1687734138.206,-11.230,-28.809,-41.016,-31.250,-88.867
1687734138.210,-49.316,-35.156,-44.922,-46.875,-84.473
1687734138.214,-96.680,-34.180,-43.457,-53.223,-60.547
1687734138.218,-90.820,-28.320,-40.039,-43.457,-15.625
1687734138.221,-15.625,-26.855,-39.062,-28.320,111.816
1687734138.225,3.906,-25.391,-39.551,-21.973,283.691
1687734138.229,-27.832,-27.832,-46.387,-29.785,97.168
1687734138.233,-66.895,-25.879,-45.898,-31.250,-110.840
1687734138.237,-76.172,-26.855,-41.992,-20.996,-11.230
1687734138.239,-10.742,-30.273,-38.086,-12.695,47.852
1687734138.243,20.508,-26.855,-37.109,-16.113,-143.066
1687734138.247,-13.184,-26.855,-41.992,-20.020,-153.809
1687734138.251,-65.918,-34.180,-43.945,-23.438,-79.102
1687734138.255,-86.426,-40.527,-41.504,-29.297,-71.777
1687734138.259,-20.996,-34.668,-42.969,-14.648,-96.191
1687734138.263,13.672,-33.203,-44.434,-17.090,-81.543
1687734138.266,-13.672,-37.598,-45.898,-21.973,113.770
1687734138.270,-60.547,-36.621,-39.062,-19.043,31.250
1687734138.274,-92.285,-30.273,-36.621,-38.574,-142.578
1687734138.278,-41.992,-36.133,-47.363,-46.387,-81.543
1687734138.282,2.930,-36.621,-45.410,-37.109,-75.195
1687734138.284,-14.648,-33.691,-43.457,-42.480,-215.820
1687734138.288,-69.336,-41.016,-50.293,-52.246,-265.625
1687734138.292,-99.609,-39.551,-51.270,-43.457,-156.250
1687734138.296,-53.223,-37.109,-51.758,-36.621,-113.770
1687734138.300,-5.371,-35.156,-52.734,-36.133,-144.043
1687734138.304,-11.230,-35.645,-51.270,-35.156,-97.656
1687734138.308,-51.758,-33.203,-45.898,-32.227,111.816
1687734138.311,-86.914,-32.227,-42.480,-27.832,238.281
1687734138.315,-52.246,-37.598,-42.969,-31.738,38.574
1687734138.319,0.000,-38.574,-41.504,-35.645,-70.312
1687734138.323,-1.465,-39.551,-39.551,-34.180,104.004
1687734138.327,-49.316,-39.551,-45.898,-46.875,119.141
1687734138.329,-99.609,-39.551,-50.293,-58.105,-102.539
1687734138.333,-65.430,-32.715,-43.945,-45.898,-101.562
1687734138.337,-0.977,-25.391,-41.992,-36.621,46.875
1687734138.341,-0.488,-29.785,-45.410,-37.598,50.293
1687734138.345,-34.180,-30.273,-42.969,-42.480,-58.105
1687734138.349,-81.055,-32.715,-41.016,-45.410,-17.090
1687734138.353,-70.312,-36.133,-41.504,-33.691,280.273
1687734138.356,-14.160,-37.109,-41.992,-31.250,217.285
1687734138.360,-3.906,-42.480,-37.598,-39.551,-130.371
1687734138.364,-36.133,-40.527,-32.227,-35.645,-106.445
1687734138.368,-88.867,-35.645,-34.668,-34.668,-86.426
1687734138.372,-89.844,-37.109,-35.645,-34.180,-103.027
1687734138.375,-24.414,-38.086,-34.180,-24.414,-117.188
1687734138.379,-4.395,-37.598,-33.203,-21.973,-53.711
1687734138.383,-39.551,-36.621,-35.645,-28.809,-57.617
1687734138.387,-90.820,-35.645,-38.086,-39.062,-135.742
1687734138.391,-97.168,-36.133,-41.016,-48.340,-124.023
1687734138.395,-27.832,-36.133,-38.574,-38.086,23.926
1687734138.399,-4.395,-35.645,-33.691,-35.645,177.734
1687734138.402,-31.738,-32.715,-39.551,-47.363,-74.707
1687734138.406,-73.242,-28.809,-42.480,-53.223,-232.910
1687734138.410,-92.773,-29.297,-44.922,-53.223,39.062
1687734138.414,-32.227,-30.273,-51.270,-49.316,170.898
1687734138.418,3.418,-32.227,-49.805,-51.270,-131.836
1687734138.433,-20.020,-30.273,-46.387,-50.781,-193.359
1687734138.437,-63.965,-28.809,-40.527,-49.805,-145.996
1687734138.441,-86.914,-31.250,-35.645,-50.293,-128.418
1687734138.445,-26.367,-33.203,-37.598,-41.992,-145.508
1687734138.449,14.160,-30.762,-41.504,-39.062,-165.527
1687734138.453,-12.207,-28.809,-40.527,-37.109,153.809
1687734138.457,-62.012,-31.738,-38.574,-39.551,221.680
1687734138.460,-86.426,-33.203,-38.574,-43.945,-162.598
1687734138.464,-34.668,-33.691,-35.156,-32.715,-179.688
1687734138.468,3.906,-33.203,-39.551,-24.902,-41.992
1687734138.472,-13.672,-36.621,-42.969,-26.855,-117.188
1687734138.476,-60.059,-43.457,-41.504,-37.598,-159.180
1687734138.479,-94.238,-36.621,-38.574,-44.922,-51.758
1687734138.483,-55.176,-33.691,-36.133,-42.480,-40.527
1687734138.487,-0.488,-29.785,-35.645,-35.156,-96.191
1687734138.491,-12.207,-37.109,-36.133,-40.527,-160.645
1687734138.495,-56.641,-41.016,-34.668,-45.410,-129.883
1687734138.499,-91.797,-34.180,-36.133,-49.316,52.246
1687734138.503,-62.500,-33.691,-38.086,-46.387,91.309
1687734138.506,2.441,-33.691,-36.621,-44.434,41.504
1687734138.510,3.418,-35.645,-35.645,-48.340,102.539
1687734138.514,-42.480,-31.250,-37.109,-44.434,419.434
1687734138.518,-88.379,-30.762,-41.016,-51.270,340.820
1687734138.522,-67.871,-35.645,-41.016,-49.805,-83.008
1687734138.523,-3.418,-29.297,-37.109,-39.062,-155.273
1687734138.527,5.371,-28.320,-38.574,-35.156,-141.602
1687734138.531,-28.809,-32.715,-45.410,-36.133,-142.090
1687734138.535,-74.707,-28.320,-43.457,-39.551,-139.160
1687734138.539,-65.918,-27.344,-36.133,-40.039,-135.742
1687734138.543,-3.418,-25.391,-35.156,-31.738,-104.980
1687734138.547,3.418,-22.949,-42.969,-30.762,-63.477
1687734138.550,-35.156,-29.297,-47.852,-40.527,-213.379
1687734138.554,-88.867,-32.715,-46.875,-47.852,132.324
1687734138.558,-93.262,-31.738,-50.781,-47.363,284.668
1687734138.562,-26.855,-30.762,-47.852,-44.922,-168.457
1687734138.566,-3.906,-29.785,-49.316,-48.828,-131.348
1687734138.569,-31.250,-31.738,-53.711,-48.828,-30.273
1687734138.573,-80.566,-30.762,-43.457,-49.316,-141.602
1687734138.577,-91.797,-27.344,-42.480,-51.758,-196.777
1687734138.581,-24.902,-23.438,-44.922,-41.504,-112.305
1687734138.585,2.441,-29.297,-39.062,-37.598,-49.805
1687734138.589,-35.645,-33.691,-38.086,-45.410,22.461
1687734138.593,-82.520,-30.273,-41.504,-53.711,70.801
1687734138.596,-92.285,-25.391,-41.992,-53.711,113.281
1687734138.600,-35.645,-23.926,-39.551,-45.410,187.500
1687734138.604,-0.488,-22.461,-35.645,-42.480,-13.672
1687734138.608,-18.066,-16.602,-37.109,-47.852,-175.781
1687734138.612,-71.777,-24.414,-41.992,-53.711,138.672
1687734138.613,-99.609,-30.273,-40.527,-57.129,250.000
1687734138.617,-41.992,-26.855,-37.598,-56.641,-88.867
1687734138.621,1.465,-29.297,-36.133,-51.270,-155.273
1687734138.625,-25.391,-33.691,-39.551,-54.199,-130.859
1687734138.629,-78.613,-33.691,-39.551,-59.082,-161.621
1687734138.633,-106.445,-32.227,-35.156,-55.176,-133.301
1687734138.637,-56.152,-29.785,-37.109,-50.293,-66.406
1687734138.640,-6.836,-28.320,-40.527,-39.551,80.566
1687734138.644,-17.578,-24.902,-39.062,-39.062,18.555
1687734138.648,-63.477,-22.949,-38.574,-55.664,-203.125
1687734138.652,-98.145,-26.367,-37.109,-50.781,-157.715
1687734138.656,-47.852,-26.367,-38.086,-35.156,-104.004
1687734138.660,7.812,-21.484,-43.457,-43.945,-129.395
1687734138.664,-1.953,-23.438,-46.387,-62.012,-118.164
1687734138.668,-39.062,-27.832,-43.945,-68.848,30.762
1687734138.672,-83.008,-24.902,-44.922,-71.289,70.312
1687734138.676,-53.711,-23.926,-45.898,-62.012,-74.707
1687734138.680,17.090,-25.391,-44.922,-52.734,-156.250
1687734138.684,23.438,-27.344,-41.504,-47.363,71.289
1687734138.687,-26.855,-34.180,-40.527,-48.828,226.562
1687734138.691,-86.914,-33.691,-40.039,-57.129,-23.438
1687734138.695,-69.336,-26.855,-39.551,-57.617,-0.977
1687734138.699,-7.324,-23.926,-40.039,-44.434,126.465
1687734138.703,-2.930,-26.367,-41.504,-47.852,-20.996
1687734138.704,-40.527,-25.879,-43.457,-70.801,-216.309
1687734138.708,-84.473,-22.949,-41.504,-71.289,-204.590
1687734138.712,-70.801,-28.809,-34.668,-52.734,-143.555
1687734138.716,-9.766,-32.715,-33.691,-44.922,-114.258
1687734138.720,3.906,-32.227,-34.180,-44.434,-137.695
1687734138.724,-28.809,-30.762,-33.203,-46.875,-149.414
1687734138.728,-83.008,-30.273,-35.156,-43.457,167.480
1687734138.731,-87.402,-26.367,-36.133,-38.086,253.418
1687734138.735,-19.043,-19.043,-34.668,-41.504,-112.793
1687734138.739,5.371,-20.996,-33.203,-37.109,-189.453
1687734138.743,-22.949,-26.855,-31.250,-38.574,-118.164
1687734138.747,-75.684,-25.391,-33.203,-45.410,-96.680
1687734138.749,-87.402,-23.438,-34.668,-43.457,-80.078
1687734138.753,-20.020,-27.832,-33.691,-35.645,-40.527
1687734138.757,8.789,-31.250,-38.574,-34.180,-47.363
1687734138.761,-20.020,-26.855,-37.109,-40.039,-91.797
1687734138.765,-67.871,-26.367,-33.203,-48.828,-82.031
1687734138.769,-87.402,-30.273,-34.180,-50.781,137.695
1687734138.773,-34.668,-31.250,-37.598,-45.898,167.480
1687734138.776,0.977,-31.738,-40.527,-48.340,-57.617
1687734138.780,-20.020,-24.414,-40.039,-53.223,-227.539
1687734138.784,-57.617,-17.090,-32.715,-49.316,-57.129
1687734138.788,-82.031,-21.973,-31.738,-34.180,373.535
1687734138.792,-37.109,-21.484,-33.203,-29.297,148.926
1687734138.808,9.766,-19.043,-30.273,-33.203,-135.254
1687734138.812,-5.859,-21.484,-33.691,-36.621,-68.848
1687734138.816,-52.246,-22.949,-32.227,-40.527,-16.113
1687734138.820,-86.914,-24.414,-28.809,-45.410,-71.777
1687734138.824,-45.410,-22.949,-32.227,-37.109,-119.141
1687734138.828,9.277,-22.949,-34.668,-28.320,-9.766
1687734138.832,5.859,-22.949,-35.645,-31.738,-12.207
1687734138.835,-34.180,-20.508,-31.250,-36.621,-117.188
1687734138.839,-76.172,-20.020,-33.203,-41.504,-117.676
1687734138.843,-51.270,-23.926,-37.109,-33.691,208.496
1687734138.847,0.000,-28.809,-36.621,-33.203,200.195
1687734138.851,3.418,-24.414,-35.645,-43.457,-120.117
1687734138.854,-36.621,-23.438,-30.762,-45.898,-95.703
1687734138.858,-86.914,-30.273,-35.156,-49.316,-115.723
1687734138.862,-70.312,-27.832,-38.574,-49.316,-141.602
1687734138.866,-10.254,-27.832,-37.598,-44.922,-112.793
1687734138.870,-6.348,-30.273,-37.109,-41.504,-36.621
1687734138.874,-44.922,-27.832,-37.598,-44.434,46.875
1687734138.878,-91.309,-26.367,-38.086,-53.223,-24.414
1687734138.881,-83.496,-23.438,-33.203,-53.711,-159.180
1687734138.885,-20.508,-27.344,-31.738,-39.551,-32.227
1687734138.889,-2.930,-26.855,-33.691,-32.715,331.055
1687734138.893,-38.574,-25.391,-33.691,-49.805,111.816
1687734138.897,-84.473,-32.715,-34.668,-61.035,-150.391
1687734138.898,-83.008,-34.180,-34.180,-54.688,43.945
1687734138.902,-14.648,-25.391,-32.715,-41.016,18.066
1687734138.906,19.043,-19.531,-25.879,-32.715,-175.293
1687734138.910,-16.113,-23.438,-20.996,-34.668,-145.020
1687734138.914,-64.941,-22.949,-17.090,-33.691,-120.605
1687734138.918,-67.871,-23.926,-14.648,-24.902,-46.387
1687734138.922,-7.324,-26.855,-17.090,-20.020,-66.895
1687734138.925,12.695,-27.832,-21.973,-24.414,-157.715
1687734138.929,-20.020,-28.320,-22.949,-22.949,88.867
1687734138.933,-67.383,-25.391,-20.996,-29.297,139.160
1687734138.937,-84.961,-22.949,-19.043,-35.156,-143.555
1687734138.941,-26.367,-21.973,-23.926,-21.484,-114.746
1687734138.944,1.465,-23.926,-26.855,-27.832,-25.391
1687734138.948,-25.391,-24.902,-28.809,-40.039,-94.238
1687734138.952,-72.754,-22.949,-27.344,-49.805,-195.801
1687734138.956,-97.656,-16.602,-25.391,-53.223,-2.441
1687734138.960,-43.457,-18.555,-26.367,-39.551,128.906
1687734138.964,-5.859,-26.367,-28.809,-38.086,-50.293
1687734138.968,-25.391,-24.414,-30.273,-45.410,-14.648
1687734138.971,-79.590,-25.391,-29.297,-55.664,191.406
1687734138.975,-118.652,-22.949,-26.367,-61.035,202.637
1687734138.979,-66.406,-23.438,-28.320,-55.664,-1.465
1687734138.983,-15.137,-25.391,-28.320,-56.641,-107.910
1687734138.987,-40.039,-27.832,-29.785,-65.918,-43.945
1687734138.988,-90.820,-31.250,-33.691,-69.336,-5.371
1687734138.992,-118.652,-27.344,-29.785,-68.359,-133.789
1687734138.996,-77.148,-30.762,-27.832,-63.965,-125.000
1687734139.000,-22.461,-32.715,-29.785,-52.734,-41.504
1687734139.004,-21.973,-29.785,-26.855,-46.387,-83.008
1687734139.008,-61.523,-31.250,-23.926,-50.293,-42.480
1687734139.012,-100.098,-29.785,-26.367,-55.176,-3.906
1687734139.015,-73.242,-27.344,-25.391,-42.969,105.957
1687734139.019,-19.043,-26.367,-20.020,-28.809,117.188
1687734139.023,-16.113,-28.320,-21.973,-34.668,-192.383
1687734139.027,-52.246,-30.273,-25.391,-41.504,-142.578
1687734139.031,-93.262,-25.879,-19.043,-44.434,-32.715
1687734139.034,-69.824,-21.973,-18.555,-39.551,-86.914
1687734139.038,-8.301,-23.438,-25.391,-32.227,-145.020
1687734139.042,-0.977,-22.461,-23.926,-30.762,-113.281
1687734139.046,-39.062,-19.531,-25.391,-37.598,-106.934
1687734139.050,-87.891,-19.531,-25.391,-46.875,-136.230
1687734139.054,-79.590,-21.484,-24.414,-50.781,-97.656
1687734139.058,-14.160,-22.461,-24.902,-43.457,134.277
1687734139.061,-3.906,-24.902,-21.973,-40.039,352.539
1687734139.065,-41.016,-27.344,-21.973,-52.734,24.414
1687734139.069,-86.426,-27.344,-29.297,-64.941,-189.453
1687734139.073,-92.285,-31.250,-34.668,-59.570,22.949
1687734139.077,-28.320,-34.668,-30.273,-49.316,128.906
1687734139.078,-1.465,-31.738,-29.785,-54.688,-77.637
1687734139.082,-32.715,-29.785,-27.832,-61.035,-157.715
1687734139.086,-80.078,-30.273,-26.855,-70.801,-120.605
1687734139.090,-93.262,-28.809,-33.203,-73.242,-120.605
1687734139.094,-39.062,-28.320,-35.645,-61.523,-153.809
1687734139.098,-15.137,-31.250,-31.250,-58.594,-151.367
1687734139.102,-42.969,-30.762,-29.297,-60.059,79.590
1687734139.105,-87.402,-29.785,-31.738,-60.547,172.363
1687734139.109,-106.934,-32.715,-30.273,-62.500,-66.406
1687734139.113,-47.363,-31.250,-24.414,-49.805,-116.211
1687734139.117,-10.254,-27.832,-19.531,-43.945,-64.453
1687734139.121,-31.250,-27.832,-20.508,-51.758,-106.445
1687734139.124,-77.148,-32.227,-19.531,-63.477,-141.602
1687734139.128,-109.375,-36.133,-17.578,-70.312,-69.336
1687734139.132,-55.664,-30.273,-20.996,-62.012,-54.688
1687734139.136,-6.348,-23.438,-23.438,-55.664,-48.340
1687734139.140,-29.785,-25.879,-24.414,-64.453,-74.219
1687734139.144,-81.543,-32.715,-23.438,-74.707,33.203
1687734139.148,-109.375,-32.227,-27.344,-72.266,187.988
1687734139.151,-58.105,-27.344,-28.320,-57.129,2.441
1687734139.155,-10.254,-31.250,-22.949,-47.363,-154.785
1687734139.159,-19.043,-33.203,-23.926,-46.875,81.055
1687734139.163,-62.500,-32.715,-24.902,-51.758,302.246
1687734139.167,-95.215,-31.738,-20.020,-56.641,15.625
1687734139.183,-51.270,-30.762,-18.555,-43.945,-134.766
1687734139.187,1.953,-34.180,-20.996,-35.645,-29.785
1687734139.191,-3.418,-31.738,-22.461,-39.062,-68.359
1687734139.195,-40.527,-30.273,-20.996,-46.387,-182.617
1687734139.199,-83.008,-27.832,-20.508,-49.316,-125.488
1687734139.203,-62.012,-24.902,-24.414,-43.457,43.945
1687734139.207,2.441,-25.879,-23.438,-32.715,46.387
1687734139.210,6.348,-24.902,-21.484,-33.203,-134.277
1687734139.214,-35.156,-24.902,-20.996,-49.805,-169.922
1687734139.218,-81.055,-27.344,-18.066,-55.664,78.613
1687734139.222,-65.430,-26.367,-17.578,-47.363,51.270
1687734139.226,-2.441,-27.832,-28.320,-46.875,-194.824
1687734139.228,0.977,-26.855,-30.273,-57.129,-129.883
1687734139.232,-37.598,-25.879,-23.926,-63.477,-20.508
1687734139.236,-87.402,-30.762,-24.902,-69.336,-109.863
1687734139.240,-80.078,-29.785,-24.414,-61.523,-95.703
1687734139.244,-16.602,-33.691,-25.879,-54.688,-27.832
1687734139.248,-7.324,-35.156,-28.809,-57.617,31.738
1687734139.252,-38.086,-28.809,-33.691,-62.012,105.469
1687734139.255,-91.797,-31.738,-33.203,-79.102,-64.453
1687734139.259,-103.027,-35.645,-29.785,-77.148,-23.438
1687734139.263,-31.738,-34.180,-28.809,-54.688,421.875
1687734139.267,-0.977,-35.645,-25.879,-54.199,181.152
1687734139.271,-32.715,-36.133,-27.344,-67.871,-174.316
1687734139.273,-83.984,-31.738,-29.785,-74.219,-85.449
1687734139.277,-94.727,-28.809,-25.879,-71.777,-91.797
1687734139.281,-35.156,-35.645,-33.691,-62.988,-154.785
1687734139.285,-0.488,-30.762,-31.250,-57.129,-101.074
1687734139.289,-22.461,-23.926,-23.926,-58.105,6.836
1687734139.293,-71.777,-23.438,-28.320,-63.477,52.734
1687734139.297,-91.797,-23.926,-25.879,-64.941,5.371
1687734139.300,-36.621,-29.297,-24.902,-59.082,-46.875
1687734139.304,-1.465,-31.250,-28.809,-50.293,128.906
1687734139.308,-23.926,-31.738,-29.785,-55.176,45.898
1687734139.312,-67.383,-32.227,-28.809,-66.406,-222.656
1687734139.316,-96.191,-30.762,-27.832,-62.500,-99.121
1687734139.318,-42.480,-30.273,-28.320,-59.570,-97.168
1687734139.322,8.789,-30.273,-29.297,-59.570,-165.039
1687734139.326,0.000,-29.785,-26.367,-58.105,-128.418
1687734139.330,-45.410,-28.320,-24.902,-59.082,-81.543
1687734139.334,-82.031,-25.879,-23.926,-56.152,-40.527
1687734139.338,-36.621,-24.902,-23.438,-46.387,-36.133
1687734139.342,14.160,-25.879,-23.438,-45.410,24.414
1687734139.345,-0.488,-28.809,-29.297,-54.199,185.547
1687734139.349,-48.340,-30.273,-26.855,-54.688,325.684
1687734139.353,-89.355,-30.762,-19.043,-57.617,166.992
1687734139.357,-60.059,-32.227,-24.902,-60.059,-96.191
1687734139.361,0.000,-31.738,-27.832,-54.199,-23.926
1687734139.364,-1.465,-29.785,-26.855,-49.316,41.016
1687734139.368,-45.410,-27.344,-29.297,-55.176,-138.184
1687734139.372,-83.496,-28.320,-31.738,-59.082,-160.156
1687734139.376,-58.594,-26.855,-31.250,-49.805,-103.516
1687734139.380,0.977,-21.973,-28.320,-42.480,-108.398
1687734139.384,8.789,-21.973,-29.297,-47.363,-122.559
1687734139.388,-29.785,-23.438,-30.762,-55.664,-74.219
1687734139.391,-77.148,-17.578,-25.391,-56.152,228.516
1687734139.395,-67.871,-19.531,-28.809,-51.270,305.176
1687734139.399,-6.348,-25.879,-34.180,-55.664,-113.281
1687734139.403,6.836,-26.855,-29.297,-58.594,-143.555
1687734139.407,-29.297,-27.344,-27.344,-57.617,-111.328
1687734139.409,-82.031,-30.762,-25.879,-63.965,-197.754
1687734139.413,-83.496,-36.133,-27.344,-67.383,-140.137
1687734139.417,-17.578,-30.762,-27.344,-55.664,-78.125
1687734139.421,0.977,-26.367,-22.461,-45.410,-146.973
1687734139.425,-31.250,-26.367,-23.438,-46.387,-219.727
1687734139.429,-81.055,-27.832,-22.949,-51.758,-171.387
1687734139.433,-97.168,-31.738,-22.949,-48.828,13.672
1687734139.436,-37.109,-27.344,-25.879,-39.062,136.719
1687734139.440,-10.254,-30.273,-29.297,-39.551,-46.875
1687734139.444,-39.551,-36.621,-31.250,-45.898,-122.070
1687734139.448,-92.285,-38.086,-33.691,-52.246,41.016
1687734139.452,-109.863,-38.574,-33.203,-51.270,69.336
1687734139.454,-49.805,-37.598,-31.738,-52.246,-84.473
1687734139.458,-17.578,-37.598,-36.133,-53.711,-174.805
1687734139.462,-41.504,-34.180,-38.574,-53.223,45.410
1687734139.466,-89.355,-30.762,-33.203,-59.082,86.426
1687734139.470,-117.676,-34.180,-30.273,-65.430,-162.598
1687734139.474,-63.477,-31.250,-29.297,-55.664,-69.336
1687734139.478,-14.160,-29.297,-28.809,-44.922,204.102
1687734139.481,-31.250,-35.645,-33.203,-55.176,149.414
1687734139.485,-68.848,-31.250,-27.832,-58.594,-195.312
1687734139.489,-90.820,-30.273,-27.832,-59.082,-169.922
1687734139.493,-39.062,-33.691,-36.133,-61.523,-55.176
1687734139.497,19.043,-30.273,-31.738,-57.129,-99.609
1687734139.500,5.371,-26.367,-30.762,-58.105,-129.395
1687734139.504,-39.062,-32.227,-33.203,-60.547,-16.602
1687734139.508,-77.637,-33.203,-32.715,-55.176,-10.254
1687734139.512,-53.711,-27.344,-31.738,-59.082,-139.160
1687734139.516,-8.301,-29.297,-29.785,-66.406,-166.016
1687734139.520,-20.508,-34.668,-29.785,-59.570,116.211
1687734139.524,-66.406,-38.086,-30.273,-59.082,268.555
1687734139.527,-109.863,-39.551,-32.715,-68.359,-6.348
1687734139.531,-76.660,-36.133,-29.785,-57.617,-122.070
1687734139.535,-10.742,-35.156,-24.902,-35.645,87.891
1687734139.539,-13.184,-36.621,-30.762,-38.574,166.992
1687734139.543,-47.852,-33.203,-31.250,-45.898,-133.301
1687734139.559,-89.355,-33.203,-23.926,-45.410,-171.875
1687734139.563,-78.613,-35.156,-24.902,-41.992,-192.383
1687734139.567,-16.602,-35.645,-28.320,-34.668,-150.391
1687734139.571,-7.812,-33.203,-29.785,-33.203,-91.309
1687734139.575,-47.363,-41.992,-29.297,-43.945,-144.043
1687734139.579,-99.121,-46.875,-29.785,-48.340,61.035
1687734139.583,-91.309,-37.598,-28.320,-44.922,170.410
1687734139.586,-30.762,-39.551,-26.367,-41.504,-33.691
1687734139.590,-17.090,-40.039,-27.832,-41.992,-146.973
1687734139.594,-51.270,-37.109,-30.273,-46.875,-33.691
1687734139.598,-99.609,-37.598,-30.762,-47.363,-30.273
1687734139.602,-100.098,-35.156,-31.250,-45.898,-143.555
1687734139.603,-34.180,-31.250,-31.250,-38.086,-93.262
1687734139.607,-7.324,-27.832,-28.320,-37.109,-99.609
1687734139.611,-37.598,-25.391,-28.320,-49.316,-154.785
1687734139.615,-80.078,-23.926,-28.320,-52.734,-141.602
1687734139.619,-92.773,-26.855,-30.762,-50.781,39.551
1687734139.623,-37.109,-34.180,-32.227,-45.898,125.488
1687734139.627,-1.465,-36.133,-27.832,-38.086,18.066
1687734139.630,-30.762,-38.086,-31.250,-42.969,-55.176
1687734139.634,-80.566,-34.180,-32.715,-48.340,15.625
1687734139.638,-98.633,-27.832,-26.855,-39.551,386.719
1687734139.642,-41.504,-30.762,-28.809,-37.598,208.984
1687734139.646,-4.395,-31.738,-29.297,-41.992,-129.883
1687734139.649,-29.297,-29.785,-23.438,-43.945,-59.570
1687734139.653,-78.125,-29.297,-25.391,-52.246,-108.398
1687734139.657,-106.445,-31.738,-27.344,-59.082,-153.320
1687734139.661,-54.688,-33.691,-26.367,-57.129,-90.820
1687734139.665,-11.230,-28.320,-28.809,-54.688,-52.246
1687734139.669,-36.133,-32.227,-35.156,-61.523,-48.828
1687734139.673,-85.449,-41.016,-36.133,-74.707,-28.809
1687734139.676,-111.816,-36.133,-29.297,-74.707,5.371
1687734139.680,-64.941,-33.203,-25.391,-57.129,281.250
1687734139.684,-6.836,-28.809,-29.297,-49.316,263.672
1687734139.688,-6.348,-27.832,-31.250,-54.199,-142.578
1687734139.692,-52.734,-30.762,-30.273,-60.547,-146.973
1687734139.694,-94.238,-32.715,-30.762,-70.801,-92.773
1687734139.698,-59.082,-37.109,-33.203,-71.777,-183.105
1687734139.702,-2.930,-37.598,-35.645,-70.801,-168.457
1687734139.706,-8.789,-37.109,-33.203,-70.801,-109.863
1687734139.710,-51.270,-33.203,-33.203,-69.336,-117.676
1687734139.714,-92.773,-29.297,-28.320,-61.523,-113.281
1687734139.718,-62.500,-31.738,-24.902,-46.387,-83.984
1687734139.721,-0.977,-38.086,-28.809,-39.551,19.043
1687734139.725,0.977,-38.086,-28.809,-39.551,71.289
1687734139.729,-28.809,-34.668,-21.973,-46.875,-37.598
1687734139.733,-75.684,-34.180,-20.508,-51.758,-36.621
1687734139.737,-63.965,-31.738,-27.344,-42.969,67.383
1687734139.739,-0.977,-30.273,-28.809,-31.250,56.152
1687734139.743,7.812,-34.180,-26.855,-39.551,-135.742
1687734139.747,-25.879,-31.250,-29.785,-53.711,-135.254
1687734139.751,-67.383,-23.438,-29.297,-51.270,-65.430
1687734139.755,-70.312,-25.391,-25.879,-48.340,-61.523
1687734139.759,-9.766,-27.344,-26.855,-44.434,-63.477
1687734139.763,15.137,-28.809,-29.297,-40.039,-75.195
1687734139.766,-19.531,-31.738,-30.762,-48.340,149.902
1687734139.770,-77.148,-36.621,-31.250,-54.199,177.246
1687734139.774,-80.078,-39.062,-30.273,-57.129,-139.648
1687734139.778,-13.672,-35.645,-30.273,-52.734,-151.367
1687734139.782,12.207,-31.250,-29.785,-46.875,-118.164
1687734139.784,-20.996,-33.691,-30.273,-56.641,-143.066
1687734139.788,-75.195,-37.598,-30.762,-63.965,-227.051
1687734139.792,-96.191,-41.504,-31.738,-63.477,-88.379
1687734139.796,-40.039,-46.387,-34.180,-60.059,66.406
1687734139.800,-1.465,-44.922,-33.203,-56.641,-129.883
1687734139.804,-18.555,-40.039,-27.832,-47.852,-133.789
1687734139.808,-66.895,-35.156,-23.926,-46.875,82.520
1687734139.811,-94.727,-34.180,-26.367,-47.363,218.262
1687734139.815,-42.480,-37.598,-28.320,-41.504,10.254
1687734139.819,1.465,-34.180,-25.391,-41.504,-124.512
1687734139.823,-18.555,-30.762,-21.484,-42.480,111.328
1687734139.827,-66.406,-28.809,-25.391,-50.293,139.160
1687734139.830,-95.703,-28.320,-30.273,-58.594,-99.121
1687734139.834,-45.410,-31.250,-32.715,-48.340,-86.914
1687734139.838,-1.953,-30.762,-33.203,-40.527,48.340
1687734139.842,-18.555,-32.227,-29.297,-46.387,-20.508
1687734139.846,-62.012,-31.250,-31.738,-56.641,-130.371
1687734139.850,-103.027,-27.344,-32.715,-64.453,-106.934
1687734139.854,-65.430,-29.297,-35.645,-54.688,195.801
1687734139.857,-7.812,-29.785,-39.062,-47.852,250.000
1687734139.861,-10.742,-31.250,-32.715,-60.059,-184.082
1687734139.865,-64.941,-33.691,-33.203,-71.289,-206.543
1687734139.869,-110.840,-35.645,-38.574,-75.684,-84.961
1687734139.873,-77.148,-38.086,-38.574,-70.801,-174.805
1687734139.873,-15.137,-36.621,-33.203,-65.430,-227.539
1687734139.877,-13.184,-36.133,-31.738,-59.082,-111.328
1687734139.881,-55.664,-42.969,-36.133,-60.059,-41.016
1687734139.885,-103.027,-43.457,-35.156,-63.965,-116.211
1687734139.889,-76.172,-40.527,-34.180,-56.641,-9.766
1687734139.893,-11.230,-41.504,-33.203,-44.434,189.453
1687734139.897,-7.812,-41.992,-27.832,-43.945,332.031
1687734139.900,-43.945,-40.039,-24.414,-56.641,73.242
1687734139.904,-87.402,-36.621,-20.996,-62.012,-184.082
1687734139.908,-78.613,-36.133,-15.137,-45.898,114.258
1687734139.912,-20.508,-36.133,-19.043,-35.645,171.387
1687734139.916,-6.348,-29.785,-19.043,-42.969,-149.902
1687734139.934,-39.551,-23.438,-14.648,-48.828,-162.109
1687734139.938,-86.914,-26.367,-16.602,-56.152,-101.562
1687734139.942,-90.332,-30.762,-21.973,-59.082,-72.266
1687734139.946,-25.391,-27.832,-27.832,-54.199,-115.723
1687734139.950,7.324,-23.926,-22.461,-51.758,-111.328
1687734139.954,-26.855,-29.297,-20.996,-54.199,6.836
1687734139.958,-86.426,-32.715,-20.508,-62.988,1.953
1687734139.961,-100.586,-34.180,-26.367,-62.988,-14.160
1687734139.965,-36.133,-35.156,-32.227,-56.641,2.441
1687734139.969,-6.836,-35.156,-26.855,-56.152,175.781
1687734139.973,-32.715,-29.297,-24.902,-56.641,191.895
1687734139.977,-78.125,-26.855,-29.785,-68.359,-146.973
1687734139.978,-100.586,-30.762,-36.621,-73.242,-97.656
1687734139.982,-43.945,-34.180,-38.086,-65.430,12.695
1687734139.986,-5.371,-32.715,-33.203,-62.012,-85.938
1687734139.990,-27.832,-28.809,-36.621,-63.477,-184.082
1687734139.994,-76.172,-33.203,-36.621,-64.941,-127.930
1687734139.998,-104.980,-36.133,-28.320,-64.453,-25.879
1687734140.002,-55.664,-35.156,-31.250,-55.664,40.039
1687734140.005,-5.859,-33.691,-30.762,-48.340,-10.742
1687734140.009,-16.113,-31.738,-28.809,-52.734,-2.441
1687734140.013,-63.477,-33.203,-26.367,-53.223,341.309
1687734140.017,-99.609,-34.180,-23.926,-54.199,230.469
1687734140.021,-56.641,-37.598,-25.879,-52.246,-92.285
1687734140.024,-9.277,-42.480,-23.926,-50.293,5.371
1687734140.028,-22.461,-34.180,-19.043,-51.270,-56.641
1687734140.032,-67.383,-28.809,-23.438,-60.547,-206.543
1687734140.036,-109.863,-36.133,-28.809,-65.430,-155.762
1687734140.040,-79.590,-42.480,-31.250,-61.523,-110.352
1687734140.044,-27.344,-40.527,-33.203,-62.012,-92.285
1687734140.048,-21.484,-36.621,-30.273,-60.059,-80.078
1687734140.051,-57.129,-38.086,-22.461,-69.336,-86.914
1687734140.055,-98.145,-37.109,-21.973,-73.242,119.629
1687734140.059,-69.824,-36.621,-26.367,-60.059,117.676
1687734140.063,-7.324,-31.738,-25.391,-56.152,-120.117
1687734140.067,-3.418,-31.250,-26.855,-62.988,-14.160
1687734140.069,-45.410,-33.691,-29.785,-66.406,16.113
1687734140.073,-92.285,-34.668,-33.691,-73.730,-128.418
1687734140.077,-72.754,-34.180,-32.227,-70.801,-161.133
1687734140.081,-11.230,-29.297,-28.809,-57.129,-71.777
1687734140.085,-13.672,-32.715,-30.762,-60.059,-48.828
1687734140.089,-51.270,-36.133,-33.203,-66.406,-8.789
1687734140.093,-96.191,-33.203,-36.133,-76.172,17.090
1687734140.096,-90.332,-35.156,-31.738,-69.336,130.859
1687734140.100,-24.902,-33.691,-28.320,-50.781,242.188
1687734140.104,-3.418,-30.762,-29.297,-48.828,40.527
1687734140.108,-35.156,-29.785,-33.203,-60.547,-138.184
1687734140.112,-84.961,-29.785,-33.691,-62.500,-23.926
1687734140.115,-87.891,-31.738,-30.762,-52.246,76.172
1687734140.119,-17.090,-29.785,-28.320,-44.434,-73.242
1687734140.123,8.301,-29.785,-29.785,-43.457,-132.324
1687734140.127,-25.391,-33.691,-33.203,-53.711,-93.750
1687734140.131,-70.801,-31.738,-35.156,-60.547,-82.031
1687734140.135,-86.426,-31.738,-37.109,-62.988,-115.723
1687734140.139,-27.832,-28.320,-37.598,-55.176,-62.012
1687734140.142,6.348,-22.949,-35.156,-47.363,193.359
1687734140.146,-24.902,-30.762,-35.645,-58.105,166.504
1687734140.150,-75.684,-36.133,-38.086,-71.289,-150.879
1687734140.154,-95.703,-31.250,-31.250,-70.801,-88.379
1687734140.158,-41.992,-32.227,-29.297,-69.336,-66.895
1687734140.159,-2.930,-38.574,-33.691,-71.289,-122.070
1687734140.163,-29.785,-37.109,-36.621,-77.637,-101.074
1687734140.167,-81.055,-34.180,-34.668,-85.938,-71.777
1687734140.171,-106.445,-33.203,-31.250,-87.402,-20.996
1687734140.175,-59.082,-36.621,-31.250,-72.266,-26.855
1687734140.179,-9.277,-34.180,-29.785,-59.082,-96.680
1687734140.183,-20.508,-28.809,-30.762,-59.570,-0.488
1687734140.186,-67.383,-32.715,-31.250,-56.152,274.902
1687734140.190,-97.656,-35.156,-30.762,-56.641,110.840
1687734140.194,-51.758,-33.691,-27.832,-47.852,-139.160
1687734140.198,-0.488,-31.250,-24.902,-31.250,55.176
1687734140.202,-14.160,-31.250,-28.809,-39.062,108.887
1687734140.204,-59.082,-36.133,-30.273,-54.688,-119.629
1687734140.208,-98.633,-40.039,-26.367,-52.734,-148.926
1687734140.212,-67.383,-38.086,-26.855,-50.781,-67.871
1687734140.216,-11.719,-35.645,-38.574,-53.711,-83.496
1687734140.220,-11.719,-38.086,-41.504,-59.082,-203.613
1687734140.224,-46.875,-34.180,-33.203,-61.523,-183.594
1687734140.228,-93.262,-30.273,-33.691,-61.523,214.844
1687734140.231,-71.289,-28.320,-29.785,-55.176,306.152
1687734140.235,-7.812,-22.949,-25.391,-50.781,-100.586
1687734140.239,-6.348,-33.203,-30.273,-58.594,-167.480
1687734140.243,-46.875,-43.945,-37.598,-66.406,-80.078
1687734140.247,-90.820,-35.156,-39.062,-69.824,-116.699
1687734140.248,-81.055,-30.762,-34.180,-71.777,-140.137
1687734140.252,-19.043,-31.250,-33.203,-60.059,-53.223
1687734140.256,-5.371,-37.598,-34.180,-60.547,-69.336
1687734140.260,-37.598,-37.598,-33.691,-66.406,-205.078
1687734140.264,-90.820,-36.621,-34.668,-71.289,-211.426
1687734140.268,-97.168,-41.016,-38.574,-73.242,58.594
1687734140.272,-24.414,-39.551,-39.551,-65.430,229.004
1687734140.275,6.348,-38.086,-41.016,-63.477,-44.922
1687734140.279,-15.625,-33.203,-37.598,-66.406,-180.176
1687734140.283,-63.477,-29.297,-31.738,-63.477,9.277
1687734140.287,-74.707,-30.273,-31.738,-58.594,90.820
1687734140.291,-13.184,-36.133,-33.203,-58.105,-112.305
1687734140.309,4.883,-38.086,-36.133,-59.570,-189.941
1687734140.313,-29.297,-36.133,-36.621,-60.059,18.066
1687734140.317,-78.125,-34.180,-37.598,-59.082,118.164
1687734140.321,-99.121,-30.273,-30.762,-57.129,-96.191
1687734140.325,-40.039,-31.738,-25.879,-48.828,-105.957
1687734140.329,-7.324,-32.227,-30.273,-47.852,19.043
1687734140.333,-32.227,-26.367,-27.344,-48.340,-58.594
1687734140.336,-81.055,-27.344,-25.879,-53.223,-156.738
1687734140.340,-108.887,-34.668,-29.785,-61.523,-83.496
1687734140.344,-51.758,-34.180,-34.668,-51.270,87.891
1687734140.348,-12.695,-31.250,-37.109,-46.875,67.871
1687734140.352,-32.715,-30.273,-33.203,-51.270,-100.098
1687734140.354,-79.102,-32.715,-34.668,-51.758,-24.414
1687734140.358,-110.352,-32.715,-36.621,-49.805,110.840
1687734140.362,-63.965,-33.691,-31.250,-41.992,-42.969
1687734140.366,-11.230,-33.691,-29.297,-36.621,-168.945
1687734140.370,-24.902,-34.180,-31.738,-41.016,-95.215
1687734140.374,-71.289,-35.156,-30.273,-43.457,40.527
1687734140.378,-103.516,-36.133,-26.855,-43.945,43.945
1687734140.381,-63.477,-35.156,-25.391,-32.227,-107.422
1687734140.385,-6.348,-32.715,-28.320,-20.020,-16.602
1687734140.389,-17.090,-36.133,-32.715,-26.367,287.109
1687734140.393,-63.965,-44.434,-32.715,-41.016,83.008
1687734140.397,-102.539,-41.016,-26.367,-50.293,-141.113
1687734140.399,-80.078,-35.645,-23.438,-49.805,-57.617
1687734140.403,-22.461,-34.180,-31.250,-46.875,3.418
1687734140.407,-20.508,-38.574,-33.691,-50.293,-88.867
1687734140.411,-64.453,-42.480,-33.203,-58.594,-112.305
1687734140.415,-96.680,-34.668,-32.227,-62.500,-22.461
1687734140.419,-68.359,-31.250,-33.691,-58.105,19.531
1687734140.423,-14.160,-32.715,-37.109,-55.664,-78.125
1687734140.426,-12.207,-36.133,-41.016,-60.059,-173.828
1687734140.430,-52.734,-40.039,-49.316,-67.871,41.016
1687734140.434,-99.609,-37.598,-49.316,-77.148,104.980
1687734140.438,-88.379,-36.133,-41.504,-68.359,-109.375
1687734140.442,-26.367,-34.180,-39.062,-56.152,-88.379
1687734140.444,-12.695,-35.156,-39.551,-58.105,-79.590
1687734140.448,-39.062,-34.668,-38.086,-52.734,-122.070
1687734140.452,-82.520,-34.180,-34.180,-53.223,-140.137
1687734140.456,-84.473,-36.621,-35.645,-47.363,6.836
1687734140.460,-18.555,-33.691,-35.645,-35.645,63.477
1687734140.464,5.371,-31.250,-30.762,-37.598,-43.945
1687734140.468,-25.391,-34.180,-32.227,-47.852,-75.684
1687734140.471,-85.449,-33.203,-37.598,-55.664,34.668
1687734140.475,-99.121,-33.203,-33.203,-50.781,166.504
1687734140.479,-29.297,-37.109,-30.273,-46.387,50.781
1687734140.483,0.488,-38.086,-28.809,-42.480,-81.543
1687734140.487,-27.344,-43.945,-27.832,-37.598,26.367
1687734140.488,-76.172,-43.457,-31.738,-47.852,77.637
1687734140.492,-94.727,-37.109,-29.785,-56.152,-60.059
1687734140.496,-37.109,-37.598,-31.250,-47.852,-84.961
1687734140.500,5.371,-39.062,-34.180,-38.574,-98.145
1687734140.504,-16.113,-37.109,-33.203,-43.945,-114.746
1687734140.508,-64.453,-36.621,-32.715,-54.688,-114.746
1687734140.512,-92.773,-33.203,-37.109,-59.082,-86.914
1687734140.515,-41.504,-34.180,-37.598,-44.922,177.246
1687734140.519,4.395,-36.621,-38.086,-39.551,270.020
1687734140.523,-13.672,-36.133,-35.156,-57.129,-118.164
1687734140.527,-55.664,-36.621,-30.762,-68.359,-157.715
1687734140.531,-92.285,-32.715,-33.691,-71.289,-74.707
1687734140.533,-48.340,-26.855,-30.273,-59.082,-144.043
1687734140.537,11.719,-28.320,-29.297,-51.758,-214.355
1687734140.541,1.953,-31.738,-31.250,-57.617,-115.234
1687734140.545,-48.340,-32.227,-29.297,-64.453,-0.488
1687734140.549,-91.309,-34.180,-25.879,-64.941,-142.578
1687734140.553,-58.105,-35.156,-24.414,-56.641,-41.504
1687734140.557,5.371,-30.273,-22.461,-42.480,214.355
1687734140.560,3.906,-31.738,-21.973,-34.668,210.938
1687734140.564,-36.621,-29.785,-25.391,-39.551,-66.406
1687734140.568,-80.566,-28.809,-24.414,-44.434,-113.281
1687734140.572,-64.941,-31.738,-26.855,-38.086,168.945
1687734140.576,-7.812,-31.738,-29.297,-29.785,211.914
1687734140.579,-4.395,-31.250,-28.809,-37.109,-113.281
1687734140.583,-45.898,-30.762,-24.902,-49.805,-187.012
1687734140.587,-96.191,-33.691,-25.391,-62.500,-129.883
1687734140.591,-84.961,-31.250,-27.832,-58.105,-164.062
1687734140.595,-21.484,-29.785,-27.832,-47.363,-183.594
1687734140.599,-13.184,-36.621,-35.156,-60.547,-132.324
1687734140.603,-48.340,-42.969,-35.156,-72.266,73.730
1687734140.606,-92.773,-44.434,-32.227,-76.172,62.988
1687734140.610,-85.449,-38.086,-29.297,-77.637,-121.582
1687734140.614,-13.672,-36.621,-22.949,-63.477,-104.004
1687734140.618,13.672,-34.668,-21.973,-58.594,-20.020
1687734140.622,-20.508,-35.645,-26.367,-62.012,-44.922
1687734140.623,-71.289,-36.621,-25.391,-62.988,-133.301
1687734140.627,-76.172,-36.621,-19.531,-61.523,-37.109
1687734140.631,-17.090,-42.969,-24.414,-50.293,102.539
1687734140.635,11.230,-40.527,-27.344,-44.434,-32.227
1687734140.639,-10.254,-31.250,-22.949,-46.875,-145.996
1687734140.643,-56.641,-25.879,-20.020,-49.316,70.312
1687734140.647,-74.707,-25.391,-16.602,-44.434,225.098
1687734140.650,-15.137,-30.762,-18.066,-39.551,-36.133
1687734140.654,16.602,-31.250,-18.066,-37.109,-194.824
1687734140.658,-13.184,-31.250,-20.020,-35.645,98.145
1687734140.662,-71.777,-38.086,-26.855,-42.480,262.207
1687734140.666,-100.586,-40.039,-32.227,-54.688,-36.621
1687734140.684,-39.062,-42.480,-28.320,-51.758,-176.270
1687734140.688,10.254,-37.598,-26.855,-44.434,-108.887
1687734140.692,-4.395,-29.297,-31.738,-43.457,-76.172
1687734140.696,-55.664,-37.109,-28.320,-52.246,-180.664
1687734140.700,-80.078,-37.598,-27.832,-59.570,-199.219
1687734140.704,-34.180,-31.738,-30.273,-57.617,-88.867
1687734140.708,2.441,-34.668,-31.250,-48.828,-30.762
1687734140.711,-6.836,-32.227,-30.273,-50.781,-122.559
1687734140.715,-51.270,-32.227,-27.832,-62.500,-188.477
1687734140.719,-89.355,-32.715,-26.855,-59.570,9.277
1687734140.723,-51.270,-32.715,-26.855,-53.711,43.457
1687734140.727,5.371,-32.227,-26.855,-54.688,-158.691
1687734140.729,0.488,-30.273,-26.855,-52.734,-178.223
1687734140.733,-38.574,-29.785,-22.949,-51.270,-159.668
1687734140.737,-75.684,-30.762,-22.461,-50.293,-103.027
1687734140.741,-48.340,-28.809,-24.414,-40.039,-20.996
1687734140.745,4.395,-27.344,-25.391,-35.156,5.859
1687734140.749,-1.465,-32.715,-25.391,-38.086,107.422
1687734140.753,-42.480,-35.156,-27.832,-45.410,41.504
1687734140.756,-91.309,-33.203,-28.809,-53.223,-125.488
1687734140.760,-77.148,-34.668,-29.785,-46.387,14.160
1687734140.764,-12.207,-33.691,-29.785,-27.832,384.766
1687734140.768,-2.930,-33.691,-28.320,-37.598,97.168
1687734140.772,-45.898,-32.715,-29.297,-56.152,-193.848
1687734140.782,-94.727,-28.320,-29.297,-58.594,-105.957
1687734140.786,-86.426,-24.414,-31.250,-59.082,-89.844
1687734140.790,-26.367,-24.414,-32.227,-57.617,-151.855
1687734140.794,-13.672,-30.273,-32.715,-64.941,-188.477
1687734140.798,-48.828,-33.691,-34.180,-73.730,-140.625
1687734140.802,-94.727,-37.109,-35.645,-75.684,-85.938
1687734140.806,-92.285,-38.086,-32.715,-67.871,-68.848
1687734140.809,-21.484,-31.250,-30.762,-58.594,-32.227
1687734140.813,2.930,-26.855,-30.273,-51.758,147.949
1687734140.817,-26.367,-24.414,-25.879,-51.758,164.551
1687734140.821,-68.848,-25.391,-25.391,-62.500,-124.512
1687734140.825,-83.008,-26.367,-29.297,-67.871,-161.133
1687734140.821,-24.902,-31.738,-37.598,-59.082,-89.355
1687734140.825,4.883,-35.645,-32.227,-51.758,-115.723
1687734140.829,-24.414,-32.715,-24.902,-56.152,-151.855
1687734140.833,-76.172,-34.180,-29.785,-61.523,-77.637
1687734140.837,-100.098,-36.621,-30.762,-63.965,3.418
1687734140.841,-39.062,-39.062,-27.832,-61.035,41.016
1687734140.845,4.883,-33.203,-22.461,-53.223,19.531
1687734140.848,-17.578,-29.297,-21.484,-44.922,18.066
1687734140.852,-63.477,-33.203,-21.484,-42.969,236.328
1687734140.856,-92.285,-36.133,-21.484,-48.340,152.344
1687734140.860,-41.504,-35.645,-23.438,-44.434,-107.910
1687734140.864,8.301,-30.762,-27.344,-35.156,27.832
1687734140.863,-9.277,-23.438,-29.785,-41.992,46.387
1687734140.867,-62.012,-23.926,-23.438,-55.664,-166.504
1687734140.871,-98.145,-25.391,-20.508,-55.176,-131.836
1687734140.875,-52.734,-25.391,-22.949,-43.945,-78.613
1687734140.879,2.441,-26.855,-19.531,-40.039,-89.844
1687734140.883,-13.672,-26.367,-18.066,-46.387,-87.402
1687734140.887,-66.895,-28.809,-22.949,-57.129,4.395
1687734140.890,-107.422,-28.809,-25.879,-60.059,191.895
1687734140.894,-69.824,-28.809,-23.926,-53.223,126.953
1687734140.898,-6.836,-27.832,-22.949,-51.270,-147.949
1687734140.902,-7.812,-27.832,-27.344,-54.199,-81.543
1687734140.906,-49.316,-27.832,-31.250,-59.570,12.207
1687734140.909,-91.797,-24.414,-30.762,-64.453,-63.965
1687734140.913,-67.871,-29.297,-31.250,-64.453,-119.629
1687734140.917,1.465,-28.320,-31.250,-51.758,-53.711
1687734140.921,-0.488,-28.809,-35.156,-51.270,-87.891
1687734140.925,-44.434,-33.691,-36.621,-62.500,-224.609
1687734140.929,-83.496,-40.039,-35.156,-64.453,-161.133
1687734140.933,-73.730,-45.898,-38.574,-57.129,153.320
1687734140.936,-16.113,-44.434,-38.574,-41.992,286.621
1687734140.940,-3.418,-41.016,-34.668,-44.922,-52.734
1687734140.944,-40.527,-37.598,-30.273,-51.270,-181.641
1687734140.948,-91.309,-32.715,-29.785,-51.270,65.430
1687734140.952,-88.379,-32.227,-31.250,-48.828,125.488
1687734140.955,-27.832,-38.574,-35.645,-46.387,-51.270
1687734140.959,-7.812,-38.574,-34.180,-50.293,-191.895
1687734140.963,-42.480,-34.180,-28.809,-54.199,-124.512
1687734140.967,-95.215,-36.133,-32.715,-61.035,-53.223
1687734140.971,-100.586,-41.504,-36.133,-66.406,-128.418
1687734140.975,-44.922,-44.434,-39.551,-65.918,-1.953
1687734140.979,-20.020,-43.457,-42.969,-62.012,172.363
1687734140.982,-43.945,-35.156,-41.504,-59.570,29.297
1687734140.986,-88.867,-33.203,-44.922,-69.336,-183.594
1687734140.990,-97.656,-34.180,-49.316,-66.895,-118.164
1687734140.994,-31.250,-34.668,-42.480,-47.852,45.410
1687734140.998,-3.418,-39.551,-35.645,-50.781,-20.996
1687734141.014,-39.551,-41.016,-39.551,-63.965,-190.918
1687734141.018,-85.449,-41.504,-40.039,-63.965,-103.516
1687734141.022,-96.680,-40.039,-35.156,-60.547,83.008
1687734141.026,-43.457,-36.621,-39.062,-62.500,12.695
1687734141.030,-15.137,-35.645,-41.016,-66.895,-159.668
1687734141.034,-35.645,-36.133,-36.133,-66.406,25.391
1687734141.038,-80.566,-36.133,-37.598,-67.871,367.676
1687734141.041,-110.840,-33.203,-39.551,-71.777,85.938
1687734141.045,-56.641,-32.227,-34.180,-60.059,-171.875
1687734141.049,-8.789,-32.227,-37.109,-52.246,69.336
1687734141.053,-30.273,-30.273,-42.480,-59.082,126.953
1687734141.057,-76.660,-30.762,-36.621,-62.500,-52.246
1687734141.059,-113.281,-33.691,-36.133,-70.312,-115.234
1687734141.063,-80.566,-37.109,-41.504,-69.336,-131.836
1687734141.067,-29.785,-39.551,-39.062,-61.523,-31.738
1687734141.071,-41.992,-36.621,-38.574,-66.895,-84.961
1687734141.075,-91.797,-35.156,-42.480,-81.543,-144.043
1687734141.079,-127.930,-36.621,-42.480,-84.961,-0.488
1687734141.083,-89.844,-37.109,-39.551,-72.266,90.820
1687734141.086,-30.273,-34.180,-41.992,-67.383,84.961
1687734141.090,-30.273,-30.273,-41.504,-70.801,-43.945
1687734141.094,-63.477,-31.250,-38.574,-70.801,145.996
1687734141.098,-95.215,-34.668,-41.504,-74.219,208.496
1687734141.102,-62.988,-32.715,-40.527,-74.707,-74.219
1687734141.104,9.277,-26.855,-36.133,-68.848,-127.930
1687734141.108,20.508,-24.902,-34.180,-69.336,-125.488
1687734141.112,-19.531,-28.809,-38.574,-72.266,-120.117
1687734141.116,-72.266,-30.762,-43.457,-73.730,-117.188
1687734141.120,-71.289,-31.738,-40.039,-66.895,-8.301
1687734141.124,-7.812,-29.297,-40.039,-57.617,90.820
1687734141.128,-1.465,-27.832,-40.527,-56.152,-31.250
1687734141.131,-42.969,-34.180,-34.668,-64.941,-102.539
1687734141.135,-93.750,-36.621,-31.738,-75.195,-27.344
1687734141.139,-107.910,-39.551,-39.551,-68.848,374.023
1687734141.143,-43.945,-39.062,-41.016,-56.152,274.902
1687734141.147,-12.207,-33.203,-32.227,-52.734,-137.695
1687734141.149,-39.551,-36.133,-28.809,-51.758,-124.023
1687734141.153,-89.355,-41.016,-31.250,-58.594,-103.027
1687734141.157,-100.586,-41.016,-34.668,-62.012,-145.996
1687734141.161,-28.320,-34.668,-33.203,-47.363,-163.086
1687734141.165,6.836,-28.809,-35.645,-36.133,-119.141
1687734141.169,-25.879,-28.809,-37.109,-47.852,-54.688
1687734141.173,-70.312,-28.809,-30.273,-51.758,-72.754
1687734141.176,-88.379,-34.180,-32.227,-54.199,-179.199
1687734141.180,-36.133,-36.621,-39.062,-52.246,46.387
1687734141.184,0.977,-30.273,-39.551,-44.922,122.070
1687734141.188,-19.531,-31.738,-41.016,-50.781,-104.004
1687734141.192,-74.219,-37.109,-44.922,-60.547,-84.961
1687734141.193,-108.398,-36.621,-42.969,-64.453,16.113
1687734141.197,-47.852,-35.645,-35.156,-51.270,-77.637
1687734141.201,-0.488,-37.598,-33.203,-43.457,-114.746
1687734141.205,-15.137,-38.574,-36.621,-43.945,-31.738
1687734141.209,-66.406,-39.551,-38.086,-47.852,-26.367
1687734141.213,-102.539,-38.086,-34.668,-50.293,-41.504
1687734141.217,-58.105,-37.109,-37.109,-46.387,-68.359
1687734141.220,-19.531,-36.133,-40.527,-43.945,16.602
1687734141.224,-34.180,-33.691,-39.062,-40.039,96.680
1687734141.228,-74.219,-36.133,-33.203,-49.805,-19.531
1687734141.232,-110.352,-37.598,-30.273,-58.105,-137.207
1687734141.236,-80.566,-35.645,-34.180,-47.852,30.762
1687734141.239,-25.391,-37.109,-37.598,-44.434,153.809
1687734141.243,-28.320,-39.062,-38.574,-54.688,-120.117
1687734141.247,-69.336,-39.551,-38.574,-60.059,-160.645
1687734141.251,-106.934,-40.039,-37.598,-60.547,-74.219
1687734141.255,-75.195,-34.180,-38.574,-57.617,-90.820
1687734141.259,-8.789,-28.809,-35.156,-46.387,-142.090
1687734141.263,0.488,-34.180,-36.133,-44.434,-103.027
1687734141.266,-42.480,-41.504,-42.480,-52.246,113.281
1687734141.270,-87.891,-39.551,-39.062,-54.688,95.703
1687734141.274,-74.219,-35.156,-35.156,-49.316,-176.758
1687734141.278,-16.113,-31.738,-38.574,-45.898,-152.832
1687734141.282,-5.371,-31.250,-39.551,-45.410,-106.445
1687734141.285,-37.598,-34.668,-34.180,-45.898,-110.840
1687734141.289,-87.402,-35.645,-32.715,-56.641,-113.281
1687734141.293,-82.520,-30.762,-31.738,-52.734,-29.785
1687734141.297,-18.555,-30.762,-29.297,-45.410,17.578
1687734141.301,-5.371,-33.203,-30.762,-42.480,-115.723
1687734141.305,-39.551,-39.062,-29.785,-41.504,-100.098
1687734141.309,-85.938,-42.969,-27.832,-45.898,89.844
1687734141.312,-90.820,-37.598,-29.785,-42.480,211.426
1687734141.316,-27.344,-36.621,-31.250,-36.621,-30.762
1687734141.320,0.488,-37.109,-28.320,-36.133,-100.586
1687734141.324,-22.949,-33.203,-25.879,-41.504,142.090
1687734141.328,-68.359,-31.738,-25.391,-47.852,76.172
1687734141.332,-84.473,-34.180,-27.832,-57.617,-145.996
1687734141.336,-17.578,-32.227,-29.297,-48.340,-102.051
1687734141.340,17.578,-29.785,-29.785,-42.969,-50.781
1687734141.344,-14.160,-32.715,-27.344,-48.340,-99.609
1687734141.348,-62.012,-32.715,-20.020,-47.363,-126.465
1687734141.352,-80.566,-32.715,-20.508,-48.828,-121.094
1687734141.356,-22.949,-32.227,-24.902,-39.551,157.715
1687734141.359,12.695,-29.785,-25.391,-35.156,307.129
1687734141.363,-10.742,-26.855,-26.855,-45.410,-59.570
1687734141.367,-58.594,-27.832,-29.297,-50.293,-123.047
1687734141.371,-90.820,-29.297,-30.273,-50.293,-81.055
1687734141.375,-46.387,-32.715,-30.762,-46.875,-163.086
1687734141.374,5.371,-37.598,-33.691,-38.086,-165.527
1687734141.378,-5.371,-36.133,-29.297,-35.156,-120.605
1687734141.382,-55.664,-31.738,-24.414,-46.387,-104.980
1687734141.386,-88.867,-29.785,-23.438,-51.270,-143.066
1687734141.390,-46.875,-31.250,-24.902,-49.805,-245.605
1687734141.394,3.906,-32.227,-30.273,-46.875,-30.762
1687734141.398,0.000,-27.832,-27.832,-39.551,157.715
1687734141.401,-43.457,-29.785,-27.344,-42.969,-83.984
1687734141.405,-86.914,-36.621,-33.691,-56.152,-147.461
1687734141.409,-56.641,-36.621,-29.785,-50.293,-4.883
1687734141.413,0.977,-37.109,-28.320,-33.691,248.535
1687734141.417,6.348,-31.250,-30.273,-38.574,86.426
1687734141.434,-29.785,-22.461,-27.832,-46.387,-192.383
1687734141.438,-81.055,-30.273,-26.855,-52.246,-152.344
1687734141.442,-68.359,-38.574,-29.297,-48.340,-135.254
1687734141.446,-4.395,-34.180,-27.832,-41.016,-212.402
1687734141.450,3.906,-31.250,-29.297,-52.734,-163.086
1687734141.454,-37.598,-30.762,-31.250,-62.988,36.133
1687734141.458,-86.426,-28.809,-32.715,-62.988,86.426
1687734141.461,-75.195,-28.320,-30.762,-58.594,-75.195
1687734141.465,-10.254,-31.738,-26.367,-47.852,-125.000
1687734141.469,0.488,-32.715,-30.273,-43.945,212.402
1687734141.473,-35.645,-33.691,-31.250,-48.828,197.266
1687734141.477,-75.684,-33.203,-25.879,-54.199,-117.188
1687734141.483,-69.824,-30.762,-23.926,-50.781,7.324
1687734141.487,-11.230,-38.086,-25.879,-50.293,-5.371
1687734141.491,-0.977,-40.527,-25.879,-56.152,-140.137
1687734141.495,-36.621,-41.016,-27.832,-60.059,-173.828
1687734141.499,-82.520,-41.992,-29.785,-62.500,-115.723
1687734141.503,-86.426,-35.645,-29.785,-55.176,22.949
1687734141.507,-22.949,-39.062,-29.785,-46.875,-34.668
1687734141.510,4.883,-39.551,-32.227,-44.922,-159.180
1687734141.514,-19.043,-35.156,-30.762,-45.898,-2.441
1687734141.518,-72.266,-38.086,-31.250,-46.387,308.594
1687734141.522,-92.773,-39.062,-31.738,-46.387,86.914
1687734141.526,-30.273,-36.621,-30.762,-39.062,-155.762
1687734141.524,0.488,-36.621,-32.227,-41.504,58.105
1687734141.528,-21.973,-37.109,-30.273,-53.223,22.461
1687734141.532,-65.430,-36.621,-30.762,-61.523,-193.359
1687734141.536,-92.285,-39.062,-37.598,-63.477,-188.477
1687734141.540,-35.156,-36.133,-39.551,-52.734,-157.227
1687734141.544,6.836,-36.621,-35.156,-47.852,-94.727
1687734141.548,-11.230,-38.574,-29.785,-48.340,36.133
1687734141.551,-52.246,-36.133,-29.785,-51.758,-17.090
