timestamps,TP9,AF7,AF8,TP10,Right AUX
1687734233.115,-38.574,-36.133,-38.086,-50.293,48.340
1687734233.119,-23.438,-34.668,-35.645,-45.410,-147.949
1687734233.123,-62.988,-41.992,-35.156,-50.293,-129.883
1687734233.127,-113.281,-40.527,-32.227,-55.664,-108.887
1687734233.131,-109.863,-39.551,-28.320,-48.340,-112.305
1687734233.135,-47.363,-38.574,-26.855,-38.086,-86.914
1687734233.139,-20.996,-36.133,-29.297,-35.645,-72.266
1687734233.142,-50.781,-34.668,-32.227,-33.691,161.133
1687734233.146,-101.562,-36.133,-33.203,-47.363,95.215
1687734233.150,-105.957,-37.109,-34.668,-61.523,-122.070
1687734233.154,-40.527,-34.180,-31.738,-52.734,-71.777
1687734233.158,-9.766,-31.738,-26.855,-39.062,-21.973
1687734233.162,-31.738,-30.762,-28.320,-37.598,-116.699
1687734233.166,-74.707,-30.762,-26.855,-42.969,-179.688
1687734233.170,-95.215,-28.809,-27.832,-40.527,-144.043
1687734233.174,-41.992,-26.855,-32.227,-39.062,-125.488
1687734233.178,3.418,-28.320,-31.738,-35.645,-121.094
1687734233.182,-18.066,-30.273,-31.738,-36.133,-112.305
1687734233.186,-68.359,-27.832,-29.297,-46.875,110.840
1687734233.189,-91.797,-26.367,-29.297,-43.457,402.344
1687734233.193,-47.852,-29.297,-32.715,-45.410,127.930
1687734233.197,-7.324,-30.273,-37.109,-53.223,-143.066
1687734233.201,-22.949,-34.668,-39.551,-55.664,-20.020
1687734233.205,-68.359,-34.668,-38.086,-56.641,-22.461
1687734233.220,-106.934,-31.738,-34.180,-59.570,-237.305
1687734233.224,-69.824,-33.691,-33.203,-51.758,-158.691
1687734233.228,-14.648,-33.691,-32.715,-38.086,-58.594
1687734233.232,-18.555,-34.180,-33.203,-38.574,-179.199
1687734233.236,-59.570,-34.668,-35.156,-47.363,-195.801
1687734233.240,-100.098,-30.273,-36.621,-51.270,-82.520
1687734233.244,-69.824,-28.809,-39.551,-43.945,148.438
1687734233.247,-10.742,-34.668,-36.133,-44.922,3.418
1687734233.251,-12.207,-38.574,-31.250,-50.293,-203.125
1687734233.255,-52.734,-35.156,-33.203,-48.340,-146.973
1687734233.259,-93.262,-30.273,-30.273,-52.734,-26.367
1687734233.263,-65.430,-30.762,-26.367,-51.270,-18.066
1687734233.251,0.977,-36.621,-27.344,-42.969,-108.398
1687734233.255,0.488,-41.016,-28.809,-47.852,-39.551
1687734233.259,-38.574,-40.039,-29.297,-54.688,-17.090
1687734233.263,-88.379,-35.645,-28.809,-60.059,-143.555
1687734233.267,-76.172,-31.250,-31.738,-58.105,-160.645
1687734233.271,-10.742,-31.738,-29.785,-52.246,-21.973
1687734233.275,-3.418,-37.109,-27.344,-57.617,70.801
1687734233.278,-38.574,-35.156,-28.320,-63.965,-10.254
1687734233.282,-85.449,-26.367,-25.391,-68.848,-73.730
1687734233.286,-82.031,-27.344,-21.973,-66.895,156.738
1687734233.290,-15.625,-26.855,-22.461,-56.152,343.262
1687734233.294,0.977,-20.996,-25.879,-57.617,-13.184
1687734233.310,-37.109,-25.391,-23.926,-62.012,-200.684
1687734233.314,-84.961,-25.879,-17.578,-63.477,20.996
1687734233.318,-85.449,-23.926,-15.625,-59.082,-50.781
1687734233.322,-21.973,-27.832,-22.949,-57.129,-202.148
1687734233.326,6.836,-32.715,-23.926,-51.758,-144.043
1687734233.330,-20.996,-37.109,-23.926,-45.898,183.594
1687734233.334,-77.148,-36.621,-25.879,-58.105,215.820
1687734233.337,-96.680,-34.668,-29.785,-64.453,-78.125
1687734233.341,-33.691,-30.762,-27.832,-48.340,-75.195
1687734233.345,0.977,-27.832,-26.367,-35.645,89.844
1687734233.349,-29.785,-34.180,-30.273,-53.223,-108.398
1687734233.353,-81.055,-37.598,-32.715,-68.359,-183.105
1687734233.355,-106.445,-28.320,-30.273,-70.312,-114.258
1687734233.359,-57.129,-24.414,-29.297,-63.477,-131.348
1687734233.363,-9.277,-27.832,-28.320,-53.711,-168.457
1687734233.367,-22.949,-30.762,-26.367,-60.059,-130.859
1687734233.371,-67.871,-28.809,-25.391,-63.965,-21.484
1687734233.375,-100.586,-23.926,-22.461,-61.035,47.363
1687734233.379,-56.641,-24.902,-23.438,-52.734,64.453
1687734233.382,-6.348,-25.391,-23.438,-45.410,24.414
1687734233.386,-19.043,-29.297,-22.461,-41.504,118.652
1687734233.390,-60.059,-31.250,-24.902,-41.992,145.508
1687734233.394,-95.703,-22.949,-25.879,-50.293,-115.723
1687734233.398,-59.082,-22.949,-25.391,-49.316,-153.320
1687734233.400,-7.324,-25.879,-28.320,-42.969,96.680
1687734233.404,-13.672,-25.879,-30.273,-39.062,154.297
1687734233.408,-52.734,-24.902,-26.855,-49.805,-90.332
1687734233.412,-94.727,-23.438,-25.879,-59.570,-110.352
1687734233.416,-66.895,-26.855,-30.273,-47.363,-62.988
1687734233.420,-12.695,-28.320,-27.344,-36.621,-8.301
1687734233.424,-20.020,-32.715,-26.367,-46.387,-9.766
1687734233.427,-58.594,-37.109,-33.203,-57.617,-39.062
1687734233.431,-107.422,-30.273,-31.250,-62.012,265.625
1687734233.435,-89.355,-31.738,-31.738,-65.430,229.980
1687734233.439,-24.414,-28.809,-32.227,-62.500,-114.258
1687734233.443,-15.137,-26.367,-24.902,-52.246,-125.000
1687734233.445,-51.270,-32.227,-28.320,-56.641,-74.707
1687734233.449,-100.586,-29.785,-32.227,-62.012,-101.562
1687734233.453,-84.961,-32.227,-31.250,-51.270,-132.812
1687734233.457,-19.043,-35.156,-30.762,-46.875,-80.566
1687734233.461,-7.812,-31.738,-26.367,-41.504,-73.242
1687734233.465,-43.945,-31.250,-28.320,-42.969,-24.414
1687734233.469,-93.262,-26.367,-25.391,-52.734,-10.742
1687734233.472,-94.238,-24.902,-21.973,-46.875,110.840
1687734233.476,-33.203,-28.809,-21.973,-35.645,174.805
1687734233.480,-14.648,-29.785,-21.484,-39.551,-134.766
1687734233.484,-50.293,-32.227,-24.902,-44.434,-181.152
1687734233.488,-108.398,-33.203,-27.832,-49.805,-41.992
1687734233.490,-121.094,-33.691,-31.250,-53.223,-91.309
1687734233.494,-58.594,-32.715,-30.273,-43.457,-171.387
1687734233.498,-28.320,-28.320,-24.902,-42.969,-171.387
1687734233.502,-49.316,-22.949,-22.461,-39.551,67.871
1687734233.506,-93.262,-22.949,-26.367,-43.945,179.199
1687734233.510,-107.422,-27.832,-26.855,-54.688,-10.254
1687734233.514,-53.223,-26.367,-28.320,-52.246,-16.113
1687734233.517,-13.184,-24.414,-32.715,-43.457,150.391
1687734233.521,-33.691,-31.738,-35.156,-49.316,61.035
1687734233.525,-87.402,-35.645,-33.691,-62.988,-163.574
1687734233.529,-118.164,-31.250,-33.203,-66.895,-108.398
1687734233.533,-68.848,-30.762,-33.691,-58.105,-109.375
1687734233.536,-22.949,-33.691,-32.227,-53.711,-113.281
1687734233.540,-38.086,-35.156,-25.879,-62.988,-98.145
1687734233.544,-76.172,-34.668,-23.438,-64.941,-82.031
1687734233.548,-109.863,-33.691,-29.785,-62.988,-57.129
1687734233.552,-72.266,-33.203,-30.762,-62.012,-129.883
1687734233.556,-15.625,-30.273,-29.297,-47.852,-88.867
1687734233.560,-14.648,-31.250,-28.320,-30.273,154.785
1687734233.563,-61.523,-36.133,-26.367,-41.992,360.840
1687734233.567,-107.910,-33.203,-29.297,-64.453,26.855
1687734233.571,-69.336,-25.879,-27.832,-53.223,-158.203
1687734233.575,-18.066,-28.320,-24.414,-43.457,-8.789
1687734233.579,-26.367,-30.762,-27.832,-47.363,-68.359
1687734233.580,-65.918,-29.297,-27.344,-55.664,-163.086
1687734233.584,-104.492,-30.762,-24.902,-59.082,-101.562
1687734233.588,-73.730,-31.738,-27.344,-54.688,32.715
1687734233.592,-14.160,-30.762,-28.320,-49.805,36.621
1687734233.596,-7.324,-33.691,-22.949,-49.316,-112.305
1687734233.600,-43.457,-40.527,-25.391,-55.664,-1.953
1687734233.604,-93.750,-41.992,-31.738,-59.570,229.492
1687734233.607,-77.637,-35.645,-28.809,-55.176,78.613
1687734233.611,-19.531,-34.180,-24.414,-49.805,-169.922
1687734233.615,-15.625,-37.109,-27.344,-54.199,-150.391
1687734233.619,-51.758,-36.621,-27.344,-53.223,140.137
1687734233.623,-98.145,-34.668,-22.949,-57.617,55.664
1687734233.625,-85.938,-30.273,-23.926,-55.176,-120.117
1687734233.629,-22.461,-32.715,-28.320,-45.898,-72.266
1687734233.633,-9.766,-35.645,-31.738,-49.805,-74.219
1687734233.637,-41.992,-34.668,-31.738,-55.176,-125.000
1687734233.641,-95.215,-37.598,-32.715,-65.918,-142.578
1687734233.645,-100.586,-42.969,-33.203,-63.477,-1.953
1687734233.649,-32.227,-45.898,-34.180,-50.781,49.805
1687734233.652,-5.859,-45.410,-33.203,-44.922,-16.602
1687734233.656,-34.180,-38.086,-29.297,-49.316,-29.785
1687734233.660,-81.543,-38.086,-29.785,-57.129,121.582
1687734233.664,-84.473,-37.109,-31.250,-52.246,275.391
1687734233.668,-20.996,-29.785,-30.762,-42.480,-2.930
1687734233.685,6.348,-30.273,-27.832,-47.363,-112.305
1687734233.689,-19.531,-34.180,-32.227,-58.105,63.477
1687734233.693,-73.730,-37.598,-34.668,-64.941,35.645
1687734233.697,-97.656,-31.250,-29.297,-65.430,-140.137
1687734233.701,-41.016,-29.785,-28.809,-55.664,-161.133
1687734233.705,2.441,-34.180,-31.738,-45.898,68.359
1687734233.709,-17.090,-33.691,-34.180,-46.875,20.020
1687734233.712,-64.453,-33.203,-33.203,-56.641,-166.992
1687734233.716,-90.332,-31.250,-29.297,-57.617,-111.328
1687734233.720,-45.898,-34.180,-29.297,-47.363,172.852
1687734233.724,0.488,-32.227,-31.738,-43.945,75.684
1687734233.728,-17.578,-29.297,-29.785,-51.270,-212.891
1687734233.730,-60.059,-29.297,-26.855,-58.105,-106.934
1687734233.734,-93.750,-32.227,-26.367,-63.477,-20.996
1687734233.738,-55.664,-37.598,-26.367,-62.012,-138.184
1687734233.742,2.930,-34.668,-24.902,-54.199,-175.293
1687734233.746,-2.441,-29.785,-25.391,-54.199,-87.891
1687734233.750,-44.922,-34.668,-26.855,-58.105,-5.371
1687734233.754,-87.891,-35.645,-26.855,-65.918,-62.012
1687734233.757,-54.199,-36.133,-29.297,-61.523,-107.422
1687734233.761,4.395,-36.133,-29.297,-47.363,39.551
1687734233.765,-3.418,-32.227,-27.344,-44.922,215.820
1687734233.769,-45.410,-34.668,-29.297,-53.223,-60.547
1687734233.773,-95.215,-37.109,-30.273,-60.547,-250.977
1687734233.775,-61.523,-36.133,-32.227,-47.852,4.395
1687734233.779,7.812,-36.133,-31.738,-35.645,104.492
1687734233.783,2.930,-36.133,-30.273,-40.039,-150.879
1687734233.787,-35.156,-35.156,-27.832,-43.457,-125.977
1687734233.791,-82.031,-31.250,-23.438,-56.152,-34.668
1687734233.795,-68.359,-28.809,-24.414,-62.012,-79.102
1687734233.799,-6.836,-34.180,-32.227,-52.734,-103.027
1687734233.802,3.418,-33.691,-36.133,-50.781,-82.520
1687734233.806,-25.879,-33.203,-32.715,-52.734,190.430
1687734233.810,-71.289,-35.156,-32.715,-61.035,95.703
1687734233.814,-63.477,-32.715,-29.785,-62.012,-136.719
1687734233.818,6.348,-31.738,-26.855,-47.852,-96.191
1687734233.821,26.367,-35.156,-31.250,-44.922,28.809
1687734233.825,-3.906,-36.621,-34.180,-53.223,-50.781
1687734233.829,-60.059,-34.180,-35.156,-63.965,-196.777
1687734233.833,-79.590,-38.086,-34.180,-62.012,-47.363
1687734233.837,-22.461,-38.086,-33.203,-45.410,44.922
1687734233.841,-1.465,-34.180,-30.762,-43.457,-102.051
1687734233.845,-40.039,-34.668,-31.250,-55.176,-102.051
1687734233.848,-84.473,-41.016,-30.273,-58.594,149.902
1687734233.852,-98.145,-43.457,-31.250,-61.523,234.863
1687734233.856,-44.922,-36.133,-32.227,-60.547,-37.109
1687734233.860,-4.395,-33.691,-32.227,-49.805,-130.371
1687734233.864,-32.715,-41.016,-37.598,-53.223,85.449
1687734233.866,-91.797,-46.387,-41.016,-70.801,100.586
1687734233.870,-111.816,-43.945,-41.992,-72.754,-147.949
1687734233.874,-63.477,-41.504,-41.016,-59.570,-62.500
1687734233.878,-25.391,-38.086,-37.598,-53.711,-39.062
1687734233.882,-41.016,-39.062,-33.691,-58.105,-145.996
1687734233.886,-87.402,-36.133,-33.203,-58.594,-88.379
1687734233.890,-117.188,-36.621,-32.227,-61.523,-59.570
1687734233.893,-70.312,-44.434,-34.668,-57.617,133.301
1687734233.897,-19.043,-39.551,-31.250,-52.734,110.840
1687734233.901,-32.715,-38.574,-26.855,-55.176,-156.738
1687734233.905,-78.613,-40.039,-29.297,-61.523,-141.602
1687734233.909,-118.652,-39.062,-33.203,-75.195,-78.613
1687734233.910,-77.637,-39.551,-34.668,-64.453,-146.973
1687734233.914,-20.508,-33.203,-33.691,-47.852,-199.219
1687734233.918,-28.809,-32.227,-32.715,-49.805,-128.418
1687734233.922,-65.918,-35.156,-34.180,-57.617,-98.633
1687734233.926,-110.840,-34.668,-31.738,-63.477,-135.742
1687734233.930,-80.078,-34.668,-30.762,-60.059,-120.605
1687734233.934,-16.602,-36.133,-34.668,-45.410,53.223
1687734233.937,-19.043,-36.621,-31.738,-36.133,346.680
1687734233.941,-57.129,-37.109,-24.902,-50.781,125.977
1687734233.945,-103.516,-37.598,-24.902,-62.500,-153.809
1687734233.949,-88.379,-40.039,-28.320,-53.711,23.926
1687734233.953,-22.949,-43.945,-27.832,-45.898,80.078
1687734233.955,-20.508,-43.457,-34.180,-55.664,-142.090
1687734233.959,-56.641,-38.086,-38.574,-64.941,-160.156
1687734233.963,-103.516,-39.551,-35.645,-62.988,-43.945
1687734233.967,-96.191,-39.062,-32.227,-58.594,-65.918
1687734233.971,-34.668,-40.039,-33.203,-54.688,-179.688
1687734233.975,-22.461,-40.039,-33.691,-51.270,-52.246
1687734233.979,-57.129,-36.621,-31.250,-51.758,243.164
1687734233.982,-110.352,-40.039,-29.785,-60.547,115.723
1687734233.986,-110.352,-41.992,-30.762,-70.312,-168.945
1687734233.990,-40.527,-39.551,-29.785,-58.594,-136.230
1687734233.994,-7.812,-34.180,-26.855,-40.527,54.199
1687734233.998,-31.738,-33.691,-25.879,-45.898,-85.938
1687734234.000,-83.008,-34.180,-28.320,-60.059,-197.266
1687734234.004,-95.215,-33.691,-31.250,-59.082,-153.809
1687734234.008,-30.762,-29.785,-30.273,-47.363,-154.785
1687734234.012,-0.488,-26.855,-27.832,-40.039,-136.230
1687734234.016,-26.367,-28.320,-26.367,-44.922,-140.625
1687734234.020,-72.266,-31.738,-24.414,-51.758,52.734
1687734234.024,-80.566,-35.156,-25.391,-49.316,194.824
1687734234.027,-21.484,-36.621,-24.902,-34.668,39.551
1687734234.031,9.277,-38.574,-24.902,-34.180,15.137
1687734234.035,-9.277,-33.691,-22.461,-37.109,83.984
1687734234.039,-54.199,-28.320,-19.531,-35.645,-7.324
1687734234.043,-91.797,-31.250,-20.996,-47.852,-138.184
1687734234.060,-41.992,-29.297,-21.973,-45.410,-193.848
1687734234.064,6.348,-29.297,-27.832,-34.180,26.855
1687734234.068,-13.672,-29.785,-27.832,-37.109,211.914
1687734234.072,-60.547,-29.785,-23.926,-49.316,-69.336
1687734234.076,-95.215,-36.133,-24.902,-49.805,-127.441
1687734234.080,-49.316,-36.621,-24.414,-43.457,32.715
1687734234.084,1.953,-32.227,-20.508,-40.527,19.043
1687734234.087,-5.371,-24.902,-23.438,-39.062,-111.328
1687734234.091,-46.875,-28.320,-25.879,-42.969,-100.586
1687734234.095,-90.332,-33.203,-22.949,-44.434,197.266
1687734234.099,-54.199,-28.320,-22.461,-39.062,20.508
1687734234.103,-0.977,-31.250,-23.926,-34.668,-202.148
1687734234.105,-10.254,-35.645,-20.508,-41.992,-42.480
1687734234.109,-49.805,-28.809,-22.461,-59.570,-18.066
1687734234.113,-91.797,-28.809,-27.832,-66.895,-89.844
1687734234.117,-59.082,-31.250,-27.832,-49.805,-113.281
1687734234.121,2.441,-29.297,-28.809,-32.715,-94.238
1687734234.125,2.441,-25.391,-25.391,-30.273,-5.371
1687734234.129,-35.645,-23.438,-23.926,-37.109,-5.859
1687734234.132,-89.844,-30.762,-33.691,-53.223,-83.984
1687734234.136,-75.684,-32.227,-34.668,-51.270,19.531
1687734234.140,-15.625,-26.367,-30.273,-36.133,-17.090
1687734234.144,-7.812,-20.996,-29.785,-36.133,-128.906
1687734234.148,-39.062,-24.902,-29.785,-43.945,-108.398
1687734234.151,-89.355,-28.320,-23.926,-48.340,95.703
1687734234.155,-86.426,-29.785,-24.902,-46.875,290.039
1687734234.159,-28.320,-35.645,-34.668,-51.270,65.918
1687734234.163,-11.719,-35.156,-31.250,-55.664,-81.055
1687734234.167,-48.828,-33.691,-26.367,-55.664,36.621
1687734234.171,-94.238,-29.785,-26.855,-61.523,27.344
1687734234.175,-86.914,-30.762,-25.391,-66.406,-83.008
1687734234.178,-25.391,-35.645,-27.344,-54.688,-115.723
1687734234.182,-3.906,-38.086,-31.250,-45.898,79.590
1687734234.186,-29.785,-32.227,-30.762,-47.852,-36.621
1687734234.190,-81.543,-28.809,-31.250,-54.688,-258.789
1687734234.194,-89.844,-31.738,-33.203,-55.664,-150.879
1687734234.195,-28.809,-32.715,-31.250,-42.480,-63.477
1687734234.199,4.883,-30.273,-29.297,-36.621,-105.469
1687734234.203,-7.324,-28.809,-26.367,-36.133,-178.223
1687734234.207,-59.570,-34.180,-20.996,-42.480,-134.277
1687734234.211,-97.656,-42.480,-19.531,-51.270,-46.875
1687734234.215,-38.086,-38.086,-19.531,-35.156,-27.344
1687734234.219,4.395,-28.809,-20.508,-32.715,-115.723
1687734234.222,-12.207,-31.250,-21.973,-39.551,-3.906
1687734234.226,-55.664,-34.180,-20.508,-40.039,361.816
1687734234.230,-90.332,-32.715,-23.926,-49.316,200.684
1687734234.234,-43.457,-35.156,-22.461,-49.805,-134.766
1687734234.238,5.371,-34.180,-18.555,-44.434,-113.281
1687734234.240,-13.672,-34.180,-18.066,-46.387,-116.699
1687734234.244,-60.547,-32.715,-15.625,-52.246,-168.457
1687734234.248,-98.633,-30.762,-18.066,-53.711,-171.387
1687734234.252,-61.035,-33.203,-18.555,-43.457,-85.938
1687734234.256,-0.977,-31.250,-18.066,-26.855,-66.406
1687734234.260,-10.254,-29.785,-23.438,-32.715,-156.250
1687734234.264,-54.688,-33.691,-24.414,-36.621,-93.262
1687734234.267,-97.656,-33.691,-23.438,-27.344,235.352
1687734234.271,-63.477,-35.156,-25.391,-25.879,74.219
1687734234.275,-1.465,-34.668,-24.414,-25.879,-220.215
1687734234.279,-10.254,-31.738,-25.879,-30.762,-104.004
1687734234.283,-48.340,-28.809,-25.391,-41.992,-2.441
1687734234.286,-91.309,-26.367,-26.367,-53.223,-121.094
1687734234.290,-78.125,-28.809,-30.273,-54.688,-155.273
1687734234.294,-20.508,-33.203,-33.691,-52.734,-77.148
1687734234.298,-14.160,-31.738,-34.668,-57.129,-22.461
1687734234.302,-49.805,-32.227,-31.250,-60.547,-61.035
1687734234.306,-96.191,-36.133,-31.250,-65.918,-137.207
1687734234.310,-78.125,-39.551,-34.668,-62.500,37.598
1687734234.313,-14.160,-40.527,-31.250,-41.016,336.914
1687734234.317,-7.324,-38.574,-27.832,-42.480,73.730
1687734234.321,-44.434,-41.992,-28.320,-49.805,-128.906
1687734234.325,-94.727,-41.016,-24.414,-44.434,2.930
1687734234.329,-87.891,-36.133,-22.461,-38.086,58.105
1687734234.330,-26.367,-38.574,-25.391,-37.109,-94.238
1687734234.334,-12.207,-38.086,-28.320,-41.016,-141.602
1687734234.338,-49.805,-37.109,-31.738,-48.340,-99.609
1687734234.342,-105.469,-43.945,-34.180,-54.199,-117.188
1687734234.346,-110.840,-44.434,-30.273,-53.711,-143.555
1687734234.350,-44.434,-41.504,-26.367,-43.945,-49.316
1687734234.354,-19.531,-43.457,-30.762,-40.527,222.656
1687734234.357,-47.363,-37.109,-33.203,-48.828,95.215
1687734234.361,-89.844,-31.250,-29.785,-60.059,-163.574
1687734234.365,-101.562,-31.250,-32.227,-62.988,-100.098
1687734234.369,-46.387,-28.320,-35.645,-54.199,-2.930
1687734234.373,-15.137,-36.133,-35.645,-55.176,-23.926
1687734234.376,-35.156,-43.457,-34.180,-62.500,-123.535
1687734234.380,-84.961,-42.480,-35.645,-69.336,-107.910
1687734234.384,-110.840,-43.945,-37.109,-66.406,-19.043
1687734234.388,-58.594,-45.410,-38.574,-61.035,-56.152
1687734234.392,-13.184,-41.504,-39.062,-62.012,-79.102
1687734234.396,-24.414,-32.227,-38.086,-54.199,154.785
1687734234.400,-66.406,-32.227,-34.180,-50.293,192.383
1687734234.403,-103.027,-39.062,-39.062,-57.617,-10.254
1687734234.407,-60.547,-39.551,-43.457,-54.199,-65.918
1687734234.411,-5.859,-38.086,-37.598,-41.016,1.953
1687734234.415,-18.066,-36.133,-39.062,-39.062,204.590
1687734234.419,-58.105,-32.715,-34.668,-55.176,-20.508
1687734234.435,-103.516,-31.738,-31.250,-64.941,-152.344
1687734234.439,-72.266,-32.227,-39.062,-61.035,-26.367
1687734234.443,-9.766,-34.180,-41.016,-58.594,-85.938
1687734234.447,-21.484,-27.832,-40.039,-58.105,-172.852
1687734234.451,-70.801,-28.809,-41.992,-62.988,-164.062
1687734234.455,-107.910,-32.715,-38.086,-62.988,217.285
1687734234.459,-75.195,-27.832,-33.203,-57.129,233.887
1687734234.462,-21.484,-33.203,-41.016,-60.547,-109.863
1687734234.466,-20.996,-34.668,-44.434,-62.500,-86.426
1687734234.470,-58.105,-33.203,-39.551,-62.012,156.738
1687734234.474,-106.445,-37.109,-46.387,-74.219,3.418
1687734234.478,-83.984,-39.551,-50.781,-77.148,-165.527
1687734234.480,-17.090,-40.039,-48.828,-60.547,-94.727
1687734234.484,-12.207,-37.109,-49.316,-59.082,-138.672
1687734234.488,-51.270,-36.133,-42.480,-69.336,-179.199
1687734234.492,-101.074,-33.203,-39.551,-73.242,-182.617
1687734234.496,-90.332,-32.715,-38.574,-70.312,-62.988
1687734234.500,-27.344,-39.062,-38.086,-63.477,42.480
1687734234.504,-14.648,-38.086,-36.621,-62.988,33.691
1687734234.507,-45.410,-37.598,-37.598,-66.406,-86.426
1687734234.511,-93.262,-38.574,-34.668,-62.988,20.508
1687734234.515,-94.238,-36.621,-33.203,-55.176,279.785
1687734234.519,-30.762,-32.227,-38.574,-55.176,18.066
1687734234.523,-5.371,-28.809,-35.645,-54.199,-138.184
1687734234.525,-36.621,-30.273,-34.668,-54.199,33.203
1687734234.529,-89.355,-40.039,-39.551,-67.871,20.508
1687734234.533,-103.027,-38.086,-39.551,-72.266,-138.672
1687734234.537,-37.598,-29.297,-35.645,-50.781,-141.113
1687734234.541,-2.930,-36.133,-34.180,-41.016,-11.230
1687734234.545,-29.785,-34.668,-32.227,-49.805,75.684
1687734234.549,-79.590,-28.809,-31.250,-54.688,36.621
1687734234.552,-102.539,-34.180,-36.621,-54.199,4.883
1687734234.556,-47.852,-34.180,-37.598,-44.434,222.656
1687734234.560,-6.836,-30.762,-33.691,-36.133,148.926
1687734234.564,-31.738,-31.250,-32.715,-43.945,-130.371
1687734234.568,-82.031,-32.715,-34.668,-55.664,-152.344
1687734234.570,-109.375,-37.109,-37.109,-64.453,-121.094
1687734234.574,-57.129,-39.062,-38.574,-62.012,-142.090
1687734234.578,-7.812,-39.062,-41.504,-60.059,-80.566
1687734234.582,-20.996,-38.574,-44.922,-63.965,-50.781
1687734234.586,-53.223,-36.133,-45.410,-68.359,-38.574
1687734234.590,-79.590,-31.738,-41.504,-71.777,11.719
1687734234.594,-38.574,-33.203,-41.016,-71.289,-22.949
1687734234.597,17.578,-34.180,-40.527,-59.570,43.457
1687734234.601,6.836,-31.250,-37.598,-44.922,314.941
1687734234.605,-45.898,-33.691,-34.668,-51.270,86.914
1687734234.609,-88.867,-37.598,-26.855,-61.035,-197.754
1687734234.613,-61.035,-42.969,-28.809,-55.176,-13.672
1687734234.615,-9.277,-43.457,-37.109,-52.734,-17.090
1687734234.619,-18.066,-39.062,-34.668,-58.594,-153.809
1687734234.623,-63.477,-36.621,-30.762,-60.059,-118.164
1687734234.627,-103.516,-33.203,-31.250,-51.270,12.207
1687734234.631,-76.660,-35.645,-35.645,-43.945,-68.359
1687734234.635,-18.066,-36.133,-34.668,-38.086,-111.328
1687734234.639,-11.230,-32.715,-29.297,-39.551,-11.719
1687734234.642,-47.852,-32.715,-32.715,-42.969,196.777
1687734234.646,-99.609,-34.180,-34.668,-51.270,64.453
1687734234.650,-82.520,-38.086,-30.762,-53.711,-189.941
1687734234.654,-20.996,-38.574,-34.668,-46.387,-98.633
1687734234.658,-16.113,-36.133,-37.598,-43.945,40.527
1687734234.660,-45.410,-35.156,-31.738,-46.875,-93.262
1687734234.664,-95.703,-38.086,-31.250,-60.547,-213.379
1687734234.668,-96.191,-45.410,-36.133,-59.570,-116.699
1687734234.672,-27.344,-46.387,-37.598,-45.898,-81.055
1687734234.676,-6.836,-41.992,-38.574,-50.293,-103.027
1687734234.680,-37.598,-41.992,-38.574,-56.641,-49.805
1687734234.684,-85.938,-39.551,-36.621,-53.223,99.121
1687734234.687,-85.938,-34.668,-30.762,-39.551,378.418
1687734234.691,-26.367,-40.039,-33.203,-38.086,111.328
1687734234.695,-2.441,-39.551,-36.621,-42.969,-201.172
1687734234.699,-28.809,-35.156,-34.180,-41.504,-55.664
1687734234.703,-80.078,-36.621,-37.109,-47.852,-63.965
1687734234.735,-94.727,-35.645,-36.621,-52.246,-185.059
1687734234.739,-39.551,-33.203,-32.227,-41.992,-37.598
1687734234.743,-6.836,-31.738,-32.715,-33.203,35.645
1687734234.747,-31.250,-34.668,-28.809,-39.551,-122.070
1687734234.751,-80.566,-35.156,-20.996,-51.270,-214.844
1687734234.755,-101.074,-34.180,-20.996,-55.664,-133.789
1687734234.759,-44.922,-32.715,-22.949,-43.945,143.555
1687734234.762,0.488,-38.086,-27.832,-43.945,32.227
1687734234.766,-22.949,-39.551,-33.691,-51.270,-178.711
1687734234.770,-71.777,-35.156,-36.133,-52.246,-186.523
1687734234.774,-96.191,-36.133,-31.250,-52.246,-69.824
1687734234.778,-48.340,-34.180,-26.855,-45.898,-127.930
1687734234.754,-1.465,-30.762,-29.297,-39.062,-203.613
1687734234.758,-10.254,-29.785,-26.367,-39.062,-113.281
1687734234.762,-55.176,-33.203,-23.438,-39.551,-111.328
1687734234.766,-92.285,-39.062,-25.879,-38.086,-170.410
1687734234.770,-47.852,-36.133,-24.902,-35.156,-102.539
1687734234.774,4.395,-31.738,-24.902,-34.180,97.168
1687734234.778,-8.301,-31.250,-26.367,-34.180,148.926
1687734234.781,-49.805,-31.250,-27.344,-40.039,-4.883
1687734234.785,-90.332,-31.250,-26.367,-41.992,-101.562
1687734234.789,-50.293,-23.438,-19.531,-32.715,-5.371
1687734234.793,11.719,-23.438,-14.160,-22.461,62.012
1687734234.797,7.324,-25.879,-17.090,-24.902,-124.023
1687734234.810,-34.668,-26.855,-18.555,-35.645,-151.855
1687734234.814,-91.309,-32.715,-17.578,-41.016,75.195
1687734234.818,-69.824,-31.250,-19.531,-37.109,63.965
1687734234.822,-0.977,-25.879,-18.066,-29.297,-150.391
1687734234.826,9.277,-20.508,-18.066,-33.691,-171.387
1687734234.830,-25.391,-16.602,-25.391,-39.551,197.754
1687734234.834,-74.707,-19.043,-24.414,-38.086,545.410
1687734234.837,-53.711,-15.625,-16.602,-40.527,166.504
1687734234.841,15.625,-18.066,-20.020,-39.062,-136.230
1687734234.845,18.066,-30.273,-31.738,-33.691,85.449
1687734234.849,-20.996,-30.273,-33.203,-41.016,-41.504
1687734234.853,-67.383,-27.344,-28.809,-54.688,-205.078
1687734234.855,-61.035,-27.344,-27.344,-46.875,-127.930
1687734234.859,1.465,-26.855,-27.344,-30.273,-128.418
1687734234.863,17.090,-30.762,-24.414,-34.180,-156.250
1687734234.867,-21.973,-36.133,-15.625,-41.016,-159.180
1687734234.871,-81.543,-39.062,-19.531,-48.340,-117.676
1687734234.875,-89.844,-41.992,-29.297,-52.734,-32.227
1687734234.879,-26.367,-40.039,-27.832,-41.016,-49.805
1687734234.882,3.906,-31.250,-19.043,-31.250,-118.164
1687734234.886,-29.785,-35.156,-25.879,-38.574,22.949
1687734234.890,-82.031,-39.551,-31.250,-39.062,190.430
1687734234.894,-99.609,-34.668,-26.855,-39.551,-53.711
1687734234.898,-41.992,-37.109,-27.344,-44.434,-122.070
1687734234.900,-4.395,-35.156,-30.762,-36.133,62.988
1687734234.904,-27.344,-30.273,-28.320,-33.691,135.742
1687734234.908,-80.566,-35.156,-29.297,-53.223,-101.074
1687734234.912,-104.980,-32.227,-31.250,-64.941,-205.566
1687734234.916,-51.758,-29.297,-29.297,-53.223,-92.285
1687734234.920,-2.441,-27.832,-28.809,-43.945,-89.844
1687734234.924,-19.043,-24.414,-25.391,-44.434,-187.012
1687734234.927,-68.359,-28.320,-20.996,-49.805,-145.020
1687734234.931,-96.680,-37.109,-20.508,-47.852,175.293
1687734234.935,-52.734,-34.180,-22.949,-39.551,74.219
1687734234.939,-2.441,-31.250,-22.949,-35.156,-139.160
1687734234.943,-19.043,-35.156,-26.855,-43.457,-83.984
1687734234.945,-63.965,-31.738,-29.785,-47.363,-32.227
1687734234.949,-103.516,-29.297,-28.320,-47.852,-146.973
1687734234.953,-75.684,-30.762,-32.227,-47.363,-191.895
1687734234.957,-27.832,-33.203,-33.691,-42.480,-93.262
1687734234.961,-35.156,-34.668,-26.855,-51.758,-76.660
1687734234.965,-71.289,-32.227,-27.344,-62.012,-21.973
1687734234.969,-114.258,-30.273,-32.715,-70.801,-22.949
1687734234.972,-86.426,-28.809,-28.320,-67.871,29.785
1687734234.976,-19.531,-29.297,-25.391,-55.664,310.059
1687734234.980,-21.484,-34.180,-31.250,-68.359,83.008
1687734234.984,-62.988,-33.203,-30.273,-80.566,-127.930
1687734234.988,-108.887,-30.273,-24.414,-80.566,-25.879
1687734235.005,-89.355,-33.203,-26.367,-80.078,-101.074
1687734235.009,-21.484,-35.645,-30.273,-68.848,-125.488
1687734235.013,-13.672,-32.227,-30.762,-60.059,-119.629
1687734235.017,-50.781,-28.320,-27.832,-56.152,28.320
1687734235.021,-93.750,-32.227,-23.438,-57.617,4.395
1687734235.025,-81.543,-31.738,-20.020,-51.758,-75.195
1687734235.029,-18.066,-24.414,-19.043,-42.480,40.527
1687734235.032,-4.395,-23.926,-23.926,-41.504,179.688
1687734235.036,-40.039,-28.809,-32.715,-54.199,43.457
1687734235.040,-93.262,-30.762,-33.691,-69.336,-147.949
1687734235.044,-89.844,-27.832,-24.414,-62.012,-132.324
1687734235.048,-25.879,-28.320,-26.855,-51.270,-101.562
1687734235.035,-1.953,-32.227,-32.227,-52.734,-141.602
1687734235.039,-28.320,-36.621,-27.344,-58.105,-172.852
1687734235.043,-86.426,-32.715,-24.902,-69.336,-108.887
1687734235.047,-89.355,-25.879,-27.832,-69.824,-5.371
1687734235.051,-20.020,-21.973,-31.738,-51.758,-74.707
1687734235.055,5.371,-22.949,-31.250,-50.781,-62.500
1687734235.059,-23.438,-29.785,-32.715,-58.105,48.340
1687734235.062,-72.754,-30.273,-31.738,-62.500,63.477
1687734235.066,-89.844,-26.855,-28.809,-56.641,-84.473
1687734235.070,-40.039,-25.879,-27.832,-45.898,-210.449
1687734235.074,-7.324,-27.344,-26.367,-42.480,-41.504
1687734235.078,-30.273,-26.855,-28.809,-39.062,282.715
1687734235.080,-83.984,-29.297,-32.227,-52.246,83.496
1687734235.084,-111.816,-31.250,-29.785,-56.641,-117.676
1687734235.088,-62.012,-33.203,-30.762,-51.270,-48.340
1687734235.092,-22.461,-40.039,-38.574,-59.570,-66.406
1687734235.096,-41.016,-36.133,-43.945,-70.801,-125.488
1687734235.100,-88.379,-31.738,-45.410,-75.684,-18.555
1687734235.104,-125.488,-33.203,-40.039,-71.289,341.309
1687734235.107,-82.520,-32.715,-35.645,-65.918,209.961
1687734235.111,-20.020,-32.227,-33.203,-60.059,-125.000
1687734235.115,-25.879,-30.762,-33.203,-57.129,-80.078
1687734235.119,-70.312,-33.691,-30.762,-55.664,65.918
1687734235.123,-108.887,-38.574,-28.809,-62.988,-89.844
1687734235.125,-72.754,-38.574,-30.762,-61.523,-169.434
1687734235.129,-10.742,-31.250,-31.250,-43.457,-133.301
1687734235.133,-17.090,-28.809,-32.227,-46.875,-159.180
1687734235.137,-58.594,-32.227,-32.227,-60.059,-195.312
1687734235.141,-101.562,-33.691,-29.785,-56.641,-151.855
1687734235.145,-69.824,-31.738,-29.297,-46.387,33.203
1687734235.149,-4.395,-33.691,-31.738,-35.645,120.605
1687734235.152,-1.465,-38.086,-33.691,-33.203,-12.207
1687734235.156,-48.340,-46.875,-30.273,-45.410,-92.773
1687734235.160,-103.516,-47.363,-26.855,-52.734,85.449
1687734235.164,-93.750,-43.457,-31.250,-41.504,311.035
1687734235.168,-33.203,-37.109,-33.203,-43.945,-31.738
1687734235.185,-14.160,-32.227,-32.227,-48.828,-278.320
1687734235.189,-49.316,-32.227,-35.156,-50.781,-161.133
1687734235.193,-106.445,-34.668,-38.574,-56.152,-140.625
1687734235.197,-98.145,-43.457,-38.086,-53.711,-226.074
1687734235.201,-34.180,-41.504,-28.320,-41.992,-201.172
1687734235.205,-24.414,-41.016,-27.832,-42.969,8.301
1687734235.209,-60.059,-40.527,-32.227,-59.570,-1.465
1687734235.212,-113.281,-39.551,-30.762,-77.637,-103.027
1687734235.216,-118.652,-45.410,-31.250,-78.125,-124.512
1687734235.220,-60.059,-49.805,-35.156,-64.941,141.602
1687734235.224,-32.715,-48.340,-35.156,-60.059,152.344
1687734235.228,-53.223,-41.992,-33.691,-60.547,-82.520
1687734235.230,-95.703,-39.551,-32.715,-61.035,-24.414
1687734235.234,-108.398,-44.434,-33.203,-59.570,80.566
1687734235.238,-54.688,-44.922,-36.621,-49.316,-50.781
1687734235.242,-21.973,-38.574,-33.691,-43.457,-126.953
1687734235.246,-42.969,-41.504,-35.156,-49.805,-106.445
1687734235.250,-89.355,-44.434,-40.039,-61.035,-11.230
1687734235.254,-112.793,-41.016,-38.086,-66.895,-1.953
1687734235.257,-65.918,-39.551,-41.992,-66.406,-43.945
1687734235.261,-21.484,-37.109,-37.109,-57.617,92.285
1687734235.265,-37.109,-35.645,-34.180,-55.664,353.027
1687734235.269,-84.473,-39.062,-35.156,-71.777,89.355
1687734235.273,-105.957,-37.109,-28.809,-77.148,-186.523
1687734235.275,-54.199,-35.156,-25.879,-66.406,-16.602
1687734235.279,-8.301,-40.527,-31.738,-57.617,-77.637
1687734235.283,-16.602,-34.668,-33.691,-54.688,-209.961
1687734235.287,-60.547,-31.738,-31.738,-60.059,-122.070
1687734235.291,-95.703,-29.785,-35.645,-51.758,-98.145
1687734235.295,-48.340,-28.809,-36.133,-41.504,-70.312
1687734235.299,3.906,-30.762,-33.203,-38.086,27.344
1687734235.302,-7.812,-27.832,-30.273,-33.691,17.578
1687734235.306,-53.711,-28.809,-32.227,-36.133,199.707
1687734235.310,-91.309,-29.785,-33.691,-45.410,98.145
1687734235.314,-53.711,-27.344,-28.320,-42.480,-128.906
1687734235.318,1.465,-29.785,-28.809,-38.574,-83.008
1687734235.321,-6.836,-32.227,-32.227,-45.410,-61.035
1687734235.325,-46.875,-36.621,-35.156,-52.246,-72.754
1687734235.329,-92.285,-37.598,-34.668,-55.176,-74.707
1687734235.333,-72.754,-37.109,-29.785,-48.828,8.301
1687734235.337,-17.578,-37.109,-33.203,-42.969,19.531
1687734235.341,-18.555,-33.691,-36.621,-48.828,25.879
1687734235.345,-59.082,-29.297,-34.668,-56.152,-6.348
1687734235.348,-104.980,-26.855,-33.691,-55.664,32.715
1687734235.352,-86.426,-30.273,-35.645,-49.805,324.219
1687734235.356,-16.602,-31.250,-34.668,-46.875,29.785
1687734235.360,-1.465,-31.250,-37.598,-58.594,-265.625
1687734235.364,-36.133,-32.227,-41.992,-77.148,-82.520
1687734235.365,-75.195,-25.391,-36.621,-82.520,-73.242
1687734235.369,-60.547,-20.996,-36.133,-78.125,-170.410
1687734235.373,3.906,-20.996,-38.574,-74.707,-125.000
1687734235.377,26.367,-20.996,-40.039,-72.754,-68.359
1687734235.381,-14.648,-23.438,-35.156,-73.730,-83.008
1687734235.385,-78.613,-24.902,-27.832,-76.172,-76.660
1687734235.389,-85.449,-28.320,-29.297,-69.824,-19.531
1687734235.392,-35.156,-37.598,-35.645,-56.641,239.258
1687734235.396,-17.090,-35.645,-35.645,-54.199,71.777
1687734235.400,-42.969,-28.809,-35.645,-59.082,-232.422
1687734235.404,-94.727,-29.297,-36.133,-60.547,-165.527
1687734235.408,-108.398,-27.832,-35.156,-56.152,67.383
1687734235.410,-50.293,-29.297,-38.574,-54.688,-38.574
1687734235.414,-12.695,-30.273,-38.086,-46.387,-181.152
1687734235.418,-28.809,-28.320,-34.180,-39.062,-131.348
1687734235.422,-83.496,-30.762,-34.180,-49.316,-121.582
1687734235.426,-112.305,-32.227,-36.133,-53.223,-51.758
1687734235.430,-62.012,-31.250,-31.738,-43.945,-26.855
1687734235.434,-16.602,-37.598,-31.250,-39.062,91.797
1687734235.437,-26.855,-34.668,-35.645,-43.945,373.047
1687734235.441,-72.754,-26.367,-39.551,-55.176,146.973
1687734235.445,-110.352,-29.297,-37.109,-61.035,-56.152
1687734235.449,-71.777,-33.691,-34.668,-55.176,16.113
1687734235.453,-20.508,-37.109,-37.109,-48.340,-18.555
1687734235.455,-31.250,-39.551,-41.504,-53.711,-186.035
1687734235.459,-70.312,-37.598,-40.527,-57.617,-182.617
1687734235.463,-105.469,-29.785,-34.180,-58.594,23.438
1687734235.467,-71.777,-33.203,-33.691,-62.500,-78.125
1687734235.471,-12.695,-39.551,-34.180,-58.594,-201.172
1687734235.475,-5.371,-32.715,-29.785,-49.805,-44.922
1687734235.479,-50.781,-34.180,-31.738,-49.316,180.176
1687734235.482,-100.586,-39.062,-35.156,-50.781,19.043
1687734235.486,-58.105,-36.621,-30.762,-46.387,-135.254
1687734235.490,-2.441,-33.691,-24.902,-41.504,14.648
1687734235.494,-8.789,-33.203,-27.344,-42.969,103.516
1687734235.498,-48.340,-37.598,-34.180,-52.734,-69.336
1687734235.500,-93.262,-34.668,-34.180,-55.664,-197.754
1687734235.504,-65.430,-34.180,-32.227,-48.340,-103.516
1687734235.508,-1.953,-35.156,-29.297,-33.691,-34.180
1687734235.512,2.441,-30.762,-29.785,-31.738,-142.578
1687734235.516,-33.203,-31.250,-26.855,-36.133,-185.059
1687734235.520,-88.379,-36.133,-27.832,-42.480,3.418
1687734235.524,-82.031,-37.109,-34.180,-41.016,166.504
1687734235.527,-14.160,-39.551,-32.715,-36.621,36.133
1687734235.531,-0.488,-36.621,-28.320,-43.945,-74.219
1687734235.535,-33.691,-33.691,-25.879,-47.363,-4.395
1687734235.539,-80.078,-31.738,-24.414,-48.340,93.262
1687734235.543,-83.008,-31.738,-30.273,-55.664,-106.445
1687734235.560,-20.996,-33.691,-34.668,-51.758,-65.918
1687734235.564,2.930,-33.691,-32.227,-47.852,97.168
1687734235.568,-25.879,-36.621,-34.180,-59.570,-2.441
1687734235.572,-76.172,-34.668,-36.133,-73.242,-114.258
1687734235.576,-92.285,-34.668,-30.273,-71.777,-140.625
1687734235.580,-38.086,-36.133,-26.855,-57.129,-42.480
1687734235.584,-5.859,-30.762,-27.344,-50.781,22.461
1687734235.587,-28.809,-31.738,-25.391,-53.711,-135.254
1687734235.591,-79.102,-37.109,-23.438,-56.152,-118.652
1687734235.595,-97.656,-35.156,-25.391,-50.293,139.648
1687734235.599,-40.527,-35.645,-27.344,-44.922,52.734
1687734235.603,-3.906,-33.691,-27.344,-42.480,-128.906
1687734235.606,-27.344,-31.250,-26.855,-41.016,-131.836
1687734235.610,-69.824,-35.156,-21.484,-48.828,-92.773
1687734235.614,-89.844,-31.250,-20.996,-50.781,-35.645
1687734235.618,-34.180,-26.855,-24.414,-32.715,-74.707
1687734235.622,8.789,-28.809,-19.043,-23.926,-22.461
1687734235.626,-10.254,-34.180,-19.043,-29.297,56.641
1687734235.630,-49.316,-33.203,-21.484,-37.598,-28.809
1687734235.633,-87.891,-32.715,-24.902,-47.363,-145.020
1687734235.637,-51.758,-34.180,-29.785,-41.504,35.645
1687734235.641,6.348,-29.785,-29.785,-34.180,264.160
1687734235.645,-7.324,-29.297,-30.762,-46.875,-16.602
1687734235.649,-58.105,-27.344,-35.645,-55.176,-226.074
1687734235.650,-103.027,-28.320,-37.598,-57.617,-20.020
1687734235.654,-65.918,-31.738,-29.297,-51.758,9.277
1687734235.658,-3.906,-27.832,-19.531,-42.969,-139.648
1687734235.662,-9.766,-26.855,-20.508,-42.969,-105.469
1687734235.666,-52.734,-34.668,-27.832,-50.781,-8.789
1687734235.670,-98.145,-35.645,-24.414,-55.176,50.293
1687734235.674,-73.730,-28.809,-23.926,-47.852,21.484
1687734235.677,-8.789,-24.902,-26.855,-40.527,-53.711
1687734235.681,-4.883,-26.367,-26.367,-34.668,172.363
1687734235.685,-42.480,-26.367,-28.809,-38.086,157.227
1687734235.689,-88.379,-26.367,-32.715,-48.828,-196.777
1687734235.693,-70.801,-30.273,-30.762,-44.434,-247.070
1687734235.695,-9.277,-38.086,-30.273,-34.668,-141.602
1687734235.699,0.977,-38.086,-31.738,-33.203,-119.141
1687734235.703,-26.855,-35.156,-29.297,-36.133,-182.617
1687734235.707,-75.195,-35.156,-27.832,-38.574,-200.195
1687734235.711,-70.312,-32.227,-34.180,-32.227,-55.176
1687734235.715,-7.324,-24.902,-34.668,-20.508,15.625
1687734235.719,4.395,-20.508,-30.762,-30.762,-58.594
1687734235.722,-29.785,-28.320,-31.738,-39.062,88.379
1687734235.726,-79.102,-30.762,-29.297,-38.086,465.332
1687734235.730,-84.473,-37.109,-31.250,-46.875,202.637
1687734235.734,-16.602,-33.691,-33.691,-48.340,-173.828
1687734235.738,8.301,-28.320,-31.250,-46.387,-27.344
1687734235.740,-28.320,-34.180,-32.715,-58.105,22.461
1687734235.744,-70.801,-29.785,-34.180,-69.336,-191.406
1687734235.748,-78.613,-23.438,-31.250,-63.477,-172.363
1687734235.752,-27.344,-27.344,-25.879,-52.734,-100.586
1687734235.756,4.883,-34.180,-29.785,-49.805,-147.461
1687734235.760,-15.625,-35.645,-30.273,-53.223,-103.027
1687734235.764,-64.453,-35.645,-22.461,-58.105,-15.625
1687734235.767,-88.379,-35.645,-24.414,-51.270,181.641
1687734235.771,-41.016,-38.086,-28.809,-39.551,50.293
1687734235.775,2.441,-33.691,-22.461,-37.109,-132.324
1687734235.779,-15.137,-34.668,-20.996,-40.039,-26.367
1687734235.783,-63.477,-34.180,-24.414,-41.016,-29.297
1687734235.785,-98.145,-35.156,-23.438,-43.945,-126.953
1687734235.789,-54.199,-39.062,-23.438,-41.992,-128.418
1687734235.793,-4.883,-36.621,-29.785,-42.969,-119.629
1687734235.797,-14.648,-33.691,-25.879,-49.316,-134.277
1687734235.801,-57.617,-35.156,-21.973,-55.176,-160.156
1687734235.805,-100.586,-38.574,-31.250,-63.477,-236.328
1687734235.809,-63.477,-38.086,-35.645,-58.594,-58.105
1687734235.812,-8.301,-44.434,-32.227,-41.992,311.035
1687734235.816,-8.789,-45.898,-29.785,-42.969,0.488
1687734235.820,-41.992,-41.016,-29.785,-49.805,-248.047
1687734235.824,-86.914,-38.574,-29.785,-48.340,-67.871
1687734235.828,-59.570,-40.039,-33.203,-46.875,42.480
1687734235.830,0.488,-39.551,-33.203,-40.527,-78.125
1687734235.834,-4.883,-39.062,-30.273,-43.457,-142.090
1687734235.838,-42.480,-41.016,-32.715,-50.293,37.109
1687734235.842,-80.566,-45.410,-29.297,-46.387,-65.918
1687734235.846,-63.965,-44.434,-25.879,-44.434,-186.035
1687734235.850,-10.254,-39.062,-24.414,-47.852,-57.129
1687734235.854,-1.953,-34.180,-16.113,-43.945,229.492
1687734235.857,-43.457,-37.109,-20.020,-51.270,129.883
1687734235.861,-97.168,-41.016,-28.809,-56.641,-170.898
1687734235.865,-84.473,-33.691,-25.391,-44.434,-150.391
1687734235.869,-22.461,-35.645,-26.855,-41.016,-53.223
1687734235.873,-6.836,-40.527,-28.809,-37.598,-9.277
1687734235.876,-38.086,-35.645,-28.320,-33.203,-88.867
1687734235.880,-87.402,-33.691,-30.762,-43.945,-129.395
1687734235.884,-84.473,-32.715,-27.832,-42.969,-74.707
1687734235.888,-19.531,-33.691,-25.879,-33.203,-71.777
1687734235.892,-2.441,-34.180,-27.832,-35.156,-142.578
1687734235.896,-37.109,-32.227,-26.367,-42.480,53.223
1687734235.900,-85.449,-33.691,-24.414,-48.828,227.051
1687734235.903,-88.379,-36.133,-27.832,-47.852,34.668
1687734235.907,-21.484,-35.645,-26.367,-41.016,-58.594
1687734235.911,8.301,-34.180,-20.020,-33.691,76.172
1687734235.915,-21.484,-34.668,-21.484,-32.715,231.445
1687734235.919,-69.824,-30.762,-28.809,-49.805,-34.180
1687734235.935,-87.402,-28.320,-31.738,-50.781,-122.070
1687734235.939,-38.086,-31.250,-29.785,-41.992,-43.945
1687734235.943,-1.465,-29.785,-29.297,-41.992,-149.902
1687734235.947,-19.043,-30.273,-28.320,-46.387,-146.973
1687734235.951,-69.336,-33.203,-28.320,-51.758,-91.797
1687734235.955,-97.656,-29.785,-26.367,-48.828,152.344
1687734235.959,-45.898,-34.180,-26.855,-47.852,155.273
1687734235.962,-1.953,-42.480,-30.762,-48.828,-119.141
1687734235.966,-26.855,-41.992,-29.297,-51.758,-66.895
1687734235.970,-75.684,-40.039,-32.715,-53.711,121.094
1687734235.974,-102.051,-39.551,-32.715,-47.852,-46.387
1687734235.978,-53.223,-38.086,-26.367,-33.691,-161.133
1687734235.980,-3.906,-38.086,-21.973,-22.949,-115.234
1687734235.984,-17.578,-40.527,-24.414,-26.855,-99.121
1687734235.988,-57.617,-42.480,-29.785,-42.969,-94.727
1687734235.992,-88.867,-40.527,-27.832,-47.852,-123.535
1687734235.996,-55.664,-41.992,-30.273,-47.363,-43.945
1687734236.000,-0.488,-41.504,-31.250,-52.246,62.500
1687734236.004,-6.348,-37.598,-28.809,-54.688,14.648
1687734236.007,-53.223,-37.598,-29.297,-62.012,-24.414
1687734236.011,-95.703,-38.086,-34.180,-63.477,135.742
1687734236.015,-62.012,-35.156,-33.203,-46.387,222.656
1687734236.019,0.000,-34.668,-28.809,-43.945,-97.656
1687734236.023,-4.883,-35.645,-36.621,-61.035,-216.797
1687734236.025,-49.316,-33.203,-38.086,-68.359,57.617
1687734236.029,-98.633,-31.250,-35.645,-77.148,241.699
1687734236.033,-82.520,-31.738,-37.109,-81.055,-76.172
1687734236.037,-18.555,-34.180,-36.133,-69.336,-208.008
1687734236.041,-13.184,-36.133,-37.598,-62.988,-65.430
1687734236.045,-51.270,-36.133,-42.480,-62.500,23.926
1687734236.049,-95.703,-32.227,-41.992,-66.406,20.996
1687734236.052,-79.102,-28.320,-37.109,-62.500,-58.594
1687734236.056,-12.207,-25.391,-31.738,-38.086,151.367
1687734236.060,-4.395,-28.809,-33.203,-41.992,91.797
1687734236.064,-42.969,-35.156,-32.227,-60.547,-187.988
1687734236.068,-93.750,-36.621,-29.785,-63.965,-171.875
1687734236.071,-97.168,-31.250,-30.273,-58.594,-131.348
1687734236.075,-38.086,-36.133,-34.668,-52.246,-165.039
1687734236.079,-15.137,-43.457,-41.504,-52.734,-192.383
1687734236.083,-43.945,-34.668,-36.621,-53.711,-168.945
1687734236.087,-97.656,-27.832,-38.086,-62.012,-130.859
1687734236.091,-105.957,-28.809,-37.598,-58.594,-41.016
1687734236.095,-41.016,-33.203,-30.762,-49.316,-14.160
1687734236.098,-8.789,-34.180,-29.297,-49.316,103.516
1687734236.102,-33.691,-33.691,-34.668,-60.547,405.762
1687734236.106,-75.684,-28.320,-38.086,-79.590,105.469
1687734236.110,-85.449,-25.879,-38.086,-80.078,-186.035
1687734236.114,-29.785,-30.762,-40.527,-68.848,10.742
1687734236.115,16.113,-30.273,-40.039,-63.965,-24.902
1687734236.119,0.977,-27.344,-39.062,-63.965,-183.105
1687734236.123,-53.711,-32.715,-39.062,-71.777,-156.738
1687734236.127,-93.262,-40.527,-37.598,-67.383,12.695
1687734236.131,-50.781,-38.574,-33.691,-53.223,-57.129
1687734236.135,0.977,-34.180,-28.320,-39.551,-110.352
1687734236.139,-14.648,-38.574,-25.391,-33.203,17.090
1687734236.142,-65.430,-44.922,-26.855,-44.434,87.891
1687734236.146,-97.168,-45.410,-27.832,-51.758,-47.852
1687734236.150,-54.688,-43.457,-22.949,-45.410,-192.383
1687734236.154,0.000,-40.039,-17.578,-38.086,-141.602
1687734236.158,-11.230,-41.992,-24.414,-34.180,95.703
1687734236.161,-60.547,-47.852,-34.668,-49.805,0.000
1687734236.165,-102.051,-44.434,-31.250,-57.129,-117.676
1687734236.169,-69.336,-37.109,-28.320,-46.875,-3.418
1687734236.173,-11.719,-38.574,-29.785,-39.551,12.207
1687734236.177,-20.508,-39.062,-30.762,-46.875,-92.285
1687734236.181,-69.824,-38.574,-35.645,-65.918,-116.211
1687734236.185,-114.746,-41.504,-37.598,-71.289,32.715
1687734236.188,-87.402,-39.551,-38.574,-53.223,278.320
1687734236.192,-23.926,-36.621,-38.574,-45.898,37.109
1687734236.196,-20.508,-34.668,-35.156,-51.270,-180.176
1687734236.200,-59.082,-36.621,-37.109,-53.711,37.598
1687734236.204,-108.887,-37.598,-38.574,-62.500,75.684
1687734236.205,-90.820,-32.715,-36.621,-56.641,-79.590
1687734236.209,-23.926,-29.785,-33.203,-44.434,-101.562
1687734236.213,-16.113,-33.691,-36.133,-51.758,-47.852
1687734236.217,-55.176,-34.668,-37.598,-57.129,-5.371
1687734236.221,-109.375,-32.227,-36.133,-59.082,-14.160
1687734236.225,-102.051,-31.738,-34.668,-58.594,49.805
1687734236.229,-39.062,-36.621,-36.133,-42.969,333.496
1687734236.232,-22.949,-37.109,-37.598,-39.062,239.258
1687734236.236,-50.781,-33.691,-29.297,-43.457,-145.508
1687734236.240,-96.191,-34.180,-27.344,-47.852,-133.301
1687734236.244,-91.797,-38.574,-29.785,-49.316,-23.926
1687734236.248,-34.180,-41.016,-27.344,-37.109,-128.906
1687734236.250,-13.184,-36.621,-25.879,-35.645,-159.668
1687734236.254,-36.621,-31.250,-27.344,-44.922,-105.469
1687734236.258,-79.590,-27.832,-28.809,-46.875,-121.094
1687734236.262,-89.844,-34.180,-28.809,-42.480,-137.695
1687734236.266,-26.855,-31.738,-26.855,-28.809,-100.586
1687734236.270,11.719,-27.832,-31.250,-22.461,-40.527
1687734236.274,-10.742,-30.273,-39.551,-31.250,-24.414
1687734236.277,-62.988,-32.227,-35.156,-44.434,-96.191
1687734236.281,-83.008,-32.715,-30.273,-43.945,-155.762
1687734236.285,-25.391,-31.738,-27.832,-30.273,-31.738
1687734236.289,10.742,-29.297,-29.297,-22.461,270.996
1687734236.293,-14.648,-25.391,-30.273,-37.598,23.438
1687734236.310,-56.641,-27.344,-26.855,-53.223,-209.473
1687734236.314,-84.961,-30.762,-28.320,-49.805,-151.855
1687734236.318,-37.109,-30.273,-26.367,-41.016,-187.500
1687734236.322,13.672,-32.227,-28.809,-38.086,-207.520
1687734236.326,-0.488,-32.715,-32.227,-37.598,-100.098
1687734236.330,-52.246,-38.086,-32.715,-52.246,98.145
1687734236.334,-88.379,-38.574,-33.203,-61.523,32.715
1687734236.337,-43.457,-31.250,-31.250,-46.875,-38.574
1687734236.341,8.301,-28.809,-29.297,-36.621,11.230
1687734236.345,-0.977,-35.156,-30.273,-35.645,178.223
1687734236.349,-42.969,-35.156,-29.785,-40.039,94.238
1687734236.353,-87.402,-30.273,-27.832,-52.246,-120.605
1687734236.355,-57.617,-29.785,-30.762,-47.852,-167.969
1687734236.359,4.395,-25.391,-26.855,-33.691,-152.344
1687734236.363,0.488,-26.367,-26.367,-40.039,-114.258
1687734236.367,-37.598,-29.785,-28.809,-52.246,-85.449
1687734236.371,-82.031,-31.738,-26.367,-60.547,-91.797
1687734236.375,-52.246,-30.762,-24.902,-54.688,-2.441
1687734236.379,2.441,-28.320,-28.809,-43.457,-18.555
1687734236.382,-1.465,-31.250,-30.762,-43.457,-77.148
1687734236.386,-40.039,-35.156,-28.320,-47.852,91.309
1687734236.390,-96.191,-34.180,-29.785,-56.152,294.922
1687734236.394,-83.496,-30.762,-31.250,-58.594,55.176
1687734236.398,-22.461,-29.297,-30.273,-46.387,-151.855
1687734236.400,-13.184,-30.273,-31.250,-38.086,36.133
1687734236.404,-39.551,-26.855,-29.297,-33.691,43.457
1687734236.408,-83.496,-25.879,-27.344,-35.156,-185.547
1687734236.412,-82.031,-25.879,-26.855,-31.250,-233.398
1687734236.416,-19.531,-28.809,-20.996,-26.855,-88.867
1687734236.420,-1.953,-32.227,-17.090,-24.902,-46.875
1687734236.424,-32.227,-29.785,-19.531,-33.691,-151.367
1687734236.427,-79.102,-30.273,-25.391,-40.527,-151.367
1687734236.431,-89.844,-33.203,-31.250,-37.598,87.402
1687734236.435,-30.273,-29.785,-27.832,-28.809,38.086
1687734236.439,-3.418,-30.273,-23.926,-38.574,-149.902
1687734236.443,-27.344,-33.691,-25.879,-50.293,-146.973
1687734236.445,-82.031,-38.086,-31.250,-58.105,-154.297
1687734236.449,-105.469,-41.504,-32.227,-61.035,-69.336
1687734236.453,-43.945,-39.062,-28.809,-50.293,-109.863
1687734236.457,-0.488,-36.133,-31.250,-43.457,-90.332
1687734236.461,-28.809,-36.133,-31.250,-45.410,-24.902
1687734236.465,-75.195,-35.645,-22.949,-45.898,-38.574
1687734236.469,-93.262,-36.621,-22.461,-48.340,-58.594
1687734236.472,-47.852,-41.016,-29.297,-44.922,58.594
1687734236.476,-0.488,-42.480,-24.902,-29.785,329.590
1687734236.480,-11.719,-36.621,-20.508,-37.109,53.223
1687734236.484,-60.547,-35.156,-21.484,-52.246,-220.703
1687734236.488,-96.680,-38.574,-26.367,-54.199,-104.492
1687734236.490,-55.176,-34.668,-28.809,-48.340,-104.004
1687734236.494,-9.277,-36.621,-29.785,-49.316,-166.016
1687734236.498,-23.926,-36.621,-25.879,-59.082,-118.652
1687734236.502,-67.383,-36.621,-25.391,-65.430,46.387
1687734236.506,-109.863,-41.992,-29.297,-76.172,47.852
1687734236.510,-70.312,-39.062,-33.691,-72.754,-6.836
1687734236.514,2.930,-33.691,-33.691,-52.246,61.523
1687734236.517,-1.465,-32.227,-29.297,-47.852,240.234
1687734236.521,-51.758,-35.156,-29.297,-67.871,108.887
1687734236.525,-96.680,-32.715,-36.621,-79.102,-138.672
1687734236.529,-61.523,-25.391,-38.574,-69.336,-136.719
1687734236.533,4.395,-22.461,-36.621,-61.035,-93.262
1687734236.535,-2.930,-26.855,-40.527,-57.617,-88.867
1687734236.539,-43.945,-32.227,-37.598,-59.570,-80.566
1687734236.543,-95.215,-32.715,-35.156,-65.430,-69.824
1687734236.547,-76.172,-30.762,-32.227,-55.176,-89.355
1687734236.551,-13.184,-37.598,-29.785,-45.410,-103.516
1687734236.555,-13.184,-37.598,-30.273,-49.805,-58.105
1687734236.559,-52.246,-32.227,-28.320,-51.758,83.984
1687734236.562,-102.051,-34.668,-33.203,-53.223,243.652
1687734236.566,-94.238,-41.016,-35.645,-59.082,-19.043
1687734236.570,-21.973,-40.039,-32.715,-56.152,-167.480
1687734236.574,-3.906,-33.691,-30.273,-53.711,31.250
1687734236.578,-40.039,-37.598,-28.320,-61.523,112.793
1687734236.580,-82.031,-38.574,-22.949,-64.941,-116.211
1687734236.584,-82.520,-40.039,-24.414,-62.012,-138.184
1687734236.588,-27.832,-44.434,-30.762,-57.617,-26.855
1687734236.592,-3.418,-39.062,-28.320,-52.734,-70.801
1687734236.596,-30.273,-34.668,-30.762,-51.270,-162.598
1687734236.600,-79.590,-37.598,-34.180,-53.711,-88.379
1687734236.604,-84.961,-37.109,-31.738,-51.270,292.480
1687734236.607,-26.855,-34.180,-28.320,-43.457,256.836
1687734236.611,1.953,-34.180,-27.344,-39.062,-56.641
1687734236.615,-17.090,-30.273,-24.902,-39.551,-88.867
1687734236.619,-65.430,-33.203,-25.879,-43.945,46.387
1687734236.623,-86.426,-36.621,-26.855,-40.527,-68.359
1687734236.625,-31.738,-34.668,-20.508,-25.879,-147.949
1687734236.629,3.418,-35.156,-25.391,-25.879,-120.605
1687734236.633,-21.484,-34.180,-31.738,-35.645,-77.148
1687734236.637,-68.359,-34.180,-31.738,-45.898,-55.176
1687734236.641,-89.844,-27.832,-30.273,-50.781,-145.996
1687734236.645,-41.504,-28.320,-28.320,-37.598,62.988
1687734236.649,-1.953,-34.180,-28.809,-34.180,235.840
1687734236.652,-18.555,-30.273,-27.832,-42.969,11.719
1687734236.656,-66.895,-28.320,-28.809,-50.781,-109.863
1687734236.660,-106.445,-30.273,-29.297,-55.664,-7.812
1687734236.664,-65.430,-34.668,-32.227,-43.457,319.336
1687734236.668,-14.160,-39.551,-32.227,-45.410,75.195
1687734236.685,-23.926,-34.180,-33.203,-58.594,-159.180
1687734236.689,-70.801,-32.715,-34.180,-60.059,-28.809
1687734236.693,-115.723,-32.715,-30.762,-60.547,-87.402
1687734236.697,-79.590,-31.738,-31.738,-55.176,-101.074
1687734236.701,-15.137,-34.668,-32.227,-50.293,-84.473
1687734236.705,-19.531,-33.691,-31.738,-47.363,23.926
1687734236.709,-61.035,-36.621,-35.156,-48.828,19.531
1687734236.712,-101.562,-37.109,-32.227,-54.688,-131.348
1687734236.716,-77.148,-37.598,-32.227,-47.852,-148.438
1687734236.720,-10.254,-42.969,-31.250,-29.785,67.871
1687734236.724,0.488,-39.062,-28.320,-30.273,-30.762
1687734236.728,-44.922,-33.203,-33.691,-44.922,-153.809
1687734236.730,-92.285,-33.203,-36.621,-51.758,-15.625
1687734236.734,-69.824,-34.180,-31.250,-45.898,11.230
1687734236.738,-4.883,-34.668,-32.227,-42.480,-93.750
1687734236.742,2.441,-36.133,-33.203,-44.922,-134.277
1687734236.746,-38.574,-38.574,-29.297,-53.223,-133.301
1687734236.750,-90.332,-39.062,-28.809,-60.547,-14.160
1687734236.754,-82.031,-39.551,-32.715,-58.105,-5.371
1687734236.757,-21.484,-36.621,-33.691,-55.664,-42.969
1687734236.761,-5.859,-31.250,-33.203,-50.293,61.035
1687734236.765,-41.992,-33.691,-35.645,-48.828,305.664
1687734236.769,-89.844,-30.273,-34.180,-60.059,105.957
1687734236.773,-93.750,-30.762,-35.156,-54.688,-137.695
1687734236.782,-41.504,-41.992,-41.016,-44.922,-30.273
1687734236.786,-17.090,-43.457,-41.992,-48.340,-45.898
1687734236.790,-42.480,-40.527,-37.109,-56.641,-98.145
1687734236.794,-88.379,-32.715,-34.668,-57.129,-57.129
1687734236.798,-97.656,-32.715,-35.156,-55.664,-7.812
1687734236.802,-42.969,-37.109,-40.039,-60.059,-41.504
1687734236.806,-8.301,-30.273,-43.945,-57.129,-92.285
1687734236.809,-27.832,-30.273,-42.480,-57.617,-64.941
1687734236.813,-78.613,-38.574,-39.062,-66.406,105.469
1687734236.817,-105.469,-38.086,-38.574,-69.336,53.223
1687734236.821,-53.711,-36.621,-39.062,-60.059,-144.043
1687734236.825,-9.277,-39.551,-37.598,-51.758,-160.156
1687734236.820,-28.809,-36.133,-32.227,-50.781,-100.586
1687734236.824,-82.031,-38.574,-36.133,-56.152,-88.867
1687734236.828,-112.305,-39.551,-41.504,-58.105,-84.961
1687734236.832,-69.824,-37.598,-40.527,-49.316,-37.598
1687734236.836,-19.531,-39.062,-32.227,-41.504,4.395
1687734236.840,-25.879,-41.504,-27.832,-46.875,-23.926
1687734236.844,-65.918,-41.016,-32.715,-59.570,-59.570
1687734236.847,-99.121,-41.016,-32.715,-63.477,84.961
1687734236.851,-60.547,-43.457,-35.645,-50.781,444.824
1687734236.855,3.418,-38.086,-42.480,-45.898,301.758
1687734236.859,1.953,-31.738,-39.062,-61.523,-45.410
1687734236.863,-40.039,-33.691,-34.668,-71.289,-78.613
1687734236.865,-82.520,-32.227,-39.062,-76.172,-152.832
1687734236.869,-54.199,-27.832,-39.551,-67.871,-197.266
1687734236.873,0.488,-33.203,-36.133,-54.688,-134.277
1687734236.877,-5.859,-37.598,-35.645,-54.688,-112.305
1687734236.881,-47.363,-34.180,-33.691,-57.617,-187.500
1687734236.885,-96.680,-30.762,-36.133,-62.988,-131.348
1687734236.889,-78.125,-31.738,-40.527,-62.988,2.930
1687734236.892,-18.555,-33.691,-41.992,-48.828,303.711
1687734236.896,-16.602,-39.551,-38.574,-50.293,252.930
1687734236.900,-53.223,-40.039,-38.574,-61.523,-126.953
1687734236.904,-102.539,-34.180,-38.574,-65.430,-203.613
1687734236.908,-91.309,-35.645,-33.203,-57.129,-150.879
1687734236.910,-23.926,-38.574,-32.715,-40.527,-153.320
1687734236.914,-12.207,-34.180,-25.879,-42.969,-184.082
1687734236.918,-46.387,-30.762,-20.020,-51.270,-180.664
1687734236.922,-96.191,-37.109,-28.809,-51.758,-120.117
1687734236.926,-97.168,-43.945,-32.715,-48.340,-54.199
1687734236.930,-30.762,-41.992,-27.344,-41.992,-22.461
1687734236.934,-9.277,-37.109,-28.809,-36.133,102.539
1687734236.937,-46.875,-42.480,-32.715,-35.156,372.559
1687734236.941,-92.773,-45.898,-32.715,-45.410,79.102
1687734236.945,-96.680,-43.457,-40.039,-49.805,-146.973
1687734236.949,-41.992,-41.992,-36.621,-36.621,97.168
1687734236.953,-12.207,-40.039,-32.227,-33.203,65.430
1687734236.955,-37.109,-41.016,-36.621,-41.992,-171.875
1687734236.959,-81.543,-39.062,-37.109,-43.457,-158.691
1687734236.963,-96.680,-35.156,-33.691,-43.945,-64.941
1687734236.967,-37.598,-37.598,-33.691,-36.133,-84.473
1687734236.971,5.371,-35.645,-39.551,-32.715,-147.461
1687734236.975,-14.648,-31.738,-37.598,-42.480,-126.465
1687734236.979,-62.988,-34.180,-32.227,-49.805,138.184
1687734236.982,-91.309,-37.109,-38.086,-53.711,85.938
1687734236.986,-37.598,-36.621,-40.039,-45.898,-153.809
1687734236.990,7.324,-35.645,-31.250,-42.969,-171.387
1687734236.994,-7.812,-34.180,-30.273,-44.434,-53.711
1687734236.998,-55.176,-33.691,-34.668,-56.152,-51.270
1687734237.001,-96.191,-30.762,-38.086,-68.848,-118.164
1687734237.005,-55.176,-35.645,-36.133,-56.152,-62.500
1687734237.009,-6.348,-39.062,-36.621,-51.758,-18.066
1687734237.013,-19.043,-35.645,-36.621,-57.617,-127.930
1687734237.017,-62.500,-36.133,-34.668,-59.570,-161.621
1687734237.021,-100.586,-41.504,-34.668,-58.594,51.270
1687734237.025,-64.453,-37.109,-34.668,-44.434,189.453
1687734237.028,-10.254,-34.180,-33.691,-41.016,41.504
1687734237.032,-12.207,-34.668,-30.273,-50.293,-82.031
1687734237.036,-51.270,-35.156,-25.879,-43.945,7.324
1687734237.040,-91.309,-32.715,-27.832,-37.109,138.672
1687734237.044,-63.965,-32.715,-30.273,-38.086,-114.258
1687734237.060,-7.324,-32.715,-26.855,-37.109,-227.051
1687734237.064,-12.207,-31.250,-26.367,-42.480,-124.023
1687734237.068,-54.199,-34.668,-33.203,-53.223,-41.504
1687734237.072,-97.656,-35.156,-35.645,-60.059,-83.008
1687734237.076,-76.172,-33.203,-31.738,-58.594,-153.320
1687734237.080,-9.277,-27.832,-33.203,-45.410,173.828
1687734237.084,-0.488,-25.879,-34.668,-42.480,198.242
1687734237.087,-39.551,-28.320,-30.273,-53.223,-140.137
1687734237.091,-91.309,-28.320,-32.227,-64.941,-130.859
1687734237.095,-83.984,-27.832,-35.645,-61.523,39.062
1687734237.099,-20.020,-29.297,-32.715,-46.875,-44.922
1687734237.103,-0.488,-33.203,-30.762,-44.434,-171.387
1687734237.105,-29.785,-32.227,-31.250,-45.410,-153.809
1687734237.109,-80.078,-33.691,-28.320,-43.945,-104.980
1687734237.113,-78.125,-37.598,-28.320,-42.480,-102.539
1687734237.117,-12.207,-32.715,-28.809,-36.621,-141.113
1687734237.121,11.230,-26.855,-24.414,-30.762,-76.172
1687734237.125,-12.695,-26.855,-20.996,-27.832,66.895
1687734237.129,-64.453,-27.832,-25.879,-33.691,48.828
1687734237.132,-78.613,-26.855,-29.297,-39.551,13.672
1687734237.136,-16.113,-27.832,-25.879,-32.227,198.242
1687734237.140,9.766,-31.250,-26.367,-28.809,251.465
1687734237.144,-19.531,-33.691,-27.832,-41.016,-58.105
1687734237.148,-67.383,-38.086,-25.391,-56.152,-153.320
1687734237.150,-90.332,-34.668,-23.926,-50.293,99.609
1687734237.154,-39.551,-27.344,-19.531,-33.691,188.477
1687734237.158,2.441,-22.461,-16.113,-25.391,-98.633
1687734237.162,-16.113,-23.926,-22.461,-30.273,-153.320
1687734237.166,-68.848,-25.391,-25.879,-42.480,-103.027
1687734237.170,-94.727,-24.902,-24.902,-43.457,-114.746
1687734237.174,-49.805,-28.320,-24.902,-32.715,-136.719
1687734237.177,-9.766,-28.320,-27.344,-27.832,-85.449
1687734237.181,-19.043,-25.391,-27.344,-22.949,235.352
1687734237.185,-62.988,-23.926,-33.203,-27.832,200.684
1687734237.189,-107.422,-30.273,-34.668,-47.852,-157.227
1687734237.193,-66.895,-32.227,-25.879,-41.992,-160.156
1687734237.195,-15.137,-32.715,-30.273,-34.180,-117.676
1687734237.199,-29.785,-38.574,-36.133,-47.363,-132.324
1687734237.203,-67.383,-36.133,-34.180,-55.176,-152.344
1687734237.207,-106.445,-32.227,-29.297,-51.758,-120.117
1687734237.211,-73.242,-33.691,-27.344,-45.898,-59.082
1687734237.215,-17.090,-39.551,-24.902,-45.410,-23.438
1687734237.219,-23.438,-36.621,-23.438,-42.480,-59.082
1687734237.222,-65.430,-33.203,-27.344,-47.363,10.254
1687734237.226,-113.281,-36.133,-26.367,-52.246,268.555
1687734237.230,-87.402,-31.250,-23.438,-43.945,133.789
1687734237.234,-23.438,-31.250,-24.902,-37.109,-118.164
1687734237.238,-22.461,-39.062,-27.344,-33.691,-90.820
1687734237.240,-56.152,-39.062,-27.832,-42.969,-158.203
1687734237.244,-97.168,-29.785,-28.320,-48.828,-241.211
1687734237.248,-77.637,-31.738,-27.832,-39.551,-171.875
1687734237.252,-12.695,-37.109,-24.902,-33.203,-180.176
1687734237.256,-3.906,-33.203,-25.391,-32.715,-202.148
1687734237.260,-39.551,-35.156,-30.273,-41.992,-154.297
1687734237.264,-84.473,-39.551,-32.715,-51.270,-113.281
1687734237.267,-75.195,-38.574,-24.902,-41.016,111.816
1687734237.271,-8.789,-33.691,-20.508,-32.227,81.055
1687734237.275,13.672,-33.203,-23.926,-32.715,-146.484
1687734237.279,-18.555,-32.715,-26.855,-41.016,-190.430
1687734237.283,-72.266,-30.762,-26.367,-51.758,-135.742
1687734237.285,-74.707,-28.809,-24.414,-50.781,-115.234
1687734237.289,-15.137,-25.879,-28.809,-42.969,-237.793
1687734237.293,5.371,-26.855,-31.250,-39.551,-239.258
1687734237.297,-24.902,-31.250,-28.809,-43.457,-85.938
1687734237.301,-77.637,-33.691,-27.832,-53.711,-139.160
1687734237.305,-92.285,-36.621,-30.273,-53.711,-196.289
1687734237.309,-33.691,-32.227,-26.855,-41.016,72.266
1687734237.312,2.930,-27.832,-26.367,-32.227,452.637
1687734237.316,-14.648,-28.320,-30.273,-35.156,180.664
1687734237.320,-57.617,-27.832,-27.344,-39.062,-176.758
1687734237.324,-87.402,-30.273,-25.391,-40.039,-80.566
1687734237.328,-43.945,-31.738,-27.832,-41.504,-62.988
1687734237.346,-3.906,-31.738,-27.832,-42.480,-216.309
1687734237.350,-28.320,-34.180,-26.367,-42.969,-159.180
1687734237.354,-72.754,-29.785,-20.020,-40.039,83.496
1687734237.358,-101.562,-28.320,-20.508,-44.922,-12.695
1687734237.362,-61.035,-32.227,-23.926,-43.457,-105.469
1687734237.366,-8.301,-32.715,-26.367,-38.574,19.531
1687734237.370,-18.555,-29.785,-27.832,-42.480,258.789
1687734237.373,-59.570,-29.785,-25.391,-46.387,110.352
1687734237.377,-93.750,-30.762,-25.391,-47.852,-130.371
1687734237.381,-56.152,-34.180,-27.344,-40.527,-125.977
1687734237.385,5.371,-32.227,-22.949,-26.367,-107.422
1687734237.389,-0.488,-25.391,-20.508,-33.203,-114.258
1687734237.375,-44.434,-31.738,-21.484,-42.969,-184.082
1687734237.379,-86.914,-41.016,-21.484,-44.434,-151.367
1687734237.383,-55.176,-39.551,-25.879,-45.410,-51.758
1687734237.387,0.977,-31.738,-26.855,-42.969,-44.922
1687734237.391,-6.836,-29.785,-28.809,-44.434,8.789
1687734237.395,-50.293,-37.109,-35.156,-51.270,49.805
1687734237.399,-95.215,-36.621,-33.203,-49.316,16.602
1687734237.402,-69.336,-32.715,-31.250,-39.551,-3.418
1687734237.406,-3.906,-39.062,-30.273,-33.691,5.371
1687734237.410,2.441,-46.875,-30.762,-34.180,66.895
1687734237.414,-32.715,-46.875,-31.738,-31.738,261.719
1687734237.418,-82.031,-44.922,-34.180,-41.504,15.137
1687734237.435,-72.754,-39.551,-37.109,-39.062,-200.195
1687734237.439,-5.371,-34.180,-36.621,-24.414,73.730
1687734237.443,8.301,-37.598,-35.645,-23.438,130.859
1687734237.447,-26.367,-37.598,-29.785,-29.297,-178.711
1687734237.451,-80.078,-35.645,-27.832,-41.992,-174.316
1687734237.455,-80.566,-40.527,-31.738,-48.828,47.363
1687734237.459,-16.113,-41.504,-33.691,-42.480,-10.254
1687734237.462,3.418,-35.645,-30.273,-39.551,-142.090
1687734237.466,-33.203,-31.250,-30.762,-51.758,-153.320
1687734237.470,-80.566,-28.809,-32.227,-50.293,135.742
1687734237.474,-84.961,-33.203,-31.738,-49.805,124.023
1687734237.478,-28.809,-39.062,-40.527,-52.246,-77.637
1687734237.480,4.395,-37.109,-38.086,-43.945,-57.617
1687734237.484,-12.695,-33.691,-28.320,-46.387,-46.387
1687734237.488,-65.430,-36.133,-28.809,-52.734,-49.316
1687734237.492,-89.844,-40.527,-32.227,-53.223,-102.051
1687734237.496,-30.273,-38.574,-36.133,-41.504,-73.242
1687734237.500,10.254,-38.574,-35.156,-34.668,45.410
1687734237.504,-12.207,-43.457,-35.645,-38.086,11.230
1687734237.507,-64.453,-42.969,-30.762,-41.016,-94.727
1687734237.511,-94.727,-40.527,-25.879,-37.598,-56.152
1687734237.515,-46.875,-46.387,-27.832,-25.879,294.434
1687734237.519,-4.883,-50.781,-34.668,-28.809,167.480
1687734237.523,-20.996,-48.340,-38.574,-44.434,-161.621
1687734237.525,-68.848,-48.828,-41.992,-54.688,-127.930
1687734237.529,-105.957,-43.945,-38.086,-58.105,-154.297
1687734237.533,-60.547,-37.109,-30.762,-50.781,-213.379
1687734237.537,-6.348,-40.039,-31.738,-47.363,-160.645
1687734237.541,-20.508,-42.969,-33.691,-49.805,-104.980
1687734237.545,-65.430,-40.039,-33.691,-51.270,4.395
1687734237.549,-100.586,-39.551,-35.645,-50.781,62.500
1687734237.552,-60.547,-41.992,-35.645,-43.457,17.578
1687734237.556,0.488,-39.551,-39.062,-31.250,198.242
1687734237.560,-6.836,-35.156,-39.551,-32.715,91.797
1687734237.564,-48.828,-37.109,-36.621,-41.992,-167.969
1687734237.568,-89.355,-36.621,-41.992,-48.340,-95.703
1687734237.570,-58.105,-39.551,-42.969,-45.410,-3.418
1687734237.574,8.789,-39.062,-42.480,-40.527,-96.680
1687734237.578,8.789,-39.551,-46.875,-49.316,-161.133
1687734237.582,-22.461,-41.504,-46.875,-53.223,-133.301
1687734237.586,-61.523,-42.480,-46.875,-53.711,-121.094
1687734237.590,-40.527,-42.969,-48.828,-50.781,-86.914
1687734237.594,27.832,-37.598,-49.805,-41.992,-102.051
1687734237.597,38.086,-36.133,-53.223,-49.316,-0.488
1687734237.601,-1.465,-43.457,-56.641,-52.246,296.387
1687734237.605,-57.617,-45.898,-50.781,-46.387,92.285
1687734237.609,-57.617,-41.992,-47.852,-40.039,-177.246
1687734237.613,0.977,-44.434,-48.340,-27.832,-79.590
1687734237.616,11.230,-45.898,-41.992,-27.344,-55.664
1687734237.620,-28.809,-45.898,-46.387,-42.480,-70.312
1687734237.624,-77.148,-44.434,-47.852,-50.293,-99.609
1687734237.628,-77.637,-40.039,-42.480,-43.457,29.297
1687734237.632,-18.555,-42.969,-42.969,-34.668,29.297
1687734237.636,5.371,-42.480,-45.410,-28.320,-15.625
1687734237.640,-24.414,-46.387,-48.828,-33.691,68.848
1687734237.643,-76.172,-48.340,-46.387,-37.598,194.336
1687734237.647,-89.355,-44.922,-43.457,-35.645,22.461
1687734237.651,-35.645,-39.551,-46.875,-31.738,-135.254
1687734237.655,-1.953,-29.297,-48.340,-23.438,-118.164
1687734237.659,-23.438,-38.086,-48.828,-25.391,-124.512
1687734237.660,-72.266,-43.457,-52.246,-34.180,-156.250
1687734237.664,-91.309,-35.156,-49.316,-33.691,-154.297
1687734237.668,-35.156,-34.668,-46.387,-25.391,-42.480
1687734237.672,3.418,-36.133,-48.828,-28.809,-33.203
1687734237.676,-15.625,-38.086,-51.270,-33.691,-89.355
1687734237.680,-61.523,-38.086,-47.852,-37.598,-104.492
1687734237.684,-89.844,-39.062,-44.922,-41.016,40.039
1687734237.687,-41.504,-40.039,-45.898,-22.949,464.844
1687734237.691,10.742,-32.715,-42.969,-13.184,338.867
1687734237.695,-1.465,-32.227,-42.969,-29.297,-63.965
1687734237.699,-48.340,-39.551,-47.363,-36.133,-53.711
1687734237.703,-83.984,-41.504,-49.805,-39.062,-100.586
1687734237.705,-46.387,-34.668,-47.363,-35.645,-110.840
1687734237.709,4.883,-33.203,-46.387,-26.855,-159.668
1687734237.713,-0.488,-40.039,-46.387,-29.785,-166.504
1687734237.717,-35.645,-41.016,-48.828,-41.016,-129.883
1687734237.721,-79.102,-41.992,-54.688,-49.805,-192.383
1687734237.725,-46.875,-44.434,-52.734,-40.039,-103.027
1687734237.729,10.254,-38.574,-48.828,-27.832,228.516
1687734237.732,2.441,-41.016,-54.688,-41.992,170.898
1687734237.736,-36.133,-40.527,-62.012,-52.734,-174.805
1687734237.740,-82.520,-45.898,-61.035,-57.129,-193.359
1687734237.744,-59.082,-47.852,-54.688,-50.781,55.176
1687734237.748,0.977,-44.922,-56.152,-41.504,-45.898
1687734237.750,0.977,-42.480,-64.941,-54.199,-186.035
1687734237.754,-32.227,-38.086,-63.965,-62.012,-159.180
1687734237.758,-81.543,-35.645,-59.570,-54.688,-101.562
1687734237.762,-62.500,-35.156,-58.594,-42.480,-79.590
1687734237.766,10.254,-35.645,-55.176,-25.391,-102.051
1687734237.770,18.066,-36.621,-46.387,-17.578,114.258
1687734237.774,-19.531,-41.016,-46.875,-26.367,148.438
1687734237.777,-71.289,-41.992,-52.734,-32.227,-15.137
1687734237.781,-68.359,-42.969,-52.246,-33.203,-44.434
1687734237.785,-4.395,-40.039,-52.246,-26.367,112.305
1687734237.789,10.742,-32.715,-48.340,-14.160,375.977
1687734237.793,-12.207,-35.645,-41.992,-18.555,71.289
1687734237.810,-57.617,-39.551,-42.480,-24.414,-87.402
1687734237.814,-70.312,-40.039,-42.969,-18.066,115.723
1687734237.818,-10.742,-39.551,-45.898,-8.789,90.820
1687734237.822,16.602,-32.227,-51.270,-20.020,-75.195
1687734237.826,-10.742,-27.832,-47.852,-30.762,-109.375
1687734237.830,-60.547,-24.414,-45.410,-32.227,-58.105
1687734237.834,-68.359,-20.020,-49.805,-29.785,-19.531
1687734237.837,-4.395,-15.137,-48.828,-25.391,-123.047
1687734237.841,25.879,-23.438,-49.316,-22.949,-177.246
1687734237.845,0.977,-29.297,-49.805,-17.090,79.102
1687734237.849,-49.805,-27.344,-43.457,-28.809,30.762
1687734237.853,-72.754,-26.367,-44.922,-36.621,-176.758
1687734237.855,-21.484,-25.879,-43.945,-25.391,-161.621
1687734237.859,16.602,-24.414,-45.410,-24.902,-57.617
1687734237.863,-2.441,-28.320,-49.805,-30.273,-100.586
1687734237.867,-47.363,-33.203,-45.410,-31.738,-174.805
1687734237.871,-84.961,-34.668,-45.898,-40.039,-109.863
1687734237.875,-47.852,-38.086,-48.340,-39.062,-11.719
1687734237.879,5.371,-38.086,-50.293,-23.926,-5.371
1687734237.882,-7.324,-32.715,-52.734,-24.902,-20.996
1687734237.886,-47.852,-25.879,-47.852,-26.367,52.734
1687734237.890,-85.449,-25.391,-41.504,-12.207,298.340
1687734237.894,-45.898,-30.762,-39.062,-4.883,118.164
1687734237.898,16.602,-32.715,-39.062,-5.859,-147.461
1687734237.900,8.789,-30.273,-38.574,-16.602,-105.469
1687734237.904,-36.133,-37.598,-39.062,-30.273,-62.012
1687734237.908,-76.172,-39.062,-42.480,-38.574,-66.406
1687734237.912,-40.527,-35.645,-42.969,-33.691,-125.488
1687734237.916,17.578,-37.598,-42.969,-20.996,12.207
1687734237.920,12.207,-41.992,-46.875,-21.484,-0.977
1687734237.924,-22.949,-39.062,-50.293,-28.809,-148.438
1687734237.927,-62.988,-27.344,-49.316,-21.973,-106.445
1687734237.931,-50.781,-33.203,-52.246,-11.719,131.836
1687734237.935,3.906,-37.598,-56.641,-17.578,28.320
1687734237.939,13.184,-32.715,-57.129,-24.414,-194.336
1687734237.943,-21.484,-36.621,-59.082,-32.227,-113.770
1687734237.945,-69.824,-37.109,-54.199,-29.297,-50.293
1687734237.949,-58.105,-36.133,-50.781,-18.555,-98.145
1687734237.953,5.859,-34.180,-50.293,-18.066,-130.371
1687734237.957,25.391,-31.738,-42.969,-12.207,20.508
1687734237.961,-9.277,-38.574,-40.527,-14.160,41.992
1687734237.965,-72.754,-45.898,-48.340,-31.250,-46.387
1687734237.969,-68.848,-42.969,-46.387,-26.367,-50.781
1687734237.972,-1.465,-38.086,-41.992,-9.766,55.664
1687734237.976,12.207,-39.551,-43.945,-2.441,368.164
1687734237.980,-17.578,-44.922,-41.016,-11.719,133.301
1687734237.984,-61.035,-42.969,-37.598,-22.949,-172.363
1687734237.988,-69.824,-36.621,-37.598,-22.949,-124.023
1687734237.990,-11.719,-35.645,-40.039,-18.066,-178.223
1687734237.994,15.137,-39.062,-41.016,-11.719,-214.355
1687734237.998,-11.230,-42.480,-46.875,-10.254,-193.359
1687734238.002,-55.664,-44.922,-49.805,-21.973,-103.027
1687734238.006,-70.312,-43.457,-48.828,-24.902,-87.402
1687734238.010,-16.113,-39.551,-47.363,-16.113,-14.648
1687734238.014,16.602,-40.527,-45.898,-23.926,35.156
1687734238.017,-1.953,-36.133,-53.711,-24.902,167.480
1687734238.021,-47.363,-33.203,-55.176,-24.902,66.895
1687734238.025,-73.242,-43.457,-52.734,-27.344,-142.578
1687734238.029,-21.973,-47.852,-55.664,-20.996,-97.656
1687734238.033,23.438,-49.805,-58.594,-14.160,160.156
1687734238.035,7.812,-51.758,-61.035,-24.902,90.820
1687734238.039,-39.551,-49.316,-58.594,-36.621,-126.953
1687734238.043,-81.055,-44.922,-56.152,-36.133,-77.637
1687734238.047,-39.551,-47.363,-58.105,-33.691,-95.215
1687734238.051,18.555,-50.781,-59.570,-26.855,-71.289
1687734238.055,10.254,-48.828,-58.105,-28.320,-56.641
1687734238.059,-31.738,-49.316,-52.734,-25.879,-15.625
1687734238.062,-71.289,-46.875,-51.270,-17.578,253.906
1687734238.066,-31.738,-38.574,-52.734,-11.719,77.637
1687734238.070,24.414,-36.621,-52.734,-14.160,-125.977
1687734238.074,14.160,-41.016,-56.152,-14.648,-43.457
1687734238.078,-29.785,-44.434,-58.105,-19.531,-34.668
1687734238.080,-76.660,-44.434,-59.570,-32.715,-134.277
1687734238.084,-49.316,-40.039,-58.594,-27.832,-100.586
1687734238.088,3.906,-36.621,-57.129,-21.973,-38.086
1687734238.092,0.000,-36.133,-60.059,-29.297,-83.008
1687734238.096,-36.133,-36.621,-59.082,-37.109,-171.875
1687734238.100,-84.961,-38.574,-59.570,-44.922,-102.051
1687734238.104,-71.289,-43.945,-59.570,-40.527,238.281
1687734238.107,-11.719,-41.016,-56.152,-33.691,84.961
1687734238.111,-3.906,-42.480,-54.688,-36.621,-207.031
1687734238.115,-35.156,-45.898,-59.082,-44.434,-112.793
1687734238.119,-83.984,-41.504,-63.477,-49.805,48.340
1687734238.123,-78.125,-45.410,-61.035,-43.945,-39.551
1687734238.125,-8.789,-42.969,-55.664,-28.320,-144.043
1687734238.129,8.789,-44.434,-53.711,-28.809,-72.754
1687734238.133,-28.320,-48.340,-54.199,-35.156,-9.766
1687734238.137,-78.125,-44.922,-55.664,-37.598,-114.746
1687734238.141,-84.473,-46.387,-59.570,-39.062,-190.918
1687734238.145,-20.020,-43.457,-61.523,-26.855,35.156
1687734238.149,7.812,-42.969,-55.176,-18.066,218.262
1687734238.152,-30.762,-44.922,-58.105,-29.785,50.781
1687734238.156,-81.543,-41.016,-60.547,-44.434,-132.812
1687734238.160,-86.914,-39.551,-56.152,-43.457,-25.391
1687734238.164,-28.320,-41.504,-56.641,-32.715,124.512
1687734238.168,8.789,-40.039,-60.059,-33.691,-121.094
1687734238.185,-13.184,-37.598,-58.105,-41.504,-136.230
1687734238.189,-69.824,-40.039,-59.082,-45.898,15.137
1687734238.193,-93.750,-37.598,-62.500,-52.734,-64.941
1687734238.197,-41.992,-36.133,-63.965,-51.270,-187.500
1687734238.201,0.488,-34.668,-63.477,-41.504,-154.785
1687734238.205,-15.137,-34.668,-61.035,-41.504,72.266
1687734238.209,-62.988,-33.203,-58.105,-46.875,43.945
1687734238.212,-90.820,-26.367,-57.129,-51.758,-143.555
1687734238.216,-38.574,-20.508,-58.594,-39.062,-155.273
1687734238.220,4.883,-21.973,-62.500,-24.902,109.375
1687734238.224,-8.301,-26.855,-65.430,-35.645,21.973
1687734238.228,-48.828,-29.297,-64.941,-51.270,-208.984
1687734238.230,-86.426,-33.691,-62.500,-56.641,-139.160
1687734238.234,-46.875,-34.668,-61.035,-45.898,-49.805
1687734238.238,12.695,-34.668,-56.641,-30.273,-72.754
1687734238.242,3.418,-41.504,-54.199,-27.832,-100.586
1687734238.246,-41.016,-42.969,-51.758,-34.180,-38.574
1687734238.250,-84.473,-36.621,-50.293,-42.969,121.582
1687734238.254,-45.898,-35.156,-55.664,-41.016,1.465
1687734238.257,19.531,-37.598,-56.152,-29.297,-96.680
1687734238.261,16.113,-37.109,-52.246,-27.344,50.293
1687734238.265,-20.996,-31.738,-57.617,-33.691,253.418
1687734238.269,-68.359,-30.762,-57.617,-46.875,69.824
1687734238.273,-46.875,-33.203,-52.734,-41.504,-153.320
1687734238.275,19.043,-33.203,-50.781,-29.785,-104.492
1687734238.279,25.391,-33.203,-47.852,-32.715,-90.820
1687734238.283,-12.695,-31.250,-52.246,-37.109,-133.301
1687734238.287,-65.918,-28.320,-56.152,-43.945,-153.320
1687734238.291,-54.199,-29.297,-49.316,-39.062,-29.785
1687734238.295,10.742,-28.809,-48.340,-32.715,-7.812
1687734238.299,12.207,-26.855,-59.082,-33.203,-86.426
1687734238.302,-27.832,-32.227,-57.129,-41.504,-32.715
1687734238.306,-82.031,-35.156,-53.223,-42.969,200.195
1687734238.310,-75.684,-28.320,-58.594,-37.598,187.012
1687734238.314,-0.488,-24.414,-58.594,-42.969,-108.887
1687734238.318,31.738,-21.973,-48.340,-39.062,-165.039
1687734238.320,5.371,-23.926,-45.898,-35.645,-152.832
1687734238.324,-42.969,-28.320,-51.270,-50.781,-199.219
1687734238.328,-48.340,-34.180,-54.199,-54.688,-151.367
1687734238.332,14.160,-37.598,-60.059,-47.363,-107.422
1687734238.336,48.340,-33.203,-61.035,-42.969,-104.492
1687734238.340,15.137,-34.180,-55.176,-37.598,-52.734
1687734238.344,-43.457,-35.156,-49.805,-30.762,1.465
1687734238.347,-63.477,-35.645,-48.340,-26.855,70.312
1687734238.351,-16.113,-35.645,-46.387,-9.766,431.641
1687734238.355,21.973,-31.738,-47.363,-6.348,354.492
1687734238.359,0.000,-33.203,-45.898,-25.879,-72.754
1687734238.363,-52.246,-34.668,-44.434,-37.109,-99.609
1687734238.365,-81.543,-29.785,-50.293,-44.434,-122.559
1687734238.369,-32.227,-25.391,-51.758,-40.039,-226.074
1687734238.373,16.113,-26.367,-46.387,-30.762,-131.836
1687734238.377,0.000,-28.809,-44.922,-34.668,-52.734
1687734238.381,-51.270,-36.133,-47.363,-42.969,-128.418
1687734238.385,-90.820,-39.062,-50.293,-40.039,-64.453
1687734238.389,-47.852,-38.086,-46.875,-32.227,46.875
1687734238.392,4.883,-37.109,-43.457,-22.949,141.602
1687734238.396,-7.324,-33.203,-46.875,-25.879,49.805
1687734238.400,-52.246,-33.203,-53.711,-39.551,-117.188
1687734238.404,-89.844,-37.109,-49.805,-42.480,-18.555
1687734238.408,-47.363,-35.645,-45.410,-34.180,62.500
1687734238.410,9.277,-33.203,-47.852,-31.738,-21.973
1687734238.414,0.488,-37.109,-43.457,-32.715,-83.496
1687734238.418,-41.504,-40.039,-42.969,-29.785,-136.719
1687734238.422,-83.496,-37.598,-41.992,-32.227,-116.699
1687734238.426,-56.641,-32.227,-39.062,-27.832,-71.289
1687734238.430,-2.930,-36.621,-47.363,-28.320,-87.402
1687734238.434,-7.812,-40.527,-52.734,-33.203,83.496
1687734238.437,-42.480,-38.574,-45.898,-28.809,347.168
1687734238.441,-81.055,-31.738,-43.457,-30.762,75.684
1687734238.445,-60.547,-30.762,-47.852,-35.156,-179.199
1687734238.449,4.395,-31.250,-49.805,-27.344,-41.992
1687734238.453,19.043,-20.020,-46.875,-20.020,-4.395
1687734238.456,-13.672,-18.066,-42.969,-27.344,-143.066
1687734238.460,-63.965,-22.461,-41.992,-24.414,-158.203
1687734238.464,-63.477,-28.809,-42.480,-20.508,22.461
1687734238.468,-9.766,-35.156,-46.387,-24.902,-32.715
1687734238.472,3.906,-37.598,-43.945,-31.250,-169.434
1687734238.476,-27.832,-34.180,-42.480,-36.133,-78.613
1687734238.480,-83.496,-26.367,-45.898,-40.527,251.465
1687734238.483,-85.938,-24.414,-48.828,-43.457,167.969
1687734238.487,-19.043,-20.996,-50.781,-39.062,-125.000
1687734238.491,8.789,-23.926,-45.898,-35.645,-171.875
1687734238.495,-15.137,-32.227,-44.434,-40.527,-159.180
1687734238.499,-65.918,-28.809,-42.480,-48.828,-158.203
1687734238.515,-77.148,-29.785,-43.457,-49.316,-205.566
1687734238.519,-14.648,-31.250,-45.410,-40.527,-116.211
1687734238.523,14.160,-25.879,-41.992,-29.297,-90.820
1687734238.527,-16.113,-28.809,-39.551,-30.762,-169.922
1687734238.531,-68.848,-35.156,-41.504,-42.480,-203.125
1687734238.535,-87.402,-38.574,-46.875,-41.992,19.531
1687734238.539,-29.785,-42.969,-52.246,-29.297,391.602
1687734238.542,12.207,-38.086,-48.340,-28.809,120.117
1687734238.546,-8.789,-29.785,-41.992,-31.250,-191.895
1687734238.550,-51.270,-27.832,-44.434,-31.738,-50.781
1687734238.554,-72.266,-36.133,-48.340,-37.109,52.246
1687734238.558,-23.438,-36.133,-48.340,-30.762,-88.379
1687734238.560,22.461,-25.879,-41.504,-18.555,-88.867
1687734238.564,11.719,-22.949,-34.668,-22.461,-39.551
1687734238.568,-32.715,-27.832,-36.133,-37.598,-124.023
1687734238.572,-69.824,-31.250,-38.574,-45.410,-162.109
1687734238.576,-27.832,-32.227,-40.039,-43.945,-62.988
1687734238.580,21.973,-28.809,-33.691,-35.156,123.535
1687734238.584,5.859,-24.414,-33.203,-36.621,83.984
1687734238.587,-40.039,-23.926,-38.086,-48.340,-42.969
1687734238.591,-83.984,-24.902,-40.039,-56.152,-70.801
1687734238.595,-47.363,-22.949,-39.551,-47.363,123.047
1687734238.599,12.695,-18.066,-37.109,-39.062,24.414
1687734238.603,5.859,-15.625,-34.180,-40.527,-188.965
1687734238.605,-35.645,-16.602,-31.250,-41.016,-157.715
1687734238.609,-76.660,-20.020,-30.273,-42.969,-124.023
1687734238.613,-54.688,-24.902,-38.086,-41.504,-94.238
1687734238.617,2.930,-24.902,-44.434,-34.668,-112.305
1687734238.621,3.906,-23.926,-44.922,-27.832,-101.562
1687734238.625,-35.156,-23.438,-43.457,-32.715,0.488
1687734238.629,-85.449,-26.367,-42.969,-45.410,16.602
1687734238.632,-67.383,-24.414,-42.969,-38.086,-6.836
1687734238.636,-1.465,-23.438,-34.668,-23.926,146.973
1687734238.640,1.953,-27.832,-32.715,-11.230,415.039
1687734238.644,-40.039,-29.785,-32.715,-20.020,188.477
1687734238.648,-83.984,-29.785,-29.297,-38.086,-134.277
1687734238.650,-75.684,-32.715,-34.180,-35.645,-52.734
1687734238.654,-16.602,-35.156,-40.039,-35.156,-85.449
1687734238.658,3.418,-32.227,-39.062,-34.180,-173.828
1687734238.662,-28.809,-31.738,-40.039,-39.062,-190.918
1687734238.666,-76.172,-30.273,-39.062,-48.828,-115.234
1687734238.670,-76.172,-28.320,-41.504,-51.270,-98.633
1687734238.674,-15.137,-28.320,-45.410,-47.852,-87.891
1687734238.677,9.766,-29.297,-42.480,-41.016,-21.484
1687734238.681,-19.531,-32.715,-39.062,-33.691,100.098
1687734238.685,-59.570,-33.203,-37.598,-36.133,63.477
1687734238.689,-68.848,-32.715,-38.574,-45.898,-158.203
1687734238.693,-14.648,-33.203,-34.180,-31.250,-148.438
1687734238.695,17.090,-30.273,-31.738,-21.484,-56.152
1687734238.699,-14.160,-29.297,-39.062,-30.273,-142.090
1687734238.703,-66.895,-35.645,-40.039,-42.969,-118.164
1687734238.707,-90.820,-34.668,-35.156,-44.434,-14.648
1687734238.711,-35.156,-29.785,-33.203,-25.391,-109.375
1687734238.715,14.160,-27.832,-30.273,-19.531,-151.855
1687734238.719,-3.418,-27.832,-30.762,-32.227,-107.422
1687734238.722,-41.504,-27.344,-30.762,-34.668,-7.324
1687734238.726,-78.125,-25.879,-36.133,-30.762,319.824
1687734238.730,-37.598,-30.273,-42.969,-36.133,141.113
1687734238.734,11.719,-32.715,-41.504,-40.527,-199.707
1687734238.738,-4.883,-30.273,-39.062,-42.480,-123.535
1687734238.740,-50.781,-34.180,-41.504,-48.828,-26.855
1687734238.744,-90.332,-32.715,-38.574,-54.688,-128.906
1687734238.748,-52.734,-27.832,-34.180,-50.293,-102.539
1687734238.752,-0.977,-29.785,-34.668,-41.016,77.637
1687734238.756,-6.836,-33.691,-39.062,-39.551,-50.781
1687734238.760,-43.457,-28.320,-39.062,-45.898,-147.461
1687734238.764,-86.426,-20.996,-34.180,-48.828,-87.891
1687734238.767,-57.617,-30.273,-36.621,-38.086,168.457
1687734238.771,7.324,-32.715,-37.109,-23.438,169.434
1687734238.775,7.812,-28.320,-35.645,-24.414,-82.520
1687734238.779,-31.738,-31.738,-36.133,-31.250,-90.332
1687734238.783,-83.496,-37.109,-38.574,-43.457,-14.160
1687734238.786,-69.824,-31.738,-42.969,-45.410,-41.992
1687734238.790,-0.977,-25.879,-37.109,-31.738,-133.301
1687734238.794,6.836,-22.949,-30.762,-36.621,-20.996
1687734238.798,-23.926,-17.090,-33.691,-37.109,-10.742
1687734238.802,-72.266,-22.461,-32.715,-39.062,-94.238
1687734238.806,-62.988,-24.902,-27.344,-40.527,-43.457
1687734238.810,1.953,-21.973,-24.414,-26.367,49.805
1687734238.813,3.418,-30.762,-28.809,-26.855,274.414
1687734238.817,-31.250,-32.715,-30.762,-40.039,-19.531
1687734238.821,-81.543,-27.832,-29.297,-52.246,-282.715
1687734238.825,-83.984,-30.762,-30.273,-45.410,-140.137
1687734238.829,-14.648,-32.227,-30.273,-30.762,-105.957
1687734238.830,6.348,-30.273,-26.855,-32.227,-175.781
1687734238.834,-27.344,-33.203,-26.367,-33.691,-158.691
1687734238.838,-71.289,-34.180,-28.320,-34.180,-95.703
1687734238.842,-83.984,-30.762,-31.738,-42.969,-65.430
1687734238.846,-26.855,-27.832,-33.691,-45.410,-46.875
1687734238.850,8.301,-27.344,-33.203,-44.922,-42.969
1687734238.854,-21.973,-29.785,-36.621,-46.875,222.656
1687734238.857,-75.195,-31.250,-39.062,-50.781,286.621
1687734238.861,-85.449,-26.367,-30.762,-59.570,-81.543
1687734238.865,-28.809,-29.785,-31.250,-51.758,-152.832
1687734238.869,4.883,-36.133,-34.668,-46.875,-62.500
1687734238.873,-14.648,-30.762,-29.785,-47.852,-88.379
1687734238.875,-66.895,-32.715,-33.203,-51.270,-162.598
1687734238.879,-92.285,-34.668,-32.715,-52.734,-150.879
1687734238.883,-40.527,-30.273,-32.715,-42.969,-20.020
1687734238.887,3.418,-31.250,-34.180,-38.086,-38.086
1687734238.891,-12.207,-32.227,-37.598,-46.387,-179.688
1687734238.895,-55.664,-29.785,-41.016,-50.293,-13.672
1687734238.899,-87.402,-29.297,-33.691,-44.922,156.738
1687734238.902,-49.316,-31.738,-34.180,-41.016,44.922
1687734238.906,-2.441,-28.809,-36.133,-42.480,1.953
1687734238.910,-11.719,-24.902,-30.762,-44.922,26.855
1687734238.914,-50.781,-21.484,-29.785,-41.504,242.188
1687734238.918,-93.750,-22.949,-30.762,-52.734,83.008
1687734238.935,-63.477,-26.367,-33.203,-56.641,-139.648
1687734238.939,-3.906,-28.320,-35.156,-51.270,-108.887
1687734238.943,-5.859,-25.879,-36.621,-53.711,-169.922
1687734238.947,-50.293,-24.902,-36.133,-62.988,-128.418
1687734238.951,-94.238,-25.879,-38.574,-65.918,-77.637
1687734238.955,-62.012,-25.391,-38.574,-55.664,42.480
1687734238.959,-3.418,-28.320,-38.086,-58.105,5.859
1687734238.962,-0.488,-26.855,-35.645,-61.523,-148.926
1687734238.966,-40.527,-24.902,-33.203,-60.059,-73.242
1687734238.970,-90.332,-30.762,-35.645,-60.547,327.637
1687734238.974,-69.336,-30.762,-38.086,-53.711,222.656
1687734238.978,-9.277,-28.320,-40.527,-51.758,-123.047
1687734238.980,-7.324,-29.785,-39.551,-53.223,-153.320
1687734238.984,-43.457,-25.879,-40.527,-49.805,-162.598
1687734238.988,-98.633,-26.367,-40.527,-62.012,-121.582
1687734238.992,-99.121,-28.809,-40.039,-66.895,-139.648
1687734238.996,-33.203,-31.738,-42.969,-52.246,-169.434
1687734239.000,-11.719,-40.039,-37.109,-50.781,-53.711
1687734239.004,-40.039,-41.504,-33.203,-55.176,-68.848
1687734239.007,-88.379,-35.645,-31.250,-55.664,-28.320
1687734239.011,-91.309,-38.574,-29.297,-49.805,143.555
1687734239.015,-30.273,-39.551,-33.691,-37.109,350.098
1687734239.019,-5.371,-35.645,-34.180,-45.410,133.789
1687734239.023,-36.133,-35.645,-33.691,-62.988,-144.531
1687734239.026,-89.355,-32.715,-37.109,-72.754,1.465
1687734239.030,-97.656,-32.715,-40.039,-74.707,9.766
1687734239.034,-38.086,-33.691,-42.480,-71.289,-148.926
1687734239.038,7.324,-25.879,-41.016,-64.453,-194.824
1687734239.042,-3.906,-27.344,-37.109,-62.988,-99.121
1687734239.046,-51.758,-33.203,-39.551,-74.707,7.324
1687734239.050,-71.777,-33.203,-42.969,-82.031,-29.785
1687734239.053,-18.066,-32.227,-41.992,-69.824,-143.066
1687734239.057,21.484,-29.297,-35.645,-53.711,115.234
1687734239.061,-4.395,-30.273,-36.133,-53.223,99.609
1687734239.065,-55.664,-35.156,-34.180,-58.594,-145.996
1687734239.069,-87.891,-36.133,-34.668,-52.734,-166.016
1687734239.071,-41.016,-31.738,-40.039,-42.480,-112.793
1687734239.075,3.906,-32.227,-41.504,-40.527,-41.992
1687734239.079,-14.160,-38.574,-33.203,-47.363,-83.496
1687734239.083,-55.664,-38.086,-31.250,-54.199,-130.859
1687734239.087,-96.191,-33.203,-35.156,-60.059,-52.734
1687734239.091,-62.012,-34.180,-30.762,-51.758,-33.203
1687734239.095,-12.695,-39.551,-29.785,-42.480,-90.820
1687734239.098,-24.902,-40.039,-30.762,-43.945,5.371
1687734239.102,-62.988,-41.992,-30.762,-38.574,409.180
1687734239.106,-105.957,-41.504,-31.738,-44.922,298.340
1687734239.110,-75.684,-38.086,-34.180,-52.246,-91.797
1687734239.114,-9.277,-31.250,-34.180,-43.457,-110.840
1687734239.115,-14.648,-33.691,-33.203,-51.758,-89.355
1687734239.119,-60.059,-36.621,-35.645,-69.336,-140.137
1687734239.123,-106.934,-31.250,-37.598,-78.613,-106.445
1687734239.127,-83.008,-33.691,-41.992,-73.730,-69.824
1687734239.131,-23.926,-38.574,-43.945,-59.570,-100.098
1687734239.135,-20.996,-38.086,-42.969,-64.453,-29.785
1687734239.139,-62.012,-39.062,-41.992,-75.195,-9.766
1687734239.142,-108.398,-32.715,-36.621,-67.383,194.824
1687734239.146,-90.332,-29.297,-34.180,-60.059,270.508
1687734239.150,-28.320,-32.227,-35.156,-58.105,-44.922
1687734239.154,-17.090,-31.250,-35.645,-53.711,-102.051
1687734239.158,-51.758,-31.738,-33.691,-50.293,-70.801
1687734239.160,-100.586,-29.785,-31.250,-54.688,-138.184
1687734239.164,-100.098,-31.250,-33.203,-58.105,-175.293
1687734239.168,-36.133,-32.715,-33.203,-50.781,-180.664
1687734239.172,-14.160,-33.691,-26.855,-49.316,-130.371
1687734239.176,-41.992,-34.180,-24.414,-48.340,-115.234
1687734239.180,-89.844,-28.320,-23.926,-52.734,-101.074
1687734239.184,-97.168,-26.367,-20.508,-55.664,82.520
1687734239.187,-36.133,-29.785,-21.973,-44.922,432.617
1687734239.191,-8.789,-31.250,-23.438,-47.852,190.430
1687734239.195,-35.156,-29.785,-21.973,-56.641,-112.793
1687734239.199,-89.844,-33.691,-29.297,-64.453,-40.039
1687734239.203,-116.211,-39.062,-37.598,-65.918,27.832
1687734239.205,-52.246,-36.133,-31.738,-55.176,-100.586
1687734239.209,-9.277,-35.645,-31.738,-52.734,-183.105
1687734239.213,-29.297,-36.133,-31.250,-52.246,-106.934
1687734239.217,-75.195,-33.203,-30.273,-59.570,-79.590
1687734239.221,-103.516,-34.180,-34.180,-69.824,-144.531
1687734239.225,-54.199,-34.668,-30.273,-64.941,-47.363
1687734239.229,-4.883,-34.668,-27.832,-53.711,199.219
1687734239.232,-15.625,-32.715,-26.367,-51.270,125.000
1687734239.236,-58.105,-30.273,-22.461,-57.129,-123.047
1687734239.240,-96.191,-34.180,-25.391,-64.941,-63.477
1687734239.244,-56.641,-37.109,-27.832,-57.129,30.762
1687734239.248,-3.418,-38.574,-30.273,-54.688,-47.852
1687734239.250,-14.160,-34.668,-32.227,-57.129,-135.742
1687734239.254,-55.664,-31.738,-29.297,-54.199,-145.996
1687734239.258,-95.703,-36.133,-30.273,-61.035,-116.699
1687734239.262,-50.781,-31.738,-32.227,-52.734,-109.375
1687734239.266,8.301,-30.762,-29.785,-41.504,-147.949
1687734239.270,-3.418,-34.180,-24.902,-47.363,-25.879
1687734239.274,-41.016,-32.715,-19.043,-51.758,161.133
1687734239.277,-83.496,-33.203,-20.508,-56.152,89.355
1687734239.281,-59.570,-32.715,-24.902,-55.664,-25.391
1687734239.285,3.906,-28.809,-27.832,-47.852,-15.625
1687734239.289,3.418,-26.367,-30.273,-44.922,196.777
1687734239.293,-38.086,-25.391,-29.297,-54.199,17.578
1687734239.310,-81.055,-20.508,-26.367,-61.523,-217.773
1687734239.314,-58.105,-21.973,-22.461,-50.781,-21.484
1687734239.318,3.418,-23.438,-16.602,-37.598,-1.953
1687734239.322,3.906,-23.438,-20.996,-44.434,-193.848
1687734239.326,-40.527,-29.785,-25.391,-57.617,-136.230
1687734239.330,-97.168,-32.715,-25.391,-68.359,-23.926
1687734239.334,-84.961,-30.273,-25.879,-61.523,-39.062
1687734239.337,-28.320,-34.180,-31.738,-54.688,-112.793
1687734239.341,-22.461,-36.621,-30.273,-62.500,-127.930
1687734239.345,-48.340,-31.738,-23.438,-59.570,127.441
1687734239.349,-97.168,-24.902,-29.297,-63.477,-11.719
1687734239.353,-101.074,-21.484,-31.250,-62.012,-213.379
1687734239.355,-34.180,-26.855,-25.391,-49.805,-124.023
1687734239.359,-5.859,-28.809,-24.902,-46.875,-58.105
1687734239.363,-31.738,-25.391,-20.508,-49.316,-110.352
1687734239.367,-82.031,-30.762,-19.531,-54.199,-154.785
1687734239.371,-96.680,-37.598,-21.973,-53.711,-29.297
1687734239.375,-40.527,-40.527,-20.020,-41.992,186.035
1687734239.379,-7.812,-35.645,-17.578,-37.109,104.492
1687734239.382,-31.250,-31.250,-20.996,-47.363,-65.918
1687734239.386,-83.496,-31.250,-22.461,-57.129,64.453
1687734239.390,-102.539,-31.738,-21.973,-53.223,350.098
1687734239.394,-43.457,-32.715,-23.438,-47.852,138.184
1687734239.398,-4.883,-34.668,-27.832,-56.641,-118.652
1687734239.400,-23.926,-32.227,-28.809,-61.035,-63.965
1687734239.404,-69.336,-28.809,-26.367,-64.453,-75.195
1687734239.408,-91.797,-29.785,-29.785,-70.312,-161.133
1687734239.412,-47.852,-34.180,-29.785,-67.871,-77.148
1687734239.416,-3.418,-32.227,-32.227,-62.988,77.637
1687734239.420,-16.602,-26.367,-34.180,-66.895,-9.766
1687734239.424,-58.105,-27.344,-23.926,-64.941,-77.148
1687734239.427,-88.867,-28.809,-18.066,-62.012,-84.473
1687734239.431,-47.852,-28.320,-21.484,-52.246,72.266
1687734239.435,6.836,-22.949,-21.484,-43.457,-2.930
1687734239.439,-6.348,-24.902,-15.137,-48.828,-171.875
1687734239.443,-53.711,-33.203,-17.090,-59.082,-82.031
1687734239.445,-99.609,-35.156,-22.461,-65.430,-56.152
1687734239.449,-70.312,-31.250,-22.461,-67.871,-134.277
1687734239.453,-15.625,-30.762,-21.973,-60.547,-145.996
1687734239.457,-23.926,-34.180,-21.973,-60.059,-121.094
1687734239.461,-62.500,-33.203,-22.461,-67.383,-118.652
1687734239.465,-106.934,-35.156,-23.926,-74.707,-3.418
1687734239.469,-89.355,-34.180,-24.902,-70.312,-31.250
1687734239.472,-27.344,-29.297,-22.461,-64.453,51.270
1687734239.476,-27.832,-32.715,-24.902,-69.824,214.355
1687734239.480,-68.848,-36.621,-30.762,-77.637,-37.109
1687734239.484,-110.840,-34.180,-33.691,-85.449,-240.723
1687734239.488,-93.750,-37.598,-33.203,-75.195,-117.188
1687734239.490,-26.855,-40.039,-33.691,-53.223,159.668
1687734239.494,-18.066,-44.434,-35.645,-59.570,-57.617
1687734239.498,-55.176,-45.410,-34.180,-75.684,-231.934
1687734239.502,-94.727,-33.203,-28.809,-72.754,-88.379
1687734239.506,-85.449,-33.203,-27.832,-66.406,-105.957
1687734239.510,-21.973,-31.250,-30.762,-53.711,-153.320
1687734239.514,-1.953,-26.367,-28.809,-45.898,-75.684
1687734239.517,-28.809,-31.250,-27.832,-44.922,131.348
1687734239.521,-75.684,-35.645,-28.320,-48.828,174.805
1687734239.525,-81.055,-35.645,-22.949,-50.781,-91.309
1687734239.529,-11.719,-33.203,-21.973,-37.109,-114.258
1687734239.533,11.719,-36.621,-23.438,-37.109,35.156
1687734239.535,-24.902,-34.180,-25.391,-50.293,-97.656
1687734239.539,-76.172,-27.344,-27.344,-61.035,-175.293
1687734239.543,-92.285,-25.879,-28.320,-63.477,-131.836
1687734239.547,-32.227,-26.855,-29.297,-53.711,-107.910
1687734239.551,4.883,-23.438,-24.902,-49.805,-119.141
1687734239.555,-20.508,-27.344,-20.508,-53.223,-151.367
1687734239.559,-74.707,-31.250,-23.926,-60.547,-48.828
1687734239.562,-96.191,-28.320,-23.438,-63.477,156.250
1687734239.566,-39.062,-31.738,-20.020,-54.688,-1.953
1687734239.570,-1.953,-30.273,-23.926,-51.270,-166.992
1687734239.574,-26.367,-28.809,-21.484,-55.664,33.203
1687734239.578,-71.777,-32.227,-20.508,-56.152,315.430
1687734239.580,-107.422,-34.668,-28.320,-68.848,86.914
1687734239.584,-59.082,-35.156,-29.297,-70.312,-159.668
1687734239.588,-3.906,-34.668,-26.855,-60.059,-136.719
1687734239.592,-18.555,-31.738,-25.391,-63.965,-189.453
1687734239.596,-63.477,-31.250,-24.902,-73.730,-199.707
1687734239.600,-105.957,-37.109,-27.344,-75.684,-81.055
1687734239.604,-66.895,-36.621,-26.367,-60.059,181.152
1687734239.607,-5.371,-34.180,-29.297,-46.875,78.125
1687734239.611,-15.137,-38.086,-26.367,-49.805,-218.262
1687734239.615,-65.430,-39.062,-21.484,-59.570,-172.363
1687734239.619,-116.211,-40.527,-26.855,-68.359,-129.883
1687734239.623,-77.637,-36.133,-23.438,-57.617,-165.039
1687734239.626,-9.277,-28.320,-19.531,-49.316,-124.512
1687734239.630,-11.230,-26.855,-22.461,-52.246,-17.090
1687734239.634,-54.688,-33.691,-19.043,-53.223,19.531
1687734239.638,-101.562,-38.574,-18.066,-58.594,-39.062
1687734239.642,-80.566,-39.062,-17.090,-56.641,-71.289
1687734239.646,-17.090,-39.551,-16.602,-49.805,27.344
1687734239.650,-13.672,-35.645,-19.043,-53.223,99.609
1687734239.653,-58.594,-30.762,-20.020,-60.059,9.766
1687734239.657,-107.910,-31.250,-17.090,-64.941,-86.426
1687734239.661,-93.750,-33.203,-20.508,-57.617,-54.688
1687734239.665,-34.668,-40.527,-29.297,-47.363,211.914
1687734239.669,-25.879,-44.434,-27.832,-52.734,38.086
1687734239.700,-54.688,-39.062,-24.414,-59.082,-103.516
1687734239.704,-103.516,-39.062,-21.973,-62.500,-36.133
1687734239.708,-105.957,-39.062,-28.320,-63.477,-14.160
1687734239.712,-42.969,-38.574,-30.273,-58.594,-3.418
1687734239.716,-20.020,-38.086,-27.832,-59.082,-100.098
1687734239.720,-43.945,-28.320,-29.297,-53.711,235.840
1687734239.724,-100.098,-30.273,-35.645,-62.988,318.359
1687734239.727,-110.840,-38.086,-41.504,-70.312,-112.793
1687734239.731,-42.969,-39.062,-37.109,-56.152,-99.609
1687734239.735,-16.602,-38.086,-37.598,-51.758,56.152
1687734239.739,-46.387,-37.598,-39.062,-57.129,-37.598
1687734239.743,-96.191,-33.203,-33.691,-70.801,-147.949
1687734239.748,-109.863,-29.785,-29.785,-73.242,-143.555
1687734239.752,-50.781,-31.738,-28.809,-66.406,-115.723
1687734239.756,-12.695,-30.762,-32.715,-70.312,-122.070
1687734239.760,-30.273,-31.250,-31.250,-69.824,-167.969
1687734239.764,-70.312,-31.738,-32.715,-68.848,-161.621
1687734239.768,-85.938,-32.227,-38.086,-70.312,-7.812
1687734239.772,-38.086,-33.203,-41.504,-64.453,-38.086
1687734239.775,10.742,-30.762,-41.992,-62.012,-140.625
1687734239.779,0.977,-29.297,-41.992,-69.824,-23.438
1687734239.783,-52.734,-28.809,-41.504,-73.730,-34.180
1687734239.787,-93.750,-28.320,-37.598,-69.336,-93.262
1687734239.791,-54.199,-33.691,-33.691,-62.500,-82.520
1687734239.775,-9.766,-36.621,-33.203,-55.176,60.059
1687734239.779,-28.320,-31.738,-35.156,-54.688,271.973
1687734239.783,-75.195,-33.203,-29.297,-66.406,-11.230
1687734239.787,-117.676,-38.574,-29.297,-75.684,-148.926
1687734239.791,-81.543,-36.133,-34.668,-76.660,-15.137
1687734239.795,-27.832,-35.156,-33.691,-67.871,33.203
1687734239.799,-35.156,-38.086,-37.598,-67.383,-0.488
1687734239.802,-73.730,-37.598,-39.062,-76.172,-38.574
1687734239.806,-121.582,-37.109,-33.691,-73.730,123.535
1687734239.810,-97.656,-37.598,-33.691,-67.871,13.184
1687734239.814,-34.668,-40.527,-36.133,-66.895,-112.793
1687734239.818,-22.461,-37.598,-33.691,-64.941,-102.539
1687734239.820,-59.082,-32.715,-33.203,-67.383,127.441
1687734239.824,-111.328,-32.715,-25.879,-73.242,241.699
1687734239.828,-90.820,-33.203,-20.020,-64.453,-65.918
1687734239.832,-26.367,-37.109,-26.367,-48.828,-89.355
1687734239.836,-22.461,-42.480,-31.250,-44.922,156.250
1687734239.840,-55.176,-40.527,-30.273,-49.316,54.688
1687734239.844,-100.098,-42.969,-30.762,-54.199,-135.742
1687734239.847,-97.656,-46.387,-32.227,-50.781,-19.531
1687734239.851,-29.297,-39.062,-27.832,-40.039,167.480
1687734239.855,-6.348,-33.691,-26.367,-42.969,-4.395
1687734239.859,-40.039,-35.645,-29.785,-52.246,-80.078
1687734239.863,-93.750,-37.598,-33.691,-59.570,30.273
1687734239.896,-94.238,-32.715,-33.691,-52.246,181.641
1687734239.900,-31.738,-30.762,-36.621,-53.711,-79.102
1687734239.904,-12.695,-34.668,-41.992,-63.965,-160.156
1687734239.908,-39.551,-33.203,-37.598,-66.406,-45.898
1687734239.912,-86.426,-25.879,-31.250,-72.266,-128.906
1687734239.916,-95.215,-25.391,-30.762,-73.730,-111.328
1687734239.920,-38.086,-28.809,-32.227,-75.684,-79.590
1687734239.923,-5.859,-30.762,-35.645,-75.684,71.777
1687734239.927,-34.668,-34.180,-37.598,-81.055,107.422
1687734239.931,-85.938,-36.133,-39.062,-93.750,-136.719
1687734239.935,-104.004,-30.762,-40.039,-94.238,-204.590
1687734239.939,-39.551,-26.367,-35.645,-72.754,-75.684
1687734239.925,2.930,-28.809,-35.156,-58.594,33.203
1687734239.929,-28.809,-34.668,-34.668,-62.012,-70.801
1687734239.933,-75.684,-37.109,-32.227,-62.012,-108.887
1687734239.937,-105.957,-30.273,-33.203,-57.617,-8.789
1687734239.941,-65.430,-27.344,-31.250,-57.129,-20.508
1687734239.945,-15.137,-34.180,-27.832,-54.688,-24.902
1687734239.949,-24.414,-38.086,-23.926,-55.664,50.293
1687734239.952,-70.801,-36.621,-23.438,-61.035,274.414
1687734239.956,-110.352,-35.645,-25.879,-71.289,12.695
1687734239.960,-71.777,-36.621,-25.879,-66.406,-195.312
1687734239.964,-22.461,-38.574,-29.297,-55.176,-22.461
1687734239.968,-30.273,-40.039,-30.762,-54.688,-54.199
1687734239.956,-65.918,-40.039,-31.250,-57.617,-188.477
1687734239.960,-108.887,-38.574,-31.250,-64.453,-162.109
1687734239.964,-81.543,-33.691,-33.691,-65.430,-47.852
1687734239.968,-18.555,-29.785,-33.691,-64.941,-28.809
1687734239.972,-21.484,-29.785,-33.691,-78.125,-160.156
1687734239.976,-62.012,-34.180,-31.738,-81.055,-110.352
1687734239.980,-101.562,-33.203,-28.809,-78.125,131.348
1687734239.983,-77.637,-27.832,-30.762,-75.195,44.922
1687734239.987,-12.207,-24.902,-28.809,-68.359,-177.734
1687734239.991,-1.465,-28.320,-27.832,-63.477,-138.672
1687734239.995,-36.621,-31.250,-28.320,-59.082,157.227
1687734239.999,-86.914,-34.180,-24.414,-65.918,109.863
1687734240.000,-74.707,-34.180,-22.949,-59.082,-169.922
1687734240.004,-11.230,-31.738,-24.902,-52.734,-119.141
1687734240.008,2.930,-31.250,-21.484,-48.340,-78.613
1687734240.012,-31.738,-32.227,-19.531,-47.852,-137.207
1687734240.016,-85.449,-29.297,-18.066,-57.129,-158.203
1687734240.020,-81.543,-33.203,-17.578,-48.340,-18.066
1687734240.024,-21.484,-35.156,-16.602,-38.086,89.355
1687734240.027,-3.418,-32.227,-19.043,-40.527,-14.160
1687734240.031,-35.156,-34.180,-22.461,-45.410,-62.500
1687734240.035,-87.891,-38.574,-25.391,-51.758,-43.457
1687734240.039,-93.262,-36.621,-23.926,-41.016,191.895
1687734240.043,-34.668,-40.527,-25.391,-48.828,-5.371
1687734240.060,-6.836,-34.180,-23.926,-53.711,-209.961
1687734240.064,-32.715,-26.367,-21.484,-49.805,-68.848
1687734240.068,-86.426,-24.902,-26.855,-62.012,-99.609
1687734240.072,-102.051,-26.855,-26.855,-64.453,-227.051
1687734240.076,-45.410,-33.691,-25.391,-59.570,-144.043
1687734240.080,-17.090,-33.203,-30.273,-59.082,34.180
1687734240.084,-48.828,-31.250,-30.273,-69.824,68.359
1687734240.087,-94.727,-31.738,-29.297,-78.613,-24.414
1687734240.091,-124.512,-30.762,-27.344,-77.148,-62.988
1687734240.095,-76.172,-26.855,-24.414,-62.500,135.742
1687734240.099,-24.414,-26.367,-23.926,-47.363,41.016
1687734240.103,-36.133,-28.809,-24.414,-50.293,-189.453
1687734240.105,-75.684,-31.738,-20.508,-56.152,-107.422
1687734240.109,-108.887,-29.297,-20.508,-52.246,128.418
1687734240.113,-67.383,-29.785,-30.762,-51.270,2.930
1687734240.117,-9.277,-34.668,-29.297,-50.781,-208.496
1687734240.121,-19.043,-35.156,-27.832,-47.852,-200.195
1687734240.125,-70.312,-40.527,-28.320,-56.641,-64.941
1687734240.129,-116.211,-41.504,-27.832,-61.035,-40.527
1687734240.132,-81.055,-32.227,-31.250,-57.617,-104.492
1687734240.136,-24.414,-32.227,-34.180,-59.570,-30.273
1687734240.140,-32.715,-38.574,-33.203,-51.758,295.898
1687734240.144,-72.266,-41.992,-32.227,-57.129,197.266
1687734240.148,-111.816,-37.598,-29.785,-71.289,-152.832
1687734240.150,-85.938,-36.621,-31.250,-66.406,-118.652
1687734240.154,-25.879,-40.527,-35.645,-59.082,-96.680
1687734240.158,-22.461,-37.109,-36.133,-57.129,-229.004
1687734240.162,-58.105,-32.715,-29.297,-63.477,-258.301
1687734240.166,-104.980,-35.645,-26.855,-65.918,-140.625
1687734240.170,-85.938,-38.574,-27.832,-62.012,0.977
1687734240.174,-20.020,-38.086,-27.344,-60.059,20.020
1687734240.177,-12.695,-34.668,-23.438,-58.594,-35.645
1687734240.181,-47.852,-27.832,-22.461,-56.152,123.535
1687734240.185,-96.191,-28.320,-30.762,-61.523,34.180
1687734240.189,-86.914,-36.621,-31.738,-62.012,-154.297
1687734240.193,-25.879,-39.062,-29.785,-51.270,-91.309
1687734240.196,-8.789,-39.062,-24.902,-45.410,-53.223
1687734240.200,-39.551,-36.621,-19.531,-50.293,-145.020
1687734240.204,-95.703,-34.668,-20.996,-62.012,-199.707
1687734240.208,-102.051,-40.527,-19.043,-59.570,-170.898
1687734240.212,-43.457,-43.945,-18.066,-47.852,-116.211
1687734240.216,-18.555,-36.621,-24.414,-45.898,-44.922
1687734240.220,-42.480,-32.227,-25.879,-47.852,-95.215
1687734240.223,-90.820,-37.109,-23.926,-54.688,14.648
1687734240.227,-104.492,-40.039,-21.973,-54.688,138.184
1687734240.231,-48.340,-36.133,-19.531,-41.016,-33.691
1687734240.235,-13.672,-36.133,-20.020,-37.109,-164.551
1687734240.239,-28.809,-39.551,-22.461,-41.504,-4.395
1687734240.241,-76.660,-41.016,-21.484,-43.457,250.000
1687734240.245,-98.633,-41.016,-20.020,-50.293,-41.504
1687734240.249,-39.551,-33.691,-22.461,-45.898,-79.102
1687734240.253,5.859,-29.785,-24.414,-41.992,20.020
1687734240.257,-23.926,-35.645,-31.250,-53.711,-87.402
1687734240.261,-75.195,-37.109,-30.273,-59.082,-98.145
1687734240.265,-100.586,-39.062,-25.391,-57.129,-18.066
1687734240.268,-51.270,-38.574,-23.438,-42.969,116.699
1687734240.272,1.953,-35.156,-18.066,-35.645,-80.078
1687734240.276,-9.277,-32.227,-20.508,-43.945,-266.113
1687734240.280,-53.711,-29.297,-23.926,-48.340,-144.043
1687734240.284,-93.750,-26.855,-21.484,-51.758,102.539
1687734240.285,-54.688,-33.691,-26.855,-51.758,24.414
1687734240.289,3.418,-30.273,-32.227,-49.316,-93.750
1687734240.293,-8.789,-23.438,-28.320,-56.641,-81.543
1687734240.297,-57.129,-31.250,-28.320,-63.477,-121.582
1687734240.301,-96.191,-38.086,-32.227,-67.871,-80.078
1687734240.305,-67.383,-36.621,-32.715,-66.895,-62.500
1687734240.309,-6.836,-34.668,-28.809,-55.176,12.695
1687734240.312,-9.766,-37.109,-28.320,-49.805,331.055
1687734240.316,-54.688,-38.574,-31.250,-56.641,172.363
1687734240.320,-102.539,-37.598,-31.250,-72.266,-186.523
1687734240.324,-82.031,-34.668,-31.738,-65.918,-25.879
1687734240.328,-17.578,-36.133,-33.691,-54.688,145.508
1687734240.330,-16.113,-44.434,-36.133,-61.035,-119.141
1687734240.334,-55.664,-46.387,-35.645,-63.477,-179.688
1687734240.338,-98.633,-38.086,-36.133,-63.477,-16.113
1687734240.342,-80.078,-35.156,-33.691,-62.500,-84.473
1687734240.346,-25.879,-38.574,-38.574,-59.082,-188.965
1687734240.350,-19.531,-41.016,-39.551,-55.176,-48.828
1687734240.354,-44.922,-41.992,-32.715,-53.711,203.125
1687734240.357,-96.680,-39.551,-33.203,-60.547,190.430
1687734240.361,-98.633,-36.621,-37.109,-65.430,-91.309
1687734240.365,-36.133,-37.109,-41.504,-52.734,-147.461
1687734240.369,-15.625,-39.551,-40.527,-46.875,86.914
1687734240.373,-42.480,-35.645,-35.645,-53.223,14.648
1687734240.375,-94.238,-40.039,-35.645,-65.430,-155.762
1687734240.379,-103.516,-42.480,-36.133,-68.359,-152.344
1687734240.383,-37.598,-34.668,-35.645,-60.059,-123.047
1687734240.387,-12.695,-32.227,-34.180,-60.547,-113.281
1687734240.391,-41.016,-38.086,-34.668,-65.430,-173.828
1687734240.395,-86.426,-42.480,-37.598,-65.918,34.180
1687734240.399,-104.492,-37.109,-37.109,-66.406,206.543
1687734240.402,-48.828,-43.457,-39.551,-62.988,74.219
1687734240.406,-7.812,-48.828,-41.504,-59.570,-85.938
1687734240.410,-30.273,-41.504,-42.480,-63.477,0.000
1687734240.414,-77.148,-36.621,-35.156,-60.059,293.945
1687734240.418,-96.191,-41.016,-33.203,-57.617,30.273
1687734240.435,-53.223,-39.551,-36.621,-59.082,-139.648
1687734240.439,-19.531,-37.109,-36.133,-55.176,-44.434
1687734240.443,-40.039,-40.527,-35.156,-57.617,-130.859
1687734240.447,-87.402,-40.527,-35.645,-64.941,-201.172
1687734240.451,-119.629,-37.598,-38.086,-65.430,-111.328
1687734240.455,-77.637,-37.109,-37.109,-58.594,16.602
1687734240.459,-24.414,-36.133,-34.180,-52.246,-25.391
1687734240.462,-26.855,-32.715,-29.785,-53.711,-142.090
1687734240.466,-67.383,-37.598,-36.621,-62.012,-113.770
1687734240.470,-102.051,-38.574,-40.527,-59.570,131.348
1687734240.474,-51.270,-34.668,-34.668,-50.781,49.316
1687734240.478,6.836,-36.621,-37.109,-54.199,-115.234
1687734240.480,0.488,-37.109,-42.480,-62.500,-84.473
1687734240.484,-26.855,-32.715,-41.504,-69.336,-7.812
1687734240.488,-62.500,-29.785,-41.016,-73.730,-81.055
1687734240.492,-33.691,-30.762,-42.969,-61.523,-174.805
1687734240.496,20.508,-33.691,-37.109,-47.852,-93.750
1687734240.500,2.930,-35.156,-29.297,-52.246,-28.809
1687734240.504,-42.969,-32.227,-32.227,-60.059,-18.066
1687734240.507,-101.562,-37.109,-40.527,-72.754,-57.617
1687734240.511,-92.773,-37.109,-38.574,-66.895,-79.102
1687734240.515,-30.273,-36.133,-36.133,-49.805,159.180
1687734240.519,-30.762,-42.969,-41.504,-61.523,29.785
1687734240.523,-69.336,-39.551,-43.457,-75.195,-223.145
1687734240.526,-120.117,-37.109,-44.922,-77.637,-100.098
1687734240.530,-108.398,-37.109,-40.039,-68.359,-60.547
1687734240.534,-39.551,-35.156,-37.598,-54.688,-150.879
1687734240.538,-26.855,-32.715,-30.273,-56.641,-164.062
1687734240.542,-63.965,-33.691,-27.832,-61.035,34.668
1687734240.546,-106.934,-32.227,-33.691,-60.059,85.449
1687734240.550,-104.004,-31.738,-31.250,-52.734,66.895
1687734240.553,-51.270,-37.598,-32.227,-46.387,82.031
1687734240.557,-24.902,-35.645,-35.156,-37.598,149.414
1687734240.561,-46.387,-30.273,-34.668,-32.227,92.773
1687734240.565,-93.262,-30.762,-31.738,-41.016,-102.051
1687734240.569,-100.098,-32.715,-30.762,-43.945,-50.781
1687734240.570,-38.086,-36.621,-29.297,-36.133,112.793
1687734240.574,-6.836,-34.668,-27.832,-39.551,-15.137
1687734240.578,-36.133,-34.180,-29.785,-48.340,-164.062
1687734240.582,-87.402,-36.621,-26.855,-58.105,-136.719
1687734240.586,-104.492,-32.227,-24.902,-62.012,-52.734
1687734240.590,-47.852,-31.738,-30.762,-57.129,-18.555
1687734240.594,-1.465,-30.273,-28.320,-51.270,16.602
1687734240.597,-19.531,-26.855,-31.250,-52.734,62.988
1687734240.601,-72.266,-30.762,-40.527,-56.641,293.457
1687734240.605,-103.027,-33.203,-41.504,-64.453,101.074
1687734240.609,-57.129,-40.039,-45.898,-63.965,-165.527
1687734240.613,-11.230,-44.922,-46.875,-56.152,-0.977
1687734240.615,-26.367,-38.574,-41.992,-56.152,66.895
1687734240.619,-70.312,-37.598,-38.086,-58.594,-170.410
1687734240.623,-110.352,-39.062,-36.133,-53.711,-163.086
1687734240.627,-73.242,-35.645,-34.180,-44.922,-41.504
1687734240.631,-14.160,-36.621,-30.762,-40.039,-63.477
1687734240.635,-23.926,-36.133,-33.691,-46.875,-80.566
1687734240.639,-70.312,-30.762,-37.109,-56.152,-53.223
1687734240.642,-111.816,-31.250,-29.785,-52.246,166.016
1687734240.646,-68.848,-29.785,-24.902,-43.945,115.234
1687734240.650,-1.465,-30.273,-30.762,-40.039,-121.094
1687734240.654,-5.371,-29.297,-30.273,-37.109,-152.344
1687734240.658,-46.387,-27.344,-30.273,-37.598,56.152
1687734240.660,-92.285,-31.738,-30.762,-47.363,-31.250
1687734240.664,-70.312,-36.133,-30.273,-51.758,-242.676
1687734240.668,-10.254,-38.574,-31.250,-46.387,-196.289
1687734240.672,-6.836,-38.574,-31.250,-46.875,-127.930
1687734240.676,-45.410,-34.668,-27.832,-56.152,-74.219
1687734240.680,-97.168,-36.621,-27.832,-69.824,-61.035
1687734240.684,-79.102,-40.039,-28.809,-63.965,90.332
1687734240.687,-8.789,-36.621,-27.344,-45.898,367.188
1687734240.691,2.930,-37.109,-29.785,-51.270,121.094
1687734240.695,-35.156,-39.551,-32.715,-64.941,-198.242
1687734240.699,-86.426,-37.598,-32.715,-64.941,-121.582
1687734240.703,-73.242,-34.180,-30.273,-56.152,107.910
1687734240.705,-6.836,-33.203,-32.715,-49.805,-114.258
1687734240.709,3.906,-33.203,-31.250,-53.223,-219.238
1687734240.713,-31.738,-26.855,-28.809,-59.082,-73.242
1687734240.717,-81.055,-22.461,-29.297,-67.383,-148.438
1687734240.721,-83.984,-26.367,-31.250,-67.871,-161.621
1687734240.725,-18.066,-30.762,-30.273,-57.617,-75.195
1687734240.729,6.836,-25.879,-28.320,-47.363,120.605
1687734240.732,-31.738,-21.973,-31.250,-51.758,14.648
1687734240.736,-87.402,-28.809,-30.762,-62.988,-142.090
1687734240.740,-101.562,-32.715,-32.715,-56.641,-64.941
1687734240.744,-42.480,-33.691,-36.133,-50.293,29.297
1687734240.748,-9.766,-35.645,-32.227,-48.340,75.684
1687734240.751,-36.133,-30.762,-31.738,-45.410,-93.262
1687734240.755,-81.543,-32.715,-29.785,-49.805,-143.066
1687734240.759,-99.609,-32.227,-26.367,-41.992,-0.977
1687734240.763,-39.551,-27.344,-20.020,-30.273,-29.785
1687734240.767,6.348,-31.738,-18.555,-25.391,-83.984
1687734240.771,-14.160,-35.156,-20.996,-27.832,0.488
1687734240.775,-63.965,-36.133,-25.879,-39.551,150.879
1687734240.778,-93.262,-32.227,-29.297,-48.828,31.250
1687734240.782,-41.504,-28.809,-29.297,-43.457,-130.371
1687734240.786,6.836,-31.738,-30.762,-39.062,-15.625
1687734240.790,-9.766,-31.250,-28.809,-38.086,114.746
1687734240.794,-50.293,-33.203,-27.832,-49.805,-155.273
1687734240.810,-91.309,-37.109,-32.715,-62.500,-160.156
1687734240.814,-55.664,-35.156,-32.715,-52.734,23.438
1687734240.818,-0.488,-41.016,-30.762,-42.969,-119.629
1687734240.822,-3.906,-38.574,-29.785,-35.645,-178.223
1687734240.826,-47.852,-32.227,-34.180,-44.434,-215.820
1687734240.830,-97.656,-34.668,-36.621,-56.152,30.273
1687734240.834,-69.824,-32.715,-30.273,-45.410,162.598
1687734240.837,-16.113,-26.367,-25.879,-39.551,-190.918
1687734240.841,-19.043,-26.855,-28.320,-41.504,-154.785
1687734240.845,-55.664,-26.367,-30.762,-41.016,44.434
1687734240.849,-103.027,-29.297,-33.691,-48.340,-32.227
1687734240.853,-81.543,-34.180,-38.086,-47.852,-79.590
1687734240.855,-10.742,-31.738,-34.180,-35.645,-17.090
1687734240.859,-1.465,-24.414,-29.785,-34.180,5.371
1687734240.863,-31.738,-23.926,-30.762,-42.969,-113.281
1687734240.867,-76.172,-28.320,-33.203,-47.363,-93.750
1687734240.871,-72.754,-32.715,-34.668,-48.340,20.020
1687734240.875,-6.348,-34.180,-32.715,-38.574,28.320
1687734240.879,12.207,-30.273,-29.785,-36.621,6.348
1687734240.882,-19.531,-32.715,-36.133,-48.340,-61.523
1687734240.886,-71.777,-32.715,-34.180,-53.711,-50.781
1687734240.890,-78.613,-35.156,-33.691,-41.504,271.484
1687734240.894,-16.602,-38.574,-31.738,-28.809,146.973
1687734240.898,4.395,-37.598,-21.484,-31.250,-166.504
1687734240.900,-36.133,-42.480,-22.949,-46.387,-153.320
1687734240.904,-92.285,-43.457,-28.809,-59.570,-105.469
1687734240.908,-103.027,-39.551,-29.297,-59.570,-149.902
1687734240.912,-48.340,-40.527,-30.273,-48.340,-124.512
1687734240.916,-23.926,-38.574,-30.273,-46.387,-55.664
1687734240.920,-60.547,-37.598,-27.832,-45.898,-41.504
1687734240.924,-108.398,-39.551,-25.879,-49.316,48.828
1687734240.927,-123.047,-43.945,-33.691,-55.664,23.926
1687734240.931,-67.383,-44.434,-36.621,-43.945,166.992
1687734240.935,-23.926,-39.551,-26.367,-32.715,263.184
1687734240.939,-41.504,-37.598,-28.320,-44.922,-69.824
1687734240.943,-87.402,-38.574,-37.598,-57.129,-182.617
1687734240.945,-103.516,-42.969,-29.297,-56.152,-136.230
1687734240.949,-47.363,-40.527,-28.320,-51.758,-113.281
1687734240.953,3.418,-30.762,-31.250,-45.410,-119.629
1687734240.957,-4.395,-28.320,-28.809,-44.434,-149.902
1687734240.961,-54.199,-36.133,-30.762,-57.617,-136.719
1687734240.965,-89.355,-36.621,-31.250,-65.430,-7.324
1687734240.969,-44.434,-32.715,-34.668,-57.129,39.062
1687734240.972,5.859,-32.715,-32.715,-51.758,17.578
1687734240.976,-5.371,-33.691,-33.203,-48.828,404.785
1687734240.980,-48.340,-31.738,-36.133,-55.176,373.535
1687734240.984,-86.914,-27.344,-33.691,-66.895,-46.875
1687734240.988,-58.594,-27.832,-32.227,-60.059,-66.895
1687734240.990,-12.207,-29.297,-35.645,-55.176,-75.684
1687734240.994,-16.602,-27.344,-31.250,-53.223,-206.055
1687734240.998,-57.617,-29.785,-28.809,-53.711,-150.391
1687734241.002,-113.770,-33.203,-33.203,-64.453,-62.988
1687734241.006,-94.727,-34.668,-36.133,-64.941,-134.277
1687734241.010,-34.668,-35.645,-37.598,-55.664,-48.828
1687734241.014,-29.785,-31.738,-37.109,-52.246,-20.996
1687734241.017,-62.500,-29.297,-34.668,-53.711,170.410
1687734241.021,-109.863,-32.227,-34.668,-62.500,159.668
1687734241.025,-87.402,-30.762,-33.691,-62.012,-128.906
1687734241.029,-17.090,-35.156,-31.738,-49.316,-29.297
1687734241.033,-4.395,-37.109,-33.203,-45.410,125.488
1687734241.035,-28.320,-29.785,-31.250,-46.387,-121.582
1687734241.039,-74.707,-30.273,-26.855,-52.246,-235.840
1687734241.043,-66.406,-29.785,-26.855,-51.758,-175.781
1687734241.047,0.488,-28.320,-30.273,-39.062,-129.883
1687734241.051,13.184,-35.156,-30.273,-36.133,-83.984
1687734241.055,-24.414,-40.527,-26.855,-48.340,-84.473
1687734241.059,-77.637,-36.621,-28.809,-59.570,64.453
1687734241.062,-81.055,-34.668,-34.180,-53.711,422.363
1687734241.066,-23.926,-41.016,-32.715,-46.387,190.918
1687734241.070,-5.371,-41.504,-27.832,-44.922,-134.277
1687734241.074,-37.109,-43.457,-26.855,-42.480,-47.852
1687734241.078,-91.797,-45.410,-20.020,-45.410,-65.918
1687734241.081,-104.492,-39.062,-20.996,-47.852,-116.699
1687734241.085,-51.758,-35.645,-25.391,-42.480,-124.023
1687734241.089,-28.320,-38.086,-28.809,-46.387,-28.809
1687734241.093,-44.922,-36.133,-23.438,-49.805,-47.852
1687734241.097,-95.703,-41.016,-24.902,-60.059,-155.273
1687734241.101,-119.629,-41.504,-31.250,-65.430,-46.875
1687734241.105,-58.594,-40.527,-28.809,-49.805,214.844
1687734241.108,-19.043,-42.969,-29.297,-40.039,152.832
1687734241.112,-38.086,-40.527,-27.344,-48.828,-106.934
1687734241.116,-79.590,-37.109,-27.344,-56.641,-140.137
1687734241.120,-104.980,-32.227,-28.809,-57.617,-110.352
1687734241.124,-55.176,-35.645,-30.273,-52.246,-121.094
1687734241.140,0.977,-41.504,-33.203,-43.945,-155.273
1687734241.144,-11.230,-41.504,-35.645,-48.340,-146.973
1687734241.148,-58.594,-35.156,-36.621,-50.781,-128.906
1687734241.152,-96.680,-33.203,-34.668,-57.129,-58.105
1687734241.156,-56.152,-35.156,-34.180,-54.688,-107.910
1687734241.160,-4.395,-38.574,-39.062,-45.410,-4.883
1687734241.164,-23.438,-45.898,-41.504,-40.039,354.492
1687734241.167,-70.801,-45.898,-38.086,-46.387,129.395
1687734241.171,-115.723,-45.410,-37.598,-61.523,-179.688
1687734241.175,-87.402,-51.758,-37.109,-52.734,-116.699
1687734241.179,-28.809,-48.828,-37.598,-41.016,20.020
1687734241.183,-33.691,-44.434,-41.504,-50.293,-77.637
1687734241.185,-68.359,-42.969,-42.480,-56.641,-154.785
1687734241.189,-113.281,-44.922,-47.852,-65.918,-108.398
1687734241.193,-88.867,-40.527,-46.875,-67.383,-82.031
1687734241.197,-15.625,-36.133,-42.969,-57.617,-159.668
1687734241.201,-8.789,-35.645,-44.434,-57.129,-122.070
1687734241.205,-51.758,-32.715,-47.852,-64.453,59.570
1687734241.209,-101.562,-38.086,-52.734,-73.242,90.332
1687734241.212,-92.773,-40.527,-49.316,-69.336,10.254
1687734241.216,-26.367,-41.016,-46.387,-57.617,14.160
1687734241.220,-2.441,-40.527,-45.410,-49.805,181.152
1687734241.224,-29.785,-36.621,-42.480,-57.617,185.059
1687734241.228,-78.613,-36.133,-45.898,-71.777,-83.008
1687734241.230,-68.359,-35.156,-43.457,-63.965,-85.938
1687734241.234,3.906,-34.668,-41.504,-48.340,-37.598
1687734241.238,31.738,-35.156,-47.852,-47.852,-126.465
1687734241.242,8.789,-30.273,-44.434,-56.152,-131.836
1687734241.246,-39.551,-30.273,-41.016,-62.500,-130.371
1687734241.250,-52.246,-33.691,-44.434,-62.500,-27.344
1687734241.254,-4.395,-37.109,-45.410,-54.199,-30.762
1687734241.257,13.672,-32.227,-37.109,-55.176,-113.770
1687734241.261,-23.438,-31.250,-41.016,-62.500,-20.020
1687734241.265,-81.543,-36.133,-42.480,-61.523,293.457
1687734241.269,-98.633,-34.180,-39.551,-69.336,240.723
1687734241.273,-44.434,-34.180,-45.898,-69.824,-107.422
1687734241.275,-5.371,-36.133,-43.457,-58.594,-87.402
1687734241.279,-27.344,-40.039,-39.062,-58.594,-69.336
1687734241.283,-80.078,-41.992,-38.574,-66.406,-172.363
1687734241.287,-104.004,-39.062,-39.062,-62.500,-148.438
1687734241.291,-47.852,-42.969,-33.691,-45.898,-7.812
1687734241.295,-2.441,-47.852,-34.180,-33.203,60.059
1687734241.299,-30.273,-45.898,-38.574,-47.363,-3.418
1687734241.302,-86.914,-50.293,-37.598,-64.453,-56.152
1687734241.306,-123.047,-49.805,-34.180,-62.500,172.363
1687734241.310,-80.566,-41.016,-34.668,-59.570,154.785
1687734241.314,-27.344,-41.992,-35.156,-63.477,-90.820
1687734241.318,-38.574,-41.504,-34.668,-68.359,-74.219
1687734241.320,-83.496,-37.598,-31.250,-68.848,17.090
1687734241.324,-119.629,-40.527,-25.879,-64.941,-130.859
1687734241.328,-75.684,-43.945,-27.344,-57.129,-187.500
1687734241.332,-10.254,-44.922,-30.762,-48.340,-156.250
1687734241.336,-8.301,-40.039,-31.250,-46.387,-197.266
1687734241.340,-47.363,-37.598,-36.133,-49.805,-107.910
1687734241.344,-92.773,-37.109,-42.480,-49.316,-40.527
1687734241.347,-61.035,-32.715,-40.039,-32.715,27.344
1687734241.351,0.488,-31.738,-35.156,-15.625,264.160
1687734241.355,-8.789,-34.668,-36.133,-24.902,-6.836
1687734241.359,-45.898,-38.574,-36.621,-36.621,-231.445
1687734241.363,-92.285,-38.086,-39.062,-43.457,-36.133
1687734241.365,-71.777,-33.203,-36.133,-40.527,171.875
1687734241.369,-5.859,-35.156,-31.738,-33.691,-59.082
1687734241.373,-8.301,-44.922,-32.227,-41.992,-171.387
1687734241.377,-49.316,-46.387,-33.691,-56.152,-10.742
1687734241.381,-99.609,-37.109,-35.156,-63.477,-42.969
1687734241.385,-94.727,-35.645,-31.250,-58.594,-55.176
1687734241.389,-39.062,-43.457,-33.691,-62.988,3.906
1687734241.392,-30.273,-43.457,-41.016,-62.988,141.113
1687734241.396,-57.617,-41.992,-38.086,-61.035,116.699
1687734241.400,-111.816,-46.387,-36.621,-73.242,-140.625
1687734241.404,-114.746,-45.898,-31.738,-64.941,-166.504
1687734241.408,-43.457,-43.457,-27.832,-45.898,-108.398
1687734241.411,-19.531,-42.969,-31.738,-42.480,-128.906
1687734241.415,-43.945,-40.039,-30.273,-47.363,-208.496
1687734241.419,-87.891,-35.156,-29.297,-46.387,-125.488
1687734241.423,-98.145,-33.691,-35.156,-42.480,15.625
1687734241.427,-36.621,-37.109,-38.574,-40.527,-136.230
1687734241.431,1.953,-40.039,-34.180,-38.086,-171.875
1687734241.435,-16.113,-34.668,-31.738,-37.598,20.508
1687734241.438,-58.594,-31.250,-31.738,-37.109,326.172
1687734241.442,-82.520,-34.180,-36.133,-43.945,237.793
1687734241.446,-32.715,-32.227,-35.645,-43.457,-167.969
1687734241.450,14.160,-26.367,-34.180,-40.039,-96.680
1687734241.454,-6.348,-25.879,-33.691,-44.434,-29.785
1687734241.455,-59.082,-30.273,-29.297,-50.293,-146.484
1687734241.459,-88.379,-26.855,-21.973,-54.199,-129.395
1687734241.463,-44.434,-26.367,-24.414,-46.387,-104.980
1687734241.467,-1.953,-28.809,-27.832,-40.527,-117.188
1687734241.471,-19.043,-29.297,-25.391,-46.387,-145.996
1687734241.475,-67.383,-32.227,-22.461,-57.129,-97.168
1687734241.479,-105.957,-35.156,-22.461,-54.199,256.836
1687734241.482,-61.035,-34.668,-23.926,-43.945,249.023
1687734241.486,-1.953,-31.738,-22.461,-37.598,-141.113
1687734241.490,-18.066,-35.645,-26.855,-42.969,-171.387
1687734241.494,-67.383,-35.645,-33.203,-56.641,-62.988
1687734241.498,-106.934,-32.715,-30.762,-59.082,-171.875
1687734241.500,-68.359,-35.156,-28.809,-55.176,-236.328
1687734241.504,-12.207,-37.109,-31.738,-48.828,-161.133
1687734241.508,-11.230,-32.227,-33.203,-42.480,-83.496
1687734241.512,-50.293,-28.320,-32.227,-45.410,-104.492
1687734241.516,-94.238,-24.414,-25.879,-49.805,-156.250
1687734241.520,-66.406,-25.879,-29.785,-36.133,70.312
1687734241.524,-4.883,-27.344,-39.551,-25.879,262.207
1687734241.527,0.488,-25.879,-35.645,-25.391,25.391
1687734241.531,-36.621,-24.414,-30.273,-31.738,-120.605
1687734241.535,-82.520,-17.578,-28.320,-41.016,10.742
1687734241.539,-73.242,-21.484,-29.785,-33.203,273.926
1687734241.543,-14.648,-27.832,-29.297,-34.180,100.586
1687734241.560,-4.395,-23.926,-26.855,-43.457,-104.004
1687734241.564,-41.504,-23.438,-25.879,-50.293,-68.848
1687734241.568,-92.285,-26.367,-24.902,-54.199,-104.492
1687734241.572,-83.496,-29.297,-22.949,-46.875,-128.418
1687734241.576,-20.508,-32.715,-22.461,-35.645,-77.637
1687734241.580,0.488,-33.691,-20.020,-32.227,-9.277
1687734241.584,-26.855,-31.250,-21.973,-40.039,18.066
1687734241.587,-71.777,-25.879,-20.020,-44.922,-118.164
1687734241.591,-73.730,-24.902,-14.648,-36.621,-179.199
1687734241.595,-19.531,-29.297,-18.066,-26.367,111.816
1687734241.599,5.859,-33.203,-22.949,-32.715,77.637
1687734241.603,-20.508,-28.320,-24.414,-55.176,-170.898
1687734241.609,-80.078,-29.297,-28.320,-71.777,-127.930
1687734241.613,-99.609,-30.273,-31.250,-62.988,88.867
1687734241.617,-42.480,-28.809,-33.203,-57.617,-12.695
1687734241.621,-3.906,-31.738,-34.180,-59.082,-131.836
1687734241.625,-22.949,-33.203,-35.645,-59.570,-64.453
1687734241.629,-74.707,-37.109,-40.039,-66.895,-12.207
1687734241.633,-96.680,-32.715,-35.645,-68.848,-61.035
1687734241.636,-38.086,-26.367,-32.715,-54.199,-91.797
1687734241.640,8.301,-23.926,-30.762,-41.016,67.871
1687734241.644,-7.324,-20.508,-28.809,-41.016,117.188
