timestamps,TP9,AF7,AF8,TP10,Right AUX
1687734190.320,-28.320,-41.504,-41.992,-65.430,-169.434
1687734190.324,-84.961,-45.898,-45.898,-86.426,-160.645
1687734190.328,-108.398,-44.922,-44.434,-86.426,-123.047
1687734190.332,-48.828,-41.016,-43.945,-71.289,-14.648
1687734190.336,-7.324,-40.039,-46.387,-65.430,-117.188
1687734190.340,-29.297,-40.039,-41.992,-70.312,-104.004
1687734190.344,-75.684,-40.527,-41.504,-69.336,97.656
1687734190.347,-104.980,-40.039,-41.992,-60.547,260.742
1687734190.351,-57.617,-35.156,-36.621,-54.199,-7.324
1687734190.355,-5.371,-31.250,-32.715,-49.805,-210.938
1687734190.359,-15.137,-33.691,-32.227,-41.992,41.016
1687734190.363,-64.453,-36.133,-33.203,-41.504,34.668
1687734190.379,-104.492,-38.086,-38.086,-45.410,-128.418
1687734190.383,-59.570,-39.551,-42.969,-34.668,-105.469
1687734190.387,2.441,-35.156,-40.527,-28.809,-12.207
1687734190.391,-4.395,-36.133,-36.133,-37.598,-39.551
1687734190.395,-47.363,-37.598,-34.180,-45.898,-168.457
1687734190.399,-91.797,-35.156,-38.574,-48.340,-69.336
1687734190.403,-53.711,-33.691,-41.016,-37.598,249.512
1687734190.406,11.230,-32.227,-38.086,-34.668,147.949
1687734190.410,7.324,-31.250,-34.668,-41.504,-157.227
1687734190.414,-32.715,-31.738,-33.691,-42.480,-122.070
1687734190.418,-88.867,-33.203,-38.086,-49.316,-90.820
1687734190.422,-62.500,-30.762,-41.992,-52.734,-149.902
1687734190.424,0.977,-30.762,-43.945,-54.199,-205.566
1687734190.428,-4.883,-28.809,-46.387,-55.176,-156.738
1687734190.432,-41.504,-28.320,-41.992,-55.176,-78.125
1687734190.436,-88.867,-31.250,-40.039,-58.594,-84.961
1687734190.440,-67.871,-26.855,-41.504,-50.293,-55.664
1687734190.444,-6.348,-31.250,-41.504,-39.551,131.836
1687734190.448,-1.465,-38.574,-45.898,-43.945,111.816
1687734190.451,-34.180,-35.156,-42.480,-41.016,-29.297
1687734190.455,-84.473,-32.227,-38.086,-40.039,-12.695
1687734190.459,-83.496,-37.109,-41.992,-40.039,165.527
1687734190.463,-14.648,-36.621,-46.875,-27.344,316.895
1687734190.467,8.789,-36.621,-45.898,-28.320,39.551
1687734190.469,-27.344,-39.062,-41.992,-39.551,-109.375
1687734190.473,-74.219,-34.180,-43.945,-45.410,-28.320
1687734190.477,-78.613,-32.227,-46.875,-36.621,-93.262
1687734190.481,-21.973,-31.250,-47.852,-29.785,-150.391
1687734190.485,4.395,-30.273,-46.387,-37.109,-147.949
1687734190.489,-28.320,-29.297,-45.898,-42.480,-124.512
1687734190.493,-88.379,-32.715,-47.363,-49.316,-3.906
1687734190.496,-108.887,-37.598,-45.410,-57.617,12.695
1687734190.500,-46.387,-37.109,-41.992,-51.270,-59.082
1687734190.504,-1.953,-34.180,-41.016,-33.203,178.223
1687734190.508,-22.949,-33.203,-41.504,-28.809,61.035
1687734190.512,-76.172,-35.645,-41.992,-46.875,-202.148
1687734190.514,-101.562,-41.016,-43.457,-45.898,-121.094
1687734190.518,-45.410,-41.504,-41.016,-32.227,-94.727
1687734190.522,0.977,-38.086,-40.527,-27.832,-126.465
1687734190.526,-14.648,-37.598,-36.133,-27.344,-135.254
1687734190.530,-59.570,-39.062,-30.762,-28.809,-67.383
1687734190.534,-91.797,-40.527,-33.691,-27.344,-11.719
1687734190.538,-44.434,-41.504,-37.598,-19.043,-19.531
1687734190.541,8.301,-43.457,-39.551,-15.137,-23.438
1687734190.545,-1.953,-41.504,-34.668,-8.789,166.992
1687734190.549,-45.898,-40.039,-34.180,-10.254,369.141
1687734190.553,-84.473,-41.992,-36.133,-22.949,125.488
1687734190.557,-43.457,-40.039,-37.109,-9.766,-38.574
1687734190.559,17.578,-33.691,-31.738,7.324,-19.531
1687734190.563,8.789,-37.598,-32.715,-4.395,-156.250
1687734190.567,-23.926,-37.109,-39.062,-18.066,-217.285
1687734190.571,-54.199,-29.785,-36.621,-18.555,-173.340
1687734190.575,-19.043,-30.762,-35.645,-14.648,-80.078
1687734190.579,50.781,-27.832,-36.133,-8.789,-25.879
1687734190.583,47.852,-26.855,-37.598,-16.113,-44.922
1687734190.586,6.348,-28.809,-41.504,-26.367,6.836
1687734190.590,-36.133,-29.785,-42.480,-28.320,176.758
1687734190.594,-11.719,-27.832,-41.016,-26.855,-25.879
1687734190.598,56.152,-28.320,-41.504,-21.484,-248.535
1687734190.602,49.805,-34.668,-46.387,-27.344,-154.785
1687734190.604,1.465,-37.109,-45.898,-33.203,-52.734
1687734190.608,-60.059,-36.133,-38.086,-30.762,-147.461
1687734190.612,-61.035,-38.086,-37.109,-23.438,-231.934
1687734190.616,0.000,-40.527,-38.574,-10.254,-65.430
1687734190.620,13.672,-41.992,-38.574,-14.648,-18.555
1687734190.624,-31.250,-43.945,-41.992,-33.203,-91.309
1687734190.628,-88.867,-46.387,-41.992,-40.039,-6.348
1687734190.631,-83.496,-49.805,-42.969,-40.039,263.672
1687734190.635,-27.832,-50.293,-43.945,-35.156,458.008
1687734190.639,-14.648,-45.898,-41.504,-37.598,89.844
1687734190.643,-49.805,-41.016,-47.852,-47.363,-156.250
1687734190.647,-108.398,-38.086,-43.945,-53.711,-48.340
1687734190.650,-118.652,-34.668,-41.992,-44.434,-47.852
1687734190.654,-54.199,-33.203,-45.410,-40.527,-132.324
1687734190.658,-26.855,-36.621,-48.340,-45.410,-59.570
1687734190.662,-53.223,-38.086,-48.828,-40.527,74.707
1687734190.666,-101.562,-39.062,-53.223,-52.734,-41.992
1687734190.670,-112.305,-37.109,-56.152,-59.082,-127.930
1687734190.674,-53.223,-31.738,-54.199,-46.875,-46.387
1687734190.677,-8.789,-34.668,-56.641,-42.480,183.105
1687734190.681,-26.855,-37.109,-63.477,-57.617,11.719
1687734190.685,-77.637,-35.645,-58.594,-73.242,-187.012
1687734190.689,-102.051,-40.039,-54.688,-68.848,-135.254
1687734190.693,-57.617,-42.969,-62.012,-62.988,-123.535
1687734190.694,-13.184,-44.434,-63.965,-65.430,-141.602
1687734190.698,-23.926,-45.410,-63.965,-65.430,-116.211
1687734190.702,-76.172,-49.805,-72.266,-73.730,-50.293
1687734190.706,-116.699,-51.758,-74.707,-81.055,-88.867
1687734190.710,-63.965,-44.922,-66.406,-68.848,-55.664
1687734190.714,-8.789,-44.434,-68.848,-69.336,11.719
1687734190.718,-26.367,-44.434,-73.242,-76.172,180.176
1687734190.721,-68.848,-43.945,-66.895,-70.801,458.496
1687734190.725,-114.258,-44.922,-68.359,-79.590,94.727
1687734190.729,-80.566,-42.480,-71.289,-83.984,-168.457
1687734190.733,-17.090,-42.969,-67.383,-68.848,32.715
1687734190.737,-24.414,-41.016,-64.453,-70.801,-11.719
1687734190.739,-65.430,-36.621,-63.965,-80.078,-176.758
1687734190.743,-115.723,-41.016,-60.547,-79.102,-200.195
1687734190.747,-106.934,-40.039,-58.594,-65.430,-126.465
1687734190.751,-54.688,-37.598,-60.059,-61.035,-142.090
1687734190.755,-54.688,-41.504,-62.500,-64.453,-160.645
1687734190.759,-89.844,-41.016,-62.988,-59.570,-10.254
1687734190.763,-138.184,-41.504,-59.082,-63.965,228.516
1687734190.766,-121.582,-45.410,-63.965,-68.359,105.469
1687734190.770,-49.805,-42.969,-67.383,-63.965,-90.332
1687734190.774,-38.574,-41.504,-64.941,-63.477,-57.617
1687734190.778,-69.824,-40.039,-66.406,-63.965,68.848
1687734190.782,-112.793,-36.621,-66.895,-68.359,-76.172
1687734190.784,-102.051,-42.480,-68.848,-71.289,-207.031
1687734190.788,-23.438,-40.039,-67.383,-58.594,-105.957
1687734190.792,3.418,-32.227,-63.477,-51.758,-108.398
1687734190.796,-36.621,-32.227,-63.965,-62.012,-178.223
1687734190.800,-92.285,-35.645,-63.477,-70.312,-136.719
1687734190.804,-100.586,-39.062,-61.035,-66.406,31.250
1687734190.808,-40.039,-38.574,-59.082,-60.547,77.637
1687734190.811,-10.254,-40.039,-62.012,-57.617,-74.707
1687734190.815,-36.133,-41.016,-64.453,-59.570,-120.117
1687734190.819,-85.938,-41.504,-62.988,-65.918,104.492
1687734190.823,-91.797,-41.016,-59.082,-55.664,243.164
1687734190.827,-22.461,-32.227,-56.641,-41.504,-47.363
1687734190.844,15.625,-28.809,-58.594,-35.645,-141.602
1687734190.848,-8.301,-31.738,-64.453,-42.969,-70.312
1687734190.852,-62.012,-30.762,-65.918,-49.316,-139.160
1687734190.856,-82.031,-33.203,-63.477,-42.480,-147.949
1687734190.860,-25.879,-31.738,-64.453,-38.574,-115.723
1687734190.864,7.812,-29.297,-67.871,-47.852,-78.613
1687734190.868,-15.625,-32.227,-61.035,-52.734,-93.750
1687734190.871,-62.500,-34.668,-56.641,-50.781,-143.555
1687734190.875,-94.238,-35.645,-57.617,-47.852,-43.945
1687734190.879,-45.898,-31.250,-62.012,-32.227,188.965
1687734190.883,8.789,-30.762,-67.383,-37.109,-57.129
1687734190.887,-5.859,-31.738,-68.848,-48.828,-185.059
1687734190.889,-53.711,-28.809,-65.430,-50.293,38.086
1687734190.893,-91.309,-32.715,-65.430,-52.734,45.410
1687734190.897,-56.641,-35.156,-64.453,-42.969,-121.582
1687734190.901,-0.488,-33.691,-60.059,-32.227,-132.812
1687734190.905,-10.254,-37.598,-60.547,-40.039,-41.504
1687734190.909,-52.246,-38.574,-57.617,-46.387,10.742
1687734190.913,-96.191,-41.016,-55.664,-49.316,-10.254
1687734190.916,-60.059,-43.945,-57.129,-39.551,-19.531
1687734190.920,13.672,-41.992,-53.223,-22.949,120.117
1687734190.924,12.207,-43.457,-52.246,-25.879,269.531
1687734190.928,-25.391,-40.039,-57.617,-38.086,-27.344
1687734190.932,-72.266,-39.551,-58.105,-42.969,-171.387
1687734190.936,-51.270,-38.086,-49.805,-38.574,-75.684
1687734190.940,20.020,-33.203,-48.340,-25.391,-85.449
1687734190.944,19.531,-37.109,-52.734,-29.785,-78.613
1687734190.948,-24.414,-36.621,-52.734,-42.480,-86.426
1687734190.952,-75.684,-32.715,-55.664,-51.270,16.113
1687734190.956,-65.918,-29.785,-57.617,-47.363,7.324
1687734190.960,-1.465,-35.156,-56.152,-41.016,-73.730
1687734190.963,4.883,-35.156,-62.988,-41.504,-90.820
1687734190.967,-36.621,-32.227,-63.965,-36.621,97.168
1687734190.971,-89.844,-35.156,-62.988,-47.363,-41.992
1687734190.975,-85.449,-36.621,-68.848,-52.734,-262.207
1687734190.979,-20.996,-36.133,-70.312,-41.504,-194.336
1687734190.979,-4.883,-36.133,-67.383,-41.504,-191.895
1687734190.983,-29.297,-35.645,-62.012,-45.410,-243.164
1687734190.987,-77.148,-36.621,-59.570,-51.270,-196.777
1687734190.991,-81.543,-41.016,-61.035,-46.387,-44.434
1687734190.995,-12.207,-37.109,-60.059,-29.297,82.520
1687734190.999,14.160,-35.645,-54.688,-28.809,13.184
1687734191.003,-12.695,-35.645,-50.781,-36.621,-126.465
1687734191.006,-68.359,-35.645,-53.223,-38.086,148.438
1687734191.010,-95.703,-38.574,-57.129,-31.250,500.977
1687734191.014,-31.250,-37.598,-57.129,-23.926,170.410
1687734191.018,6.836,-38.086,-61.523,-20.508,-125.977
1687734191.022,-16.113,-41.016,-61.035,-24.902,-88.379
1687734191.024,-64.453,-40.039,-61.035,-41.992,-120.605
1687734191.028,-92.285,-37.109,-59.082,-38.086,-181.641
1687734191.032,-38.574,-37.109,-51.270,-24.902,-143.066
1687734191.036,9.766,-36.621,-50.781,-27.832,-41.016
1687734191.040,-1.953,-36.133,-52.246,-26.367,-55.176
1687734191.044,-57.617,-38.574,-57.129,-38.574,-29.297
1687734191.048,-97.168,-40.527,-61.523,-47.363,31.250
1687734191.051,-45.898,-38.574,-56.641,-28.809,350.098
1687734191.055,9.766,-35.645,-51.270,-21.484,236.816
1687734191.059,-4.395,-33.203,-53.711,-30.273,-140.625
1687734191.063,-49.805,-38.574,-56.641,-42.480,-110.840
1687734191.067,-87.402,-39.551,-58.594,-51.270,-83.008
1687734191.070,-51.270,-30.273,-58.105,-42.969,-163.086
1687734191.074,6.836,-29.297,-59.570,-41.504,-205.078
1687734191.078,0.000,-32.715,-60.547,-47.363,-141.602
1687734191.082,-45.898,-38.086,-64.941,-56.641,-92.773
1687734191.086,-95.215,-37.598,-67.871,-66.895,-69.336
1687734191.090,-64.453,-38.086,-63.965,-62.012,-40.527
1687734191.094,3.418,-36.621,-62.500,-44.922,183.105
1687734191.097,-0.488,-37.598,-66.895,-38.574,362.793
1687734191.101,-41.016,-38.574,-66.406,-52.246,17.578
1687734191.105,-87.402,-34.668,-65.918,-61.035,-86.426
1687734191.109,-68.848,-30.762,-62.012,-46.387,62.500
1687734191.113,4.883,-28.320,-55.664,-30.762,-39.062
1687734191.114,15.137,-31.250,-55.664,-27.832,-194.824
1687734191.118,-25.879,-37.598,-55.664,-33.203,-192.871
1687734191.122,-76.660,-34.180,-60.547,-39.062,-94.727
1687734191.126,-68.848,-33.203,-70.312,-35.645,-49.805
1687734191.130,-7.324,-32.227,-69.336,-31.738,-104.004
1687734191.134,15.137,-21.973,-67.383,-32.715,-68.848
1687734191.138,-20.020,-26.855,-66.406,-36.133,91.309
1687734191.141,-76.172,-32.227,-63.965,-46.875,-56.152
1687734191.145,-72.266,-28.320,-58.594,-42.480,-229.492
1687734191.149,-10.742,-32.227,-54.688,-29.297,-192.383
1687734191.153,11.230,-32.227,-51.758,-34.668,-66.895
1687734191.157,-17.090,-31.250,-56.641,-40.527,-86.426
1687734191.160,-67.871,-33.691,-60.547,-41.992,-188.477
1687734191.164,-87.402,-36.133,-52.246,-41.504,-109.863
1687734191.168,-28.320,-35.156,-49.316,-37.109,-19.043
1687734191.172,10.254,-34.180,-54.688,-41.016,-97.656
1687734191.176,-16.113,-40.527,-53.223,-46.875,-166.504
1687734191.180,-67.871,-33.691,-46.875,-46.387,10.254
1687734191.184,-89.355,-28.320,-46.875,-48.828,66.895
1687734191.187,-32.715,-32.715,-52.734,-47.852,11.719
1687734191.191,9.766,-34.668,-55.664,-42.480,-12.695
1687734191.195,-14.160,-33.203,-54.199,-36.133,125.977
1687734191.199,-67.383,-32.715,-56.152,-37.598,215.820
1687734191.203,-101.074,-36.133,-57.129,-50.293,-89.355
1687734191.220,-49.316,-35.645,-53.711,-41.504,-149.414
1687734191.224,4.395,-30.273,-51.270,-32.715,-7.324
1687734191.228,-6.348,-30.762,-54.199,-46.387,-58.594
1687734191.232,-48.340,-34.668,-53.711,-56.152,-216.309
1687734191.236,-82.520,-33.203,-53.223,-58.594,-155.273
1687734191.240,-44.434,-31.250,-58.105,-52.734,244.629
1687734191.244,16.113,-27.832,-58.105,-45.898,134.277
1687734191.247,14.648,-19.043,-59.570,-48.828,-105.469
1687734191.251,-26.855,-16.113,-57.617,-56.152,-63.965
1687734191.255,-78.125,-21.484,-58.594,-64.941,73.730
1687734191.259,-58.105,-25.879,-59.082,-61.523,-4.883
1687734191.263,-0.977,-29.297,-55.176,-53.711,-114.258
1687734191.264,-7.324,-31.738,-56.152,-46.875,-41.016
1687734191.268,-51.270,-33.203,-56.641,-47.363,-74.707
1687734191.272,-100.098,-35.645,-57.617,-59.570,-145.996
1687734191.276,-76.172,-36.133,-55.176,-55.176,-110.840
1687734191.280,-9.766,-35.645,-53.711,-41.016,-27.344
1687734191.284,-8.789,-35.156,-56.152,-35.156,-36.133
1687734191.288,-49.316,-39.062,-57.129,-41.504,-51.758
1687734191.291,-95.703,-41.504,-58.105,-47.363,8.301
1687734191.295,-81.543,-40.039,-58.105,-40.527,172.852
1687734191.299,-9.277,-37.109,-61.523,-27.344,394.531
1687734191.303,8.301,-31.250,-59.570,-31.738,131.836
1687734191.307,-29.785,-32.227,-57.617,-46.875,-160.156
1687734191.309,-83.984,-32.227,-64.941,-58.105,-74.219
1687734191.313,-79.590,-31.738,-61.035,-49.316,-107.422
1687734191.317,-15.625,-31.250,-58.594,-34.180,-174.316
1687734191.321,4.395,-27.832,-63.477,-35.645,-134.277
1687734191.325,-26.367,-33.691,-62.500,-41.016,-59.082
1687734191.329,-83.496,-32.715,-61.035,-48.828,16.602
1687734191.333,-89.355,-27.344,-59.082,-51.758,4.395
1687734191.336,-24.902,-29.785,-60.547,-43.945,-2.930
1687734191.340,2.441,-29.785,-59.082,-41.016,275.391
1687734191.344,-23.438,-28.320,-55.664,-51.270,188.965
1687734191.348,-76.660,-29.785,-58.105,-62.500,-107.422
1687734191.352,-100.098,-31.738,-58.105,-56.641,-76.172
1687734191.354,-41.016,-32.715,-51.270,-47.363,-54.199
1687734191.358,2.441,-32.715,-50.293,-46.387,-102.051
1687734191.362,-13.672,-31.250,-50.293,-53.223,-121.094
1687734191.366,-58.105,-30.762,-48.828,-59.570,-104.980
1687734191.370,-82.520,-26.855,-47.363,-51.270,-88.867
1687734191.374,-31.738,-24.902,-47.852,-41.504,-76.660
1687734191.378,16.602,-25.879,-46.875,-36.621,-56.152
1687734191.381,1.465,-31.250,-44.434,-35.156,140.137
1687734191.385,-51.758,-37.109,-48.828,-38.574,456.055
1687734191.389,-83.984,-33.203,-48.828,-50.781,133.789
1687734191.393,-39.062,-35.156,-52.246,-49.316,-112.305
1687734191.397,8.789,-35.645,-58.594,-42.969,-6.348
1687734191.399,-5.371,-29.785,-54.199,-46.875,-125.000
1687734191.403,-54.688,-32.227,-53.223,-57.617,-221.680
1687734191.407,-94.727,-34.180,-52.734,-60.547,-153.809
1687734191.411,-60.059,-36.133,-49.805,-48.340,-72.754
1687734191.415,-1.953,-36.133,-50.781,-41.504,-107.422
1687734191.419,-9.766,-35.645,-48.828,-45.410,-159.668
1687734191.423,-59.570,-35.156,-50.293,-52.734,-52.246
1687734191.426,-106.934,-36.621,-52.734,-54.688,308.105
1687734191.430,-74.707,-35.645,-50.293,-49.805,124.023
1687734191.434,-3.418,-28.320,-44.434,-36.621,-157.715
1687734191.438,-0.488,-32.227,-45.898,-38.086,-92.285
1687734191.442,-41.992,-34.668,-50.293,-51.270,-31.250
1687734191.444,-94.727,-31.738,-50.781,-62.988,-61.035
1687734191.448,-72.754,-31.738,-50.781,-55.176,-72.754
1687734191.452,0.977,-30.273,-47.852,-40.039,-34.668
1687734191.456,10.742,-32.227,-52.246,-40.039,-58.594
1687734191.460,-22.949,-33.203,-57.617,-45.410,-124.512
1687734191.464,-70.312,-32.227,-55.664,-45.898,-44.434
1687734191.468,-59.570,-27.832,-55.176,-39.062,125.488
1687734191.471,7.324,-22.461,-55.176,-33.203,218.750
1687734191.475,24.902,-20.508,-54.199,-46.875,-20.996
1687734191.479,-14.648,-23.926,-52.246,-59.570,-148.926
1687734191.483,-72.266,-28.809,-52.734,-60.547,-12.207
1687734191.487,-77.637,-32.715,-52.246,-57.129,-92.773
1687734191.491,-15.625,-32.715,-47.852,-48.340,-207.520
1687734191.495,6.836,-32.715,-50.293,-45.410,-96.191
1687734191.499,-27.832,-33.203,-52.246,-44.434,42.969
1687734191.503,-79.102,-32.227,-47.363,-45.898,-65.918
1687734191.507,-89.844,-31.738,-46.875,-48.828,-149.414
1687734191.511,-25.391,-25.879,-44.434,-38.574,6.348
1687734191.515,3.418,-24.902,-46.387,-35.156,273.926
1687734191.518,-23.438,-25.391,-46.387,-41.992,81.055
1687734191.522,-68.848,-26.855,-44.922,-48.340,-186.523
1687734191.526,-86.426,-27.832,-45.898,-51.758,-142.578
1687734191.530,-31.738,-27.344,-44.922,-44.922,-44.434
1687734191.534,15.137,-23.926,-39.551,-41.992,-112.305
1687734191.534,-10.742,-23.438,-41.504,-50.781,-125.488
1687734191.538,-72.266,-30.762,-47.852,-62.988,-109.863
1687734191.542,-98.145,-34.668,-43.457,-60.059,-67.871
1687734191.546,-46.387,-33.203,-41.504,-53.711,-38.086
1687734191.550,3.906,-32.227,-43.945,-49.316,-141.602
1687734191.554,-11.230,-36.621,-44.434,-53.711,58.594
1687734191.558,-57.617,-37.109,-44.434,-65.430,330.566
1687734191.561,-93.262,-31.738,-40.527,-72.266,120.605
1687734191.565,-52.734,-32.227,-40.527,-63.965,-21.973
1687734191.569,-0.488,-37.598,-41.504,-55.664,131.348
1687734191.573,-11.230,-34.668,-38.574,-56.641,289.551
1687734191.577,-58.105,-33.691,-38.086,-61.523,-18.555
1687734191.594,-104.980,-35.645,-39.551,-61.035,-124.512
1687734191.598,-69.824,-33.203,-38.086,-49.316,-43.945
1687734191.602,-6.836,-35.645,-42.969,-43.457,-74.707
1687734191.606,-13.184,-36.621,-46.875,-52.734,-93.750
1687734191.610,-54.688,-31.738,-42.969,-61.035,-105.469
1687734191.614,-107.422,-33.203,-45.410,-70.801,16.602
1687734191.618,-88.867,-32.227,-44.434,-64.453,-10.254
1687734191.621,-17.578,-25.879,-46.875,-52.734,-119.141
1687734191.625,-5.371,-25.391,-50.293,-48.340,-69.336
1687734191.629,-45.410,-34.668,-46.875,-49.805,171.387
1687734191.633,-104.004,-39.062,-54.199,-63.965,57.129
1687734191.637,-88.379,-30.762,-56.641,-56.152,-145.508
1687734191.639,-20.508,-31.250,-49.805,-46.387,-89.355
1687734191.643,-5.371,-28.809,-46.387,-50.781,-103.516
1687734191.647,-40.039,-20.508,-44.434,-53.223,-156.250
1687734191.651,-97.168,-20.020,-45.410,-62.012,-200.684
1687734191.655,-94.238,-24.414,-47.852,-57.129,-167.480
1687734191.659,-28.809,-26.855,-41.504,-49.316,-56.152
1687734191.663,-5.371,-28.320,-41.016,-51.758,-15.137
1687734191.666,-30.762,-24.902,-47.363,-56.641,-76.172
1687734191.670,-83.496,-23.438,-48.828,-59.082,176.758
1687734191.674,-96.680,-29.785,-51.758,-49.316,378.418
1687734191.678,-31.250,-25.879,-48.828,-43.457,60.059
1687734191.682,1.465,-24.902,-47.363,-49.805,-179.688
1687734191.684,-27.832,-26.367,-52.734,-50.293,-131.836
1687734191.688,-76.172,-25.391,-54.199,-53.223,-155.762
1687734191.692,-91.309,-35.645,-51.758,-56.641,-185.059
1687734191.696,-32.227,-34.180,-46.875,-44.922,-118.652
1687734191.700,2.441,-24.902,-41.504,-39.062,-123.535
1687734191.704,-32.227,-27.344,-41.016,-51.270,-87.402
1687734191.708,-83.008,-36.621,-46.875,-54.199,14.160
1687734191.711,-105.469,-39.062,-48.340,-45.410,51.270
1687734191.715,-48.340,-36.133,-46.387,-36.133,128.906
1687734191.719,7.324,-35.156,-41.016,-29.785,26.855
1687734191.723,-11.230,-35.645,-39.062,-39.062,-85.449
1687734191.727,-60.059,-35.645,-39.551,-37.598,-25.391
1687734191.729,-95.215,-35.156,-38.086,-22.949,124.512
1687734191.733,-57.617,-34.668,-41.504,-20.996,-77.637
1687734191.737,-0.977,-35.156,-43.457,-17.578,-186.523
1687734191.741,-12.695,-37.598,-37.598,-17.090,-141.113
1687734191.745,-65.918,-41.016,-38.086,-23.926,-186.035
1687734191.749,-103.027,-41.992,-43.457,-31.738,-77.637
1687734191.753,-65.918,-40.527,-42.969,-31.250,4.883
1687734191.756,-4.883,-36.133,-39.551,-15.137,155.762
1687734191.760,-10.742,-35.156,-42.969,-6.836,319.336
1687734191.764,-51.270,-31.250,-44.922,-12.207,-14.648
1687734191.768,-96.680,-29.297,-43.945,-27.344,-224.121
1687734191.772,-73.242,-30.273,-44.434,-33.203,-58.105
1687734191.775,-5.859,-28.809,-48.828,-21.973,-71.289
1687734191.779,-1.953,-27.832,-45.898,-21.484,-186.523
1687734191.783,-46.387,-33.691,-42.969,-31.738,-185.547
1687734191.787,-97.168,-37.598,-45.898,-38.086,-68.848
1687734191.791,-79.590,-33.691,-45.898,-36.621,-123.535
1687734191.795,-21.973,-35.156,-46.875,-33.203,-160.156
1687734191.799,-12.695,-35.645,-46.387,-39.062,-12.695
1687734191.802,-44.434,-30.273,-43.945,-41.016,190.430
1687734191.806,-98.145,-25.391,-40.527,-51.758,0.488
1687734191.810,-86.914,-23.438,-38.086,-58.594,-180.664
1687734191.814,-19.531,-25.391,-41.504,-49.805,-85.938
1687734191.818,-13.672,-31.250,-50.293,-52.246,-100.586
1687734191.819,-50.781,-35.645,-52.246,-62.012,-142.578
1687734191.823,-104.004,-29.297,-49.316,-63.965,-125.977
1687734191.827,-105.469,-25.391,-43.945,-55.176,-94.727
1687734191.831,-36.621,-26.855,-38.086,-40.039,-49.805
1687734191.835,-8.301,-27.832,-42.969,-36.133,-62.988
1687734191.839,-40.039,-32.227,-47.852,-42.480,-50.781
1687734191.843,-89.844,-37.109,-48.828,-44.434,78.125
1687734191.846,-97.168,-35.645,-50.293,-39.551,340.820
1687734191.850,-41.016,-33.691,-45.410,-34.180,59.082
1687734191.854,-8.789,-33.691,-41.992,-31.738,-193.848
1687734191.858,-34.668,-37.598,-45.898,-37.109,55.664
1687734191.862,-83.984,-35.645,-42.480,-46.875,51.758
1687734191.864,-100.586,-27.344,-44.434,-51.270,-94.238
1687734191.868,-35.645,-24.902,-48.828,-50.293,-88.867
1687734191.872,16.602,-27.344,-43.457,-53.223,-111.816
1687734191.876,-2.930,-26.855,-43.457,-62.500,-164.062
1687734191.880,-46.387,-28.320,-46.875,-74.707,-192.871
1687734191.884,-68.359,-32.715,-48.340,-77.148,-40.527
1687734191.888,-31.250,-32.227,-46.387,-65.430,299.805
1687734191.891,4.395,-34.668,-43.457,-59.570,113.770
1687734191.895,-17.578,-32.227,-41.992,-62.012,-167.480
1687734191.899,-65.918,-28.320,-38.086,-62.012,-106.934
1687734191.903,-108.398,-30.273,-42.480,-60.059,-43.945
1687734191.907,-74.707,-29.785,-46.387,-57.129,-160.645
1687734191.909,-19.531,-28.809,-46.875,-51.270,-231.934
1687734191.913,-31.738,-30.762,-49.805,-49.316,-104.004
1687734191.917,-80.078,-33.203,-44.922,-54.199,23.926
1687734191.921,-121.094,-33.203,-44.434,-61.523,-128.906
1687734191.925,-90.332,-29.297,-45.898,-52.734,-137.695
1687734191.929,-30.762,-31.738,-39.551,-35.156,190.430
1687734191.933,-36.133,-38.574,-37.109,-43.945,212.891
1687734191.936,-75.195,-36.621,-41.016,-56.641,-21.973
1687734191.940,-118.652,-33.203,-42.969,-58.594,-99.609
1687734191.944,-86.914,-30.273,-39.551,-50.293,91.797
1687734191.948,-18.066,-28.809,-39.062,-38.086,308.105
1687734191.952,-15.625,-36.133,-41.016,-47.363,16.113
1687734191.969,-53.223,-36.621,-44.434,-61.035,-132.812
1687734191.973,-106.445,-31.250,-45.898,-63.965,-70.801
1687734191.977,-92.285,-30.273,-44.922,-63.477,-158.203
1687734191.981,-34.668,-30.273,-43.457,-62.012,-177.246
1687734191.985,-28.320,-36.133,-43.457,-58.594,-88.379
1687734191.989,-65.430,-35.645,-46.875,-61.523,27.832
1687734191.993,-111.816,-34.668,-46.875,-64.941,-51.758
1687734191.996,-101.562,-37.109,-48.340,-60.547,-167.480
1687734192.000,-40.039,-33.691,-48.340,-55.664,-156.738
1687734192.004,-15.137,-28.809,-47.363,-50.781,62.012
1687734192.008,-39.551,-26.367,-46.387,-56.152,-11.719
1687734192.012,-90.820,-19.531,-49.316,-68.848,-194.824
1687734192.014,-96.191,-22.461,-49.316,-71.289,-131.348
1687734192.018,-34.180,-30.273,-45.410,-61.035,-43.457
1687734192.022,-3.906,-30.273,-42.969,-56.152,-131.836
1687734192.026,-35.156,-30.762,-43.457,-63.965,-204.590
1687734192.030,-90.332,-32.227,-44.434,-75.195,-116.211
1687734192.034,-104.980,-32.715,-46.387,-82.031,-24.902
1687734192.038,-47.363,-32.715,-49.805,-70.801,-106.445
1687734192.041,-14.648,-33.691,-47.363,-65.918,-128.906
1687734192.045,-41.504,-36.621,-45.410,-70.312,104.004
1687734192.049,-91.309,-38.086,-44.434,-66.895,284.180
1687734192.053,-116.211,-38.086,-47.852,-68.848,28.320
1687734192.057,-66.406,-39.062,-50.781,-62.988,-47.852
1687734192.059,-21.973,-37.109,-46.387,-51.270,41.016
1687734192.063,-33.691,-33.203,-43.457,-57.617,-113.770
1687734192.067,-85.449,-36.133,-47.363,-71.777,-204.102
1687734192.071,-126.465,-42.969,-53.223,-77.148,-118.164
1687734192.075,-77.637,-41.992,-51.270,-67.383,-35.156
1687734192.079,-20.508,-36.621,-48.340,-60.547,-21.973
1687734192.083,-35.156,-38.086,-47.852,-70.801,-64.453
1687734192.086,-81.543,-38.086,-46.875,-76.172,-43.457
1687734192.090,-120.605,-36.621,-48.828,-74.707,215.820
1687734192.094,-74.219,-32.227,-54.199,-77.148,124.512
1687734192.098,-9.766,-28.320,-50.781,-71.289,-95.215
1687734192.102,-18.066,-31.738,-47.363,-74.707,-81.055
1687734192.106,-53.223,-26.855,-46.875,-81.055,-117.188
1687734192.110,-87.402,-26.367,-42.480,-78.125,-154.297
1687734192.114,-65.918,-30.273,-42.969,-78.125,-92.285
1687734192.118,-14.648,-28.809,-42.480,-69.824,-12.695
1687734192.122,-18.555,-32.227,-44.922,-68.359,11.230
1687734192.126,-64.941,-39.062,-52.246,-83.008,-1.953
1687734192.130,-108.887,-39.551,-41.504,-81.055,-48.340
1687734192.133,-84.473,-34.668,-31.250,-64.941,103.027
1687734192.137,-13.672,-26.855,-33.691,-40.039,406.738
1687734192.141,-0.488,-26.367,-32.227,-40.039,112.793
1687734192.145,-35.156,-30.762,-27.832,-57.617,-141.113
1687734192.149,-82.031,-27.832,-24.902,-56.152,-120.117
1687734192.149,-71.777,-21.973,-29.297,-46.875,-146.484
1687734192.153,-8.301,-22.461,-35.645,-38.086,-163.574
1687734192.157,5.371,-23.438,-36.621,-35.645,-134.277
1687734192.161,-33.691,-22.461,-34.180,-41.992,-83.008
1687734192.165,-86.426,-25.391,-33.203,-45.898,-91.309
1687734192.169,-84.961,-28.320,-33.203,-40.527,-61.035
1687734192.173,-29.297,-25.879,-32.715,-37.109,38.574
1687734192.176,-6.348,-25.879,-34.668,-30.273,288.086
1687734192.180,-22.949,-24.414,-35.645,-33.691,95.703
1687734192.184,-68.359,-23.438,-30.273,-46.875,-186.035
1687734192.188,-79.102,-27.832,-31.250,-46.875,-137.695
1687734192.192,-20.508,-26.855,-32.715,-41.016,-158.691
1687734192.194,13.672,-23.438,-30.273,-41.992,-158.203
1687734192.198,-14.160,-25.391,-26.855,-41.504,-100.586
1687734192.202,-67.871,-24.902,-26.367,-42.480,-56.641
1687734192.206,-88.379,-24.902,-33.203,-47.852,-35.156
1687734192.210,-30.273,-24.414,-33.203,-45.898,-58.594
1687734192.214,9.766,-27.832,-32.715,-47.363,-42.969
1687734192.218,-20.996,-30.762,-33.691,-49.316,186.035
1687734192.221,-70.312,-28.320,-31.250,-54.688,258.789
1687734192.225,-96.680,-25.879,-36.621,-63.477,22.461
1687734192.229,-43.945,-31.738,-34.180,-55.664,-84.961
1687734192.233,4.883,-29.785,-28.809,-46.387,74.219
1687734192.237,-19.043,-26.855,-31.738,-51.270,99.121
1687734192.239,-60.547,-28.809,-32.227,-56.641,-129.883
1687734192.243,-92.773,-25.391,-29.785,-55.664,-134.766
1687734192.247,-58.105,-28.809,-34.668,-55.176,-39.551
1687734192.251,-3.418,-29.785,-41.016,-58.105,-64.453
1687734192.255,-11.719,-24.414,-34.668,-57.129,-170.410
1687734192.259,-53.711,-26.855,-34.180,-55.664,12.207
1687734192.263,-90.820,-27.344,-34.668,-53.711,375.488
1687734192.266,-60.547,-22.461,-33.203,-48.340,102.539
1687734192.270,-1.465,-23.438,-31.738,-44.434,-173.340
1687734192.274,-7.324,-30.273,-30.762,-50.781,-42.480
1687734192.278,-44.922,-26.367,-32.227,-56.641,48.340
1687734192.282,-91.309,-25.391,-30.762,-62.012,-62.012
1687734192.284,-72.754,-30.273,-34.180,-60.059,-118.164
1687734192.288,-9.277,-31.250,-37.109,-52.734,-161.621
1687734192.292,-3.418,-30.762,-35.156,-53.223,-159.668
1687734192.296,-39.551,-30.762,-34.180,-54.688,-176.270
1687734192.300,-83.008,-27.344,-36.621,-53.711,-125.977
1687734192.304,-74.707,-31.250,-38.086,-57.617,70.801
1687734192.308,-3.906,-30.273,-32.227,-44.922,51.270
1687734192.311,13.672,-26.367,-34.180,-38.574,-9.766
1687734192.315,-23.926,-30.273,-32.715,-50.293,-43.945
1687734192.319,-73.730,-31.738,-31.250,-47.363,101.562
1687734192.323,-69.824,-29.785,-36.621,-37.109,285.156
1687734192.327,-5.371,-30.273,-33.691,-40.039,6.348
1687734192.344,13.672,-29.297,-28.809,-41.504,-57.617
1687734192.348,-20.020,-30.273,-30.762,-44.434,65.430
1687734192.352,-77.637,-33.203,-32.227,-63.965,-98.145
1687734192.356,-81.543,-29.297,-27.832,-62.988,-233.887
1687734192.360,-17.578,-26.367,-36.133,-52.246,-131.348
1687734192.364,7.812,-24.902,-39.062,-51.270,69.336
1687734192.368,-22.461,-28.809,-33.203,-67.383,21.484
1687734192.371,-68.359,-26.855,-43.945,-71.289,-141.113
1687734192.375,-86.914,-25.879,-43.457,-65.918,-152.344
1687734192.379,-34.668,-28.809,-41.992,-50.293,74.707
1687734192.383,5.859,-28.809,-41.016,-40.527,-36.621
1687734192.387,-20.020,-25.391,-35.645,-43.457,-180.664
1687734192.404,-77.148,-33.203,-33.691,-53.711,-133.789
1687734192.408,-98.145,-34.180,-40.039,-55.664,-61.035
1687734192.412,-50.293,-28.320,-37.598,-47.363,32.227
1687734192.416,-10.742,-30.273,-35.156,-44.434,-34.180
1687734192.420,-31.738,-36.621,-35.645,-47.852,-36.133
1687734192.424,-76.660,-38.574,-29.785,-60.059,27.344
1687734192.428,-106.934,-35.645,-37.598,-58.594,-32.715
1687734192.431,-58.594,-35.645,-39.551,-47.852,-15.625
1687734192.435,-2.930,-37.598,-38.086,-40.039,101.074
1687734192.439,-12.207,-39.062,-44.922,-36.133,307.617
1687734192.443,-47.852,-37.109,-41.992,-42.969,7.812
1687734192.447,-87.402,-34.180,-41.016,-53.711,-255.859
1687734192.435,-54.688,-35.156,-45.898,-49.805,-139.160
1687734192.439,2.930,-37.598,-43.457,-42.969,-117.676
1687734192.443,-4.883,-34.180,-43.945,-42.969,-155.762
1687734192.447,-47.363,-36.133,-46.875,-53.223,-147.461
1687734192.451,-89.844,-36.621,-48.340,-59.570,10.254
1687734192.455,-63.477,-32.227,-53.711,-51.270,17.578
1687734192.459,1.953,-34.180,-52.246,-36.133,-97.168
1687734192.462,0.977,-33.691,-56.152,-38.086,-38.574
1687734192.466,-44.922,-33.691,-56.641,-40.527,143.066
1687734192.470,-86.426,-30.273,-52.734,-41.016,-67.871
1687734192.474,-63.965,-26.855,-55.176,-39.062,-185.547
1687734192.478,-7.324,-25.879,-58.594,-35.645,-57.129
1687734192.479,-1.953,-25.391,-59.082,-29.297,184.570
1687734192.483,-34.668,-29.297,-59.082,-33.203,49.316
1687734192.487,-86.426,-36.133,-58.105,-46.387,-137.695
1687734192.491,-75.195,-36.133,-61.035,-45.410,-99.609
1687734192.495,-10.254,-36.133,-62.500,-43.945,-90.332
1687734192.499,-0.977,-35.645,-63.477,-47.363,-22.461
1687734192.503,-28.809,-35.156,-62.012,-48.828,14.160
1687734192.506,-79.590,-31.738,-62.500,-51.758,148.926
1687734192.510,-79.590,-33.691,-64.453,-34.180,462.402
1687734192.514,-9.766,-36.133,-62.012,-25.879,204.590
1687734192.518,9.766,-35.156,-65.430,-40.527,-146.973
1687734192.522,-21.973,-35.645,-66.895,-43.457,-53.711
1687734192.524,-79.102,-38.574,-62.988,-55.664,-131.348
1687734192.528,-88.867,-36.133,-63.965,-58.105,-212.402
1687734192.532,-16.113,-35.156,-60.059,-48.340,-127.441
1687734192.536,21.484,-36.621,-57.129,-48.828,-90.332
1687734192.540,0.000,-38.574,-61.523,-47.363,-127.930
1687734192.544,-47.363,-38.086,-63.477,-54.688,-43.457
1687734192.548,-63.965,-38.086,-64.453,-55.176,38.086
1687734192.551,-2.930,-38.086,-64.453,-43.945,172.852
1687734192.555,36.133,-37.109,-64.453,-41.992,57.129
1687734192.559,9.766,-34.668,-57.617,-51.758,-125.977
1687734192.563,-44.922,-34.668,-56.641,-50.781,-155.273
1687734192.567,-81.543,-38.086,-62.500,-41.016,-84.473
1687734192.569,-38.574,-39.062,-62.988,-36.621,-145.020
1687734192.573,5.859,-40.039,-59.570,-32.715,-186.035
1687734192.577,-11.230,-41.504,-58.105,-37.598,-127.930
1687734192.581,-65.430,-43.457,-58.594,-54.199,-125.488
1687734192.585,-100.586,-44.434,-55.664,-46.387,-128.906
1687734192.589,-48.828,-42.969,-53.223,-29.785,-121.582
1687734192.593,0.000,-41.992,-57.129,-25.879,77.637
1687734192.596,-17.090,-42.480,-63.477,-22.461,253.906
1687734192.600,-53.223,-40.527,-61.523,-28.320,-33.203
1687734192.604,-96.680,-40.039,-58.105,-38.086,-146.484
1687734192.608,-66.895,-43.457,-62.012,-32.227,71.289
1687734192.612,-3.906,-44.434,-65.430,-27.344,23.438
1687734192.615,-10.742,-41.992,-59.570,-30.273,-188.965
1687734192.619,-55.176,-40.527,-58.105,-38.086,-137.207
1687734192.623,-104.980,-44.434,-62.988,-46.387,51.758
1687734192.627,-82.031,-44.434,-59.570,-46.387,10.254
1687734192.631,-17.578,-42.480,-58.594,-46.875,-92.285
1687734192.635,-12.695,-39.551,-61.035,-42.969,-0.977
1687734192.639,-54.199,-39.062,-64.941,-42.969,230.957
1687734192.642,-108.887,-40.527,-64.453,-53.223,47.852
1687734192.646,-87.402,-37.109,-62.500,-52.246,-142.090
1687734192.650,-15.625,-38.574,-64.453,-39.551,-75.195
1687734192.654,-6.348,-41.992,-67.383,-37.598,-137.207
1687734192.658,-36.621,-34.180,-65.918,-40.039,-176.758
1687734192.661,-89.844,-35.645,-65.918,-48.828,-156.738
1687734192.665,-85.449,-43.945,-64.941,-50.293,-68.848
1687734192.669,-13.184,-41.016,-61.523,-34.668,-66.406
1687734192.673,2.930,-35.645,-62.012,-31.250,-107.422
1687734192.677,-29.785,-40.039,-64.941,-39.062,-108.887
1687734192.681,-82.520,-44.434,-63.477,-44.922,104.004
1687734192.685,-96.191,-43.457,-63.965,-44.434,191.406
1687734192.688,-32.715,-39.551,-64.453,-32.227,-25.391
1687734192.692,3.906,-35.156,-65.918,-27.344,-83.496
1687734192.696,-27.344,-42.480,-62.500,-30.762,46.875
1687734192.700,-84.473,-52.246,-64.453,-39.551,100.586
1687734192.704,-99.121,-49.805,-71.777,-44.922,-116.699
1687734192.719,-36.621,-46.387,-67.871,-34.180,-140.137
1687734192.723,-1.465,-48.828,-64.453,-33.691,-50.293
1687734192.727,-30.762,-48.828,-66.895,-39.551,-71.289
1687734192.731,-74.707,-47.363,-62.500,-35.645,-127.441
1687734192.735,-98.145,-48.340,-53.711,-38.574,-29.785
1687734192.739,-50.781,-49.316,-57.129,-35.645,200.195
1687734192.743,-1.953,-46.387,-58.105,-31.738,146.484
1687734192.746,-15.625,-48.340,-54.688,-39.062,-74.707
1687734192.750,-61.523,-51.270,-58.105,-42.480,-108.887
1687734192.754,-95.703,-46.875,-62.500,-40.039,121.582
1687734192.758,-54.688,-46.387,-61.523,-41.992,-15.625
1687734192.762,1.465,-42.969,-54.688,-34.668,-214.844
1687734192.764,-8.301,-39.551,-55.664,-40.039,-150.879
1687734192.768,-54.688,-45.898,-52.734,-53.223,-179.199
1687734192.772,-81.543,-45.410,-48.340,-44.922,-165.039
1687734192.776,-44.922,-41.504,-50.781,-48.340,-105.469
1687734192.780,-2.930,-44.922,-56.152,-52.734,-47.363
1687734192.784,-8.301,-44.434,-62.012,-46.387,33.203
1687734192.788,-44.434,-38.086,-64.453,-41.016,-40.527
1687734192.791,-80.566,-34.668,-59.082,-34.668,-93.262
1687734192.795,-47.852,-41.992,-60.547,-29.297,139.160
1687734192.799,15.137,-39.551,-60.547,-16.602,360.840
1687734192.803,13.672,-37.109,-52.734,-21.973,50.781
1687734192.807,-28.809,-40.527,-51.758,-34.668,-190.918
1687734192.809,-78.125,-44.922,-53.711,-38.086,-73.730
1687734192.813,-59.570,-48.828,-52.246,-30.273,-140.625
1687734192.817,9.766,-38.574,-49.316,-10.742,-203.613
1687734192.821,13.672,-35.156,-50.293,-8.789,-131.348
1687734192.825,-29.297,-44.434,-52.246,-16.113,-119.629
1687734192.829,-74.707,-41.992,-53.223,-15.625,-97.656
1687734192.833,-61.523,-36.621,-50.781,-14.648,-30.762
1687734192.836,8.301,-35.156,-42.480,-3.906,-63.965
1687734192.840,23.438,-35.156,-42.480,5.371,177.246
1687734192.844,-17.090,-32.715,-46.387,-9.277,124.512
1687734192.848,-65.430,-33.203,-49.805,-24.902,-134.277
1687734192.852,-65.918,-35.156,-49.805,-21.484,-137.207
1687734192.854,-2.441,-35.156,-51.758,-11.230,-106.445
1687734192.858,27.344,-33.203,-53.711,-14.160,-112.305
1687734192.862,-3.906,-33.203,-54.688,-22.461,-94.238
1687734192.866,-59.570,-37.598,-53.223,-29.297,-45.410
1687734192.870,-67.871,-39.062,-49.805,-30.273,-54.688
1687734192.874,-4.883,-29.785,-46.387,-19.531,-41.016
1687734192.878,22.461,-31.738,-51.758,-22.461,0.488
1687734192.881,-4.395,-36.621,-53.223,-24.414,139.160
1687734192.885,-49.805,-34.668,-50.293,-7.324,339.844
1687734192.889,-70.312,-36.133,-53.711,-11.230,23.438
1687734192.893,-14.160,-31.250,-51.270,-16.113,-173.828
1687734192.897,28.320,-30.762,-50.781,-3.906,38.086
1687734192.899,9.766,-36.133,-46.875,-3.906,-37.109
1687734192.903,-41.992,-35.156,-38.574,-15.625,-158.691
1687734192.907,-75.195,-32.715,-38.086,-18.555,-156.250
1687734192.911,-23.438,-40.039,-41.016,-8.789,-102.051
1687734192.915,24.902,-42.969,-41.016,-6.836,-110.840
1687734192.919,4.883,-36.621,-43.945,-8.301,-123.535
1687734192.923,-43.945,-39.551,-45.898,-16.113,43.457
1687734192.926,-78.125,-41.504,-48.828,-19.043,236.816
1687734192.930,-38.086,-39.551,-54.199,-18.066,32.227
1687734192.934,16.113,-38.574,-52.734,-17.578,-160.645
1687734192.938,0.488,-41.504,-55.176,-20.508,-84.961
1687734192.942,-50.781,-39.551,-59.082,-35.645,-81.055
1687734192.945,-93.262,-41.504,-58.594,-44.434,-70.312
1687734192.949,-59.082,-40.527,-55.176,-38.086,25.879
1687734192.953,4.395,-34.668,-57.129,-30.762,11.230
1687734192.957,6.348,-32.227,-58.594,-20.508,-33.203
1687734192.961,-36.133,-33.203,-55.176,-18.555,-94.238
1687734192.965,-84.961,-42.480,-57.129,-30.273,-52.734
1687734192.969,-53.223,-44.434,-52.734,-22.949,163.086
1687734192.972,16.113,-36.621,-48.340,-5.859,246.094
1687734192.976,18.555,-35.156,-50.293,-9.277,-18.066
1687734192.980,-20.508,-39.062,-51.270,-14.648,-141.602
1687734192.984,-73.242,-40.527,-55.176,-22.461,113.770
1687734192.988,-61.035,-35.645,-59.570,-25.391,145.508
1687734192.989,9.277,-27.832,-56.152,-19.531,-161.621
1687734192.993,19.043,-22.949,-50.293,-20.996,-166.992
1687734192.997,-25.879,-26.855,-51.270,-29.785,-51.270
1687734193.001,-78.613,-30.762,-52.734,-35.156,13.184
1687734193.005,-68.848,-32.715,-53.711,-32.227,-69.824
1687734193.009,-4.395,-30.273,-58.105,-22.949,-101.562
1687734193.013,13.672,-28.809,-58.594,-18.066,296.387
1687734193.016,-18.066,-30.273,-58.594,-20.020,370.117
1687734193.020,-62.988,-24.902,-53.223,-26.367,-62.500
1687734193.024,-62.012,-21.973,-51.270,-19.531,-174.805
1687734193.028,-5.371,-27.344,-54.199,-15.137,-89.355
1687734193.032,18.066,-26.367,-45.410,-19.531,-108.887
1687734193.034,-13.672,-30.762,-40.527,-28.320,-120.605
1687734193.038,-68.848,-37.598,-43.457,-35.156,-111.328
1687734193.042,-84.473,-36.621,-48.340,-39.062,-104.004
1687734193.046,-25.879,-30.762,-50.781,-31.738,-81.055
1687734193.050,7.324,-30.273,-50.293,-28.809,-96.680
1687734193.054,-15.625,-31.250,-47.852,-32.715,-34.668
1687734193.058,-57.617,-26.367,-44.434,-42.969,11.719
1687734193.061,-79.102,-29.785,-47.363,-47.363,-8.789
1687734193.065,-24.414,-25.391,-51.270,-28.809,33.203
1687734193.069,25.391,-17.090,-45.898,-9.766,99.121
1687734193.073,6.836,-20.508,-45.898,-10.742,297.852
1687734193.077,-39.551,-20.508,-50.293,-25.879,37.598
1687734193.094,-68.848,-19.531,-43.945,-32.227,-202.148
1687734193.098,-26.855,-22.949,-41.504,-25.391,-122.559
1687734193.102,20.020,-22.949,-44.434,-20.020,-151.855
1687734193.106,4.883,-24.414,-44.922,-22.461,-253.418
1687734193.110,-43.945,-29.785,-44.922,-27.344,-171.387
1687734193.114,-79.590,-28.320,-45.410,-28.320,72.754
1687734193.118,-42.480,-26.367,-46.875,-24.414,-16.113
1687734193.121,8.301,-28.809,-48.340,-18.066,-144.531
1687734193.125,-4.883,-34.180,-49.316,-27.344,-102.539
1687734193.129,-55.176,-34.668,-54.199,-33.203,112.305
1687734193.133,-101.562,-26.367,-53.711,-44.922,17.090
1687734193.137,-68.359,-25.879,-54.199,-44.922,-176.270
1687734193.139,0.488,-23.926,-53.711,-27.832,-154.297
1687734193.143,4.395,-19.043,-49.805,-26.855,-104.004
1687734193.147,-40.039,-24.414,-49.805,-36.133,-96.680
1687734193.151,-91.309,-28.809,-52.734,-39.062,-118.164
1687734193.155,-67.871,-34.668,-53.223,-37.598,-21.973
1687734193.159,-1.465,-35.156,-52.734,-36.621,-18.066
1687734193.163,-1.465,-32.227,-54.688,-39.551,-53.223
1687734193.166,-38.574,-35.156,-54.199,-38.574,-69.824
1687734193.170,-85.449,-34.668,-51.270,-36.621,112.793
1687734193.174,-76.172,-34.180,-50.293,-30.273,330.566
1687734193.178,-18.555,-38.086,-58.594,-35.156,22.461
1687734193.182,-9.277,-39.062,-63.965,-40.527,-111.328
1687734193.184,-41.504,-37.598,-56.641,-42.480,36.621
1687734193.188,-86.914,-33.691,-53.711,-53.223,-77.637
1687734193.192,-78.125,-34.180,-58.105,-54.199,-146.973
1687734193.196,-9.766,-32.227,-62.988,-51.270,-55.664
1687734193.200,20.020,-29.297,-62.500,-47.363,-52.734
1687734193.204,-6.348,-34.668,-60.547,-45.898,31.250
1687734193.208,-60.547,-38.574,-62.988,-56.152,38.086
1687734193.211,-64.941,-32.715,-58.105,-57.617,-49.805
1687734193.215,-6.348,-29.785,-52.734,-36.133,166.992
1687734193.219,15.625,-35.645,-54.688,-28.320,41.016
1687734193.223,-13.672,-39.062,-56.152,-37.598,-167.480
1687734193.227,-69.336,-36.621,-50.781,-37.598,-89.355
1687734193.230,-93.750,-29.785,-47.363,-33.691,-9.277
1687734193.234,-38.574,-34.668,-50.293,-24.902,-9.277
1687734193.238,-0.977,-41.016,-53.711,-22.461,-134.766
1687734193.242,-31.250,-41.992,-51.758,-35.645,-153.809
1687734193.246,-78.125,-40.527,-52.734,-42.480,-25.879
1687734193.250,-102.539,-41.504,-55.176,-42.480,-4.883
1687734193.254,-53.711,-39.551,-51.270,-46.387,-71.289
1687734193.257,1.953,-37.109,-50.293,-46.387,107.910
1687734193.261,-15.625,-35.645,-51.758,-41.016,348.145
1687734193.265,-68.848,-35.645,-51.270,-54.199,49.805
1687734193.269,-100.586,-31.738,-51.270,-57.129,-126.465
1687734193.273,-55.176,-22.949,-54.199,-44.922,-60.547
1687734193.274,0.977,-23.926,-56.152,-40.039,-108.887
1687734193.278,-8.301,-30.273,-56.152,-38.574,-169.922
1687734193.282,-53.223,-34.180,-58.105,-47.363,-92.773
1687734193.286,-91.797,-24.902,-56.152,-49.805,42.969
1687734193.290,-48.340,-23.926,-53.711,-38.574,-64.941
1687734193.294,17.578,-28.320,-52.734,-29.297,-57.129
1687734193.298,12.207,-30.273,-55.176,-27.344,76.660
1687734193.301,-32.227,-34.180,-56.641,-25.391,180.664
1687734193.305,-81.055,-33.203,-55.664,-34.180,50.781
1687734193.309,-59.570,-33.691,-57.617,-34.180,-171.875
1687734193.313,6.836,-33.203,-54.199,-24.414,-184.082
1687734193.317,9.766,-33.203,-54.199,-23.438,-163.574
1687734193.319,-26.855,-34.180,-57.129,-29.785,-177.246
1687734193.323,-78.125,-35.645,-56.641,-41.504,-175.293
1687734193.327,-72.266,-33.203,-57.617,-38.086,-148.926
1687734193.331,-6.836,-32.715,-55.664,-32.715,-184.082
1687734193.335,2.441,-32.715,-56.641,-33.691,-195.801
1687734193.339,-35.156,-28.320,-54.688,-39.062,-166.992
1687734193.343,-83.008,-27.344,-54.688,-47.852,66.895
1687734193.346,-75.195,-28.809,-53.711,-39.551,251.465
1687734193.350,-7.324,-30.273,-53.223,-32.227,17.578
1687734193.354,6.836,-30.762,-54.199,-32.227,-98.633
1687734193.358,-25.391,-28.809,-49.316,-24.902,91.309
1687734193.362,-71.777,-31.250,-50.293,-29.297,87.891
1687734193.364,-75.684,-29.785,-49.316,-38.086,-158.203
1687734193.368,-12.695,-28.320,-46.387,-30.762,-122.070
1687734193.372,13.672,-31.250,-48.828,-20.508,-60.547
1687734193.376,-17.090,-34.180,-44.922,-34.180,-101.562
1687734193.380,-68.848,-30.273,-45.898,-41.504,-165.527
1687734193.384,-82.520,-27.832,-45.898,-32.715,-31.738
1687734193.388,-26.367,-32.715,-45.898,-18.555,221.191
1687734193.391,7.812,-37.109,-50.781,-20.508,56.152
1687734193.395,-14.648,-38.574,-51.270,-35.645,-194.824
1687734193.399,-64.453,-35.156,-52.734,-43.945,-142.578
1687734193.403,-85.449,-38.086,-48.828,-43.945,73.730
1687734193.407,-33.691,-40.039,-49.805,-40.039,20.996
1687734193.424,10.742,-35.156,-51.270,-39.062,-116.211
1687734193.428,-5.859,-35.645,-44.434,-42.969,-94.238
1687734193.432,-46.875,-37.109,-40.527,-41.992,-24.902
1687734193.436,-81.543,-36.133,-47.852,-45.410,-104.004
1687734193.440,-43.457,-32.715,-51.758,-46.387,-160.645
1687734193.444,12.207,-30.273,-46.875,-38.574,-35.156
1687734193.448,-5.371,-31.738,-43.457,-41.504,-9.277
1687734193.451,-52.734,-31.250,-41.504,-44.922,46.387
1687734193.455,-89.355,-33.691,-42.480,-41.504,-8.301
1687734193.459,-48.340,-34.668,-44.922,-29.297,121.582
1687734193.463,15.625,-28.809,-43.457,-16.602,338.867
1687734193.467,6.348,-26.367,-42.969,-26.855,-35.645
1687734193.469,-40.527,-27.832,-47.363,-41.992,-176.758
1687734193.473,-85.938,-29.297,-48.340,-46.387,95.703
1687734193.477,-54.199,-29.297,-52.734,-42.480,9.766
1687734193.481,12.695,-29.785,-48.828,-32.715,-187.012
1687734193.485,13.672,-32.227,-44.922,-30.273,-152.832
1687734193.489,-29.785,-33.203,-48.828,-42.480,-23.438
1687734193.493,-85.449,-27.344,-50.293,-53.223,37.598
1687734193.496,-61.035,-29.785,-51.758,-46.387,-90.332
1687734193.500,2.930,-29.297,-55.176,-36.621,-66.895
1687734193.504,0.977,-21.973,-54.199,-34.180,167.480
1687734193.508,-34.180,-25.391,-52.734,-39.551,-37.109
1687734193.512,-80.078,-30.762,-51.270,-47.852,-177.734
1687734193.514,-71.777,-29.785,-46.875,-45.898,40.039
1687734193.518,-11.230,-31.250,-47.852,-34.668,22.461
1687734193.522,-0.977,-37.598,-52.246,-32.715,-174.316
1687734193.526,-34.668,-37.598,-53.711,-37.109,-169.922
1687734193.530,-86.426,-25.391,-54.688,-42.969,-89.355
1687734193.534,-86.914,-28.809,-56.152,-40.527,22.949
1687734193.538,-27.832,-36.621,-57.617,-36.133,62.988
1687734193.541,-10.742,-33.691,-58.594,-41.016,-82.520
1687734193.545,-36.621,-33.691,-51.758,-39.062,3.418
1687734193.549,-85.938,-30.762,-48.340,-36.133,284.668
1687734193.553,-88.867,-29.785,-45.898,-40.527,38.086
1687734193.557,-20.508,-38.574,-43.945,-34.668,-179.688
1687734193.560,5.371,-38.574,-47.363,-34.180,-83.984
1687734193.564,-23.438,-33.203,-44.434,-41.504,-119.629
1687734193.568,-71.777,-38.086,-42.480,-48.828,-130.859
1687734193.572,-89.355,-38.086,-45.898,-45.898,-32.227
1687734193.576,-33.203,-30.273,-45.410,-35.156,82.031
1687734193.580,-0.488,-31.250,-47.363,-35.156,73.730
1687734193.584,-20.020,-37.109,-50.293,-41.016,-22.949
1687734193.587,-66.895,-37.598,-48.340,-41.016,-104.492
1687734193.591,-97.168,-33.203,-47.852,-36.133,90.332
1687734193.595,-48.828,-33.203,-48.340,-35.645,15.137
1687734193.599,-2.930,-37.598,-45.898,-32.715,-198.730
1687734193.603,-11.230,-31.250,-44.922,-32.715,-200.684
1687734193.604,-57.617,-22.461,-45.410,-45.898,-131.348
1687734193.608,-93.750,-28.320,-44.434,-58.594,-179.688
1687734193.612,-49.805,-30.762,-44.922,-53.711,-216.797
1687734193.616,-2.930,-32.715,-44.434,-49.805,-82.031
1687734193.620,-14.648,-34.180,-45.410,-54.199,-29.785
1687734193.624,-52.734,-29.297,-46.875,-53.711,6.348
1687734193.628,-90.820,-29.785,-45.898,-53.711,39.551
1687734193.631,-50.293,-33.203,-45.410,-42.480,104.492
1687734193.635,11.719,-36.133,-48.828,-28.320,363.770
1687734193.639,9.277,-35.645,-54.199,-39.551,194.336
1687734193.643,-29.785,-37.109,-51.270,-51.270,-119.141
1687734193.647,-74.707,-32.715,-44.922,-57.617,-67.383
1687734193.649,-51.270,-29.297,-48.340,-57.129,-71.289
1687734193.653,7.812,-30.273,-51.758,-46.875,-92.773
1687734193.657,7.324,-30.762,-52.734,-53.223,-129.395
1687734193.661,-37.598,-31.250,-53.223,-62.988,-130.859
1687734193.665,-92.285,-35.645,-51.758,-66.895,-144.531
1687734193.669,-69.336,-33.691,-47.363,-55.664,-162.109
1687734193.673,-9.277,-34.668,-47.852,-43.945,-27.344
1687734193.676,-8.789,-40.039,-43.945,-43.945,287.109
1687734193.680,-41.992,-41.992,-45.898,-51.758,195.801
1687734193.684,-88.867,-39.551,-51.758,-58.594,-150.391
1687734193.688,-83.008,-34.668,-48.828,-48.828,-130.859
1687734193.692,-19.531,-37.598,-49.316,-39.551,-85.449
1687734193.694,-1.953,-36.621,-50.781,-38.086,-145.508
1687734193.698,-27.344,-33.691,-49.805,-43.945,-94.727
1687734193.702,-71.777,-37.109,-51.758,-54.199,-26.367
1687734193.706,-72.754,-33.203,-49.805,-47.363,-127.930
1687734193.710,-10.742,-31.738,-50.781,-38.086,-190.918
1687734193.714,11.719,-30.762,-50.781,-42.480,-107.422
1687734193.718,-18.066,-26.367,-50.293,-51.270,141.113
1687734193.721,-62.988,-31.738,-55.664,-48.828,402.832
1687734193.725,-75.195,-29.785,-54.688,-48.828,42.969
1687734193.729,-22.461,-26.367,-50.293,-45.898,-148.438
1687734193.733,1.465,-35.645,-50.293,-40.527,163.086
1687734193.737,-24.902,-38.574,-45.410,-43.945,123.047
1687734193.739,-69.336,-39.551,-44.922,-47.852,-171.875
1687734193.743,-95.215,-37.109,-50.293,-53.711,-149.414
1687734193.747,-41.992,-32.715,-48.828,-47.852,-59.570
1687734193.751,2.930,-32.715,-45.898,-32.227,-85.938
1687734193.755,-21.973,-36.621,-43.457,-35.645,-142.578
1687734193.759,-71.289,-40.039,-41.504,-46.875,-46.387
1687734193.763,-102.051,-38.086,-43.945,-51.270,263.184
1687734193.766,-54.199,-33.691,-44.922,-44.434,50.781
1687734193.770,-5.859,-36.133,-46.875,-38.086,-202.637
1687734193.774,-20.996,-36.621,-50.781,-41.016,-127.930
1687734193.778,-62.500,-36.133,-52.734,-47.363,-100.098
1687734193.782,-102.051,-35.645,-52.734,-53.223,-100.586
1687734193.785,-61.035,-33.691,-51.270,-47.852,-72.754
1687734193.789,-8.301,-36.133,-50.293,-42.480,-67.871
1687734193.793,-23.438,-38.086,-50.293,-44.922,-6.348
1687734193.797,-62.988,-33.691,-55.176,-50.781,-118.652
1687734193.801,-104.980,-31.250,-52.734,-53.711,-215.332
1687734193.805,-70.312,-33.203,-51.758,-44.434,22.461
1687734193.809,-15.625,-30.273,-51.270,-37.598,88.867
1687734193.812,-28.809,-31.250,-47.363,-48.340,-59.082
1687734193.816,-67.383,-35.645,-56.152,-56.152,-135.742
1687734193.820,-110.352,-31.738,-55.176,-55.176,47.852
1687734193.824,-77.148,-28.809,-44.434,-43.457,236.328
1687734193.828,0.000,-33.691,-45.898,-43.945,-104.980
1687734193.845,15.137,-31.250,-48.828,-52.734,-171.387
1687734193.849,-16.113,-25.879,-47.363,-64.453,-58.594
1687734193.853,-67.383,-25.879,-50.781,-74.219,-82.031
1687734193.857,-53.223,-29.785,-57.129,-72.754,-94.238
1687734193.861,12.695,-31.738,-54.688,-66.406,-60.547
1687734193.865,16.113,-28.809,-53.223,-58.105,181.641
1687734193.869,-28.809,-29.785,-52.734,-58.105,144.043
1687734193.872,-91.309,-29.785,-50.781,-64.453,-125.488
1687734193.876,-102.539,-34.180,-53.223,-61.523,-115.723
1687734193.880,-49.805,-36.133,-51.758,-50.781,71.777
1687734193.884,-31.250,-36.621,-47.852,-57.129,1.953
1687734193.888,-62.988,-40.039,-48.340,-62.012,-104.980
1687734193.889,-111.328,-35.645,-45.410,-56.641,-89.355
1687734193.893,-113.281,-34.668,-40.039,-54.199,-80.078
1687734193.897,-52.734,-37.598,-41.504,-45.410,-168.457
1687734193.901,-20.996,-36.621,-44.434,-36.621,-172.852
1687734193.905,-41.992,-33.691,-45.410,-41.016,-61.523
1687734193.909,-92.285,-30.762,-42.969,-48.340,62.500
1687734193.913,-109.375,-32.227,-39.062,-50.293,36.133
1687734193.916,-50.293,-32.715,-42.480,-44.922,-0.977
1687734193.920,-9.766,-35.156,-47.363,-39.551,139.648
1687734193.924,-29.297,-35.156,-45.898,-36.621,319.336
1687734193.928,-78.125,-31.250,-43.945,-49.316,17.090
1687734193.932,-101.074,-30.762,-43.945,-64.453,-174.805
1687734193.934,-46.875,-32.715,-45.898,-57.129,-49.316
1687734193.938,-0.488,-30.762,-45.410,-44.434,-67.383
1687734193.942,-16.113,-29.785,-44.434,-44.922,-114.746
1687734193.946,-66.406,-33.691,-43.945,-54.688,-171.875
1687734193.950,-113.281,-36.133,-42.480,-61.523,-76.660
1687734193.954,-78.125,-34.180,-44.922,-59.570,-24.414
1687734193.958,-23.926,-32.715,-45.898,-49.805,-45.410
1687734193.961,-35.156,-31.250,-47.852,-53.223,8.789
1687734193.965,-80.566,-32.715,-47.363,-56.641,230.469
1687734193.969,-120.605,-35.156,-50.293,-57.617,129.395
1687734193.973,-83.008,-36.621,-49.805,-54.688,-151.367
1687734193.977,-16.113,-40.039,-46.387,-43.457,-104.980
1687734193.979,-14.160,-39.062,-43.945,-40.527,-67.383
1687734193.983,-59.082,-36.133,-46.387,-58.594,-141.602
1687734193.987,-103.516,-34.180,-50.781,-72.754,-184.570
1687734193.991,-67.871,-30.273,-42.969,-57.617,-172.363
1687734193.995,-6.348,-30.273,-40.527,-48.828,-130.859
1687734193.999,-12.695,-31.738,-44.922,-47.852,-13.672
1687734194.003,-54.688,-27.832,-42.969,-51.270,-23.926
1687734194.006,-105.469,-26.855,-42.480,-54.688,145.508
1687734194.010,-79.102,-27.832,-39.551,-39.062,474.609
1687734194.014,-13.184,-24.414,-38.086,-42.480,214.355
1687734194.018,-8.301,-23.926,-41.992,-51.758,-75.195
1687734194.022,-46.387,-24.902,-40.039,-47.363,27.832
1687734194.024,-104.492,-26.855,-41.504,-58.105,-65.918
1687734194.028,-92.773,-27.344,-41.504,-60.059,-181.641
1687734194.032,-21.973,-26.855,-43.457,-50.781,-126.465
1687734194.036,-9.277,-26.855,-42.969,-50.781,-122.559
1687734194.040,-38.574,-27.832,-36.621,-51.270,-181.152
1687734194.044,-88.379,-26.855,-35.156,-58.594,-163.574
1687734194.048,-93.750,-27.832,-39.062,-61.035,16.602
1687734194.051,-29.297,-32.227,-39.062,-41.016,258.789
1687734194.055,-1.953,-32.227,-38.086,-37.109,25.879
1687734194.059,-33.691,-39.551,-39.551,-51.758,-184.570
1687734194.063,-81.543,-41.992,-39.551,-58.105,-163.086
1687734194.067,-91.797,-39.062,-39.062,-57.129,-168.457
1687734194.069,-30.762,-35.645,-37.109,-46.875,-164.062
1687734194.073,7.324,-31.250,-34.668,-37.598,-203.125
1687734194.077,-12.207,-31.738,-32.715,-36.621,-99.609
1687734194.081,-62.012,-31.738,-33.203,-42.969,-40.527
1687734194.085,-83.984,-27.344,-37.598,-41.992,-97.656
1687734194.089,-27.344,-23.926,-40.039,-36.133,-64.941
1687734194.093,16.113,-26.855,-35.645,-32.715,89.844
1687734194.096,-5.859,-28.809,-35.156,-34.180,355.469
1687734194.100,-50.781,-28.809,-39.551,-49.805,67.871
1687734194.104,-76.172,-27.344,-35.156,-51.270,-169.922
1687734194.108,-31.250,-26.855,-27.832,-32.227,-12.695
1687734194.112,10.254,-31.250,-31.250,-29.297,-45.410
1687734194.115,-13.184,-34.180,-37.598,-41.504,-137.695
1687734194.119,-62.988,-28.809,-35.156,-44.922,-111.816
1687734194.123,-101.074,-25.879,-33.203,-48.828,12.695
1687734194.127,-62.500,-33.691,-37.109,-50.293,-45.410
1687734194.131,-5.371,-29.785,-39.062,-48.340,-156.250
1687734194.135,-11.719,-29.785,-38.574,-54.199,-75.195
1687734194.139,-61.035,-33.691,-41.016,-56.152,205.078
1687734194.142,-109.863,-31.738,-41.992,-60.547,85.449
1687734194.146,-76.660,-31.738,-40.527,-55.176,-93.750
1687734194.150,-13.672,-33.203,-42.969,-43.457,-33.691
1687734194.154,-20.508,-33.691,-42.969,-47.852,-41.992
1687734194.158,-64.941,-30.762,-43.457,-59.082,-110.352
1687734194.159,-108.398,-29.297,-40.527,-59.082,-153.320
1687734194.163,-81.543,-36.621,-39.062,-54.199,-105.957
1687734194.167,-17.578,-35.645,-41.016,-48.828,-93.750
1687734194.171,-13.672,-30.762,-41.504,-53.223,-125.977
1687734194.175,-52.734,-33.691,-41.016,-60.059,-159.180
1687734194.179,-109.375,-32.227,-39.551,-65.918,63.965
1687734194.183,-91.797,-26.367,-38.574,-58.105,297.852
1687734194.186,-26.367,-22.949,-36.621,-52.246,-5.859
1687734194.190,-18.555,-25.879,-36.133,-63.477,-203.613
1687734194.194,-41.504,-29.785,-37.598,-63.477,-74.707
1687734194.198,-93.262,-29.297,-41.016,-68.848,19.531
1687734194.202,-90.820,-36.621,-41.992,-70.312,-100.586
1687734194.219,-22.461,-40.527,-39.062,-53.223,-121.094
1687734194.223,-1.953,-35.645,-44.922,-57.129,-54.688
1687734194.227,-31.738,-36.133,-48.340,-62.500,-80.078
1687734194.231,-81.055,-36.133,-43.457,-62.988,-149.902
1687734194.235,-87.402,-32.227,-39.551,-62.988,-140.625
1687734194.239,-32.715,-31.738,-38.086,-54.688,-21.973
1687734194.243,-8.789,-29.297,-39.062,-50.293,-0.977
1687734194.246,-35.156,-34.180,-41.016,-51.758,-91.309
1687734194.250,-85.938,-37.109,-46.387,-62.500,-5.859
1687734194.254,-101.562,-33.203,-42.480,-57.129,238.770
1687734194.258,-38.574,-28.809,-36.621,-39.551,67.871
1687734194.262,3.906,-23.438,-34.668,-32.227,-159.180
1687734194.264,-18.066,-20.508,-33.691,-35.156,-117.676
1687734194.268,-69.336,-29.785,-40.039,-50.781,-128.906
1687734194.272,-99.609,-31.250,-46.387,-58.105,-153.320
1687734194.276,-51.758,-25.391,-43.457,-52.734,-138.184
1687734194.280,-3.418,-30.762,-42.969,-47.852,-91.309
1687734194.284,-19.531,-29.297,-49.316,-54.199,-53.711
1687734194.288,-61.523,-26.367,-48.340,-63.965,-67.383
1687734194.291,-87.891,-29.785,-40.039,-65.918,-116.211
1687734194.295,-46.875,-31.250,-42.480,-59.082,140.137
1687734194.299,1.465,-32.715,-43.945,-44.922,472.656
1687734194.303,-6.348,-31.250,-41.992,-38.086,152.344
1687734194.307,-53.223,-33.203,-42.480,-51.270,-151.855
1687734194.309,-107.422,-35.645,-47.852,-68.359,-80.566
1687734194.313,-74.219,-34.180,-48.828,-61.035,-115.234
1687734194.317,-11.719,-31.738,-45.410,-46.387,-192.871
1687734194.321,-23.438,-32.227,-42.480,-48.340,-178.223
1687734194.325,-62.988,-33.691,-41.016,-54.688,-31.738
1687734194.329,-96.680,-33.203,-37.598,-56.152,94.238
1687734194.333,-73.242,-33.691,-39.062,-48.828,-51.758
1687734194.336,-17.090,-36.621,-41.992,-37.109,-97.168
1687734194.340,-15.137,-35.156,-35.156,-31.738,176.758
1687734194.344,-56.152,-28.809,-28.809,-35.156,15.137
1687734194.348,-110.352,-29.785,-30.273,-43.457,-192.871
1687734194.352,-89.844,-36.133,-38.574,-42.480,3.906
1687734194.355,-25.391,-38.086,-40.039,-43.457,20.020
1687734194.359,-19.531,-37.109,-36.133,-54.199,-119.141
1687734194.363,-57.129,-35.156,-39.062,-60.059,-118.164
1687734194.367,-111.328,-36.621,-41.992,-66.406,-48.828
1687734194.371,-99.609,-34.668,-41.016,-67.871,-29.785
1687734194.375,-30.762,-28.809,-44.434,-66.406,11.719
1687734194.379,-20.996,-29.785,-46.875,-69.336,-42.480
1687734194.382,-60.547,-35.645,-47.852,-76.660,84.961
1687734194.386,-110.352,-38.086,-48.340,-69.824,361.816
1687734194.390,-108.887,-38.574,-42.969,-68.359,-20.020
1687734194.394,-50.293,-37.598,-41.504,-65.918,-254.883
1687734194.398,-32.227,-38.086,-43.945,-68.359,-83.496
1687734194.400,-64.453,-35.645,-43.457,-75.195,-115.723
1687734194.404,-117.188,-35.645,-41.992,-74.707,-115.723
1687734194.408,-125.000,-40.527,-43.457,-73.242,-48.340
1687734194.412,-59.082,-41.504,-41.504,-61.523,36.621
1687734194.416,-24.902,-37.109,-41.504,-50.781,-49.316
1687734194.420,-51.270,-41.992,-41.016,-54.199,-139.160
1687734194.424,-104.492,-41.016,-41.504,-67.871,-100.098
1687734194.427,-118.652,-35.156,-37.598,-63.965,192.871
1687734194.431,-62.012,-37.598,-39.062,-53.223,101.074
1687734194.435,-20.508,-41.992,-43.457,-59.570,-117.676
1687734194.439,-34.180,-45.410,-43.457,-63.477,-110.352
1687734194.443,-86.914,-42.480,-43.457,-67.871,-114.258
1687734194.444,-115.723,-29.785,-41.016,-69.336,-135.742
1687734194.448,-61.035,-27.832,-41.016,-57.129,-125.000
1687734194.452,-9.277,-31.250,-37.598,-49.316,-119.629
1687734194.456,-27.344,-33.203,-33.203,-53.223,-93.262
1687734194.460,-78.125,-33.691,-31.250,-57.617,-52.246
1687734194.464,-117.676,-30.273,-30.273,-55.664,-13.184
1687734194.468,-75.195,-29.297,-36.621,-48.340,134.277
1687734194.471,-24.902,-34.668,-43.945,-44.434,456.055
1687734194.475,-39.062,-32.715,-46.387,-48.340,226.074
1687734194.479,-81.543,-29.785,-43.945,-57.129,-109.375
1687734194.483,-126.953,-31.738,-39.551,-64.453,-67.871
1687734194.487,-92.285,-29.785,-37.109,-56.641,-95.215
1687734194.489,-30.762,-33.203,-43.945,-48.828,-89.844
1687734194.493,-38.086,-35.156,-46.387,-56.641,-116.699
1687734194.497,-74.707,-34.180,-43.945,-62.012,-88.867
1687734194.501,-116.699,-32.715,-42.969,-68.359,-113.770
1687734194.505,-85.449,-30.762,-37.598,-66.406,-193.359
1687734194.509,-8.789,-27.832,-35.645,-56.641,-44.922
1687734194.513,-2.441,-27.344,-45.410,-58.105,275.391
1687734194.516,-41.504,-29.785,-51.758,-71.777,109.375
1687734194.520,-89.355,-33.203,-55.176,-90.332,-170.898
1687734194.524,-72.754,-33.691,-55.176,-82.031,-63.477
1687734194.528,-15.137,-34.180,-55.176,-62.500,61.035
1687734194.532,-12.695,-33.691,-57.129,-63.965,-104.980
1687734194.534,-52.246,-35.156,-58.105,-65.918,-171.387
1687734194.538,-109.863,-38.086,-51.270,-62.500,-67.383
1687734194.542,-112.305,-39.551,-41.992,-62.012,-74.707
1687734194.546,-50.781,-44.434,-42.969,-58.105,-152.832
1687734194.550,-29.297,-44.922,-45.898,-52.734,-182.129
1687734194.554,-61.035,-38.574,-44.922,-57.129,18.555
1687734194.558,-115.234,-36.133,-43.945,-67.383,79.102
1687734194.561,-117.676,-38.574,-43.945,-65.918,-30.762
1687734194.565,-50.781,-36.621,-46.387,-57.617,-46.875
1687734194.569,-20.508,-36.133,-43.945,-54.688,88.379
1687734194.573,-47.363,-35.645,-42.969,-57.617,306.641
1687734194.577,-101.074,-34.180,-46.387,-73.242,46.387
1687734194.594,-117.188,-35.156,-41.992,-73.242,-121.582
1687734194.598,-61.035,-31.250,-42.480,-56.641,-40.527
1687734194.602,-21.973,-32.715,-49.316,-57.617,-133.789
1687734194.606,-42.969,-40.039,-50.293,-71.289,-192.383
1687734194.610,-94.238,-40.039,-47.852,-74.219,-136.230
1687734194.614,-115.723,-39.062,-50.293,-75.684,60.547
1687734194.618,-64.941,-38.574,-48.340,-76.660,-8.301
1687734194.621,-21.484,-36.621,-42.969,-74.707,-199.707
1687734194.625,-33.203,-31.738,-40.039,-72.754,-142.578
1687734194.629,-82.520,-31.738,-43.457,-72.266,100.098
1687734194.633,-120.117,-37.109,-43.457,-77.148,44.434
1687734194.637,-76.172,-38.574,-37.109,-71.289,-94.238
1687734194.639,-27.344,-37.598,-39.062,-68.848,-126.953
1687734194.643,-45.410,-35.645,-41.504,-75.195,-93.262
1687734194.647,-86.426,-31.738,-40.527,-78.125,-102.539
1687734194.651,-116.211,-29.785,-41.504,-81.055,-99.121
1687734194.655,-81.055,-35.645,-43.457,-73.242,-45.898
1687734194.659,-31.738,-38.086,-44.434,-71.289,-62.500
1687734194.663,-38.574,-33.203,-42.969,-69.336,-20.996
1687734194.666,-74.707,-35.156,-41.016,-68.359,-16.602
1687734194.670,-118.652,-41.016,-41.504,-70.801,102.539
1687734194.674,-88.867,-41.504,-40.039,-62.988,199.219
1687734194.678,-26.367,-39.062,-38.086,-60.547,-32.227
1687734194.682,-28.320,-37.109,-37.109,-59.570,-169.434
1687734194.684,-74.707,-35.645,-38.574,-56.152,63.477
1687734194.688,-122.070,-30.762,-39.062,-61.523,175.293
1687734194.692,-94.238,-29.297,-37.598,-63.477,-110.840
1687734194.696,-24.414,-32.715,-43.945,-53.223,-130.371
1687734194.700,-28.809,-38.086,-50.293,-61.523,-76.172
1687734194.704,-67.383,-38.574,-48.340,-75.684,-144.043
1687734194.708,-109.863,-35.645,-43.945,-81.055,-179.199
1687734194.711,-104.492,-35.156,-41.992,-77.148,-96.191
1687734194.715,-36.621,-35.645,-41.016,-62.012,129.883
1687734194.719,-18.555,-43.457,-40.527,-62.012,31.738
1687734194.723,-53.223,-40.039,-37.598,-70.801,-202.148
1687734194.727,-106.934,-37.109,-38.574,-75.684,-158.691
1687734194.729,-101.074,-40.527,-41.504,-65.918,-108.398
1687734194.733,-38.086,-38.574,-38.086,-60.059,-132.324
1687734194.737,-16.602,-35.156,-38.086,-56.641,-116.211
1687734194.741,-47.363,-37.109,-40.527,-62.012,-10.742
1687734194.745,-103.027,-40.527,-40.527,-73.242,25.879
1687734194.749,-106.934,-39.551,-39.551,-67.383,90.332
1687734194.753,-38.086,-35.645,-35.156,-59.570,20.996
1687734194.756,-5.859,-31.738,-35.156,-53.711,101.074
1687734194.760,-37.109,-31.250,-37.109,-50.293,396.484
1687734194.764,-85.938,-31.250,-34.668,-61.035,87.891
1687734194.768,-101.074,-29.297,-36.621,-67.383,-139.648
1687734194.772,-43.457,-29.297,-36.133,-56.152,-67.383
1687734194.789,-5.859,-30.762,-34.668,-52.734,-131.348
1687734194.793,-30.273,-28.809,-36.133,-58.594,-166.992
1687734194.797,-72.266,-28.320,-30.273,-63.965,-137.695
1687734194.801,-102.051,-27.344,-29.785,-70.801,-77.148
1687734194.805,-58.105,-24.902,-32.715,-59.570,-61.523
1687734194.809,-8.789,-27.832,-29.785,-51.758,-23.926
1687734194.813,-22.949,-28.809,-29.297,-54.199,-3.418
1687734194.816,-69.336,-30.273,-31.250,-56.641,282.227
1687734194.820,-100.586,-31.250,-33.203,-62.988,156.250
1687734194.824,-54.688,-27.344,-30.273,-55.664,-177.246
1687734194.828,-4.883,-27.344,-29.297,-46.387,-163.574
1687734194.832,-27.344,-29.785,-32.715,-53.711,-143.066
1687734194.834,-77.637,-29.785,-30.762,-63.477,-134.277
1687734194.838,-114.746,-31.250,-31.250,-67.871,-126.953
1687734194.842,-80.078,-36.621,-39.062,-63.477,-137.207
1687734194.846,-19.531,-40.039,-40.039,-48.828,-166.504
1687734194.850,-22.461,-36.621,-33.691,-48.828,-183.105
1687734194.854,-61.523,-33.691,-38.574,-62.012,-121.582
1687734194.858,-103.516,-32.715,-41.992,-62.500,34.180
1687734194.861,-73.730,-25.879,-33.203,-50.293,17.090
1687734194.865,-6.836,-19.043,-31.738,-40.527,51.758
1687734194.869,-0.977,-22.949,-32.715,-41.504,-1.953
1687734194.873,-45.898,-28.809,-38.086,-48.340,9.277
1687734194.877,-101.074,-31.250,-39.551,-49.805,313.477
1687734194.864,-78.125,-31.250,-35.645,-48.828,145.020
1687734194.868,-15.625,-30.762,-36.133,-47.363,-77.148
1687734194.872,-8.789,-26.855,-35.156,-49.805,-24.902
1687734194.876,-44.922,-22.461,-34.668,-63.965,-98.633
1687734194.880,-93.262,-29.297,-36.621,-74.219,-179.688
1687734194.884,-80.566,-29.785,-32.227,-65.918,-37.598
1687734194.888,-23.438,-26.367,-29.785,-55.176,83.008
1687734194.891,-13.672,-29.297,-30.762,-55.176,-102.539
1687734194.895,-47.363,-32.227,-35.645,-66.406,-213.867
1687734194.899,-99.121,-33.203,-37.109,-76.172,-134.277
1687734194.903,-103.027,-31.738,-37.598,-66.895,276.855
1687734194.907,-38.086,-30.273,-36.133,-53.223,263.672
1687734194.909,-6.836,-34.668,-34.668,-53.711,-108.887
1687734194.913,-36.133,-40.039,-35.156,-60.547,-111.816
1687734194.917,-87.402,-36.621,-31.250,-61.523,-60.059
1687734194.921,-104.980,-34.180,-29.297,-65.430,-180.176
1687734194.925,-53.711,-34.180,-29.785,-63.965,-164.551
1687734194.929,-23.438,-38.574,-29.297,-56.152,-41.504
1687734194.933,-49.316,-43.457,-29.785,-65.918,5.859
1687734194.936,-99.121,-46.875,-36.621,-76.172,6.836
1687734194.940,-120.117,-45.898,-34.180,-68.848,-102.051
1687734194.944,-64.453,-41.992,-30.273,-53.711,55.664
1687734194.948,-19.043,-42.969,-32.715,-41.504,221.680
1687734194.952,-33.691,-32.227,-29.785,-46.387,-94.727
1687734194.969,-74.219,-24.414,-28.320,-54.688,-113.770
1687734194.973,-104.004,-31.250,-32.227,-62.988,119.141
1687734194.977,-60.059,-35.156,-36.621,-58.594,47.852
1687734194.981,0.000,-32.715,-33.691,-43.457,-136.230
1687734194.985,-5.859,-29.297,-31.738,-40.039,-100.586
1687734194.989,-56.641,-26.855,-30.273,-51.758,65.430
1687734194.993,-98.633,-30.273,-33.203,-62.988,-44.922
1687734194.996,-59.570,-36.621,-35.156,-58.105,-137.695
1687734195.000,-3.906,-38.574,-35.156,-47.363,-99.609
1687734195.004,-19.043,-41.016,-36.621,-52.246,86.426
1687734195.008,-63.477,-42.480,-36.133,-65.918,-48.340
1687734195.012,-103.027,-43.945,-39.551,-68.848,-145.996
1687734195.015,-71.289,-39.062,-38.086,-59.082,-76.172
1687734195.019,-8.301,-36.133,-34.180,-53.223,-91.309
1687734195.023,-3.906,-30.273,-34.180,-53.711,-100.586
1687734195.027,-43.457,-24.414,-35.645,-56.641,-119.141
1687734195.031,-96.191,-29.297,-37.109,-65.430,-56.641
1687734195.035,-79.590,-34.668,-37.109,-58.594,90.820
1687734195.039,-19.531,-41.016,-37.598,-50.781,-21.484
1687734195.042,-12.695,-37.109,-35.156,-56.641,-145.508
1687734195.046,-48.828,-31.738,-35.645,-57.617,-38.086
1687734195.050,-100.586,-33.203,-37.109,-59.570,247.070
1687734195.054,-88.379,-36.133,-33.691,-67.383,21.484
1687734195.058,-23.926,-38.574,-34.668,-57.617,-166.992
1687734195.059,-6.348,-35.645,-29.297,-55.664,-33.691
1687734195.063,-37.598,-34.180,-27.832,-65.430,-123.047
1687734195.067,-93.262,-35.645,-29.297,-71.777,-235.352
1687734195.071,-91.309,-35.156,-32.227,-66.895,-145.020
1687734195.075,-24.414,-30.762,-37.598,-50.781,-41.016
1687734195.079,3.906,-32.227,-32.715,-53.223,-86.426
1687734195.083,-20.996,-32.715,-27.344,-62.988,-55.176
1687734195.086,-76.172,-39.062,-28.809,-59.570,27.344
1687734195.090,-88.379,-44.434,-28.809,-54.199,267.090
1687734195.094,-30.762,-39.551,-28.320,-48.828,252.930
1687734195.098,-5.859,-35.156,-28.320,-52.246,-19.531
1687734195.102,-32.715,-32.715,-32.715,-62.988,-28.809
1687734195.104,-78.613,-33.691,-33.203,-65.918,-65.918
1687734195.108,-96.680,-39.551,-34.180,-65.430,-148.438
1687734195.112,-45.898,-40.039,-42.480,-63.965,-126.465
1687734195.116,-9.766,-37.598,-43.457,-52.734,-102.539
1687734195.120,-26.367,-35.156,-40.039,-55.664,-85.938
1687734195.124,-79.102,-34.668,-42.969,-69.336,18.066
1687734195.128,-108.887,-32.715,-45.898,-69.336,38.086
1687734195.131,-59.570,-31.738,-46.387,-55.664,163.086
1687734195.135,-19.531,-33.691,-46.875,-48.340,398.438
1687734195.139,-33.691,-31.738,-44.434,-62.012,141.113
1687734195.143,-80.566,-32.227,-42.969,-79.102,-177.734
1687734195.147,-117.188,-32.227,-43.945,-83.008,-73.730
1687734195.149,-76.172,-34.180,-42.480,-81.055,-89.844
1687734195.153,-22.949,-32.227,-37.598,-72.266,-219.238
1687734195.157,-30.762,-31.738,-36.133,-65.918,-172.852
1687734195.161,-74.219,-33.691,-37.598,-73.242,-83.984
1687734195.165,-117.676,-34.668,-37.598,-81.055,-113.281
1687734195.169,-85.938,-35.645,-40.039,-68.848,-121.582
1687734195.173,-27.832,-38.086,-41.016,-59.570,12.207
1687734195.176,-34.180,-41.016,-34.668,-54.688,176.758
1687734195.180,-71.289,-42.480,-35.156,-59.570,-10.254
1687734195.184,-106.445,-37.598,-34.668,-69.336,-184.082
1687734195.188,-76.660,-33.691,-33.691,-55.664,-77.148
1687734195.192,-17.578,-36.621,-30.762,-45.410,-3.906
1687734195.194,-23.926,-39.551,-29.297,-53.223,-118.652
1687734195.198,-58.105,-37.598,-34.180,-53.711,-182.617
1687734195.202,-103.027,-33.691,-35.156,-58.105,-182.129
1687734195.206,-85.449,-30.762,-32.227,-56.641,-166.504
1687734195.210,-11.719,-30.762,-35.645,-56.152,-100.586
1687734195.214,4.395,-34.180,-40.527,-65.430,-42.480
1687734195.218,-27.344,-36.133,-42.969,-63.965,31.738
1687734195.221,-76.660,-33.691,-40.039,-66.895,179.688
1687734195.225,-67.383,-28.320,-35.645,-76.172,-14.160
1687734195.229,-5.859,-30.273,-42.480,-76.172,-169.434
1687734195.233,4.395,-34.668,-44.434,-72.266,-5.371
1687734195.237,-39.062,-31.250,-42.969,-77.148,50.781
1687734195.241,-98.633,-27.832,-47.363,-80.078,-67.383
1687734195.245,-103.516,-30.273,-48.340,-78.613,-98.633
1687734195.249,-45.898,-34.668,-43.945,-73.730,29.785
1687734195.253,-20.508,-38.574,-41.504,-66.895,-18.066
1687734195.257,-51.270,-36.621,-42.969,-77.148,-152.344
1687734195.261,-103.027,-35.156,-40.527,-83.008,-61.523
1687734195.265,-108.398,-38.086,-38.086,-67.383,229.492
1687734195.268,-48.828,-36.621,-38.574,-57.129,69.824
1687734195.272,-17.578,-38.086,-34.668,-58.105,-164.062
1687734195.276,-42.480,-41.016,-38.574,-62.012,-76.660
1687734195.280,-88.867,-39.062,-40.039,-63.477,-70.312
1687734195.284,-105.469,-35.645,-38.086,-63.965,-120.605
1687734195.299,-53.223,-32.715,-40.527,-56.641,-139.648
1687734195.303,-15.137,-31.738,-41.504,-49.805,-63.477
1687734195.307,-33.203,-41.016,-43.945,-60.059,57.129
1687734195.311,-81.055,-43.457,-42.969,-71.777,-22.461
1687734195.315,-107.910,-38.086,-41.016,-70.312,-169.434
1687734195.319,-59.082,-39.551,-37.109,-52.246,26.367
1687734195.323,-7.812,-38.574,-34.668,-43.457,372.559
1687734195.326,-14.648,-37.109,-38.574,-48.340,92.285
1687734195.330,-62.012,-41.504,-40.039,-55.664,-160.645
1687734195.334,-106.445,-40.527,-39.062,-61.035,-51.270
1687734195.338,-68.359,-39.551,-41.992,-60.547,-4.883
1687734195.342,-18.066,-41.992,-41.992,-58.594,-97.168
1687734195.344,-33.691,-40.039,-40.527,-61.523,-89.844
1687734195.348,-71.289,-39.062,-40.039,-63.477,-2.441
1687734195.352,-111.328,-45.410,-43.457,-66.406,-90.820
1687734195.356,-78.125,-41.016,-45.898,-63.477,-187.988
1687734195.360,-19.043,-39.551,-41.992,-60.059,-87.891
1687734195.364,-23.438,-41.504,-45.410,-64.453,110.840
1687734195.368,-59.082,-36.621,-47.852,-68.848,71.289
1687734195.371,-104.004,-39.062,-46.387,-79.102,-82.520
1687734195.375,-80.566,-42.969,-43.945,-70.801,-106.934
1687734195.379,-11.719,-43.457,-44.434,-50.293,160.156
1687734195.383,-2.930,-40.039,-42.480,-52.246,38.086
1687734195.387,-39.551,-36.621,-38.086,-52.246,-167.969
1687734195.389,-88.867,-33.203,-42.969,-57.617,-96.680
1687734195.393,-77.148,-31.738,-44.922,-61.035,-124.512
1687734195.397,-8.789,-31.738,-45.898,-47.363,-129.883
1687734195.401,-4.395,-35.156,-44.922,-53.223,-144.043
1687734195.405,-43.457,-38.574,-39.551,-51.758,-153.809
1687734195.409,-92.773,-40.527,-42.969,-59.570,-18.555
1687734195.413,-86.914,-42.969,-43.457,-61.523,27.344
1687734195.416,-19.043,-41.992,-38.574,-44.922,-77.148
1687734195.420,2.930,-38.086,-36.133,-43.945,45.898
1687734195.424,-25.391,-35.645,-35.645,-42.480,264.648
1687734195.428,-80.078,-39.551,-39.062,-52.246,77.637
1687734195.432,-94.238,-41.992,-38.574,-65.918,-138.672
1687734195.434,-35.156,-39.551,-40.527,-59.082,-60.059
1687734195.438,-5.859,-38.574,-44.434,-58.594,-83.008
1687734195.442,-30.273,-35.645,-40.527,-63.477,-189.941
1687734195.446,-77.637,-36.133,-41.504,-62.500,-146.973
1687734195.450,-91.797,-37.598,-42.480,-55.664,-27.344
1687734195.454,-34.180,-38.574,-43.945,-42.969,43.945
1687734195.458,2.441,-43.457,-49.316,-41.504,37.598
1687734195.461,-19.043,-50.293,-49.316,-51.758,-67.871
1687734195.465,-69.336,-41.504,-47.852,-53.711,157.227
1687734195.469,-93.750,-29.297,-44.922,-53.711,191.895
1687734195.473,-34.668,-28.809,-41.016,-46.387,-20.020
1687734195.477,17.090,-31.250,-41.504,-37.598,-24.414
1687734195.479,-3.418,-34.668,-41.016,-41.016,18.555
1687734195.483,-51.758,-38.086,-41.992,-49.316,-67.871
1687734195.487,-86.914,-38.574,-41.016,-59.570,-107.422
1687734195.491,-43.457,-36.133,-39.062,-55.664,-71.777
1687734195.495,9.766,-33.203,-39.062,-46.875,-45.898
1687734195.499,-5.371,-38.574,-41.992,-54.199,46.387
1687734195.503,-50.293,-41.016,-46.387,-61.523,-57.129
1687734195.506,-90.332,-41.504,-44.434,-59.570,95.215
1687734195.510,-58.105,-43.945,-39.551,-43.457,389.648
1687734195.514,2.441,-35.645,-39.062,-36.133,22.949
1687734195.518,-4.395,-31.738,-38.086,-43.457,-157.227
1687734195.522,-48.828,-31.738,-36.133,-40.527,46.387
1687734195.524,-95.215,-32.715,-37.109,-37.109,-61.523
1687734195.528,-67.871,-35.645,-39.062,-34.668,-172.852
1687734195.532,-5.371,-35.156,-42.480,-26.855,-83.984
1687734195.536,-7.812,-33.691,-41.992,-25.391,-8.789
1687734195.540,-44.434,-32.715,-40.527,-32.715,-66.895
1687734195.544,-92.285,-34.180,-38.574,-42.969,-62.012
1687734195.548,-79.102,-35.645,-39.551,-46.387,36.621
1687734195.551,-17.090,-36.621,-42.480,-38.086,262.207
1687734195.555,-3.906,-34.180,-40.527,-44.434,55.176
1687734195.559,-30.273,-32.227,-40.527,-53.223,-266.602
1687734195.563,-83.496,-30.762,-41.992,-55.664,-182.617
1687734195.567,-77.637,-28.320,-41.504,-54.688,-150.391
1687734195.570,-10.254,-27.344,-43.457,-46.387,-216.797
1687734195.574,7.324,-22.949,-43.457,-43.945,-199.707
1687734195.578,-27.344,-23.438,-41.504,-46.875,-98.633
1687734195.582,-82.031,-30.762,-42.480,-49.316,-36.621
1687734195.586,-89.844,-37.109,-50.293,-52.246,-133.301
1687734195.590,-22.949,-36.621,-46.387,-42.969,-134.277
1687734195.594,6.348,-34.668,-43.457,-34.180,19.531
1687734195.597,-30.762,-38.086,-52.246,-38.574,177.246
1687734195.601,-82.520,-33.203,-52.734,-44.434,30.273
1687734195.605,-83.008,-29.297,-44.434,-41.016,-128.418
1687734195.609,-21.973,-29.785,-40.527,-30.762,-12.695
1687734195.613,5.859,-29.785,-42.480,-30.273,-35.156
1687734195.614,-21.973,-30.762,-41.504,-41.016,-158.203
1687734195.618,-74.707,-35.156,-43.457,-50.293,-135.742
1687734195.622,-91.309,-35.156,-42.969,-49.805,-74.219
1687734195.626,-35.156,-32.227,-41.016,-37.109,-11.719
1687734195.630,1.465,-31.738,-40.527,-31.738,-2.930
1687734195.634,-19.531,-32.715,-41.992,-34.668,46.387
1687734195.638,-64.941,-38.574,-43.945,-33.203,323.730
1687734195.641,-91.797,-41.504,-41.016,-39.062,184.570
1687734195.645,-41.504,-37.109,-45.410,-43.457,-182.129
1687734195.649,2.930,-34.668,-46.875,-36.621,-179.199
1687734195.653,-16.113,-41.504,-46.875,-42.480,-125.488
1687734195.657,-62.988,-38.574,-49.316,-51.758,-179.688
1687734195.659,-102.051,-32.227,-51.758,-57.129,-138.184
1687734195.663,-58.594,-38.086,-49.316,-53.223,-93.262
1687734195.667,-0.488,-37.598,-48.340,-51.758,-60.547
1687734195.671,-12.207,-34.180,-51.758,-54.688,-80.078
1687734195.675,-51.758,-33.691,-46.387,-53.223,-125.977
1687734195.679,-91.309,-32.227,-42.969,-53.223,48.340
1687734195.683,-58.594,-35.645,-42.969,-49.805,135.742
1687734195.686,0.000,-34.668,-40.527,-42.969,24.902
1687734195.690,-9.766,-31.738,-46.387,-43.457,5.859
1687734195.694,-52.246,-35.645,-48.828,-45.898,161.133
1687734195.698,-97.656,-40.039,-43.457,-46.387,358.398
1687734195.702,-71.289,-34.668,-40.039,-43.457,90.332
1687734195.719,-9.277,-34.180,-44.922,-39.062,-82.520
1687734195.723,-10.742,-39.062,-45.410,-38.086,-56.152
1687734195.727,-47.852,-35.645,-46.875,-42.480,-63.477
1687734195.731,-92.285,-32.715,-47.852,-45.410,-96.191
1687734195.735,-75.684,-31.250,-43.945,-39.062,-113.770
1687734195.739,-14.160,-30.273,-45.410,-33.691,31.738
1687734195.743,-3.906,-28.320,-47.852,-43.945,64.941
1687734195.746,-32.227,-29.297,-46.387,-49.316,-120.117
1687734195.750,-80.566,-31.738,-47.852,-51.758,-137.695
1687734195.754,-73.242,-28.809,-45.898,-42.480,230.469
1687734195.758,-6.836,-29.297,-42.480,-38.574,115.723
1687734195.762,6.348,-29.297,-54.688,-51.758,-133.789
1687734195.764,-25.879,-27.832,-50.781,-52.246,-125.977
1687734195.768,-79.590,-33.691,-41.992,-58.105,-168.945
1687734195.772,-92.285,-36.133,-45.410,-64.941,-195.801
1687734195.776,-30.273,-34.668,-47.852,-56.152,-180.176
1687734195.780,-3.418,-37.109,-48.340,-52.734,-112.793
1687734195.784,-35.645,-38.086,-46.875,-47.852,-54.199
1687734195.788,-83.008,-39.551,-40.039,-47.363,-41.504
1687734195.791,-97.656,-41.992,-39.551,-46.875,-26.367
1687734195.795,-44.922,-42.969,-47.852,-34.668,117.676
1687734195.799,-10.742,-43.945,-44.922,-28.809,285.645
1687734195.803,-32.227,-42.969,-44.922,-40.039,25.879
1687734195.807,-81.543,-41.504,-48.828,-49.805,-125.488
1687734195.809,-114.746,-41.016,-52.246,-53.711,49.316
1687734195.813,-61.035,-41.504,-53.711,-51.270,-13.672
1687734195.817,-12.207,-41.504,-50.293,-47.363,-195.312
1687734195.821,-30.273,-43.457,-42.480,-49.805,-179.688
1687734195.825,-72.266,-42.969,-41.992,-49.805,-86.426
1687734195.829,-104.492,-43.457,-50.781,-58.594,-44.434
1687734195.833,-63.477,-39.062,-50.781,-59.570,-38.086
1687734195.836,-14.160,-39.551,-51.270,-54.199,-65.430
1687734195.840,-29.297,-41.504,-59.570,-53.711,110.352
1687734195.844,-71.777,-40.527,-62.500,-65.430,32.715
1687734195.848,-103.027,-36.133,-59.082,-70.801,-130.371
1687734195.852,-60.547,-36.133,-58.594,-56.641,-71.777
1687734195.855,-6.836,-42.969,-57.617,-51.758,-95.703
1687734195.859,-16.113,-44.434,-55.664,-50.293,-94.727
1687734195.863,-54.688,-42.480,-55.664,-50.293,-73.242
1687734195.867,-96.680,-39.551,-52.246,-53.223,-78.613
1687734195.871,-70.312,-43.457,-50.293,-41.504,-68.359
1687734195.875,-14.160,-44.922,-45.898,-34.180,-98.145
1687734195.879,-16.113,-41.992,-41.504,-35.645,-135.254
1687734195.882,-52.734,-40.527,-43.945,-28.809,46.875
1687734195.886,-94.727,-33.691,-42.480,-21.484,329.590
1687734195.890,-66.406,-31.738,-41.016,-21.973,75.195
1687734195.894,2.441,-34.668,-43.457,-21.973,-155.273
1687734195.898,5.371,-32.227,-44.922,-16.602,-112.305
1687734195.899,-33.203,-29.785,-45.898,-21.484,-145.996
1687734195.903,-88.379,-33.203,-50.293,-37.598,-208.496
1687734195.907,-85.938,-31.738,-51.758,-35.645,-183.105
1687734195.911,-22.461,-30.762,-47.852,-27.344,-9.277
1687734195.915,-12.207,-34.180,-49.805,-34.180,2.930
1687734195.919,-42.969,-36.621,-49.316,-40.527,-105.469
1687734195.923,-84.473,-34.668,-45.410,-45.898,-123.047
1687734195.926,-83.008,-35.645,-49.316,-42.480,142.578
1687734195.930,-23.926,-36.133,-54.199,-38.086,251.953
1687734195.934,-0.977,-34.180,-54.688,-41.504,-31.738
1687734195.938,-33.691,-37.598,-52.734,-41.992,-100.098
1687734195.942,-91.797,-42.480,-51.270,-51.758,-53.711
1687734195.944,-99.609,-42.480,-53.223,-51.758,-108.398
1687734195.948,-32.227,-36.621,-53.223,-35.156,-160.156
1687734195.952,-3.906,-35.645,-50.293,-30.273,-115.234
1687734195.956,-37.598,-37.109,-46.875,-34.668,-83.496
1687734195.960,-86.426,-37.598,-46.387,-42.480,-106.934
1687734195.964,-101.562,-38.086,-47.363,-49.805,-99.609
1687734195.968,-46.875,-35.156,-42.480,-46.875,109.375
1687734195.971,-10.254,-30.273,-43.945,-36.133,315.918
1687734195.975,-22.461,-31.250,-47.852,-38.086,70.312
1687734195.979,-59.082,-36.133,-48.828,-51.758,-97.168
1687734195.983,-76.660,-39.062,-46.387,-53.223,13.672
1687734195.987,-21.484,-40.527,-46.875,-50.293,48.340
1687734195.989,25.391,-35.156,-51.758,-59.570,-114.746
1687734195.993,2.930,-31.738,-51.758,-62.012,-111.816
1687734195.997,-54.199,-35.645,-45.898,-59.082,-57.129
1687734196.001,-95.215,-35.645,-43.457,-64.453,-106.934
1687734196.005,-63.477,-33.691,-46.387,-63.477,-112.793
1687734196.009,-18.066,-42.480,-48.340,-60.059,-35.156
1687734196.013,-33.203,-44.922,-47.363,-61.523,204.590
1687734196.016,-77.637,-42.480,-49.805,-67.383,52.246
1687734196.020,-114.258,-41.504,-46.875,-68.359,-147.949
1687734196.024,-78.613,-40.039,-43.945,-57.617,-71.777
1687734196.028,-22.949,-43.457,-46.387,-53.223,56.152
1687734196.032,-25.879,-39.062,-49.805,-62.500,-50.781
1687734196.035,-67.871,-37.598,-47.852,-65.430,-149.902
1687734196.039,-118.652,-42.480,-46.387,-62.012,-117.188
1687734196.043,-91.309,-39.551,-47.363,-50.293,-128.906
1687734196.047,-27.344,-37.598,-47.852,-44.434,-83.496
1687734196.051,-29.297,-44.434,-48.828,-51.270,-126.465
1687734196.055,-67.383,-46.387,-50.293,-54.688,-59.570
1687734196.059,-108.887,-42.480,-51.758,-57.129,100.586
1687734196.062,-90.332,-45.410,-45.898,-52.734,20.996
1687734196.066,-25.391,-44.922,-44.434,-41.504,-137.207
1687734196.070,-15.625,-44.922,-48.340,-36.621,1.953
1687734196.074,-43.945,-42.969,-41.016,-32.227,205.078
1687734196.078,-90.332,-39.062,-35.156,-42.969,-34.668
1687734196.094,-85.449,-37.598,-40.039,-42.969,-114.746
1687734196.098,-19.531,-36.133,-46.875,-35.645,19.531
1687734196.102,-6.348,-34.180,-49.805,-44.922,-70.312
1687734196.106,-40.527,-32.715,-47.852,-52.246,-198.242
1687734196.110,-91.309,-32.227,-46.387,-56.641,-125.000
1687734196.114,-99.609,-33.203,-46.387,-50.293,12.695
1687734196.118,-39.062,-35.156,-49.805,-42.480,-20.996
1687734196.121,-10.254,-35.645,-51.758,-44.922,-142.578
1687734196.125,-41.992,-38.086,-44.922,-45.898,-103.027
1687734196.129,-99.609,-39.551,-45.410,-52.734,134.277
1687734196.133,-115.723,-40.039,-48.828,-63.477,32.227
1687734196.137,-59.082,-41.504,-47.852,-57.617,-155.273
1687734196.139,-24.902,-39.551,-44.434,-48.828,-120.605
1687734196.143,-47.852,-38.086,-42.969,-50.293,-52.734
1687734196.147,-95.703,-36.621,-44.434,-57.617,-128.418
1687734196.151,-117.676,-37.109,-44.922,-62.012,-169.922
1687734196.155,-60.547,-36.133,-41.992,-49.805,-40.527
1687734196.159,-19.043,-37.598,-40.039,-36.621,59.570
1687734196.163,-39.062,-38.086,-41.504,-42.969,63.965
1687734196.166,-78.613,-37.598,-42.969,-50.781,21.484
1687734196.170,-106.934,-41.992,-44.434,-49.316,82.031
1687734196.174,-61.523,-39.551,-41.992,-33.691,317.871
1687734196.178,-7.812,-33.691,-37.598,-29.297,21.484
1687734196.182,-22.949,-41.504,-41.016,-45.898,-152.832
1687734196.184,-71.289,-46.387,-48.828,-60.059,-23.926
1687734196.188,-102.539,-36.133,-41.992,-55.664,-115.234
1687734196.192,-51.270,-34.180,-34.668,-40.527,-167.969
1687734196.196,5.371,-34.180,-38.086,-32.715,-81.055
1687734196.200,-9.766,-36.621,-40.039,-39.062,15.137
1687734196.204,-48.340,-39.551,-38.574,-54.688,4.395
1687734196.208,-92.773,-35.156,-40.527,-68.359,-25.391
1687734196.211,-68.848,-35.645,-45.410,-64.453,-61.035
1687734196.215,-11.230,-36.133,-47.363,-49.805,120.605
1687734196.219,-17.090,-34.668,-49.316,-55.664,97.656
1687734196.223,-55.176,-33.691,-46.387,-63.965,-127.441
1687734196.227,-103.027,-36.621,-43.457,-63.965,-97.168
1687734196.229,-80.566,-39.551,-39.062,-57.129,-35.156
1687734196.233,-13.672,-40.527,-40.527,-43.945,-105.469
1687734196.237,-11.719,-42.480,-40.527,-47.852,-93.750
1687734196.241,-50.293,-42.480,-36.621,-57.617,-66.895
1687734196.245,-98.145,-42.480,-40.039,-57.617,-82.520
1687734196.249,-89.355,-40.039,-40.527,-47.852,21.973
1687734196.253,-28.320,-39.062,-37.598,-40.527,65.918
1687734196.256,-18.066,-41.992,-41.016,-46.875,81.055
1687734196.260,-55.176,-41.504,-41.992,-44.922,381.348
1687734196.264,-98.633,-41.992,-41.016,-44.434,206.543
1687734196.268,-94.238,-46.387,-45.410,-55.176,-243.164
1687734196.272,-29.785,-39.551,-47.363,-45.410,-237.305
1687734196.274,-2.930,-40.527,-44.922,-36.621,-204.590
1687734196.278,-31.738,-41.992,-40.039,-39.551,-283.691
1687734196.282,-83.984,-34.668,-37.109,-41.992,-230.469
1687734196.286,-90.332,-34.180,-33.691,-32.715,-90.332
1687734196.290,-27.832,-35.645,-34.668,-22.949,-119.629
1687734196.294,-3.418,-41.992,-37.598,-35.156,-49.805
1687734196.298,-22.949,-39.062,-31.738,-37.598,62.012
1687734196.301,-65.430,-32.227,-30.273,-33.691,219.727
1687734196.305,-87.891,-34.180,-38.574,-38.574,148.926
1687734196.309,-31.738,-31.738,-41.504,-35.645,-160.645
1687734196.313,9.766,-22.949,-40.039,-34.668,-151.855
1687734196.317,-17.090,-26.367,-39.551,-40.039,-44.434
1687734196.319,-71.777,-31.250,-35.156,-47.363,-144.043
1687734196.323,-101.074,-28.320,-31.250,-51.758,-169.922
1687734196.327,-54.688,-29.785,-36.133,-47.363,-89.355
1687734196.331,-10.742,-30.273,-38.574,-41.016,-94.238
1687734196.335,-28.320,-35.645,-33.203,-44.434,-147.461
1687734196.339,-70.801,-36.621,-28.809,-50.293,-114.746
1687734196.343,-99.609,-32.227,-34.180,-48.340,74.707
1687734196.346,-57.617,-36.621,-39.062,-39.551,264.648
1687734196.350,-4.883,-35.156,-38.574,-37.109,4.883
1687734196.354,-24.902,-33.691,-38.086,-45.410,-227.539
1687734196.358,-77.637,-37.109,-40.527,-53.711,48.340
1687734196.362,-108.398,-32.227,-41.504,-49.316,199.219
1687734196.364,-67.383,-30.762,-37.109,-47.852,-88.379
1687734196.368,-10.254,-36.133,-34.668,-47.852,-144.043
1687734196.372,-13.184,-31.250,-34.180,-49.316,-24.902
1687734196.376,-53.711,-28.320,-37.598,-53.223,-94.727
1687734196.380,-100.098,-33.203,-41.504,-58.105,-152.344
1687734196.384,-72.266,-36.621,-41.504,-55.664,64.941
1687734196.388,-4.395,-35.156,-44.434,-35.645,265.625
1687734196.391,-3.418,-37.109,-47.852,-40.039,20.508
1687734196.395,-48.340,-39.062,-43.457,-56.152,-187.500
1687734196.399,-96.191,-39.062,-41.504,-57.617,-129.883
1687734196.403,-74.707,-33.691,-43.945,-47.363,-73.730
1687734196.407,-10.254,-31.250,-43.457,-44.434,-100.586
1687734196.410,-6.348,-32.715,-40.039,-42.480,-110.352
1687734196.414,-38.574,-29.785,-35.645,-34.668,-35.156
1687734196.418,-88.867,-32.227,-36.133,-42.480,16.602
1687734196.422,-84.473,-35.645,-35.156,-47.852,-82.031
1687734196.426,-20.996,-36.133,-33.203,-41.992,-139.160
1687734196.430,-10.742,-43.945,-39.551,-46.875,34.668
1687734196.434,-42.480,-42.969,-42.480,-50.781,133.301
1687734196.437,-99.609,-42.480,-42.969,-63.477,13.184
1687734196.441,-108.398,-41.016,-42.480,-71.289,-62.012
1687734196.445,-40.039,-31.738,-40.039,-53.223,52.246
1687734196.449,-16.602,-36.133,-38.574,-46.875,248.047
1687734196.453,-42.480,-31.738,-32.715,-54.688,-18.555
1687734196.469,-80.078,-26.367,-36.133,-50.781,-126.465
1687734196.473,-91.797,-30.273,-39.062,-45.410,26.855
1687734196.477,-39.551,-33.203,-41.016,-45.410,-16.113
1687734196.481,-8.789,-37.109,-45.898,-49.316,-63.477
1687734196.485,-30.273,-39.551,-41.992,-56.152,-79.102
1687734196.489,-76.172,-38.574,-41.016,-56.641,205.566
1687734196.493,-99.121,-36.133,-45.898,-62.500,189.453
1687734196.496,-45.898,-37.598,-43.457,-62.988,-164.062
1687734196.500,-3.906,-37.598,-40.527,-50.293,-118.652
1687734196.504,-17.578,-40.039,-37.109,-47.363,92.773
1687734196.508,-58.594,-42.969,-36.621,-57.129,-30.273
1687734196.512,-94.238,-40.527,-43.945,-67.383,-148.438
1687734196.514,-51.758,-37.598,-39.062,-57.617,-114.258
1687734196.518,-6.836,-38.574,-29.297,-44.434,-95.703
1687734196.522,-21.973,-39.551,-28.320,-47.363,-143.066
1687734196.526,-61.035,-39.062,-30.273,-47.363,-120.605
1687734196.530,-97.656,-37.109,-31.738,-46.875,-55.664
1687734196.534,-60.547,-33.203,-31.738,-37.598,-39.062
1687734196.538,-12.207,-37.109,-37.109,-35.645,-7.324
1687734196.541,-25.879,-41.992,-37.598,-43.457,-52.246
1687734196.545,-62.012,-39.551,-30.273,-40.527,64.453
1687734196.549,-105.469,-38.574,-28.809,-40.039,321.777
1687734196.553,-78.613,-43.457,-33.203,-50.781,109.375
1687734196.557,-15.625,-37.598,-34.668,-49.805,-157.227
1687734196.559,-22.461,-33.691,-31.738,-53.223,-56.152
1687734196.563,-62.988,-37.598,-31.738,-65.918,-74.219
1687734196.567,-108.398,-37.109,-36.133,-71.289,-170.410
1687734196.571,-82.520,-33.691,-40.527,-60.059,-141.113
1687734196.575,-10.254,-36.133,-42.969,-46.387,-54.199
1687734196.579,-4.883,-38.086,-41.992,-51.270,-17.090
1687734196.583,-49.316,-33.691,-42.480,-61.523,-34.180
1687734196.586,-93.262,-34.180,-41.992,-59.570,7.812
1687734196.590,-77.148,-35.156,-45.898,-52.246,248.535
1687734196.594,-14.648,-37.598,-49.316,-44.922,195.801
1687734196.598,-0.488,-35.645,-41.504,-45.410,-93.750
1687734196.602,-33.691,-29.297,-35.156,-49.316,-139.648
1687734196.604,-94.238,-35.156,-40.039,-58.105,-48.828
1687734196.608,-95.703,-40.039,-39.062,-54.688,-63.965
1687734196.612,-36.621,-41.504,-37.109,-50.293,-146.973
1687734196.616,-21.973,-44.434,-37.109,-53.223,-144.043
1687734196.620,-44.434,-44.434,-33.691,-48.828,-111.816
1687734196.624,-89.355,-40.527,-31.738,-54.199,-53.223
1687734196.628,-92.773,-39.062,-37.109,-52.734,-98.145
1687734196.631,-37.109,-41.016,-40.527,-40.039,15.625
1687734196.635,-12.695,-37.109,-38.086,-30.273,216.797
1687734196.639,-38.086,-38.086,-37.109,-40.527,48.340
1687734196.643,-87.891,-43.457,-37.598,-55.176,-62.988
1687734196.647,-109.375,-39.062,-37.598,-55.664,-15.137
1687734196.649,-53.223,-32.227,-35.645,-50.781,-45.410
1687734196.653,-15.137,-33.203,-36.621,-48.340,-167.969
1687734196.657,-41.992,-33.691,-38.574,-49.805,-182.129
1687734196.661,-92.285,-25.391,-34.180,-51.758,-69.824
1687734196.665,-115.234,-22.949,-32.715,-46.387,-104.004
1687734196.669,-63.477,-29.297,-34.668,-39.062,-126.465
1687734196.673,-21.973,-35.156,-29.785,-36.621,-39.551
1687734196.676,-37.598,-31.738,-27.832,-32.715,168.945
1687734196.680,-83.496,-29.785,-26.367,-43.457,56.152
1687734196.684,-115.234,-34.180,-26.855,-52.246,-134.277
1687734196.688,-64.941,-31.738,-29.297,-38.086,-86.426
1687734196.692,-15.137,-35.645,-33.203,-36.133,-48.340
1687734196.695,-22.461,-34.668,-39.551,-37.598,-31.250
1687734196.699,-69.824,-29.785,-42.480,-40.039,-121.094
1687734196.703,-120.605,-35.156,-38.574,-55.664,-111.816
1687734196.707,-80.078,-32.715,-36.133,-49.316,-12.207
1687734196.711,-20.020,-28.809,-38.574,-48.828,-66.895
1687734196.715,-30.762,-28.320,-40.527,-63.965,-132.324
1687734196.719,-77.148,-32.715,-39.551,-65.430,63.965
1687734196.722,-123.535,-32.715,-39.062,-61.523,368.164
1687734196.726,-98.633,-33.203,-44.434,-62.500,62.988
1687734196.730,-43.457,-37.109,-47.852,-57.129,-172.852
1687734196.734,-44.434,-34.668,-39.062,-51.270,-28.320
1687734196.738,-82.031,-32.227,-39.551,-60.059,-68.848
1687734196.741,-124.512,-34.180,-47.852,-71.777,-231.445
1687734196.745,-98.633,-32.227,-46.875,-69.824,-188.477
1687734196.749,-31.738,-30.762,-45.410,-66.406,6.836
1687734196.753,-17.578,-33.691,-45.898,-65.918,-61.523
1687734196.757,-42.480,-34.180,-45.410,-71.289,-180.176
1687734196.761,-87.891,-34.668,-44.434,-83.496,-34.668
1687734196.765,-77.637,-33.203,-42.480,-72.266,251.465
1687734196.768,-17.090,-29.785,-42.969,-55.176,155.762
1687734196.772,-20.020,-33.203,-43.945,-55.664,-166.504
1687734196.776,-60.059,-35.156,-41.992,-57.129,-148.926
1687734196.780,-107.910,-33.691,-38.086,-58.105,-74.219
1687734196.784,-106.445,-34.668,-36.133,-53.223,-104.004
1687734196.784,-43.945,-40.039,-34.668,-46.387,-160.156
1687734196.788,-19.043,-37.598,-33.203,-46.387,-122.070
1687734196.792,-47.363,-31.738,-30.273,-52.246,-134.277
1687734196.796,-100.098,-32.227,-29.297,-60.547,-150.879
1687734196.800,-112.305,-39.551,-31.738,-61.035,-127.930
1687734196.804,-55.664,-39.551,-35.645,-45.898,15.137
1687734196.808,-20.508,-36.133,-37.598,-33.203,206.055
1687734196.811,-39.551,-37.109,-38.086,-39.062,109.863
1687734196.815,-89.844,-34.668,-36.133,-45.898,-53.711
1687734196.819,-117.188,-34.180,-38.086,-42.969,45.410
1687734196.823,-61.523,-31.738,-40.527,-35.156,257.812
1687734196.827,-14.648,-27.344,-34.668,-36.133,-9.766
1687734196.844,-35.156,-30.273,-30.273,-44.434,-134.766
1687734196.848,-84.473,-33.691,-34.180,-54.688,-42.969
1687734196.852,-116.211,-37.598,-37.598,-69.336,-85.938
1687734196.856,-62.012,-39.551,-34.180,-64.453,-121.582
1687734196.860,-4.883,-32.715,-38.574,-48.340,-38.086
1687734196.864,-20.996,-30.273,-40.527,-56.152,105.469
1687734196.868,-71.777,-33.203,-35.645,-64.941,55.664
1687734196.871,-111.328,-34.668,-32.715,-63.965,-8.789
1687734196.875,-74.707,-38.574,-35.645,-57.129,-14.648
1687734196.879,-21.973,-41.504,-39.062,-49.316,194.824
1687734196.883,-30.273,-42.480,-40.039,-50.293,127.441
1687734196.887,-66.895,-40.039,-38.086,-55.176,-159.180
1687734196.889,-106.445,-37.109,-35.156,-56.152,-165.039
1687734196.893,-70.801,-37.598,-30.762,-47.363,-105.957
1687734196.897,-9.277,-34.180,-29.785,-40.527,-125.488
1687734196.901,-14.160,-34.180,-32.715,-44.434,-127.930
1687734196.905,-55.664,-34.180,-30.762,-46.387,-74.219
1687734196.909,-99.609,-33.203,-31.250,-47.852,6.836
1687734196.913,-77.637,-37.109,-36.621,-46.387,-27.344
1687734196.916,-20.508,-41.016,-37.598,-47.363,-90.332
1687734196.920,-14.160,-37.598,-36.621,-49.805,24.414
1687734196.924,-40.527,-30.762,-38.086,-44.434,358.887
1687734196.928,-80.078,-29.785,-36.133,-46.387,224.609
1687734196.932,-67.871,-35.645,-33.203,-45.410,-113.770
1687734196.934,-9.277,-41.992,-35.156,-38.086,-102.539
1687734196.938,2.930,-42.480,-36.133,-40.039,-107.422
1687734196.942,-38.086,-38.086,-34.180,-49.316,-162.598
1687734196.946,-91.797,-30.762,-33.203,-54.688,-148.438
1687734196.950,-83.008,-25.391,-32.715,-51.758,-55.176
1687734196.954,-19.531,-25.391,-35.156,-43.945,-34.180
1687734196.958,-5.371,-29.785,-41.016,-46.875,-6.348
1687734196.961,-35.156,-32.715,-41.016,-50.781,12.207
1687734196.965,-76.660,-27.344,-31.250,-45.410,186.523
1687734196.969,-83.984,-27.344,-30.762,-42.480,87.891
1687734196.973,-27.344,-34.668,-28.809,-43.945,-165.527
1687734196.977,0.977,-28.320,-26.367,-41.016,-113.770
1687734196.979,-29.785,-25.879,-33.203,-40.527,-96.191
1687734196.983,-83.496,-31.250,-35.156,-41.992,-181.641
1687734196.987,-97.168,-36.133,-31.250,-37.598,-172.363
1687734196.991,-34.668,-36.133,-30.273,-30.762,-122.559
1687734196.995,2.441,-33.203,-32.715,-29.297,-126.465
1687734196.999,-23.438,-34.668,-34.668,-39.551,-133.301
1687734197.003,-70.312,-32.715,-34.180,-53.223,-95.215
1687734197.006,-93.750,-26.367,-31.738,-52.246,41.504
1687734197.010,-40.527,-25.879,-30.762,-38.086,254.395
1687734197.014,4.883,-26.367,-31.250,-37.109,27.832
1687734197.018,-16.113,-28.320,-31.738,-44.922,-184.570
1687734197.022,-64.941,-29.785,-30.273,-55.664,-95.703
1687734197.025,-95.215,-33.203,-35.156,-56.152,-97.656
1687734197.029,-44.922,-34.180,-35.156,-48.340,-112.305
1687734197.033,-0.977,-30.762,-29.297,-46.875,-67.871
1687734197.037,-18.555,-28.320,-27.832,-47.363,-8.301
1687734197.041,-63.477,-29.785,-30.762,-56.152,-72.266
1687734197.045,-106.934,-31.250,-31.250,-63.965,-82.520
1687734197.049,-75.684,-30.762,-30.762,-55.176,13.184
1687734197.052,-24.902,-36.621,-34.180,-46.875,175.781
1687734197.056,-28.809,-39.062,-34.668,-46.875,44.922
1687734197.060,-65.918,-41.992,-31.250,-44.434,-183.105
1687734197.064,-108.887,-41.504,-29.785,-46.387,-139.648
1687734197.068,-81.055,-39.062,-30.762,-35.156,-59.570
1687734197.069,-14.160,-38.574,-27.832,-23.438,-49.316
1687734197.073,-18.066,-35.645,-30.762,-31.250,-115.234
1687734197.077,-65.918,-36.133,-37.598,-46.875,-136.719
1687734197.081,-109.375,-35.156,-33.691,-58.594,-100.098
1687734197.085,-80.078,-27.832,-31.250,-52.246,-12.207
1687734197.089,-13.184,-23.438,-33.691,-47.852,8.789
1687734197.093,-6.348,-26.367,-38.086,-51.758,13.672
1687734197.096,-41.992,-27.344,-36.133,-42.480,332.520
1687734197.100,-95.703,-31.738,-33.691,-56.152,209.961
1687734197.104,-86.426,-35.156,-34.180,-61.523,-119.629
1687734197.108,-28.320,-35.645,-32.715,-48.828,-23.926
1687734197.112,-20.020,-38.574,-37.109,-53.711,-96.680
1687734197.114,-55.176,-36.133,-40.039,-68.359,-237.305
1687734197.118,-108.887,-33.691,-35.156,-77.148,-138.672
1687734197.122,-104.980,-38.086,-34.180,-71.777,-104.980
1687734197.126,-30.762,-36.133,-31.250,-59.082,-127.441
1687734197.130,3.906,-31.738,-28.809,-47.363,-143.555
1687734197.134,-33.203,-26.367,-30.762,-53.223,-70.312
1687734197.138,-96.191,-26.855,-33.203,-63.965,219.727
1687734197.141,-105.469,-35.156,-37.109,-64.453,100.586
1687734197.145,-47.852,-39.062,-39.551,-62.988,-160.156
1687734197.149,-14.160,-36.133,-34.668,-53.711,-94.238
1687734197.153,-35.645,-35.645,-34.180,-47.852,105.957
1687734197.157,-84.961,-34.180,-36.621,-64.941,-63.965
1687734197.159,-100.586,-30.273,-33.203,-61.035,-181.641
1687734197.163,-47.363,-37.109,-36.133,-50.293,-130.859
1687734197.167,-7.324,-38.086,-33.691,-53.223,-140.137
1687734197.171,-27.832,-30.273,-29.785,-52.246,-197.266
1687734197.175,-77.637,-32.715,-31.738,-57.617,-193.848
1687734197.179,-106.445,-31.738,-33.691,-63.477,41.992
1687734197.183,-58.105,-30.273,-34.180,-54.688,135.742
1687734197.186,-11.719,-32.715,-29.785,-49.316,55.664
1687734197.190,-32.715,-31.250,-28.320,-47.852,-45.410
1687734197.194,-81.055,-30.762,-27.832,-45.410,84.473
1687734197.198,-113.281,-30.762,-24.902,-45.898,285.156
1687734197.202,-66.406,-33.203,-27.832,-46.387,3.418
1687734197.219,-12.695,-34.180,-29.785,-44.434,-174.805
1687734197.223,-31.738,-33.203,-32.715,-50.781,-96.191
1687734197.227,-79.590,-34.668,-34.180,-59.570,-91.309
1687734197.231,-118.164,-35.156,-35.645,-65.918,-131.348
1687734197.235,-78.125,-34.668,-40.527,-57.617,-75.684
1687734197.239,-20.020,-30.762,-39.062,-51.270,117.188
1687734197.243,-33.691,-29.297,-39.062,-57.129,57.129
1687734197.246,-73.242,-35.156,-41.504,-63.477,-88.379
1687734197.250,-118.652,-39.551,-41.016,-73.242,-48.340
1687734197.254,-94.238,-36.133,-38.574,-67.871,188.477
1687734197.258,-24.414,-35.156,-34.668,-56.641,61.035
1687734197.262,-18.555,-35.156,-31.738,-62.012,-60.547
1687734197.264,-51.270,-30.762,-28.320,-62.500,14.648
1687734197.268,-97.168,-24.902,-22.949,-55.664,-7.812
1687734197.272,-88.867,-26.367,-26.855,-54.199,-74.219
1687734197.276,-21.484,-29.785,-31.738,-45.898,-128.418
1687734197.280,-10.742,-34.180,-30.273,-43.457,-103.516
1687734197.284,-52.246,-35.645,-28.809,-46.387,-3.906
1687734197.288,-98.145,-30.273,-28.809,-42.969,-39.062
1687734197.291,-93.750,-32.227,-31.738,-44.922,-103.516
1687734197.295,-29.785,-40.039,-35.156,-40.527,-4.883
1687734197.299,-9.766,-34.668,-34.668,-28.320,270.020
1687734197.303,-38.086,-27.832,-27.344,-41.016,37.109
1687734197.307,-84.961,-25.879,-27.344,-52.734,-176.270
1687734197.311,-92.285,-27.832,-36.621,-53.223,-71.289
1687734197.315,-35.645,-29.297,-39.551,-54.199,-94.238
1687734197.319,-9.766,-24.902,-40.039,-49.805,-120.117
1687734197.323,-37.598,-24.902,-39.062,-54.199,-119.629
1687734197.327,-89.844,-34.180,-37.598,-65.430,23.926
1687734197.331,-100.586,-37.109,-39.551,-65.918,-0.488
1687734197.335,-42.969,-27.344,-35.645,-56.641,-53.223
1687734197.338,-15.625,-27.832,-35.156,-56.152,-39.062
1687734197.342,-41.016,-34.180,-39.551,-55.176,124.512
1687734197.346,-87.891,-32.715,-38.086,-60.547,22.461
1687734197.350,-106.934,-33.691,-39.062,-63.965,-150.391
1687734197.354,-56.152,-39.062,-42.969,-60.547,-98.145
1687734197.354,-12.207,-36.621,-42.969,-50.781,-128.906
1687734197.358,-27.344,-29.297,-39.062,-48.828,-136.230
1687734197.362,-71.289,-32.715,-34.180,-60.059,-149.414
1687734197.366,-103.516,-37.598,-36.133,-64.453,-82.031
1687734197.370,-61.035,-32.227,-41.016,-58.594,-3.418
1687734197.374,-11.230,-32.227,-41.992,-52.734,-66.406
1687734197.378,-22.949,-32.227,-38.574,-55.664,-104.980
1687734197.381,-68.848,-35.156,-36.621,-55.664,74.707
1687734197.385,-111.328,-43.457,-43.457,-53.711,401.367
1687734197.389,-72.266,-41.992,-42.480,-52.246,179.688
1687734197.393,-20.020,-42.969,-37.109,-53.711,-126.953
1687734197.397,-35.156,-42.969,-38.574,-56.152,-64.453
1687734197.399,-77.148,-41.504,-32.227,-60.059,-86.426
1687734197.403,-119.629,-41.016,-27.344,-62.012,-166.016
1687734197.407,-86.426,-35.645,-28.320,-51.758,-88.867
1687734197.411,-28.320,-34.668,-34.668,-44.434,-22.949
1687734197.415,-38.574,-33.691,-32.227,-52.246,-125.977
1687734197.419,-74.219,-35.645,-32.227,-56.152,-58.105
1687734197.423,-109.863,-44.434,-38.086,-54.688,-76.172
1687734197.426,-86.914,-43.945,-36.621,-42.480,187.012
1687734197.430,-23.438,-38.086,-34.668,-36.133,264.160
1687734197.434,-19.043,-42.969,-39.551,-48.828,-137.207
1687734197.438,-54.199,-38.574,-41.992,-56.641,-167.969
1687734197.442,-105.957,-31.738,-40.039,-57.617,-60.547
1687734197.444,-92.773,-37.598,-36.133,-48.340,-80.566
1687734197.448,-26.367,-36.133,-33.203,-40.039,-103.027
1687734197.452,-19.531,-35.156,-35.645,-39.551,-86.914
1687734197.456,-53.711,-41.016,-33.691,-43.457,-120.605
1687734197.460,-98.633,-42.969,-27.832,-58.594,-181.641
1687734197.464,-91.797,-40.527,-29.785,-58.594,-97.168
1687734197.468,-34.180,-39.551,-32.227,-44.922,172.852
1687734197.471,-19.531,-42.480,-34.180,-45.410,338.379
1687734197.475,-45.898,-40.039,-40.527,-55.176,130.859
1687734197.479,-94.727,-36.621,-40.039,-58.594,-115.723
1687734197.483,-95.703,-39.551,-41.504,-56.152,2.441
1687734197.487,-20.020,-41.504,-40.039,-47.852,20.996
1687734197.489,7.812,-43.945,-42.480,-54.688,-206.543
1687734197.493,-15.625,-40.527,-48.828,-66.406,-150.879
1687734197.497,-59.570,-36.621,-46.387,-73.730,-135.742
1687734197.501,-80.078,-41.016,-43.945,-82.031,-195.801
1687734197.505,-34.180,-40.039,-43.945,-74.707,-197.266
1687734197.509,-10.742,-38.574,-45.898,-61.035,-49.805
1687734197.513,-40.527,-40.527,-45.410,-56.152,202.148
1687734197.516,-94.238,-42.480,-41.992,-60.547,45.410
1687734197.520,-118.652,-38.086,-35.645,-57.617,-129.395
1687734197.524,-69.824,-29.785,-33.203,-46.875,-126.465
1687734197.528,-27.344,-31.250,-31.738,-48.340,-90.332
1687734197.532,-37.109,-33.691,-31.738,-53.223,-39.551
1687734197.535,-80.566,-34.668,-35.156,-58.594,-133.301
1687734197.539,-116.699,-38.086,-32.227,-60.547,-108.887
1687734197.543,-74.219,-41.992,-30.273,-58.105,-4.883
1687734197.547,-25.391,-43.945,-36.133,-54.199,-103.516
1687734197.551,-39.062,-42.480,-36.133,-50.293,-137.207
1687734197.555,-83.008,-42.480,-39.062,-54.199,46.387
1687734197.559,-117.676,-41.504,-41.992,-64.453,143.066
1687734197.562,-78.125,-37.598,-34.668,-52.246,40.039
1687734197.566,-28.809,-41.992,-34.180,-48.340,-58.105
1687734197.570,-34.668,-41.016,-40.039,-56.641,-17.578
1687734197.574,-70.312,-37.109,-38.086,-47.852,147.949
1687734197.578,-113.770,-42.969,-38.086,-57.617,-66.895
1687734197.594,-91.309,-48.340,-40.039,-63.477,-64.941
1687734197.598,-29.785,-44.922,-39.062,-48.340,105.957
1687734197.602,-25.879,-41.992,-39.062,-51.270,-22.461
1687734197.606,-64.941,-45.898,-36.621,-68.359,-161.621
1687734197.610,-108.398,-46.387,-35.645,-73.730,-129.395
1687734197.614,-84.961,-41.504,-35.645,-63.965,87.891
1687734197.618,-18.555,-39.062,-37.598,-56.641,91.309
1687734197.621,-9.277,-39.062,-38.574,-56.152,-144.043
1687734197.625,-44.922,-36.133,-37.109,-54.199,-128.418
1687734197.629,-101.074,-35.645,-38.086,-55.664,152.832
1687734197.633,-99.121,-37.109,-41.504,-59.570,-2.441
1687734197.637,-32.715,-36.621,-42.480,-51.758,-167.480
1687734197.639,-12.695,-38.086,-36.133,-46.387,-69.824
1687734197.643,-47.852,-40.039,-34.668,-53.711,-40.527
1687734197.647,-100.586,-41.992,-38.086,-62.988,-125.977
1687734197.651,-102.051,-43.945,-44.922,-63.965,-105.469
1687734197.655,-39.551,-44.434,-48.828,-53.223,5.859
1687734197.659,-14.160,-44.434,-45.410,-49.316,131.836
1687734197.663,-38.574,-42.480,-41.992,-56.152,91.309
1687734197.666,-88.379,-40.039,-41.504,-65.918,5.859
1687734197.670,-94.727,-41.016,-43.945,-62.988,99.121
1687734197.674,-33.203,-41.016,-45.410,-41.992,296.387
1687734197.678,1.953,-39.062,-39.062,-38.086,63.477
1687734197.682,-19.043,-37.598,-37.109,-42.969,-184.082
1687734197.684,-72.754,-34.180,-39.062,-43.945,-126.465
1687734197.688,-91.309,-41.016,-37.109,-49.316,-136.719
1687734197.692,-33.203,-45.898,-35.156,-34.668,-201.172
1687734197.696,-0.488,-42.480,-36.621,-20.020,-147.949
1687734197.700,-26.367,-40.039,-38.086,-24.414,7.324
1687734197.704,-67.871,-37.598,-32.715,-28.809,0.488
1687734197.708,-96.191,-37.598,-34.180,-27.832,41.504
1687734197.711,-51.758,-36.621,-38.086,-17.578,41.016
1687734197.715,-3.906,-41.504,-39.062,-7.812,205.078
1687734197.719,-20.508,-41.504,-36.133,-14.160,171.875
1687734197.723,-66.406,-39.062,-33.691,-21.973,-151.367
1687734197.727,-101.562,-42.480,-36.133,-31.738,-182.617
1687734197.729,-62.012,-45.410,-37.598,-26.367,-130.371
1687734197.733,-6.348,-46.875,-36.621,-13.184,-125.000
1687734197.737,-12.695,-43.457,-39.062,-23.926,-144.043
1687734197.741,-57.129,-43.457,-42.480,-36.133,-111.328
1687734197.745,-101.074,-41.992,-39.062,-40.039,-113.281
1687734197.749,-67.383,-34.668,-37.109,-32.227,-68.359
1687734197.753,-12.695,-33.691,-41.992,-27.344,-27.344
1687734197.756,-20.508,-40.039,-41.016,-30.762,40.527
1687734197.760,-60.059,-41.016,-39.551,-30.273,326.660
1687734197.764,-106.445,-42.480,-41.992,-35.156,191.406
1687734197.768,-81.055,-41.992,-42.969,-36.621,-101.562
1687734197.772,-11.719,-33.691,-40.039,-19.531,-79.590
1687734197.774,-2.441,-32.227,-37.109,-8.789,-96.191
1687734197.778,-36.133,-39.062,-39.551,-14.160,-210.449
1687734197.782,-79.102,-41.992,-36.621,-12.207,-200.684
1687734197.786,-64.941,-39.551,-31.738,-2.930,-87.402
1687734197.790,-5.859,-38.086,-32.227,0.000,-66.406
1687734197.794,4.395,-39.551,-31.250,0.488,-87.891
1687734197.798,-21.973,-36.133,-33.203,-4.883,-41.992
1687734197.801,-61.523,-33.203,-28.320,2.441,151.367
1687734197.805,-57.129,-39.551,-30.762,2.441,106.934
1687734197.809,1.465,-45.410,-36.621,-2.930,-76.660
1687734197.813,18.066,-39.062,-32.715,-3.906,-32.715
1687734197.817,-20.508,-32.715,-34.668,-12.207,59.082
1687734197.819,-74.707,-39.062,-39.551,-27.344,-67.383
1687734197.823,-80.078,-41.992,-39.062,-32.715,-99.121
1687734197.827,-20.996,-39.062,-38.574,-23.438,-94.238
1687734197.831,3.906,-32.715,-35.645,-15.625,-123.535
1687734197.835,-20.996,-30.762,-36.621,-22.949,-129.883
1687734197.839,-65.918,-29.785,-39.551,-28.809,-129.395
1687734197.843,-83.984,-31.250,-42.480,-33.203,111.328
1687734197.846,-31.738,-37.598,-45.898,-23.926,435.059
1687734197.850,-1.953,-38.086,-49.316,-25.391,121.582
1687734197.854,-23.438,-34.180,-49.805,-34.180,-166.504
1687734197.858,-65.430,-41.504,-49.805,-39.062,-43.457
1687734197.862,-91.797,-48.340,-52.734,-46.387,-59.082
1687734197.866,-43.457,-45.410,-49.805,-40.039,-147.461
1687734197.870,1.465,-44.922,-47.363,-31.738,-91.797
1687734197.874,-12.695,-46.387,-45.898,-31.738,-2.930
1687734197.878,-59.082,-44.922,-44.434,-38.086,-89.844
1687734197.882,-89.844,-41.504,-39.062,-38.086,-177.734
1687734197.886,-41.016,-43.457,-34.180,-27.832,-28.320
1687734197.890,5.371,-41.992,-36.133,-20.508,251.953
1687734197.893,-7.812,-40.039,-34.668,-21.484,47.363
1687734197.897,-46.387,-39.062,-34.668,-26.367,-207.520
1687734197.901,-87.891,-36.133,-43.457,-35.156,-127.930
1687734197.905,-51.270,-37.598,-44.922,-34.668,-99.121
1687734197.909,4.883,-40.039,-41.504,-24.902,-117.676
1687734197.909,-7.812,-40.039,-42.969,-26.367,-111.816
1687734197.913,-48.340,-40.039,-40.039,-33.203,-78.613
1687734197.917,-86.426,-41.016,-37.598,-32.715,-91.309
1687734197.921,-58.594,-41.016,-39.062,-21.973,-66.406
1687734197.925,-1.953,-42.480,-41.016,-20.020,-121.582
1687734197.929,-6.348,-42.969,-40.039,-23.926,34.180
1687734197.933,-47.363,-40.527,-39.551,-24.902,343.750
1687734197.936,-93.262,-34.180,-41.504,-37.109,128.418
1687734197.940,-70.312,-30.273,-40.039,-38.574,-112.305
1687734197.944,-6.836,-36.133,-37.109,-29.297,34.180
1687734197.948,-2.441,-39.062,-41.016,-29.785,91.797
1687734197.952,-42.480,-36.133,-42.480,-46.387,-173.828
1687734197.969,-93.262,-40.527,-39.551,-54.199,-196.777
1687734197.973,-79.590,-41.016,-39.551,-43.457,-98.633
1687734197.977,-16.602,-37.109,-46.875,-34.668,-153.809
1687734197.981,-5.859,-36.133,-46.875,-36.133,-180.664
1687734197.985,-42.969,-33.691,-43.945,-37.598,-103.027
1687734197.989,-93.262,-31.250,-39.551,-38.574,82.520
1687734197.993,-88.379,-27.832,-35.156,-38.086,36.133
1687734197.996,-21.973,-32.715,-36.621,-28.320,-78.613
1687734198.000,-1.465,-38.086,-40.527,-27.832,-91.309
1687734198.004,-27.344,-36.133,-42.969,-27.344,107.422
1687734198.008,-70.801,-34.180,-43.457,-31.250,83.984
1687734198.012,-84.961,-34.668,-42.969,-38.086,-150.879
1687734198.014,-34.180,-33.203,-42.969,-33.691,-197.754
1687734198.018,-2.441,-24.414,-47.852,-31.250,-174.805
1687734198.022,-30.273,-24.902,-49.805,-41.016,-202.148
1687734198.026,-81.055,-29.785,-45.410,-51.270,-168.945
1687734198.030,-95.215,-30.762,-43.457,-54.199,-89.355
1687734198.034,-45.898,-37.109,-48.340,-53.711,-51.270
1687734198.038,-9.277,-40.039,-48.828,-54.199,11.230
1687734198.041,-23.926,-36.133,-48.340,-60.547,-47.852
1687734198.045,-64.941,-35.645,-45.410,-60.059,37.598
1687734198.049,-91.309,-35.645,-41.504,-50.293,358.398
1687734198.053,-42.480,-32.715,-41.504,-48.828,239.258
1687734198.057,3.418,-29.785,-38.574,-46.875,-72.754
1687734198.059,-18.066,-30.762,-39.551,-46.875,-151.367
1687734198.063,-64.453,-32.227,-43.457,-58.105,-200.195
1687734198.067,-98.145,-31.738,-44.922,-57.129,-245.605
1687734198.071,-51.758,-33.203,-41.504,-43.457,-179.199
1687734198.075,2.930,-28.809,-38.574,-36.133,-134.277
1687734198.079,-3.906,-26.367,-41.016,-26.855,-114.746
1687734198.083,-40.039,-32.227,-42.480,-26.855,-11.719
1687734198.086,-80.078,-33.691,-43.945,-38.086,-49.805
1687734198.090,-50.781,-32.715,-40.527,-27.344,144.043
1687734198.094,1.465,-32.227,-39.062,-23.438,79.590
1687734198.098,-7.324,-32.715,-42.480,-34.180,-209.961
1687734198.102,-47.852,-31.250,-41.016,-41.504,-118.164
1687734198.104,-100.098,-33.203,-43.945,-49.316,66.895
1687734198.108,-76.172,-33.691,-45.898,-49.316,-47.363
1687734198.112,-13.672,-35.645,-44.922,-46.875,-169.434
1687734198.116,-18.555,-33.691,-47.852,-54.199,-153.320
1687734198.120,-58.105,-30.762,-50.293,-61.035,-126.953
1687734198.124,-102.051,-32.715,-43.945,-63.965,-33.203
1687734198.128,-80.566,-28.320,-38.086,-63.965,-58.594
1687734198.131,-20.020,-30.273,-44.922,-60.059,41.016
1687734198.135,-17.090,-40.527,-49.805,-56.152,299.316
1687734198.139,-52.734,-36.133,-44.922,-66.406,41.504
1687734198.143,-101.074,-32.715,-45.898,-71.777,-179.688
1687734198.147,-91.309,-31.250,-50.293,-61.523,-4.395
1687734198.150,-22.461,-29.785,-52.734,-54.199,12.207
1687734198.154,-9.277,-31.738,-49.805,-53.711,-112.793
1687734198.158,-36.133,-32.227,-46.387,-48.340,-108.398
1687734198.162,-84.473,-32.715,-47.363,-44.922,-15.625
1687734198.166,-89.355,-37.598,-45.410,-45.410,-61.523
1687734198.170,-30.762,-44.434,-48.340,-43.945,-75.684
1687734198.174,-13.672,-44.434,-50.293,-37.598,-12.695
1687734198.177,-42.969,-41.504,-44.922,-33.691,200.684
1687734198.181,-93.750,-35.645,-43.945,-39.062,126.465
1687734198.185,-109.375,-37.109,-50.293,-45.410,-139.160
1687734198.189,-44.922,-43.457,-46.387,-44.922,-153.809
1687734198.193,-6.348,-40.527,-41.992,-43.945,-113.770
1687734198.195,-26.855,-41.992,-42.969,-46.387,-121.582
1687734198.199,-71.777,-48.340,-41.504,-57.617,-170.898
1687734198.203,-90.820,-45.410,-40.527,-57.617,-109.863
1687734198.207,-30.762,-42.969,-39.551,-52.246,-70.801
1687734198.211,18.555,-40.527,-37.598,-49.316,-160.156
1687734198.215,0.488,-38.086,-40.039,-57.129,-115.723
1687734198.219,-55.664,-38.574,-46.875,-60.547,95.703
1687734198.222,-93.750,-34.180,-45.410,-46.875,361.816
1687734198.226,-53.711,-34.668,-41.992,-46.875,127.930
1687734198.230,-13.672,-39.062,-44.922,-51.270,-138.672
1687734198.234,-27.832,-40.039,-42.969,-52.734,-15.137
1687734198.238,-75.195,-37.109,-40.527,-55.176,-62.012
1687734198.239,-116.211,-32.227,-36.133,-56.152,-184.570
1687734198.243,-78.613,-36.621,-40.039,-46.875,-128.906
1687734198.247,-18.555,-38.086,-42.969,-38.574,-63.965
1687734198.251,-21.973,-32.227,-37.109,-41.992,-91.309
1687734198.255,-70.312,-36.621,-43.457,-54.688,-115.234
1687734198.259,-111.328,-32.715,-46.387,-62.500,-55.664
1687734198.263,-76.172,-24.902,-41.504,-48.340,222.656
1687734198.266,-14.160,-25.879,-39.551,-40.527,181.641
1687734198.270,-18.066,-31.738,-40.527,-43.945,-123.047
1687734198.274,-60.547,-33.203,-36.621,-49.316,-112.793
1687734198.278,-101.562,-25.879,-31.250,-53.223,-4.395
1687734198.282,-72.266,-29.785,-29.785,-45.410,-65.918
1687734198.284,-10.254,-36.133,-32.715,-36.621,-193.848
1687734198.288,-13.184,-35.645,-36.621,-33.691,-141.602
1687734198.292,-50.781,-37.598,-38.574,-41.992,-70.801
1687734198.296,-97.168,-39.062,-42.480,-52.246,-136.230
1687734198.300,-81.055,-35.156,-43.945,-38.574,-143.066
1687734198.304,-19.043,-34.668,-40.527,-29.785,54.199
1687734198.308,-12.695,-36.133,-38.574,-36.133,148.438
1687734198.311,-40.039,-39.062,-39.551,-41.504,26.855
1687734198.315,-88.867,-40.039,-36.621,-48.340,-20.020
1687734198.319,-81.055,-38.086,-33.691,-43.457,81.543
1687734198.323,-14.160,-41.504,-35.156,-28.809,302.246
1687734198.327,1.465,-39.062,-35.156,-32.227,20.020
1687734198.344,-29.785,-33.203,-36.133,-43.945,-208.008
1687734198.348,-81.543,-31.738,-36.621,-50.781,-93.262
1687734198.352,-90.820,-31.738,-41.504,-54.199,-115.234
1687734198.356,-29.297,-35.645,-41.504,-51.758,-164.551
1687734198.360,-0.977,-37.598,-41.504,-47.363,-147.461
1687734198.364,-31.250,-36.621,-41.016,-46.387,-32.227
1687734198.368,-76.172,-33.203,-37.598,-50.781,-36.621
1687734198.371,-89.844,-31.250,-39.062,-51.270,-122.070
1687734198.375,-35.156,-26.855,-35.645,-41.992,-113.770
1687734198.379,3.906,-26.367,-35.645,-32.227,179.688
1687734198.383,-19.043,-28.320,-42.969,-39.062,98.145
1687734198.387,-65.918,-29.785,-43.945,-45.410,-88.867
1687734198.390,-90.820,-31.738,-38.086,-41.504,-67.871
1687734198.394,-48.340,-36.133,-36.133,-43.945,-97.168
1687734198.398,-4.883,-39.062,-36.621,-42.969,-174.805
1687734198.402,-19.043,-39.551,-34.180,-44.434,-213.379
1687734198.406,-67.383,-38.086,-38.086,-54.688,-108.398
1687734198.410,-98.633,-34.180,-41.016,-57.617,-5.859
1687734198.414,-56.152,-32.227,-40.527,-51.758,-11.230
1687734198.417,-6.836,-33.691,-40.527,-44.434,-67.383
1687734198.421,-20.508,-41.016,-39.062,-44.922,17.578
1687734198.425,-65.918,-43.945,-38.086,-48.340,305.664
1687734198.429,-104.004,-38.086,-34.668,-50.293,108.398
1687734198.433,-68.848,-37.109,-34.180,-47.363,-138.184
1687734198.434,-10.254,-40.039,-36.133,-43.457,31.250
1687734198.438,-8.301,-34.668,-39.062,-42.969,-36.621
1687734198.442,-45.898,-35.156,-42.480,-52.734,-190.918
1687734198.446,-98.633,-37.598,-48.340,-66.406,-146.484
1687734198.450,-73.730,-34.668,-54.688,-60.059,-34.180
1687734198.454,-14.648,-34.180,-54.199,-52.734,27.344
1687734198.458,-21.484,-36.133,-53.711,-62.012,-42.969
1687734198.461,-59.570,-39.551,-52.734,-61.035,-101.562
1687734198.465,-100.586,-35.645,-43.457,-52.246,152.832
1687734198.469,-76.172,-28.809,-41.016,-53.223,146.973
1687734198.473,-7.812,-25.879,-42.969,-46.875,-81.543
1687734198.477,-4.883,-27.832,-41.504,-43.945,-104.004
1687734198.480,-44.434,-28.809,-41.992,-46.387,-86.914
1687734198.484,-94.238,-27.344,-41.992,-44.434,-101.074
1687734198.488,-93.750,-31.738,-41.992,-44.434,-56.152
1687734198.492,-35.156,-33.203,-37.598,-36.621,-38.574
1687734198.496,-14.160,-31.250,-31.738,-27.832,-21.973
1687734198.500,-46.875,-34.180,-31.738,-33.203,5.371
1687734198.504,-94.727,-34.668,-29.785,-30.762,34.180
1687734198.507,-88.379,-37.109,-31.250,-19.043,155.762
1687734198.511,-35.645,-37.109,-35.645,-15.137,323.730
1687734198.515,-20.508,-34.180,-40.039,-19.043,58.594
1687734198.519,-47.852,-32.715,-37.109,-31.738,-174.316
1687734198.523,-94.727,-30.273,-37.109,-39.551,-106.445
1687734198.524,-104.004,-35.156,-38.086,-40.039,-129.883
1687734198.528,-44.922,-41.016,-34.180,-30.762,-139.648
1687734198.532,-14.160,-37.109,-36.133,-29.297,-99.609
1687734198.536,-39.551,-32.715,-37.598,-40.039,-51.758
1687734198.540,-90.332,-33.203,-36.621,-49.316,-53.223
1687734198.544,-114.258,-33.691,-37.598,-54.199,-25.879
1687734198.548,-60.547,-33.203,-39.551,-47.363,-50.781
1687734198.551,-17.578,-32.715,-31.250,-34.668,219.238
1687734198.555,-31.250,-32.227,-25.391,-39.062,284.180
1687734198.559,-75.195,-34.180,-29.785,-62.012,-128.906
1687734198.563,-100.098,-31.250,-33.203,-63.965,-137.695
1687734198.567,-50.293,-32.227,-37.598,-62.988,-43.457
1687734198.569,-4.883,-35.645,-36.621,-61.035,-108.398
1687734198.573,-19.531,-29.785,-37.109,-57.617,-135.742
1687734198.577,-64.453,-29.785,-41.504,-62.012,-103.516
1687734198.581,-93.750,-30.762,-32.715,-59.082,-132.324
1687734198.585,-49.316,-28.809,-25.879,-48.828,-94.727
1687734198.589,-0.488,-31.738,-27.832,-46.387,-55.664
1687734198.593,-13.184,-33.691,-29.785,-49.805,9.277
1687734198.596,-55.664,-34.668,-32.227,-48.828,202.637
1687734198.600,-93.750,-33.203,-27.832,-49.805,41.992
1687734198.604,-59.082,-34.180,-25.391,-48.340,-125.488
1687734198.608,0.977,-36.133,-27.344,-35.645,18.066
1687734198.612,-0.488,-33.203,-27.344,-26.367,154.297
1687734198.614,-37.598,-33.203,-25.879,-28.809,-86.426
1687734198.618,-86.426,-36.621,-29.785,-32.715,-153.320
1687734198.622,-61.523,-38.086,-33.203,-25.879,-73.730
1687734198.626,2.930,-40.527,-31.250,-17.090,-91.309
1687734198.630,0.977,-39.062,-29.297,-17.578,-177.734
1687734198.634,-35.645,-37.109,-28.809,-23.926,-116.699
1687734198.638,-83.496,-37.598,-31.250,-31.250,181.641
1687734198.641,-69.336,-33.203,-29.785,-26.855,52.734
1687734198.645,-16.113,-36.621,-30.273,-23.926,-181.641
1687734198.649,-18.555,-39.551,-30.762,-33.691,-48.828
1687734198.653,-52.734,-34.180,-32.715,-43.945,-16.602
1687734198.657,-102.051,-39.551,-37.109,-57.129,-171.875
1687734198.659,-97.168,-44.434,-35.645,-53.711,-202.637
1687734198.663,-34.180,-34.668,-31.738,-40.039,-99.609
1687734198.667,-19.043,-28.809,-31.250,-43.457,-63.965
1687734198.671,-53.223,-30.762,-30.762,-54.199,-117.188
1687734198.675,-100.586,-30.762,-26.367,-63.477,-168.945
1687734198.679,-105.469,-31.738,-25.391,-64.453,9.277
1687734198.683,-49.316,-32.227,-30.273,-48.340,130.371
1687734198.686,-21.484,-34.668,-31.250,-46.875,-25.391
1687734198.690,-44.922,-38.086,-32.715,-56.641,-85.449
1687734198.694,-93.262,-34.180,-34.180,-53.223,55.176
1687734198.698,-103.027,-31.738,-34.668,-47.363,234.375
1687734198.702,-47.363,-30.273,-34.180,-46.387,-39.551
1687734198.719,-8.301,-25.879,-30.273,-41.992,-159.668
1687734198.723,-28.809,-26.367,-25.879,-36.621,-16.113
1687734198.727,-83.496,-34.180,-30.762,-47.852,-30.273
1687734198.731,-103.516,-36.133,-36.621,-47.852,-123.047
1687734198.735,-41.016,-30.762,-30.762,-28.809,-100.586
1687734198.739,4.883,-32.715,-28.320,-21.973,44.434
1687734198.743,-13.184,-31.738,-36.133,-30.273,33.203
1687734198.746,-55.664,-28.809,-35.156,-41.016,-110.840
1687734198.750,-86.914,-34.668,-31.738,-37.598,-79.590
1687734198.754,-41.016,-37.598,-33.203,-19.043,164.551
1687734198.758,11.719,-37.109,-34.668,-16.602,33.203
1687734198.762,-0.977,-40.527,-33.691,-26.367,-157.715
1687734198.765,-46.875,-40.527,-34.180,-40.527,-157.715
1687734198.769,-82.520,-36.621,-34.668,-50.293,-98.633
1687734198.773,-46.387,-31.250,-29.297,-46.387,-51.758
1687734198.777,5.859,-29.785,-28.320,-44.434,-139.648
1687734198.781,-3.418,-33.203,-33.691,-47.363,-83.008
1687734198.785,-54.199,-35.156,-35.156,-53.223,59.082
1687734198.789,-100.586,-40.527,-37.109,-58.594,42.480
1687734198.792,-68.848,-44.922,-38.086,-57.129,1.465
1687734198.796,-3.906,-42.480,-38.086,-48.828,67.383
1687734198.800,-5.859,-43.457,-34.668,-41.504,282.715
1687734198.804,-52.734,-46.387,-32.227,-47.363,46.387
1687734198.808,-99.121,-42.480,-32.715,-54.688,-123.535
1687734198.809,-76.172,-41.992,-33.691,-42.480,-47.852
1687734198.813,-13.672,-37.109,-33.691,-28.320,-154.297
1687734198.817,-7.324,-36.621,-36.621,-39.551,-136.719
1687734198.821,-41.504,-38.086,-39.551,-47.363,-45.410
1687734198.825,-93.750,-34.668,-41.016,-45.410,-0.488
1687734198.829,-83.984,-35.645,-42.480,-47.363,22.949
1687734198.833,-14.648,-34.668,-37.109,-40.527,5.859
1687734198.836,-0.488,-35.645,-34.668,-37.598,-163.086
1687734198.840,-37.598,-40.039,-37.109,-45.410,24.414
