timestamps,TP9,AF7,AF8,TP10,Right AUX
1687530675.902,-34.180,-16.113,-25.879,-31.738,-71.777
1687530675.906,-19.531,-16.113,-23.438,-24.902,37.109
1687530675.910,-27.344,-15.625,-23.926,-34.668,60.059
1687530675.914,-35.645,-17.090,-25.391,-38.574,66.895
1687530675.918,-30.762,-17.090,-20.508,-37.598,-26.855
1687530675.922,-26.367,-19.531,-22.461,-37.109,8.789
1687530675.926,-20.508,-22.949,-26.855,-39.551,118.164
1687530675.929,-19.043,-21.484,-23.926,-36.133,40.527
1687530675.933,-32.715,-22.461,-23.438,-34.180,-43.945
1687530675.937,-40.039,-21.973,-20.996,-35.645,22.949
1687530675.941,-36.621,-21.484,-20.996,-30.273,108.887
1687530675.945,-38.574,-22.461,-25.879,-28.809,63.965
1687530675.962,-33.203,-19.043,-20.020,-23.438,87.891
1687530675.966,-38.086,-18.066,-16.113,-23.926,221.191
1687530675.970,-47.363,-19.043,-19.043,-39.062,118.652
1687530675.974,-37.598,-20.020,-19.043,-49.805,-47.852
1687530675.978,-27.344,-19.531,-20.020,-42.480,-36.621
1687530675.982,-35.645,-18.555,-20.508,-40.039,124.023
1687530675.986,-50.781,-25.879,-22.461,-48.340,122.070
1687530675.989,-54.688,-27.344,-23.926,-52.734,-42.480
1687530675.993,-44.922,-22.461,-21.484,-49.316,-27.344
1687530675.997,-27.344,-15.625,-17.090,-32.715,304.199
1687530676.001,-20.508,-19.043,-17.578,-29.297,236.816
1687530676.005,-30.273,-22.949,-20.508,-34.668,-4.883
1687530676.007,-35.645,-20.996,-20.508,-33.691,-9.766
1687530676.011,-30.762,-22.949,-20.020,-41.016,15.137
1687530676.015,-23.926,-20.020,-17.090,-43.457,-8.301
1687530676.019,-18.555,-20.508,-16.113,-37.598,-17.578
1687530676.023,-28.320,-20.508,-17.578,-42.480,60.059
1687530676.027,-45.410,-20.020,-18.066,-50.781,169.434
1687530676.031,-42.969,-17.578,-18.066,-43.945,143.555
1687530676.034,-35.156,-16.602,-18.066,-41.016,-59.570
1687530676.038,-32.715,-19.531,-22.949,-39.062,102.051
1687530676.042,-41.016,-23.438,-27.832,-27.832,296.387
1687530676.046,-51.758,-24.902,-23.926,-37.598,44.922
1687530676.050,-48.828,-24.902,-21.484,-46.875,52.734
1687530676.052,-41.016,-24.414,-18.066,-38.574,297.363
1687530676.056,-31.738,-21.484,-19.531,-35.156,265.625
1687530676.060,-32.715,-22.949,-22.949,-39.551,55.664
1687530676.064,-43.457,-26.855,-19.043,-38.086,38.574
1687530676.068,-40.527,-26.855,-18.555,-40.527,53.223
1687530676.072,-29.785,-24.902,-15.137,-39.551,39.551
1687530676.076,-21.973,-23.926,-17.578,-34.180,52.246
1687530676.079,-21.484,-20.996,-22.949,-31.738,47.363
1687530676.083,-34.668,-20.996,-21.973,-30.273,253.906
1687530676.087,-43.945,-23.438,-23.438,-43.457,154.785
1687530676.091,-37.109,-23.926,-26.855,-52.734,-97.168
1687530676.095,-31.250,-22.949,-23.438,-43.457,-25.879
1687530676.098,-32.715,-25.391,-22.461,-45.410,20.996
1687530676.102,-44.922,-28.809,-25.391,-57.617,-18.066
1687530676.106,-50.293,-29.785,-28.320,-62.500,44.434
1687530676.110,-44.434,-30.762,-28.320,-62.500,22.949
1687530676.114,-39.062,-25.879,-25.879,-53.223,26.367
1687530676.118,-33.691,-20.996,-19.531,-40.527,34.668
1687530676.122,-50.781,-22.949,-22.461,-51.270,16.113
1687530676.125,-65.430,-23.438,-25.879,-61.523,149.902
1687530676.129,-53.223,-20.508,-19.531,-49.316,255.859
1687530676.133,-40.527,-20.020,-19.531,-39.062,-30.273
1687530676.137,-37.109,-15.137,-19.043,-36.133,-93.750
1687530676.141,-45.898,-16.602,-17.090,-37.598,230.957
1687530676.142,-48.828,-21.973,-24.902,-42.969,132.324
1687530676.146,-41.504,-20.508,-27.832,-49.805,-101.562
1687530676.150,-29.297,-18.066,-20.508,-44.922,-93.750
1687530676.154,-20.508,-17.578,-20.996,-41.016,8.789
1687530676.158,-35.156,-18.066,-24.414,-44.434,126.953
1687530676.162,-46.387,-17.578,-26.367,-40.527,95.215
1687530676.166,-33.203,-19.043,-22.949,-37.109,15.625
1687530676.169,-27.832,-20.020,-18.066,-27.344,278.320
1687530676.173,-23.438,-20.508,-21.484,-23.926,245.117
1687530676.177,-24.414,-17.578,-21.484,-36.621,-10.254
1687530676.181,-38.086,-18.066,-20.020,-41.016,24.414
1687530676.185,-33.203,-22.461,-20.508,-36.621,-3.418
1687530676.202,-26.855,-22.461,-22.949,-29.297,-46.875
1687530676.206,-27.344,-20.020,-25.391,-25.391,-42.480
1687530676.210,-36.621,-20.996,-22.949,-32.227,30.762
1687530676.214,-45.898,-19.531,-16.113,-39.551,8.301
1687530676.218,-44.922,-20.020,-20.020,-48.340,-20.996
1687530676.222,-34.668,-16.113,-21.484,-42.969,27.344
1687530676.226,-22.949,-11.719,-16.113,-32.227,182.617
1687530676.229,-26.855,-16.602,-19.531,-26.367,427.734
1687530676.233,-42.969,-21.484,-18.555,-32.715,182.129
1687530676.237,-40.527,-21.484,-17.090,-40.527,-45.410
1687530676.241,-27.832,-21.484,-18.066,-40.039,72.754
1687530676.245,-25.391,-22.461,-17.090,-37.109,117.676
1687530676.232,-33.691,-22.949,-21.484,-44.922,-39.062
1687530676.236,-44.922,-24.902,-28.809,-54.199,-78.613
1687530676.240,-40.039,-25.391,-31.250,-50.293,125.000
1687530676.244,-25.879,-25.391,-28.320,-50.293,83.984
1687530676.248,0.488,-23.438,-21.484,-35.156,-65.430
1687530676.252,-2.441,-19.043,-24.414,-34.180,68.359
1687530676.256,-30.273,-14.648,-29.297,-51.758,153.809
1687530676.259,-23.438,-10.254,-31.738,-50.293,39.551
1687530676.263,0.488,-7.324,-37.109,-37.109,19.531
1687530676.267,4.883,-8.301,-30.762,-31.250,46.875
1687530676.271,-1.953,-7.812,-22.949,-24.902,266.113
1687530676.275,-11.230,-9.277,-26.367,-25.391,256.348
1687530676.277,-18.555,-14.648,-26.367,-31.738,-20.020
1687530676.281,-12.695,-15.625,-22.461,-20.508,-24.414
1687530676.285,-10.254,-14.648,-21.484,-13.672,28.809
1687530676.289,-16.602,-17.578,-23.438,-20.996,-18.066
1687530676.293,-31.738,-20.996,-26.855,-34.668,-105.469
1687530676.297,-37.598,-20.508,-26.367,-38.574,42.480
1687530676.301,-31.250,-16.602,-24.414,-33.691,213.379
1687530676.304,-18.555,-12.695,-23.926,-28.320,64.453
1687530676.308,-13.672,-9.766,-22.949,-28.809,-77.148
1687530676.312,-26.855,-11.230,-25.879,-34.180,3.906
1687530676.316,-34.668,-10.254,-29.785,-36.133,24.414
1687530676.320,-27.832,-14.160,-31.250,-37.598,-16.602
1687530676.337,-15.625,-13.184,-27.832,-35.645,27.832
1687530676.341,-19.043,-15.625,-25.391,-26.367,183.105
1687530676.345,-35.156,-22.461,-24.902,-20.996,217.285
1687530676.349,-41.504,-17.090,-20.020,-30.273,-27.344
1687530676.353,-37.598,-17.090,-21.484,-29.785,-55.664
1687530676.357,-35.645,-24.902,-23.926,-29.785,152.832
1687530676.361,-33.203,-22.461,-23.926,-29.785,219.238
1687530676.364,-35.156,-20.020,-24.414,-33.203,67.871
1687530676.368,-50.293,-21.973,-24.414,-52.246,47.852
1687530676.372,-51.270,-18.555,-30.762,-53.223,256.348
1687530676.376,-28.809,-16.602,-29.785,-46.387,160.156
1687530676.380,-8.301,-10.254,-22.949,-42.480,27.832
1687530676.382,-11.230,-11.719,-27.832,-39.062,14.648
1687530676.386,-29.297,-18.555,-28.809,-51.270,96.680
1687530676.390,-26.367,-18.066,-24.902,-57.617,101.074
1687530676.394,-18.066,-20.020,-30.273,-49.805,3.418
1687530676.398,-24.902,-21.973,-31.738,-41.504,75.684
1687530676.402,-36.621,-21.484,-26.367,-39.062,176.758
1687530676.406,-53.223,-22.461,-24.902,-39.062,124.023
1687530676.409,-55.664,-19.531,-24.414,-38.086,-40.039
1687530676.413,-44.922,-18.066,-21.973,-36.621,40.039
1687530676.417,-41.504,-20.508,-23.926,-27.832,269.043
1687530676.421,-44.922,-24.902,-24.414,-32.227,89.844
1687530676.425,-56.152,-27.344,-25.391,-42.969,32.227
1687530676.427,-55.176,-23.438,-26.855,-35.156,172.852
1687530676.431,-46.387,-20.996,-28.320,-36.133,87.402
1687530676.435,-44.922,-23.438,-30.273,-41.992,-124.023
1687530676.439,-52.734,-27.832,-33.691,-43.457,-45.410
1687530676.443,-67.383,-26.367,-34.180,-43.945,129.883
1687530676.447,-65.430,-16.113,-27.832,-42.969,18.066
1687530676.451,-53.711,-17.578,-25.879,-39.062,-61.523
1687530676.454,-47.363,-22.461,-26.367,-33.691,-62.988
1687530676.458,-44.922,-24.902,-27.344,-25.391,169.922
1687530676.462,-39.551,-23.438,-23.926,-20.996,134.766
1687530676.466,-37.598,-18.066,-18.555,-24.902,-77.637
1687530676.470,-48.340,-22.461,-14.160,-37.109,-47.852
1687530676.472,-46.387,-25.879,-22.461,-40.039,-6.348
1687530676.476,-31.738,-21.484,-23.926,-21.973,-50.781
1687530676.480,-41.016,-22.949,-18.555,-20.508,-78.125
1687530676.484,-48.340,-22.949,-20.508,-19.043,0.488
1687530676.488,-38.574,-19.043,-19.531,-12.207,-11.719
1687530676.492,-29.785,-19.531,-12.207,-11.719,31.738
1687530676.496,-29.297,-22.461,-12.207,-12.207,85.449
1687530676.499,-41.504,-20.996,-14.648,-14.648,227.051
1687530676.503,-49.316,-19.043,-15.137,-20.508,459.961
1687530676.507,-39.551,-20.996,-17.090,-30.762,126.953
1687530676.511,-27.832,-19.531,-19.531,-20.508,-120.117
1687530676.515,-28.320,-18.066,-25.391,-11.230,120.117
1687530676.517,-39.551,-19.531,-22.461,-26.367,92.285
1687530676.521,-47.852,-25.391,-16.602,-37.598,-104.980
1687530676.525,-45.898,-25.879,-15.137,-41.016,-13.184
1687530676.529,-39.062,-22.461,-14.160,-35.156,49.805
1687530676.533,-35.645,-27.344,-20.996,-30.273,-21.973
1687530676.537,-41.504,-26.367,-18.555,-26.855,59.082
1687530676.541,-44.922,-17.578,-10.742,-24.902,154.785
1687530676.544,-37.598,-16.113,-13.184,-22.461,258.789
1687530676.548,-30.273,-18.066,-17.090,-16.602,132.324
1687530676.552,-21.973,-16.113,-17.090,-16.602,-44.922
1687530676.556,-18.066,-17.090,-14.648,-12.207,36.621
1687530676.560,-31.250,-20.020,-16.113,-12.695,109.863
1687530676.562,-30.762,-13.672,-19.043,-21.484,-15.625
1687530676.566,-15.137,-13.184,-19.531,-24.902,-82.031
1687530676.570,-11.719,-15.625,-15.625,-20.508,-20.996
1687530676.574,-18.066,-14.648,-13.184,-24.414,22.461
1687530676.578,-27.344,-16.602,-17.090,-33.203,-2.930
1687530676.582,-32.715,-20.996,-20.996,-35.645,-19.043
1687530676.586,-31.738,-25.391,-21.484,-35.645,158.691
1687530676.589,-27.344,-24.414,-21.973,-23.438,367.676
1687530676.593,-30.273,-26.367,-21.973,-22.949,104.980
1687530676.597,-41.504,-31.250,-21.973,-32.715,-20.996
1687530676.601,-40.527,-29.297,-22.461,-31.250,153.809
1687530676.605,-30.273,-27.344,-23.926,-29.297,173.340
1687530676.608,-21.484,-26.855,-26.367,-35.645,56.152
1687530676.612,-21.973,-22.461,-25.879,-33.691,-6.836
1687530676.616,-43.945,-26.367,-25.879,-36.133,216.309
1687530676.620,-52.734,-24.414,-27.832,-37.598,190.430
1687530676.624,-35.645,-20.508,-27.344,-33.203,-85.938
1687530676.628,-22.461,-27.344,-24.902,-36.621,6.836
1687530676.632,-23.926,-24.414,-24.902,-26.855,309.082
1687530676.635,-39.551,-20.996,-25.879,-27.344,204.102
1687530676.639,-44.922,-17.578,-20.996,-35.156,-67.383
1687530676.643,-32.715,-16.602,-17.090,-22.949,-49.316
1687530676.647,-23.926,-22.461,-18.555,-18.066,5.859
1687530676.651,-22.461,-19.043,-17.578,-14.160,-43.945
1687530676.681,-28.320,-15.625,-15.625,-13.184,-0.488
1687530676.685,-43.457,-21.484,-18.555,-20.996,167.969
1687530676.689,-45.410,-23.438,-21.973,-22.461,157.227
1687530676.693,-34.180,-22.949,-25.879,-21.484,-15.137
1687530676.697,-27.344,-19.043,-20.508,-19.531,-43.945
1687530676.701,-39.551,-20.020,-19.043,-22.461,94.727
1687530676.705,-55.664,-22.949,-22.461,-29.297,157.715
1687530676.708,-47.852,-18.555,-17.578,-35.645,-13.184
1687530676.712,-35.645,-18.555,-18.555,-36.621,-41.504
1687530676.716,-27.832,-22.949,-20.020,-25.879,41.504
1687530676.720,-25.879,-16.113,-17.578,-21.484,71.777
1687530676.724,-43.945,-10.254,-23.438,-42.480,64.453
1687530676.722,-51.758,-15.137,-28.809,-45.898,-4.883
1687530676.726,-35.645,-15.137,-25.391,-28.320,76.172
1687530676.730,-26.855,-12.207,-22.461,-22.949,111.328
1687530676.734,-36.133,-19.043,-18.555,-24.414,40.527
1687530676.738,-53.711,-21.484,-20.508,-30.273,39.062
1687530676.742,-54.688,-19.043,-23.438,-23.438,291.016
1687530676.746,-37.109,-23.438,-21.484,-17.578,233.887
1687530676.749,-32.715,-23.438,-20.020,-31.250,-57.129
1687530676.753,-46.387,-19.531,-24.414,-30.762,22.949
1687530676.757,-60.059,-21.973,-27.832,-34.668,227.539
1687530676.761,-60.059,-22.461,-27.832,-48.340,80.078
1687530676.765,-46.875,-19.043,-27.832,-50.781,-53.711
1687530676.758,-34.668,-16.602,-25.879,-39.062,15.625
1687530676.762,-28.809,-17.578,-25.879,-27.832,39.062
1687530676.766,-44.434,-21.973,-23.438,-30.762,30.273
1687530676.770,-51.270,-19.043,-22.461,-33.203,59.082
1687530676.774,-38.086,-17.578,-19.043,-33.691,41.016
1687530676.778,-33.691,-23.926,-18.555,-36.133,132.812
1687530676.782,-40.039,-26.367,-25.391,-44.922,214.844
1687530676.785,-48.828,-25.879,-26.855,-58.105,129.395
1687530676.789,-53.223,-24.414,-22.949,-50.781,135.742
1687530676.793,-46.387,-17.090,-22.949,-44.434,340.820
1687530676.797,-42.969,-18.555,-25.391,-54.199,106.934
1687530676.801,-43.457,-22.461,-21.973,-52.734,-14.648
1687530676.802,-52.734,-22.461,-21.973,-48.340,236.328
1687530676.806,-55.664,-25.879,-25.391,-48.340,97.168
1687530676.810,-44.922,-23.926,-24.414,-37.109,-94.727
1687530676.814,-39.062,-20.508,-22.949,-27.344,-23.438
1687530676.818,-42.480,-23.438,-24.902,-32.227,-22.949
1687530676.822,-48.828,-20.020,-19.531,-37.598,6.348
1687530676.826,-58.594,-20.508,-17.090,-49.805,56.641
1687530676.829,-58.594,-28.320,-23.438,-53.223,-20.996
1687530676.833,-50.781,-26.855,-24.902,-38.574,208.496
1687530676.837,-51.270,-22.461,-23.926,-33.691,207.031
1687530676.841,-62.012,-20.996,-22.461,-41.992,-41.992
1687530676.845,-61.523,-19.531,-23.926,-46.387,-28.809
1687530676.856,-46.387,-16.602,-24.902,-47.363,-5.371
1687530676.860,-37.598,-17.090,-22.949,-42.480,-35.156
1687530676.864,-40.527,-16.113,-20.996,-32.227,-20.020
1687530676.868,-45.410,-16.113,-22.949,-32.715,20.020
1687530676.872,-48.828,-18.555,-26.855,-45.898,57.617
1687530676.876,-49.316,-19.531,-27.832,-47.852,143.555
1687530676.880,-43.945,-20.508,-25.879,-46.875,45.898
1687530676.883,-40.039,-20.508,-20.996,-45.898,180.176
1687530676.887,-48.828,-21.973,-22.461,-38.574,338.867
1687530676.891,-60.547,-20.996,-23.438,-42.969,30.273
1687530676.895,-59.082,-19.043,-24.414,-54.199,-44.922
1687530676.899,-52.734,-25.391,-25.391,-51.270,235.352
1687530676.892,-37.598,-24.902,-17.578,-29.297,291.992
1687530676.896,-35.645,-12.695,-16.602,-36.133,-22.949
1687530676.900,-59.082,-13.184,-23.926,-71.777,-56.152
1687530676.904,-62.500,-20.020,-30.273,-79.590,11.230
1687530676.908,-41.016,-12.207,-27.832,-61.035,-50.293
1687530676.912,-34.668,-7.324,-27.344,-54.688,16.113
1687530676.916,-41.504,-8.789,-29.785,-47.852,90.820
1687530676.919,-48.828,-7.324,-27.344,-38.086,296.387
1687530676.923,-45.898,-3.906,-26.367,-44.434,202.148
1687530676.927,-35.156,-7.812,-25.391,-44.922,-117.676
1687530676.931,-33.691,-12.695,-29.297,-42.480,-69.336
1687530676.935,-36.133,-13.184,-35.156,-44.922,1.953
1687530676.937,-46.387,-15.137,-30.762,-49.805,31.250
1687530676.941,-50.293,-15.137,-25.391,-58.594,-19.531
1687530676.945,-40.527,-18.555,-26.855,-53.711,-49.805
1687530676.949,-38.086,-21.973,-26.855,-43.945,49.805
1687530676.953,-37.598,-22.949,-25.879,-39.062,-7.324
1687530676.957,-42.969,-21.484,-23.438,-37.598,-64.453
1687530676.961,-47.363,-14.648,-17.578,-31.738,107.422
1687530676.964,-36.621,-12.695,-18.555,-31.738,242.676
1687530676.968,-25.391,-20.020,-26.367,-33.691,-9.766
1687530676.972,-32.715,-21.484,-26.855,-34.180,-67.871
1687530676.976,-42.480,-16.113,-21.973,-35.156,43.945
1687530676.980,-46.875,-17.090,-20.508,-39.062,78.613
1687530676.983,-41.504,-21.484,-23.438,-38.574,32.715
1687530676.987,-31.738,-22.461,-25.391,-37.598,-19.043
1687530676.991,-35.156,-20.996,-27.832,-37.598,179.199
1687530676.995,-42.969,-21.484,-28.320,-38.086,205.566
1687530676.999,-46.875,-16.113,-23.926,-42.969,-24.902
1687530677.003,-43.945,-10.254,-20.508,-43.945,20.020
1687530677.007,-31.250,-13.672,-19.531,-37.598,373.047
1687530677.010,-30.273,-17.090,-19.043,-32.227,288.086
1687530677.014,-49.805,-18.555,-19.043,-45.410,-99.121
1687530677.018,-62.988,-20.508,-20.508,-59.082,-58.594
1687530677.022,-56.152,-20.508,-26.855,-60.059,10.254
1687530677.026,-51.270,-22.461,-31.738,-60.547,-14.648
1687530677.027,-54.199,-24.902,-28.320,-61.523,12.207
1687530677.031,-54.199,-19.043,-24.414,-57.129,23.438
1687530677.035,-60.059,-13.672,-20.996,-62.012,23.926
1687530677.039,-54.688,-20.508,-21.973,-60.547,50.781
1687530677.043,-40.527,-21.484,-23.926,-53.711,74.219
1687530677.047,-39.551,-17.090,-22.949,-44.922,169.434
1687530677.051,-41.504,-16.602,-22.461,-31.250,327.637
1687530677.054,-47.363,-17.090,-20.508,-32.715,115.234
1687530677.058,-47.852,-19.531,-15.137,-36.621,-134.277
1687530677.062,-40.039,-21.484,-14.648,-36.621,12.207
1687530677.066,-43.457,-22.461,-16.602,-37.598,233.887
1687530677.070,-48.828,-17.090,-13.184,-43.457,84.473
1687530677.087,-54.199,-13.672,-13.184,-48.828,-51.270
1687530677.091,-59.570,-14.160,-20.508,-51.758,112.305
1687530677.095,-53.711,-14.160,-20.508,-47.852,121.094
1687530677.099,-41.016,-9.277,-18.066,-41.504,-19.043
1687530677.103,-31.738,-6.836,-21.973,-34.668,78.125
1687530677.107,-34.668,-6.348,-21.484,-36.621,255.371
1687530677.111,-34.180,-4.883,-19.531,-46.387,201.660
1687530677.114,-17.090,-10.254,-21.484,-48.340,94.238
1687530677.118,0.488,-12.207,-21.484,-41.992,44.922
1687530677.122,1.953,-11.719,-23.926,-34.668,328.125
1687530677.126,-6.836,-10.254,-20.508,-35.156,282.227
1687530677.130,-13.672,-15.137,-13.672,-33.203,-46.387
1687530677.133,-15.625,-16.113,-10.742,-31.250,-37.109
1687530677.137,-16.602,-15.625,-11.230,-34.668,16.602
1687530677.141,-24.902,-22.949,-16.113,-31.738,53.223
1687530677.145,-47.852,-22.949,-23.438,-37.598,-22.949
1687530677.149,-54.688,-18.066,-17.090,-40.527,-54.199
1687530677.153,-43.945,-15.625,-15.137,-39.551,31.250
1687530677.157,-37.598,-17.090,-17.090,-38.574,45.410
1687530677.160,-33.691,-15.625,-16.113,-37.598,-99.121
1687530677.164,-41.992,-14.648,-16.602,-38.574,-10.742
1687530677.168,-53.711,-21.484,-17.578,-45.410,327.637
1687530677.172,-48.828,-25.879,-22.461,-56.641,145.508
1687530677.176,-39.062,-23.926,-20.996,-58.105,-33.203
1687530677.177,-41.504,-21.973,-18.555,-51.270,177.246
1687530677.181,-54.688,-21.973,-20.508,-44.434,247.559
1687530677.185,-62.012,-20.020,-19.043,-54.199,28.320
1687530677.189,-51.758,-15.137,-19.043,-62.988,-35.645
1687530677.193,-33.203,-16.113,-23.438,-52.246,42.480
1687530677.197,-30.762,-15.137,-20.020,-43.945,113.281
1687530677.201,-41.992,-12.207,-15.625,-44.434,47.852
1687530677.204,-53.711,-18.555,-21.973,-45.410,-3.418
1687530677.208,-50.293,-23.438,-25.391,-41.992,228.027
1687530677.212,-45.410,-24.414,-20.020,-39.551,107.422
1687530677.216,-43.945,-24.414,-20.020,-39.551,-129.883
1687530677.220,-52.734,-25.391,-25.391,-44.434,41.016
1687530677.223,-61.523,-23.438,-25.879,-48.340,91.797
1687530677.227,-55.664,-16.602,-21.973,-43.945,-39.062
1687530677.231,-46.387,-12.695,-17.578,-41.504,-58.594
1687530677.235,-34.668,-15.625,-19.043,-31.738,22.461
1687530677.239,-41.992,-20.996,-24.414,-34.180,7.812
1687530677.243,-64.453,-25.879,-24.414,-50.293,37.109
1687530677.247,-64.941,-23.438,-21.484,-54.688,21.484
1687530677.250,-59.082,-22.949,-23.926,-57.129,85.449
1687530677.254,-49.805,-25.879,-26.367,-45.410,280.762
1687530677.258,-41.504,-22.949,-18.555,-36.621,34.180
1687530677.262,-49.805,-21.973,-20.508,-40.039,-83.496
1687530677.266,-50.293,-24.414,-25.879,-40.527,194.336
1687530677.268,-35.645,-21.484,-18.555,-34.180,125.488
1687530677.272,-23.926,-23.438,-17.578,-23.926,-56.641
1687530677.276,-34.180,-25.879,-22.949,-25.391,55.176
1687530677.280,-57.617,-27.344,-21.484,-45.410,183.105
1687530677.284,-60.547,-28.320,-25.391,-57.129,78.613
1687530677.288,-47.363,-24.902,-26.855,-47.852,80.566
1687530677.292,-35.645,-20.020,-23.438,-42.969,109.375
1687530677.295,-36.621,-18.555,-24.414,-38.086,219.727
1687530677.299,-44.922,-20.020,-27.344,-40.039,198.242
1687530677.303,-44.922,-21.484,-27.832,-43.457,-65.430
1687530677.307,-35.156,-20.996,-26.855,-35.645,-90.820
1687530677.311,-22.949,-21.484,-22.461,-27.344,-76.660
1687530677.312,-22.949,-19.043,-20.996,-29.297,-107.422
1687530677.316,-29.785,-14.648,-22.949,-25.879,-17.090
1687530677.320,-37.109,-18.066,-22.949,-27.344,42.480
1687530677.324,-28.320,-19.043,-21.973,-30.273,20.996
1687530677.328,-18.066,-18.555,-21.484,-32.227,75.195
1687530677.332,-20.020,-16.602,-23.438,-34.668,69.824
1687530677.336,-30.273,-18.066,-25.391,-31.250,165.039
1687530677.339,-40.527,-20.996,-23.438,-32.227,443.848
1687530677.343,-34.668,-23.926,-22.949,-41.992,125.488
1687530677.347,-23.438,-21.973,-21.973,-40.527,-152.832
1687530677.351,-23.926,-18.555,-24.414,-39.062,32.715
1687530677.355,-36.621,-17.090,-21.484,-37.109,154.785
1687530677.357,-47.852,-16.602,-19.531,-36.133,-14.648
1687530677.361,-42.969,-19.043,-21.484,-44.434,-48.828
1687530677.365,-35.645,-18.555,-20.020,-40.039,229.492
1687530677.369,-30.762,-13.672,-16.602,-32.715,171.875
1687530677.373,-38.086,-13.184,-19.531,-32.715,-26.855
1687530677.377,-48.828,-13.184,-18.066,-29.785,51.270
1687530677.381,-41.016,-13.184,-15.137,-21.973,305.176
1687530677.384,-37.598,-19.531,-19.531,-28.809,207.031
1687530677.388,-36.133,-21.484,-22.461,-32.227,-119.141
1687530677.392,-37.109,-18.555,-20.508,-27.832,-57.129
1687530677.396,-48.340,-20.996,-16.113,-32.715,151.367
1687530677.400,-41.016,-20.020,-13.184,-31.250,-15.625
1687530677.402,-21.973,-15.625,-8.789,-27.344,-113.281
1687530677.406,-10.742,-14.160,-5.859,-20.996,-30.762
1687530677.410,-21.484,-16.602,-9.766,-18.066,-41.016
1687530677.414,-34.180,-21.484,-16.602,-26.855,0.488
1687530677.418,-25.391,-25.879,-18.555,-36.133,3.906
1687530677.422,-19.531,-23.926,-18.555,-40.039,65.918
1687530677.426,-18.555,-20.020,-21.973,-29.785,148.438
1687530677.429,-19.043,-19.043,-21.484,-29.297,7.812
1687530677.433,-27.344,-19.531,-20.508,-38.086,-93.262
1687530677.437,-28.320,-18.555,-17.578,-36.133,97.168
1687530677.441,-19.043,-17.578,-13.672,-25.879,335.938
1687530677.445,-11.719,-16.602,-12.207,-23.438,174.316
1687530677.462,-17.578,-14.648,-12.695,-22.949,-6.836
1687530677.466,-38.574,-16.602,-15.137,-33.203,113.770
1687530677.470,-41.016,-15.625,-18.555,-41.016,126.953
1687530677.474,-24.902,-14.648,-19.043,-38.086,-92.773
1687530677.478,-20.508,-15.625,-18.555,-36.133,-87.891
1687530677.482,-36.133,-20.508,-19.531,-43.457,107.422
1687530677.486,-54.199,-23.438,-20.508,-47.363,87.402
1687530677.489,-58.594,-25.879,-20.996,-54.199,-16.602
1687530677.493,-52.734,-29.785,-20.020,-56.641,-55.176
1687530677.497,-43.945,-30.762,-20.508,-41.992,185.547
1687530677.501,-44.434,-28.320,-17.578,-38.574,103.516
1687530677.505,-46.387,-20.996,-16.113,-40.527,-23.926
1687530677.507,-50.781,-17.578,-18.066,-41.504,57.129
1687530677.511,-40.039,-17.578,-18.066,-46.387,50.293
1687530677.515,-25.391,-21.973,-16.602,-46.387,35.156
1687530677.519,-29.785,-20.996,-14.648,-45.410,5.859
1687530677.523,-33.203,-11.230,-13.672,-38.574,76.660
1687530677.527,-43.945,-12.695,-17.578,-46.387,198.730
1687530677.531,-31.738,-15.625,-16.602,-44.922,195.801
1687530677.534,-16.602,-9.766,-11.230,-40.039,45.410
1687530677.538,-20.996,-9.277,-12.207,-35.645,66.895
1687530677.542,-31.738,-15.137,-15.137,-25.391,255.859
1687530677.546,-44.434,-12.207,-11.230,-38.086,93.262
1687530677.550,-42.480,-15.137,-10.254,-45.898,39.551
1687530677.553,-35.156,-13.672,-6.348,-34.180,142.578
1687530677.557,-36.133,-13.672,-0.488,-31.738,172.852
1687530677.561,-44.434,-18.555,-4.883,-41.504,162.109
1687530677.565,-55.664,-19.531,-6.836,-50.781,48.828
1687530677.569,-51.270,-23.438,-9.766,-53.223,147.461
1687530677.573,-48.828,-25.391,-11.230,-52.734,206.055
1687530677.577,-48.828,-25.879,-10.254,-45.410,135.254
1687530677.580,-52.734,-21.973,-8.301,-42.480,94.727
1687530677.584,-64.453,-17.578,-10.742,-45.898,287.109
1687530677.588,-56.641,-16.602,-11.230,-42.969,182.617
1687530677.592,-42.969,-12.695,-12.207,-45.410,-62.500
1687530677.596,-41.504,-12.207,-16.113,-48.828,-25.879
1687530677.597,-54.199,-17.578,-21.484,-59.570,35.156
1687530677.601,-68.359,-22.461,-23.926,-67.383,63.477
1687530677.605,-60.059,-21.973,-23.438,-54.199,9.766
1687530677.609,-54.199,-23.438,-24.902,-55.664,73.730
1687530677.613,-47.852,-26.367,-23.926,-58.594,157.227
1687530677.617,-49.805,-22.949,-19.531,-58.594,132.324
1687530677.621,-67.871,-24.414,-22.949,-63.965,118.652
1687530677.624,-71.289,-25.391,-29.297,-66.406,112.305
1687530677.628,-56.152,-21.973,-24.414,-51.758,307.129
1687530677.632,-51.758,-21.484,-23.926,-43.945,159.668
1687530677.636,-52.246,-20.996,-26.855,-51.270,-55.664
1687530677.640,-60.059,-19.531,-23.926,-51.758,186.523
1687530677.642,-65.918,-22.461,-23.438,-53.223,182.129
1687530677.646,-59.082,-24.414,-21.484,-56.152,-80.078
1687530677.650,-53.223,-27.344,-20.508,-57.617,-90.332
1687530677.654,-51.758,-27.344,-23.438,-48.828,31.250
1687530677.658,-68.848,-27.832,-27.344,-49.316,9.766
1687530677.662,-74.707,-26.855,-22.949,-60.059,-33.691
1687530677.666,-58.594,-25.879,-25.391,-62.500,21.484
1687530677.669,-42.969,-28.809,-30.273,-46.875,334.473
1687530677.673,-38.086,-27.344,-31.250,-36.133,370.605
1687530677.677,-44.922,-15.625,-25.391,-44.434,-52.246
1687530677.681,-46.875,-12.207,-19.531,-56.152,-109.375
1687530677.685,-37.598,-15.625,-20.020,-58.594,-79.590
1687530677.688,-36.621,-19.531,-20.996,-57.129,-117.676
1687530677.692,-44.434,-31.738,-23.438,-45.898,-88.867
1687530677.696,-40.039,-26.367,-22.949,-29.785,-61.523
1687530677.700,-44.922,-16.602,-25.391,-43.945,-27.344
1687530677.704,-47.852,-21.484,-30.762,-48.828,-34.180
1687530677.708,-41.992,-15.137,-35.156,-49.805,-20.020
1687530677.712,-49.805,-9.766,-41.992,-64.941,155.762
1687530677.715,-62.500,-5.371,-53.711,-69.824,300.781
1687530677.719,-73.730,-0.977,-61.523,-79.590,120.605
1687530677.723,-68.359,5.371,-63.477,-89.355,32.227
1687530677.727,-57.617,12.207,-63.965,-90.332,66.895
1687530677.731,-55.176,14.160,-71.289,-85.938,79.590
1687530677.732,-68.359,18.555,-79.102,-95.703,-25.391
1687530677.736,-75.195,22.949,-82.031,-103.516,-85.449
1687530677.740,-71.289,21.484,-83.984,-104.004,79.102
1687530677.744,-60.059,22.461,-88.867,-103.516,112.793
1687530677.748,-49.805,28.320,-91.797,-99.609,-89.844
1687530677.752,-66.406,32.227,-90.820,-108.398,22.949
1687530677.756,-80.078,29.297,-93.262,-107.910,362.793
1687530677.759,-74.707,26.855,-93.750,-109.863,144.531
1687530677.763,-67.871,24.414,-92.285,-110.840,-78.613
1687530677.767,-61.523,25.391,-94.238,-107.422,-0.488
1687530677.771,-66.406,28.809,-95.215,-106.445,-3.906
1687530677.775,-74.219,29.785,-91.797,-105.469,39.551
1687530677.777,-74.219,32.715,-89.355,-109.863,-54.688
1687530677.781,-72.266,31.738,-91.309,-115.723,-30.762
1687530677.785,-66.895,27.344,-92.773,-109.375,36.133
1687530677.789,-63.965,24.414,-89.844,-105.469,-54.199
1687530677.793,-71.289,24.902,-84.473,-106.934,-103.027
1687530677.797,-65.918,25.879,-81.543,-97.168,8.789
1687530677.801,-51.270,28.809,-78.613,-87.891,125.488
1687530677.804,-40.527,24.902,-75.195,-86.426,47.852
1687530677.808,-34.668,23.926,-70.801,-78.125,-27.344
1687530677.812,-44.434,22.461,-66.895,-74.219,42.480
1687530677.816,-43.945,21.484,-60.547,-69.824,138.672
1687530677.820,-31.738,20.020,-56.152,-62.500,78.613
1687530677.839,-22.461,16.113,-56.641,-56.641,-29.297
1687530677.843,-24.902,12.695,-57.617,-44.434,235.840
1687530677.847,-41.992,8.301,-57.129,-45.410,316.895
1687530677.851,-55.176,6.836,-59.570,-52.734,16.602
1687530677.855,-43.945,9.277,-57.617,-51.758,-36.133
1687530677.859,-28.320,11.230,-48.340,-47.363,141.602
1687530677.863,-28.320,8.301,-43.945,-42.969,222.656
1687530677.866,-41.504,5.859,-42.480,-49.805,65.918
1687530677.870,-49.805,4.883,-38.574,-56.152,-33.691
1687530677.874,-40.527,2.930,-37.109,-41.016,148.926
1687530677.878,-33.691,-2.930,-38.086,-31.738,27.344
1687530677.882,-33.691,-4.883,-37.598,-39.551,-127.441
1687530677.882,-38.574,-7.324,-35.645,-41.504,-44.922
1687530677.886,-48.340,-12.207,-41.016,-48.828,-14.648
1687530677.890,-40.039,-6.836,-41.016,-50.293,11.719
1687530677.894,-31.250,-0.977,-33.691,-44.922,-26.367
1687530677.898,-36.621,-2.930,-33.691,-39.062,62.012
1687530677.902,-49.805,-3.906,-33.691,-37.109,273.438
1687530677.906,-62.012,-7.324,-34.668,-44.922,170.898
1687530677.909,-50.293,-9.277,-35.156,-44.434,-6.348
1687530677.913,-31.738,-9.766,-36.133,-37.109,75.195
1687530677.917,-27.832,-13.672,-36.621,-33.203,229.004
1687530677.921,-30.762,-16.113,-32.715,-39.062,61.523
1687530677.925,-39.551,-19.531,-30.762,-49.316,61.523
1687530677.927,-36.133,-20.020,-33.203,-52.734,200.684
1687530677.931,-21.484,-15.625,-31.738,-51.758,106.934
1687530677.935,-8.301,-17.090,-28.809,-42.480,-47.852
1687530677.939,-11.230,-19.043,-25.879,-33.203,22.461
1687530677.943,-29.297,-15.137,-21.973,-40.527,112.793
1687530677.947,-38.086,-16.602,-19.043,-35.645,136.719
1687530677.951,-37.598,-20.020,-18.555,-23.926,99.121
1687530677.954,-35.645,-20.508,-17.578,-21.484,114.746
1687530677.958,-41.016,-23.438,-20.996,-21.973,325.195
1687530677.962,-60.059,-24.414,-19.043,-26.855,289.551
1687530677.966,-61.035,-22.461,-18.066,-38.574,-18.555
1687530677.970,-49.805,-22.949,-20.020,-38.086,-34.180
1687530677.972,-50.781,-21.973,-15.137,-29.785,27.832
1687530677.976,-50.781,-22.949,-16.602,-33.691,-8.789
1687530677.980,-53.711,-22.461,-19.531,-38.086,19.043
1687530677.984,-50.781,-23.926,-22.949,-37.109,43.457
1687530677.988,-36.133,-21.973,-26.367,-33.691,20.020
1687530677.992,-29.297,-19.531,-27.832,-27.832,98.145
1687530677.996,-33.203,-20.020,-31.250,-21.973,115.234
1687530677.999,-45.410,-20.508,-34.180,-22.949,107.910
1687530678.003,-53.223,-22.949,-33.691,-25.391,422.363
1687530678.007,-39.551,-26.367,-29.297,-25.879,177.246
1687530678.011,-25.879,-23.438,-21.973,-19.043,-87.891
1687530678.015,-26.367,-22.949,-19.531,-9.277,202.148
1687530678.017,-39.062,-24.414,-22.461,-14.160,248.047
1687530678.021,-47.852,-24.414,-22.949,-24.902,-65.430
1687530678.025,-42.480,-27.344,-20.996,-19.043,-99.609
1687530678.029,-33.203,-24.902,-22.461,-14.160,-20.996
1687530678.033,-33.203,-20.508,-21.484,-16.602,-59.082
1687530678.037,-46.387,-21.973,-23.438,-20.996,-0.977
1687530678.041,-56.152,-21.973,-25.879,-30.762,49.805
1687530678.044,-46.387,-20.996,-23.926,-26.855,231.934
1687530678.048,-36.133,-18.066,-18.555,-27.344,156.738
1687530678.052,-34.668,-20.508,-20.508,-32.227,-91.309
1687530678.056,-44.922,-21.484,-24.902,-36.621,17.090
1687530678.060,-51.758,-17.090,-21.484,-44.434,113.281
1687530678.063,-45.898,-18.066,-24.414,-47.363,-12.695
1687530678.067,-39.551,-17.578,-26.855,-43.945,-60.547
1687530678.071,-34.180,-13.672,-22.949,-36.621,-7.324
1687530678.075,-41.992,-16.113,-23.438,-34.180,61.523
1687530678.079,-51.758,-18.555,-23.926,-35.156,38.086
1687530678.083,-46.875,-20.508,-20.996,-37.109,-8.789
1687530678.087,-36.133,-23.438,-20.020,-34.668,117.676
1687530678.090,-32.227,-24.902,-21.973,-30.273,303.711
1687530678.094,-43.945,-25.879,-23.438,-30.273,84.961
1687530678.098,-57.129,-28.809,-25.391,-33.691,-36.133
1687530678.102,-56.152,-28.809,-23.438,-35.156,75.684
1687530678.106,-42.969,-28.809,-22.461,-31.250,137.695
1687530678.108,-37.598,-27.832,-23.926,-30.273,57.617
1687530678.112,-39.551,-23.926,-29.297,-37.109,104.980
1687530678.116,-46.387,-21.973,-31.250,-36.621,250.488
1687530678.120,-48.340,-25.391,-32.715,-36.133,193.359
1687530678.124,-33.691,-30.273,-32.227,-36.621,-29.297
1687530678.128,-25.391,-27.832,-32.715,-39.551,8.789
1687530678.132,-22.461,-21.973,-40.527,-35.645,335.938
1687530678.135,-11.719,-15.137,-44.434,-13.672,228.027
1687530678.139,-15.137,-24.414,-30.273,-11.230,-38.086
1687530678.143,-30.762,-33.203,-10.742,-28.320,41.992
1687530678.147,-49.805,-41.504,-8.789,-40.039,103.516
1687530678.151,-53.711,-50.293,-7.812,-40.039,18.555
1687530678.152,-60.059,-52.246,0.000,-43.457,-20.020
1687530678.156,-79.590,-59.570,7.324,-51.758,18.555
1687530678.160,-79.102,-68.848,14.648,-53.711,15.137
1687530678.164,-67.871,-71.777,22.949,-41.016,50.293
1687530678.168,-72.266,-78.125,31.738,-35.645,50.293
1687530678.172,-88.379,-85.938,38.574,-40.039,61.523
1687530678.176,-102.539,-89.355,42.969,-42.480,380.859
1687530678.179,-96.680,-92.773,52.246,-41.016,119.141
1687530678.183,-83.984,-96.680,54.688,-37.598,-145.508
1687530678.187,-92.285,-102.539,56.641,-43.945,7.812
1687530678.191,-103.516,-112.305,69.336,-46.875,25.879
1687530678.195,-107.910,-118.164,64.941,-53.711,-43.945
1687530678.212,-101.562,-115.234,60.547,-42.480,-104.980
1687530678.216,-83.008,-111.816,72.754,-19.531,13.672
1687530678.220,-97.656,-118.652,78.125,-26.367,48.828
1687530678.224,-118.164,-125.488,74.707,-35.156,-121.094
1687530678.228,-112.793,-117.676,80.078,-26.367,-143.555
1687530678.232,-101.562,-110.840,79.590,-24.902,86.426
1687530678.236,-96.680,-114.746,69.824,-35.156,80.566
1687530678.239,-97.168,-114.258,68.848,-38.574,55.176
1687530678.243,-99.121,-109.863,67.871,-28.809,78.125
1687530678.247,-103.027,-103.027,63.477,-20.508,200.684
1687530678.251,-97.168,-95.215,54.688,-29.297,152.344
1687530678.255,-83.984,-90.332,46.387,-44.922,-99.121
1687530678.257,-74.707,-86.914,39.551,-36.133,-62.012
1687530678.261,-78.613,-80.078,37.598,-35.645,-13.184
1687530678.265,-84.961,-69.824,37.598,-39.062,-52.734
1687530678.269,-77.637,-65.918,35.156,-25.391,-55.664
1687530678.273,-63.477,-68.359,32.715,-15.137,21.484
1687530678.277,-62.012,-72.266,24.902,-12.207,44.434
1687530678.281,-67.871,-72.754,19.531,-12.695,80.566
1687530678.284,-75.684,-63.477,21.484,-20.508,104.492
1687530678.288,-74.707,-58.594,17.578,-28.320,140.625
1687530678.292,-63.965,-60.059,9.766,-20.508,323.730
1687530678.296,-53.711,-57.617,10.254,-19.531,151.367
1687530678.300,-50.781,-56.641,11.719,-31.250,-23.438
1687530678.303,-64.941,-52.734,8.789,-35.156,123.047
1687530678.307,-62.012,-47.852,6.348,-35.645,127.930
1687530678.311,-41.504,-47.363,3.906,-34.668,-16.113
1687530678.315,-34.180,-48.828,-1.953,-37.109,-15.625
1687530678.319,-39.551,-54.688,-4.395,-35.156,80.078
1687530678.323,-45.898,-52.734,-1.465,-35.645,92.285
1687530678.327,-47.363,-55.176,0.488,-35.645,6.836
1687530678.330,-32.715,-55.176,0.977,-30.762,23.926
1687530678.334,-17.578,-47.363,0.977,-20.996,277.344
1687530678.338,-22.461,-43.945,-1.465,-19.043,238.281
1687530678.342,-27.344,-41.016,0.000,-21.484,23.438
1687530678.346,-28.809,-37.598,0.977,-20.996,-11.230
1687530678.347,-19.531,-33.691,0.488,-16.602,55.664
1687530678.351,-16.113,-35.156,-5.859,-17.578,-42.480
1687530678.355,-16.113,-35.156,-10.254,-21.484,-110.840
1687530678.359,-27.344,-35.645,-9.766,-20.508,-18.555
1687530678.363,-37.109,-38.574,-9.277,-20.508,8.301
1687530678.367,-27.344,-38.086,-13.672,-16.602,57.617
1687530678.371,-11.230,-32.715,-10.742,-13.184,105.957
1687530678.374,-4.395,-31.250,-7.812,-11.719,161.133
1687530678.378,-20.508,-35.645,-8.301,-5.371,309.082
1687530678.382,-28.809,-33.691,-5.859,-11.230,102.539
1687530678.386,-19.531,-30.273,-7.324,-17.090,-86.426
1687530678.390,-14.648,-33.203,-11.230,-9.766,85.938
1687530678.393,-16.602,-32.715,-11.230,-13.184,197.266
1687530678.397,-26.855,-25.879,-8.789,-24.414,13.672
1687530678.401,-34.180,-29.785,-7.324,-23.438,-60.059
1687530678.405,-10.254,-34.180,-1.465,0.977,147.949
1687530678.409,12.207,-17.578,-5.859,8.789,97.656
1687530678.413,-7.812,-7.812,-14.160,-20.508,46.387
1687530678.417,-31.738,-11.230,-15.137,-40.039,67.383
1687530678.420,-30.762,-11.719,-21.484,-36.133,188.477
1687530678.424,-25.391,-8.301,-24.414,-38.574,178.711
1687530678.428,-20.508,-5.371,-20.020,-44.434,-12.695
1687530678.432,-17.578,-4.883,-20.996,-41.504,48.828
1687530678.436,-27.344,-16.113,-25.391,-42.969,76.660
1687530678.438,-42.480,-24.902,-29.297,-50.293,16.113
1687530678.442,-39.551,-19.043,-26.855,-48.340,1.953
1687530678.446,-33.203,-16.602,-26.367,-42.480,43.945
1687530678.450,-33.203,-19.043,-28.320,-42.480,118.164
1687530678.454,-31.738,-17.578,-26.855,-38.574,63.477
1687530678.458,-39.551,-17.090,-26.855,-39.062,27.832
1687530678.462,-36.621,-18.555,-28.809,-39.551,177.734
1687530678.465,-24.414,-13.184,-30.273,-39.062,366.211
1687530678.469,-14.648,-12.207,-29.785,-42.969,100.098
1687530678.473,-19.043,-12.695,-28.320,-42.480,4.395
1687530678.477,-34.180,-15.625,-32.227,-42.480,94.238
1687530678.481,-35.156,-16.113,-31.738,-38.574,58.105
1687530678.497,-23.438,-20.020,-31.250,-29.297,-9.277
1687530678.501,-16.113,-22.949,-30.762,-28.809,-130.859
1687530678.505,-23.926,-21.973,-31.738,-23.438,31.250
1687530678.509,-33.691,-20.996,-32.715,-20.508,69.336
1687530678.513,-35.645,-20.020,-33.203,-34.180,-83.496
1687530678.517,-27.344,-20.508,-24.902,-32.227,24.902
1687530678.521,-20.996,-25.879,-22.949,-21.484,361.328
1687530678.524,-31.738,-28.809,-25.391,-26.855,341.797
1687530678.528,-43.457,-21.484,-23.926,-44.922,28.320
1687530678.532,-46.875,-22.461,-28.809,-51.270,32.715
1687530678.536,-36.621,-22.461,-27.344,-39.062,160.156
1687530678.540,-24.902,-19.043,-22.461,-34.180,89.355
1687530678.527,-27.832,-20.508,-27.832,-36.621,-23.438
1687530678.531,-35.645,-20.508,-30.273,-39.551,-13.672
1687530678.535,-44.922,-24.902,-36.621,-44.922,7.324
1687530678.539,-41.504,-22.949,-32.715,-50.293,-48.340
1687530678.543,-23.926,-15.137,-20.996,-41.504,-49.805
1687530678.547,-20.020,-17.578,-17.578,-30.762,69.336
1687530678.551,-35.645,-23.438,-22.949,-34.180,157.227
1687530678.554,-44.434,-23.438,-20.996,-34.668,55.664
1687530678.558,-33.203,-17.578,-10.742,-34.180,-42.480
1687530678.562,-26.855,-18.066,-15.625,-37.109,62.012
1687530678.566,-29.785,-20.508,-23.438,-28.809,317.383
1687530678.570,-38.574,-16.602,-22.949,-39.551,131.836
1687530678.587,-45.898,-13.672,-19.531,-49.316,-31.250
1687530678.591,-43.457,-18.066,-19.531,-38.574,133.301
1687530678.595,-38.086,-20.508,-20.996,-27.344,60.547
1687530678.599,-35.156,-18.555,-20.020,-25.879,-97.168
1687530678.603,-41.016,-17.090,-20.020,-33.691,-26.855
1687530678.607,-52.246,-18.555,-19.043,-36.621,166.016
1687530678.611,-48.828,-19.043,-20.508,-29.785,91.309
1687530678.614,-44.434,-22.461,-20.508,-35.156,-135.742
1687530678.618,-45.410,-24.414,-17.578,-43.457,-122.070
1687530678.622,-59.570,-25.391,-17.578,-35.645,259.277
1687530678.626,-68.848,-21.973,-20.996,-43.457,215.332
1687530678.630,-58.594,-19.043,-21.973,-53.223,-75.195
1687530678.632,-47.852,-16.113,-16.602,-45.898,-24.902
1687530678.636,-44.922,-13.672,-18.555,-44.922,-10.742
1687530678.640,-45.410,-21.484,-20.508,-49.316,-75.684
1687530678.644,-53.223,-24.414,-21.973,-53.711,-101.562
1687530678.648,-53.223,-20.508,-17.090,-49.805,-48.828
1687530678.652,-47.363,-20.508,-15.137,-41.992,70.312
1687530678.656,-43.945,-19.531,-19.531,-35.645,57.129
1687530678.659,-46.387,-22.461,-21.973,-34.668,-21.973
1687530678.663,-59.082,-23.926,-20.508,-37.598,96.680
1687530678.667,-60.059,-20.508,-18.555,-36.621,275.391
1687530678.671,-49.805,-21.484,-17.578,-40.527,50.293
1687530678.675,-41.504,-26.855,-18.066,-41.016,-43.457
1687530678.677,-42.480,-28.320,-22.461,-31.250,195.801
1687530678.681,-62.012,-27.344,-20.508,-27.344,281.738
1687530678.685,-69.336,-23.926,-19.531,-45.898,58.105
1687530678.689,-57.129,-22.949,-20.508,-47.363,-36.621
1687530678.693,-48.828,-26.367,-16.113,-25.391,23.926
1687530678.697,-50.781,-25.879,-17.090,-28.320,149.902
1687530678.701,-56.641,-21.484,-16.113,-41.504,204.590
1687530678.704,-49.316,-17.090,-11.719,-45.410,111.816
1687530678.708,-38.086,-19.531,-18.555,-43.945,229.980
1687530678.712,-28.809,-22.949,-21.973,-39.062,164.551
1687530678.716,-26.855,-24.902,-24.414,-41.992,17.578
1687530678.720,-33.691,-25.879,-22.949,-47.852,41.504
1687530678.723,-30.762,-20.996,-20.020,-52.246,27.344
1687530678.727,-27.344,-22.949,-22.949,-57.129,-40.039
1687530678.731,-27.344,-24.902,-23.926,-48.828,-11.719
1687530678.735,-30.762,-22.461,-20.508,-43.457,47.852
1687530678.739,-45.410,-22.949,-18.066,-47.363,98.145
1687530678.743,-54.199,-22.949,-23.926,-44.922,91.309
1687530678.747,-47.852,-22.949,-25.879,-44.922,-9.277
1687530678.750,-42.969,-24.414,-20.020,-43.945,53.223
1687530678.754,-43.457,-25.879,-17.090,-31.250,225.098
1687530678.758,-55.664,-28.320,-20.508,-36.133,-41.504
1687530678.762,-62.988,-24.902,-16.602,-41.504,-179.199
1687530678.766,-47.852,-21.484,-11.719,-36.621,106.934
1687530678.767,-39.062,-22.461,-17.090,-35.156,32.227
1687530678.771,-41.016,-21.484,-20.508,-28.809,-125.000
1687530678.775,-43.945,-19.531,-15.137,-23.926,-41.992
1687530678.779,-54.199,-24.902,-13.672,-27.832,11.230
1687530678.783,-53.711,-26.367,-12.695,-34.180,-0.977
1687530678.787,-43.945,-22.949,-10.742,-35.645,-2.441
1687530678.791,-38.086,-20.508,-12.695,-29.785,-16.113
1687530678.794,-44.434,-18.066,-16.602,-25.879,266.602
1687530678.798,-50.293,-19.043,-19.043,-28.320,325.195
1687530678.802,-41.504,-21.973,-18.066,-36.133,-3.906
1687530678.806,-27.832,-20.020,-15.625,-36.621,-42.969
1687530678.810,-22.461,-20.996,-15.137,-28.320,-55.176
1687530678.814,-26.367,-22.949,-14.160,-20.996,-98.633
1687530678.818,-42.480,-21.484,-15.137,-31.738,-58.594
1687530678.822,-42.480,-20.020,-21.484,-43.945,-5.859
1687530678.826,-35.156,-21.484,-21.973,-38.574,-16.113
1687530678.830,-28.809,-21.484,-21.973,-29.297,-12.695
1687530678.834,-34.668,-20.020,-22.949,-32.715,37.109
1687530678.838,-51.758,-22.949,-25.391,-36.621,166.504
1687530678.841,-50.293,-20.020,-24.902,-31.738,371.094
1687530678.845,-39.062,-20.020,-22.461,-28.809,151.367
1687530678.849,-34.180,-24.902,-23.438,-19.531,43.457
1687530678.853,-41.016,-24.902,-22.949,-14.648,145.020
1687530678.857,-57.617,-26.367,-23.926,-29.785,116.211
1687530678.857,-56.641,-29.297,-23.926,-43.457,4.395
1687530678.861,-39.062,-26.855,-21.484,-42.969,-34.180
1687530678.865,-32.715,-23.926,-20.020,-35.645,113.770
1687530678.869,-32.715,-24.414,-22.461,-33.691,94.238
1687530678.873,-42.480,-22.949,-25.879,-40.527,-6.348
1687530678.877,-49.805,-22.461,-26.855,-50.781,72.754
1687530678.881,-39.551,-20.020,-24.414,-43.457,354.980
1687530678.884,-31.738,-19.043,-21.973,-25.391,427.246
1687530678.888,-26.367,-17.578,-19.043,-23.926,61.035
1687530678.892,-33.203,-17.578,-18.066,-25.879,19.043
1687530678.896,-44.922,-19.531,-17.578,-22.461,163.086
1687530678.900,-37.109,-19.043,-16.602,-25.391,81.055
1687530678.902,-29.785,-21.484,-16.113,-27.344,7.812
1687530678.906,-35.156,-27.344,-16.602,-28.809,39.062
1687530678.910,-46.875,-28.320,-17.090,-35.156,124.512
1687530678.914,-48.828,-21.484,-15.137,-34.668,48.340
1687530678.918,-41.992,-18.555,-15.137,-31.738,-25.879
1687530678.922,-34.180,-19.531,-16.602,-35.156,94.727
1687530678.926,-28.809,-18.555,-21.973,-32.715,218.262
1687530678.929,-36.621,-15.137,-19.531,-29.297,24.414
1687530678.933,-46.387,-15.137,-19.043,-33.203,-59.082
1687530678.937,-42.969,-20.508,-23.438,-37.109,73.242
1687530678.941,-33.203,-19.531,-19.043,-37.109,77.637
1687530678.945,-26.367,-19.043,-17.090,-34.668,-8.789
1687530678.963,-37.109,-26.855,-20.996,-36.621,-24.902
1687530678.967,-46.387,-29.297,-28.809,-38.574,166.992
1687530678.971,-45.410,-22.949,-23.926,-34.180,401.367
1687530678.975,-36.621,-19.043,-19.043,-36.621,72.754
1687530678.979,-29.297,-18.555,-20.508,-32.227,2.930
1687530678.983,-33.203,-27.344,-19.043,-31.250,218.262
1687530678.987,-44.434,-26.855,-17.578,-46.387,125.000
1687530678.990,-45.898,-20.020,-16.113,-56.152,-37.598
1687530678.994,-37.598,-20.996,-14.160,-43.457,-79.590
1687530678.998,-34.668,-20.996,-13.672,-31.250,180.176
1687530679.002,-44.434,-20.996,-18.066,-32.715,153.320
1687530679.006,-62.012,-23.926,-17.090,-41.504,-29.297
1687530679.008,-59.570,-23.926,-15.137,-47.363,-23.926
1687530679.012,-43.457,-24.902,-19.531,-44.922,49.316
1687530679.016,-37.109,-23.438,-21.484,-41.016,130.859
1687530679.020,-38.086,-23.438,-21.973,-39.062,10.742
1687530679.024,-47.852,-25.391,-20.020,-44.434,17.090
1687530679.028,-45.898,-24.902,-18.066,-44.434,222.168
1687530679.032,-34.180,-23.926,-20.020,-34.180,140.137
1687530679.035,-28.320,-25.391,-22.461,-29.785,-47.852
1687530679.039,-34.180,-26.367,-23.438,-30.762,33.691
1687530679.043,-55.664,-27.832,-24.902,-38.086,228.516
1687530679.047,-57.129,-30.273,-20.996,-47.852,33.691
1687530679.051,-44.922,-30.762,-13.672,-44.922,-62.988
1687530679.053,-39.062,-30.762,-16.113,-39.062,79.590
1687530679.057,-38.086,-32.227,-17.578,-42.480,28.320
1687530679.061,-48.828,-28.320,-10.742,-47.852,-49.316
1687530679.065,-54.199,-20.996,-8.301,-52.246,5.859
1687530679.069,-52.734,-26.855,-12.695,-53.711,49.805
1687530679.073,-50.293,-33.203,-12.695,-48.340,-12.695
1687530679.077,-38.086,-28.809,-10.254,-35.645,41.504
1687530679.080,-49.805,-25.391,-13.184,-48.340,58.594
1687530679.084,-67.871,-27.344,-18.066,-51.758,210.449
1687530679.088,-48.828,-23.926,-18.066,-28.320,167.969
1687530679.092,-29.785,-23.438,-15.625,-26.855,-110.352
1687530679.096,-31.738,-21.973,-17.578,-28.809,-82.520
1687530679.098,-41.504,-19.043,-18.555,-23.438,7.812
1687530679.102,-45.410,-18.066,-20.996,-26.855,-17.090
1687530679.106,-36.621,-21.484,-24.902,-41.016,-54.199
1687530679.110,-27.344,-22.949,-23.926,-44.922,-87.402
1687530679.114,-29.785,-23.438,-21.973,-48.340,-48.340
1687530679.118,-46.875,-27.344,-21.973,-46.387,128.906
1687530679.122,-54.199,-28.809,-20.508,-37.598,147.949
1687530679.125,-52.734,-29.297,-25.879,-45.898,162.109
1687530679.129,-49.805,-30.273,-26.367,-51.758,409.668
1687530679.133,-45.410,-33.203,-20.020,-59.082,160.645
1687530679.137,-50.293,-28.320,-23.438,-56.152,-64.453
1687530679.141,-56.641,-23.926,-27.344,-38.574,141.113
1687530679.143,-49.805,-30.273,-27.344,-39.551,99.121
1687530679.147,-36.133,-29.297,-25.391,-43.945,-77.148
1687530679.151,-35.156,-23.438,-20.996,-41.992,-31.738
1687530679.155,-48.828,-22.949,-19.531,-53.711,51.758
1687530679.159,-74.707,-25.879,-21.484,-66.895,49.805
1687530679.163,-65.918,-29.785,-22.949,-66.406,93.750
1687530679.167,-53.223,-29.297,-23.438,-56.152,129.395
1687530679.170,-55.664,-29.297,-27.344,-53.711,241.699
1687530679.174,-50.293,-31.738,-28.320,-65.430,211.914
1687530679.178,-56.152,-30.273,-26.855,-69.824,50.293
1687530679.182,-53.711,-28.809,-23.438,-56.152,-6.836
1687530679.186,-34.180,-24.902,-19.043,-42.969,123.047
1687530679.187,-35.156,-19.531,-17.090,-39.551,44.922
1687530679.191,-48.340,-17.578,-16.602,-41.504,-43.945
1687530679.195,-52.734,-21.973,-18.066,-51.270,41.016
1687530679.199,-51.758,-27.344,-18.555,-62.500,45.898
1687530679.203,-52.734,-27.832,-19.531,-67.383,7.812
1687530679.207,-51.270,-29.785,-17.578,-52.246,99.609
1687530679.211,-28.320,-26.367,-12.207,-22.949,304.688
1687530679.214,-33.691,-9.277,-22.461,-38.086,407.715
1687530679.218,-53.223,-4.395,-38.086,-85.938,105.469
1687530679.222,-51.758,-5.859,-44.434,-91.797,-66.406
1687530679.226,-63.477,-2.441,-48.340,-88.379,22.461
1687530679.230,-58.105,6.836,-46.387,-88.867,126.465
1687530679.232,-53.711,14.648,-59.570,-95.215,105.957
1687530679.236,-54.199,15.625,-69.824,-102.539,-83.984
1687530679.240,-35.645,16.113,-68.848,-96.680,61.035
1687530679.244,-45.898,17.578,-75.195,-104.492,212.891
1687530679.248,-49.316,21.484,-84.961,-109.863,-45.410
1687530679.252,-50.781,29.785,-95.215,-102.051,11.719
1687530679.256,-68.359,36.133,-97.656,-113.770,340.332
1687530679.259,-58.105,36.621,-97.168,-116.699,145.996
1687530679.263,-39.062,42.969,-103.516,-115.723,-89.355
1687530679.267,-23.926,49.316,-108.398,-111.816,-18.555
1687530679.271,-28.809,49.805,-111.328,-101.074,-20.020
1687530679.275,-46.387,49.316,-115.234,-115.723,-57.129
1687530679.279,-16.602,55.176,-111.328,-104.492,-69.824
1687530679.283,-1.465,57.129,-112.305,-91.309,79.590
1687530679.287,-6.836,54.199,-114.746,-89.355,92.285
1687530679.291,-8.301,62.012,-119.141,-92.285,-38.086
1687530679.295,-20.020,65.430,-121.094,-105.469,-105.957
1687530679.299,-6.348,64.453,-117.676,-96.191,29.785
1687530679.303,17.090,65.430,-115.723,-94.238,253.418
1687530679.306,31.738,66.406,-110.352,-87.891,55.176
1687530679.310,38.574,68.359,-98.633,-71.289,-77.148
1687530679.314,25.879,62.500,-96.191,-63.477,19.531
1687530679.318,20.996,53.223,-99.609,-58.105,72.754
1687530679.322,34.668,60.059,-95.215,-57.129,45.410
1687530679.337,31.738,66.895,-92.285,-54.199,38.086
1687530679.341,30.273,67.383,-92.285,-43.945,166.016
1687530679.345,32.715,63.477,-92.773,-35.645,110.352
1687530679.349,28.809,57.617,-90.820,-35.645,11.719
1687530679.353,40.039,53.711,-90.332,-38.086,36.621
1687530679.357,44.434,54.199,-89.844,-26.855,246.582
1687530679.361,38.574,56.152,-85.449,-13.672,319.336
1687530679.364,27.832,52.734,-85.938,-33.203,-6.348
1687530679.368,19.531,50.293,-85.938,-41.504,-57.129
1687530679.372,17.090,50.293,-80.566,-32.227,156.250
1687530679.376,27.832,47.363,-81.543,-34.180,46.875
1687530679.380,22.461,43.945,-78.125,-42.969,-83.496
1687530679.382,4.883,38.574,-76.660,-51.758,-50.293
1687530679.386,4.395,33.691,-76.660,-53.711,-62.500
1687530679.390,16.602,30.762,-75.195,-42.480,-80.078
1687530679.394,25.391,25.879,-70.801,-36.133,-72.754
1687530679.398,25.391,22.949,-67.871,-31.738,-2.441
1687530679.402,18.066,17.578,-68.359,-16.113,96.191
1687530679.406,22.461,13.672,-64.941,0.000,107.910
1687530679.409,43.457,18.066,-57.129,10.742,46.387
1687530679.413,53.223,18.555,-57.617,12.207,121.094
1687530679.417,50.293,10.742,-61.035,20.508,437.012
1687530679.421,40.039,11.230,-45.410,26.855,229.492
1687530679.425,33.691,13.184,-42.969,18.555,44.434
1687530679.427,42.480,9.766,-50.781,6.836,141.602
1687530679.431,43.457,10.742,-48.340,9.277,83.008
1687530679.435,40.039,13.184,-42.969,15.625,10.254
1687530679.439,33.691,11.719,-40.039,13.672,16.113
1687530679.443,27.344,11.230,-39.062,2.930,67.383
1687530679.447,37.109,7.324,-37.109,-11.230,68.359
1687530679.451,49.805,3.418,-38.574,-21.484,111.816
1687530679.454,70.801,8.789,-35.645,-18.555,80.566
1687530679.458,71.289,8.301,-38.086,-12.207,354.980
1687530679.462,62.500,1.465,-38.574,-18.555,419.434
1687530679.466,81.055,3.418,-31.738,-25.879,33.203
1687530679.470,88.379,1.953,-30.273,-26.367,-93.262
1687530679.472,81.543,-2.930,-34.180,-17.578,-44.922
1687530679.476,83.496,2.930,-32.227,-8.301,-61.523
1687530679.480,65.918,3.418,-30.273,-6.836,-80.566
1687530679.484,53.223,-3.906,-29.297,-6.348,-74.707
1687530679.488,67.871,-7.324,-24.902,-0.977,-48.828
1687530679.492,75.684,-3.418,-23.438,-3.418,38.574
1687530679.496,66.895,-5.371,-22.461,0.000,44.922
1687530679.499,57.129,-8.301,-21.484,6.836,127.930
1687530679.503,62.988,-6.348,-27.344,7.812,259.277
1687530679.507,78.125,-4.883,-27.832,12.695,46.387
1687530679.511,80.566,-6.836,-27.832,9.277,-37.598
1687530679.515,83.008,-1.953,-21.484,13.184,154.785
1687530679.518,79.590,1.953,-15.137,13.184,178.223
1687530679.522,75.195,-2.441,-21.484,3.906,-39.551
1687530679.526,88.379,-5.859,-24.902,0.488,-59.082
1687530679.530,98.145,-10.254,-23.926,2.930,36.621
1687530679.534,93.262,-9.766,-24.902,-4.883,41.504
1687530679.538,84.473,-9.277,-25.879,-19.531,5.859
1687530679.542,86.426,-9.766,-24.414,-28.809,13.672
1687530679.545,95.215,-8.301,-20.508,-20.508,235.840
1687530679.549,95.215,-9.277,-19.043,-6.836,206.543
1687530679.553,94.727,-9.277,-20.508,-13.184,-6.836
1687530679.557,89.355,-7.324,-21.484,-25.879,-26.367
1687530679.561,95.703,-12.207,-22.461,-26.855,-7.324
1687530679.563,106.445,-10.742,-22.461,-20.996,18.066
1687530679.567,104.492,-6.348,-20.996,-19.043,-10.742
1687530679.571,109.863,-7.812,-16.602,-26.367,-32.227
1687530679.575,107.422,-9.277,-17.090,-29.785,66.895
1687530679.579,101.074,-11.230,-21.973,-23.926,12.207
1687530679.583,102.539,-12.695,-17.090,-19.043,-62.500
1687530679.587,105.957,-13.672,-20.508,-13.184,154.785
1687530679.590,114.746,-16.113,-29.785,-12.207,392.090
1687530679.594,101.074,-14.160,-29.785,-19.531,91.309
1687530679.598,91.797,-7.324,-28.320,-23.438,-64.941
1687530679.602,95.703,-2.441,-20.996,-21.484,49.316
1687530679.606,102.539,-0.977,-21.484,-18.066,81.055
1687530679.607,102.539,-4.883,-21.973,-18.066,20.996
1687530679.611,84.961,-4.395,-20.020,-15.137,-42.969
1687530679.615,81.055,-2.441,-19.531,-5.371,163.574
1687530679.619,85.449,-2.441,-17.578,-1.465,212.402
1687530679.623,87.402,-2.930,-22.461,-17.090,10.254
1687530679.627,84.961,-2.441,-25.879,-18.555,73.242
1687530679.631,72.754,4.883,-19.531,-7.812,338.867
1687530679.634,63.477,5.371,-20.996,-6.836,314.941
1687530679.638,66.406,-2.930,-26.367,-9.277,-19.043
1687530679.642,81.055,0.000,-25.391,-4.395,-47.363
1687530679.646,94.238,2.441,-24.414,-2.930,26.855
1687530679.650,87.402,-0.488,-23.926,-0.977,-30.273
1687530679.653,76.172,0.977,-27.832,1.953,-61.523
1687530679.657,86.426,2.441,-28.320,7.812,-48.828
1687530679.661,89.844,1.953,-26.855,13.184,-26.367
1687530679.665,83.496,-4.395,-32.227,11.230,-48.828
1687530679.669,77.148,-10.254,-34.180,11.719,-58.105
1687530679.673,64.453,-9.766,-38.086,5.859,118.652
1687530679.677,62.500,-9.277,-41.504,9.766,308.105
1687530679.680,67.383,-8.301,-36.621,20.996,161.621
1687530679.684,69.336,-12.695,-32.227,11.719,12.207
1687530679.688,64.453,-15.137,-31.250,14.648,80.566
1687530679.692,48.340,-8.789,-28.809,23.438,312.500
1687530679.696,35.156,-8.789,-28.809,11.230,177.734
1687530679.713,34.180,-14.648,-30.273,5.859,-57.129
1687530679.717,36.133,-13.672,-31.250,7.324,65.918
1687530679.721,31.250,-11.719,-28.809,9.277,137.207
1687530679.725,16.602,-15.625,-27.344,3.418,-68.359
1687530679.729,9.766,-12.695,-31.738,3.418,-76.660
1687530679.733,20.508,-8.789,-33.203,15.625,155.273
1687530679.737,17.578,-11.719,-37.598,2.441,92.285
1687530679.740,9.766,-12.695,-38.086,-11.719,-31.250
1687530679.744,-2.441,-10.742,-34.180,-7.812,55.176
1687530679.748,-4.395,-9.766,-36.621,-9.766,288.086
1687530679.752,10.254,-2.930,-42.480,-8.301,226.074
1687530679.756,32.715,5.371,-42.969,6.348,35.645
1687530679.757,29.297,-9.277,-32.715,24.414,40.527
1687530679.761,-0.488,-21.484,-16.602,9.766,27.344
1687530679.765,-24.902,-12.207,-13.672,-16.602,-33.203
1687530679.769,-33.203,-6.348,-12.207,-19.043,-68.848
1687530679.773,-46.875,-9.277,-8.301,-24.902,52.246
1687530679.777,-59.082,-10.742,-9.766,-33.203,113.281
1687530679.781,-78.125,-11.230,-8.789,-41.504,101.562
1687530679.784,-96.191,-15.137,-2.930,-51.270,44.434
1687530679.788,-105.469,-25.879,3.418,-54.199,66.406
1687530679.792,-112.305,-37.109,6.836,-51.758,235.840
1687530679.796,-107.910,-42.969,14.648,-56.641,130.371
1687530679.800,-117.188,-49.805,18.555,-68.848,-9.766
1687530679.802,-127.930,-57.617,23.438,-75.195,92.773
1687530679.806,-118.652,-62.988,35.156,-70.312,202.148
1687530679.810,-110.840,-75.195,41.992,-71.289,-3.418
1687530679.814,-104.980,-81.055,49.805,-62.500,-44.922
1687530679.818,-105.469,-86.426,54.199,-57.129,70.312
1687530679.822,-109.375,-94.727,61.523,-42.969,60.059
1687530679.826,-105.469,-103.516,66.895,-37.109,-32.227
1687530679.829,-95.703,-107.422,67.383,-26.367,-54.199
1687530679.833,-77.148,-105.957,71.777,0.977,156.738
1687530679.837,-75.195,-108.398,75.195,4.883,139.648
1687530679.841,-89.355,-119.629,75.684,1.953,-84.961
1687530679.845,-85.938,-125.000,81.543,4.395,-85.938
1687530679.847,-64.453,-118.652,83.008,15.625,51.270
1687530679.851,-47.852,-118.164,84.473,37.598,49.805
1687530679.855,-56.152,-125.977,77.637,33.203,-54.688
1687530679.859,-64.453,-125.977,66.895,29.297,16.602
1687530679.863,-46.387,-119.141,62.988,41.016,112.793
1687530679.867,-45.410,-116.211,56.641,33.691,47.363
1687530679.871,-41.016,-115.723,54.199,29.297,-16.113
1687530679.874,-17.090,-108.887,52.246,43.457,100.586
1687530679.878,-27.344,-104.980,49.316,44.922,333.984
1687530679.882,-45.898,-102.539,42.480,24.414,114.746
1687530679.886,-39.062,-97.168,35.645,13.672,-118.164
1687530679.890,-27.344,-95.215,32.715,15.625,18.066
1687530679.892,-35.156,-95.215,30.762,15.625,66.895
1687530679.896,-38.574,-96.680,26.367,6.348,-57.129
1687530679.900,-37.109,-89.844,23.926,2.441,-47.852
1687530679.904,-21.973,-79.590,21.484,13.184,243.164
1687530679.908,-8.789,-75.195,18.555,15.137,237.305
1687530679.912,-21.973,-74.707,12.695,6.836,83.496
1687530679.916,-38.574,-77.148,5.859,2.441,175.781
1687530679.919,-35.156,-68.848,6.348,-6.348,319.824
1687530679.923,-26.367,-62.988,10.742,-3.906,130.371
1687530679.927,-21.484,-62.500,6.836,-3.906,-102.051
1687530679.931,-14.160,-56.152,-0.977,3.906,-2.441
1687530679.935,-20.020,-55.664,0.000,12.695,15.137
1687530679.937,-28.809,-52.246,3.906,7.324,-50.293
1687530679.941,-14.160,-46.387,1.953,19.043,-51.270
1687530679.945,-6.348,-50.293,-1.953,25.879,-40.527
1687530679.949,-2.930,-53.223,-0.488,20.996,-31.738
1687530679.953,-11.719,-51.270,-4.395,26.367,9.277
1687530679.957,-23.926,-50.293,-11.230,24.414,-37.109
1687530679.961,-17.090,-49.316,-9.277,22.949,112.793
1687530679.964,-13.184,-45.410,-9.277,39.551,408.203
1687530679.968,-6.836,-38.574,-6.348,47.363,170.898
1687530679.972,-4.883,-36.133,-4.395,39.062,-35.156
1687530679.976,-15.137,-36.133,-4.395,28.320,13.672
1687530679.980,-16.602,-38.574,-7.812,25.391,8.789
1687530679.983,-2.441,-41.504,-17.090,25.391,-76.172
1687530679.987,-8.301,-39.062,-16.602,16.602,-65.918
1687530679.991,-23.926,-39.551,-15.625,20.508,131.348
1687530679.995,-26.367,-41.016,-22.949,25.391,110.352
1687530679.999,-18.066,-35.156,-19.531,14.648,-82.031
1687530680.003,-13.184,-34.180,-17.578,9.277,-44.434
1687530680.007,-16.113,-39.062,-22.461,14.160,280.273
1687530680.010,-17.090,-38.086,-22.949,14.648,315.918
1687530680.014,-25.879,-36.621,-25.391,5.859,21.973
1687530680.018,-10.742,-35.645,-27.344,11.230,-27.344
1687530680.022,3.418,-31.738,-19.531,35.156,79.590
1687530680.026,-20.020,-35.645,-11.230,31.250,0.000
1687530680.027,-31.250,-35.645,-14.160,25.879,-49.316
1687530680.031,-29.785,-27.832,-14.648,23.926,-38.574
1687530680.035,-35.156,-29.785,-13.672,0.000,-54.199
1687530680.039,-29.297,-32.715,-15.625,-13.672,-47.852
1687530680.043,-25.391,-26.367,-19.043,-13.672,-95.703
1687530680.047,-49.805,-27.832,-22.461,-19.531,87.402
1687530680.051,-69.824,-35.645,-22.461,-24.902,336.914
1687530680.054,-60.059,-35.645,-21.973,-21.484,147.461
1687530680.058,-40.527,-32.715,-22.949,-16.113,15.137
1687530680.062,-32.227,-30.273,-26.367,-17.090,112.793
1687530680.066,-34.668,-25.879,-26.855,-13.184,214.355
1687530680.070,-42.969,-23.438,-24.414,-28.320,79.590
1687530680.087,-41.504,-25.391,-27.832,-26.367,-88.867
1687530680.091,-33.203,-25.391,-27.344,-26.367,96.680
1687530680.095,-30.762,-22.461,-28.320,-34.668,200.195
1687530680.099,-31.738,-21.484,-28.809,-33.203,-2.441
1687530680.103,-33.691,-22.461,-25.879,-36.133,-33.203
1687530680.107,-34.180,-23.438,-25.391,-33.691,98.633
1687530680.111,-26.367,-24.414,-24.902,-25.391,107.422
1687530680.114,-11.230,-19.043,-20.508,-17.090,14.160
1687530680.118,-14.648,-17.578,-21.973,-17.090,-29.785
1687530680.122,-19.531,-13.184,-26.367,-5.859,205.078
1687530680.126,-24.902,-10.254,-27.832,-1.953,166.992
1687530680.130,-23.438,-11.719,-26.855,-8.789,-83.496
1687530680.132,-16.602,-11.230,-24.414,-8.301,-2.930
1687530680.136,-28.809,-15.625,-26.855,-0.977,101.562
1687530680.140,-43.945,-22.949,-30.273,5.371,16.113
1687530680.144,-41.504,-20.508,-26.367,-2.930,-41.504
1687530680.148,-29.297,-13.184,-19.531,-5.859,-27.344
1687530680.152,-16.602,-11.719,-18.066,1.953,36.621
1687530680.156,-16.602,-13.184,-21.973,10.254,92.773
1687530680.159,-20.996,-16.602,-25.879,-3.418,39.551
1687530680.163,-16.602,-19.043,-28.809,-13.184,103.027
1687530680.167,-12.695,-18.066,-24.902,-3.418,284.668
1687530680.171,-6.348,-15.137,-24.414,-5.859,138.184
1687530680.175,-6.348,-19.043,-28.809,-13.672,32.715
1687530680.193,-17.578,-20.996,-27.832,-11.719,99.121
1687530680.197,-26.367,-16.602,-27.344,-17.578,74.707
1687530680.201,-18.555,-14.648,-26.367,-28.809,-42.969
1687530680.205,-16.113,-18.066,-25.879,-21.973,-67.871
1687530680.209,-20.020,-20.020,-30.273,-15.137,60.547
1687530680.213,-19.531,-22.461,-37.109,-26.855,152.344
1687530680.217,-32.715,-23.926,-36.133,-38.574,99.609
1687530680.220,-34.180,-21.484,-35.645,-35.645,8.301
1687530680.224,-32.715,-25.391,-38.574,-34.180,200.195
1687530680.228,-29.785,-29.785,-41.504,-44.434,204.102
1687530680.232,-24.414,-29.297,-37.598,-46.875,-32.715
1687530680.236,-40.039,-28.320,-34.668,-48.828,-52.246
1687530680.222,-38.086,-26.367,-38.086,-47.852,-9.766
1687530680.226,-31.738,-28.809,-41.992,-51.270,-42.969
1687530680.230,-28.809,-31.250,-42.969,-60.547,-39.551
1687530680.234,-26.367,-26.367,-35.645,-49.805,-11.230
1687530680.238,-37.109,-26.367,-35.156,-48.828,48.828
1687530680.242,-29.297,-29.297,-39.062,-52.246,49.316
1687530680.246,-15.625,-25.879,-35.645,-50.293,77.637
1687530680.249,-9.766,-23.926,-38.086,-46.875,165.527
1687530680.253,-13.184,-25.879,-41.504,-43.945,110.352
1687530680.257,-33.691,-23.438,-37.109,-42.480,27.344
1687530680.261,-43.945,-19.043,-37.109,-41.016,-40.527
1687530680.265,-34.668,-9.766,-37.598,-41.504,210.449
1687530680.267,-27.832,-5.371,-33.203,-31.738,518.555
1687530680.271,-24.414,-4.395,-34.668,-24.414,263.184
1687530680.275,-31.250,0.488,-37.109,-35.645,-18.555
1687530680.279,-33.203,-3.418,-32.715,-43.457,-40.527
1687530680.283,-23.926,-7.324,-34.668,-51.270,-15.625
1687530680.287,-21.973,-10.254,-40.039,-57.129,68.848
1687530680.291,-28.809,-17.090,-36.133,-51.758,44.434
1687530680.294,-47.852,-24.902,-36.133,-52.246,300.293
1687530680.298,-53.711,-26.367,-35.645,-52.734,330.566
1687530680.302,-36.621,-26.367,-33.691,-47.363,-73.242
1687530680.306,-31.738,-29.297,-38.086,-42.969,-136.230
1687530680.310,-38.086,-24.414,-35.645,-41.992,-61.523
1687530680.312,-42.969,-19.531,-35.645,-42.969,-92.773
1687530680.316,-42.480,-22.461,-36.621,-41.016,-63.477
1687530680.320,-32.715,-27.832,-30.273,-34.668,-16.113
1687530680.324,-20.996,-25.391,-29.297,-29.297,10.254
1687530680.328,-20.508,-25.879,-31.738,-28.809,60.547
1687530680.332,-32.715,-28.320,-28.320,-30.762,72.754
1687530680.336,-48.828,-29.297,-30.762,-37.109,133.301
1687530680.339,-49.805,-29.785,-35.156,-24.902,291.016
1687530680.343,-33.691,-27.832,-35.645,-24.902,68.848
1687530680.347,-27.344,-21.484,-35.645,-32.227,-71.289
1687530680.351,-37.598,-18.066,-34.668,-27.344,118.652
1687530680.355,-41.504,-16.113,-33.203,-25.879,168.945
1687530680.357,-34.668,-14.648,-28.809,-32.227,43.945
1687530680.361,-23.926,-22.461,-24.902,-29.785,-49.805
1687530680.365,-21.484,-25.391,-25.391,-16.602,69.824
1687530680.369,-33.203,-20.996,-23.438,-22.461,70.312
1687530680.373,-48.340,-19.531,-22.461,-32.715,-83.008
1687530680.377,-60.547,-24.902,-26.855,-38.574,28.809
1687530680.381,-61.523,-29.785,-28.320,-32.715,326.660
1687530680.384,-62.012,-31.250,-32.715,-28.320,176.758
1687530680.388,-62.012,-27.832,-35.645,-37.109,-77.637
1687530680.392,-64.453,-25.391,-35.645,-36.133,-23.926
1687530680.396,-58.105,-23.926,-34.668,-30.273,20.020
1687530680.400,-50.781,-24.414,-35.156,-21.973,-38.086
1687530680.407,-41.016,-26.855,-36.133,-18.066,-38.086
1687530680.411,-46.387,-31.250,-39.062,-20.020,-23.438
1687530680.415,-61.035,-28.320,-39.551,-22.949,36.621
1687530680.419,-62.012,-24.414,-36.621,-26.367,-53.711
1687530680.423,-53.711,-26.367,-37.109,-18.555,-78.125
1687530680.427,-43.945,-27.832,-37.109,-20.508,117.188
1687530680.431,-32.227,-24.902,-36.621,-20.996,235.352
1687530680.434,-37.598,-23.438,-35.156,-22.461,43.457
1687530680.438,-41.992,-24.414,-36.621,-16.602,-78.125
1687530680.442,-29.297,-22.461,-41.016,-10.254,33.203
1687530680.446,-21.973,-23.926,-42.969,-14.160,77.148
1687530680.450,-23.438,-23.438,-38.086,-10.254,53.711
1687530680.462,-28.809,-21.973,-35.156,-9.277,10.742
1687530680.466,-35.156,-20.020,-36.621,-16.602,104.980
1687530680.470,-30.762,-16.113,-37.598,-17.090,204.102
1687530680.474,-19.043,-12.695,-37.109,-11.719,65.430
1687530680.478,-17.578,-12.207,-33.691,-19.531,-107.910
1687530680.482,-38.086,-16.113,-36.621,-26.855,200.195
1687530680.486,-51.270,-16.602,-35.156,-29.297,503.418
1687530680.489,-40.039,-20.508,-35.156,-34.668,104.980
1687530680.493,-28.809,-22.461,-37.109,-32.715,-14.648
1687530680.497,-28.320,-20.508,-40.039,-26.855,138.672
1687530680.501,-34.180,-17.090,-37.598,-25.879,84.473
1687530680.505,-43.945,-20.996,-35.645,-31.738,-46.387
1687530680.507,-44.434,-21.973,-36.133,-25.879,-80.566
1687530680.511,-42.480,-21.484,-35.645,-23.926,10.254
1687530680.515,-40.527,-23.438,-31.250,-24.902,33.691
1687530680.519,-42.480,-19.043,-25.879,-28.320,-1.953
1687530680.523,-59.570,-22.461,-30.762,-38.574,69.336
1687530680.527,-56.152,-24.902,-27.344,-30.762,238.281
1687530680.531,-41.504,-23.438,-26.367,-23.926,197.754
1687530680.534,-36.133,-23.438,-36.621,-22.949,4.395
1687530680.538,-42.969,-23.926,-39.551,-22.949,83.496
1687530680.542,-44.922,-20.020,-39.551,-22.461,354.004
1687530680.546,-38.574,-19.531,-38.574,-27.344,93.262
1687530680.550,-32.227,-18.555,-32.715,-20.996,-5.371
1687530680.552,-22.461,-15.625,-32.227,-6.348,147.949
1687530680.556,-37.109,-20.020,-38.086,-8.301,125.977
1687530680.560,-43.945,-20.996,-42.480,-27.344,-41.016
1687530680.564,-33.691,-18.555,-37.598,-30.273,-40.039
1687530680.568,-24.902,-21.484,-36.133,-22.949,169.922
1687530680.572,-29.785,-25.391,-40.527,-30.762,218.262
1687530680.576,-36.133,-25.879,-39.062,-28.809,74.219
1687530680.579,-49.805,-21.484,-39.062,-28.320,56.641
1687530680.583,-52.246,-17.090,-44.434,-23.926,263.672
1687530680.587,-43.457,-17.578,-42.969,-20.020,267.578
1687530680.591,-52.734,-20.020,-41.016,-29.785,11.230
1687530680.595,-58.594,-18.555,-39.551,-31.250,22.461
1687530680.612,-79.102,-18.066,-40.527,-30.762,37.109
1687530680.616,-101.074,-26.367,-43.945,-31.250,-40.039
1687530680.620,-107.422,-25.879,-41.992,-36.621,-77.637
1687530680.624,-108.887,-19.043,-39.551,-25.879,12.207
1687530680.628,-120.605,-20.996,-40.527,-17.578,103.027
1687530680.632,-137.207,-23.438,-41.016,-35.645,118.652
1687530680.636,-135.742,-22.461,-34.180,-37.109,76.660
1687530680.639,-145.020,-22.949,-28.320,-27.344,88.379
1687530680.643,-147.949,-23.926,-29.297,-15.137,264.160
1687530680.647,-141.113,-25.391,-29.785,-33.691,160.156
1687530680.651,-163.574,-29.785,-29.297,-46.387,-19.531
1687530680.655,-174.805,-26.855,-29.785,-38.574,65.918
1687530680.642,-157.715,-24.902,-35.156,-28.809,160.156
1687530680.646,-140.137,-23.438,-36.133,-30.762,-20.020
1687530680.650,-125.488,-22.949,-36.621,-32.227,-40.039
1687530680.654,-114.258,-27.344,-37.598,-27.832,25.391
1687530680.658,-100.586,-25.879,-34.180,-26.855,26.855
1687530680.662,-83.008,-20.996,-32.715,-35.645,80.566
1687530680.666,-67.871,-19.043,-27.344,-39.062,164.062
1687530680.669,-61.035,-23.926,-29.297,-33.691,201.172
1687530680.673,-58.594,-22.461,-27.832,-28.809,31.250
1687530680.677,-51.270,-20.508,-20.996,-27.832,-57.617
1687530680.681,-41.992,-25.391,-28.809,-32.715,1.465
1687530680.685,-29.297,-26.855,-29.785,-30.273,324.219
1687530680.688,-25.391,-27.344,-26.855,-14.648,276.855
1687530680.692,-37.598,-26.367,-29.785,-21.973,-53.711
1687530680.696,-35.156,-21.973,-29.785,-32.227,-58.594
1687530680.700,-16.602,-21.973,-25.391,-24.414,-24.414
1687530680.704,-7.812,-22.461,-26.855,-28.809,-39.551
1687530680.708,-15.625,-24.414,-34.668,-34.668,9.766
1687530680.712,-20.020,-23.438,-32.715,-23.438,173.828
1687530680.715,-15.137,-17.578,-26.367,-25.879,359.375
1687530680.719,-8.789,-16.113,-28.809,-41.992,102.539
1687530680.723,-11.719,-17.578,-35.156,-47.363,-23.926
1687530680.727,-6.836,-21.973,-40.527,-43.457,111.328
1687530680.731,-2.930,-24.414,-37.598,-34.668,117.676
1687530680.733,-8.789,-28.809,-39.062,-35.645,-19.531
1687530680.737,-2.441,-32.715,-37.598,-39.062,-56.152
1687530680.741,14.648,-28.320,-29.785,-26.855,219.727
1687530680.745,17.090,-25.879,-26.855,-26.855,246.094
1687530680.749,12.207,-25.391,-26.855,-27.344,-37.598
1687530680.753,14.648,-20.020,-26.855,-28.320,50.293
1687530680.757,20.020,-18.555,-26.367,-32.715,237.793
1687530680.760,21.484,-22.949,-21.973,-26.367,148.438
1687530680.764,24.902,-27.832,-23.438,-18.555,-37.598
1687530680.768,30.273,-20.508,-19.043,-21.484,-28.320
1687530680.772,15.137,-17.090,-15.137,-32.715,56.641
1687530680.776,6.348,-23.926,-22.949,-54.688,-58.594
1687530680.777,23.926,-21.973,-25.391,-58.105,-118.652
1687530680.781,36.133,-20.996,-22.461,-48.828,-65.918
1687530680.785,23.438,-24.414,-25.879,-42.969,-2.441
1687530680.789,4.395,-24.414,-24.414,-50.781,57.129
1687530680.793,-4.395,-27.832,-17.578,-59.570,57.617
1687530680.797,1.465,-34.668,-20.508,-63.477,160.645
1687530680.801,3.418,-35.645,-24.902,-59.570,463.867
1687530680.804,1.953,-29.297,-26.855,-54.199,250.000
1687530680.808,-3.418,-27.344,-28.809,-52.734,-27.344
1687530680.812,-18.066,-27.344,-25.391,-67.383,28.809
1687530680.816,-17.090,-29.785,-24.902,-80.078,21.973
1687530680.820,-12.695,-27.832,-25.879,-62.988,-26.367
1687530680.837,-5.371,-23.438,-26.855,-55.664,-80.566
1687530680.841,-12.207,-21.484,-27.832,-62.500,70.801
1687530680.845,-15.625,-18.555,-27.344,-55.176,191.895
1687530680.849,-3.906,-17.578,-29.297,-47.363,25.879
1687530680.853,1.465,-21.484,-35.645,-45.410,-17.578
1687530680.857,7.324,-17.578,-33.691,-39.551,202.637
1687530680.861,-4.395,-14.648,-31.738,-36.133,181.641
1687530680.864,-12.207,-18.066,-33.691,-42.969,46.387
1687530680.868,-1.953,-17.578,-34.668,-42.969,40.527
1687530680.872,5.371,-19.043,-35.645,-34.668,279.297
1687530680.876,-2.930,-22.461,-33.691,-29.297,233.398
1687530680.880,-41.504,-20.508,-33.691,-54.688,-35.645
1687530680.882,-78.613,-18.066,-28.320,-65.918,-96.191
1687530680.886,-93.262,-21.973,-29.785,-50.293,-109.375
1687530680.890,-106.445,-24.902,-35.645,-44.434,-102.539
1687530680.894,-125.488,-26.855,-33.203,-49.316,-101.074
1687530680.898,-142.090,-30.273,-35.156,-53.223,-11.230
1687530680.902,-129.395,-32.227,-37.598,-52.246,85.449
1687530680.906,-95.703,-30.762,-31.738,-48.828,21.484
1687530680.909,-69.824,-29.785,-26.367,-49.316,-103.027
1687530680.913,-52.246,-28.320,-27.832,-44.922,-36.621
1687530680.917,-42.480,-26.367,-30.273,-25.879,304.199
1687530680.921,-48.828,-28.809,-33.203,-39.062,217.285
1687530680.925,-46.387,-29.297,-32.715,-49.805,50.293
1687530680.927,-25.391,-31.250,-28.320,-40.527,143.066
1687530680.931,1.953,-31.250,-28.320,-47.852,93.262
1687530680.935,-0.488,-28.809,-27.832,-45.410,-75.195
1687530680.939,-20.020,-34.180,-24.414,-47.852,-19.531
1687530680.943,-15.137,-33.203,-27.832,-49.805,59.570
1687530680.947,-8.301,-26.367,-30.273,-45.410,66.406
1687530680.951,-7.324,-34.668,-25.879,-43.457,27.344
1687530680.954,14.160,-32.715,-25.879,-28.809,13.184
1687530680.958,11.719,-16.602,-29.785,-17.090,249.023
1687530680.962,-8.301,-15.137,-38.574,-41.504,195.312
1687530680.966,-4.395,-15.625,-40.527,-61.523,-48.828
1687530680.970,12.207,-9.766,-43.457,-59.082,60.547
1687530680.972,12.695,8.789,-45.410,-51.758,170.410
1687530680.976,0.000,16.113,-48.340,-65.918,16.602
1687530680.980,-18.066,2.441,-77.148,-93.750,-62.500
1687530680.984,-20.508,2.930,-90.820,-100.098,-60.059
1687530680.988,-4.883,17.578,-92.285,-89.355,-15.625
1687530680.992,-15.625,26.855,-95.215,-96.680,55.176
1687530680.996,-35.156,28.320,-99.609,-121.094,15.137
1687530680.999,-30.273,30.273,-105.469,-130.371,4.395
1687530681.003,-17.578,28.320,-110.352,-124.512,254.395
1687530681.007,-2.930,29.785,-116.211,-139.648,144.043
1687530681.011,-13.672,34.180,-121.094,-132.324,-28.320
1687530681.015,-32.715,40.039,-126.465,-123.047,156.250
1687530681.018,-22.949,49.805,-128.906,-142.090,202.637
1687530681.022,-15.625,51.758,-130.859,-154.297,118.652
1687530681.026,-9.766,49.805,-134.766,-152.344,1.953
1687530681.030,7.812,53.711,-130.859,-142.578,130.371
1687530681.034,-3.906,55.664,-128.906,-140.137,103.027
1687530681.038,-18.555,57.617,-130.371,-127.441,-15.137
1687530681.042,-10.742,56.152,-129.883,-123.535,77.148
1687530681.045,7.324,53.223,-127.930,-139.648,224.121
1687530681.049,17.090,51.270,-127.441,-138.184,154.785
1687530681.053,-8.301,47.852,-131.836,-132.324,-85.449
1687530681.057,-15.625,51.758,-127.930,-129.883,-60.547
1687530681.061,16.602,53.711,-118.164,-137.207,-50.293
1687530681.062,39.551,47.852,-120.117,-133.789,-36.621
1687530681.066,44.434,50.781,-120.117,-116.211,7.324
1687530681.070,52.246,55.176,-116.699,-103.516,-16.113
1687530681.074,58.105,54.688,-115.723,-108.887,-5.859
1687530681.078,58.594,48.340,-119.141,-110.840,-54.199
1687530681.082,73.730,42.969,-122.559,-90.332,-26.367
1687530681.086,77.637,47.852,-115.723,-68.848,137.207
1687530681.089,65.918,48.340,-107.422,-65.430,405.762
1687530681.093,43.945,40.039,-108.398,-73.242,196.777
1687530681.097,34.668,31.250,-107.910,-75.195,-105.957
1687530681.101,46.875,27.344,-101.074,-85.449,-58.105
1687530681.105,66.406,26.855,-94.238,-70.312,35.645
1687530681.107,64.453,27.344,-85.938,-53.711,-25.391
1687530681.111,60.547,23.926,-84.961,-49.805,-68.359
1687530681.115,61.035,22.949,-83.496,-37.598,64.453
1687530681.119,58.594,19.531,-83.984,-47.363,70.801
1687530681.123,76.660,14.648,-84.473,-27.832,-27.344
1687530681.127,90.332,13.184,-80.566,-17.090,17.578
1687530681.131,82.031,11.230,-72.266,-9.277,288.574
1687530681.134,81.055,5.859,-68.848,-5.859,280.273
1687530681.138,92.773,3.906,-69.824,-12.207,6.348
1687530681.142,101.562,6.348,-61.523,-9.277,-21.484
1687530681.146,120.117,7.324,-53.223,7.812,189.453
1687530681.150,102.539,5.859,-54.199,2.930,22.949
1687530681.152,85.449,4.395,-56.641,-12.695,-135.742
1687530681.156,87.402,1.953,-56.641,-22.949,-38.574
1687530681.160,90.820,1.953,-55.176,-26.367,-19.043
1687530681.164,101.562,9.277,-51.758,-26.855,-34.668
1687530681.168,101.562,7.324,-49.316,-27.832,-30.762
1687530681.172,111.328,4.395,-47.363,-20.996,160.156
1687530681.176,119.141,1.465,-49.316,-14.160,300.293
1687530681.179,117.188,-1.953,-48.828,-23.438,119.629
1687530681.183,125.000,-4.395,-43.945,-20.996,28.320
1687530681.187,124.023,-5.859,-41.016,-3.906,96.191
1687530681.191,118.652,1.465,-42.480,5.859,204.102
1687530681.195,125.000,0.000,-39.551,-5.859,161.133
1687530681.212,125.000,-1.953,-30.273,1.465,35.645
1687530681.216,134.277,-0.977,-24.902,10.742,121.094
1687530681.220,138.184,-5.371,-26.367,18.555,150.391
1687530681.224,81.055,-6.836,-27.344,28.809,-38.086
1687530681.228,48.828,-5.859,-21.484,21.484,-93.262
1687530681.232,70.801,-5.859,-17.578,21.484,12.207
1687530681.236,71.777,-10.254,-20.020,27.832,25.391
1687530681.239,58.594,-11.719,-21.484,21.484,5.371
1687530681.243,36.133,-5.371,-20.996,18.066,-11.230
1687530681.247,14.648,4.883,-11.719,34.180,172.363
1687530681.251,29.297,4.395,-7.324,36.133,145.508
1687530681.255,53.711,-2.930,-8.789,33.203,-58.594
1687530681.257,53.711,-6.836,-11.230,37.598,-36.133
1687530681.261,57.129,-7.812,-6.836,32.715,78.125
1687530681.265,77.148,-5.371,-1.953,21.973,50.293
1687530681.269,92.773,-4.883,-9.766,9.766,-62.988
1687530681.273,96.680,-5.371,-15.137,-9.277,-42.969
1687530681.277,92.285,-3.906,-6.836,-5.859,41.992
1687530681.281,93.750,0.488,-0.977,26.367,35.645
1687530681.284,116.211,2.441,-5.371,29.297,-40.039
1687530681.288,137.695,8.789,-1.953,34.668,59.570
1687530681.292,145.996,11.230,3.906,59.570,289.551
1687530681.296,139.160,3.906,0.977,53.711,105.957
1687530681.300,127.441,9.277,-1.465,54.199,-1.465
1687530681.302,122.070,7.812,-5.859,53.223,150.391
1687530681.306,120.117,-0.977,-14.160,58.594,271.973
1687530681.310,128.906,-3.418,-12.207,53.711,41.504
1687530681.314,128.418,-5.371,-10.742,60.547,-32.227
1687530681.318,110.352,-1.953,-16.113,64.453,45.410
1687530681.322,113.770,-2.930,-16.602,48.340,90.332
1687530681.326,127.441,-4.395,-15.137,39.062,125.000
1687530681.329,134.277,-5.859,-15.625,50.781,100.098
1687530681.333,121.094,-9.766,-20.020,65.918,275.879
1687530681.337,107.910,-4.395,-18.555,48.340,196.777
1687530681.341,97.656,-5.371,-17.578,16.602,-71.289
1687530681.345,88.867,-10.742,-17.578,17.090,-107.910
1687530681.347,94.238,-10.254,-15.137,23.926,-18.066
1687530681.351,115.723,-6.348,-19.043,8.301,-55.176
1687530681.355,114.746,-5.371,-20.020,8.789,-41.016
1687530681.359,109.375,-7.812,-17.578,26.367,41.016
1687530681.363,129.395,-7.812,-13.672,-15.137,40.527
1687530681.367,141.602,-6.836,-17.090,-95.703,17.090
1687530681.371,131.348,-4.883,-19.531,-81.055,-44.434
1687530681.374,120.605,-3.418,-18.066,-35.156,-7.324
1687530681.378,117.676,-5.371,-20.508,-9.277,196.289
1687530681.382,111.816,-9.277,-24.414,2.930,16.602
1687530681.386,93.262,-12.207,-25.391,16.113,-68.848
1687530681.390,88.379,-14.648,-22.949,34.180,194.336
1687530681.392,94.238,-12.695,-19.531,38.086,211.426
1687530681.396,82.520,-10.254,-18.555,0.977,25.879
1687530681.400,76.172,-13.672,-23.926,-11.719,-9.277
1687530681.404,76.172,-18.066,-23.438,7.324,18.555
1687530681.408,70.801,-16.602,-21.484,12.695,-17.578
1687530681.412,67.383,-17.578,-24.414,21.973,76.660
1687530681.416,51.270,-18.066,-24.902,33.203,103.027
1687530681.419,48.340,-18.555,-28.320,51.270,301.758
1687530681.423,65.430,-18.555,-27.832,61.523,420.410
1687530681.427,68.359,-18.066,-27.832,65.918,44.434
1687530681.431,58.594,-15.137,-36.133,64.453,-59.570
1687530681.435,56.641,-11.719,-46.875,63.477,15.137
1687530681.437,83.984,-5.371,-49.316,89.355,-51.270
1687530681.441,98.633,-6.836,-32.227,110.840,-113.281
1687530681.445,75.195,-20.020,-14.648,110.352,-13.672
1687530681.449,70.312,-23.926,-17.090,110.352,49.805
1687530681.453,64.941,-22.949,-14.648,124.023,43.457
1687530681.457,40.039,-27.344,-1.465,117.676,-2.930
1687530681.461,45.410,-35.156,10.742,110.840,56.641
1687530681.464,66.406,-38.574,15.137,142.090,376.953
1687530681.468,43.457,-41.016,13.672,145.508,170.898
1687530681.472,18.066,-45.410,18.555,137.207,-57.129
1687530681.476,27.832,-49.805,19.531,145.020,145.508
1687530681.480,41.504,-52.734,25.879,137.695,228.027
1687530681.482,40.039,-61.523,29.297,120.117,14.160
1687530681.486,34.668,-69.824,28.809,129.395,-107.422
1687530681.490,21.973,-70.801,35.645,139.160,68.848
1687530681.494,22.461,-73.730,38.086,125.977,167.480
1687530681.498,35.156,-73.730,46.387,132.324,17.578
1687530681.502,35.156,-72.266,50.781,146.973,14.160
1687530681.506,39.551,-73.730,50.781,154.297,293.945
1687530681.509,26.855,-82.031,54.199,135.254,279.297
1687530681.513,6.348,-84.473,53.711,115.723,-66.895
1687530681.517,10.254,-92.773,59.570,111.816,-82.031
1687530681.521,15.625,-97.656,64.453,118.164,80.078
1687530681.525,7.812,-93.262,65.430,128.418,-30.273
1687530681.527,-3.906,-99.609,63.965,125.000,-83.496
1687530681.531,-16.113,-101.074,62.500,115.234,-16.602
1687530681.535,-13.184,-98.633,56.152,115.234,32.715
1687530681.539,-1.953,-98.633,54.199,131.348,-30.762
1687530681.543,-4.395,-96.680,52.734,131.836,-116.211
1687530681.547,-8.301,-94.727,45.410,119.629,65.430
1687530681.551,-11.230,-95.215,36.133,109.863,248.047
1687530681.554,-2.930,-86.914,33.203,101.562,43.457
1687530681.558,8.789,-77.637,31.738,104.492,-34.180
1687530681.562,7.812,-76.660,23.438,111.816,106.934
1687530681.566,-7.812,-72.266,18.555,104.492,170.410
1687530681.570,-8.789,-67.383,17.578,93.262,57.617
1687530681.573,-8.789,-66.406,11.230,76.660,-8.301
1687530681.577,-17.090,-70.801,5.859,63.477,123.047
1687530681.581,-14.648,-70.801,9.277,74.707,228.027
1687530681.585,-15.625,-64.941,4.395,67.871,18.066
1687530681.589,-33.691,-67.871,-8.301,52.734,-29.297
1687530681.593,-34.668,-68.359,-16.602,57.617,113.770
1687530681.597,-20.508,-63.965,-18.555,55.176,44.922
1687530681.600,-10.742,-58.105,-17.090,46.387,-35.645
1687530681.604,-20.020,-55.664,-20.508,51.758,22.949
1687530681.608,-29.785,-60.059,-24.414,65.430,160.645
1687530681.612,-30.762,-62.500,-27.344,62.500,70.801
1687530681.616,-37.598,-59.082,-25.879,52.734,-77.637
1687530681.633,-24.902,-57.129,-24.414,60.059,-45.410
1687530681.637,-24.414,-59.082,-25.391,60.059,-41.504
1687530681.641,-35.645,-59.570,-29.297,51.758,30.273
1687530681.645,-36.621,-54.688,-31.250,44.434,12.695
1687530681.649,-26.855,-46.387,-33.203,54.199,-8.301
1687530681.653,-22.949,-43.457,-33.203,67.383,225.586
1687530681.657,-18.555,-43.457,-31.738,58.105,199.707
1687530681.660,-21.484,-42.480,-29.297,50.293,-14.648
1687530681.664,-27.832,-42.480,-24.414,52.246,0.000
1687530681.668,-23.438,-42.969,-21.973,66.406,169.922
1687530681.672,-28.809,-44.922,-23.438,73.242,75.684
1687530681.676,-22.949,-43.457,-27.832,52.734,10.742
1687530681.677,-26.855,-38.574,-31.250,35.645,61.035
1687530681.681,-35.645,-33.691,-33.691,46.875,27.832
1687530681.685,-27.832,-31.250,-28.320,58.594,-81.543
1687530681.689,-20.996,-35.645,-27.344,57.617,-75.195
1687530681.693,-16.113,-39.551,-33.203,39.062,67.383
1687530681.697,-26.367,-37.109,-35.645,29.297,83.984
1687530681.701,-32.227,-35.645,-40.527,23.438,114.258
1687530681.704,-18.066,-37.109,-42.969,33.203,150.879
1687530681.708,-7.812,-35.645,-37.598,39.062,233.398
1687530681.712,-33.691,-33.691,-39.551,32.715,295.898
1687530681.716,-34.180,-33.203,-41.504,35.645,2.930
1687530681.720,-32.227,-36.621,-37.598,24.414,-53.223
1687530681.722,-47.363,-39.551,-40.527,25.879,-21.973
1687530681.726,-40.039,-39.062,-43.945,34.180,-100.098
1687530681.730,-35.645,-41.504,-47.363,24.414,-41.016
1687530681.734,-42.969,-41.504,-48.828,8.789,-20.996
1687530681.738,-48.340,-42.969,-48.828,16.113,-25.879
1687530681.742,-49.316,-42.480,-48.340,26.855,41.992
1687530681.746,-30.273,-41.016,-45.898,17.090,94.727
1687530681.749,-22.461,-38.574,-43.457,24.414,176.758
1687530681.753,-35.645,-35.645,-44.922,28.809,373.047
1687530681.757,-50.781,-42.969,-47.852,17.578,165.527
1687530681.761,-40.527,-43.457,-52.246,-0.977,-62.012
1687530681.765,-24.902,-40.527,-48.340,-6.836,49.316
1687530681.767,-22.461,-41.016,-41.992,-4.395,24.902
1687530681.771,-26.855,-39.551,-43.945,-11.230,-144.043
1687530681.775,-33.691,-36.621,-42.480,-7.324,-71.289
1687530681.779,-33.203,-36.621,-41.504,-4.883,30.762
1687530681.783,-26.855,-36.133,-40.527,-5.859,-68.359
1687530681.787,-21.973,-34.180,-40.527,1.465,9.277
1687530681.791,-27.832,-37.598,-43.945,12.695,216.797
1687530681.794,-36.133,-35.156,-46.875,0.977,326.660
1687530681.798,-35.156,-37.109,-50.781,4.883,182.617
1687530681.802,-30.762,-40.039,-48.340,14.160,5.859
1687530681.806,-27.832,-43.945,-45.898,5.371,60.547
1687530681.810,-27.344,-48.828,-46.875,14.160,141.113
1687530681.812,-40.039,-44.434,-46.875,14.648,53.711
1687530681.816,-55.176,-40.039,-47.852,-2.930,-38.574
1687530681.820,-54.688,-37.109,-44.922,4.395,13.672
1687530681.824,-39.062,-38.574,-45.410,14.648,118.164
1687530681.828,-23.926,-38.574,-47.852,17.090,59.082
1687530681.832,-42.969,-38.086,-48.340,13.672,21.973
1687530681.836,-57.129,-40.039,-49.805,0.977,153.320
1687530681.839,-39.551,-41.992,-49.316,1.465,344.238
1687530681.843,-23.926,-42.480,-43.945,5.371,111.816
1687530681.847,-23.438,-42.480,-45.410,8.301,-40.527
1687530681.851,-35.645,-43.945,-50.781,12.207,15.137
1687530681.855,-44.434,-39.551,-47.363,6.348,0.977
1687530681.858,-29.785,-32.227,-44.434,-2.441,45.898
1687530681.862,-20.508,-36.133,-41.504,-1.953,32.715
1687530681.866,-15.137,-42.480,-38.574,10.742,158.203
1687530681.870,-9.277,-42.480,-40.039,22.949,280.762
1687530681.874,-17.090,-42.480,-40.527,4.883,0.488
1687530681.878,-12.695,-50.781,-38.086,16.113,17.578
1687530681.882,14.160,-41.504,-35.645,44.922,392.090
1687530681.885,20.020,-18.555,-41.016,24.902,302.734
1687530681.889,-8.301,-16.113,-50.781,1.465,-22.461
1687530681.893,-25.391,-21.973,-53.711,3.418,-8.789
1687530681.897,-19.531,-21.484,-52.246,25.391,51.758
1687530681.901,-24.414,-14.648,-59.570,27.344,53.711
1687530681.903,-43.457,-16.113,-61.035,7.324,6.348
1687530681.907,-55.176,-23.926,-58.594,11.719,55.176
1687530681.911,-62.500,-26.367,-59.570,16.602,183.594
1687530681.915,-57.617,-24.902,-58.594,18.066,58.594
1687530681.919,-42.480,-23.438,-49.805,19.043,-61.035
1687530681.923,-38.086,-26.855,-48.340,26.855,48.828
1687530681.927,-49.316,-27.344,-49.805,31.250,374.023
1687530681.930,-55.664,-24.414,-53.711,19.531,195.801
1687530681.934,-50.293,-26.367,-59.082,2.930,-85.449
1687530681.938,-47.852,-26.855,-56.152,-1.953,22.949
1687530681.942,-59.570,-33.691,-54.199,0.488,79.102
1687530681.946,-62.988,-33.691,-51.270,9.277,82.520
1687530681.962,-56.152,-28.320,-49.805,10.254,18.555
1687530681.966,-50.293,-27.832,-41.504,14.160,43.945
1687530681.970,-53.223,-31.250,-35.645,19.531,61.523
1687530681.974,-51.758,-32.715,-41.016,11.719,-78.613
1687530681.978,-50.293,-29.785,-45.410,22.461,-10.742
1687530681.982,-72.266,-31.738,-48.340,26.367,349.121
1687530681.986,-70.312,-31.738,-45.410,18.066,331.055
1687530681.989,-56.152,-32.227,-45.898,13.184,-32.227
1687530681.993,-55.176,-29.785,-40.039,21.973,-57.129
1687530681.997,-51.758,-26.855,-34.668,37.598,152.832
1687530682.001,-58.594,-24.414,-36.621,24.414,31.738
1687530682.005,-63.477,-25.879,-39.551,16.602,-98.145
1687530682.007,-57.129,-25.879,-43.945,20.508,11.719
1687530682.011,-55.176,-25.391,-40.527,21.484,6.836
1687530682.015,-59.570,-24.902,-35.156,20.020,-64.941
1687530682.019,-70.312,-28.320,-37.109,13.672,-29.297
1687530682.023,-84.473,-33.691,-36.133,11.230,68.359
1687530682.027,-84.961,-40.039,-38.574,0.977,139.648
1687530682.031,-75.195,-39.062,-37.598,1.953,104.980
1687530682.034,-62.500,-39.062,-37.598,7.324,104.004
1687530682.038,-66.895,-39.062,-40.527,-3.906,158.691
1687530682.042,-80.078,-35.156,-33.203,-5.859,351.074
1687530682.046,-78.613,-35.645,-34.180,-2.441,242.676
1687530682.050,-66.406,-34.668,-35.645,0.488,62.500
1687530682.052,-62.012,-36.133,-36.621,10.742,142.090
1687530682.056,-62.500,-29.785,-30.762,19.531,118.652
1687530682.060,-62.012,-31.738,-24.414,9.277,-85.449
1687530682.064,-44.434,-38.086,-28.809,12.695,-63.965
1687530682.068,-23.926,-33.691,-27.832,16.113,7.812
1687530682.072,-13.672,-29.297,-29.297,13.672,48.340
1687530682.076,-25.391,-26.367,-29.785,18.555,87.891
1687530682.079,-35.156,-26.367,-24.414,17.578,8.301
1687530682.083,-18.066,-24.414,-23.926,24.902,131.836
1687530682.087,-13.184,-31.250,-29.785,16.602,198.242
1687530682.091,-19.043,-34.180,-30.273,5.859,-87.891
1687530682.095,-24.414,-36.133,-27.344,10.254,-85.938
1687530682.097,-25.391,-41.504,-34.668,12.695,73.730
1687530682.101,-15.625,-32.227,-26.855,8.301,-31.250
1687530682.105,-19.043,-32.227,-18.555,-1.953,-55.176
1687530682.109,-18.555,-39.551,-29.785,0.488,38.574
1687530682.113,-26.367,-39.551,-32.227,-3.418,69.824
1687530682.117,-44.922,-41.992,-25.879,-12.695,111.328
1687530682.121,-44.922,-44.922,-22.461,-12.695,41.992
1687530682.124,-45.898,-52.734,-21.973,-10.742,112.305
1687530682.128,-38.574,-45.898,-15.625,-1.953,315.918
1687530682.132,-27.344,-41.016,-9.277,7.812,129.395
1687530682.136,-40.527,-48.340,-11.230,-6.348,-19.043
1687530682.140,-42.969,-48.828,-13.672,-15.137,165.039
1687530682.142,-32.715,-45.410,-12.695,-9.277,289.062
1687530682.146,-30.762,-44.922,-11.230,-2.930,38.086
1687530682.150,-24.414,-42.969,-11.719,-1.953,-63.965
1687530682.154,-35.156,-41.992,-8.301,-5.371,34.668
1687530682.158,-42.969,-37.598,-9.277,-0.488,14.648
1687530682.162,-41.504,-34.180,-9.277,12.207,-14.648
1687530682.166,-49.316,-35.645,-5.859,13.672,24.902
1687530682.169,-53.711,-32.715,-9.277,5.371,245.117
1687530682.173,-63.965,-33.203,-9.277,0.977,203.613
1687530682.177,-67.871,-35.156,-11.719,-8.301,-84.473
1687530682.181,-58.105,-35.645,-15.625,-2.441,-87.402
1687530682.185,-56.641,-38.574,-17.090,7.324,-11.719
1687530682.188,-55.664,-38.086,-20.020,2.441,-71.777
1687530682.192,-68.848,-36.621,-21.484,-6.836,-11.719
1687530682.196,-86.426,-40.039,-22.949,-19.531,108.398
1687530682.200,-82.031,-40.527,-26.855,-19.531,81.543
1687530682.204,-77.148,-41.016,-31.250,-13.184,-18.066
1687530682.208,-76.660,-40.527,-33.203,-10.254,34.668
1687530682.212,-75.684,-40.039,-36.621,-7.812,200.195
1687530682.215,-71.289,-38.574,-38.574,-12.695,364.746
1687530682.219,-57.129,-34.668,-41.016,-25.879,86.914
1687530682.223,-54.199,-37.598,-42.480,-18.555,-101.074
1687530682.227,-51.270,-38.086,-41.992,-16.602,22.949
1687530682.231,-51.270,-36.133,-44.434,-31.738,67.383
1687530682.232,-55.176,-34.668,-46.875,-42.480,-54.199
1687530682.236,-43.457,-31.250,-51.270,-33.691,-100.586
1687530682.240,-34.180,-32.227,-53.711,-38.574,68.848
1687530682.244,-37.598,-30.762,-54.688,-43.945,105.469
1687530682.248,-43.945,-29.785,-55.664,-42.480,-24.414
1687530682.252,-49.805,-34.180,-57.617,-45.898,-3.906
1687530682.256,-47.363,-35.156,-54.688,-36.621,200.195
1687530682.259,-45.898,-33.691,-51.270,-34.180,280.273
1687530682.263,-37.109,-33.203,-50.781,-36.621,-23.438
1687530682.267,-40.039,-34.668,-47.363,-37.598,-56.641
1687530682.271,-52.246,-35.156,-51.270,-38.574,42.480
1687530682.275,-49.316,-35.156,-51.270,-29.297,-73.730
1687530682.277,-36.621,-35.156,-49.316,-27.344,-97.656
1687530682.281,-25.879,-33.691,-49.805,-20.020,-16.602
1687530682.285,-39.062,-30.762,-47.852,-25.391,36.621
1687530682.289,-52.246,-33.691,-46.387,-40.039,25.391
1687530682.293,-47.852,-31.738,-47.852,-37.598,-57.617
1687530682.297,-36.621,-30.762,-46.387,-35.645,121.582
1687530682.301,-34.180,-38.574,-44.922,-27.832,388.672
1687530682.304,-42.480,-36.621,-43.457,-20.996,177.246
1687530682.308,-54.688,-35.156,-41.016,-29.297,-16.113
1687530682.312,-52.734,-38.574,-42.480,-30.762,84.473
1687530682.316,-48.828,-37.109,-43.457,-24.414,175.293
1687530682.320,-42.480,-35.156,-42.480,-31.738,14.160
1687530682.337,-25.879,-30.273,-39.062,-34.180,-104.004
1687530682.341,-33.203,-29.785,-40.039,-29.297,42.480
1687530682.345,-42.480,-35.645,-42.969,-30.762,57.129
1687530682.349,-34.668,-34.180,-46.387,-38.574,-72.266
1687530682.353,-24.414,-34.180,-49.316,-29.297,-25.879
1687530682.357,-19.531,-34.180,-44.434,-19.043,198.730
1687530682.361,-27.832,-31.250,-41.016,-17.090,165.527
1687530682.364,-28.320,-29.785,-43.457,-12.207,-4.883
1687530682.368,-20.996,-24.902,-40.039,-9.277,27.344
1687530682.372,-20.508,-24.414,-32.715,1.465,261.230
1687530682.376,-16.113,-23.926,-33.691,11.230,247.070
1687530682.380,-29.297,-32.715,-34.180,7.324,0.000
1687530682.382,-41.016,-33.203,-34.668,-12.207,-26.855
1687530682.386,-32.227,-24.902,-38.574,-22.461,-27.344
1687530682.390,-36.621,-26.855,-39.551,-20.020,-57.129
1687530682.394,-40.527,-29.297,-39.551,-20.996,-76.660
1687530682.398,-42.969,-28.320,-37.598,-16.602,-38.574
1687530682.402,-56.152,-30.273,-37.598,-20.996,56.641
1687530682.406,-47.852,-32.227,-42.969,-31.738,87.402
1687530682.409,-23.438,-33.203,-41.504,-26.855,-19.531
1687530682.413,-30.762,-37.109,-38.086,-20.020,63.477
1687530682.417,-49.805,-33.203,-38.574,-13.184,364.258
1687530682.421,-52.246,-34.180,-38.574,-20.020,148.438
1687530682.425,-39.062,-31.250,-34.668,-33.691,-15.625
1687530682.427,-23.926,-23.438,-35.645,-24.902,262.695
1687530682.431,-25.391,-29.297,-39.551,-17.578,331.543
1687530682.435,-30.273,-32.227,-38.086,-14.160,30.762
1687530682.439,-35.156,-29.785,-35.156,-17.578,-0.488
1687530682.443,-38.574,-33.691,-35.156,-24.414,94.238
1687530682.447,-32.715,-30.762,-37.109,-15.137,104.980
1687530682.451,-31.250,-22.461,-40.039,-13.184,36.621
1687530682.454,-32.715,-22.461,-41.016,-15.137,26.855
1687530682.458,-35.645,-29.785,-40.527,-9.766,220.703
1687530682.462,-35.156,-23.926,-35.156,-9.277,193.848
1687530682.466,-32.715,-21.973,-40.527,-20.996,-21.484
1687530682.470,-35.645,-28.320,-43.457,-19.531,-41.504
1687530682.473,-45.410,-28.320,-37.109,-19.531,14.160
1687530682.477,-52.734,-28.320,-35.645,-27.832,23.438
1687530682.481,-48.828,-28.320,-33.203,-18.066,-25.879
1687530682.485,-33.691,-30.273,-33.691,-20.020,34.668
1687530682.489,-42.480,-30.762,-37.598,-28.320,108.887
1687530682.493,-46.875,-32.715,-38.086,-18.555,92.773
1687530682.497,-48.340,-32.715,-37.109,-28.320,162.598
1687530682.500,-54.199,-31.250,-31.250,-32.715,211.914
1687530682.504,-51.270,-33.203,-31.250,-19.043,283.203
1687530682.508,-47.852,-33.203,-33.203,-20.508,43.945
1687530682.512,-42.969,-31.738,-28.320,-23.926,-5.859
1687530682.516,-45.898,-31.250,-26.367,-28.320,238.770
1687530682.517,-42.480,-31.738,-30.273,-33.203,199.707
1687530682.521,-39.551,-32.715,-37.598,-31.738,-42.969
1687530682.525,-37.598,-34.668,-38.574,-33.691,-123.535
1687530682.529,-35.645,-33.203,-35.156,-29.785,-13.672
1687530682.533,-48.340,-31.738,-39.062,-28.320,7.812
1687530682.537,-51.270,-33.691,-43.945,-44.922,-1.465
1687530682.541,-37.598,-33.203,-40.039,-57.617,16.113
1687530682.544,-30.762,-30.762,-36.621,-41.016,250.000
1687530682.548,-35.645,-31.738,-36.621,-22.461,324.219
1687530682.552,-35.156,-29.297,-38.086,-32.715,-26.367
1687530682.556,-39.062,-30.273,-37.598,-32.715,-27.344
1687530682.560,-36.621,-31.250,-34.180,-25.391,31.250
1687530682.562,-27.832,-26.855,-30.273,-21.484,-62.012
1687530682.566,-27.832,-23.438,-29.785,-13.672,-123.535
1687530682.570,-39.551,-25.391,-30.762,-11.230,-60.059
1687530682.574,-44.434,-29.297,-28.320,-19.531,21.973
1687530682.578,-38.086,-29.785,-28.809,-18.555,-80.078
1687530682.582,-35.156,-28.320,-28.320,-10.742,-103.516
1687530682.586,-35.156,-29.297,-25.879,-13.672,76.660
1687530682.589,-45.898,-32.715,-29.297,-10.254,388.672
1687530682.593,-61.035,-32.715,-33.691,-17.578,236.816
1687530682.597,-47.363,-28.320,-31.250,-33.203,2.930
1687530682.601,-43.945,-28.809,-27.832,-38.086,38.086
1687530682.605,-49.805,-28.809,-24.902,-25.391,49.805
1687530682.607,-43.945,-22.461,-25.879,-18.555,-23.438
1687530682.611,-53.711,-23.926,-29.297,-29.785,-61.523
1687530682.615,-55.176,-26.367,-27.344,-31.250,112.793
1687530682.619,-56.152,-28.809,-31.250,-29.785,101.074
1687530682.623,-50.781,-33.691,-30.762,-29.297,-57.129
1687530682.627,-46.875,-34.180,-29.785,-25.879,45.410
1687530682.631,-55.664,-35.156,-32.227,-18.555,328.613
1687530682.634,-49.316,-34.668,-32.227,-29.785,196.777
1687530682.638,-35.156,-30.762,-33.691,-32.227,-21.484
1687530682.642,-38.086,-30.762,-35.156,-32.227,8.301
1687530682.646,-43.945,-31.250,-39.062,-31.738,143.555
1687530682.650,-50.781,-30.273,-37.598,-37.598,42.969
1687530682.652,-55.664,-33.203,-35.645,-51.758,-81.543
1687530682.656,-55.176,-31.250,-36.621,-36.621,-48.340
1687530682.660,-60.059,-26.855,-31.250,-24.414,-25.391
1687530682.664,-62.988,-31.738,-27.832,-33.203,-42.969
1687530682.668,-71.777,-38.086,-29.785,-40.039,-48.340
1687530682.672,-77.148,-41.504,-32.715,-49.805,54.199
1687530682.676,-63.477,-40.039,-32.227,-54.688,125.000
1687530682.679,-51.758,-36.621,-29.297,-37.109,52.734
1687530682.683,-52.246,-37.109,-27.832,-36.133,-19.531
1687530682.687,-52.246,-41.016,-29.785,-48.828,31.738
1687530682.691,-49.805,-39.062,-35.645,-69.336,184.082
1687530682.695,-47.852,-40.039,-40.527,-75.195,94.238
1687530682.712,-31.738,-41.504,-45.410,-59.570,-75.684
1687530682.716,-31.738,-37.598,-45.410,-58.105,63.477
1687530682.720,-46.875,-35.156,-33.691,-69.336,248.535
1687530682.724,-43.457,-34.180,-31.250,-69.336,-28.320
1687530682.728,-39.062,-35.156,-35.156,-52.734,-83.496
1687530682.732,-34.180,-33.691,-29.785,-43.457,187.500
1687530682.736,-42.969,-29.785,-28.320,-57.617,142.578
1687530682.739,-59.570,-35.645,-28.320,-54.688,4.883
1687530682.743,-61.523,-39.062,-31.250,-47.852,-40.527
1687530682.747,-61.035,-33.203,-35.645,-61.523,143.066
1687530682.751,-62.500,-29.785,-31.738,-60.547,99.609
1687530682.755,-53.223,-29.785,-27.344,-40.039,-84.961
1687530682.757,-59.570,-28.320,-27.344,-35.645,6.836
1687530682.761,-69.824,-27.832,-28.809,-39.062,72.754
1687530682.765,-54.199,-26.367,-27.832,-37.598,-54.199
1687530682.769,-33.691,-28.809,-25.391,-39.551,-28.809
1687530682.773,-44.434,-34.180,-27.344,-31.250,37.598
1687530682.777,-60.547,-35.156,-33.203,-37.598,70.312
1687530682.781,-58.105,-34.668,-38.086,-58.594,129.883
1687530682.784,-50.293,-34.668,-34.668,-64.941,-32.715
1687530682.788,-46.875,-30.762,-27.832,-56.641,-5.859
1687530682.792,-48.340,-30.273,-31.738,-44.434,255.859
1687530682.796,-39.551,-33.691,-31.250,-47.363,77.148
1687530682.800,-51.270,-33.203,-28.320,-45.898,57.129
1687530682.802,-58.594,-29.785,-26.855,-49.316,112.793
1687530682.806,-44.434,-28.809,-25.391,-50.293,71.289
1687530682.810,-41.016,-28.809,-29.785,-49.316,-19.043
1687530682.814,-48.828,-31.250,-28.320,-53.711,-42.969
1687530682.818,-52.734,-30.273,-25.391,-50.293,52.734
1687530682.822,-48.828,-30.273,-28.320,-48.340,75.684
1687530682.826,-44.922,-39.062,-23.926,-40.527,-8.789
1687530682.829,-38.086,-38.086,-20.996,-23.438,-63.965
1687530682.833,-41.016,-35.645,-23.438,-24.902,164.551
1687530682.837,-47.363,-37.109,-26.367,-48.828,203.125
1687530682.841,-45.898,-34.180,-24.414,-46.875,-56.152
1687530682.845,-44.922,-30.273,-22.461,-22.461,-58.594
1687530682.847,-41.992,-35.645,-29.785,-19.531,53.223
1687530682.851,-42.480,-40.039,-31.738,-29.785,32.715
1687530682.855,-57.617,-37.598,-29.297,-41.992,-40.039
1687530682.859,-54.688,-37.109,-28.809,-51.270,-85.938
1687530682.863,-42.480,-37.109,-26.367,-48.340,-30.762
1687530682.867,-46.875,-35.645,-24.414,-39.062,69.824
1687530682.871,-39.062,-32.715,-24.902,-40.039,58.594
1687530682.874,-41.504,-29.785,-22.949,-34.668,158.691
1687530682.878,-53.223,-27.832,-23.926,-28.320,377.930
1687530682.882,-47.852,-32.227,-29.297,-35.645,167.480
1687530682.886,-30.762,-35.156,-33.203,-28.809,-44.922
1687530682.890,-32.227,-30.762,-34.180,-26.855,114.746
1687530682.892,-45.898,-29.785,-31.250,-24.414,158.203
1687530682.896,-46.875,-33.203,-31.738,-30.273,36.133
1687530682.900,-37.598,-33.691,-34.180,-51.270,-35.156
1687530682.904,-31.250,-32.715,-34.668,-47.852,-23.438
1687530682.908,-29.297,-29.297,-34.180,-30.762,68.848
1687530682.912,-28.320,-26.855,-28.809,-20.996,91.797
1687530682.916,-28.320,-29.297,-26.855,-24.414,108.398
1687530682.919,-35.156,-29.785,-33.203,-20.508,351.562
1687530682.923,-36.133,-31.250,-35.645,-7.812,451.172
1687530682.927,-26.367,-30.762,-33.691,-19.531,95.703
1687530682.931,-29.297,-29.785,-33.691,-34.180,-66.406
1687530682.935,-39.062,-32.227,-34.668,-31.738,-35.645
1687530682.937,-25.879,-27.832,-35.156,-19.531,-98.145
1687530682.941,-24.902,-23.926,-35.156,-21.973,-135.254
1687530682.945,-33.203,-29.297,-32.227,-22.949,-41.016
1687530682.949,-30.273,-31.738,-28.809,-19.043,-0.488
1687530682.953,-41.992,-31.738,-24.902,-20.020,-6.836
1687530682.957,-41.016,-31.738,-23.926,-10.254,24.414
1687530682.961,-25.391,-33.691,-29.297,0.000,101.562
1687530682.964,-20.508,-33.203,-30.762,1.465,298.828
1687530682.968,-32.227,-32.715,-32.715,-21.973,59.082
1687530682.972,-45.898,-32.227,-33.203,-21.484,-77.148
1687530682.976,-36.621,-30.762,-32.715,-11.719,73.242
1687530682.980,-37.109,-33.203,-34.180,-15.625,88.379
1687530682.982,-37.598,-32.715,-32.227,-8.789,-29.297
1687530682.986,-34.180,-32.715,-25.879,-8.789,-119.629
1687530682.990,-52.246,-32.715,-24.902,-10.254,49.805
1687530682.994,-58.594,-31.250,-28.320,-11.719,208.984
1687530682.998,-40.039,-32.715,-26.367,-18.066,-18.066
1687530683.002,-39.551,-36.133,-26.367,-12.695,-21.973
1687530683.006,-53.223,-38.086,-23.926,-3.418,340.332
1687530683.009,-57.129,-41.992,-24.902,-4.883,317.383
1687530683.013,-43.457,-44.922,-26.855,-23.926,-6.836
1687530683.017,-32.715,-41.504,-20.996,-18.066,-80.566
1687530683.021,-27.832,-36.133,-15.137,-10.254,-82.031
1687530683.025,-21.484,-36.133,-18.066,-15.137,-69.824
1687530683.029,-33.691,-39.062,-25.391,-14.160,60.547
1687530683.033,-41.016,-35.645,-26.367,-16.113,68.359
1687530683.037,-28.320,-38.086,-28.809,-12.695,95.215
1687530683.041,-26.855,-40.039,-28.320,-4.883,54.688
1687530683.045,-35.156,-37.109,-27.344,-15.137,-26.367
1687530683.049,-40.039,-39.551,-25.391,-32.227,153.320
1687530683.053,-43.457,-41.016,-22.949,-22.461,313.477
1687530683.056,-38.574,-44.434,-25.879,-22.949,156.250
1687530683.060,-29.785,-48.340,-22.949,-22.949,-33.203
1687530683.064,-29.785,-41.504,-17.578,-11.719,-4.395
1687530683.068,-47.363,-41.016,-20.020,-27.344,123.047
1687530683.072,-46.387,-38.086,-21.484,-51.758,84.473
1687530683.088,-37.598,-31.738,-22.461,-42.969,-78.613
1687530683.092,-34.668,-32.227,-23.926,-30.762,1.465
1687530683.096,-37.598,-32.227,-25.391,-29.297,121.094
1687530683.100,-43.945,-35.156,-25.879,-32.227,-17.578
1687530683.104,-49.316,-35.156,-28.809,-41.016,-69.824
1687530683.108,-36.621,-37.109,-25.391,-24.902,191.895
1687530683.112,-3.906,-36.133,-23.926,4.395,291.504
1687530683.115,-1.465,-25.879,-32.227,0.977,24.902
1687530683.119,-24.902,-19.531,-38.086,-18.555,19.531
1687530683.123,-42.480,-16.602,-46.387,-34.668,120.117
1687530683.127,-38.086,-12.207,-51.270,-46.387,-17.578
1687530683.131,-24.414,-1.953,-58.105,-45.410,-100.098
1687530683.132,-30.762,7.324,-70.312,-52.734,-44.434
1687530683.136,-54.199,9.766,-80.078,-61.523,42.969
1687530683.140,-67.871,14.160,-81.055,-72.754,74.707
1687530683.144,-72.266,18.555,-86.426,-97.656,-33.691
1687530683.148,-74.707,22.949,-94.238,-110.840,-10.742
1687530683.152,-72.266,25.391,-102.539,-103.516,135.742
1687530683.156,-79.102,28.320,-108.887,-100.098,90.332
1687530683.159,-113.281,29.785,-115.234,-129.395,-5.859
1687530683.163,-108.398,27.832,-122.559,-156.250,22.461
1687530683.167,-91.797,29.785,-120.605,-142.578,249.023
1687530683.171,-100.586,34.668,-123.047,-141.602,147.949
1687530683.175,-95.215,36.133,-127.930,-144.531,58.105
1687530683.177,-100.586,38.574,-124.512,-146.484,198.242
1687530683.181,-87.402,44.434,-124.023,-126.953,149.902
1687530683.185,-73.242,43.457,-121.094,-115.234,-5.859
1687530683.189,-66.895,46.387,-115.234,-114.258,-53.223
1687530683.193,-56.641,44.922,-118.164,-113.281,36.621
1687530683.197,-60.547,41.504,-116.699,-107.422,79.590
1687530683.201,-65.918,39.551,-114.746,-94.727,77.637
1687530683.204,-63.477,39.062,-113.770,-82.031,52.246
1687530683.208,-49.805,38.086,-107.910,-76.172,249.512
1687530683.212,-51.270,33.203,-104.004,-81.055,310.547
1687530683.216,-69.824,30.762,-98.145,-101.074,-16.113
1687530683.220,-68.359,24.414,-95.703,-101.562,-77.148
1687530683.222,-65.918,22.461,-89.844,-77.637,-28.809
1687530683.226,-78.613,17.090,-85.938,-80.566,-56.641
1687530683.230,-67.383,14.648,-87.402,-100.098,-59.082
1687530683.234,-57.617,20.996,-78.125,-93.750,-8.789
1687530683.238,-67.383,16.113,-76.660,-85.449,13.184
1687530683.242,-56.641,13.672,-76.660,-95.703,16.113
1687530683.246,-45.898,12.695,-73.242,-87.891,23.438
1687530683.249,-41.016,6.836,-71.289,-69.336,109.863
1687530683.253,-43.945,8.301,-67.871,-65.430,310.059
1687530683.257,-32.715,9.277,-65.918,-64.453,98.145
1687530683.261,-0.488,4.395,-68.848,-63.965,-83.984
1687530683.265,-2.441,6.348,-62.012,-54.688,92.285
1687530683.267,-15.137,3.906,-51.270,-27.344,271.973
1687530683.271,2.441,-5.859,-53.711,-34.668,53.223
1687530683.275,7.812,-6.348,-53.223,-45.410,-117.188
1687530683.279,13.184,-6.836,-45.898,-36.621,-5.371
1687530683.283,15.625,-7.812,-44.434,-41.016,-23.926
1687530683.287,2.930,-10.254,-46.387,-41.016,30.273
1687530683.291,5.371,-10.742,-44.434,-31.250,125.000
1687530683.294,-6.836,-8.789,-39.551,-20.020,260.742
1687530683.298,-9.277,-4.395,-36.621,-26.367,177.246
1687530683.302,-2.930,-5.371,-33.203,-25.879,-82.031
1687530683.306,4.883,-10.254,-28.320,-15.137,-44.922
1687530683.310,0.488,-9.277,-23.926,-19.043,68.359
1687530683.312,-17.578,-14.160,-27.344,-41.016,79.102
1687530683.316,-30.273,-18.555,-31.250,-54.199,-54.688
1687530683.320,-16.602,-18.066,-23.926,-29.297,-83.984
1687530683.324,-1.465,-18.066,-20.508,-9.766,71.289
1687530683.328,-12.207,-19.043,-23.926,-19.531,39.062
1687530683.332,-15.137,-22.949,-26.367,-29.785,52.246
1687530683.336,-0.488,-22.949,-25.879,-32.227,229.980
1687530683.339,-3.418,-22.949,-23.438,-14.160,408.203
1687530683.343,-8.789,-22.461,-21.484,-9.277,194.336
1687530683.347,0.488,-19.043,-18.066,-14.648,15.137
1687530683.351,6.836,-17.578,-18.066,-18.066,50.781
1687530683.355,18.555,-22.949,-20.996,-27.832,89.844
1687530683.358,20.508,-21.973,-22.949,-27.832,31.250
1687530683.362,15.625,-17.578,-21.973,-13.672,-69.824
1687530683.366,20.020,-15.625,-20.996,-19.043,106.934
1687530683.370,5.859,-20.508,-23.438,-21.973,237.793
1687530683.374,0.977,-19.531,-18.555,-14.160,4.395
1687530683.378,13.184,-16.113,-17.090,-16.602,76.172
1687530683.382,19.043,-16.602,-20.020,-19.043,257.812
1687530683.385,27.344,-14.648,-16.602,-4.883,105.957
1687530683.389,24.414,-11.719,-17.090,-14.160,-80.566
1687530683.393,15.625,-8.789,-21.973,-30.762,-78.125
1687530683.397,12.695,-13.672,-20.508,-26.367,20.996
1687530683.401,17.090,-16.113,-18.066,-20.996,-31.738
1687530683.402,20.996,-12.207,-20.996,-18.555,-92.773
1687530683.406,15.625,-15.625,-26.855,-33.203,-53.711
1687530683.410,16.602,-18.555,-25.391,-38.086,23.926
1687530683.414,34.668,-15.137,-22.461,-21.973,6.348
1687530683.418,23.926,-17.090,-20.020,-20.996,42.969
1687530683.422,20.508,-19.531,-23.438,-41.992,174.316
1687530683.426,23.438,-19.531,-22.949,-36.621,410.645
1687530683.429,10.742,-18.555,-20.508,-26.855,261.719
1687530683.433,21.484,-20.020,-24.902,-33.203,-10.742
1687530683.437,39.062,-15.625,-23.438,-27.344,42.969
1687530683.441,35.156,-19.043,-21.973,-22.949,98.633
1687530683.445,18.555,-27.344,-21.973,-31.738,145.508
1687530683.462,-0.488,-27.344,-21.973,-35.156,51.758
1687530683.466,-2.441,-31.250,-25.879,-42.480,61.523
1687530683.470,1.465,-33.203,-25.391,-35.645,111.328
1687530683.474,-0.977,-29.297,-30.273,-37.598,-30.273
1687530683.478,10.254,-25.391,-36.621,-43.457,17.578
1687530683.482,14.648,-23.926,-34.668,-35.645,214.355
1687530683.486,14.648,-21.484,-31.738,-37.109,168.457
1687530683.489,18.066,-21.484,-31.738,-36.133,114.258
1687530683.493,11.719,-21.484,-32.715,-32.227,73.730
1687530683.497,2.441,-21.484,-30.762,-29.297,229.492
1687530683.501,-0.488,-23.438,-30.273,-29.297,246.582
1687530683.505,1.465,-26.855,-31.738,-41.992,-15.625
1687530683.507,-9.277,-34.668,-34.668,-47.363,-38.574
1687530683.511,-17.090,-43.457,-39.551,-42.480,-32.227
1687530683.515,-17.090,-40.039,-40.039,-37.109,-39.062
1687530683.519,-15.625,-31.250,-32.715,-34.180,-10.742
1687530683.523,-6.836,-28.809,-27.832,-37.109,-26.855
1687530683.527,3.906,-29.785,-33.691,-46.875,71.289
1687530683.531,2.441,-33.203,-35.156,-48.340,79.590
1687530683.534,0.977,-39.062,-33.691,-38.574,-110.352
1687530683.538,4.395,-38.574,-37.109,-27.832,-61.035
1687530683.542,2.441,-36.133,-39.062,-23.926,362.305
1687530683.546,7.812,-33.691,-39.062,-32.227,186.035
1687530683.550,17.090,-32.227,-41.992,-26.367,-62.012
1687530683.552,20.996,-33.691,-44.922,-27.832,96.191
1687530683.556,8.301,-31.738,-45.410,-34.180,146.484
1687530683.560,-16.602,-30.273,-40.039,-33.691,-30.273
1687530683.564,-17.578,-33.691,-36.621,-47.852,-110.840
1687530683.568,-5.371,-31.250,-42.480,-24.902,-18.066
1687530683.572,-0.488,-21.973,-42.969,19.531,54.199
1687530683.576,-18.066,-34.180,-31.250,11.719,29.785
1687530683.579,-29.297,-45.898,-21.484,-2.441,4.883
1687530683.583,-25.391,-50.781,-20.020,4.395,152.344
1687530683.587,-25.391,-57.617,-16.602,12.207,146.484
1687530683.591,-34.180,-62.500,-9.766,2.930,-36.133
1687530683.595,-42.480,-66.406,-9.277,0.977,38.086
1687530683.597,-35.156,-67.383,-4.883,19.043,150.391
1687530683.601,-24.902,-73.242,7.812,22.949,32.715
1687530683.605,-19.043,-76.172,11.719,18.555,-57.129
1687530683.609,-22.461,-80.566,11.230,27.344,-79.590
1687530683.613,-30.273,-84.473,16.602,28.320,-49.805
1687530683.617,-30.762,-86.426,22.461,34.180,20.020
1687530683.621,-27.832,-92.773,26.855,39.062,39.551
1687530683.624,-19.531,-96.191,28.320,30.762,91.797
1687530683.628,-17.578,-97.656,28.809,36.621,284.668
1687530683.632,-13.184,-101.562,29.785,46.875,29.297
1687530683.636,-18.066,-103.516,35.645,33.691,-104.492
1687530683.640,-41.504,-105.469,39.062,30.273,152.832
1687530683.643,-32.715,-103.027,35.645,46.875,165.039
1687530683.647,-34.180,-101.562,39.062,56.152,52.246
1687530683.651,-47.363,-107.422,41.016,43.457,149.902
1687530683.655,-54.199,-112.793,40.039,39.551,236.816
1687530683.659,-41.992,-113.770,40.039,52.734,165.527
1687530683.663,-36.133,-106.934,37.109,39.062,-21.484
1687530683.667,-46.387,-103.027,35.645,40.039,18.066
1687530683.670,-55.664,-102.539,30.273,58.105,228.027
1687530683.674,-59.570,-102.051,24.902,43.457,205.566
1687530683.678,-44.922,-101.562,22.949,14.160,-29.785
1687530683.682,-31.250,-90.332,23.438,23.926,-51.270
1687530683.686,-23.438,-85.938,18.555,38.574,64.453
1687530683.687,-12.207,-85.938,11.230,42.480,-0.977
1687530683.691,-15.625,-77.637,10.742,40.039,-27.344
1687530683.695,-22.949,-74.707,4.395,35.156,-11.719
1687530683.699,-17.090,-73.730,-3.906,39.062,20.508
1687530683.703,-4.883,-73.242,-3.418,46.875,84.961
1687530683.707,-9.766,-71.777,0.000,41.504,9.277
1687530683.711,-21.484,-68.848,0.977,37.109,26.855
1687530683.714,-22.461,-64.453,-2.930,38.086,344.238
1687530683.718,-15.625,-62.500,-5.371,39.551,245.117
1687530683.722,-11.719,-64.453,-8.789,44.434,-22.461
1687530683.726,-16.602,-59.082,-7.812,51.758,12.695
1687530683.730,-17.578,-50.781,-4.395,52.734,61.523
1687530683.732,-24.902,-53.223,-9.277,38.574,56.641
1687530683.736,-13.672,-55.664,-14.160,30.273,-9.766
1687530683.740,3.418,-53.711,-13.672,42.969,77.637
1687530683.744,-14.648,-50.781,-12.207,45.410,163.086
1687530683.748,-34.668,-51.270,-9.766,38.574,-5.859
1687530683.752,-37.109,-54.688,-12.207,41.016,75.684
1687530683.756,-28.809,-54.199,-10.742,45.410,305.664
1687530683.759,-22.949,-49.805,-7.324,55.176,245.605
1687530683.763,-19.531,-48.340,-12.695,52.734,22.461
1687530683.767,-26.367,-45.410,-13.672,33.203,-16.113
1687530683.771,-29.297,-41.504,-12.207,30.762,93.262
1687530683.775,-11.230,-43.945,-14.160,41.992,-21.973
1687530683.777,4.883,-41.504,-16.113,41.016,-118.164
1687530683.781,7.324,-36.133,-14.648,41.504,-3.906
1687530683.785,-9.766,-37.109,-14.648,37.598,196.289
1687530683.789,-24.902,-43.945,-23.438,24.414,111.816
1687530683.793,-0.977,-41.016,-25.391,24.902,23.926
1687530683.797,15.625,-37.598,-25.391,28.320,219.238
1687530683.801,-5.371,-42.969,-28.809,17.578,327.637
1687530683.804,-26.367,-44.434,-32.715,10.254,102.051
1687530683.808,-26.367,-35.645,-30.273,16.602,-6.836
1687530683.812,-15.625,-36.621,-18.555,18.555,98.145
1687530683.816,-6.348,-45.898,-17.578,8.301,200.195
1687530683.820,-3.418,-39.062,-22.949,-2.930,116.211
1687530683.837,-41.504,-34.668,-25.879,-24.902,-40.527
1687530683.841,-67.383,-34.668,-26.367,-45.898,-43.457
1687530683.845,-44.434,-31.250,-23.438,-62.988,39.551
1687530683.849,-25.879,-30.762,-21.484,-67.871,-57.129
1687530683.853,-25.879,-35.156,-21.484,-51.270,-124.023
1687530683.857,-31.250,-36.133,-26.367,-57.617,130.371
1687530683.861,-44.922,-36.133,-31.250,-68.359,159.180
1687530683.864,-34.180,-34.668,-27.832,-60.547,-0.488
1687530683.868,-25.879,-32.715,-20.508,-45.410,2.441
1687530683.872,-26.855,-35.156,-21.973,-20.020,214.844
1687530683.876,-24.414,-36.621,-24.902,-16.602,164.062
1687530683.880,-41.504,-40.039,-24.902,-41.992,-31.738
1687530683.882,-47.852,-41.992,-25.879,-41.504,-17.090
1687530683.886,-16.113,-37.598,-19.531,-26.367,92.773
1687530683.890,-5.859,-34.180,-18.555,-14.160,28.320
1687530683.894,-34.180,-36.621,-23.926,-8.789,-45.410
1687530683.898,-44.922,-38.086,-23.926,-11.719,26.855
1687530683.902,-44.434,-32.227,-21.484,-17.578,136.719
1687530683.906,-29.785,-24.414,-20.020,-13.672,114.746
1687530683.909,-21.973,-25.879,-19.043,-4.395,-35.645
1687530683.913,-16.113,-31.250,-21.973,-2.441,11.719
1687530683.917,-12.695,-30.273,-28.809,-3.418,260.254
1687530683.921,-40.039,-34.180,-30.273,-15.137,102.539
1687530683.925,-28.809,-35.645,-31.250,-13.672,-73.242
1687530683.927,-12.695,-35.156,-31.250,-9.277,41.504
1687530683.931,-28.320,-38.574,-27.832,-5.859,194.824
1687530683.935,-33.691,-34.668,-33.691,-12.207,79.590
1687530683.939,-43.457,-39.551,-38.086,-27.344,-31.738
1687530683.943,-39.062,-41.016,-37.598,-21.484,98.633
1687530683.947,-40.527,-31.738,-36.133,-10.254,167.969
1687530683.951,-47.363,-32.715,-33.691,-14.160,108.887
1687530683.954,-44.434,-35.156,-35.645,-23.926,-23.926
1687530683.958,-59.082,-32.715,-38.574,-20.996,163.574
1687530683.962,-43.945,-35.645,-37.109,-13.672,155.762
1687530683.966,-28.809,-39.062,-33.691,-6.836,-30.273
1687530683.970,-45.410,-36.621,-29.297,-12.695,-21.973
1687530683.972,-62.012,-37.109,-28.809,-26.855,-22.461
1687530683.976,-65.918,-37.598,-33.691,-38.086,1.465
1687530683.980,-49.316,-39.551,-33.203,-27.344,-40.039
1687530683.984,-31.250,-40.039,-35.156,-14.648,-3.906
1687530683.988,-38.574,-38.086,-32.715,-16.602,97.656
1687530683.992,-50.781,-41.016,-31.738,-25.391,54.688
1687530683.996,-50.293,-39.062,-34.180,-32.227,79.590
1687530683.999,-46.875,-38.574,-35.156,-28.320,48.828
1687530684.003,-42.969,-38.574,-35.156,-13.672,228.027
1687530684.007,-27.832,-39.062,-32.715,-20.020,139.648
1687530684.011,-31.738,-37.109,-31.250,-24.902,-42.480
1687530684.015,-41.016,-30.762,-27.344,-1.465,78.125
1687530684.017,-31.250,-33.203,-27.344,-1.465,136.230
1687530684.021,-14.648,-32.227,-31.250,-13.672,-36.621
1687530684.025,-30.273,-34.668,-33.203,-13.672,-83.496
1687530684.029,-33.691,-32.227,-33.203,-16.113,83.008
1687530684.033,-32.715,-23.438,-30.273,-6.348,105.957
1687530684.037,-34.180,-21.484,-25.879,1.465,46.387
1687530684.041,-24.902,-23.926,-28.320,-12.695,41.992
1687530684.044,-22.461,-26.367,-26.367,-12.695,339.355
1687530684.048,-23.926,-28.320,-28.320,2.930,392.090
1687530684.052,-38.574,-27.344,-32.227,-1.953,-22.949
1687530684.056,-32.227,-30.273,-28.809,-17.090,-63.965
1687530684.060,-14.648,-32.715,-27.832,-9.766,54.688
1687530684.062,-1.465,-28.320,-24.414,-1.465,-19.043
1687530684.066,-1.465,-26.367,-19.043,-4.883,-44.434
1687530684.070,-11.230,-32.227,-21.484,5.371,-11.230
1687530684.074,-11.719,-30.273,-28.809,4.395,0.488
1687530684.078,-16.113,-26.855,-28.809,8.789,-0.488
1687530684.082,-4.883,-27.344,-25.391,13.672,21.973
1687530684.086,0.000,-22.461,-26.367,-1.953,139.160
1687530684.089,-14.648,-25.879,-29.785,-3.906,310.547
1687530684.093,-15.625,-27.344,-28.320,-4.883,187.500
1687530684.097,-10.254,-26.855,-26.855,-0.977,-55.176
1687530684.101,-22.949,-34.180,-26.855,4.395,36.621
1687530684.105,-25.879,-41.016,-24.902,-0.977,243.652
1687530684.107,-32.715,-38.574,-26.367,-12.207,83.008
1687530684.111,-37.598,-34.668,-23.438,-12.695,-51.270
1687530684.115,-26.367,-35.156,-19.531,-7.324,76.660
1687530684.119,-20.508,-34.180,-24.902,-7.324,124.023
1687530684.123,-9.277,-34.180,-24.902,-4.883,-39.551
1687530684.127,-22.949,-33.203,-17.578,8.789,-43.457
1687530684.131,-35.156,-33.203,-18.555,10.254,256.836
1687530684.134,-15.625,-34.668,-23.926,0.977,203.613
1687530684.138,0.488,-34.180,-23.926,1.953,-90.332
1687530684.142,-3.418,-36.133,-23.438,-6.836,-34.668
1687530684.146,-9.766,-36.133,-23.438,-15.625,145.020
1687530684.150,-7.324,-31.250,-27.832,-13.672,113.281
1687530684.152,-3.418,-29.785,-23.926,-8.301,-47.852
1687530684.156,4.883,-27.832,-18.555,4.883,-0.488
1687530684.160,11.230,-28.809,-24.902,13.672,98.633
1687530684.164,-1.953,-33.691,-29.785,1.953,-44.434
1687530684.168,-19.043,-35.645,-31.738,-19.043,-129.883
1687530684.172,-3.906,-34.180,-31.738,-13.672,84.961
1687530684.176,10.254,-30.273,-30.762,-12.207,299.805
1687530684.179,3.906,-27.832,-25.879,-15.137,101.562
1687530684.183,-4.883,-30.273,-18.066,10.742,-67.383
1687530684.187,-18.066,-29.785,-19.531,11.230,47.363
1687530684.191,-10.254,-32.715,-21.973,-5.371,126.953
1687530684.195,-9.766,-34.180,-19.531,0.000,32.715
1687530684.198,-25.391,-37.109,-23.438,-0.488,-48.340
1687530684.202,-28.809,-39.062,-29.785,-0.488,115.234
1687530684.206,-31.250,-38.086,-34.180,-0.977,294.922
1687530684.210,-23.438,-36.621,-29.785,-9.766,64.453
1687530684.214,-21.973,-34.180,-23.926,-9.277,-52.734
1687530684.218,-23.438,-32.227,-25.391,-4.395,80.078
1687530684.222,-17.578,-36.133,-22.949,-4.883,123.535
1687530684.225,-18.555,-41.016,-24.414,-10.742,39.062
1687530684.229,-21.973,-38.086,-30.273,-19.531,-32.715
1687530684.233,-21.973,-34.180,-27.832,-31.250,138.672
1687530684.237,-11.719,-32.227,-29.785,-27.832,102.539
1687530684.241,-8.789,-33.691,-32.715,-19.531,-94.238
1687530684.257,-23.926,-34.180,-29.297,-17.090,-37.598
1687530684.261,-26.367,-38.086,-35.645,-28.809,-6.348
1687530684.265,-22.949,-35.156,-38.574,-24.414,-61.523
1687530684.269,-19.043,-31.738,-34.180,-9.766,12.207
1687530684.273,-20.020,-28.320,-38.574,-9.766,123.535
1687530684.277,-52.734,-26.855,-38.574,-10.254,319.824
1687530684.281,-63.965,-31.738,-28.320,-5.859,151.367
1687530684.284,-45.410,-31.738,-23.438,4.395,-104.492
1687530684.288,-41.504,-28.809,-23.926,3.418,-32.227
1687530684.292,-38.574,-26.855,-19.531,3.906,138.672
1687530684.296,-48.828,-28.809,-21.973,-4.395,19.043
1687530684.300,-51.758,-30.762,-25.879,-17.090,70.801
1687530684.302,-38.574,-26.855,-22.949,-8.789,165.039
1687530684.306,-41.992,-29.785,-23.438,-17.090,116.211
1687530684.310,-35.156,-25.879,-25.879,-12.207,-50.293
1687530684.314,-35.156,-19.043,-24.414,-1.465,-49.805
1687530684.318,-52.734,-23.438,-25.391,-19.043,103.516
1687530684.322,-45.898,-28.320,-31.250,-20.996,113.770
1687530684.326,-25.391,-26.367,-29.785,-19.043,138.672
1687530684.329,-24.414,-27.344,-32.227,-15.625,173.340
1687530684.333,-37.598,-31.738,-33.691,10.254,342.773
1687530684.337,-26.855,-30.762,-30.762,14.648,363.770
1687530684.341,-29.785,-32.715,-31.738,-4.883,-66.406
1687530684.345,-39.551,-37.598,-34.180,-11.230,-136.719
1687530684.347,-28.320,-39.551,-33.691,-19.531,-9.766
1687530684.351,-35.645,-34.180,-34.668,-35.645,-37.598
1687530684.355,-36.621,-30.273,-35.156,-40.527,-40.039
1687530684.359,-16.113,-30.273,-34.668,-25.879,-48.828
1687530684.363,-0.488,-30.762,-38.574,-24.414,11.230
1687530684.367,10.254,-29.785,-37.598,-24.902,92.285
1687530684.371,-10.742,-28.809,-33.203,-20.020,24.902
1687530684.374,-30.762,-36.133,-37.109,-27.344,83.496
1687530684.378,-27.832,-38.574,-37.109,-23.926,390.625
1687530684.382,-29.297,-32.715,-30.762,-15.625,183.594
1687530684.386,-32.715,-33.203,-31.250,-7.324,-92.285
1687530684.390,-40.039,-31.738,-32.227,-17.090,74.707
1687530684.392,-54.199,-29.785,-34.180,-21.973,126.465
1687530684.396,-55.176,-31.250,-32.715,-21.973,-29.297
1687530684.400,-46.387,-29.297,-30.273,-20.996,-31.738
1687530684.404,-45.410,-32.715,-31.738,-16.602,-12.695
1687530684.408,-49.805,-35.645,-36.621,-14.160,-50.293
1687530684.412,-48.340,-32.227,-36.621,-16.113,-4.883
1687530684.416,-45.898,-33.203,-38.086,-25.879,62.500
1687530684.419,-42.480,-34.668,-42.480,-17.578,207.031
1687530684.423,-28.809,-27.832,-38.574,-8.301,150.391
1687530684.427,-20.996,-30.273,-37.109,-13.672,-78.613
1687530684.431,-37.109,-33.203,-35.156,-12.695,9.766
1687530684.435,-41.016,-29.297,-29.785,2.441,191.895
1687530684.437,-33.203,-32.715,-32.227,-4.883,48.828
1687530684.441,-28.809,-34.180,-34.180,-15.137,-80.566
1687530684.445,-22.949,-29.785,-28.809,-8.301,-17.578
1687530684.449,-28.809,-30.273,-30.273,-12.207,40.527
1687530684.453,-36.133,-25.879,-29.785,-15.137,22.461
1687530684.457,-22.461,-23.926,-25.391,-11.230,79.102
1687530684.461,-29.785,-30.762,-30.762,-10.254,193.359
1687530684.464,-30.273,-33.203,-38.086,1.465,302.734
1687530684.468,-28.320,-35.645,-38.574,0.977,104.980
1687530684.472,-39.062,-36.133,-42.480,-11.719,-51.270
1687530684.476,-35.156,-30.273,-44.922,-3.418,9.766
1687530684.480,-27.344,-33.203,-44.434,1.465,100.098
1687530684.483,-30.762,-34.180,-42.480,0.000,70.312
1687530684.487,-35.645,-31.738,-40.039,-2.441,9.766
1687530684.491,-43.945,-36.133,-39.551,4.395,127.930
1687530684.495,-46.875,-38.086,-37.109,5.371,261.719
1687530684.499,-30.762,-36.621,-37.598,-4.883,45.410
1687530684.503,-27.832,-32.715,-38.574,4.883,32.227
1687530684.507,-35.645,-33.203,-38.086,12.695,272.949
1687530684.510,-37.109,-36.133,-44.434,2.441,249.512
1687530684.514,-35.156,-36.133,-44.434,-10.742,-41.992
1687530684.518,-25.391,-32.227,-40.039,-8.301,-83.008
1687530684.522,-22.461,-32.227,-42.480,-11.719,42.480
1687530684.526,-36.133,-32.227,-42.480,-10.254,45.410
1687530684.542,-47.363,-32.227,-41.504,-16.602,23.926
1687530684.546,-41.992,-34.180,-39.062,-35.156,1.953
1687530684.550,-28.320,-30.762,-39.062,-28.320,23.438
1687530684.554,-19.531,-30.762,-42.480,-14.648,9.766
1687530684.558,-27.344,-37.109,-43.457,-19.531,-41.016
1687530684.562,-40.527,-37.109,-46.387,-20.508,76.660
1687530684.566,-44.434,-33.203,-47.852,-12.207,427.246
1687530684.569,-34.180,-30.273,-44.434,-20.508,285.645
1687530684.573,-19.043,-29.785,-40.527,-7.324,-56.641
1687530684.577,-20.508,-32.227,-39.062,11.230,-24.902
1687530684.581,-36.621,-31.738,-36.133,10.742,46.875
1687530684.585,-39.062,-32.227,-37.598,-5.859,13.184
1687530684.587,-27.344,-32.227,-36.133,-7.812,-71.289
1687530684.591,-21.484,-31.250,-37.598,-0.977,30.762
1687530684.595,-29.297,-39.551,-41.504,-5.859,102.539
1687530684.599,-40.039,-40.039,-41.016,-15.625,-59.570
