timestamps,TP9,AF7,AF8,TP10,Right AUX
1687530792.498,-72.266,-35.645,-15.625,-59.082,6.836
1687530792.502,-66.895,-37.598,-16.602,-57.617,23.926
1687530792.506,-70.312,-46.387,-19.043,-58.105,-72.754
1687530792.510,-70.312,-46.387,-19.043,-64.453,9.766
1687530792.514,-70.312,-40.039,-17.090,-60.547,88.379
1687530792.518,-51.270,-40.039,-18.555,-57.129,32.227
1687530792.522,-28.320,-40.039,-20.020,-53.223,-31.250
1687530792.525,-23.438,-36.621,-18.066,-46.387,-72.754
1687530792.529,-30.273,-33.691,-18.066,-46.387,167.480
1687530792.533,-24.414,-29.297,-16.113,-52.246,97.656
1687530792.537,-4.883,-29.785,-15.625,-53.711,-167.969
1687530792.541,-1.953,-37.109,-15.625,-52.246,-152.832
1687530801.483,-8.301,-5.371,-111.816,-50.781,-52.246
1687530801.487,-15.625,-3.906,-105.469,-48.340,85.449
1687530801.491,-27.344,-2.930,-99.609,-48.828,-37.109
1687530801.495,-20.996,-7.324,-102.051,-52.734,-35.645
1687530801.499,-7.812,-12.695,-103.027,-52.734,53.223
1687530801.503,-14.160,-14.160,-95.215,-52.734,99.609
1687530801.507,-25.391,-13.184,-93.262,-56.641,58.594
1687530801.510,-32.715,-16.602,-92.285,-52.246,-20.020
1687530801.514,-22.461,-22.461,-87.402,-42.480,120.605
1687530801.518,-6.836,-23.926,-84.961,-32.227,197.754
1687530801.522,1.465,-19.531,-81.055,-28.809,-46.387
1687530801.526,-10.254,-19.531,-78.125,-27.832,-55.664
1687530814.278,-13.672,-17.090,-39.062,-32.227,0.488
1687530814.282,-76.172,-19.531,-37.109,-76.660,-165.527
1687530814.286,-77.148,-20.020,-34.668,-72.266,-208.008
1687530814.290,-35.156,-23.926,-38.574,-37.598,-44.922
1687530814.294,16.113,-28.809,-35.156,4.395,196.777
1687530814.298,8.789,-26.367,-30.273,-5.859,184.082
1687530814.302,-52.734,-26.367,-28.809,-61.035,10.254
1687530814.305,-77.148,-24.414,-30.273,-73.242,8.789
1687530814.309,-34.668,-21.484,-30.762,-34.668,214.844
1687530814.313,29.785,-20.508,-29.297,17.090,438.965
1687530814.317,27.344,-21.973,-35.645,10.254,231.445
1687530814.321,-38.574,-23.926,-33.691,-31.738,11.719
1687530828.288,-76.660,-32.715,-26.367,-66.406,-57.129
1687530828.292,-34.180,-31.250,-21.973,-23.438,-109.863
1687530828.296,8.789,-30.273,-23.438,3.906,-16.602
1687530828.300,-14.648,-26.855,-21.484,-16.113,35.156
1687530828.304,-79.102,-27.832,-22.949,-57.129,-110.352
1687530828.308,-93.750,-31.250,-28.320,-68.359,-114.258
1687530828.312,-50.781,-37.109,-27.832,-28.320,110.840
1687530828.315,-4.883,-41.992,-27.832,0.488,334.961
1687530828.319,-27.344,-40.527,-26.855,-17.578,209.473
1687530828.323,-82.520,-38.574,-24.414,-52.734,-67.871
1687530828.327,-95.215,-39.062,-26.855,-70.312,-147.949
1687530828.331,-61.035,-41.016,-25.879,-47.363,11.719
1687530978.424,-38.574,-28.809,-35.156,-29.785,-131.348
1687530978.428,-54.688,-31.738,-34.668,-41.504,-68.359
1687530978.432,-59.082,-33.691,-36.133,-53.223,-46.875
1687530978.436,-41.504,-34.180,-34.668,-46.875,-96.191
1687530978.440,-35.645,-31.738,-28.320,-39.551,-121.094
1687530978.444,-38.574,-29.297,-26.367,-36.133,144.043
1687530978.448,-55.176,-28.809,-26.855,-41.504,211.426
1687530978.451,-63.965,-27.832,-27.344,-47.852,-74.707
1687530978.455,-49.316,-25.391,-27.344,-48.340,-146.484
1687530978.459,-39.551,-24.902,-24.902,-47.363,138.672
1687530978.463,-44.922,-30.762,-24.902,-30.273,83.496
1687530978.467,-61.523,-29.297,-27.344,-33.203,-218.262
1687531037.525,-38.086,-19.043,-37.598,-32.227,104.980
1687531037.529,-28.320,-22.461,-35.645,-41.016,-22.461
1687531037.533,-22.461,-24.414,-35.645,-39.062,-174.805
1687531037.537,-28.809,-24.414,-32.227,-24.902,-132.324
1687531037.541,-50.293,-28.320,-33.691,-26.367,-126.953
1687531037.545,-50.293,-26.367,-37.109,-37.598,-69.336
1687531037.549,-34.180,-26.367,-35.645,-43.945,-76.660
1687531037.552,-31.738,-28.320,-41.016,-46.387,-89.355
1687531037.556,-41.016,-32.715,-43.945,-43.945,119.141
1687531037.560,-54.688,-31.738,-37.598,-43.457,-40.039
1687531037.564,-48.828,-26.855,-34.180,-46.387,-199.707
1687531037.568,-29.785,-27.832,-34.668,-43.457,-42.480
1687531037.569,-27.832,-34.180,-35.645,-45.410,-30.273
1687531037.573,-37.109,-33.691,-38.574,-46.387,-178.711
1687531037.577,-55.176,-28.809,-35.156,-41.504,-163.086
1687531037.581,-58.594,-32.715,-30.273,-39.551,12.207
1687531037.585,-36.621,-31.738,-30.273,-41.016,-64.453
1687531037.589,-27.832,-33.203,-36.133,-42.480,-131.836
1687531037.593,-38.086,-40.039,-37.598,-43.945,26.367
1687531037.596,-56.641,-34.180,-35.156,-38.574,177.734
1687531037.600,-58.594,-34.180,-39.062,-36.621,72.266
1687531037.604,-43.945,-34.180,-39.062,-47.852,-84.961
1687531037.608,-30.273,-30.762,-38.086,-48.340,-41.504
1687531037.612,-29.785,-33.691,-37.598,-42.969,115.234
1687531037.616,-47.363,-38.574,-32.227,-40.527,18.555
1687531037.620,-49.805,-33.691,-34.668,-46.875,-175.781
1687531037.624,-28.320,-31.250,-36.621,-51.758,-99.609
1687531037.628,-18.555,-32.715,-33.203,-46.387,44.922
1687531037.632,-25.879,-33.691,-33.203,-42.480,-31.250
1687531037.636,-41.992,-37.109,-28.809,-39.062,-25.391
1687531037.640,-52.734,-39.551,-28.320,-44.434,106.934
1687531037.643,-37.598,-36.133,-30.273,-42.480,228.027
1687531037.647,-22.949,-30.762,-32.715,-37.598,-17.090
1687531037.651,-23.438,-29.785,-33.203,-36.133,-201.172
1687531037.655,-46.875,-32.715,-34.180,-41.504,-66.406
1687531037.659,-64.453,-33.203,-33.691,-48.340,-57.617
1687531037.659,-47.363,-36.133,-31.738,-48.828,-161.621
1687531037.663,-35.156,-41.504,-33.691,-51.758,-190.430
1687531037.667,-36.621,-38.086,-33.203,-50.293,-74.219
1687531037.671,-48.340,-30.273,-32.227,-45.410,-63.477
1687531037.675,-62.012,-27.832,-33.691,-45.410,-33.203
1687531037.679,-51.758,-28.320,-31.250,-52.734,63.965
1687531037.683,-31.250,-28.809,-29.785,-51.758,256.348
1687531037.686,-32.227,-32.227,-30.273,-48.340,258.789
1687531037.690,-54.688,-34.668,-37.109,-57.617,-97.168
1687531037.694,-68.848,-30.762,-40.039,-56.641,-41.504
1687531037.698,-53.711,-29.297,-36.133,-51.270,138.184
1687531037.702,-32.715,-27.832,-35.645,-56.152,-35.156
1687531037.704,-27.832,-25.391,-33.691,-61.035,-162.109
1687531037.708,-38.574,-25.391,-31.250,-53.223,-93.750
1687531037.712,-57.617,-23.926,-36.133,-42.969,-68.848
1687531037.716,-56.641,-22.461,-37.109,-49.316,-147.461
1687531037.720,-33.203,-21.484,-27.344,-51.758,-151.367
1687531037.724,-26.367,-21.484,-24.414,-50.781,59.570
1687531037.728,-39.551,-20.996,-27.344,-45.410,189.941
1687531037.731,-57.129,-24.902,-26.367,-40.039,67.871
1687531037.735,-61.523,-27.344,-30.273,-47.852,-122.070
1687531037.739,-45.410,-30.273,-30.762,-53.711,-61.035
1687531037.743,-33.691,-31.250,-28.809,-47.852,147.949
1687531037.747,-48.828,-30.762,-31.738,-54.688,-66.895
1687531037.764,-68.848,-34.180,-31.250,-55.664,-110.352
1687531037.768,-67.871,-37.598,-34.668,-59.570,-39.551
1687531037.772,-51.270,-32.715,-38.574,-64.941,-79.102
1687531037.776,-43.457,-25.391,-37.598,-64.941,-128.418
1687531037.780,-53.223,-23.926,-39.551,-70.312,-106.445
1687531037.784,-64.941,-23.438,-41.992,-62.500,105.957
1687531037.788,-72.754,-30.762,-44.434,-61.035,85.938
1687531037.791,-56.152,-33.203,-45.410,-66.406,-76.172
1687531037.795,-36.133,-28.809,-37.598,-56.641,-100.098
1687531037.799,-40.039,-28.809,-34.668,-42.480,239.746
1687531037.803,-61.523,-28.320,-41.016,-44.922,325.684
1687531037.807,-63.965,-29.785,-41.504,-56.152,-76.660
1687531037.809,-40.039,-28.809,-35.645,-53.711,-172.852
1687531037.813,-24.414,-26.855,-34.180,-49.805,-123.047
1687531037.817,-24.902,-29.297,-31.250,-48.828,-122.070
1687531037.821,-43.945,-30.273,-32.715,-44.434,-117.676
1687531037.825,-53.711,-29.297,-37.598,-45.898,-74.219
1687531037.829,-39.551,-31.738,-38.086,-54.199,64.453
1687531037.833,-24.414,-29.785,-35.156,-51.758,-19.531
1687531037.836,-24.902,-27.344,-32.715,-47.363,-173.828
1687531037.840,-43.945,-30.762,-36.133,-50.781,-31.250
1687531037.844,-60.059,-35.156,-32.715,-52.734,187.988
1687531037.848,-41.504,-33.203,-29.785,-62.500,-41.992
1687531037.852,-20.020,-30.762,-32.227,-62.012,-140.137
1687531037.854,-23.926,-32.227,-33.691,-52.734,-2.930
1687531037.858,-42.969,-32.715,-37.109,-53.223,-28.320
1687531037.862,-59.082,-33.203,-38.086,-61.523,-102.539
1687531037.866,-54.199,-33.691,-38.574,-68.848,-110.352
1687531037.870,-32.227,-33.691,-41.016,-63.965,-79.102
1687531037.874,-24.414,-29.785,-40.039,-50.781,7.324
1687531037.878,-41.016,-31.738,-37.598,-45.410,17.090
1687531037.881,-59.570,-36.621,-36.133,-47.852,-69.824
1687531037.885,-60.059,-36.133,-37.109,-62.988,117.188
1687531037.889,-52.246,-39.551,-41.504,-78.613,146.973
1687531037.893,-38.574,-39.551,-40.039,-66.895,-145.020
1687531037.897,-41.504,-29.785,-38.086,-45.410,-84.473
1687531037.900,-60.059,-29.785,-38.574,-40.527,36.621
1687531037.904,-54.688,-32.227,-30.762,-40.527,-61.523
1687531037.908,-35.156,-31.250,-27.832,-44.922,-162.109
1687531037.912,-26.367,-28.809,-28.809,-44.434,-125.977
1687531037.916,-36.133,-24.902,-28.320,-32.715,-29.785
1687531037.920,-62.988,-30.762,-32.227,-38.574,-30.762
1687531037.924,-67.871,-35.156,-33.203,-46.875,-64.453
1687531037.927,-41.992,-32.715,-31.738,-45.898,6.836
1687531037.931,-32.227,-36.133,-31.738,-39.551,185.547
1687531037.935,-38.086,-39.551,-30.762,-36.621,-92.773
1687531037.939,-56.641,-37.598,-31.250,-43.945,-214.844
1687531037.943,-72.754,-37.598,-35.645,-53.711,-68.848
1687531037.944,-53.711,-39.551,-40.527,-59.082,-128.906
1687531037.948,-38.086,-35.645,-36.621,-53.711,-135.742
1687531037.952,-47.852,-32.715,-32.715,-41.504,-41.016
1687531037.956,-69.824,-35.156,-35.156,-33.691,6.836
1687531037.960,-80.078,-35.156,-35.156,-43.945,-8.789
1687531037.964,-55.664,-33.691,-32.227,-43.457,27.344
1687531037.968,-38.574,-34.180,-29.785,-34.180,51.270
1687531037.971,-42.480,-34.180,-34.668,-27.832,153.809
1687531037.975,-53.223,-36.621,-35.156,-20.020,222.168
1687531037.979,-56.641,-33.691,-29.785,-38.574,20.508
1687531037.983,-31.250,-29.297,-30.762,-47.852,-124.512
1687531037.987,-9.277,-29.785,-36.133,-38.086,38.574
1687531037.989,-4.395,-25.391,-33.691,-45.898,-24.414
1687531037.993,-14.648,-25.879,-30.273,-46.875,-174.805
1687531037.997,-21.973,-27.344,-32.227,-45.410,-101.562
1687531038.001,-6.348,-23.438,-30.762,-44.434,-98.145
1687531038.005,4.883,-22.461,-30.273,-34.180,-177.246
1687531038.009,-0.488,-26.367,-29.785,-31.738,-145.020
1687531038.013,-29.785,-33.203,-33.203,-26.855,78.613
1687531038.016,-54.199,-34.180,-34.180,-18.555,313.477
1687531038.020,-48.828,-29.297,-31.250,-35.645,-5.859
1687531038.024,-33.203,-29.297,-31.738,-48.340,-226.562
1687531038.028,-26.855,-23.926,-33.203,-46.387,-102.539
1687531038.032,-41.504,-21.973,-33.203,-41.992,-66.895
1687531038.034,-64.453,-30.273,-36.133,-44.434,-144.531
1687531038.038,-59.082,-32.715,-37.109,-43.457,-143.555
1687531038.042,-35.645,-29.297,-33.203,-38.574,-67.383
1687531038.046,-27.832,-27.832,-31.738,-40.527,-63.477
1687531038.050,-43.457,-26.367,-33.691,-44.922,-108.887
1687531038.054,-62.500,-27.344,-30.273,-48.828,-17.090
1687531038.058,-56.641,-28.320,-27.832,-48.828,268.555
1687531038.061,-39.551,-26.855,-31.250,-41.992,108.887
1687531038.065,-27.832,-30.273,-32.715,-37.109,-132.324
1687531038.069,-36.133,-34.668,-30.762,-38.086,-24.414
1687531038.073,-59.082,-37.109,-33.691,-32.715,255.859
1687531038.077,-52.734,-33.691,-30.762,-29.297,47.852
1687531038.081,-30.273,-34.668,-31.250,-35.645,-258.301
1687531038.085,-23.438,-36.621,-33.203,-41.992,-163.574
1687531038.089,-34.180,-31.738,-29.297,-42.969,-79.590
1687531038.093,-58.105,-30.762,-27.344,-37.109,-117.188
1687531038.097,-60.059,-29.785,-28.320,-37.598,-172.363
1687531038.101,-38.574,-29.297,-24.414,-40.527,-45.410
1687531038.105,-27.344,-32.227,-24.902,-41.016,99.121
1687531038.108,-27.344,-30.762,-30.273,-40.039,-11.719
1687531038.112,-47.363,-30.762,-28.809,-37.109,-131.836
1687531038.116,-55.664,-32.227,-27.832,-35.645,-68.359
1687531038.120,-30.762,-28.320,-27.344,-37.109,-4.395
1687531038.124,-14.160,-27.344,-27.344,-39.551,-104.004
1687531038.139,-20.508,-32.227,-29.297,-32.715,-180.176
1687531038.143,-48.340,-34.180,-29.297,-30.762,-38.574
1687531038.147,-51.758,-28.809,-25.879,-39.062,-53.223
1687531038.151,-24.414,-25.391,-22.949,-37.598,-208.984
1687531038.155,-13.672,-30.762,-30.273,-41.016,-172.852
1687531038.159,-23.926,-30.762,-28.320,-34.668,15.625
1687531038.163,-48.828,-30.273,-25.391,-27.832,36.621
1687531038.166,-52.246,-37.598,-23.926,-27.344,-92.773
1687531038.170,-30.273,-37.109,-24.902,-24.902,-130.859
1687531038.174,-19.043,-33.691,-29.297,-17.090,200.684
1687531038.178,-19.043,-36.621,-31.250,-13.184,185.059
1687531038.182,-44.922,-38.574,-35.156,-20.020,-153.809
1687531038.184,-61.035,-41.016,-39.551,-34.668,-141.113
1687531038.188,-41.504,-35.156,-33.203,-45.898,-62.988
1687531038.192,-29.785,-31.250,-29.785,-45.898,-105.469
1687531038.196,-24.414,-33.203,-31.250,-42.969,-103.516
1687531038.200,-37.109,-30.762,-27.832,-37.598,1.953
1687531038.204,-57.617,-30.762,-23.926,-26.367,124.023
1687531038.208,-45.410,-29.785,-23.438,-31.738,23.438
1687531038.211,-22.949,-29.785,-24.414,-34.668,-75.684
1687531038.215,-14.160,-33.691,-28.320,-25.879,-3.418
1687531038.219,-29.785,-36.133,-32.227,-27.344,203.613
1687531038.223,-46.875,-28.809,-26.367,-36.621,-17.578
1687531038.227,-38.086,-28.809,-26.367,-38.574,-163.086
1687531038.229,-16.602,-31.250,-26.855,-32.227,2.930
1687531038.233,-13.672,-30.273,-26.855,-30.762,27.344
1687531038.237,-23.438,-28.320,-30.762,-21.973,-66.406
1687531038.241,-44.922,-34.668,-31.738,-24.414,-30.273
1687531038.245,-41.992,-30.762,-33.203,-36.621,112.793
1687531038.249,5.859,-17.090,-33.691,-10.742,103.516
1687531038.253,16.113,-28.320,-19.043,3.906,-5.859
1687531038.256,-22.461,-42.480,-12.695,-7.812,-125.000
1687531038.260,-56.641,-41.504,-14.160,-19.531,108.887
1687531038.264,-71.777,-46.875,-9.277,-45.898,196.777
1687531038.268,-60.547,-57.129,-8.301,-50.293,-140.625
1687531038.272,-52.734,-59.082,-0.977,-43.945,-158.203
1687531038.274,-73.242,-61.523,10.742,-45.410,-14.160
1687531038.278,-102.539,-67.871,12.695,-45.898,-64.453
1687531038.282,-104.492,-70.801,16.602,-46.875,-134.277
1687531038.286,-92.285,-80.078,22.461,-49.316,-89.355
1687531038.290,-88.379,-89.355,30.762,-59.082,-102.539
1687531038.294,-94.727,-95.703,36.621,-69.336,-61.035
1687531038.298,-120.117,-100.098,42.480,-59.082,18.066
1687531038.301,-129.883,-98.633,55.176,-49.805,89.355
1687531038.305,-108.398,-100.098,57.129,-47.852,232.422
1687531038.309,-97.656,-102.051,54.199,-47.852,-29.785
1687531038.313,-106.934,-105.469,58.105,-45.410,-230.957
1687531038.317,-127.930,-107.910,58.594,-37.109,11.230
1687531038.320,-130.371,-100.098,64.941,-43.945,12.695
1687531038.324,-112.305,-105.957,68.848,-58.594,-165.527
1687531038.328,-110.840,-114.258,62.988,-67.871,-138.672
1687531038.332,-105.957,-108.887,63.965,-54.688,-35.645
1687531038.336,-113.281,-112.793,69.336,-36.621,-34.180
1687531038.340,-126.953,-119.141,65.918,-41.992,-28.320
1687531038.344,-98.633,-113.770,65.918,-37.598,9.277
1687531038.347,-73.730,-106.934,78.613,-17.090,202.637
1687531038.351,-75.195,-104.004,83.984,2.441,158.203
1687531038.355,-90.820,-104.004,80.078,9.277,-51.270
1687531038.359,-103.027,-107.422,74.707,-14.160,-26.855
1687531038.363,-78.613,-101.562,78.125,-16.602,138.184
1687531038.364,-53.223,-96.191,77.148,-4.395,19.531
1687531038.368,-51.758,-101.074,74.219,-6.348,-132.324
1687531038.372,-62.500,-94.727,75.195,-11.230,-105.957
1687531038.376,-71.289,-87.891,73.242,-6.836,-110.352
1687531038.380,-64.941,-88.867,64.453,-5.859,-109.863
1687531038.384,-45.898,-83.984,59.570,-14.648,-112.305
1687531038.388,-32.227,-75.684,61.035,-12.695,63.965
1687531038.391,-45.898,-78.125,53.711,-2.441,292.969
1687531038.395,-67.383,-76.172,47.363,-4.883,63.477
1687531038.399,-57.617,-70.312,45.410,-8.301,-137.695
1687531038.403,-43.945,-73.730,39.551,-14.160,25.879
1687531038.407,-42.480,-70.312,32.227,-17.090,24.414
1687531038.418,-43.457,-63.477,28.320,-17.090,-46.387
1687531038.422,-56.641,-61.035,28.320,-20.508,-25.391
1687531038.426,-48.340,-57.129,26.367,-18.066,-28.320
1687531038.430,-25.391,-50.293,23.438,-19.043,-134.277
1687531038.434,-18.066,-49.805,22.949,-18.555,-210.938
1687531038.438,-32.715,-51.270,20.020,-12.695,-24.902
1687531038.442,-53.711,-46.875,14.160,-8.789,224.609
1687531038.445,-41.992,-45.898,13.672,-8.301,97.168
1687531038.449,-24.414,-48.340,13.184,-16.602,-207.520
1687531038.453,-23.438,-51.270,9.766,-18.066,-111.816
1687531038.457,-27.344,-47.852,8.301,-8.789,99.121
1687531038.461,-48.828,-46.387,10.254,-11.230,-53.711
1687531038.455,-57.617,-47.852,6.836,-24.414,-164.062
1687531038.459,-37.109,-47.852,4.395,-22.461,-96.191
1687531038.463,-23.926,-43.945,4.883,-6.836,-86.914
1687531038.467,-26.367,-39.551,5.371,2.930,-134.277
1687531038.471,-41.992,-38.086,5.371,-3.418,-121.094
1687531038.475,-46.387,-40.039,0.488,-14.160,71.777
1687531038.479,-29.785,-41.504,-2.441,-17.578,158.203
1687531038.482,-17.578,-39.062,-4.395,-15.137,-76.172
1687531038.486,-19.531,-36.133,-8.301,-13.672,-172.852
1687531038.490,-39.062,-37.598,-6.836,-22.461,-98.145
1687531038.494,-43.457,-36.133,-5.859,-26.855,-22.461
1687531038.498,-28.809,-28.320,-7.812,-31.738,-153.809
1687531038.514,-16.113,-28.320,-6.348,-27.832,-185.059
1687531038.518,-21.973,-30.762,-8.301,-17.578,-52.734
1687531038.522,-50.293,-31.738,-12.207,-15.625,14.648
1687531038.526,-61.035,-33.691,-10.742,-21.484,37.109
1687531038.530,-41.016,-33.691,-10.254,-26.855,-26.367
1687531038.534,-24.902,-33.691,-12.207,-22.949,239.746
1687531038.538,-31.250,-34.180,-13.184,-14.160,316.895
1687531038.541,-47.852,-32.715,-14.160,-15.137,-24.414
1687531038.545,-57.617,-32.227,-18.066,-18.066,-33.691
1687531038.549,-39.551,-29.785,-21.973,-18.066,318.359
1687531038.553,-19.531,-32.715,-21.973,-27.344,104.980
1687531038.557,-17.578,-37.598,-24.414,-37.598,-158.691
1687531038.559,-34.180,-38.574,-29.297,-37.109,-53.711
1687531038.563,-56.152,-40.527,-26.367,-33.203,-58.105
1687531038.567,-44.434,-38.086,-23.438,-33.691,-146.484
1687531038.571,-20.508,-35.645,-20.508,-22.461,-183.105
1687531038.575,-20.508,-35.156,-16.602,-19.043,-115.234
1687531038.579,-34.668,-31.250,-16.113,-26.367,31.738
1687531038.583,-51.758,-31.250,-17.090,-24.414,106.934
1687531038.586,-49.805,-32.227,-21.973,-23.926,-0.488
1687531038.590,-34.180,-29.785,-24.414,-29.785,-33.691
1687531038.594,-28.809,-32.227,-27.344,-26.855,238.770
1687531038.598,-36.621,-30.762,-28.320,-22.461,70.312
1687531038.602,-53.711,-31.250,-27.344,-27.344,-139.160
1687531038.604,-52.734,-33.203,-28.320,-31.738,-132.324
1687531038.608,-32.715,-31.738,-26.367,-32.227,-174.805
1687531038.612,-20.020,-30.762,-23.438,-23.438,-108.887
1687531038.616,-33.203,-32.715,-22.949,-18.066,-70.801
1687531038.620,-56.641,-34.180,-21.484,-14.648,-52.734
1687531038.624,-53.711,-28.809,-17.578,-18.555,19.531
1687531038.628,-30.762,-30.273,-14.160,-26.367,8.789
1687531038.631,-22.461,-36.133,-20.508,-33.691,-74.707
1687531038.635,-37.598,-38.086,-27.344,-32.227,134.766
1687531038.639,-55.664,-37.109,-23.438,-21.484,427.246
1687531038.643,-57.129,-36.133,-22.461,-33.691,52.734
1687531038.647,-36.621,-34.180,-22.461,-46.387,-199.707
1687531038.650,-19.531,-29.297,-23.438,-36.621,-91.309
1687531038.654,-23.438,-29.297,-26.855,-33.203,-155.273
1687531038.658,-40.039,-30.273,-24.414,-35.645,-211.914
1687531038.662,-52.734,-29.297,-27.344,-39.062,-219.727
1687531038.666,-40.039,-29.297,-27.832,-46.875,-208.984
1687531038.670,-26.855,-29.785,-24.414,-43.945,-95.703
1687531038.674,-33.691,-33.203,-27.832,-42.969,-33.203
1687531038.677,-51.270,-32.715,-28.320,-36.133,74.707
1687531038.681,-59.570,-33.691,-26.855,-29.785,246.094
1687531038.685,-43.945,-37.109,-26.855,-51.758,39.551
1687531038.689,-28.320,-36.621,-27.832,-53.223,-51.758
1687531038.693,-24.902,-29.785,-26.367,-37.598,-21.484
1687531038.694,-46.875,-28.320,-25.391,-41.992,-32.227
1687531038.698,-60.547,-28.809,-29.785,-54.199,-127.441
1687531038.702,-45.410,-32.715,-23.926,-59.082,-154.297
1687531038.706,-14.648,-36.133,-8.301,-32.227,-52.246
1687531038.710,10.742,-29.785,-9.277,-9.766,-105.957
1687531038.714,-16.602,-16.113,-25.391,-25.391,-61.523
1687531038.718,-46.387,-14.648,-30.762,-42.969,60.059
1687531038.721,-33.203,-16.602,-40.039,-55.176,171.875
1687531038.725,-26.855,-10.254,-55.176,-62.500,94.727
1687531038.729,-31.738,-3.906,-61.523,-68.848,-49.805
1687531038.733,-44.922,0.000,-73.730,-68.848,-2.930
1687531038.737,-68.359,2.930,-83.496,-74.219,172.363
1687531038.742,-69.336,7.812,-91.309,-105.469,55.664
1687531038.746,-50.781,12.207,-99.121,-117.676,-190.918
1687531038.750,-46.875,9.766,-102.539,-113.281,-177.246
1687531038.754,-67.871,13.184,-108.887,-114.746,-67.871
1687531038.758,-98.145,10.254,-117.676,-116.699,-77.637
1687531038.762,-99.609,10.742,-125.977,-132.324,-140.137
1687531038.766,-81.543,19.531,-130.371,-148.438,-30.273
1687531038.769,-70.801,21.973,-128.906,-136.719,219.727
1687531038.773,-86.914,26.367,-137.695,-138.184,11.719
1687531038.777,-112.305,30.762,-145.020,-153.809,-146.484
1687531038.781,-101.074,32.227,-143.555,-148.926,-46.875
1687531038.785,-80.078,38.086,-148.926,-155.762,-69.336
1687531038.788,-74.219,42.480,-151.367,-150.879,-167.969
1687531038.792,-76.172,42.969,-149.902,-138.184,-129.395
1687531038.796,-92.285,44.434,-149.902,-151.855,-8.789
1687531038.800,-84.961,45.410,-148.926,-151.367,-72.266
1687531038.804,-52.734,37.598,-142.578,-136.230,-76.660
1687531038.808,-42.480,28.809,-138.672,-133.789,27.344
1687531038.812,-49.805,25.391,-136.230,-129.395,214.844
1687531038.815,-60.059,22.461,-127.441,-108.887,266.602
1687531038.819,-54.199,21.973,-121.094,-106.445,-44.922
1687531038.823,-35.645,16.602,-116.699,-108.398,-55.176
1687531038.827,-15.137,16.113,-112.793,-95.215,147.949
1687531038.831,-7.812,14.160,-109.863,-84.961,-49.805
1687531038.829,-24.902,10.742,-105.469,-78.125,-143.555
1687531038.833,-41.016,8.301,-96.191,-69.336,0.977
1687531038.837,-26.855,4.883,-87.402,-69.824,-1.465
1687531038.841,-8.301,2.930,-88.379,-66.406,-71.289
1687531038.845,-19.531,-0.977,-89.844,-62.988,-98.633
1687531038.849,-49.805,-4.883,-87.402,-68.359,82.031
1687531038.853,-58.594,-7.324,-88.379,-70.801,307.129
1687531038.856,-38.086,-5.371,-87.891,-68.359,-10.254
1687531038.860,-20.020,-4.883,-78.125,-64.941,-296.875
1687531038.864,-22.949,-7.812,-65.430,-50.781,-172.852
1687531038.868,-40.039,-12.207,-65.430,-44.434,-29.785
1687531038.872,-53.711,-14.160,-66.406,-53.223,-101.562
1687531038.892,-40.527,-12.207,-60.547,-51.758,-184.082
1687531038.896,-20.020,-5.859,-61.035,-44.922,-128.418
1687531038.900,-12.695,-4.883,-67.383,-39.062,-104.492
1687531038.904,-29.297,-12.695,-64.453,-37.109,-137.207
1687531038.908,-43.945,-17.090,-58.594,-31.738,-84.473
1687531038.912,-36.133,-16.602,-58.594,-34.180,82.031
1687531038.916,-27.344,-18.066,-60.547,-38.574,96.191
1687531038.919,-20.020,-20.508,-56.152,-21.973,20.020
1687531038.923,-26.367,-19.531,-48.828,-9.766,-22.949
1687531038.927,-43.945,-16.602,-47.852,-4.883,282.715
1687531038.931,-34.668,-16.113,-44.922,1.953,359.863
1687531038.935,-12.207,-16.602,-43.945,-18.555,-50.781
1687531038.935,-3.418,-16.602,-43.945,-25.879,-119.141
1687531038.939,-16.113,-16.602,-44.922,-20.020,2.930
1687531038.943,-39.551,-20.996,-49.316,-23.438,-79.590
1687531038.947,-34.180,-22.461,-48.340,-34.180,-156.250
1687531038.951,-22.949,-20.996,-45.410,-46.875,-93.262
1687531038.955,-25.391,-26.855,-52.246,-42.480,-28.320
1687531038.959,-35.156,-30.762,-51.758,-18.555,-16.113
1687531038.962,-45.898,-21.484,-43.945,-20.508,-84.961
1687531038.966,-39.062,-17.090,-42.969,-32.715,-61.035
1687531038.970,-21.973,-22.461,-45.410,-24.902,180.176
1687531038.974,-11.719,-20.996,-45.410,-25.879,25.391
1687531038.978,-18.555,-20.020,-41.016,-23.438,-145.996
1687531038.980,-29.785,-18.066,-41.016,-20.020,-17.090
1687531038.984,-26.855,-18.555,-38.086,-22.949,4.883
1687531038.988,-17.090,-20.508,-35.645,-30.762,-145.508
1687531038.992,-15.137,-22.461,-37.109,-41.016,-97.168
1687531038.996,-23.438,-25.879,-38.574,-49.316,-8.301
1687531039.000,-34.668,-24.414,-37.598,-39.062,-62.012
1687531039.004,-41.992,-30.273,-41.016,-38.086,-67.383
1687531039.007,-12.207,-27.344,-42.969,-36.621,-145.020
1687531039.011,17.090,-23.438,-28.320,-11.230,138.184
1687531039.015,-6.836,-34.668,-18.066,-7.812,298.828
1687531039.019,-33.691,-35.156,-25.879,-15.625,-136.719
1687531039.023,-32.227,-27.832,-26.367,-15.625,-163.086
1687531039.024,-15.625,-29.297,-26.367,-24.414,28.320
1687531039.028,-0.977,-27.344,-28.320,-24.414,-104.492
1687531039.032,-3.418,-29.297,-24.414,-15.137,-180.664
1687531039.036,-26.855,-32.715,-25.391,-13.672,-130.859
1687531039.040,-34.180,-26.855,-26.367,-22.461,1.465
1687531039.044,-13.184,-24.902,-27.832,-33.203,-42.969
1687531039.048,-4.883,-22.949,-30.762,-23.438,-129.883
1687531039.051,-7.324,-22.461,-27.344,-19.043,-42.969
1687531039.055,-22.461,-23.926,-24.414,-16.602,183.105
1687531039.059,-37.109,-24.414,-27.832,-25.391,-100.098
1687531039.063,-28.320,-28.320,-28.320,-34.180,-298.828
1687531039.067,-11.230,-26.855,-30.273,-30.273,-175.781
1687531039.071,-6.836,-23.926,-28.809,-29.297,-205.078
1687531039.075,-19.043,-25.879,-29.297,-25.391,-182.617
1687531039.079,-35.156,-23.926,-32.715,-25.879,-88.867
1687531039.083,-31.738,-27.344,-33.691,-25.879,15.137
1687531039.087,-12.207,-28.320,-34.668,-29.785,-68.359
1687531039.091,-10.742,-33.691,-32.715,-30.762,-119.629
1687531039.095,-26.367,-32.227,-33.691,-29.297,55.664
1687531039.098,-41.992,-22.949,-33.203,-34.668,208.496
1687531039.102,-34.180,-24.414,-35.645,-37.598,111.328
1687531039.106,-21.973,-26.855,-37.598,-39.551,-63.965
1687531039.110,-22.461,-29.297,-34.180,-32.715,-63.477
1687531039.114,-25.879,-26.855,-33.203,-19.531,80.566
1687531039.115,-35.156,-23.926,-37.598,-21.973,-16.602
1687531039.119,-33.691,-22.461,-37.109,-30.762,-124.023
1687531039.123,-23.926,-23.438,-36.133,-40.039,-86.914
1687531039.127,-24.902,-28.320,-39.062,-41.992,-63.477
1687531039.131,-30.762,-30.762,-38.086,-34.668,-96.680
1687531039.135,-45.410,-30.273,-34.180,-42.969,-56.641
1687531039.139,-53.711,-30.762,-34.668,-47.363,107.910
1687531039.142,-35.156,-32.227,-32.715,-36.621,354.980
1687531039.146,-21.484,-32.715,-29.297,-38.574,136.719
1687531039.150,-29.785,-34.180,-35.645,-39.062,-144.531
1687531039.154,-51.270,-30.762,-37.598,-34.180,-61.523
1687531039.158,-54.199,-32.227,-33.691,-44.434,-66.895
1687531039.160,-28.320,-32.715,-33.691,-50.293,-144.043
1687531039.164,-18.066,-34.180,-33.691,-40.527,-172.852
1687531039.168,-24.414,-33.691,-31.250,-28.320,-114.258
1687531039.172,-39.062,-27.344,-31.250,-20.020,-97.656
1687531039.176,-45.410,-25.879,-32.227,-18.555,-127.441
1687531039.180,-30.273,-26.367,-34.180,-32.227,-2.441
1687531039.184,-17.578,-27.344,-32.715,-36.133,303.711
1687531039.187,-22.461,-27.344,-27.344,-20.996,232.422
1687531039.191,-47.852,-28.320,-32.227,-26.367,-108.398
1687531039.195,-56.152,-28.809,-39.062,-38.574,-103.027
1687531039.199,-40.039,-33.203,-33.203,-37.598,136.719
1687531039.203,-23.926,-30.762,-35.156,-40.039,-11.719
1687531039.204,-26.367,-26.367,-44.434,-44.434,-246.582
1687531039.208,-49.316,-27.832,-41.504,-48.828,-172.852
1687531039.212,-56.641,-24.902,-35.156,-52.734,-102.051
1687531039.216,-38.086,-21.973,-32.227,-51.270,-130.859
1687531039.220,-18.555,-24.902,-28.809,-44.922,-172.852
1687531039.224,-17.090,-28.809,-32.715,-44.434,-28.320
1687531039.228,-32.227,-25.391,-36.133,-44.922,138.672
1687531039.231,-49.805,-23.926,-34.180,-45.898,-43.945
1687531039.235,-40.039,-25.879,-36.621,-46.387,-196.777
1687531039.239,-20.996,-24.414,-37.598,-41.992,92.285
1687531039.243,-21.973,-26.367,-37.109,-35.645,204.590
1687531039.247,-42.969,-28.809,-35.645,-36.621,-107.422
1687531039.265,-58.594,-27.344,-30.762,-41.016,-147.461
1687531039.269,-45.410,-27.344,-30.762,-38.086,-85.449
1687531039.273,-26.855,-27.344,-33.203,-33.691,-89.355
1687531039.277,-29.297,-27.832,-34.180,-38.574,-124.023
1687531039.281,-42.969,-28.320,-35.156,-42.969,-62.988
1687531039.285,-60.547,-25.879,-35.156,-40.039,158.203
1687531039.289,-55.664,-26.855,-37.109,-45.898,117.188
1687531039.292,-38.574,-29.297,-39.551,-45.898,-96.680
1687531039.296,-28.320,-27.832,-34.180,-34.668,-141.113
1687531039.300,-42.480,-30.762,-30.762,-23.438,258.789
1687531039.304,-64.453,-33.691,-34.180,-26.367,287.598
1687531039.308,-58.594,-32.715,-30.273,-38.574,-37.598
1687531039.310,-39.551,-33.203,-22.949,-40.527,-75.195
1687531039.314,-32.715,-35.645,-24.902,-37.109,-37.598
1687531039.318,-41.992,-38.086,-30.273,-33.691,-138.184
1687531039.322,-59.082,-36.133,-32.227,-34.180,-196.777
1687531039.326,-51.758,-32.227,-30.762,-29.297,-86.426
1687531039.330,-26.367,-30.762,-26.367,-31.250,-41.504
1687531039.334,-22.461,-29.785,-30.762,-39.062,-17.578
1687531039.337,-27.832,-28.809,-37.598,-25.879,-64.941
1687531039.341,-44.434,-24.414,-32.715,-14.648,20.020
1687531039.345,-56.641,-23.438,-31.738,-25.879,227.051
1687531039.349,-38.574,-24.902,-36.133,-23.926,-34.668
1687531039.353,-30.273,-25.391,-32.715,-19.043,-161.133
1687531040.002,-36.621,-26.855,-31.250,-30.273,-97.168
1687531040.006,-39.062,-25.391,-36.133,-10.254,-38.086
1687531040.010,-41.016,-27.344,-28.809,8.789,0.000
1687531040.014,-39.062,-33.691,-19.531,-16.113,-71.777
1687531040.018,-29.785,-31.738,-25.879,-18.066,49.805
1687531040.022,-26.855,-31.738,-30.273,-12.207,122.559
1687531040.026,-38.086,-36.621,-27.344,-16.602,-44.922
1687531040.029,-49.316,-36.133,-25.879,-22.461,-61.035
1687531040.033,-34.668,-36.133,-30.273,-23.926,227.539
1687531040.037,-24.414,-38.574,-34.668,-25.879,224.121
1687531040.041,-26.855,-35.156,-27.344,-28.320,-138.184
1687531040.045,-41.992,-38.086,-25.391,-21.484,-122.559
1687531040.005,-60.059,-39.551,-28.320,-21.973,41.504
1687531040.009,-46.875,-36.133,-27.832,-21.973,-123.047
1687531040.013,-32.715,-37.598,-31.738,-21.973,-196.777
1687531040.017,-36.621,-38.086,-35.156,-25.391,-83.984
1687531040.021,-45.898,-30.762,-33.691,-20.996,-13.184
1687531040.025,-64.453,-35.156,-31.738,-22.461,-132.324
1687531040.029,-54.199,-37.598,-29.785,-25.879,-184.570
1687531040.032,-35.645,-35.645,-34.180,-32.715,-96.680
1687531040.036,-32.715,-34.180,-31.738,-26.855,160.156
1687531040.040,-45.898,-33.691,-24.414,-22.949,-8.301
1687531040.044,-57.617,-32.715,-25.391,-19.043,-252.441
1687531040.048,-45.410,-27.832,-27.344,-23.926,-100.098
1687531040.013,-27.832,-29.785,-22.949,-34.668,-83.008
1687531040.017,-22.461,-28.809,-23.926,-32.715,-118.652
1687531040.021,-38.574,-32.715,-27.832,-25.391,-75.195
1687531040.025,-58.594,-38.086,-29.785,-25.879,-18.066
1687531040.029,-48.340,-35.645,-33.691,-37.109,-54.688
1687531040.033,-26.855,-35.645,-27.344,-35.645,-60.059
1687531040.037,-24.902,-40.039,-25.879,-39.062,-6.836
1687531040.040,-29.297,-34.668,-30.762,-36.621,224.121
1687531040.044,-45.898,-30.273,-28.320,-22.461,331.055
1687531040.048,-46.875,-31.738,-28.809,-30.762,20.020
1687531040.052,-29.297,-35.645,-27.344,-30.273,-84.473
1687531040.056,-25.879,-35.645,-25.879,-19.043,55.664
1687531040.018,-35.156,-36.621,-31.738,-22.949,-34.668
1687531040.022,-57.617,-39.551,-38.086,-31.250,-86.426
1687531040.026,-61.523,-38.086,-34.180,-34.180,-50.781
1687531040.030,-37.598,-38.086,-28.320,-34.180,-104.004
1687531040.034,-23.926,-36.621,-29.785,-41.992,-108.887
1687531040.038,-29.297,-38.574,-34.668,-39.551,2.930
1687531040.042,-52.246,-42.480,-36.621,-31.738,164.551
1687531040.045,-60.547,-44.922,-40.039,-44.434,229.004
1687531040.049,-41.016,-39.551,-41.016,-59.082,4.883
1687531040.053,-33.203,-33.203,-43.457,-55.176,-98.633
1687531040.057,-46.875,-33.691,-44.434,-54.199,-46.875
1687531040.061,-65.430,-32.227,-41.992,-54.199,17.090
1687531040.028,-66.406,-32.227,-39.062,-57.129,-57.129
1687531040.032,-51.270,-33.691,-36.133,-54.199,-72.754
1687531040.036,-38.086,-28.320,-40.039,-46.875,-41.504
1687531040.040,-38.086,-27.832,-37.598,-38.086,-84.961
1687531040.044,-61.035,-33.691,-33.203,-45.898,-67.871
1687531040.048,-79.102,-39.062,-32.227,-56.152,-20.996
1687531040.052,-60.547,-39.551,-29.785,-47.852,244.629
1687531040.055,-37.109,-42.480,-30.273,-53.223,248.535
1687531040.059,-34.668,-35.645,-27.832,-49.805,-42.969
1687531040.063,-48.340,-29.785,-27.832,-42.480,30.273
1687531040.067,-55.664,-37.109,-33.691,-52.246,156.738
1687531040.071,-34.180,-40.527,-37.109,-57.129,23.438
1687531040.032,-7.324,-35.156,-35.645,-57.617,-155.273
1687531040.036,-3.418,-31.250,-29.785,-50.293,-158.203
1687531040.040,-27.832,-35.156,-30.762,-36.621,-11.230
1687531040.044,-52.734,-32.715,-35.156,-44.922,-49.316
1687531040.048,-44.434,-32.227,-32.715,-54.688,-117.188
1687531040.052,-33.691,-34.180,-31.738,-52.246,42.969
1687531040.056,-42.969,-34.668,-35.156,-47.852,180.176
1687531040.059,-56.152,-32.715,-32.227,-42.969,-49.316
1687531040.063,-68.848,-33.203,-28.320,-45.898,-188.477
1687531040.067,-52.246,-32.715,-27.832,-48.340,-62.988
1687531040.071,-30.762,-30.762,-27.832,-45.898,-43.457
1687531040.075,-33.203,-32.715,-27.832,-39.551,-194.824
1687531040.038,-47.363,-33.203,-28.320,-32.227,-183.594
1687531040.042,-61.523,-31.738,-27.344,-31.738,10.254
1687531040.046,-51.758,-30.273,-23.438,-29.785,-28.809
1687531040.050,-30.762,-27.832,-27.832,-40.527,-166.016
1687531040.054,-2.441,-24.414,-31.250,-27.832,-174.316
1687531040.058,4.395,-24.414,-15.625,0.000,162.109
1687531040.062,-36.133,-30.762,-9.766,-10.742,182.129
1687531040.065,-46.387,-35.156,-9.766,-23.926,-72.266
1687531040.069,-23.438,-37.598,-2.441,-17.578,-97.656
1687531040.073,-16.602,-44.922,3.418,-5.371,229.980
1687531040.077,-34.180,-53.223,5.859,-8.301,166.992
1687531040.081,-56.641,-53.223,8.301,-23.438,-157.227
1687531040.073,-60.547,-60.547,18.555,-26.855,-70.312
1687531040.077,-48.340,-69.336,26.855,-22.949,-166.992
1687531040.081,-41.504,-71.289,30.273,-19.531,-167.480
1687531040.085,-54.688,-78.613,34.180,-23.438,-62.012
1687531040.089,-75.195,-84.961,37.598,-23.438,-23.926
1687531040.093,-83.496,-90.820,39.551,-24.414,74.707
1687531040.097,-69.336,-94.238,45.410,-30.762,-31.738
1687531040.100,-57.129,-97.168,49.316,-26.367,-225.586
1687531040.104,-57.617,-99.609,51.758,-19.531,-70.801
1687531040.108,-68.848,-97.656,54.688,-13.184,192.871
1687531040.112,-82.520,-95.703,54.688,-19.043,-29.785
1687531040.116,-62.500,-96.191,53.223,-11.230,-187.988
1687531040.078,-39.062,-100.586,58.594,4.883,-135.254
1687531040.082,-41.504,-100.586,68.848,-4.883,-97.168
1687531040.086,-54.199,-102.051,67.383,-2.441,-122.070
1687531040.090,-58.594,-101.074,69.336,9.766,-125.977
1687531040.094,-42.969,-98.633,75.195,-0.488,-52.246
1687531040.098,-32.715,-97.168,74.707,1.465,7.324
1687531040.102,-31.738,-95.703,73.730,14.160,30.273
1687531040.105,-46.875,-98.633,68.848,10.742,-33.203
1687531040.109,-64.941,-99.121,62.012,4.883,174.805
1687531040.113,-43.945,-96.680,59.570,19.043,477.051
1687531040.117,-22.461,-92.285,60.547,12.207,114.258
1687531040.121,-19.531,-86.914,57.129,6.348,-116.211
1687531040.090,-32.227,-81.543,50.293,12.207,-84.961
1687531040.094,-49.805,-77.637,44.922,9.277,-110.352
1687531040.098,-23.926,-70.312,44.922,9.766,-146.973
1687531040.102,3.418,-67.383,37.598,0.000,-148.438
1687531040.106,3.906,-65.430,26.855,1.953,-18.555
1687531040.110,-7.324,-63.477,24.414,4.395,10.742
1687531040.114,-32.715,-62.012,25.879,5.371,-74.219
1687531040.117,-28.809,-59.082,26.367,9.277,19.531
1687531040.121,-7.812,-56.641,22.461,1.465,347.656
1687531040.125,-5.371,-54.688,11.719,-5.859,80.078
1687531040.129,-14.160,-53.711,8.789,-11.230,-232.422
1687531040.133,-33.203,-54.688,7.324,-19.531,-111.816
1687531040.093,-37.598,-53.711,7.324,-10.254,-71.777
1687531040.097,-11.719,-47.852,12.207,8.789,-77.148
1687531040.101,-4.395,-47.852,11.719,-1.465,-75.684
1687531040.105,-18.066,-49.316,8.301,-3.906,26.855
1687531040.109,-40.039,-50.781,5.859,0.000,52.734
1687531040.113,-40.527,-46.387,2.441,-4.883,-15.625
1687531040.117,-20.020,-42.969,0.977,-4.395,-17.578
1687531040.120,-11.719,-46.875,0.000,-2.441,104.004
1687531040.124,-22.949,-45.898,-4.395,-4.395,125.488
1687531040.128,-46.387,-42.480,-3.418,-14.648,-37.109
1687531040.132,-47.363,-46.387,-4.883,-9.277,-113.770
1687531040.136,-29.297,-43.457,-8.301,-7.812,109.863
1687531040.105,-16.602,-38.574,-6.348,-16.113,49.316
1687531040.109,-13.672,-39.551,-4.395,-11.719,-159.180
1687531040.113,-37.109,-40.527,-7.812,-13.184,-135.742
1687531040.117,-44.434,-35.645,-4.883,-20.020,-166.504
1687531040.121,-22.461,-30.762,-7.812,-28.320,-155.273
1687531040.125,-21.484,-35.156,-18.555,-29.785,-137.207
1687531040.129,-33.691,-37.598,-14.648,-19.043,-17.578
1687531040.132,-49.316,-31.738,-9.277,-19.531,217.285
1687531040.136,-57.129,-31.738,-10.742,-37.598,-20.996
1687531040.140,-36.621,-32.227,-6.836,-43.945,-175.781
1687531040.144,-27.344,-31.250,-0.977,-30.762,-100.098
1687531040.148,-37.598,-32.715,-4.395,-27.344,-108.887
1687531040.112,-51.758,-35.645,-9.277,-26.855,-96.191
1687531040.116,-61.523,-37.109,-7.812,-23.438,-36.621
1687531040.120,-48.340,-39.551,-6.836,-36.133,18.066
1687531040.124,-33.691,-42.969,-7.812,-44.922,-80.566
1687531040.128,-23.926,-41.992,-7.324,-38.086,-237.305
1687531040.132,-35.156,-40.527,-12.695,-40.039,-70.312
1687531040.136,-54.688,-40.039,-14.160,-42.480,344.238
1687531040.139,-36.621,-34.668,-9.277,-36.621,212.891
1687531040.143,-13.672,-37.598,-9.277,-33.203,-130.859
1687531040.147,-14.160,-40.527,-9.766,-32.715,-68.359
1687531040.151,-23.926,-37.109,-12.207,-23.926,83.984
1687531040.155,-37.598,-32.227,-11.719,-6.836,-60.547
1687531040.116,-31.250,-30.762,-8.789,-18.066,-178.711
1687531040.120,-16.113,-33.203,-10.742,-29.785,-158.203
1687531040.124,-13.184,-32.227,-12.695,-23.926,-65.430
1687531040.128,-29.297,-30.273,-11.230,-23.926,7.324
1687531040.132,-39.062,-29.297,-9.277,-19.531,-105.469
1687531040.136,-26.367,-31.738,-7.324,-16.602,-86.426
1687531040.140,-12.695,-31.738,-8.301,-16.602,259.277
1687531040.143,-11.719,-29.297,-13.672,-20.996,70.801
1687531040.147,-29.785,-34.180,-14.648,-29.297,-196.777
1687531040.151,-55.664,-39.551,-13.672,-29.785,-73.242
1687531040.155,-52.734,-36.133,-13.672,-23.926,-97.656
1687531040.159,-30.273,-35.645,-14.648,-30.762,-109.863
1687531040.121,-23.438,-34.668,-14.160,-30.273,-101.074
1687531040.125,-36.621,-37.109,-14.648,-20.508,-62.012
1687531040.129,-49.805,-37.109,-19.531,-18.555,-75.195
1687531040.133,-41.992,-31.250,-19.043,-27.344,-126.465
1687531040.137,-28.320,-27.344,-13.672,-28.320,-70.312
1687531040.141,-27.832,-33.691,-18.555,-20.996,70.801
1687531040.145,-34.180,-35.156,-23.926,-21.484,71.777
1687531040.148,-56.641,-32.227,-23.438,-35.156,-1.465
1687531040.152,-65.430,-31.738,-28.809,-39.062,-86.914
1687531040.156,-44.922,-31.250,-26.855,-34.180,165.527
1687531040.160,-24.902,-27.832,-25.391,-37.598,336.426
1687531040.164,-30.762,-26.855,-31.250,-40.527,-48.340
1687531040.124,-59.082,-31.738,-32.227,-38.574,-123.047
1687531040.128,-63.477,-33.203,-28.809,-44.434,7.812
1687531040.132,-41.504,-34.180,-26.367,-49.805,-92.773
1687531040.136,-33.691,-35.645,-28.809,-48.340,-200.684
1687531040.140,-36.621,-41.992,-32.227,-39.062,-146.973
1687531040.144,-52.734,-43.457,-32.227,-37.109,23.926
1687531040.148,-64.941,-39.551,-30.273,-47.852,81.543
1687531040.151,-46.387,-36.133,-29.785,-55.176,-94.238
1687531040.155,-30.762,-36.133,-28.809,-52.246,-23.926
1687531040.159,-35.645,-35.156,-31.250,-48.828,299.805
1687531040.163,-48.340,-35.645,-35.156,-58.594,48.340
1687531040.167,-61.035,-41.504,-35.156,-60.059,-164.551
1687531040.127,-52.246,-36.133,-30.762,-51.270,-42.480
1687531040.131,-36.621,-33.691,-32.227,-62.500,-105.957
1687531040.135,-42.969,-38.086,-37.598,-71.289,-166.016
1687531040.139,-53.711,-33.691,-35.645,-65.918,-116.699
1687531040.143,-62.988,-30.762,-34.180,-64.941,17.090
1687531040.147,-49.805,-31.738,-33.203,-63.965,39.062
1687531040.151,-32.715,-30.762,-35.156,-59.570,-10.254
1687531040.154,-32.227,-31.250,-44.434,-55.664,-49.316
1687531040.158,-47.363,-32.227,-43.945,-38.574,180.176
1687531040.162,-66.406,-30.273,-40.039,-33.203,410.645
1687531040.166,-55.664,-27.344,-35.645,-44.922,60.059
1687531040.170,-30.762,-30.273,-33.691,-51.758,-147.461
1687531040.151,-26.367,-37.109,-38.574,-42.480,87.891
1687531040.155,-32.715,-34.180,-33.691,-27.344,-1.465
1687531040.159,-50.781,-30.762,-31.250,-31.250,-162.598
1687531040.163,-50.781,-34.668,-35.645,-29.785,-170.410
1687531040.167,-29.297,-34.668,-31.738,-30.762,-138.672
1687531040.171,-13.672,-33.203,-30.762,-25.391,-9.766
1687531040.175,-22.461,-32.715,-35.645,-28.320,-48.828
1687531040.178,-49.805,-32.715,-39.062,-42.480,-18.555
1687531040.182,-43.457,-31.250,-40.527,-41.016,283.691
1687531040.186,-23.438,-27.832,-42.969,-46.875,20.996
1687531040.190,-18.555,-31.250,-41.992,-51.758,-228.516
1687531040.194,-26.367,-29.785,-37.598,-53.223,-138.184
1687531040.195,-56.152,-29.297,-42.480,-46.387,-36.621
1687531040.199,-63.965,-35.156,-43.945,-41.504,-97.656
1687531040.203,-39.551,-36.133,-40.039,-43.945,-196.289
1687531040.207,-26.855,-36.621,-37.598,-47.363,-49.805
1687531040.211,-32.227,-33.691,-35.645,-42.480,38.086
1687531040.215,-54.199,-29.785,-36.621,-37.109,33.203
1687531040.219,-60.547,-31.738,-36.621,-50.293,21.973
1687531040.222,-40.527,-30.273,-29.297,-49.316,200.684
1687531040.226,-30.273,-25.879,-27.832,-41.992,116.211
1687531040.230,-43.457,-33.691,-29.785,-42.969,-159.180
1687531040.234,-41.504,-40.527,-17.578,-10.742,-71.777
1687531040.238,-16.602,-29.297,-14.160,10.742,157.715
1687531040.240,-7.324,-4.883,-28.320,-11.230,-32.227
1687531040.244,-14.160,-4.883,-46.387,-38.086,-228.516
1687531040.248,-26.367,-10.254,-56.641,-42.969,-84.961
1687531040.252,-53.223,-3.906,-58.105,-46.387,46.387
1687531040.256,-71.289,-0.977,-70.312,-62.012,-77.148
1687531040.260,-54.199,-1.953,-80.566,-82.520,-84.961
1687531040.264,-44.434,3.418,-87.891,-100.098,25.391
1687531040.267,-56.152,9.766,-96.680,-90.820,217.773
1687531040.271,-80.566,14.648,-100.586,-91.309,59.082
1687531040.275,-104.492,19.043,-109.375,-111.328,-151.367
1687531040.279,-92.285,22.949,-117.188,-122.070,-117.676
1687531040.283,-75.195,25.391,-126.465,-124.023,-129.395
1687531040.285,-79.102,28.320,-134.766,-127.441,-204.102
1687531040.289,-93.262,32.227,-137.207,-120.605,-187.988
1687531040.293,-103.027,38.086,-139.648,-124.023,-51.758
1687531040.297,-85.938,42.480,-146.484,-135.254,-26.367
1687531040.301,-61.523,45.898,-149.902,-130.859,-59.082
1687531040.305,-60.059,43.457,-146.973,-132.324,-23.926
1687531040.309,-73.730,40.527,-152.832,-123.535,206.543
1687531040.312,-85.449,41.504,-159.668,-128.906,210.449
1687531040.316,-66.895,38.574,-157.715,-137.695,-176.758
1687531040.320,-35.645,39.551,-158.203,-128.418,-133.789
1687531040.324,-22.461,41.504,-158.203,-119.141,156.250
1687531040.328,-17.090,42.480,-156.738,-104.004,23.926
1687531040.329,-37.598,38.574,-155.762,-103.027,-209.473
1687531040.333,-41.016,34.668,-151.855,-95.215,-215.820
1687531040.337,-21.973,33.203,-143.066,-95.703,-185.547
1687531040.341,-15.625,27.344,-135.742,-94.238,-196.777
1687531040.345,-28.320,20.996,-134.766,-81.055,-142.578
1687531040.349,-52.246,12.207,-131.836,-86.914,69.824
1687531040.353,-55.664,11.230,-127.930,-90.820,151.367
1687531040.356,-36.621,12.695,-121.582,-83.496,-14.648
1687531040.360,-27.832,8.789,-112.793,-82.520,-59.082
1687531040.364,-45.410,2.930,-111.816,-72.754,31.250
1687531040.368,-68.359,2.930,-107.422,-56.641,219.727
1687531040.372,-68.359,5.859,-98.145,-60.059,-49.316
1687531040.389,-44.922,4.883,-90.820,-69.336,-250.977
1687531040.393,-35.156,0.000,-90.820,-67.383,-104.980
1687531040.397,-37.109,-1.953,-92.773,-50.781,-97.656
1687531040.401,-47.852,0.000,-88.867,-41.504,-152.832
1687531040.405,-50.781,-0.488,-87.402,-46.387,-115.234
1687531040.409,-28.320,0.000,-87.402,-47.363,108.887
1687531040.413,-17.578,-1.465,-83.496,-50.781,82.520
1687531040.416,-18.555,-5.859,-76.660,-41.992,-81.055
1687531040.420,-31.250,-3.418,-73.730,-35.645,-36.621
1687531040.424,-42.480,-2.930,-73.242,-36.133,226.562
1687531040.428,-31.738,-12.695,-72.754,-39.551,375.000
1687531040.432,-18.555,-9.766,-69.336,-53.223,16.113
1687531040.434,-19.043,-5.371,-66.895,-52.246,-192.383
1687531040.438,-37.598,-5.371,-66.895,-50.781,-98.145
1687531040.442,-53.711,-4.883,-66.895,-55.664,-169.434
1687531040.446,-39.551,-9.766,-65.918,-60.547,-221.191
1687531040.450,-15.625,-14.648,-63.965,-53.223,-153.320
1687531040.454,-9.277,-9.766,-56.152,-44.434,-51.758
1687531040.458,-27.832,-13.184,-54.688,-33.691,-25.879
1687531040.461,-44.922,-19.531,-54.688,-25.391,-34.668
1687531040.465,-34.668,-20.020,-53.711,-41.504,9.277
1687531040.469,-18.555,-14.648,-49.805,-37.598,156.250
1687531040.473,-22.949,-15.137,-48.340,-29.785,-41.504
1687531040.477,-42.969,-21.973,-45.898,-31.738,-150.391
1687531040.480,-53.711,-22.949,-41.504,-27.344,30.273
1687531040.484,-40.039,-20.020,-39.062,-32.227,-13.184
1687531040.488,-14.648,-20.508,-41.992,-32.715,-136.230
1687531040.492,-9.766,-20.020,-41.504,-26.367,-110.352
1687531040.496,-20.020,-14.648,-37.598,-21.484,-54.688
1687531040.500,-32.715,-16.113,-39.062,-22.949,-41.016
1687531040.504,-26.367,-19.043,-41.992,-29.785,-25.879
1687531040.507,-7.324,-17.578,-40.527,-31.250,-31.738
1687531040.511,-1.465,-21.973,-35.645,-15.137,145.508
1687531040.515,0.488,-27.344,-31.738,6.348,174.316
1687531040.519,-29.297,-20.996,-35.156,-17.578,-81.055
1687531040.523,-47.852,-21.484,-47.852,-45.898,-100.586
1687531040.541,-11.230,-19.531,-48.828,-29.785,7.324
1687531040.545,3.906,-13.672,-39.062,-23.926,-92.773
1687531040.549,-17.090,-17.090,-37.598,-23.438,-131.836
1687531040.553,-32.227,-14.160,-34.668,-16.602,-24.414
1687531040.557,-35.156,-9.766,-34.180,-23.926,32.715
1687531040.561,-19.531,-14.648,-38.574,-32.715,-75.195
1687531040.565,-4.883,-17.090,-35.645,-21.973,-161.133
1687531040.568,-14.160,-17.578,-36.133,-18.555,-84.961
1687531040.572,-41.992,-19.531,-39.062,-23.926,171.387
1687531040.576,-40.039,-20.020,-38.574,-30.273,2.930
1687531040.580,-12.695,-19.531,-41.504,-31.738,-172.852
1687531040.584,0.000,-17.090,-40.527,-19.043,-113.770
1687531040.584,-0.977,-11.230,-35.156,-3.906,-66.406
1687531040.588,-14.648,-7.324,-30.273,-3.906,-76.660
1687531040.592,-16.113,-11.719,-28.320,-9.277,-74.219
1687531040.596,7.324,-14.160,-28.809,-9.277,-12.695
1687531040.600,16.113,-15.625,-30.762,-12.695,3.418
1687531040.604,2.930,-20.020,-28.809,-21.484,19.531
1687531040.608,-21.484,-23.926,-33.203,-28.320,105.957
1687531040.611,-30.273,-24.902,-34.180,-28.320,171.875
1687531040.615,-16.602,-22.461,-29.785,-22.461,-29.785
1687531040.619,-3.906,-18.066,-28.809,-16.602,-132.812
1687531040.623,-3.906,-19.531,-22.461,-8.301,-76.172
1687531040.627,-27.344,-22.949,-19.043,-0.977,191.895
1687531040.614,-47.363,-28.320,-25.391,-7.812,344.727
1687531040.618,-27.344,-27.344,-21.973,-13.184,-34.668
1687531040.622,-6.348,-24.414,-16.602,-6.836,-221.191
1687531040.626,-11.719,-25.391,-20.508,-8.789,-124.023
1687531040.630,-27.832,-23.438,-21.973,-11.719,-163.086
1687531040.634,-42.480,-23.926,-24.414,-17.090,-141.113
1687531040.638,-31.738,-27.344,-27.344,-22.949,-6.348
1687531040.641,-19.531,-29.297,-27.832,-33.203,104.004
1687531040.645,-18.555,-25.391,-27.832,-36.621,-41.504
1687531040.649,-21.973,-20.508,-27.344,-24.902,-224.609
1687531040.653,-37.109,-20.020,-27.832,-27.832,-79.102
1687531040.657,-32.715,-20.020,-27.832,-24.902,239.258
1687531040.660,-9.277,-20.020,-25.879,-26.855,5.859
1687531040.664,-3.906,-20.020,-22.461,-25.879,-182.129
1687531040.668,-18.555,-20.996,-24.414,-20.020,-59.570
1687531040.672,-36.621,-24.414,-28.320,-20.020,-58.594
1687531040.676,-31.738,-29.297,-29.297,-24.902,-102.539
1687531040.680,-16.602,-34.180,-29.785,-24.414,-54.199
1687531040.684,-18.066,-34.668,-30.273,-20.996,192.383
1687531040.687,-32.715,-30.762,-28.809,-24.414,114.258
1687531040.691,-46.387,-27.832,-29.785,-24.902,-166.016
1687531040.695,-43.457,-24.902,-27.344,-36.621,-109.863
1687531040.699,-21.973,-24.902,-29.297,-45.898,171.387
1687531040.703,-11.719,-31.738,-31.250,-40.039,48.828
1687531040.704,-24.902,-34.180,-28.320,-35.156,-138.672
1687531040.708,-43.457,-30.273,-29.785,-35.156,-26.367
1687531040.712,-37.109,-23.438,-27.344,-37.598,-62.500
1687531040.716,-11.719,-21.484,-22.461,-31.250,-156.250
1687531040.720,0.000,-27.344,-20.996,-33.203,-145.508
1687531040.724,-14.648,-31.738,-27.832,-34.668,24.902
1687531040.728,-38.086,-29.297,-30.273,-23.926,184.082
1687531040.731,-40.527,-29.785,-25.391,-23.926,-12.207
1687531040.735,-26.855,-31.738,-26.367,-31.250,-167.969
1687531040.739,-18.066,-31.738,-28.320,-28.809,-115.723
1687531040.743,-25.879,-34.668,-27.344,-24.414,-73.730
1687531040.747,-45.898,-34.668,-29.297,-25.879,-65.918
1687531040.751,-48.340,-31.738,-30.273,-32.227,-104.492
1687531040.755,-22.461,-30.762,-22.461,-19.531,-72.754
1687531040.759,-11.719,-35.156,-21.973,-21.484,-56.641
1687531040.763,-16.113,-39.551,-26.855,-27.832,-169.922
1687531040.767,-28.320,-41.016,-28.320,-17.090,-145.508
1687531040.771,-42.969,-40.039,-31.738,-22.949,36.621
1687531040.775,-27.832,-36.621,-30.273,-22.461,66.895
1687531040.778,-15.137,-37.598,-24.414,-19.043,-88.867
1687531040.782,-22.949,-40.039,-23.438,-20.020,-101.074
1687531040.786,-31.738,-34.668,-23.438,-6.836,317.383
1687531040.790,-51.758,-33.203,-22.949,-12.695,324.219
1687531040.794,-40.527,-38.086,-23.926,-30.273,-87.891
1687531040.810,-24.414,-42.969,-27.832,-32.715,-170.898
1687531040.814,-31.250,-41.016,-27.832,-32.715,-144.531
1687531040.818,-38.574,-41.504,-26.855,-26.367,-92.285
1687531040.822,-45.410,-41.992,-27.832,-32.227,-124.023
1687531040.826,-36.621,-35.645,-23.438,-24.414,-61.523
1687531040.830,-20.996,-39.062,-23.926,-4.883,161.133
1687531040.834,-16.602,-41.992,-31.250,-9.766,83.008
1687531040.837,-22.949,-39.551,-32.227,-14.648,-89.844
1687531040.841,-41.992,-41.016,-28.320,-24.414,12.695
1687531040.845,-38.086,-42.969,-31.738,-29.297,183.105
1687531040.849,-14.648,-39.062,-41.016,-29.297,-27.344
1687531040.853,-4.883,-41.016,-39.551,-19.531,-160.156
1687531040.855,-35.645,-46.387,-35.156,-24.414,-79.590
1687531040.859,-72.266,-48.340,-39.551,-40.039,-80.078
1687531040.863,-56.152,-47.363,-40.527,-33.691,-141.602
1687531040.867,-32.227,-43.457,-37.598,-33.691,-151.855
1687531040.871,-29.297,-39.551,-36.133,-36.621,-30.273
1687531040.875,-40.527,-42.969,-37.598,-36.621,7.812
1687531040.879,-57.129,-41.504,-41.504,-32.227,-30.273
1687531040.882,-56.152,-35.156,-44.434,-44.922,-147.949
1687531040.886,-38.086,-36.133,-41.016,-46.387,82.031
1687531040.890,-31.738,-37.598,-39.551,-33.203,324.707
1687531040.894,-42.969,-40.527,-40.527,-38.574,-38.086
1687531040.898,-56.152,-41.992,-37.109,-32.227,-179.199
1687531040.899,-59.570,-40.039,-37.109,-25.879,-41.992
1687531040.903,-38.086,-39.062,-32.715,-31.738,-84.961
1687531040.907,-20.508,-35.645,-27.344,-29.785,-156.738
1687531040.911,-29.297,-36.133,-29.297,-30.762,-84.473
1687531040.915,-47.852,-38.574,-33.691,-31.738,-58.594
1687531040.919,-50.293,-39.062,-34.668,-36.133,-52.734
1687531040.923,-34.180,-40.527,-32.227,-41.992,-60.059
1687531040.926,-21.484,-37.598,-34.668,-38.574,23.438
1687531040.930,-19.043,-36.133,-39.062,-29.297,267.578
1687531040.934,-37.109,-34.668,-37.598,-32.715,87.891
1687531040.938,-43.945,-32.715,-36.133,-36.621,-115.723
1687531040.942,-23.438,-36.621,-33.691,-31.738,-95.215
1687531040.944,-9.277,-38.086,-33.203,-31.250,-103.516
1687531040.948,-18.066,-36.621,-35.645,-35.645,-163.086
1687531040.952,-36.621,-36.133,-38.086,-38.086,-110.840
1687531040.956,-43.457,-34.180,-38.574,-34.668,-8.789
1687531040.960,-20.508,-34.668,-38.574,-35.156,-41.992
1687531040.964,3.418,-29.297,-36.621,-30.762,-52.734
1687531040.968,-4.883,-27.344,-38.574,-22.461,2.441
1687531040.971,-26.855,-32.227,-40.527,-10.742,119.141
1687531040.975,-37.109,-37.109,-40.039,-19.531,118.652
1687531040.979,-22.949,-34.180,-34.180,-29.297,-27.344
1687531040.983,-5.371,-35.156,-31.738,-21.484,-44.434
1687531040.987,-7.324,-33.691,-34.668,-19.531,155.762
1687531040.989,-21.484,-36.621,-35.645,-16.113,37.109
1687531040.993,-35.645,-44.434,-38.574,-16.602,-154.785
1687531040.997,-28.809,-41.504,-38.574,-22.461,-67.383
1687531041.001,-14.648,-39.062,-41.016,-27.344,-73.730
1687531041.005,-16.113,-42.969,-45.410,-23.926,-172.363
1687531041.009,-27.344,-41.504,-41.992,-23.926,-127.930
1687531041.013,-48.340,-38.086,-40.039,-24.902,28.809
1687531041.016,-43.945,-38.574,-39.551,-20.508,263.184
1687531041.020,-21.973,-40.039,-39.062,-31.250,26.367
1687531041.024,-17.578,-41.016,-44.434,-34.180,-249.023
1687531041.028,-25.391,-35.156,-43.457,-22.949,-150.879
1687531041.032,-44.434,-36.133,-37.598,-31.738,-51.758
1687531041.035,-45.410,-37.598,-36.133,-40.527,-122.070
1687531041.039,-21.973,-42.480,-38.086,-39.062,-180.664
1687531041.043,-17.090,-49.316,-35.156,-32.715,-29.297
1687531041.047,-31.738,-49.805,-38.086,-34.180,37.109
1687531041.051,-58.105,-50.293,-43.457,-34.668,-58.105
1687531041.055,-59.570,-45.898,-39.062,-32.227,-7.324
1687531041.059,-28.809,-42.969,-34.668,-28.809,174.805
1687531041.062,-15.625,-47.363,-40.527,-35.156,122.559
1687531041.066,-20.508,-53.711,-44.922,-43.945,-149.902
1687531041.070,-27.344,-51.270,-42.969,-37.109,-112.305
1687531041.074,-22.949,-45.898,-43.457,-38.574,101.074
1687531041.078,-0.488,-45.898,-39.551,-46.387,-45.898
1687531041.081,6.348,-45.410,-38.574,-41.504,-219.727
1687531041.085,-5.859,-45.898,-41.504,-30.762,-58.594
1687531041.089,-26.367,-46.387,-40.527,-22.461,118.164
1687531041.093,-38.574,-43.945,-36.133,-32.715,-40.039
1687531041.097,-21.973,-43.457,-33.203,-44.922,-143.066
1687531041.101,-17.090,-47.852,-35.645,-40.527,58.105
1687531041.105,-26.367,-49.805,-39.551,-22.949,145.508
1687531041.108,-41.504,-46.875,-40.039,-18.066,-63.477
1687531041.112,-48.340,-43.457,-38.086,-27.344,-151.367
1687531041.116,-33.203,-43.945,-36.621,-33.691,-51.758
1687531041.120,-22.461,-44.922,-35.645,-33.691,-53.223
1687531041.124,-26.855,-47.363,-39.551,-32.227,-206.055
1687531041.140,-46.875,-47.363,-37.598,-28.809,-182.129
1687531041.144,-59.570,-44.434,-33.203,-26.855,-78.613
1687531041.148,-38.086,-42.480,-35.156,-25.391,-133.789
1687531041.152,-16.113,-46.387,-36.621,-33.203,-109.375
1687531041.156,-15.625,-46.387,-29.785,-27.832,-9.277
1687531041.160,-35.645,-45.410,-26.367,-24.414,272.949
1687531041.164,-57.129,-46.387,-30.762,-31.738,320.801
1687531041.167,-39.551,-41.504,-29.785,-36.133,-103.027
1687531041.171,-20.020,-43.457,-28.809,-33.691,-129.883
1687531041.175,-17.090,-48.828,-30.762,-23.438,263.184
1687531041.179,-30.762,-49.805,-35.156,-26.367,155.762
1687531041.183,-48.828,-48.828,-41.016,-32.715,-164.062
1687531041.185,-37.109,-46.875,-34.668,-29.297,-138.184
1687531041.189,-20.996,-49.316,-29.297,-31.738,-139.160
1687531041.193,-19.043,-50.781,-31.250,-32.715,-163.086
1687531041.197,-22.461,-49.316,-29.297,-33.203,-146.973
1687531041.201,-38.574,-49.316,-27.832,-29.785,-81.055
1687531041.205,-35.156,-47.852,-25.391,-27.832,3.906
1687531041.209,-14.160,-48.340,-25.879,-19.043,-33.203
1687531041.212,-6.348,-46.875,-31.738,-14.648,-73.730
1687531041.216,-20.996,-51.758,-33.203,-19.531,-31.738
1687531041.220,-40.527,-53.223,-31.738,-13.184,222.168
1687531041.224,-41.504,-52.734,-38.086,-30.762,75.195
1687531041.228,-25.391,-53.711,-40.527,-49.805,-132.324
1687531041.230,-16.602,-51.758,-37.598,-50.781,-69.336
1687531041.234,-21.484,-50.293,-37.109,-37.598,-89.844
1687531041.238,-35.645,-47.852,-36.133,-29.297,-118.652
1687531041.242,-35.645,-46.875,-37.598,-38.574,-123.047
1687531041.246,-15.625,-48.340,-40.527,-38.574,-59.570
1687531041.250,-5.859,-49.805,-36.621,-30.762,-10.254
1687531041.254,-10.742,-49.316,-34.668,-31.250,-9.766
1687531041.257,-17.578,-49.316,-34.668,-32.715,-128.418
1687531041.261,-19.043,-50.781,-33.691,-28.320,154.297
1687531041.265,-8.789,-47.363,-35.645,-28.320,483.887
1687531041.269,4.395,-45.898,-34.180,-21.973,84.473
1687531041.273,-0.977,-48.340,-32.227,-17.578,-41.992
1687531041.275,-26.855,-54.688,-34.668,-17.090,84.961
1687531041.279,-42.480,-58.594,-38.086,-26.367,-14.160
1687531041.283,-22.949,-57.129,-35.156,-37.598,-54.199
1687531041.287,-1.953,-54.199,-31.250,-25.391,-68.848
1687531041.291,0.000,-48.828,-30.273,-18.066,-92.285
1687531041.295,-12.207,-46.387,-26.367,-12.207,-6.348
1687531041.299,-19.531,-46.387,-28.809,-15.137,-16.602
1687531041.302,-2.441,-44.922,-29.785,-21.973,-20.996
1687531041.306,16.602,-43.945,-25.391,-20.020,206.543
1687531041.310,18.555,-42.969,-25.391,-21.484,60.547
1687531041.314,2.930,-38.574,-25.879,-18.066,-98.145
1687531041.318,-9.766,-38.086,-26.367,-16.113,9.766
1687531041.319,2.930,-35.645,-25.391,-16.602,-41.016
1687531041.323,14.648,-38.574,-25.391,-17.578,-164.551
1687531041.327,12.207,-42.969,-25.391,-27.344,-138.672
1687531041.331,-3.418,-41.992,-26.855,-23.926,-84.473
1687531041.335,-10.254,-37.109,-33.203,-11.230,-122.559
1687531041.339,13.184,-38.086,-26.855,4.395,-77.148
1687531041.343,12.695,-46.875,-13.184,-3.418,-103.027
1687531041.346,1.465,-50.293,-9.766,-6.348,70.312
1687531041.350,-12.207,-56.641,-8.789,5.371,171.875
1687531041.354,-39.062,-62.500,-7.324,-14.160,27.344
1687531041.358,-36.133,-67.383,1.465,-29.297,22.949
1687531041.362,-17.090,-73.730,11.719,-6.348,120.605
1687531041.366,-15.625,-79.102,17.090,4.883,27.832
1687531041.370,-30.273,-88.867,19.043,-3.418,-79.102
1687531041.374,-51.758,-92.285,20.508,-7.324,-82.031
1687531041.378,-46.387,-96.191,20.996,-19.531,41.016
1687531041.382,-23.926,-102.051,27.832,-21.973,2.441
1687531041.386,-24.414,-104.004,38.574,-20.508,-80.078
1687531041.390,-33.691,-110.352,45.410,-6.348,123.535
1687531041.393,-52.734,-110.352,47.363,16.602,329.590
1687531041.397,-58.105,-112.793,49.316,5.859,24.414
1687531041.401,-35.156,-117.188,59.570,5.859,-158.203
1687531041.405,-19.043,-117.188,64.941,35.645,-89.844
1687531041.409,-20.996,-119.141,64.453,42.969,-107.422
1687531041.409,-36.133,-119.141,62.500,30.273,-125.977
1687531041.413,-37.109,-115.234,64.941,31.738,-125.977
1687531041.417,-19.043,-111.816,67.871,37.109,-37.109
1687531041.421,-7.812,-112.305,74.219,38.574,-29.785
1687531041.425,-7.812,-112.793,75.195,44.922,-154.785
1687531041.429,-34.180,-109.863,70.312,49.316,-119.629
1687531041.433,-36.133,-107.422,71.777,62.988,177.734
1687531041.436,-13.672,-105.469,73.730,60.547,299.805
1687531041.440,-6.348,-102.051,65.430,44.922,-66.406
1687531041.444,-16.113,-104.492,61.035,46.387,-134.277
1687531041.448,-32.715,-104.004,65.918,57.129,89.844
1687531041.452,-26.367,-104.004,64.453,51.270,-19.043
1687531041.454,-9.766,-103.516,59.082,38.574,-201.172
1687531041.458,-0.977,-103.516,52.246,29.297,-133.301
1687531041.462,-9.766,-100.586,48.828,20.508,-87.402
1687531041.466,-35.645,-94.238,48.828,40.527,-122.559
1687531041.470,-41.504,-91.797,38.086,48.828,-123.047
1687531041.474,-24.902,-92.773,32.715,32.715,15.137
1687531041.478,-14.648,-92.285,38.086,20.020,148.926
1687531041.481,-12.207,-87.891,37.109,20.020,65.918
1687531041.485,-25.879,-84.473,31.738,24.414,-86.914
1687531041.489,-39.551,-83.008,24.902,15.625,-83.496
1687531041.493,-23.438,-86.914,18.066,20.508,163.574
1687531041.497,-4.883,-81.055,20.508,27.832,8.301
1687531041.514,-2.930,-71.289,19.043,24.902,-201.172
1687531041.518,-20.508,-69.336,11.719,19.531,-102.051
1687531041.522,-44.434,-69.336,7.812,9.277,-28.320
1687531041.526,-41.504,-65.430,3.906,2.930,-120.117
1687531041.530,-23.926,-59.082,0.000,-3.906,-139.648
1687531041.534,-20.996,-62.500,-0.488,-1.953,64.453
1687531041.538,-35.156,-70.312,-3.418,1.953,11.230
1687531041.541,-49.316,-64.941,-11.230,-4.883,-91.797
1687531041.545,-37.109,-62.012,-9.766,-4.395,-12.695
1687531041.549,-14.648,-61.523,-6.348,2.441,177.734
1687531041.553,-8.301,-60.059,-5.859,-6.348,354.980
1687531041.557,-16.602,-61.035,-11.230,-12.695,67.871
1687531041.559,-35.156,-58.105,-15.137,-7.812,-116.211
1687531041.563,-38.574,-57.129,-13.672,-17.090,-21.973
1687531041.567,-24.902,-57.129,-15.137,-24.414,-99.121
1687531041.571,-14.160,-57.129,-16.113,-17.090,-144.043
1687531041.575,-20.508,-53.711,-13.672,-15.625,-83.984
1687531041.579,-35.645,-51.270,-13.184,-9.766,2.930
1687531041.583,-36.133,-56.152,-14.648,-20.508,32.715
1687531041.586,-22.949,-57.129,-11.230,-22.949,-70.312
1687531041.590,-15.625,-53.711,-7.812,-10.742,-113.770
1687531041.594,-26.855,-55.664,-11.230,-1.465,158.691
1687531041.598,-46.387,-54.688,-13.672,-5.371,114.746
1687531041.602,-41.504,-53.711,-9.277,-17.090,-128.418
1687531041.604,-18.555,-54.688,-11.230,-10.742,-62.012
1687531041.608,-4.883,-49.316,-15.137,-0.488,-9.277
1687531041.612,-13.184,-47.852,-16.602,-7.324,-75.684
1687531041.616,-38.086,-51.758,-19.043,-10.742,-114.258
1687531041.620,-39.062,-51.758,-19.531,-6.348,-31.738
1687531041.624,-22.949,-50.781,-16.113,-2.441,92.773
1687531041.628,-17.578,-49.805,-19.043,-4.395,21.484
1687531041.631,-15.625,-47.363,-19.043,-10.254,-140.137
1687531041.635,-34.180,-48.828,-18.066,-15.137,144.043
1687531041.639,-46.875,-54.688,-24.414,-21.484,337.891
1687531041.643,-27.344,-53.711,-27.832,-25.391,-46.387
1687531041.647,-13.184,-45.898,-24.414,-23.926,-166.992
1687531041.649,-15.625,-44.922,-25.391,-25.391,-43.457
1687531041.653,-40.039,-49.805,-25.391,-18.555,33.203
1687531041.657,-51.758,-46.387,-22.949,-21.973,-56.641
1687531041.661,-34.668,-46.875,-25.391,-22.461,-79.590
1687531041.665,-27.832,-51.758,-26.855,-6.348,-34.668
1687531041.669,-31.250,-51.758,-24.902,-9.277,-71.777
1687531041.673,-40.527,-50.293,-25.391,-33.203,-98.633
1687531041.676,-57.129,-47.363,-26.855,-38.086,-36.133
1687531041.680,-48.828,-48.828,-29.297,-28.809,181.152
1687531041.684,-26.367,-49.316,-28.320,-27.344,-28.809
1687531041.688,-28.320,-45.410,-25.879,-20.996,-196.777
1687531041.692,-42.480,-44.434,-25.879,-19.043,-64.453
1687531041.694,-54.199,-47.852,-24.902,-26.367,-121.582
1687531041.698,-43.457,-48.340,-27.344,-27.344,-253.906
1687531041.702,-24.414,-42.969,-24.902,-22.461,-226.562
1687531041.706,-20.020,-43.945,-21.484,-17.090,7.812
1687531041.710,-32.227,-48.828,-24.414,-23.926,-24.414
1687531041.714,-57.617,-48.340,-26.855,-34.668,-98.145
1687531041.718,-52.734,-44.922,-22.461,-35.645,72.266
1687531041.721,-32.227,-46.387,-20.508,-36.133,142.578
1687531041.725,-23.926,-45.898,-22.461,-32.227,71.777
1687531041.729,-34.668,-43.945,-29.785,-32.715,-79.102
1687531041.733,-53.223,-46.875,-33.691,-32.715,-90.820
1687531041.737,-44.434,-44.434,-29.297,-24.414,47.363
1687531041.739,-21.973,-43.457,-30.762,-29.297,-80.566
1687531041.743,-18.555,-48.828,-33.691,-34.668,-202.148
1687531041.747,-21.973,-48.828,-34.668,-30.762,-124.512
1687531041.751,-40.039,-44.922,-34.668,-31.250,-59.570
1687531041.755,-50.293,-44.922,-25.879,-33.203,-60.059
1687531041.759,-34.668,-46.875,-26.367,-33.691,-89.355
1687531041.763,-24.414,-48.340,-36.133,-34.180,14.160
1687531041.766,-35.156,-49.805,-40.039,-34.668,390.625
1687531041.770,-60.547,-43.945,-40.039,-32.715,157.715
1687531041.774,-66.406,-44.434,-41.504,-40.039,-173.828
1687531041.778,-44.434,-42.969,-36.621,-47.852,-91.797
1687531041.782,-36.621,-43.457,-40.039,-45.410,-82.031
1687531041.785,-38.086,-42.480,-41.016,-38.574,-124.512
1687531041.789,-45.410,-37.598,-33.691,-26.367,-153.809
1687531041.793,-54.688,-39.062,-34.180,-33.691,-81.055
1687531041.797,-41.992,-44.922,-34.668,-41.504,-122.070
1687531041.801,-31.738,-53.711,-40.527,-40.527,-149.414
1687531041.805,-36.133,-51.758,-39.062,-39.551,-14.160
1687531041.809,-49.805,-47.852,-38.086,-18.066,252.930
1687531041.812,-53.223,-50.781,-38.574,-9.766,206.543
1687531041.816,-37.598,-51.270,-38.574,-18.555,-86.426
1687531041.820,-23.438,-51.270,-41.016,-20.996,-45.410
1687531041.824,-18.066,-45.410,-39.551,-16.602,194.824
1687531041.828,-30.762,-43.945,-35.645,-20.996,140.137
1687531041.829,-36.133,-54.688,-28.320,-20.996,-138.672
1687531041.833,4.883,-52.734,-23.926,-8.301,-192.871
1687531041.837,28.320,-29.297,-29.297,-7.324,-159.180
1687531041.841,7.812,-22.461,-45.410,-29.297,-168.457
1687531041.845,-26.367,-28.320,-56.152,-44.922,-199.219
1687531041.849,-47.852,-26.855,-58.594,-41.016,0.000
1687531041.853,-47.363,-20.996,-70.312,-55.664,177.734
1687531041.856,-38.086,-12.695,-77.637,-77.637,-18.066
1687531041.860,-48.828,-8.789,-87.402,-90.332,-220.215
1687531041.864,-77.637,-8.301,-100.586,-100.586,-93.750
1687531041.868,-94.238,-6.348,-107.422,-99.121,16.602
1687531041.872,-82.031,4.395,-115.723,-103.516,-216.797
1687531041.889,-66.895,8.301,-123.047,-120.117,-235.352
1687531041.893,-72.266,8.789,-130.371,-114.258,-98.633
1687531041.897,-89.844,10.742,-142.578,-109.375,-89.844
1687531041.901,-101.562,15.625,-146.484,-112.305,-139.648
1687531041.905,-99.121,22.461,-148.438,-116.699,-143.555
1687531041.909,-73.730,25.879,-149.414,-116.211,-3.418
1687531041.913,-58.594,29.785,-148.926,-110.352,90.820
1687531041.916,-83.008,29.785,-152.832,-124.023,-38.086
1687531041.920,-102.539,33.691,-153.320,-138.184,-113.281
1687531041.924,-97.168,38.574,-154.785,-123.047,171.387
1687531041.928,-74.707,36.133,-150.879,-116.211,275.879
1687531041.932,-55.664,33.203,-150.879,-125.977,-37.598
1687531041.934,-69.824,28.809,-156.250,-125.000,-30.273
1687531041.938,-88.379,28.809,-148.438,-113.281,95.215
1687531041.942,-85.938,25.879,-142.578,-109.375,-28.809
1687531041.946,-65.430,19.043,-141.602,-107.910,-126.465
1687531041.950,-44.922,17.090,-134.277,-94.727,-71.289
1687531041.954,-52.734,15.137,-130.859,-93.750,-21.973
1687531041.958,-72.266,14.160,-129.395,-88.379,-2.441
1687531041.961,-74.707,12.207,-115.723,-85.449,-84.961
1687531041.965,-54.199,5.859,-107.910,-89.355,-85.449
1687531041.969,-29.785,5.859,-106.934,-73.730,162.598
1687531041.973,-22.461,6.348,-100.098,-68.848,20.020
1687531041.977,-40.527,1.953,-97.656,-63.965,-98.633
1687531041.981,-56.641,0.000,-95.703,-62.988,-29.785
1687531041.985,-36.621,2.441,-91.309,-67.383,-49.805
1687531041.989,-18.066,4.395,-88.867,-66.406,-55.664
1687531041.993,-26.367,-2.441,-83.984,-66.406,-37.598
1687531041.997,-42.969,-4.883,-80.566,-64.453,125.977
1687531042.001,-50.293,-5.371,-76.660,-64.941,151.855
1687531042.005,-31.738,-3.906,-71.777,-70.801,38.086
1687531042.008,-10.742,-3.906,-75.195,-69.336,-112.793
1687531042.012,-12.207,-8.301,-75.195,-63.477,93.750
1687531042.016,-32.227,-9.277,-70.312,-57.129,275.391
1687531042.020,-43.457,-11.719,-67.871,-59.082,-61.523
1687531042.024,-36.133,-16.113,-65.918,-60.059,-149.902
1687531042.025,-21.484,-16.113,-64.941,-55.664,20.020
1687531042.029,-14.648,-17.578,-65.430,-52.246,-31.738
1687531042.033,-31.738,-18.066,-57.129,-51.270,-135.742
1687531042.037,-45.898,-20.996,-49.805,-55.176,-145.996
1687531042.041,-34.180,-20.508,-48.828,-45.410,-117.188
1687531042.045,-18.066,-19.043,-46.387,-41.016,-22.949
1687531042.049,-13.184,-20.020,-44.434,-37.109,-20.508
1687531042.052,-26.367,-20.996,-49.805,-32.227,20.996
1687531042.056,-39.551,-20.020,-47.363,-27.344,276.367
1687531042.060,-28.320,-15.137,-43.945,-30.273,83.496
1687531042.064,-4.395,-13.672,-47.363,-33.203,-184.570
1687531042.068,1.953,-14.160,-47.852,-31.738,-100.098
1687531042.069,-10.742,-17.090,-46.387,-23.926,-135.254
1687531042.073,-17.578,-18.066,-42.969,-14.160,-180.176
1687531042.077,-16.602,-18.066,-45.410,-22.461,-109.863
1687531042.081,1.465,-21.484,-44.922,-35.645,-24.902
1687531042.085,4.395,-25.879,-43.945,-36.133,-68.359
1687531042.089,-16.113,-24.414,-44.434,-25.879,7.324
1687531042.093,-35.645,-21.973,-41.016,-30.762,87.891
1687531042.096,-35.645,-20.020,-40.039,-29.297,200.684
1687531042.100,-19.043,-21.973,-41.016,-24.414,262.207
1687531042.104,-10.742,-24.902,-34.668,-30.273,15.625
1687531042.108,-1.953,-19.043,-25.391,-2.441,-126.953
1687531042.112,-23.926,-14.160,-27.832,-15.137,81.055
1687531042.114,-45.410,-15.137,-39.551,-51.758,15.625
1687531042.118,-25.879,-13.672,-39.551,-42.969,-158.691
1687531042.122,-17.090,-12.695,-35.156,-44.922,-135.254
1687531042.126,-29.297,-11.230,-38.086,-49.805,-39.551
1687531042.130,-40.527,-5.859,-38.086,-37.109,-59.082
1687531042.134,-37.109,-6.836,-35.156,-35.156,-42.969
1687531042.138,-16.602,-13.672,-36.133,-33.203,131.836
1687531042.141,-5.859,-14.160,-37.109,-26.367,205.078
1687531042.145,-16.113,-12.695,-36.621,-30.762,-48.340
1687531042.149,-35.156,-15.137,-35.645,-29.785,-129.883
1687531042.153,-43.945,-21.973,-36.621,-25.879,-43.945
1687531042.157,-29.297,-22.461,-39.062,-39.551,-41.016
1687531042.159,-11.230,-18.066,-38.574,-36.133,-82.520
1687531042.163,-15.625,-17.578,-41.016,-32.227,-149.414
1687531042.167,-44.434,-22.949,-47.363,-43.945,-107.910
1687531042.171,-54.199,-21.484,-42.480,-42.480,-125.488
1687531042.175,-32.715,-19.043,-36.133,-34.180,-151.855
1687531042.179,-18.555,-20.508,-36.621,-27.344,-69.336
1687531042.183,-14.648,-21.484,-37.109,-17.578,198.242
1687531042.186,-25.879,-21.973,-36.133,-14.648,206.055
1687531042.190,-41.504,-22.949,-36.133,-21.484,-86.914
1687531042.194,-29.297,-23.926,-36.621,-32.715,6.348
1687531042.198,-12.695,-21.484,-34.180,-20.996,139.648
1687531042.202,-6.836,-23.438,-29.297,-14.160,1.953
1687531042.206,-18.066,-26.855,-27.832,-24.414,-140.137
1687531042.210,-33.203,-22.461,-27.344,-26.367,-117.676
1687531042.214,-22.461,-21.973,-26.367,-21.484,-46.387
1687531042.218,-7.812,-26.367,-26.367,-21.484,-123.535
1687531042.222,-3.906,-24.902,-26.367,-20.996,-208.984
1687531042.226,-23.438,-26.855,-31.738,-16.602,-30.762
1687531042.230,-46.875,-29.297,-32.715,-18.066,143.066
1687531042.233,-38.086,-23.438,-34.668,-25.879,-92.285
1687531042.237,-17.578,-22.949,-36.133,-41.016,-232.910
1687531042.241,-7.812,-21.484,-31.250,-44.434,-142.090
1687531042.245,-23.438,-20.508,-31.250,-39.062,-75.195
1687531042.249,-46.387,-23.926,-36.621,-36.621,-82.520
1687531042.251,-42.480,-23.438,-38.086,-39.551,-116.211
1687531042.255,-19.531,-21.484,-33.691,-40.527,-87.402
1687531042.259,-14.160,-22.949,-29.785,-38.086,-59.570
1687531042.263,-25.391,-23.438,-26.367,-35.156,-44.922
1687531042.267,-44.434,-24.902,-20.996,-34.668,-63.477
1687531042.271,-47.852,-24.414,-21.484,-39.551,214.355
1687531042.275,-26.855,-22.461,-22.461,-35.156,364.746
1687531042.278,-15.137,-22.461,-20.996,-33.203,-29.785
1687531042.282,-20.508,-23.926,-28.320,-34.180,-112.793
1687531042.286,-37.598,-21.973,-27.344,-26.855,232.422
1687531042.290,-45.898,-20.996,-23.926,-29.297,145.508
1687531042.294,-31.738,-28.809,-28.809,-40.039,-177.734
1687531042.309,-18.555,-30.762,-25.879,-31.738,-152.344
1687531042.313,-20.996,-28.320,-23.438,-15.137,-109.863
1687531042.317,-37.109,-29.297,-26.367,-23.438,-159.180
1687531042.321,-43.457,-29.785,-28.320,-28.320,-139.160
1687531042.325,-23.926,-30.273,-26.367,-23.926,-67.383
1687531042.329,-11.719,-26.855,-24.902,-15.625,144.531
1687531042.333,-25.391,-30.273,-30.762,-14.160,121.094
1687531042.336,-38.574,-33.203,-28.320,-20.020,-115.723
1687531042.340,-38.574,-30.762,-22.949,-16.602,-125.488
1687531042.344,-34.668,-31.250,-25.391,-22.461,41.504
1687531042.348,-24.414,-34.180,-26.367,-35.156,-75.195
1687531042.352,-15.137,-36.621,-30.273,-31.738,-165.527
1687531042.354,-34.668,-38.086,-33.203,-39.062,-127.930
1687531042.358,-47.363,-37.109,-36.133,-37.109,-169.434
1687531042.362,-24.414,-32.227,-35.156,-29.297,-211.426
1687531042.366,-4.395,-30.762,-29.785,-24.414,-128.418
1687531042.370,-5.371,-35.156,-34.180,-26.367,-13.672
1687531042.374,-24.414,-30.762,-34.668,-34.180,55.664
1687531042.378,-39.062,-32.227,-35.156,-30.762,66.895
1687531042.381,-26.855,-36.621,-39.551,-32.227,-57.129
1687531042.385,-10.254,-33.691,-36.133,-35.156,149.902
1687531042.389,-10.742,-35.156,-36.621,-21.973,464.844
1687531042.393,-28.809,-33.691,-37.598,-18.066,108.398
1687531042.397,-46.875,-30.762,-38.086,-16.113,-91.309
1687531042.400,-31.250,-28.809,-37.109,-17.090,-16.113
1687531042.404,-17.090,-35.156,-41.016,-31.250,-149.902
1687531042.408,-16.113,-35.645,-44.922,-27.344,-167.969
1687531042.412,-26.367,-29.785,-35.645,-25.391,-100.586
1687531042.416,-47.852,-36.133,-35.645,-36.621,-50.781
1687531042.420,-35.156,-38.574,-39.551,-33.203,20.020
1687531042.424,-15.137,-39.062,-42.480,-34.668,-17.090
1687531042.427,-12.207,-39.551,-38.574,-33.691,31.250
1687531042.431,-23.438,-41.504,-35.645,-31.738,254.883
1687531042.435,-38.086,-42.480,-38.086,-39.062,76.660
1687531042.439,-34.668,-42.969,-38.574,-39.062,-151.855
1687531042.443,-17.090,-42.969,-38.574,-28.320,-48.340
1687531042.444,-6.348,-38.574,-37.109,-21.973,-10.742
1687531042.448,-17.578,-35.156,-37.598,-24.414,-69.824
1687531042.452,-35.645,-35.645,-41.016,-28.809,-66.895
1687531042.456,-27.832,-41.016,-41.016,-33.203,-90.332
1687531042.460,-17.090,-46.387,-41.992,-31.738,-97.656
1687531042.464,-17.090,-42.480,-42.480,-24.902,19.531
1687531042.468,-17.578,-38.086,-39.062,-21.484,35.645
1687531042.471,-36.133,-41.016,-39.062,-18.066,134.277
1687531042.475,-41.016,-43.457,-41.016,-10.742,240.723
1687531042.479,-14.160,-44.922,-40.039,-10.254,16.113
1687531042.483,-1.465,-42.969,-43.945,-27.832,-117.676
1687531042.487,-11.230,-36.621,-45.410,-20.020,58.594
1687531042.494,-30.762,-38.574,-41.504,-8.301,6.836
1687531042.498,-41.992,-39.062,-41.504,-21.484,-194.336
1687531042.502,-26.367,-38.086,-46.875,-27.344,-127.441
1687531042.506,-19.043,-39.551,-48.828,-24.902,105.957
1687531042.510,-19.531,-37.598,-45.410,-22.461,-33.691
1687531042.514,-34.668,-41.504,-44.922,-20.020,-87.402
1687531042.518,-49.316,-51.758,-48.828,-27.832,72.754
1687531042.521,-34.668,-51.270,-48.340,-38.574,191.406
1687531042.525,-19.531,-44.922,-42.969,-34.668,-35.645
1687531042.529,-16.602,-42.969,-46.387,-24.414,-181.641
1687531042.533,-29.785,-41.992,-49.805,-31.250,-78.613
1687531042.537,-47.852,-42.969,-49.805,-37.109,-133.301
1687531042.536,-34.668,-46.875,-50.781,-39.062,-194.824
1687531042.540,-21.973,-42.969,-47.852,-39.551,-144.043
1687531042.544,-18.066,-40.527,-43.457,-26.855,15.625
1687531042.548,-31.250,-41.504,-47.363,-18.066,-16.602
1687531042.552,-43.945,-41.992,-48.828,-13.184,-125.000
1687531042.556,-22.461,-40.039,-43.945,-11.230,-98.633
1687531042.560,-4.395,-45.898,-43.945,-10.742,119.141
1687531042.563,2.930,-46.875,-48.828,-13.672,154.785
1687531042.567,-5.859,-39.062,-49.805,-19.531,-92.773
1687531042.571,-21.484,-43.945,-49.316,-19.531,-6.836
1687531042.575,-9.766,-44.922,-53.711,-24.902,177.246
1687531042.579,11.230,-37.109,-55.664,-31.738,-15.137
1687531042.579,12.695,-38.574,-54.688,-31.738,-207.520
1687531042.583,-1.465,-38.574,-50.781,-20.020,-110.840
1687531042.587,-24.414,-41.016,-52.246,-14.160,-42.969
1687531042.591,-35.156,-47.852,-52.734,-22.949,-109.375
1687531042.595,-23.438,-44.434,-51.270,-30.273,-151.855
1687531042.599,-16.602,-45.410,-56.641,-24.902,-13.672
1687531042.603,-25.879,-52.246,-58.594,-16.602,388.184
1687531042.606,-42.480,-50.293,-56.641,-24.414,206.055
1687531042.610,-37.598,-44.922,-55.176,-32.227,-170.898
1687531042.614,-18.066,-44.922,-54.199,-26.367,-165.039
1687531042.618,-13.672,-45.410,-54.688,-28.809,-128.418
1687531042.622,-22.461,-43.457,-54.199,-33.203,-197.754
1687531042.640,-43.945,-47.852,-54.199,-22.461,-176.270
1687531042.644,-46.875,-48.340,-52.734,-18.555,-95.703
1687531042.648,-23.438,-45.898,-52.734,-21.973,-205.566
1687531042.652,-12.207,-48.828,-56.152,-21.973,-232.910
1687531042.656,-19.531,-45.410,-54.688,-23.926,-168.945
1687531042.660,-38.086,-41.992,-51.758,-16.602,23.438
1687531042.664,-41.992,-39.551,-48.828,-16.113,106.934
1687531042.667,-21.484,-40.527,-44.434,-14.160,-29.785
1687531042.671,-4.395,-41.016,-44.434,-15.137,-149.902
1687531042.675,-11.230,-41.504,-46.875,-7.812,229.492
1687531042.679,-38.574,-45.410,-49.316,-0.488,469.238
1687531042.683,-46.387,-43.945,-49.316,-20.020,57.129
1687531042.684,-26.855,-48.828,-48.340,-33.691,-145.508
1687531042.688,-17.090,-48.828,-49.316,-28.809,-105.469
1687531042.692,-21.484,-43.945,-47.852,-19.531,-130.859
1687531042.696,-36.621,-45.410,-47.852,-16.602,-117.188
1687531042.700,-45.410,-47.363,-52.734,-25.391,-70.312
1687531042.704,-29.297,-45.410,-52.734,-30.273,17.578
1687531042.708,-18.066,-42.969,-48.828,-23.438,-22.461
1687531042.711,-28.809,-46.875,-58.105,-34.668,-174.805
1687531042.715,-48.828,-45.898,-60.547,-41.016,-78.613
1687531042.719,-56.152,-41.992,-53.223,-26.367,250.488
1687531042.723,-33.691,-38.574,-52.734,-31.250,45.410
1687531042.727,-8.301,-38.086,-51.758,-28.809,-243.164
1687531042.729,-5.859,-37.109,-51.270,-20.508,-169.922
1687531042.733,-22.461,-37.598,-55.176,-21.973,-130.859
1687531042.737,-37.109,-42.969,-55.664,-22.461,-153.809
1687531042.741,-23.438,-45.410,-53.223,-24.902,-180.176
1687531042.745,0.488,-43.457,-48.828,-28.809,-146.484
1687531042.749,3.418,-36.621,-42.480,-19.043,-39.551
1687531042.753,-9.277,-33.691,-46.387,-15.137,-43.945
1687531042.756,-25.879,-39.551,-52.734,-20.020,-93.750
1687531042.760,-22.461,-41.016,-52.734,-20.020,206.543
1687531042.764,-3.418,-33.691,-53.223,-14.160,330.078
1687531042.768,-0.977,-29.297,-52.246,-9.766,-70.801
1687531042.772,-15.137,-31.738,-55.176,-14.648,-122.559
1687531042.774,-33.691,-36.621,-56.641,-21.484,27.832
1687531042.778,-26.367,-36.133,-55.664,-27.344,-131.348
1687531042.782,-3.418,-29.785,-58.105,-32.227,-292.480
1687531042.786,4.883,-32.715,-58.105,-28.320,-196.777
1687531042.790,-1.465,-35.645,-52.734,-15.625,-114.258
1687531042.794,-18.555,-35.156,-47.363,-6.836,7.812
1687531042.798,-22.949,-37.598,-51.758,-11.719,87.402
1687531042.801,-3.418,-34.668,-51.270,-15.625,25.391
1687531042.805,9.277,-28.320,-47.852,-9.766,224.609
1687531042.809,-3.418,-26.855,-45.898,-9.766,117.676
1687531042.813,-26.855,-28.809,-44.434,-23.438,-56.641
1687531042.817,-25.391,-35.156,-40.527,-23.926,-64.453
1687531042.855,5.371,-41.504,-40.527,-10.254,-86.426
1687531042.859,12.207,-35.156,-45.898,-23.926,-12.207
1687531042.863,-2.441,-28.809,-52.734,-33.691,-67.871
1687531042.867,-20.508,-29.297,-56.152,-34.180,27.344
1687531042.871,-24.902,-27.832,-54.688,-33.203,76.172
1687531042.875,-11.230,-26.855,-50.781,-30.273,-2.441
1687531042.879,0.000,-27.832,-50.293,-32.715,13.672
1687531042.882,-0.488,-31.250,-51.270,-22.461,117.188
1687531042.886,-18.066,-28.320,-45.410,-11.230,135.742
1687531042.890,-24.414,-20.996,-43.457,-16.113,1.953
1687531042.894,-7.812,-26.367,-47.852,-18.555,-48.340
1687531042.898,1.465,-29.297,-45.410,-12.207,66.895
1687531042.864,-1.953,-22.461,-47.852,-4.883,-2.441
1687531042.868,-15.625,-20.996,-49.316,-8.301,-157.227
1687531042.872,-23.438,-21.973,-44.434,-10.254,-94.238
1687531042.876,-13.184,-25.879,-42.480,-20.020,4.395
1687531042.880,0.488,-29.297,-41.504,-29.297,-25.391
1687531042.884,-3.418,-29.297,-47.363,-21.973,-35.156
1687531042.888,-28.809,-28.320,-50.781,-16.113,1.465
1687531042.891,-45.410,-28.809,-48.340,-20.020,211.426
1687531042.895,-31.738,-33.203,-49.805,-27.344,73.242
1687531042.899,-10.254,-31.250,-44.922,-22.949,-188.477
1687531042.903,-10.254,-25.879,-40.527,-13.672,-101.074
1687531042.907,-23.438,-23.926,-43.945,-11.719,-54.688
1687531042.909,-30.273,-18.555,-41.016,-15.625,-59.082
1687531042.913,-22.461,-18.066,-38.086,-29.297,-115.723
1687531042.917,-8.789,-27.832,-39.551,-33.691,-115.234
1687531042.921,-6.836,-29.785,-37.109,-29.297,-72.266
1687531042.925,-24.414,-30.762,-35.156,-24.414,-59.570
1687531042.929,-43.945,-35.156,-35.645,-22.949,-46.875
1687531042.933,-31.738,-31.250,-36.621,-22.949,165.039
1687531042.936,-15.137,-29.785,-38.574,-23.438,266.602
1687531042.940,-14.648,-34.180,-41.016,-18.555,-29.785
1687531042.944,-21.973,-34.668,-40.527,-10.742,-65.918
1687531042.948,-43.457,-31.250,-39.551,-8.789,138.672
1687531042.952,-48.340,-32.715,-41.016,-15.137,21.973
1687531042.954,-26.855,-35.645,-41.016,-30.273,-224.121
1687531042.958,-22.949,-39.062,-37.109,-27.832,-194.824
1687531042.962,-35.645,-42.969,-36.621,-20.996,-76.172
1687531042.966,-53.711,-41.992,-36.133,-25.879,-76.172
1687531042.970,-47.363,-37.598,-40.527,-30.273,-175.781
1687531042.974,0.000,-28.320,-41.992,-9.277,-29.785
1687531042.978,23.926,-30.762,-25.879,9.766,195.801
1687531042.981,-9.766,-46.387,-19.043,4.883,38.086
1687531042.985,-45.898,-54.199,-22.461,-5.859,-53.223
1687531042.989,-46.387,-58.105,-14.648,-11.719,4.883
1687531042.993,-25.879,-64.453,-10.254,-8.301,37.598
1687531042.997,-19.043,-67.383,-5.371,-13.184,-125.488
1687531043.014,-27.832,-72.754,2.930,-10.742,-187.988
1687531043.018,-43.945,-78.125,9.277,2.441,-75.684
1687531043.022,-62.988,-83.496,12.695,-4.883,-65.430
1687531043.026,-52.246,-87.891,18.066,-14.648,-181.641
1687531043.030,-30.273,-86.426,23.438,-2.441,-176.758
1687531043.034,-32.715,-83.984,30.762,16.113,-10.742
1687531043.038,-53.711,-84.473,36.133,14.160,58.594
1687531043.041,-75.684,-89.844,35.645,0.488,-86.914
1687531043.045,-60.547,-95.703,42.969,1.465,-191.895
1687531043.049,-43.457,-94.727,51.270,9.277,121.582
1687531043.053,-47.363,-97.168,52.734,6.836,314.453
1687531043.057,-72.266,-103.516,57.617,1.953,-44.434
1687531043.059,-88.867,-102.051,63.477,-3.906,-151.855
1687531043.063,-66.895,-102.051,69.336,-6.836,-27.344
1687531043.067,-54.688,-105.957,78.613,-9.766,-83.496
1687531043.071,-59.570,-107.910,78.125,-15.625,-117.188
1687531043.075,-72.754,-111.816,69.824,-9.277,-103.027
1687531043.079,-89.355,-108.887,71.777,-8.789,-29.785
1687531043.083,-80.566,-107.910,73.242,-14.648,-54.688
1687531043.086,-63.477,-108.398,70.312,-18.066,-186.523
1687531043.090,-58.594,-104.492,68.848,-13.184,-55.176
1687531043.094,-61.035,-102.539,65.430,0.000,255.371
1687531043.098,-68.359,-97.168,59.570,-4.883,62.988
1687531043.102,-53.711,-94.727,61.035,-6.836,-110.840
1687531043.105,-37.598,-94.238,61.523,-2.930,-1.465
1687531043.109,-39.062,-91.309,55.664,5.859,-33.203
1687531043.113,-40.527,-90.332,53.711,19.043,-123.535
1687531043.117,-60.059,-90.332,53.711,14.160,-85.938
1687531043.121,-51.270,-84.961,49.316,1.953,32.227
1687531043.125,-20.996,-80.078,44.922,6.836,40.039
1687531043.129,-16.602,-77.637,42.969,15.625,-6.348
1687531043.132,-26.855,-77.637,37.109,18.066,-55.176
1687531043.136,-38.086,-79.590,34.180,25.879,150.879
1687531043.140,-35.645,-75.684,27.832,12.207,291.016
1687531043.144,-16.113,-70.801,23.926,-1.953,-105.957
1687531043.148,-6.348,-65.430,26.855,2.441,-116.699
1687531043.164,-19.043,-62.500,18.555,11.719,163.086
1687531043.168,-39.062,-59.570,7.324,7.812,-52.734
1687531043.172,-30.762,-56.641,4.883,-7.324,-179.688
1687531043.176,-11.719,-58.594,0.000,-13.184,-53.711
1687531043.180,3.418,-51.758,-1.953,-2.930,-7.324
1687531043.184,-1.953,-45.410,-4.883,-10.742,5.371
1687531043.188,-32.227,-48.340,-13.184,-18.066,-51.758
1687531043.191,-40.527,-53.223,-14.160,-6.836,20.020
1687531043.195,-21.484,-53.223,-8.789,5.859,226.074
1687531043.199,-7.324,-44.434,-8.789,-2.441,14.160
1687531043.203,-13.672,-42.969,-14.160,-13.672,-139.648
1687531043.207,-32.715,-43.945,-11.230,-16.113,-103.027
1687531043.194,-39.551,-41.016,-8.301,-13.184,-126.465
1687531043.198,-20.020,-37.598,-11.230,-0.488,-111.328
1687531043.202,-5.371,-39.551,-17.090,-3.906,-117.188
1687531043.206,-19.531,-43.945,-22.461,-9.766,-50.293
1687531043.210,-46.875,-44.922,-26.855,-12.207,-60.547
1687531043.214,-53.223,-44.922,-30.762,-28.320,-29.297
1687531043.218,-37.598,-47.363,-29.297,-38.086,15.137
1687531043.221,-24.902,-45.898,-31.250,-39.551,234.375
1687531043.225,-21.484,-42.480,-28.809,-29.297,342.285
1687531043.229,-39.551,-41.016,-24.414,-26.855,-30.273
1687531043.233,-52.734,-39.062,-27.344,-35.156,-135.254
1687531043.237,-40.527,-40.527,-29.785,-41.504,63.965
1687531043.240,-27.344,-35.156,-21.973,-35.156,-72.754
1687531043.244,-23.438,-33.203,-22.461,-30.762,-195.801
1687531043.248,-39.551,-33.691,-23.438,-28.809,-71.777
1687531043.252,-56.152,-31.250,-23.438,-26.855,-115.723
1687531043.256,-41.992,-35.645,-29.297,-32.715,-209.473
1687531043.260,-20.020,-36.133,-29.297,-25.391,-88.867
1687531043.264,-14.160,-32.227,-28.320,-17.090,115.234
1687531043.267,-31.738,-31.738,-28.320,-10.254,284.180
1687531043.271,-54.199,-37.598,-27.344,-16.602,56.152
1687531043.275,-52.734,-37.109,-25.879,-26.367,-110.840
1687531043.279,-36.133,-31.738,-27.832,-21.484,-64.453
1687531043.283,-31.250,-35.645,-31.738,-23.926,-20.996
1687531043.284,-37.598,-35.156,-30.762,-29.297,-138.672
1687531043.288,-54.688,-35.156,-34.668,-27.344,-205.566
1687531043.292,-47.363,-36.621,-34.668,-27.832,-64.941
1687531043.296,-21.484,-28.809,-25.879,-28.320,-51.758
1687531043.300,-15.137,-27.344,-27.344,-28.809,-186.035
1687531043.304,-19.531,-25.391,-27.832,-25.879,-110.352
1687531043.308,-41.504,-25.391,-27.832,-28.320,217.285
1687531043.311,-43.457,-26.367,-25.879,-32.227,175.781
1687531043.315,-32.227,-24.414,-24.902,-35.645,-124.512
1687531043.319,-24.902,-25.879,-27.832,-37.109,-101.074
1687531043.323,-29.785,-27.832,-30.273,-39.551,117.676
1687531043.327,-57.129,-28.809,-31.738,-49.316,75.684
1687531043.329,-58.105,-30.273,-33.203,-50.781,-118.652
1687531043.333,-28.809,-33.691,-33.691,-53.223,-145.996
1687531043.337,-9.766,-30.762,-34.180,-47.852,-141.113
1687531043.341,-10.742,-29.785,-33.203,-38.086,-129.883
1687531043.345,-32.715,-33.203,-31.738,-38.086,-167.969
1687531043.349,-36.621,-34.180,-30.762,-43.945,5.859
1687531043.353,-5.371,-30.762,-29.297,-46.387,255.371
1687531043.356,6.348,-28.809,-31.738,-40.039,20.996
1687531043.360,-16.113,-28.809,-34.180,-35.645,-165.527
1687531043.364,-51.270,-30.273,-37.109,-40.527,-43.457
1687531043.368,-60.547,-30.762,-35.156,-35.645,5.371
1687531043.372,-43.457,-31.738,-26.367,-31.250,-109.863
1687531043.376,-28.320,-35.156,-28.320,-37.109,-138.184
1687531043.380,-25.391,-34.668,-27.344,-35.156,-77.637
1687531043.384,-45.898,-33.691,-24.414,-32.715,-73.730
1687531043.388,-62.988,-38.086,-25.879,-41.504,-199.707
1687531043.392,-51.758,-39.062,-28.320,-34.180,-199.707
1687531043.396,-37.109,-32.227,-28.320,-31.250,0.000
1687531043.400,-37.598,-29.785,-28.320,-40.039,90.332
1687531043.403,-54.688,-32.227,-29.297,-42.969,1.953
1687531043.407,-71.289,-34.668,-28.320,-50.781,-38.574
1687531043.411,-53.223,-34.180,-29.785,-45.410,252.930
1687531043.415,-33.691,-28.320,-28.320,-32.715,309.570
1687531043.419,-40.039,-24.902,-27.832,-37.109,-101.562
1687531043.449,-56.641,-26.855,-30.762,-35.645,-158.691
1687531043.453,-71.289,-28.809,-31.250,-41.016,-62.988
1687531043.457,-60.547,-32.715,-30.762,-60.059,-39.062
1687531043.461,-42.480,-28.320,-27.832,-61.035,-87.891
1687531043.465,-37.598,-27.832,-29.785,-57.617,-103.516
1687531043.469,-50.781,-35.645,-38.574,-51.758,209.473
1687531043.473,-65.430,-34.668,-41.992,-53.223,213.379
1687531043.476,-57.617,-30.762,-37.109,-57.129,-87.891
1687531043.480,-35.645,-30.762,-28.809,-42.480,-98.145
1687531043.484,-27.832,-30.762,-29.297,-33.691,77.637
1687531043.488,-43.457,-31.250,-30.762,-39.551,-71.777
1687531043.492,-60.547,-26.855,-26.855,-41.016,-142.090
1687531043.479,-53.711,-21.484,-26.855,-41.992,-67.871
1687531043.483,-35.156,-24.902,-30.273,-40.039,-112.305
1687531043.487,-33.691,-29.785,-35.156,-43.945,-130.859
1687531043.491,-49.805,-28.320,-36.133,-34.668,-96.680
1687531043.495,-60.059,-24.414,-27.832,-27.344,42.480
1687531043.499,-55.664,-29.785,-30.273,-45.410,117.676
1687531043.503,-47.852,-30.273,-37.109,-49.805,27.832
1687531043.506,-37.598,-28.320,-30.762,-36.133,45.410
1687531043.510,-34.668,-25.391,-25.879,-21.484,176.270
1687531043.514,-57.617,-26.855,-33.203,-27.832,93.262
1687531043.518,-62.500,-32.227,-38.574,-44.922,-50.293
1687531043.522,-41.016,-33.203,-36.621,-45.898,-91.309
1687531043.524,-27.344,-28.320,-33.691,-30.273,129.395
1687531043.528,-30.762,-24.414,-27.344,-16.113,240.723
1687531043.532,-53.223,-24.902,-22.949,-15.625,1.465
1687531043.536,-60.547,-28.320,-30.273,-18.555,-89.355
1687531043.540,-37.109,-28.809,-28.809,-20.020,-111.816
1687531043.544,-27.344,-29.297,-26.855,-21.973,-46.387
1687531043.548,-33.203,-31.250,-30.273,-33.203,-45.898
1687531043.551,-48.828,-29.297,-28.809,-34.180,-9.766
1687531043.555,-61.523,-25.879,-26.367,-26.367,236.328
1687531043.559,-37.598,-28.320,-26.367,-23.438,74.219
1687531043.563,-18.555,-30.273,-28.320,-25.879,-237.305
1687531043.567,-22.949,-27.344,-23.926,-26.855,-201.172
1687531043.570,-40.527,-27.344,-19.043,-23.926,-137.207
1687531043.574,-52.246,-30.273,-19.043,-27.344,-141.113
1687531043.578,-30.273,-23.926,-18.066,-25.391,-117.676
1687531043.582,-20.508,-23.438,-17.578,-30.762,-59.570
1687531043.586,-17.090,-36.133,-17.090,-15.625,-71.289
1687531043.590,-4.395,-30.273,-9.766,24.902,5.371
1687531043.594,-19.043,-8.789,-18.066,6.836,-0.977
1687531043.597,-27.344,-6.836,-29.785,-33.691,71.289
1687531043.601,-26.855,-12.695,-33.691,-49.805,149.902
1687531043.605,-32.715,-8.789,-42.480,-61.035,-5.371
1687531043.609,-53.711,-2.930,-55.176,-68.848,0.000
1687531043.613,-89.844,0.488,-67.871,-77.637,198.730
1687531043.615,-88.379,5.859,-76.660,-89.355,38.574
1687531043.619,-65.918,12.207,-82.031,-101.074,-236.816
1687531043.623,-59.082,12.695,-92.285,-104.492,-161.133
1687531043.627,-71.777,15.137,-103.516,-104.980,-102.051
1687531043.631,-90.332,20.508,-112.793,-114.258,-156.250
1687531043.635,-79.102,25.879,-120.117,-120.605,-115.723
1687531043.639,-58.594,32.227,-121.582,-118.164,13.184
1687531043.642,-54.688,33.203,-130.371,-117.188,203.613
1687531043.646,-62.012,35.645,-140.625,-120.117,11.230
1687531043.650,-77.637,38.574,-144.043,-131.836,-147.949
1687531043.654,-76.660,38.574,-145.508,-142.090,-40.039
1687531043.658,-55.664,41.504,-147.949,-141.602,13.184
1687531043.661,-42.480,46.875,-150.879,-129.395,-51.270
1687531043.665,-54.688,49.805,-155.273,-125.977,-161.621
1687531043.669,-70.801,48.340,-158.691,-120.117,12.695
1687531043.673,-65.430,52.246,-158.203,-127.930,-3.418
1687531043.677,-49.805,50.781,-155.762,-139.648,-131.836
1687531043.681,-34.180,43.945,-152.344,-120.117,-67.383
1687531043.685,-40.039,41.504,-145.996,-107.422,197.266
1687531043.688,-59.570,36.133,-140.137,-94.727,160.645
1687531043.692,-51.270,31.250,-132.812,-90.332,-155.273
1687531043.696,-35.156,32.227,-126.465,-94.238,-45.410
1687531043.700,-25.879,28.320,-119.141,-74.707,117.676
1687531043.704,-20.020,21.973,-113.281,-71.289,-59.082
1687531043.706,-38.086,23.438,-111.328,-88.379,-204.590
1687531043.710,-54.688,21.484,-103.027,-83.008,-141.602
1687531043.714,-36.621,20.996,-91.797,-77.637,-122.559
1687531043.718,-24.414,14.648,-93.262,-76.660,-145.996
1687531043.722,-19.043,8.301,-90.820,-74.219,-186.035
1687531043.726,-36.621,7.812,-85.449,-67.871,-80.078
1687531043.730,-50.781,9.766,-87.402,-66.895,367.676
1687531043.733,-31.250,9.277,-85.449,-68.359,165.039
1687531043.737,-9.277,10.742,-79.102,-64.453,-185.547
1687531043.741,-8.789,10.254,-72.266,-64.453,-121.582
1687531043.745,-30.273,7.812,-67.383,-63.477,-93.750
1687531043.749,-43.457,4.883,-69.336,-58.594,-112.305
1687531043.764,-31.250,2.441,-66.406,-59.082,-134.277
1687531043.768,-14.160,5.371,-59.082,-56.152,-116.211
1687531043.772,-17.578,7.324,-50.781,-47.852,-98.145
1687531043.776,-40.527,4.395,-51.758,-39.551,-88.867
1687531043.780,-53.223,1.465,-54.688,-40.527,-105.469
1687531043.784,-38.086,-0.977,-52.246,-38.086,111.816
1687531043.788,-25.879,-3.906,-51.270,-35.645,191.406
1687531043.791,-23.926,-0.977,-49.316,-34.668,-94.238
1687531043.795,-36.133,-6.836,-53.223,-36.621,-162.109
1687531043.799,-52.734,-13.672,-52.734,-36.133,175.781
1687531043.803,-37.598,-6.836,-46.387,-38.086,200.684
1687531043.807,-16.602,-4.395,-45.410,-49.805,-131.348
1687531043.809,-20.508,-10.254,-46.875,-50.293,-161.621
1687531043.813,-35.156,-12.695,-48.828,-46.387,-117.676
1687531043.817,-46.387,-13.184,-44.922,-41.016,-107.422
1687531043.821,-40.039,-15.137,-42.480,-41.504,-132.812
1687531043.825,-20.508,-10.742,-41.992,-36.133,-111.328
1687531043.829,-8.789,-12.207,-41.504,-30.273,15.137
1687531043.833,-21.484,-14.160,-42.480,-36.133,60.547
1687531043.836,-48.340,-14.160,-41.016,-47.363,49.316
1687531043.840,-47.363,-11.230,-34.668,-49.805,44.434
1687531043.844,-31.250,-14.648,-33.691,-40.039,160.645
1687531043.848,-24.414,-14.648,-36.621,-33.203,-44.434
1687531043.852,-26.367,-11.719,-35.645,-27.344,-178.711
1687531043.854,-48.828,-17.578,-37.109,-38.574,-68.848
1687531043.858,-62.012,-22.461,-36.621,-44.922,-110.840
1687531043.862,-35.156,-20.508,-34.668,-40.527,-140.137
1687531043.866,-15.137,-13.184,-31.738,-38.574,-167.480
1687531043.870,-20.996,-10.254,-27.832,-28.320,-111.816
1687531043.874,-46.387,-14.160,-28.809,-27.832,33.691
1687531043.878,-51.270,-15.137,-29.297,-36.133,-57.129
1687531043.881,-26.855,-14.648,-25.879,-49.316,-205.078
1687531043.885,-19.043,-20.996,-25.879,-31.738,110.840
1687531043.889,-25.879,-20.508,-27.832,-10.254,332.520
1687531043.893,-53.711,-23.926,-28.320,-41.504,83.496
1687531043.897,-64.941,-26.367,-27.344,-56.641,-36.133
1687531043.899,-42.969,-17.578,-23.926,-47.363,124.023
1687531043.903,-34.180,-14.160,-24.902,-45.898,41.992
1687531043.907,-39.551,-16.113,-28.320,-33.203,-104.492
1687531043.911,-60.059,-20.508,-30.273,-39.551,-112.305
1687531043.915,-75.195,-25.879,-34.668,-60.547,-104.004
1687531043.919,-55.176,-25.879,-36.133,-54.688,-59.570
1687531043.923,-31.250,-22.461,-32.227,-54.688,-73.730
1687531043.926,-26.855,-22.949,-24.902,-56.641,-35.156
1687531043.930,-51.270,-19.043,-25.391,-40.039,244.629
1687531043.934,-66.895,-15.137,-27.344,-54.688,49.316
1687531043.938,-49.316,-15.137,-26.367,-69.824,-180.664
1687531043.942,-24.414,-13.184,-28.320,-60.059,-20.508
1687531043.944,-21.484,-15.137,-27.832,-50.781,-23.926
1687531043.948,-37.598,-19.043,-26.855,-47.363,-141.113
1687531043.952,-53.223,-13.672,-26.855,-54.688,-126.953
1687531043.956,-49.805,-9.277,-26.367,-62.500,-48.340
1687531043.960,-31.250,-11.230,-26.367,-54.688,-73.730
1687531043.964,-21.973,-11.719,-30.762,-41.992,-33.203
1687531043.968,-39.551,-10.742,-32.227,-39.062,7.324
1687531043.971,-62.012,-12.695,-26.855,-45.410,80.566
1687531043.975,-51.270,-17.090,-27.832,-48.828,167.969
1687531043.979,-34.668,-15.625,-30.762,-44.922,-7.812
1687531043.983,-29.297,-10.254,-26.367,-42.480,-150.391
1687531043.987,-33.203,-9.277,-22.461,-41.992,44.922
1687531043.991,-51.758,-12.695,-27.344,-48.828,-7.812
1687531043.995,-55.176,-18.066,-29.785,-54.688,-172.363
1687531043.999,-36.133,-18.555,-27.344,-54.199,-51.758
1687531044.003,-29.785,-16.602,-28.320,-52.246,4.883
1687531044.007,-43.457,-14.648,-29.297,-49.805,-143.555
1687531044.011,-56.641,-15.625,-28.320,-55.176,-176.270
1687531044.015,-61.035,-21.973,-26.367,-55.664,47.363
1687531044.018,-49.805,-20.020,-26.855,-46.875,289.062
1687531044.022,-33.691,-19.531,-25.879,-59.570,-17.578
1687531044.026,-36.133,-20.996,-20.508,-61.035,-248.047
1687531044.030,-66.406,-21.484,-24.414,-55.664,-145.996
1687531044.034,-70.801,-21.484,-24.414,-61.035,-58.594
1687531044.035,-46.875,-24.902,-23.438,-57.617,-28.320
1687531044.039,-31.738,-29.297,-24.902,-49.805,-84.961
1687531044.043,-38.086,-29.785,-23.926,-39.551,-36.133
1687531044.047,-59.082,-28.320,-27.344,-45.898,-34.180
1687531044.051,-59.570,-23.926,-26.855,-54.688,-46.387
1687531044.055,-38.086,-22.949,-27.344,-55.176,-42.480
1687531044.059,-32.227,-21.973,-26.855,-52.246,97.168
1687531044.062,-36.133,-26.367,-25.879,-32.715,212.402
1687531044.066,-46.875,-26.855,-28.320,-41.992,-101.562
1687531044.070,-49.316,-25.391,-25.879,-66.895,-115.234
1687531044.074,-29.297,-28.320,-24.902,-58.594,102.539
1687531044.078,-15.625,-21.973,-24.902,-50.781,-53.223
1687531044.079,-13.184,-21.484,-22.461,-54.688,-141.602
1687531044.083,-33.203,-16.602,-20.508,-49.316,-46.387
1687531044.087,-48.828,-15.137,-21.484,-41.504,-19.531
1687531044.091,-28.320,-17.578,-19.043,-39.551,-81.055
1687531044.095,-19.531,-19.043,-19.531,-50.781,-156.738
1687531044.099,-19.531,-15.625,-24.414,-46.875,18.555
1687531044.103,-35.645,-13.672,-28.809,-35.156,253.418
1687531044.106,-54.688,-19.043,-34.180,-51.270,77.637
1687531044.110,-38.574,-18.066,-32.715,-54.199,-158.691
1687531044.114,-17.090,-16.602,-32.715,-50.293,-50.781
1687531044.118,-17.578,-18.555,-31.738,-47.852,137.207
1687531044.122,-28.320,-21.484,-25.879,-34.180,-49.805
1687531044.140,-40.527,-25.391,-22.461,-38.086,-137.207
1687531044.144,-26.367,-24.414,-22.461,-53.223,-61.035
1687531044.148,0.000,-18.555,-23.926,-56.641,-122.559
1687531044.152,0.488,-19.043,-26.855,-54.199,-162.109
1687531044.156,-13.184,-21.973,-30.273,-52.246,-71.289
1687531044.160,-24.902,-22.949,-30.762,-49.805,113.281
1687531044.164,-26.367,-22.949,-32.715,-54.688,107.422
1687531044.167,-18.555,-21.973,-33.203,-51.758,-87.402
1687531044.171,-14.160,-22.461,-25.879,-39.551,-137.695
1687531044.175,-28.809,-23.926,-24.902,-32.715,218.262
1687531044.179,-50.293,-23.438,-29.297,-24.902,438.477
1687531044.183,-50.781,-21.973,-25.879,-32.715,9.766
1687531044.209,-34.180,-23.438,-24.414,-46.875,-213.867
1687531044.213,-28.809,-20.508,-22.461,-41.016,-157.227
1687531044.217,-41.504,-19.043,-18.066,-44.922,-166.504
1687531044.221,-60.059,-19.531,-19.531,-46.387,-163.086
1687531044.225,-57.129,-18.555,-19.531,-56.641,-145.508
1687531044.229,-23.438,-16.602,-19.043,-43.945,-39.062
1687531044.233,-5.371,-21.973,-14.160,-28.320,35.645
1687531044.236,-35.645,-27.832,-8.301,-35.156,-80.566
1687531044.240,-76.660,-32.227,-6.348,-31.738,-74.707
1687531044.244,-75.684,-36.621,-12.207,-31.250,192.871
1687531044.248,-43.945,-33.203,-20.508,-42.969,24.414
1687531044.252,-35.645,-35.645,-16.113,-54.688,-64.453
1687531044.230,-40.527,-34.668,-11.719,-47.363,73.730
1687531044.234,-64.941,-36.133,-19.531,-43.945,18.555
1687531044.238,-74.219,-37.109,-19.531,-53.223,-88.379
1687531044.242,-43.457,-32.227,-13.672,-41.992,-117.188
1687531044.246,-21.484,-30.273,-16.113,-29.785,-46.875
1687531044.250,-21.973,-30.762,-16.602,-30.273,11.230
1687531044.254,-40.039,-30.273,-15.625,-29.785,51.758
1687531044.257,-48.340,-26.855,-15.137,-23.926,-29.297
1687531044.261,-33.691,-26.855,-14.648,-15.625,102.539
1687531044.265,-20.020,-26.367,-18.066,-12.695,287.598
1687531044.269,-19.043,-24.414,-19.043,-24.902,-72.266
1687531044.273,-44.434,-28.320,-22.461,-33.203,-186.035
1687531044.276,-58.105,-31.738,-23.438,-35.156,-64.453
1687531044.280,-40.527,-29.785,-21.484,-38.086,-12.695
1687531044.284,-24.902,-29.297,-18.555,-40.527,-14.648
1687531044.288,-27.344,-29.297,-20.508,-32.715,-20.508
1687531044.292,-45.898,-26.367,-21.973,-27.344,49.805
1687531044.296,-62.988,-29.785,-19.531,-39.551,-26.855
1687531044.300,-51.758,-36.133,-18.066,-50.781,-68.848
1687531044.303,-34.180,-37.109,-23.926,-52.246,16.602
1687531044.307,-29.785,-35.156,-28.320,-35.645,233.398
1687531044.311,-35.156,-35.645,-25.391,-30.762,107.910
1687531044.315,-52.734,-36.133,-25.879,-43.457,-66.895
1687531044.319,-41.992,-29.297,-24.902,-39.062,-27.832
1687531044.322,-18.066,-26.367,-20.508,-26.855,-42.480
1687531044.326,-8.789,-23.926,-17.578,-32.715,-152.832
1687531044.330,-24.902,-24.902,-22.461,-36.621,-163.574
1687531044.334,-41.016,-23.438,-20.508,-40.039,46.387
1687531044.338,-28.320,-14.648,-16.113,-37.598,38.086
1687531044.342,-8.301,-11.230,-22.949,-37.109,-48.828
1687531044.346,-5.371,-14.160,-31.250,-41.504,-5.371
1687531044.349,-19.531,-16.602,-28.320,-23.438,172.852
1687531044.353,-30.762,-21.484,-25.879,-15.625,241.211
1687531044.357,-20.020,-19.043,-30.273,-29.785,-35.156
1687531044.361,-5.371,-17.578,-30.762,-31.738,-139.648
1687531044.365,-7.812,-21.973,-29.785,-20.508,23.438
1687531044.364,-13.672,-19.531,-24.414,-13.672,-40.527
1687531044.368,-27.832,-16.602,-20.996,-19.043,-186.523
1687531044.372,-34.180,-15.625,-28.320,-35.645,-112.793
1687531044.376,-15.625,-15.137,-32.227,-40.527,-83.984
1687531044.380,0.000,-13.672,-29.785,-38.086,-91.309
1687531044.384,-6.836,-9.277,-28.809,-30.762,-52.246
1687531044.388,-26.367,-10.254,-22.949,-25.391,34.180
1687531044.391,-35.645,-19.531,-24.414,-28.320,307.617
1687531044.395,-14.160,-21.484,-28.320,-28.320,105.469
1687531044.399,-1.953,-17.578,-25.391,-29.297,-198.242
1687531044.403,-14.648,-21.973,-26.855,-29.297,-144.531
1687531044.407,-42.969,-28.320,-31.738,-26.855,-126.465
1687531044.410,-50.781,-23.438,-32.715,-37.109,-156.738
1687531044.414,-27.344,-22.949,-33.203,-40.039,-122.559
1687531044.418,-13.184,-22.461,-26.855,-24.902,-81.543
1687531044.422,-20.996,-22.461,-25.391,-30.273,-122.070
1687531044.426,-39.551,-26.855,-27.344,-38.574,-119.141
1687531044.430,-52.246,-23.926,-24.414,-34.668,-30.273
1687531044.434,-39.551,-27.344,-22.461,-37.109,150.879
1687531044.437,-29.297,-31.250,-29.785,-45.898,165.527
1687531044.441,-26.855,-28.320,-31.738,-42.480,-70.801
1687531044.445,-39.062,-27.344,-31.250,-30.762,-113.281
1687531044.449,-54.199,-22.949,-35.156,-25.391,113.281
1687531044.453,-40.039,-18.555,-32.715,-24.414,10.742
1687531044.455,-22.949,-21.484,-32.227,-32.715,-262.207
1687531044.459,-19.043,-21.484,-29.785,-32.715,-113.770
1687531044.463,-35.645,-20.020,-28.809,-24.902,-38.574
1687531044.467,-51.270,-21.484,-29.297,-30.273,-106.934
1687531044.471,-39.062,-19.043,-26.855,-32.227,-119.141
1687531044.475,-20.996,-22.949,-25.391,-26.367,-18.066
1687531044.479,-17.090,-23.926,-25.879,-33.203,35.156
1687531044.482,-39.551,-18.555,-27.344,-27.832,-119.141
1687531044.486,-63.965,-17.578,-27.832,-22.949,-133.301
1687531044.490,-51.758,-18.066,-29.297,-34.180,-83.984
1687531044.494,-28.320,-16.113,-27.832,-35.156,68.848
1687531044.498,-24.902,-16.113,-26.367,-37.598,-8.301
1687531044.514,-32.715,-18.066,-28.320,-45.410,-148.926
1687531044.518,-55.664,-19.531,-25.879,-40.039,17.578
1687531044.522,-55.664,-21.973,-21.484,-32.227,37.109
1687531044.526,-33.691,-25.879,-25.391,-32.715,-99.609
1687531044.530,-30.762,-27.344,-27.344,-28.320,-101.074
1687531044.534,-45.898,-24.902,-27.832,-29.297,56.641
1687531044.538,-62.012,-21.484,-32.227,-41.992,62.012
1687531044.541,-57.129,-23.926,-34.668,-47.852,-114.258
1687531044.545,-40.527,-29.297,-35.156,-45.898,-156.738
1687531044.549,-22.461,-26.855,-33.691,-35.156,186.035
1687531044.553,-26.855,-26.367,-28.809,-23.438,293.457
1687531044.557,-50.293,-25.879,-28.320,-32.227,-64.453
1687531044.560,-52.734,-22.949,-29.785,-49.805,-116.699
1687531044.564,-33.691,-23.438,-29.785,-51.270,4.883
1687531044.568,-20.020,-20.996,-29.785,-45.410,-42.969
1687531044.572,-33.203,-20.508,-32.715,-51.758,-82.520
1687531044.576,-53.711,-21.484,-34.180,-52.734,-61.035
1687531044.580,-54.199,-22.949,-33.691,-53.711,-21.484
1687531044.584,-43.945,-24.902,-30.762,-54.199,-15.137
1687531044.587,-35.645,-24.414,-28.809,-37.598,-180.664
1687531044.591,-35.645,-25.391,-27.832,-20.508,-138.672
1687531044.595,-52.734,-26.855,-27.832,-23.438,185.059
1687531044.599,-58.594,-25.879,-24.902,-45.410,-46.387
1687531044.603,-46.387,-26.367,-25.391,-55.664,-236.328
1687531044.604,-38.574,-27.832,-28.809,-58.105,-139.160
1687531044.608,-38.086,-27.344,-27.344,-47.363,-126.465
1687531044.612,-62.988,-30.762,-27.832,-49.805,-43.945
1687531044.616,-69.824,-26.367,-31.250,-56.641,49.805
1687531044.620,-47.363,-27.832,-30.762,-54.199,86.426
1687531044.624,-38.574,-33.203,-32.227,-46.875,54.199
1687531044.628,-16.602,-21.484,-33.203,-34.668,1.465
1687531044.631,-21.973,-27.344,-20.508,-20.508,-94.238
1687531044.635,-61.035,-41.016,-14.648,-31.738,99.609
1687531044.639,-56.641,-38.086,-12.695,-40.527,232.910
1687531044.643,-36.133,-40.527,-5.371,-40.039,-58.594
1687531044.647,-40.527,-49.316,-4.395,-50.781,-63.965
1687531044.649,-62.500,-57.617,-1.953,-46.387,60.059
1687531044.653,-71.777,-61.035,9.766,-28.809,-110.840
1687531044.657,-52.734,-61.035,19.531,-34.668,-214.355
1687531044.661,-31.738,-67.383,24.902,-38.086,-121.582
1687531044.665,-36.133,-67.871,26.367,-30.762,-98.633
1687531044.669,-61.035,-67.383,30.762,-26.367,-60.059
1687531044.673,-81.543,-74.707,40.039,-23.926,12.207
1687531044.676,-71.777,-81.055,42.969,-22.949,71.777
1687531044.680,-50.293,-82.520,45.898,-8.789,271.973
1687531044.684,-45.410,-82.520,50.293,-11.230,130.371
1687531044.688,-55.176,-83.984,56.641,-15.625,-124.023
1687531044.692,-76.172,-87.402,58.105,-12.207,-105.957
1687531044.695,-73.730,-91.797,58.594,-20.508,-107.910
1687531044.699,-46.387,-87.891,67.383,-7.324,-147.461
1687531044.703,-38.574,-87.402,66.406,3.906,-145.996
1687531044.707,-51.270,-88.379,66.895,8.789,-122.070
1687531044.711,-68.848,-90.332,70.801,18.066,-118.164
1687531044.715,-57.129,-88.379,74.219,17.578,-103.516
1687531044.719,-38.574,-83.984,75.195,15.137,-44.922
1687531044.722,-34.180,-84.473,72.754,6.836,129.883
1687531044.726,-29.297,-83.984,73.730,15.625,294.434
1687531044.730,-53.223,-80.566,71.289,20.996,44.922
1687531044.734,-54.199,-80.078,69.336,17.090,-99.121
1687531044.738,-29.785,-78.125,69.336,15.625,97.168
1687531044.739,-24.902,-76.172,62.988,3.906,-11.230
1687531044.743,-33.203,-75.684,62.012,-6.836,-130.371
1687531044.747,-42.969,-73.730,56.152,-12.207,14.648
1687531044.751,-33.203,-73.242,50.293,1.465,41.016
1687531044.755,-18.555,-70.312,49.316,12.695,-112.793
1687531044.759,-8.789,-65.430,48.828,5.859,-126.465
1687531044.763,-6.836,-62.500,46.387,10.254,20.020
1687531044.766,-39.062,-60.547,36.621,24.902,206.543
1687531044.770,-54.199,-60.059,28.809,12.207,91.797
1687531044.774,-36.621,-59.570,26.855,-13.672,-36.621
1687531044.778,-27.344,-62.988,24.902,-19.043,36.133
1687531044.782,-25.879,-61.523,20.020,-7.324,23.438
1687531044.784,-43.945,-59.570,16.113,0.977,-97.168
1687531044.788,-57.129,-62.012,13.184,-12.695,-116.211
1687531044.792,-38.574,-54.688,10.742,-19.531,-82.520
1687531044.796,-21.973,-48.828,9.766,-18.555,-144.531
1687531044.800,-24.902,-45.898,4.395,-9.766,-149.902
1687531044.804,-39.062,-41.992,3.906,-1.465,-9.766
1687531044.808,-52.734,-45.898,6.348,-9.766,228.516
1687531044.811,-40.527,-45.410,7.812,-17.578,191.895
1687531044.815,-14.160,-41.016,8.789,-20.996,-140.625
1687531044.819,-17.090,-42.480,6.348,-28.809,-65.918
1687531044.823,-34.668,-41.016,6.348,-22.461,123.535
1687531044.827,-41.504,-37.598,7.812,-0.977,-29.297
1687531044.831,-26.855,-37.109,4.395,-16.113,-105.469
1687531044.835,-15.625,-38.086,-2.441,-41.016,0.977
1687531044.839,-19.531,-34.180,-3.906,-28.320,11.230
1687531044.843,-34.180,-31.738,-5.371,-24.414,-94.238
1687531044.847,-54.688,-30.273,-4.395,-33.691,-148.926
1687531044.851,-46.875,-29.297,-8.789,-24.902,-54.688
1687531044.855,-27.832,-31.250,-10.742,-18.555,166.016
1687531044.858,-22.461,-32.715,-9.766,-14.160,1.465
1687531044.862,-30.273,-34.668,-10.742,-11.719,-201.660
1687531044.866,-54.199,-32.227,-13.184,-23.438,-119.141
1687531044.870,-49.316,-26.855,-12.207,-31.250,-29.297
1687531044.874,-25.391,-25.879,-9.766,-40.039,-118.652
1687531044.905,-26.855,-29.785,-14.648,-48.340,-146.973
1687531044.909,-39.551,-30.762,-12.695,-49.805,-58.594
1687531044.913,-57.129,-29.297,-12.695,-50.293,-3.906
1687531044.917,-60.547,-35.645,-19.043,-49.805,-64.941
1687531044.921,-39.551,-37.598,-19.531,-36.133,-216.309
1687531044.925,-22.461,-30.762,-22.461,-30.762,17.090
1687531044.929,-22.461,-29.297,-22.461,-34.180,220.215
1687531044.932,-43.945,-27.344,-19.043,-39.062,-90.332
1687531044.936,-48.340,-28.809,-21.484,-46.387,-129.395
1687531044.940,-33.203,-30.273,-21.973,-37.598,215.332
1687531044.944,-27.344,-28.320,-22.461,-32.715,215.332
1687531044.948,-32.227,-28.320,-24.902,-41.992,-75.684
1687531044.934,-53.223,-28.320,-31.250,-44.434,-144.531
1687531044.938,-58.105,-31.738,-34.668,-48.828,-133.301
1687531044.942,-37.109,-34.180,-30.762,-49.316,-157.227
1687531044.946,-15.137,-32.227,-29.785,-35.645,-195.312
1687531044.950,-13.184,-31.250,-26.855,-44.434,-141.113
1687531044.954,-36.133,-34.668,-29.297,-53.223,-58.594
1687531044.958,-33.203,-27.344,-32.227,-59.570,-53.711
1687531044.961,-12.695,-23.926,-27.832,-63.965,-97.656
1687531044.965,-13.672,-22.461,-25.391,-53.711,-101.074
1687531044.969,-24.902,-23.438,-24.902,-41.504,-72.266
1687531044.973,-47.852,-28.320,-26.855,-37.598,-95.215
1687531044.977,-64.941,-30.273,-32.715,-48.828,-151.367
1687531044.979,-47.363,-32.715,-31.250,-46.387,-62.012
1687531044.983,-25.879,-27.344,-22.949,-22.949,193.359
1687531044.987,-28.320,-23.926,-21.484,-26.367,-18.066
1687531044.991,-47.363,-28.320,-24.414,-44.434,-177.734
1687531044.995,-61.035,-28.320,-23.438,-40.039,-69.336
1687531044.999,-57.129,-31.250,-24.902,-41.016,-39.062
1687531045.003,-48.828,-33.691,-21.484,-39.551,-15.625
1687531045.006,-43.945,-27.832,-20.996,-33.203,-75.195
1687531045.010,-52.734,-25.391,-20.996,-25.391,124.512
1687531045.014,-73.730,-26.367,-19.531,-13.184,464.844
1687531045.018,-63.477,-22.949,-21.484,-25.391,177.246
1687531045.022,-37.109,-22.461,-26.855,-36.621,-111.328
1687531045.024,-38.574,-29.785,-29.785,-26.367,-72.754
1687531045.028,-56.152,-31.738,-27.832,-38.086,-127.441
1687531045.032,-71.777,-28.809,-25.879,-48.340,-168.945
1687531045.036,-67.871,-30.762,-26.855,-53.223,-163.574
1687531045.040,-53.223,-34.180,-22.949,-59.570,-138.184
1687531045.044,-49.316,-36.133,-22.949,-51.758,-61.523
1687531045.048,-62.500,-35.645,-26.855,-51.270,-68.359
1687531045.051,-74.707,-34.668,-23.438,-46.387,-47.363
1687531045.055,-62.500,-30.273,-22.461,-31.738,211.426
1687531045.059,-36.133,-26.855,-28.320,-27.344,56.152
1687531045.063,-24.902,-23.926,-32.227,-24.902,-139.648
1687531045.067,-30.273,-22.461,-27.344,-22.461,-16.602
1687531045.069,-50.293,-26.855,-23.438,-30.762,-14.648
1687531045.073,-55.176,-28.809,-25.391,-41.992,-108.887
1687531045.077,-40.039,-28.809,-24.414,-47.363,-133.789
1687531045.081,-33.203,-29.785,-24.902,-40.039,-32.227
1687531045.085,-34.668,-22.461,-21.973,-34.668,-59.082
1687531045.089,-58.105,-23.438,-22.949,-38.574,-103.516
1687531045.093,-69.336,-30.273,-28.320,-47.852,-108.887
1687531045.096,-49.805,-31.738,-29.297,-45.898,28.809
1687531045.100,-36.621,-29.785,-30.273,-43.945,149.414
1687531045.104,-32.715,-30.762,-33.691,-47.363,-28.809
1687531045.108,-50.293,-32.227,-31.738,-39.062,-115.723
1687531045.112,-64.941,-31.738,-33.691,-32.715,59.570
1687531045.115,-49.316,-29.785,-36.133,-42.969,28.809
1687531045.119,-38.086,-31.738,-30.762,-61.035,-203.125
1687531045.123,-41.504,-29.297,-32.227,-53.223,-120.605
1687531045.127,-54.688,-28.320,-32.715,-28.320,21.484
1687531045.131,-64.941,-28.320,-32.227,-30.762,-140.137
1687531045.135,-48.828,-28.320,-30.273,-41.016,-95.215
1687531045.139,-30.762,-27.344,-23.438,-34.668,48.828
1687531045.142,-30.762,-25.391,-20.508,-21.973,205.078
1687531045.146,-50.781,-28.320,-14.648,-17.090,46.387
1687531045.150,-64.453,-31.250,-19.531,-30.273,-180.664
1687531045.154,-42.969,-30.273,-25.391,-30.762,-138.672
1687531045.158,-27.344,-32.715,-28.320,-22.949,-91.309
1687531045.161,-21.484,-30.273,-30.762,-23.926,-33.691
1687531045.165,-34.180,-23.926,-30.273,-28.320,-17.090
1687531045.169,-54.688,-24.902,-28.320,-31.738,74.707
1687531045.173,-41.016,-26.367,-27.832,-27.832,3.418
1687531045.177,-19.043,-18.555,-24.902,-28.320,-56.152
1687531045.181,-21.484,-17.578,-21.973,-31.250,93.262
1687531045.185,-38.086,-24.414,-22.461,-28.809,346.680
1687531045.188,-55.176,-23.438,-20.508,-18.066,341.797
1687531045.192,-48.340,-26.367,-20.508,-28.809,-73.730
1687531045.196,-33.203,-30.762,-20.508,-36.133,-37.598
1687531045.200,-33.691,-33.691,-24.414,-37.598,186.523
1687531045.204,-44.922,-34.668,-31.250,-30.762,16.602
1687531045.205,-62.988,-28.320,-31.250,-28.809,-146.973
1687531045.209,-58.105,-25.391,-34.180,-41.992,-88.867
1687531045.213,-33.691,-24.414,-39.062,-45.410,-16.113
1687531045.217,-20.508,-22.949,-34.180,-36.621,-66.406
1687531045.221,-33.691,-28.809,-24.902,-23.438,-63.477
1687531045.225,-53.223,-31.738,-23.926,-25.879,88.867
1687531045.229,-50.293,-30.762,-20.996,-32.715,310.547
1687531045.232,-50.781,-36.621,-19.531,-36.133,92.773
1687531045.236,-27.832,-38.574,-11.719,-18.555,-188.965
1687531045.240,-15.137,-31.738,-12.207,-5.859,-100.586
1687531045.244,-47.852,-17.090,-29.297,-30.762,-41.504
1687531045.248,-60.059,-14.648,-35.645,-55.664,-156.738
1687531045.264,-45.410,-17.578,-38.574,-65.918,-242.676
1687531045.268,-51.758,-15.625,-47.363,-80.566,-181.641
1687531045.272,-64.453,-14.648,-58.105,-85.938,-165.527
1687531045.276,-76.172,-12.695,-60.547,-88.867,-151.855
1687531045.280,-85.449,-4.883,-69.824,-97.168,-159.180
1687531045.284,-66.406,2.441,-81.543,-100.098,-13.184
1687531045.288,-62.988,6.836,-89.355,-111.816,62.988
1687531045.291,-73.242,12.695,-98.633,-118.652,-91.797
1687531045.295,-89.844,16.602,-108.398,-121.094,-65.918
1687531045.299,-95.215,18.066,-115.723,-121.094,242.188
1687531045.303,-72.266,23.438,-122.559,-119.629,381.348
1687531045.307,-46.875,27.832,-126.953,-118.164,31.738
1687531045.309,-41.016,25.879,-126.953,-107.422,-154.297
1687531045.313,-68.848,30.762,-132.812,-114.746,-20.996
1687531045.317,-75.195,37.598,-138.672,-123.535,-45.410
1687531045.321,-53.223,42.969,-143.555,-124.512,-142.090
1687531045.325,-55.176,42.969,-146.973,-128.906,-147.461
1687531045.329,-56.152,43.945,-147.949,-128.906,-28.320
1687531045.333,-66.895,41.504,-146.973,-117.676,77.148
1687531045.336,-83.008,39.551,-144.531,-117.188,-46.875
1687531045.340,-69.824,39.551,-153.320,-142.090,-67.383
1687531045.344,-54.688,36.133,-156.738,-136.230,237.305
1687531045.348,-48.828,34.180,-150.879,-114.258,69.336
1687531045.352,-49.805,37.109,-147.949,-115.234,-166.016
1687531045.354,-61.035,32.715,-144.531,-118.164,-40.527
1687531045.358,-54.199,22.949,-133.789,-109.375,-42.480
1687531045.362,-29.785,22.949,-126.465,-99.609,-108.887
1687531045.366,-21.484,23.926,-119.141,-83.008,-69.336
1687531045.370,-37.598,23.926,-108.887,-72.266,2.930
1687531045.374,-49.316,13.184,-110.352,-77.148,30.762
1687531045.378,-37.598,8.789,-106.934,-79.590,-35.645
1687531045.381,-10.742,9.766,-100.586,-75.684,-145.508
1687531045.385,0.488,7.812,-97.168,-58.594,97.656
1687531045.389,-16.113,11.230,-91.797,-38.574,362.793
1687531045.393,-25.391,12.207,-86.426,-47.363,49.316
1687531045.397,-16.602,8.789,-86.914,-59.570,-126.953
1687531045.399,-3.418,5.859,-84.961,-51.758,82.520
1687531045.403,7.812,6.348,-79.590,-47.852,12.695
1687531045.407,1.465,5.859,-73.730,-41.992,-87.891
1687531045.411,-23.926,1.953,-64.453,-40.527,-40.039
1687531045.415,-29.785,-0.977,-67.383,-55.664,-59.570
1687531045.419,-12.695,-2.441,-71.777,-62.500,-82.031
1687531045.423,0.488,0.977,-71.289,-62.988,-154.785
1687531045.426,-8.789,5.859,-68.359,-45.410,-86.914
1687531045.430,-29.785,3.906,-65.918,-39.551,210.938
1687531045.434,-26.367,-0.488,-65.918,-51.758,41.992
1687531045.438,-4.395,-3.906,-67.871,-51.270,-177.246
1687531045.442,12.207,-5.859,-61.035,-43.457,-88.379
1687531045.446,0.488,-5.859,-50.781,-20.020,-106.445
1687531045.450,-28.320,-11.719,-46.875,-18.066,-107.422
1687531045.454,-28.809,-16.602,-43.457,-28.320,0.977
1687531045.458,-9.766,-17.090,-40.527,-20.020,-9.277
1687531045.462,-3.418,-19.531,-38.086,-20.508,-63.965
1687531045.466,-10.742,-19.043,-38.086,-14.648,20.020
1687531045.470,-37.109,-24.902,-40.039,-17.090,54.199
1687531045.473,-50.293,-29.297,-41.504,-28.320,150.879
1687531045.477,-26.367,-24.414,-40.039,-26.367,220.703
1687531045.481,-6.836,-24.414,-43.457,-36.133,-11.230
1687531045.485,-7.812,-30.273,-46.387,-40.527,-102.539
1687531045.489,-24.902,-28.809,-43.945,-25.391,124.512
1687531045.489,-40.527,-25.391,-39.551,-25.879,26.855
1687531045.493,-25.391,-31.250,-35.645,-32.715,-217.773
1687531045.497,-1.953,-34.668,-35.156,-33.203,-177.734
1687531045.501,-2.441,-32.227,-34.668,-31.738,-87.891
1687531045.505,-27.832,-29.785,-33.203,-36.621,-50.781
1687531045.509,-45.410,-29.785,-31.738,-38.574,-26.367
1687531045.513,-42.480,-27.832,-34.180,-43.945,24.902
1687531045.516,-27.832,-27.832,-31.738,-33.203,249.023
1687531045.520,-15.625,-26.855,-27.344,-20.996,141.113
1687531045.524,-27.344,-22.461,-22.461,-19.043,-153.809
1687531045.528,-42.480,-25.391,-23.926,-30.762,-125.488
1687531045.532,-28.320,-28.320,-31.250,-42.480,-143.555
1687531045.534,-12.695,-27.344,-31.738,-34.668,-199.219
1687531045.538,-11.719,-27.344,-31.250,-27.344,-196.289
1687531045.542,-27.344,-27.344,-34.180,-19.531,-108.887
1687531045.546,-49.805,-25.391,-34.180,-26.367,-40.527
1687531045.550,-39.062,-22.949,-34.180,-41.992,-58.594
1687531045.554,-22.949,-19.531,-40.039,-41.504,-8.301
1687531045.558,-21.973,-18.066,-38.574,-42.480,170.410
1687531045.561,-35.645,-18.555,-38.086,-54.688,292.480
1687531045.565,-55.176,-20.508,-36.621,-60.547,-18.555
1687531045.569,-57.129,-24.902,-33.203,-72.754,-110.352
1687531045.573,-43.457,-23.926,-33.691,-73.242,139.648
1687531045.577,-30.273,-27.344,-34.180,-60.059,87.891
1687531045.579,-45.410,-30.273,-37.109,-64.453,-180.176
1687531045.583,-71.777,-29.785,-37.598,-52.734,-124.023
1687531045.587,-62.988,-31.250,-34.668,-54.199,-77.637
1687531045.591,-40.527,-32.227,-36.621,-70.801,-187.500
1687531045.595,-34.180,-33.203,-42.480,-71.777,-219.238
1687531045.599,-42.969,-33.691,-45.898,-63.477,27.344
1687531045.603,-68.359,-36.133,-45.410,-63.965,316.406
1687531045.606,-74.219,-36.133,-41.992,-75.684,18.066
1687531045.610,-55.176,-35.645,-39.551,-67.871,-182.617
1687531045.614,-51.758,-33.203,-35.156,-48.828,-13.672
1687531045.618,-60.059,-35.645,-31.738,-35.156,63.965
1687531045.622,-78.125,-41.016,-38.086,-41.504,-89.844
1687531045.639,-89.844,-39.551,-42.480,-63.965,-166.016
1687531045.643,-75.684,-34.180,-36.133,-71.289,-145.508
1687531045.647,-57.129,-33.203,-31.738,-68.359,-144.043
1687531045.651,-56.641,-33.691,-31.738,-63.965,-101.562
1687531045.655,-76.660,-33.691,-31.250,-61.523,-75.684
1687531045.659,-80.566,-34.180,-29.297,-59.082,4.883
1687531045.663,-57.129,-29.297,-31.250,-59.570,-70.801
1687531045.666,-48.340,-26.367,-32.715,-66.895,-223.145
1687531045.670,-56.152,-29.297,-33.691,-60.059,-189.453
1687531045.674,-78.613,-29.785,-31.250,-47.363,171.875
1687531045.678,-93.262,-32.715,-28.809,-66.406,334.473
1687531045.682,-76.172,-31.250,-33.203,-88.379,56.641
1687531045.684,-66.895,-31.250,-34.180,-88.867,-50.293
1687531045.688,-67.383,-32.715,-34.668,-90.332,47.852
1687531045.692,-76.172,-31.250,-37.109,-95.215,-23.926
1687531045.696,-83.496,-29.785,-42.969,-86.914,-99.609
1687531045.700,-62.500,-29.297,-40.039,-86.426,-39.062
1687531045.704,-34.668,-24.902,-31.738,-81.543,65.430
1687531045.708,-23.926,-21.484,-29.785,-78.613,-1.465
1687531045.711,-32.227,-22.949,-29.297,-81.055,-121.582
1687531045.715,-44.922,-17.090,-29.297,-63.965,-100.586
1687531045.719,-41.504,-21.973,-31.250,-48.828,204.590
1687531045.723,-28.320,-33.203,-31.250,-42.480,72.266
1687531045.727,-25.391,-28.320,-27.344,-33.691,-219.727
1687531045.730,-42.969,-25.879,-28.809,-36.621,-118.652
1687531045.734,-65.918,-26.855,-36.133,-51.270,11.719
1687531045.738,-53.711,-28.809,-36.133,-62.500,-40.527
1687531045.742,-35.156,-28.809,-32.227,-56.152,-149.414
1687531045.746,-41.992,-25.879,-31.250,-37.598,-34.180
1687531045.750,-48.340,-28.320,-30.762,-31.250,71.777
1687531045.754,-64.941,-30.762,-28.320,-34.668,-38.574
1687531045.757,-66.895,-27.832,-27.832,-48.828,-163.086
1687531045.761,-41.504,-27.832,-31.738,-56.641,28.809
1687531045.765,-33.203,-31.250,-31.738,-50.781,296.875
1687531045.769,-42.480,-31.250,-29.297,-52.246,-85.938
1687531045.773,-61.035,-29.785,-30.273,-47.363,-196.777
1687531045.774,-62.500,-29.785,-26.855,-40.527,-43.457
1687531045.778,-36.621,-32.715,-29.297,-41.016,-153.809
1687531045.782,-27.832,-31.250,-33.203,-43.457,-235.352
1687531045.786,-39.062,-31.250,-33.691,-37.598,-113.281
1687531045.790,-55.176,-32.227,-35.156,-31.738,100.586
1687531045.794,-61.035,-27.344,-37.598,-31.738,108.398
1687531045.798,-41.504,-26.855,-39.551,-35.645,5.859
1687531045.801,-28.809,-32.227,-38.574,-43.457,-83.984
1687531045.805,-38.574,-32.227,-39.062,-42.969,153.809
1687531045.809,-59.082,-31.250,-37.109,-42.480,35.156
1687531045.813,-56.641,-32.227,-32.227,-47.363,-208.008
1687531045.817,-37.109,-33.203,-30.762,-54.199,-148.926
1687531045.819,-24.902,-30.762,-31.738,-48.828,-175.781
1687531045.823,-14.648,-25.391,-27.832,-36.133,-198.730
1687531045.827,-31.250,-26.367,-22.949,-24.414,-98.633
1687531045.831,-48.828,-32.715,-22.949,-32.715,-41.992
1687531045.835,-35.645,-36.621,-21.973,-40.039,-154.297
1687531045.839,-24.902,-35.156,-23.926,-36.133,-112.305
1687531045.843,-23.926,-35.645,-26.367,-28.809,-10.254
1687531045.846,-45.898,-39.551,-27.832,-24.902,193.359
