timestamps,TP9,AF7,AF8,TP10,Right AUX
1687769006.341,-56.641,-22.461,1.953,-41.992,-220.215
1687769006.345,-54.199,-20.020,-0.977,-39.062,-110.352
1687769006.349,-60.059,-23.926,-0.977,-34.180,2.441
1687769006.353,-60.547,-25.391,3.906,-39.062,-72.266
1687769006.357,-57.617,-23.926,-1.953,-37.598,-106.445
1687769006.361,-50.293,-20.508,-7.324,-25.879,40.039
1687769006.365,-45.898,-14.160,-3.906,-12.207,486.816
1687769006.368,-49.316,-11.719,-1.953,-19.043,356.445
1687769006.372,-58.105,-18.066,-6.348,-40.039,-108.398
1687769006.376,-63.965,-16.113,-13.184,-44.922,-35.156
1687769006.380,-63.477,-15.625,-7.324,-49.316,-18.555
1687769006.384,-58.105,-19.531,-9.277,-43.945,-188.965
1687769006.399,-50.781,-17.090,-11.230,-35.156,-151.855
1687769006.403,-54.199,-16.602,-3.906,-41.992,-70.312
1687769006.407,-54.688,-14.648,-3.906,-44.434,-83.496
1687769006.411,-51.758,-12.695,-1.953,-41.016,-187.500
1687769006.415,-53.223,-16.113,0.000,-40.039,-148.926
1687769006.419,-47.852,-22.949,-3.906,-34.180,219.238
1687769006.423,-47.852,-19.043,-3.906,-35.645,200.684
1687769006.426,-57.617,-18.066,2.441,-52.246,-142.090
1687769006.430,-68.359,-29.297,-5.371,-63.477,-130.859
1687769006.434,-63.477,-32.227,-14.648,-61.523,34.668
1687769006.438,-58.105,-29.297,-19.043,-59.082,28.320
1687769006.442,-66.406,-26.367,-16.113,-62.988,-113.770
1687769006.443,-70.801,-26.367,-16.113,-67.871,-163.574
1687769006.447,-73.730,-26.367,-18.066,-65.918,-60.059
1687769006.451,-73.730,-25.879,-17.090,-61.523,-224.609
1687769006.455,-62.988,-25.391,-23.438,-51.270,-287.598
1687769006.459,-67.871,-26.855,-23.926,-50.781,-83.496
1687769006.463,-76.660,-26.367,-26.855,-56.152,0.977
1687769006.467,-72.754,-25.391,-32.227,-50.781,-93.750
1687769006.470,-66.895,-22.461,-31.250,-53.223,-86.914
1687769006.474,-60.059,-24.414,-33.691,-55.664,75.684
1687769006.478,-57.617,-28.320,-33.691,-46.875,251.953
1687769006.482,-64.941,-27.344,-32.715,-54.199,20.508
1687769006.486,-68.359,-25.391,-37.109,-61.523,-110.840
1687769006.488,-65.430,-23.438,-35.645,-63.965,-82.031
1687769006.492,-60.059,-23.438,-33.691,-55.176,-129.395
1687769006.496,-56.152,-20.996,-34.180,-41.016,-87.402
1687769006.500,-59.570,-22.949,-35.156,-50.781,-66.406
1687769006.504,-61.523,-28.320,-33.691,-55.176,-45.410
1687769006.508,-60.059,-31.250,-34.180,-46.387,30.273
1687769006.512,-61.523,-29.297,-37.109,-47.852,47.852
1687769006.515,-60.547,-27.344,-36.621,-50.781,19.043
1687769006.519,-62.988,-30.273,-32.715,-47.852,325.195
1687769006.523,-70.801,-28.320,-31.738,-51.270,310.059
1687769006.527,-73.730,-27.344,-31.738,-61.523,-82.031
1687769006.531,-71.777,-28.320,-31.738,-55.664,27.344
1687769006.533,-69.824,-27.832,-30.762,-56.641,94.727
1687769006.537,-74.707,-31.250,-27.832,-64.941,-115.723
1687769006.541,-75.684,-33.203,-27.344,-65.918,-234.863
1687769006.545,-74.219,-37.109,-24.414,-61.523,-118.652
1687769006.549,-67.383,-35.156,-18.555,-57.617,-68.848
1687769006.553,-54.688,-29.785,-11.719,-55.176,-93.262
1687769006.557,-61.523,-30.762,-10.254,-56.152,-75.684
1687769006.560,-71.289,-29.785,-9.766,-52.734,88.379
1687769006.564,-75.195,-32.715,-11.719,-54.688,164.551
1687769006.568,-68.848,-33.203,-15.625,-65.430,-152.344
1687769006.572,-57.617,-25.879,-15.137,-60.547,-134.277
1687769006.576,-61.523,-22.949,-14.160,-58.105,59.082
1687769006.579,-69.336,-19.531,-7.812,-58.594,23.926
1687769006.583,-72.266,-21.484,-4.395,-63.965,-125.000
1687769006.587,-63.477,-24.414,-4.883,-65.918,-157.227
1687769006.591,-58.594,-30.273,-3.418,-53.711,-41.992
1687769006.595,-61.523,-30.273,-1.953,-58.105,-35.156
1687769006.599,-59.082,-23.438,-4.395,-62.012,-18.066
1687769006.603,-57.129,-22.461,-1.953,-52.246,30.762
1687769006.606,-55.176,-24.414,4.883,-49.805,139.160
1687769006.610,-52.246,-24.902,3.418,-49.805,-6.348
1687769006.614,-56.641,-25.879,-1.953,-50.293,-189.453
1687769006.618,-64.941,-29.297,-3.418,-61.035,-52.734
1687769006.622,-67.383,-29.785,-0.977,-60.547,226.074
1687769006.640,-69.824,-31.738,-1.953,-57.617,131.836
1687769006.644,-69.336,-32.227,-3.906,-63.965,-73.242
1687769006.648,-65.918,-30.762,0.977,-56.152,-1.953
1687769006.652,-66.406,-30.273,3.418,-55.664,-18.555
1687769006.656,-69.336,-30.273,5.371,-66.895,-128.418
1687769006.660,-70.801,-31.250,4.883,-67.383,-137.207
1687769006.664,-69.336,-30.273,8.301,-61.523,122.559
1687769006.667,-64.453,-28.809,14.160,-58.594,257.812
1687769006.671,-69.336,-28.320,9.277,-63.477,-78.125
1687769006.675,-73.730,-34.668,4.395,-73.242,-211.426
1687769006.679,-75.684,-37.598,5.371,-71.777,-127.441
1687769006.683,-71.777,-36.621,8.301,-58.105,-105.957
1687769006.669,-67.383,-37.598,8.301,-56.641,-124.512
1687769006.673,-73.242,-37.109,6.836,-62.500,-110.840
1687769006.677,-77.637,-39.062,4.395,-67.871,-107.910
1687769006.681,-71.777,-39.551,2.930,-65.430,-119.629
1687769006.685,-62.500,-36.621,6.348,-55.176,-139.648
1687769006.689,-67.383,-37.598,4.883,-55.664,0.000
1687769006.693,-68.848,-36.621,4.395,-62.012,101.074
1687769006.696,-62.988,-35.645,10.254,-55.176,-63.477
1687769006.700,-59.570,-35.645,10.254,-49.316,-184.082
1687769006.704,-54.199,-35.645,11.230,-50.293,-201.172
1687769006.708,-57.129,-35.645,7.812,-44.434,126.953
1687769006.712,-64.453,-32.227,1.465,-43.945,327.148
1687769006.714,-64.453,-29.297,1.953,-52.734,-2.930
1687769006.718,-63.965,-30.762,5.859,-52.246,-170.410
1687769006.722,-65.918,-30.762,2.930,-46.875,-141.602
1687769006.726,-65.918,-31.738,-3.906,-49.316,-177.246
1687769006.730,-73.242,-34.180,-4.883,-56.152,-151.367
1687769006.734,-83.008,-36.133,-4.883,-61.035,-61.523
1687769006.738,-86.426,-37.598,1.465,-60.547,-59.082
1687769006.741,-73.730,-37.109,5.859,-61.035,-42.969
1687769006.745,-70.312,-37.598,1.953,-76.660,-110.352
1687769006.749,-81.543,-35.156,0.488,-77.148,-5.859
1687769006.753,-91.309,-37.598,4.395,-64.941,173.340
1687769006.757,-77.148,-46.387,6.348,-50.293,-73.730
1687769006.774,-54.199,-38.086,-0.488,-36.133,-120.605
1687769006.778,-66.895,-25.391,-7.812,-63.477,-80.566
1687769006.782,-80.566,-24.414,-8.789,-82.520,-97.656
1687769006.786,-82.520,-20.508,-17.090,-81.055,-130.371
1687769006.790,-80.566,-12.207,-22.949,-94.238,-92.285
1687769006.794,-71.289,-5.371,-20.508,-97.656,88.379
1687769006.798,-68.848,0.488,-25.879,-95.703,92.773
1687769006.801,-84.473,0.977,-29.297,-106.445,30.762
1687769006.805,-89.355,-1.465,-34.668,-109.375,-20.508
1687769006.809,-85.449,4.395,-38.574,-107.422,182.129
1687769006.813,-75.684,13.184,-32.227,-114.258,216.797
1687769006.817,-68.848,19.043,-32.715,-112.305,-140.137
1687769006.819,-63.965,16.602,-41.504,-96.680,-90.820
1687769006.823,-60.059,17.090,-46.387,-104.980,62.500
1687769006.827,-62.988,26.367,-43.945,-108.887,-124.023
1687769006.831,-54.688,26.855,-40.039,-103.027,-207.031
1687769006.835,-47.852,24.902,-45.898,-106.934,-121.582
1687769006.839,-49.805,28.809,-51.758,-107.910,-62.500
1687769006.843,-57.617,29.297,-55.664,-115.234,-54.688
1687769006.846,-65.430,27.832,-58.594,-122.070,-105.469
1687769006.850,-59.570,27.832,-58.105,-112.305,8.301
1687769006.854,-46.387,31.738,-56.641,-101.074,189.941
1687769006.858,-46.875,31.738,-61.523,-110.352,26.855
1687769006.862,-47.852,26.367,-65.918,-121.094,-126.953
1687769006.864,-47.363,27.344,-65.918,-103.516,-72.266
1687769006.868,-43.457,27.832,-66.895,-96.191,-7.812
1687769006.872,-27.344,25.391,-63.477,-91.309,-56.641
1687769006.876,-21.973,24.414,-63.477,-79.102,-50.293
1687769006.880,-24.414,23.438,-67.871,-73.242,-16.602
1687769006.884,-16.113,27.344,-63.477,-64.941,-14.160
1687769006.888,-6.348,26.367,-58.594,-57.617,-65.918
1687769006.891,-1.465,19.043,-58.105,-50.293,-85.449
1687769006.895,3.906,15.625,-59.082,-45.898,154.297
1687769006.899,5.371,16.113,-60.059,-41.504,100.586
1687769006.903,-0.488,14.160,-61.523,-41.992,-111.816
1687769006.907,1.953,6.348,-67.383,-42.969,28.320
1687769006.909,7.812,1.953,-71.777,-38.574,112.793
1687769006.913,10.254,6.348,-70.312,-26.367,17.578
1687769006.917,9.277,12.695,-65.430,-28.809,-134.766
1687769006.921,5.371,9.277,-56.641,-34.668,-66.406
1687769006.925,8.301,4.883,-53.223,-24.414,13.184
1687769006.929,9.766,5.371,-55.664,-25.391,-80.566
1687769006.933,17.578,12.695,-52.246,-23.438,-102.539
1687769006.936,26.367,14.160,-51.270,-18.555,73.242
1687769006.940,22.461,7.812,-52.734,-14.160,182.617
1687769006.944,20.508,3.906,-45.410,-19.531,-106.445
1687769006.948,23.438,-0.977,-45.410,-19.531,-213.379
1687769006.952,18.555,1.953,-44.434,-8.789,-127.441
1687769006.954,13.672,3.906,-40.527,-8.301,-142.578
1687769006.958,4.883,5.859,-40.527,-9.277,-196.289
1687769006.962,-3.418,6.348,-33.203,-11.230,-72.266
1687769006.966,7.324,2.441,-38.086,-4.395,43.457
1687769006.970,23.438,0.488,-44.434,-1.953,-22.949
1687769006.974,16.113,-1.465,-41.016,-12.695,-13.672
1687769006.978,15.625,-1.465,-41.992,-20.020,8.301
1687769006.981,12.695,-5.859,-46.387,-21.484,212.402
1687769006.985,12.207,-0.977,-39.062,-17.090,125.488
1687769006.989,18.066,0.977,-38.086,-12.207,-202.148
1687769006.993,9.766,-1.953,-41.016,-13.672,41.504
1687769006.997,11.719,4.395,-32.227,-15.625,150.879
1687769006.999,14.648,1.953,-32.227,-17.090,-175.293
1687769007.003,17.578,-0.488,-35.156,-10.254,-270.508
1687769007.007,13.672,-3.418,-33.203,-12.207,-58.594
1687769007.011,9.277,-7.324,-39.062,-20.020,8.789
1687769007.015,12.207,-2.930,-38.574,-11.719,-107.422
1687769007.019,10.254,3.906,-32.715,-12.207,-134.277
1687769007.023,7.324,-1.465,-32.227,-9.277,73.730
1687769007.026,14.160,-6.836,-31.250,5.371,309.570
1687769007.030,20.996,-0.488,-27.832,4.883,4.395
1687769007.034,5.859,-6.348,-25.879,-9.766,-190.430
1687769007.038,-0.488,-8.301,-20.996,-7.324,-156.250
1687769007.042,6.348,-5.371,-18.555,-7.324,-103.027
1687769007.045,9.277,-8.789,-19.043,-2.441,-128.418
1687769007.049,9.277,-11.719,-21.973,5.859,-158.691
1687769007.053,1.953,-14.160,-29.785,2.441,-125.488
1687769007.057,2.441,-10.254,-21.484,2.441,-100.586
1687769007.061,6.348,-5.371,-16.602,-5.371,-122.559
1687769007.065,1.465,-7.324,-26.855,-8.789,-36.133
1687769007.069,5.371,-15.625,-24.414,5.859,239.258
1687769007.072,4.883,-11.719,-17.578,0.488,162.598
1687769007.076,-5.859,-11.230,-16.113,-11.719,-131.348
1687769007.080,-2.930,-19.043,-12.207,0.488,-140.625
1687769007.084,1.465,-20.508,-8.301,0.488,45.410
1687769007.088,2.930,-20.508,-11.719,-4.883,12.207
1687769007.089,8.301,-21.973,-13.672,0.488,-176.270
1687769007.093,1.465,-20.996,-6.836,-2.930,-78.613
1687769007.097,-8.789,-20.020,-3.418,-4.883,18.066
1687769007.101,-2.441,-16.113,-3.906,-7.324,-94.238
1687769007.105,-1.465,-19.531,-0.977,-13.184,-126.465
1687769007.109,-7.324,-26.855,1.465,-13.672,-0.488
1687769007.113,-12.695,-20.996,4.395,-12.207,256.348
1687769007.116,-14.160,-14.648,7.324,-17.578,59.082
1687769007.120,-14.160,-13.184,7.812,-23.926,-192.383
1687769007.124,-18.066,-14.648,7.812,-33.691,-35.156
1687769007.128,-25.879,-18.066,4.883,-40.039,17.578
1687769007.132,-33.203,-15.625,1.953,-42.969,-92.285
1687769007.149,-41.504,-16.113,3.418,-43.457,-96.191
1687769007.153,-44.434,-20.996,3.418,-43.945,-14.160
1687769007.157,-35.645,-24.414,3.418,-48.828,-56.152
1687769007.161,-27.832,-22.461,6.836,-38.574,-175.781
1687769007.165,-30.273,-24.414,2.930,-33.691,-153.809
1687769007.169,-40.039,-26.855,4.395,-35.156,-67.871
1687769007.173,-34.668,-24.902,7.812,-35.645,23.438
1687769007.176,-27.344,-24.902,10.254,-33.691,-93.262
1687769007.180,-24.414,-22.461,7.324,-23.438,-71.289
1687769007.184,-24.902,-20.020,1.953,-16.602,137.695
1687769007.188,-27.832,-20.020,4.883,-19.531,-35.156
1687769007.192,-26.367,-24.902,3.906,-27.344,-194.336
1687769007.194,-18.555,-26.367,5.859,-20.020,-7.324
1687769007.198,-16.602,-25.879,6.836,-19.043,193.848
1687769007.202,-20.508,-25.879,3.418,-33.203,-48.340
1687769007.206,-23.926,-29.297,4.883,-34.180,-180.176
1687769007.210,-28.809,-32.715,6.836,-31.250,-43.945
1687769007.214,-28.320,-29.297,6.836,-36.133,-27.344
1687769007.218,-26.367,-28.809,7.812,-27.832,-3.906
1687769007.221,-30.762,-26.367,7.812,-23.926,-104.492
1687769007.225,-41.504,-27.344,0.977,-29.297,3.418
1687769007.229,-42.480,-28.809,-0.488,-27.832,143.066
1687769007.233,-42.480,-30.762,-1.465,-35.156,-65.918
1687769007.237,-43.945,-35.645,-4.395,-34.668,-159.180
1687769007.239,-38.086,-29.785,-2.930,-21.484,-163.574
1687769007.243,-53.711,-27.832,-0.488,-28.320,-115.234
1687769007.247,-61.035,-34.668,-2.441,-43.457,-100.098
1687769007.251,-51.758,-30.273,-5.859,-42.480,-119.141
1687769007.255,-51.270,-24.902,-3.906,-41.992,-0.488
1687769007.259,-54.688,-22.461,-2.441,-42.480,39.062
1687769007.263,-64.941,-20.996,-2.441,-45.410,-38.574
1687769007.266,-61.035,-20.508,-2.441,-38.574,-97.656
1687769007.270,-65.918,-25.391,-1.465,-39.062,73.242
1687769007.274,-69.824,-23.438,-1.953,-35.645,103.027
1687769007.278,-68.359,-27.344,-2.930,-28.809,-93.262
1687769007.282,-67.383,-30.273,-5.371,-31.738,8.301
1687769007.283,-64.453,-27.344,-5.859,-38.086,74.219
1687769007.287,-60.547,-34.668,-1.465,-39.062,-40.527
1687769007.291,-46.387,-32.227,-4.395,-35.156,-93.262
1687769007.295,-54.688,-31.250,-9.277,-33.203,-37.109
1687769007.299,-65.918,-36.133,-7.324,-28.809,-39.551
1687769007.303,-66.895,-36.133,-5.859,-37.109,-27.344
1687769007.307,-67.871,-37.109,-7.812,-50.293,-27.832
1687769007.310,-60.059,-40.039,-8.301,-42.480,113.281
1687769007.314,-65.918,-39.551,-7.812,-33.691,256.836
1687769007.318,-76.660,-33.691,-3.418,-45.410,7.324
1687769007.322,-73.242,-37.598,-4.883,-48.340,-167.480
1687769007.326,-71.777,-42.969,-6.836,-49.805,-148.438
1687769007.328,-69.824,-37.598,-3.906,-51.270,-134.766
1687769007.332,-71.289,-38.086,-2.441,-46.387,-132.324
1687769007.336,-82.031,-41.016,-3.418,-48.340,-134.277
1687769007.340,-89.844,-38.086,-0.488,-55.664,-139.160
1687769007.344,-86.914,-39.551,2.930,-63.477,-111.816
1687769007.348,-81.543,-42.969,-3.906,-55.664,-75.195
1687769007.352,-78.125,-41.016,0.000,-51.270,-48.340
1687769007.355,-75.684,-37.109,4.883,-51.270,286.133
1687769007.359,-78.613,-38.574,6.348,-49.316,333.496
1687769007.363,-84.473,-41.016,5.859,-57.129,-123.535
1687769007.367,-80.078,-40.039,3.418,-53.223,-14.160
1687769007.371,-69.336,-39.551,3.418,-45.410,177.246
1687769007.373,-76.172,-38.574,3.906,-50.781,-42.969
1687769007.377,-84.961,-40.527,3.906,-58.594,-207.031
1687769007.381,-79.590,-43.457,-1.465,-63.477,-169.434
1687769007.385,-70.801,-40.527,-2.930,-65.430,-129.395
1687769007.389,-63.477,-37.109,-1.465,-63.965,-62.012
1687769007.393,-63.477,-37.598,-0.977,-55.176,-57.617
1687769007.397,-70.801,-37.598,-2.930,-56.641,64.941
1687769007.400,-70.801,-37.598,-0.977,-53.711,233.887
1687769007.404,-60.547,-31.738,6.836,-42.480,-28.320
1687769007.408,-54.688,-30.762,11.719,-42.969,-85.449
1687769007.412,-56.152,-34.668,12.207,-43.945,37.598
1687769007.416,-61.523,-31.738,15.137,-45.410,-67.871
1687769007.419,-55.664,-25.879,14.160,-53.223,-160.645
1687769007.423,-58.105,-26.855,7.324,-57.617,-81.055
1687769007.427,-60.059,-27.832,6.836,-51.758,-38.086
1687769007.431,-65.918,-31.250,3.906,-63.477,-91.797
1687769007.435,-72.266,-32.227,1.953,-64.941,-158.203
1687769007.439,-65.918,-29.785,10.254,-50.781,-75.684
1687769007.443,-62.988,-27.832,10.742,-45.898,254.883
1687769007.446,-57.129,-27.344,8.789,-42.480,152.832
1687769007.450,-54.688,-31.250,3.418,-49.316,-158.691
1687769007.454,-62.500,-33.203,2.441,-54.688,-116.699
1687769007.458,-71.289,-40.527,2.441,-53.711,7.812
1687769007.462,-72.754,-53.711,-5.859,-64.453,-34.180
1687769007.479,-70.312,-58.105,-9.766,-69.336,-133.789
1687769007.483,-73.730,-54.688,-6.348,-59.082,-44.434
1687769007.487,-82.031,-50.293,-9.277,-61.523,139.648
1687769007.491,-82.520,-49.805,-13.184,-69.824,-4.395
1687769007.495,-72.266,-51.270,-15.625,-72.754,-213.379
1687769007.499,-75.195,-53.711,-21.973,-69.824,-41.016
1687769007.503,-80.566,-58.105,-25.879,-62.500,115.234
1687769007.506,-84.473,-62.500,-23.438,-62.988,-87.402
1687769007.510,-88.867,-65.430,-23.926,-72.266,-224.121
1687769007.514,-83.008,-61.523,-20.996,-79.102,-74.707
1687769007.518,-85.938,-55.664,-18.555,-84.473,-0.488
1687769007.522,-82.520,-56.641,-22.461,-80.078,-153.320
1687769007.524,-79.590,-60.059,-21.484,-77.637,-176.758
1687769007.528,-85.938,-57.129,-18.066,-89.844,-88.867
1687769007.532,-83.008,-47.852,-19.043,-92.773,17.090
1687769007.536,-74.707,-46.387,-19.043,-82.520,-42.969
1687769007.540,-66.406,-47.363,-18.066,-68.848,-50.293
1687769007.544,-66.895,-43.945,-21.973,-70.312,75.684
1687769007.548,-72.754,-42.969,-21.484,-75.684,55.664
1687769007.551,-75.195,-43.457,-20.508,-75.684,-81.543
1687769007.555,-77.148,-43.945,-17.090,-77.637,-106.934
1687769007.559,-70.312,-49.316,-13.672,-70.312,170.410
1687769007.563,-63.965,-49.805,-14.160,-59.082,222.656
1687769007.567,-75.684,-45.898,-17.578,-68.848,-68.848
1687769007.569,-88.379,-51.270,-16.113,-81.543,-43.945
1687769007.573,-83.008,-49.805,-12.695,-73.730,78.613
1687769007.577,-81.055,-46.387,-17.090,-75.684,-44.922
1687769007.581,-83.984,-51.270,-15.137,-79.102,-131.348
1687769007.585,-83.496,-49.805,-11.719,-76.172,-19.043
1687769007.589,-88.867,-47.363,-11.719,-76.660,36.621
1687769007.593,-81.543,-42.969,-14.160,-72.266,-27.344
1687769007.596,-74.219,-40.039,-17.090,-57.129,-75.195
1687769007.600,-78.125,-41.992,-21.484,-48.828,46.387
1687769007.604,-79.102,-38.574,-19.531,-53.711,217.285
1687769007.608,-75.195,-38.574,-13.672,-60.059,-31.738
1687769007.612,-70.312,-42.969,-17.578,-62.012,-165.527
1687769007.615,-63.965,-42.480,-14.160,-54.199,-114.746
1687769007.619,-58.105,-38.086,-11.719,-54.688,-129.883
1687769007.623,-66.895,-36.621,-14.648,-62.988,-162.109
1687769007.627,-70.801,-35.645,-10.742,-60.059,-153.320
1687769007.631,-62.988,-39.551,-12.695,-56.641,-67.383
1687769007.635,-58.105,-40.039,-14.160,-48.828,22.461
1687769007.639,-58.594,-34.180,-12.695,-42.969,52.734
1687769007.642,-63.965,-34.180,-11.230,-48.828,-59.082
1687769007.646,-64.453,-34.180,-12.695,-41.504,160.156
1687769007.650,-60.059,-33.203,-15.137,-39.062,291.504
1687769007.654,-53.223,-34.668,-14.160,-55.176,9.277
1687769007.658,-52.734,-36.133,-12.207,-55.176,38.574
1687769007.660,-67.871,-38.086,-13.672,-57.617,78.613
1687769007.664,-71.289,-36.133,-12.207,-59.082,-120.117
1687769007.668,-62.500,-33.203,-4.395,-52.246,-197.266
1687769007.672,-61.035,-36.133,-4.395,-56.641,-145.020
1687769007.676,-70.312,-35.645,-8.789,-62.500,-105.469
1687769007.680,-75.684,-34.668,-7.812,-62.500,-62.012
1687769007.684,-81.055,-39.062,-7.812,-75.195,-27.344
1687769007.687,-74.219,-44.922,-11.719,-68.359,99.609
1687769007.691,-60.547,-43.457,-15.625,-57.617,161.133
1687769007.695,-62.012,-41.992,-15.625,-63.965,-19.043
1687769007.699,-64.941,-40.527,-12.207,-61.035,-171.875
1687769007.703,-65.430,-33.691,-9.277,-65.918,-127.930
1687769007.706,-62.500,-29.785,-9.766,-69.336,-81.543
1687769007.710,-62.012,-33.203,-12.207,-70.312,-153.809
1687769007.714,-61.523,-39.551,-14.648,-68.848,-122.559
1687769007.718,-63.477,-35.156,-13.184,-67.383,-98.633
1687769007.722,-72.266,-29.785,-11.230,-72.754,-98.145
1687769007.726,-72.754,-32.227,-12.207,-72.266,-62.012
1687769007.730,-69.336,-36.621,-16.113,-71.289,-46.875
1687769007.733,-72.266,-39.062,-19.043,-73.242,181.152
1687769007.737,-76.660,-38.086,-16.113,-77.637,119.629
1687769007.741,-78.613,-42.480,-13.184,-81.055,-156.250
1687769007.745,-75.684,-41.016,-13.184,-74.707,-84.961
1687769007.749,-71.777,-36.133,-15.137,-72.266,32.227
1687769007.750,-69.824,-40.527,-13.184,-70.801,-33.203
1687769007.754,-75.195,-45.410,-10.254,-65.918,-213.867
1687769007.758,-74.219,-43.945,-15.137,-60.059,-58.105
1687769007.762,-67.871,-40.527,-16.113,-53.223,111.328
1687769007.766,-61.523,-38.086,-12.695,-57.129,-89.844
1687769007.770,-58.105,-37.598,-10.742,-56.641,-43.945
1687769007.774,-61.523,-38.574,-10.742,-51.270,200.684
1687769007.777,-61.523,-35.645,-6.836,-50.293,177.734
1687769007.781,-56.641,-29.785,-2.930,-56.152,-96.191
1687769007.785,-59.082,-33.203,-4.395,-60.059,-154.297
1687769007.789,-53.711,-30.762,-13.184,-66.895,-108.398
1687769007.793,-17.578,-18.066,-27.344,-30.273,-126.953
1687769007.794,-11.719,-19.043,-20.996,-10.742,-145.508
1687769007.798,-58.105,-40.039,4.883,-51.758,-100.586
1687769007.802,-92.773,-43.945,11.230,-78.125,50.781
1687769007.806,-98.633,-42.969,14.648,-81.055,32.227
1687769007.810,-121.094,-52.734,19.531,-100.098,-81.055
1687769007.814,-155.762,-59.082,20.508,-125.977,-70.312
1687769007.818,-168.945,-66.406,26.855,-126.953,153.320
1687769007.821,-172.852,-69.336,32.715,-127.441,112.305
1687769007.825,-189.941,-69.824,38.574,-142.578,-93.262
1687769007.829,-204.590,-74.707,44.434,-150.879,-46.387
1687769007.833,-213.379,-82.031,53.711,-153.320,5.371
1687769007.837,-237.793,-88.379,62.988,-174.316,-144.043
1687769007.838,-244.629,-93.750,65.430,-181.152,-234.375
1687769007.842,-229.492,-100.586,66.895,-168.945,-4.883
1687769007.846,-222.168,-103.516,74.707,-167.480,163.086
1687769007.850,-235.352,-104.492,82.031,-178.223,-19.531
1687769007.854,-237.305,-107.422,83.496,-180.176,-99.609
1687769007.858,-227.539,-111.328,82.520,-162.598,126.465
1687769007.862,-228.516,-114.746,83.984,-150.391,391.602
1687769007.865,-239.746,-115.723,89.844,-159.180,123.535
1687769007.869,-248.535,-118.164,92.773,-154.785,-99.121
1687769007.873,-250.977,-120.605,97.168,-140.137,9.766
1687769007.877,-252.441,-125.977,97.656,-139.648,-84.961
1687769007.881,-244.141,-122.070,95.215,-132.324,-207.031
1687769007.898,-231.934,-122.559,93.262,-128.418,-139.648
1687769007.902,-234.863,-127.930,98.633,-134.277,-79.102
1687769007.906,-239.746,-127.441,99.121,-138.672,-125.000
1687769007.910,-223.145,-126.953,89.355,-128.418,-203.125
1687769007.914,-214.355,-131.836,92.285,-114.258,-119.141
1687769007.918,-220.703,-137.695,92.773,-120.605,60.547
1687769007.922,-218.750,-128.906,88.867,-121.094,23.438
1687769007.925,-209.961,-122.559,90.820,-114.258,-48.340
1687769007.929,-200.684,-124.512,87.891,-115.723,-83.008
1687769007.933,-191.895,-121.582,83.008,-103.516,129.883
1687769007.937,-164.551,-113.770,82.031,-78.125,214.355
1687769007.941,-152.832,-111.816,77.148,-79.590,-26.367
1687769007.943,-155.762,-114.746,68.359,-85.938,-44.922
1687769007.947,-147.949,-108.887,62.012,-73.730,-16.113
1687769007.951,-132.324,-95.703,56.641,-67.383,-90.332
1687769007.955,-122.070,-90.820,51.758,-63.965,-84.473
1687769007.959,-119.141,-96.191,41.016,-62.988,-28.809
1687769007.963,-116.699,-92.773,34.180,-59.570,-13.672
1687769007.967,-105.469,-81.055,37.598,-46.875,-34.180
1687769007.970,-94.727,-75.684,33.691,-41.016,-95.703
1687769007.974,-93.262,-80.566,20.020,-38.574,53.223
1687769007.978,-91.309,-83.496,10.742,-30.762,246.094
1687769007.982,-90.820,-75.684,15.625,-37.598,1.953
1687769007.986,-92.773,-68.848,15.625,-50.293,-160.645
1687769008.003,-89.355,-66.895,8.789,-51.270,-149.902
1687769008.007,-76.172,-66.406,12.207,-45.410,-195.312
1687769008.011,-76.172,-65.918,11.719,-42.480,-199.219
1687769008.015,-85.938,-69.824,-0.488,-50.781,-160.156
1687769008.019,-83.496,-70.312,0.488,-49.805,-70.312
1687769008.023,-77.148,-64.453,3.418,-39.062,-13.672
1687769008.027,-72.266,-59.082,5.371,-37.598,28.809
1687769008.030,-69.824,-60.547,-4.395,-41.016,4.883
1687769008.034,-75.195,-64.941,-8.789,-46.387,145.508
1687769008.038,-76.172,-60.059,-3.418,-47.852,101.562
1687769008.042,-72.266,-59.082,-13.184,-50.781,-159.180
1687769008.046,-61.035,-55.176,-16.602,-53.223,-3.906
1687769008.033,-53.711,-46.875,-10.742,-39.062,196.777
1687769008.037,-63.477,-41.992,-6.836,-32.227,32.715
1687769008.041,-68.359,-44.434,-5.859,-39.062,-135.742
1687769008.045,-56.641,-46.387,-9.766,-38.574,-70.801
1687769008.049,-51.270,-48.828,-11.719,-38.086,-42.969
1687769008.053,-50.293,-49.316,-10.254,-39.551,-65.918
1687769008.057,-53.223,-43.945,-8.789,-44.922,-67.871
1687769008.060,-57.617,-45.898,-8.789,-42.969,12.695
1687769008.064,-53.711,-50.781,-8.789,-30.273,-21.973
1687769008.068,-47.363,-50.293,-7.812,-27.344,-152.344
1687769008.072,-42.480,-44.434,-0.488,-29.297,-199.219
1687769008.076,-50.293,-44.434,-9.277,-30.273,-3.418
1687769008.079,-57.129,-45.898,-13.672,-36.133,168.457
1687769008.083,-54.688,-47.852,-11.719,-35.645,46.387
1687769008.087,-53.711,-51.758,-12.207,-41.504,4.395
1687769008.091,-54.199,-52.246,-11.230,-44.434,11.230
1687769008.095,-56.152,-49.805,-14.160,-41.504,-31.738
1687769008.099,-51.758,-44.434,-17.578,-45.410,-92.285
1687769008.103,-46.875,-44.434,-17.090,-46.875,-23.438
1687769008.106,-46.387,-46.387,-16.113,-37.598,193.848
1687769008.110,-45.410,-48.828,-19.043,-37.598,98.633
1687769008.114,-48.340,-50.293,-20.996,-52.734,-180.176
1687769008.118,-50.293,-44.434,-22.461,-42.480,-53.711
1687769008.122,-44.922,-39.062,-18.066,-36.621,44.434
1687769008.124,-41.504,-40.039,-14.160,-41.992,-132.812
1687769008.128,-41.016,-38.086,-15.137,-38.574,-220.215
1687769008.132,-40.527,-32.715,-16.113,-37.109,-129.883
1687769008.136,-46.387,-33.691,-17.090,-39.062,-52.734
1687769008.140,-45.898,-33.203,-19.531,-42.480,-121.094
1687769008.144,-44.922,-34.180,-20.508,-41.504,-80.078
1687769008.148,-47.363,-32.227,-16.113,-42.480,95.703
1687769008.151,-42.480,-30.273,-11.230,-35.645,296.387
1687769008.155,-42.969,-29.297,-11.719,-38.574,71.777
1687769008.159,-54.688,-31.250,-15.625,-47.363,-176.270
1687769008.163,-53.223,-33.203,-19.043,-37.598,-213.867
1687769008.167,-50.293,-32.227,-21.484,-35.156,-204.590
1687769008.169,-53.223,-31.250,-20.020,-42.969,-149.414
1687769008.173,-60.059,-33.203,-18.066,-41.504,-158.691
1687769008.177,-61.035,-32.227,-18.555,-35.156,-97.656
1687769008.181,-51.270,-27.832,-20.508,-30.762,-80.078
1687769008.185,-46.875,-29.785,-24.902,-27.344,-147.949
1687769008.189,-50.781,-32.715,-23.438,-24.902,-101.562
1687769008.193,-55.664,-32.227,-15.625,-15.625,199.707
1687769008.196,-52.246,-32.227,-12.695,-27.832,172.363
1687769008.200,-46.875,-31.738,-17.578,-41.016,-60.059
1687769008.204,-47.363,-34.180,-16.602,-27.344,-53.711
1687769008.208,-42.969,-36.133,-16.602,-15.137,81.543
1687769008.212,-45.898,-37.598,-18.066,-25.391,78.613
1687769008.215,-55.664,-37.598,-15.137,-38.086,-194.336
1687769008.219,-53.223,-35.645,-17.578,-41.016,-132.812
1687769008.223,-54.199,-38.086,-19.531,-38.574,100.586
1687769008.227,-52.734,-40.039,-22.461,-32.227,-89.355
1687769008.231,-54.688,-41.016,-21.973,-38.574,-226.562
1687769008.235,-66.406,-41.016,-16.602,-42.480,70.801
1687769008.239,-67.383,-38.574,-17.090,-41.016,225.098
1687769008.242,-58.594,-34.668,-15.625,-47.363,-71.777
1687769008.246,-54.199,-38.086,-14.648,-43.945,-174.316
1687769008.250,-61.523,-38.086,-21.484,-41.992,89.355
1687769008.254,-68.848,-35.156,-22.461,-45.410,185.059
1687769008.258,-61.523,-38.574,-20.508,-43.945,-114.746
1687769008.304,-61.035,-42.480,-20.508,-43.457,-151.367
1687769008.308,-59.570,-40.527,-18.555,-44.434,-43.457
1687769008.312,-62.988,-41.016,-20.996,-47.363,-45.410
1687769008.316,-65.918,-41.504,-16.602,-48.828,-149.902
1687769008.320,-55.664,-37.598,-16.602,-47.363,-162.109
1687769008.324,-51.270,-35.645,-14.648,-41.016,-59.570
1687769008.328,-53.223,-37.109,-14.160,-32.715,46.387
1687769008.331,-55.176,-35.645,-19.531,-36.133,14.648
1687769008.335,-59.082,-37.598,-20.996,-39.551,-68.359
1687769008.339,-65.918,-41.016,-15.625,-44.922,-18.555
1687769008.343,-62.500,-40.527,-16.602,-46.387,-51.758
1687769008.347,-58.105,-43.457,-19.043,-43.457,-73.242
1687769008.321,-58.105,-48.340,-12.207,-49.805,-15.625
1687769008.325,-64.453,-47.363,-8.301,-56.641,230.957
1687769008.329,-67.871,-43.945,-12.207,-58.594,171.875
1687769008.333,-58.105,-40.527,-13.184,-51.270,-115.723
1687769008.337,-51.758,-42.480,-12.207,-52.246,-53.711
1687769008.341,-51.758,-37.598,-11.719,-48.828,129.395
1687769008.345,-54.688,-36.133,-13.672,-54.688,59.570
1687769008.348,-65.430,-39.062,-19.531,-62.500,-150.391
1687769008.352,-70.801,-38.574,-23.438,-59.082,-64.941
1687769008.356,-66.406,-39.551,-22.461,-60.547,-56.641
1687769008.360,-61.523,-43.945,-22.461,-57.129,-143.066
1687769008.364,-62.988,-46.875,-20.996,-63.477,-211.426
1687769008.363,-61.523,-47.363,-16.602,-60.059,-98.633
1687769008.367,-59.082,-45.898,-17.090,-46.875,-7.324
1687769008.371,-54.688,-39.062,-20.020,-44.922,-122.559
1687769008.375,-51.758,-36.621,-20.996,-48.828,-165.527
1687769008.379,-55.664,-37.598,-22.949,-45.410,60.059
1687769008.383,-60.547,-38.086,-20.020,-45.410,294.434
1687769008.387,-53.223,-32.227,-13.184,-45.410,74.707
1687769008.390,-48.340,-26.367,-14.160,-44.922,-119.141
1687769008.394,-51.270,-28.809,-15.625,-41.016,149.902
1687769008.398,-52.246,-29.785,-14.648,-41.504,205.078
1687769008.402,-63.477,-31.250,-10.254,-57.129,-165.527
1687769008.406,-60.547,-32.227,-8.789,-64.453,-134.766
1687769008.408,-53.711,-30.273,-15.625,-52.246,52.246
1687769008.412,-61.523,-28.809,-17.090,-55.176,-76.660
1687769008.416,-65.918,-29.297,-17.090,-63.965,-253.418
1687769008.420,-69.824,-29.297,-14.648,-58.594,-54.688
1687769008.424,-68.848,-31.738,-15.625,-65.430,44.434
1687769008.428,-60.547,-33.691,-20.020,-69.336,-90.332
1687769008.432,-56.152,-36.621,-16.602,-66.895,-84.473
1687769008.435,-60.059,-39.551,-17.090,-61.523,34.668
1687769008.439,-64.941,-40.039,-19.531,-66.895,75.684
1687769008.443,-63.477,-34.180,-12.695,-76.660,-110.840
1687769008.447,-58.594,-35.645,-20.020,-76.172,-192.383
1687769008.451,-53.223,-33.691,-24.902,-66.895,60.059
1687769008.453,-60.059,-26.855,-20.020,-57.129,149.902
1687769008.457,-66.895,-28.320,-18.555,-59.570,-98.633
1687769008.461,-57.129,-25.391,-14.648,-54.199,-110.352
1687769008.465,-49.316,-26.855,-19.043,-52.246,-135.254
1687769008.469,-51.758,-29.785,-21.484,-49.805,-173.828
1687769008.473,-57.129,-31.738,-20.508,-61.523,-125.977
1687769008.477,-65.430,-37.598,-25.391,-69.336,37.598
1687769008.480,-64.941,-36.621,-25.391,-51.758,230.957
1687769008.484,-54.688,-30.762,-22.949,-52.246,72.266
1687769008.488,-46.387,-29.785,-16.602,-55.664,-112.305
1687769008.492,-48.340,-29.297,-15.137,-55.176,1.465
1687769008.496,-55.664,-31.738,-18.066,-57.617,101.074
1687769008.498,-59.570,-32.227,-17.578,-63.965,-25.391
1687769008.502,-53.711,-29.297,-13.184,-62.988,-179.688
1687769008.506,-51.270,-34.180,-12.207,-56.152,-93.750
1687769008.510,-50.293,-30.762,-16.602,-50.293,144.043
1687769008.514,-51.270,-27.344,-12.207,-54.688,-3.418
1687769008.518,-52.734,-27.832,-8.789,-60.547,-157.715
1687769008.522,-53.711,-28.809,-12.207,-57.617,84.961
1687769008.525,-57.129,-28.320,-7.812,-56.152,234.863
1687769008.529,-58.594,-28.320,-4.395,-61.523,-109.375
1687769008.533,-62.012,-33.691,-12.695,-72.754,-281.250
1687769008.537,-62.012,-34.180,-13.184,-71.289,-115.234
1687769008.541,-51.270,-31.738,-13.672,-61.035,-76.172
1687769008.543,-47.852,-29.297,-17.090,-59.570,-175.781
1687769008.547,-52.734,-34.180,-14.160,-63.477,-216.309
1687769008.551,-56.641,-31.738,-5.859,-63.477,-174.316
1687769008.555,-56.152,-27.344,-2.441,-56.152,-140.137
1687769008.559,-50.293,-26.855,-4.883,-58.105,-192.871
1687769008.563,-50.781,-27.344,-6.836,-61.523,-111.328
1687769008.567,-51.758,-32.715,-9.766,-55.176,208.008
1687769008.570,-53.711,-35.156,-9.766,-62.988,122.070
1687769008.574,-56.641,-35.645,-14.648,-77.637,-141.113
1687769008.578,-52.246,-37.598,-14.160,-63.965,-49.805
1687769008.582,-50.293,-39.551,-12.207,-61.523,152.832
1687769008.586,-50.293,-41.016,-9.766,-68.848,36.621
1687769008.588,-50.293,-34.180,-7.812,-62.012,-172.852
1687769008.592,-53.223,-31.738,-14.648,-56.641,-135.742
1687769008.596,-51.270,-32.227,-9.766,-52.734,47.363
1687769008.600,-45.898,-31.250,-3.906,-60.059,-46.387
1687769008.604,-46.875,-34.180,-3.906,-62.500,-186.523
1687769008.608,-49.805,-34.668,-1.953,-55.664,57.129
1687769008.612,-53.711,-34.180,-0.977,-48.828,196.289
1687769008.615,-59.570,-32.715,-2.441,-51.270,-83.496
1687769008.619,-54.688,-36.133,-4.395,-53.711,-153.809
1687769008.623,-47.363,-37.109,-4.883,-52.246,-30.273
1687769008.627,-56.152,-32.715,-6.348,-52.734,-74.219
1687769008.631,-62.012,-31.250,-4.395,-57.617,-149.414
1687769008.648,-58.594,-33.691,-3.906,-59.082,-103.027
1687769008.652,-51.758,-32.227,-3.906,-47.363,-9.766
1687769008.656,-53.711,-31.738,-2.441,-42.969,-81.543
1687769008.660,-55.664,-33.203,-1.465,-46.387,-187.012
1687769008.664,-53.711,-38.574,0.977,-50.781,-116.699
1687769008.668,-56.641,-38.574,-0.977,-51.758,11.230
1687769008.672,-57.129,-31.738,-7.324,-52.734,-1.465
1687769008.675,-47.363,-35.156,-8.789,-49.316,-84.473
1687769008.679,-50.781,-45.410,-13.672,-44.922,-120.117
1687769008.683,-57.129,-44.434,-10.742,-49.805,51.758
1687769008.687,-58.105,-37.109,-4.395,-53.223,0.977
1687769008.691,-61.035,-39.551,-2.441,-49.805,-168.457
1687769008.694,-55.664,-42.480,-2.441,-51.758,-56.152
1687769008.698,-55.176,-41.016,-9.766,-57.129,78.125
1687769008.702,-63.477,-37.598,-6.348,-56.152,1.953
1687769008.706,-62.500,-29.297,-4.883,-48.828,-121.582
1687769008.710,-49.316,-28.809,-6.836,-41.016,-39.551
1687769008.714,-42.480,-31.738,-11.719,-43.457,82.031
1687769008.718,-48.828,-29.297,-16.113,-50.293,4.883
1687769008.721,-62.988,-30.273,-15.137,-57.617,-127.441
1687769008.725,-68.848,-38.574,-20.020,-60.547,-19.531
1687769008.729,-54.199,-33.691,-17.578,-46.387,146.484
1687769008.733,-46.387,-25.879,-6.348,-43.457,-68.848
1687769008.737,-53.711,-32.715,-8.301,-50.293,-115.723
1687769008.738,-58.594,-33.203,-15.625,-50.781,-72.266
1687769008.742,-61.523,-32.227,-12.207,-58.105,-152.832
1687769008.746,-61.035,-33.691,-11.719,-60.547,-129.395
1687769008.750,-49.805,-32.715,-14.648,-45.898,-60.059
1687769008.754,-49.805,-38.574,-14.648,-45.898,-23.438
1687769008.758,-51.270,-35.156,-12.695,-48.828,24.902
1687769008.762,-47.363,-26.367,-10.254,-50.293,6.836
1687769008.765,-48.340,-26.367,-12.695,-53.711,-58.105
1687769008.769,-45.898,-30.273,-16.602,-42.969,151.855
1687769008.773,-41.504,-31.250,-15.137,-40.039,247.559
1687769008.777,-43.457,-26.367,-11.230,-50.293,-63.477
1687769008.781,-42.969,-30.762,-12.207,-42.480,-61.035
1687769008.783,-32.715,-34.668,-9.277,-29.785,70.312
1687769008.787,-25.879,-30.273,-6.836,-32.227,8.789
1687769008.791,-34.180,-30.273,-7.812,-32.227,-112.305
1687769008.795,-49.316,-32.227,-7.812,-33.691,-129.883
1687769008.799,-60.547,-31.250,-8.301,-34.668,-96.191
1687769008.803,-62.012,-28.809,-6.348,-27.344,-61.523
1687769008.807,-59.570,-22.949,-4.883,-32.227,-54.199
1687769008.810,-56.641,-21.973,-10.254,-45.410,114.258
1687769008.814,-55.176,-20.508,-11.230,-41.992,313.477
1687769008.818,-56.641,-16.602,-13.184,-48.340,37.109
1687769008.822,-55.176,-21.973,-11.719,-52.246,-175.781
1687769008.826,-53.223,-25.879,-14.160,-51.758,-85.938
1687769008.828,-45.410,-23.926,-15.137,-47.852,-6.348
1687769008.832,-34.180,-20.996,-8.301,-40.527,-73.242
1687769008.836,-36.621,-18.555,-8.301,-37.598,-120.117
1687769008.840,-46.875,-21.484,-7.324,-41.992,-80.566
1687769008.844,-42.969,-19.043,-7.812,-46.875,-102.051
1687769008.848,-39.551,-14.160,-10.254,-43.945,-39.062
1687769008.852,-38.574,-17.090,-10.254,-38.574,34.180
1687769008.855,-44.434,-18.555,-7.324,-38.574,193.848
1687769008.859,-45.898,-19.531,-6.348,-40.039,90.332
1687769008.863,-33.691,-20.020,-6.836,-40.527,-142.578
1687769008.867,-29.297,-16.113,-4.883,-41.016,-62.500
1687769008.871,-36.621,-18.555,-5.371,-38.086,156.738
1687769008.873,-42.480,-20.508,-3.418,-40.039,25.879
1687769008.877,-41.016,-18.066,0.977,-46.875,-252.930
1687769008.881,-34.180,-24.902,0.000,-47.852,-176.758
1687769008.885,-28.809,-30.273,-3.418,-45.898,-95.215
1687769008.889,-27.832,-24.902,-4.395,-50.781,-136.230
1687769008.893,-33.691,-23.926,-3.418,-48.340,-131.348
1687769008.897,-39.551,-27.344,-6.836,-38.574,74.707
1687769008.900,-41.016,-31.738,-4.883,-39.551,165.527
1687769008.904,-39.062,-38.574,-2.930,-42.480,-57.129
1687769008.908,-28.809,-40.039,-6.348,-39.062,-196.777
1687769008.912,-39.062,-30.762,-14.648,-49.805,-197.266
1687769008.916,-62.988,-27.832,-19.531,-76.172,-182.617
1687769008.919,-52.734,-29.297,-14.648,-66.406,-165.527
1687769008.923,-40.527,-24.902,-24.414,-64.453,-180.176
1687769008.927,-53.223,-24.414,-29.297,-82.520,-76.660
1687769008.931,-56.152,-25.391,-27.832,-78.125,-73.242
1687769008.935,-51.270,-25.879,-30.273,-73.242,-158.691
1687769008.939,-55.176,-24.902,-31.250,-78.125,-118.164
1687769008.943,-48.828,-20.996,-37.109,-68.359,180.664
1687769008.946,-48.340,-20.508,-39.062,-67.383,179.199
1687769008.950,-50.781,-16.602,-44.922,-85.938,-97.168
1687769008.954,-50.293,-14.160,-48.828,-86.426,-102.539
1687769008.958,-50.781,-16.113,-48.828,-76.660,21.484
1687769008.962,-27.832,-6.348,-49.316,-68.359,48.828
1687769008.964,-20.508,1.465,-48.828,-64.453,-104.980
1687769008.968,-34.668,0.977,-53.711,-65.918,-49.805
1687769008.972,-32.227,6.836,-59.570,-64.453,130.371
1687769008.976,-25.391,15.137,-62.012,-72.754,29.297
1687769008.980,-18.066,15.625,-62.988,-75.684,-184.570
1687769008.984,-20.020,9.277,-66.895,-65.430,13.184
1687769008.988,-19.043,11.230,-67.383,-64.453,202.637
1687769008.991,-20.508,14.160,-67.871,-73.730,-107.910
1687769008.995,-21.484,11.719,-69.336,-67.871,-205.566
1687769008.999,-9.277,11.230,-73.730,-58.594,-44.434
1687769009.003,-1.953,11.719,-80.566,-60.059,33.203
1687769009.007,-5.859,12.207,-76.660,-66.895,-97.656
1687769009.023,-13.672,12.695,-74.219,-64.453,-142.090
1687769009.027,-17.090,11.230,-74.707,-62.988,-80.566
1687769009.031,-15.625,14.648,-73.730,-67.871,-39.062
1687769009.035,-9.766,14.648,-75.195,-63.965,-104.004
1687769009.039,-9.277,9.766,-75.195,-66.895,-109.863
1687769009.043,-15.137,9.766,-73.730,-68.359,157.227
1687769009.047,-7.324,17.578,-70.801,-55.176,175.293
1687769009.050,-0.977,19.531,-69.336,-53.711,-107.910
1687769009.054,3.906,16.602,-74.219,-53.223,-66.406
1687769009.058,16.602,14.648,-75.684,-41.016,161.133
1687769009.062,16.602,17.090,-73.242,-32.227,96.680
1687769009.066,11.230,20.508,-73.242,-38.086,-42.969
1687769009.068,20.020,14.648,-73.730,-30.273,-1.953
1687769009.072,34.180,12.695,-70.312,-20.508,50.781
1687769009.076,40.527,15.625,-71.777,-23.438,-124.512
1687769009.080,27.344,15.137,-76.172,-31.738,-183.105
1687769009.084,23.926,13.672,-74.707,-20.508,-117.188
1687769009.088,34.668,13.672,-72.266,-4.395,-49.316
1687769009.092,42.969,17.578,-69.824,-5.859,-59.082
1687769009.095,42.969,20.020,-68.359,-8.301,-100.586
1687769009.099,30.762,12.207,-69.336,-3.418,82.520
1687769009.103,31.250,8.301,-62.988,9.766,227.539
1687769009.107,34.180,11.230,-59.082,15.137,-25.391
1687769009.111,27.344,6.836,-62.500,8.789,-157.715
1687769009.114,21.973,1.953,-61.035,0.977,-94.238
1687769009.118,21.973,-0.488,-61.035,-4.883,-117.676
1687769009.122,26.367,2.930,-56.641,-7.324,-134.277
1687769009.126,26.855,5.859,-51.758,-3.906,-96.191
1687769009.130,25.879,1.465,-54.199,-7.812,-60.547
1687769009.134,10.254,-0.488,-53.711,-22.949,-83.496
1687769009.138,-9.766,-1.465,-54.199,-34.668,0.977
1687769009.141,-17.578,-8.301,-55.664,-38.574,10.742
1687769009.145,-10.742,-7.324,-50.781,-27.832,137.207
1687769009.149,0.000,-0.977,-48.340,-24.902,130.859
1687769009.153,-9.766,-0.488,-46.875,-34.668,-98.145
1687769009.157,-5.371,-2.930,-43.945,-30.762,-3.906
1687769009.159,-3.418,-2.930,-43.457,-21.973,192.871
1687769009.163,-0.977,-5.859,-41.504,-21.973,86.914
1687769009.167,10.254,-2.930,-39.062,-20.508,-168.457
1687769009.171,5.859,-5.371,-41.992,-22.461,-150.879
1687769009.175,4.883,-9.277,-41.504,-17.090,-112.793
1687769009.179,13.672,-4.883,-35.156,-5.859,-104.492
1687769009.183,16.602,-6.836,-35.156,0.977,-105.469
1687769009.186,15.137,-8.301,-37.598,0.977,4.395
1687769009.190,25.391,-2.441,-35.645,-0.488,187.012
1687769009.194,28.809,-4.395,-34.180,-2.930,-14.160
1687769009.198,22.461,-6.348,-31.738,-5.371,-159.180
1687769009.202,21.484,-6.836,-28.809,1.953,83.008
1687769009.204,29.297,-6.836,-24.414,5.371,130.859
1687769009.208,26.855,-4.883,-21.484,0.488,-111.328
1687769009.212,7.812,-11.230,-32.227,-11.719,-150.391
1687769009.216,4.395,-12.695,-33.203,-14.160,-66.406
1687769009.220,1.465,-13.184,-28.320,-12.695,-59.570
1687769009.224,-0.488,-17.578,-30.273,-19.531,-86.426
1687769009.228,0.000,-13.672,-31.250,-21.973,-81.055
1687769009.231,-13.672,-14.648,-30.273,-18.555,116.699
1687769009.235,-21.484,-18.066,-26.855,-20.508,95.215
1687769009.239,-26.367,-16.602,-26.855,-33.203,-152.344
1687769009.243,-24.902,-18.066,-27.832,-40.039,-60.059
1687769009.247,-24.414,-21.973,-23.926,-25.879,74.219
1687769009.250,-36.621,-21.973,-26.855,-27.344,-30.762
1687769009.254,-38.574,-20.508,-29.297,-39.551,-172.363
1687769009.258,-41.016,-22.461,-22.949,-42.969,-42.480
1687769009.262,-40.527,-22.949,-23.926,-43.945,23.926
1687769009.266,-32.227,-21.973,-23.926,-41.504,-151.367
1687769009.270,-21.484,-20.020,-20.996,-35.645,-151.367
1687769009.274,-22.461,-16.602,-15.625,-26.855,52.246
1687769009.277,-32.227,-12.695,-8.789,-24.414,163.574
1687769009.281,-35.156,-12.695,-6.836,-29.785,-88.867
1687769009.285,-23.438,-18.066,-12.695,-25.879,-149.414
1687769009.289,-16.602,-21.484,-16.602,-29.785,-129.395
1687769009.293,-25.879,-18.555,-12.695,-33.691,-130.371
1687769009.294,-30.762,-19.043,-14.160,-29.785,-112.305
1687769009.298,-26.367,-24.414,-16.113,-33.203,-96.191
1687769009.302,-22.949,-25.879,-15.625,-36.133,-55.664
1687769009.306,-23.926,-26.367,-11.230,-32.227,-49.805
1687769009.310,-24.414,-29.785,-12.695,-32.227,40.039
1687769009.314,-26.855,-32.715,-20.020,-37.109,23.438
1687769009.318,-29.785,-34.180,-19.043,-31.250,205.566
1687769009.321,-38.086,-33.691,-15.625,-22.949,260.254
1687769009.325,-36.621,-28.809,-13.672,-30.762,-67.383
1687769009.329,-35.645,-31.738,-12.207,-41.016,-114.746
1687769009.333,-36.133,-35.156,-12.695,-35.645,-95.215
1687769009.337,-40.527,-35.156,-11.719,-35.156,-96.191
1687769009.339,-41.504,-33.691,-10.254,-45.410,-147.461
1687769009.343,-44.922,-29.297,-8.301,-43.945,-55.176
1687769009.347,-54.199,-29.785,-7.324,-40.039,27.344
1687769009.351,-55.176,-33.203,-10.742,-39.062,-157.227
1687769009.355,-55.176,-35.156,-10.742,-44.922,-229.980
1687769009.359,-61.035,-32.227,-12.695,-53.711,26.367
1687769009.363,-52.246,-28.809,-15.137,-42.969,222.168
1687769009.366,-49.805,-30.273,-14.160,-40.527,15.137
1687769009.370,-65.430,-30.762,-15.137,-53.223,-177.246
1687769009.374,-65.430,-34.180,-13.672,-52.734,-12.695
1687769009.378,-58.594,-33.691,-12.207,-53.223,134.277
1687769009.382,-51.758,-30.273,-15.137,-55.176,-69.336
1687769009.399,-45.898,-33.691,-17.578,-48.828,-140.625
1687769009.403,-52.246,-35.645,-17.578,-50.293,-23.926
1687769009.407,-52.734,-35.645,-17.090,-49.805,-10.742
1687769009.411,-45.898,-35.156,-14.648,-46.875,-95.215
1687769009.415,-46.387,-32.227,-11.230,-48.828,-34.668
1687769009.419,-44.922,-29.785,-11.719,-43.457,51.758
1687769009.423,-47.363,-30.762,-10.254,-42.480,28.320
1687769009.426,-51.758,-31.250,-3.418,-49.805,-86.914
1687769009.430,-42.480,-25.879,-0.488,-51.270,-146.973
1687769009.434,-44.922,-36.133,-3.418,-40.039,140.137
1687769009.438,-52.734,-34.668,0.000,-32.715,234.863
1687769009.442,-47.852,-25.879,1.953,-38.574,-17.578
1687769009.459,-48.340,-35.156,-7.324,-38.086,-45.898
1687769009.463,-51.270,-39.062,-0.488,-37.109,23.926
1687769009.467,-48.828,-37.109,1.953,-41.992,-98.633
1687769009.471,-46.875,-33.203,-1.953,-39.551,-153.320
1687769009.475,-55.176,-35.645,-0.977,-41.504,-41.992
1687769009.479,-64.941,-42.969,-1.465,-45.410,-12.207
1687769009.483,-60.059,-41.992,-4.395,-46.875,-28.809
1687769009.486,-57.617,-40.039,-4.883,-57.617,-111.816
1687769009.490,-60.547,-42.969,-1.953,-61.523,-13.184
1687769009.494,-63.477,-40.039,-5.859,-53.223,196.777
1687769009.498,-59.082,-29.785,-3.906,-48.340,2.930
1687769009.502,-53.223,-33.203,-3.418,-51.270,-97.656
1687769009.504,-53.223,-35.645,-9.277,-50.293,-12.207
1687769009.508,-60.547,-35.156,-6.836,-52.246,-55.176
1687769009.512,-47.852,-34.180,-7.812,-49.316,-169.434
1687769009.516,-47.852,-37.598,-12.695,-51.270,-143.555
1687769009.520,-50.293,-33.203,-10.254,-47.852,-112.305
1687769009.524,-38.086,-29.785,-9.277,-49.316,-58.105
1687769009.528,-41.992,-38.086,-11.719,-55.176,-67.871
1687769009.531,-42.480,-34.668,-11.719,-44.922,-150.391
1687769009.535,-42.480,-30.762,-12.207,-36.621,-115.234
1687769009.539,-41.016,-28.320,-14.648,-38.574,-152.344
1687769009.543,-39.551,-30.762,-15.625,-41.992,-181.641
1687769009.547,-36.621,-33.691,-12.695,-38.086,-42.969
1687769009.535,-32.715,-32.227,-13.184,-29.785,182.129
1687769009.539,-41.992,-30.762,-12.207,-34.180,173.828
1687769009.543,-46.875,-29.297,-5.371,-34.668,-169.434
1687769009.547,-39.551,-31.738,-9.277,-32.227,-124.512
1687769009.551,-38.574,-31.250,-17.578,-32.715,123.535
1687769009.555,-42.969,-25.879,-17.578,-39.551,-66.406
1687769009.559,-48.340,-25.391,-15.137,-42.969,-159.668
1687769009.562,-42.969,-26.855,-13.672,-42.480,-79.590
1687769009.566,-36.621,-27.344,-12.207,-42.480,-131.836
1687769009.570,-41.016,-26.367,-13.672,-40.527,-142.090
1687769009.574,-50.293,-29.297,-15.625,-50.781,-141.602
1687769009.578,-59.570,-37.598,-11.719,-54.688,-2.930
1687769009.579,-57.129,-38.086,-11.230,-41.992,81.543
1687769009.583,-58.105,-31.738,-10.254,-40.039,-138.184
1687769009.587,-49.316,-30.273,-9.766,-44.434,-142.090
1687769009.591,-47.852,-30.762,-10.742,-49.316,-65.430
1687769009.595,-60.547,-32.227,-15.137,-51.270,-81.055
1687769009.599,-58.594,-33.691,-14.160,-55.176,-85.449
1687769009.603,-51.758,-33.203,-7.812,-59.570,-74.219
1687769009.606,-52.246,-34.668,-5.859,-50.293,143.066
1687769009.610,-50.781,-31.738,-6.348,-41.992,186.035
1687769009.614,-58.105,-28.320,-4.395,-50.293,-95.215
1687769009.618,-58.105,-31.738,-2.930,-54.199,-22.949
1687769009.622,-51.270,-35.156,-6.836,-47.363,89.844
1687769009.624,-44.434,-36.621,-9.277,-43.457,-66.895
1687769009.628,-41.504,-37.598,-14.648,-42.480,-140.625
1687769009.632,-54.199,-37.598,-17.578,-47.852,-83.496
1687769009.636,-59.570,-34.180,-13.184,-56.152,-76.172
1687769009.640,-56.152,-33.691,-6.836,-51.270,-81.055
1687769009.644,-51.758,-38.574,-5.371,-46.387,-55.176
1687769009.648,-50.781,-37.109,-4.883,-51.270,92.285
1687769009.651,-56.641,-36.133,-9.277,-51.270,89.844
1687769009.655,-63.477,-35.645,-7.324,-62.500,-86.426
1687769009.659,-57.617,-30.273,-3.418,-62.988,-175.781
1687769009.663,-52.246,-34.668,-8.789,-61.035,48.828
1687769009.667,-58.594,-40.527,-8.301,-59.570,214.355
1687769009.669,-70.801,-43.945,-5.371,-63.965,-116.699
1687769009.673,-78.125,-44.922,-7.812,-71.777,-167.480
1687769009.677,-74.219,-43.457,-15.137,-65.918,56.152
1687769009.681,-62.500,-43.457,-15.137,-61.523,73.242
1687769009.685,-58.594,-37.109,-12.695,-67.383,-98.633
1687769009.689,-53.711,-35.156,-13.672,-65.430,-151.367
1687769009.693,-48.340,-37.598,-10.254,-60.547,136.719
1687769009.696,-56.641,-39.551,-11.719,-70.312,113.770
1687769009.700,-60.059,-38.086,-20.996,-68.359,-121.094
1687769009.704,-60.059,-36.133,-14.160,-58.105,-78.613
1687769009.708,-73.730,-38.574,-6.348,-55.176,129.883
1687769009.712,-77.637,-41.504,-8.301,-47.852,121.094
1687769009.714,-67.871,-40.527,-7.812,-36.621,-104.980
1687769009.718,-61.035,-34.668,-5.859,-42.480,-62.012
1687769009.722,-63.965,-33.691,-7.324,-53.223,-14.160
1687769009.726,-74.219,-36.621,-9.277,-53.711,-131.836
1687769009.730,-80.078,-40.527,-12.207,-59.082,-152.832
1687769009.734,-92.773,-44.434,-8.301,-58.105,27.344
1687769009.738,-96.191,-36.621,-4.395,-52.246,104.492
1687769009.741,-96.191,-35.156,-1.465,-59.082,-88.379
1687769009.745,-93.750,-42.969,-3.418,-52.246,-215.332
1687769009.749,-92.285,-37.109,-4.883,-49.316,-17.578
1687769009.753,-95.703,-39.551,-3.906,-57.617,137.207
1687769009.757,-95.703,-42.969,-4.395,-64.453,-31.738
1687769009.774,-96.191,-31.738,-5.371,-61.523,-72.266
1687769009.778,-96.680,-34.668,-9.766,-61.035,12.207
1687769009.782,-95.215,-34.668,-15.625,-61.523,17.090
1687769009.786,-93.750,-30.762,-14.160,-63.477,-114.258
1687769009.790,-88.867,-29.297,-10.742,-67.383,-144.043
1687769009.794,-86.426,-27.832,-6.348,-66.406,5.859
1687769009.798,-89.844,-25.879,-10.742,-67.871,30.762
1687769009.801,-96.191,-29.785,-15.137,-64.941,-104.980
1687769009.805,-99.121,-32.715,-10.742,-65.918,-138.672
1687769009.809,-100.098,-30.273,-8.789,-66.895,53.223
1687769009.813,-95.703,-30.762,-7.324,-64.941,64.453
1687769009.817,-91.797,-29.785,-6.348,-60.059,-125.488
1687769009.819,-107.422,-35.645,-3.418,-63.477,-112.305
1687769009.823,-121.094,-40.039,-7.324,-73.242,123.535
1687769009.827,-115.723,-32.715,-4.395,-74.707,4.395
1687769009.831,-102.539,-28.320,0.977,-72.266,-221.680
1687769009.835,-98.633,-28.809,-1.953,-62.988,-181.641
1687769009.839,-104.980,-26.855,-5.371,-66.406,-53.711
1687769009.843,-108.398,-29.297,-4.395,-77.148,-43.945
1687769009.846,-101.562,-29.297,4.883,-73.730,-126.465
1687769009.850,-98.633,-27.832,5.371,-68.848,30.273
1687769009.854,-98.145,-28.320,-0.488,-69.336,207.031
1687769009.858,-94.238,-32.715,-3.418,-66.406,-2.441
1687769009.862,-84.961,-34.668,-2.441,-52.246,-141.602
1687769009.865,-80.566,-29.785,1.953,-50.781,-110.840
1687769009.869,-88.867,-32.227,1.953,-56.152,-63.965
1687769009.873,-97.656,-36.621,0.977,-66.406,-145.020
1687769009.877,-106.445,-37.109,0.977,-77.148,-105.957
1687769009.881,-100.586,-34.668,2.441,-65.918,46.875
1687769009.885,-85.938,-38.574,5.859,-57.617,57.129
1687769009.889,-96.680,-44.434,7.324,-65.430,-15.625
1687769009.892,-105.957,-36.133,5.371,-73.730,-89.844
1687769009.896,-104.492,-39.062,8.301,-70.801,189.941
1687769009.900,-119.629,-44.922,16.113,-75.684,231.934
1687769009.904,-135.254,-48.828,18.066,-96.191,-14.160
1687769009.908,-133.301,-51.270,17.578,-93.750,47.363
1687769009.909,-137.207,-48.828,21.973,-89.355,24.902
1687769009.913,-157.715,-59.082,30.762,-107.910,-95.703
1687769009.917,-172.363,-65.430,34.668,-124.023,-173.340
1687769009.921,-177.734,-67.871,39.062,-122.070,-153.809
1687769009.925,-183.105,-73.730,47.363,-121.094,-88.867
1687769009.929,-187.500,-74.707,55.176,-127.441,-84.473
1687769009.933,-199.219,-76.660,67.383,-140.625,-26.367
1687769009.936,-205.078,-81.055,73.730,-142.090,119.141
1687769009.940,-212.891,-86.914,78.613,-143.555,272.949
1687769009.944,-215.332,-86.426,83.496,-145.508,57.617
1687769009.948,-212.891,-91.309,81.543,-145.996,-158.691
1687769009.952,-220.703,-101.562,82.520,-150.391,-73.242
1687769009.969,-229.980,-102.539,85.449,-151.855,-102.051
1687769009.973,-236.328,-107.422,92.285,-152.832,-149.902
1687769009.977,-241.211,-115.234,94.727,-152.344,-138.184
1687769009.981,-235.840,-111.816,99.609,-151.367,-129.395
1687769009.985,-235.352,-115.723,101.562,-147.949,-110.352
1687769009.989,-243.164,-122.070,98.633,-146.484,-51.758
1687769009.993,-243.164,-119.141,98.145,-148.926,-125.000
1687769009.996,-237.793,-116.211,103.027,-131.348,79.102
1687769010.000,-231.445,-117.188,106.445,-119.141,172.852
1687769010.004,-229.980,-121.582,99.121,-125.000,-191.406
1687769010.008,-225.586,-120.117,97.656,-120.117,-99.121
1687769010.012,-217.773,-120.117,104.004,-107.422,94.238
1687769009.999,-212.402,-123.047,105.469,-102.051,-72.266
1687769010.003,-201.660,-121.094,99.121,-98.633,-191.895
1687769010.007,-192.871,-122.070,94.238,-90.820,-100.586
1687769010.011,-187.500,-120.117,90.820,-88.867,-49.316
1687769010.015,-175.293,-111.816,88.379,-86.914,-119.141
1687769010.019,-167.969,-112.793,82.031,-80.078,-110.840
1687769010.023,-156.250,-114.258,73.730,-72.266,14.160
1687769010.026,-137.695,-104.004,66.895,-61.523,-62.988
1687769010.030,-121.094,-98.145,56.152,-56.152,-193.359
1687769010.034,-117.188,-97.168,51.270,-57.129,-147.949
1687769010.038,-118.652,-92.773,48.828,-55.664,60.547
1687769010.042,-106.445,-90.332,40.527,-45.898,237.793
1687769010.044,-91.309,-92.773,39.062,-47.852,90.820
1687769010.048,-94.727,-96.191,33.691,-51.270,-54.199
1687769010.052,-102.051,-90.332,28.809,-46.387,-98.633
1687769010.056,-105.469,-84.473,25.391,-47.852,-85.449
1687769010.060,-94.727,-85.449,20.996,-46.875,-138.184
1687769010.064,-88.867,-78.613,19.531,-47.852,-153.320
1687769010.068,-90.820,-67.871,17.578,-40.527,181.641
1687769010.071,-91.797,-68.848,20.508,-35.156,145.020
1687769010.075,-89.844,-70.801,18.066,-50.293,-219.727
1687769010.079,-80.078,-67.383,8.789,-46.387,-159.180
1687769010.083,-75.684,-66.406,3.418,-41.504,16.602
1687769010.087,-70.801,-64.453,5.859,-44.434,-1.953
1687769010.090,-69.824,-59.570,8.789,-45.410,-108.398
1687769010.094,-73.242,-63.965,4.395,-40.039,-19.043
1687769010.098,-71.777,-72.266,0.000,-36.621,144.043
1687769010.102,-59.570,-66.406,3.906,-33.691,61.035
1687769010.106,-49.316,-55.664,3.418,-23.438,-116.699
1687769010.110,-55.176,-57.129,0.488,-20.508,22.461
1687769010.114,-58.105,-62.500,-6.348,-30.762,137.207
1687769010.117,-48.828,-53.711,-7.324,-36.621,-119.141
1687769010.121,-35.645,-52.246,-7.324,-21.973,-207.520
1687769010.125,-35.156,-54.199,-9.766,-21.973,-88.379
1687769010.129,-41.016,-51.758,-3.418,-31.250,-81.543
1687769010.133,-40.039,-53.223,-7.324,-29.785,-87.402
1687769010.150,-39.062,-50.293,-14.648,-28.320,-100.098
1687769010.154,-38.574,-48.340,-4.883,-26.367,-45.898
1687769010.158,-38.574,-55.176,-7.324,-23.926,40.527
1687769010.162,-46.875,-56.152,-11.719,-33.691,-23.438
1687769010.166,-63.477,-51.270,-12.207,-46.875,-118.652
1687769010.170,-59.082,-52.734,-14.160,-45.410,156.738
1687769010.174,-54.199,-53.223,-11.719,-42.480,299.316
1687769010.177,-58.594,-51.270,-16.113,-40.039,17.090
1687769010.181,-58.594,-47.852,-17.578,-40.039,-67.383
1687769010.185,-60.059,-47.852,-17.090,-40.527,-73.242
1687769010.189,-58.594,-51.758,-20.020,-38.086,-24.902
1687769010.193,-46.875,-49.316,-20.508,-39.551,-82.031
1687769010.194,-43.945,-48.828,-18.066,-38.574,-133.789
1687769010.198,-51.270,-46.875,-15.625,-38.086,37.598
1687769010.202,-52.246,-41.992,-13.184,-33.691,-60.547
1687769010.206,-47.852,-41.992,-14.648,-25.391,-178.711
1687769010.210,-44.434,-47.363,-15.625,-25.391,-53.711
1687769010.214,-38.086,-52.734,-19.043,-28.809,45.898
1687769010.218,-34.180,-49.316,-20.996,-24.902,-7.812
1687769010.221,-40.039,-43.945,-17.578,-27.832,-66.406
1687769010.225,-41.504,-47.363,-19.043,-24.902,54.688
1687769010.229,-30.273,-48.828,-20.020,-17.578,292.480
1687769010.233,-29.297,-47.852,-22.461,-25.391,80.566
1687769010.237,-35.645,-50.781,-22.949,-32.227,-128.418
1687769010.239,-32.715,-52.246,-20.020,-34.668,-105.957
1687769010.243,-30.762,-54.199,-19.043,-38.086,-105.469
1687769010.247,-30.273,-54.199,-18.555,-36.621,-101.074
1687769010.251,-33.691,-49.805,-20.508,-30.273,-83.008
1687769010.255,-38.086,-51.270,-26.855,-32.227,-67.871
1687769010.259,-40.039,-53.223,-26.855,-31.250,-87.402
1687769010.263,-41.992,-46.875,-25.879,-33.691,-65.430
1687769010.266,-39.062,-42.969,-26.367,-39.551,-23.926
1687769010.270,-36.621,-46.875,-27.344,-29.297,206.055
1687769010.274,-39.551,-49.805,-25.879,-22.461,240.234
1687769010.278,-45.410,-48.828,-23.438,-34.668,-56.641
1687769010.282,-43.457,-51.758,-26.367,-39.551,-103.516
1687769010.284,-40.527,-52.246,-29.785,-41.016,26.855
1687769010.288,-37.598,-47.363,-30.273,-46.387,-67.871
1687769010.292,-35.156,-54.199,-31.738,-51.270,-172.363
1687769010.296,-46.875,-61.035,-36.621,-49.805,-97.168
1687769010.300,-53.711,-57.617,-36.133,-46.875,-75.195
1687769010.304,-44.922,-57.617,-29.297,-38.086,-0.488
1687769010.308,-40.527,-60.059,-28.320,-34.180,-2.930
1687769010.311,-38.574,-61.035,-31.250,-28.809,41.016
1687769010.315,-39.551,-58.105,-32.227,-18.066,149.902
1687769010.319,-40.527,-55.664,-31.250,-23.438,-31.250
1687769010.323,-37.109,-59.082,-34.180,-29.785,-119.141
1687769010.327,-36.133,-65.430,-33.691,-25.879,-42.969
1687769010.329,-39.062,-62.012,-29.297,-24.902,-42.480
1687769010.333,-42.480,-60.059,-31.738,-30.273,-119.629
1687769010.337,-49.805,-65.918,-32.227,-29.785,-98.633
1687769010.341,-48.828,-64.941,-31.250,-27.832,-119.629
1687769010.345,-44.434,-63.965,-33.691,-32.715,-83.008
1687769010.349,-38.574,-63.965,-38.086,-41.016,-1.465
1687769010.353,-36.133,-63.477,-40.039,-45.410,-64.453
1687769010.356,-42.480,-63.965,-37.109,-44.922,126.953
1687769010.360,-45.898,-64.453,-34.668,-44.434,97.168
1687769010.364,-40.039,-62.500,-34.668,-45.898,-206.543
1687769010.368,-35.645,-64.941,-37.598,-43.457,-119.141
1687769010.372,-44.922,-70.312,-41.016,-42.969,6.348
1687769010.375,-48.828,-66.895,-36.621,-49.805,-48.828
1687769010.379,-46.875,-64.453,-37.109,-48.828,-178.711
1687769010.383,-41.016,-67.383,-45.898,-34.668,-5.371
1687769010.387,-37.598,-67.383,-43.945,-33.203,95.215
1687769010.391,-40.527,-64.941,-40.527,-41.016,-117.188
1687769010.395,-42.480,-63.965,-41.504,-41.504,-122.559
1687769010.399,-49.316,-64.453,-42.480,-34.180,136.230
1687769010.402,-47.852,-71.777,-38.574,-26.855,230.957
1687769010.406,-37.598,-71.289,-34.668,-32.715,-23.926
1687769010.410,-43.945,-73.242,-43.945,-44.922,-90.332
1687769010.414,-53.711,-79.590,-50.781,-50.293,-21.484
1687769010.418,-58.105,-74.219,-45.410,-50.781,-61.523
1687769010.435,-60.547,-78.125,-46.875,-47.852,-78.613
1687769010.439,-56.641,-79.590,-49.805,-42.969,-49.805
1687769010.443,-54.688,-72.266,-46.387,-37.109,-37.598
1687769010.447,-57.617,-75.195,-42.480,-43.945,-34.180
1687769010.451,-62.500,-75.684,-41.992,-48.340,-98.145
1687769010.455,-51.270,-71.289,-43.945,-41.504,-46.875
1687769010.459,-39.062,-71.777,-48.340,-33.203,206.543
1687769010.462,-50.293,-72.754,-49.316,-44.922,207.520
1687769010.466,-62.012,-74.707,-51.270,-57.617,-69.336
1687769010.470,-59.082,-79.102,-54.688,-49.316,-158.203
1687769010.474,-57.617,-78.613,-52.246,-52.246,-72.754
1687769010.478,-54.199,-72.754,-49.805,-46.387,-34.668
1687769010.464,-54.199,-73.242,-56.152,-41.504,-142.090
1687769010.468,-60.547,-76.172,-61.523,-50.781,-138.184
1687769010.472,-57.129,-75.684,-51.270,-52.246,-17.090
1687769010.476,-49.805,-73.730,-47.363,-62.012,-43.945
1687769010.480,-50.293,-73.730,-52.246,-60.059,-60.059
1687769010.484,-53.711,-79.590,-55.664,-42.969,112.793
1687769010.488,-53.223,-79.590,-56.152,-47.852,200.684
1687769010.491,-57.129,-77.148,-53.223,-57.129,46.875
1687769010.495,-54.688,-74.707,-50.781,-62.988,-166.504
1687769010.499,-50.293,-71.289,-56.641,-54.688,-14.160
1687769010.503,-55.664,-76.172,-63.965,-54.199,236.328
1687769010.507,-50.781,-76.660,-61.523,-64.453,0.000
1687769010.524,-52.734,-72.754,-63.477,-66.895,-213.379
1687769010.528,-56.152,-72.266,-60.059,-62.988,-151.855
1687769010.532,-52.246,-72.754,-57.617,-56.641,-48.828
1687769010.536,-49.316,-74.219,-60.547,-59.570,-101.562
1687769010.540,-46.387,-79.590,-63.477,-61.523,-170.410
1687769010.544,-47.852,-81.055,-65.918,-55.176,-51.758
1687769010.548,-50.781,-78.125,-65.918,-47.852,2.930
1687769010.551,-48.828,-74.219,-62.988,-47.852,-33.203
1687769010.555,-40.527,-75.684,-62.500,-50.293,-98.633
1687769010.559,-44.922,-83.496,-68.359,-56.152,96.680
1687769010.563,-51.270,-81.055,-67.871,-54.199,205.078
1687769010.567,-43.457,-75.684,-65.918,-56.641,-64.941
1687769010.569,-47.363,-78.613,-62.012,-58.594,-60.059
1687769010.573,-47.852,-79.102,-61.523,-53.223,45.898
1687769010.577,-49.805,-76.660,-62.988,-57.617,-127.930
1687769010.581,-63.477,-76.660,-62.012,-54.688,-210.938
1687769010.585,-66.895,-78.613,-60.059,-50.781,-129.883
1687769010.589,-61.523,-78.613,-56.641,-48.828,-55.664
1687769010.593,-47.363,-73.242,-60.547,-40.527,39.062
1687769010.596,-41.504,-69.824,-63.965,-40.039,-115.723
1687769010.600,-47.363,-70.801,-67.383,-44.434,-57.129
1687769010.604,-49.805,-69.336,-69.824,-44.434,319.336
1687769010.608,-49.316,-66.406,-64.941,-41.992,94.238
1687769010.612,-42.480,-64.941,-63.477,-42.969,-218.262
1687769010.614,-41.504,-66.406,-64.941,-45.410,-126.953
1687769010.618,-48.340,-68.359,-66.406,-51.758,-59.082
1687769010.622,-53.711,-66.895,-66.895,-61.523,-157.715
1687769010.626,-49.805,-66.406,-67.383,-55.664,-151.367
1687769010.630,-47.363,-70.801,-69.336,-51.270,-85.938
1687769010.634,-51.758,-72.754,-71.289,-54.688,-23.926
1687769010.638,-54.199,-69.336,-69.824,-60.547,16.602
1687769010.641,-55.664,-74.219,-68.359,-66.895,-137.207
1687769010.645,-57.129,-79.102,-67.383,-56.641,29.785
1687769010.649,-54.199,-75.195,-63.965,-44.922,137.207
1687769010.653,-46.875,-72.266,-64.941,-46.387,-68.359
1687769010.657,-49.805,-71.289,-62.988,-56.641,-21.484
1687769010.659,-56.641,-70.312,-62.988,-51.270,180.176
1687769010.663,-55.176,-69.824,-64.941,-49.316,27.344
1687769010.667,-50.781,-72.266,-62.500,-55.176,-171.875
1687769010.671,-49.316,-68.359,-57.129,-46.875,-60.059
1687769010.675,-51.758,-67.383,-56.152,-45.898,-75.195
1687769010.679,-56.152,-68.848,-54.199,-56.152,-65.430
1687769010.683,-56.152,-66.895,-51.270,-53.223,-44.434
1687769010.686,-47.852,-71.777,-54.688,-45.410,84.961
1687769010.690,-53.223,-68.359,-58.594,-50.781,189.941
1687769010.694,-60.547,-63.965,-61.035,-55.664,-34.668
1687769010.698,-57.617,-66.406,-63.477,-54.688,-175.293
1687769010.702,-61.035,-68.848,-64.453,-49.805,-31.738
1687769010.705,-60.059,-64.941,-62.012,-50.781,47.363
1687769010.709,-58.594,-63.477,-63.477,-53.711,-68.848
1687769010.713,-63.477,-67.871,-65.430,-57.129,-38.574
1687769010.717,-64.941,-65.918,-67.383,-57.129,24.414
1687769010.721,-58.594,-57.617,-65.430,-49.805,-57.617
1687769010.725,-55.664,-56.641,-62.988,-53.223,-119.629
1687769010.729,-59.082,-61.523,-65.918,-55.176,45.898
1687769010.732,-57.129,-59.570,-63.477,-50.293,146.484
1687769010.736,-53.223,-55.176,-57.129,-46.387,-29.297
1687769010.740,-48.828,-53.711,-56.152,-46.875,-195.312
1687769010.744,-44.922,-52.246,-59.082,-46.875,-69.824
1687769010.748,-38.574,-51.758,-59.082,-37.109,252.441
1687769010.749,-43.457,-57.129,-53.223,-42.969,190.430
1687769010.753,-57.617,-58.594,-54.688,-57.129,-166.504
1687769010.757,-56.152,-57.617,-61.035,-58.105,-140.137
1687769010.761,-54.199,-59.082,-59.082,-62.012,-55.664
1687769010.765,-57.129,-60.059,-59.570,-59.082,-33.691
1687769010.769,-59.082,-59.570,-62.988,-57.129,17.578
1687769010.773,-66.406,-65.430,-67.871,-63.965,120.117
1687769010.776,-66.406,-65.918,-65.918,-60.059,303.223
1687769010.780,-52.246,-56.641,-57.129,-54.688,66.895
1687769010.784,-45.410,-59.082,-56.152,-50.293,-163.086
1687769010.788,-41.992,-56.152,-52.734,-51.270,-156.738
1687769010.792,-45.410,-55.664,-50.293,-55.664,-175.781
1687769010.794,-53.223,-57.129,-53.711,-51.758,-179.688
1687769010.798,-51.270,-51.270,-55.176,-46.875,-177.246
1687769010.802,-51.270,-49.316,-56.152,-46.875,-95.215
1687769010.806,-48.340,-48.340,-57.129,-47.852,-98.633
1687769010.810,-52.246,-48.828,-58.594,-44.434,-193.848
1687769010.814,-62.012,-50.293,-61.523,-47.363,-111.816
1687769010.818,-52.734,-45.410,-60.059,-41.992,218.750
1687769010.821,-47.852,-44.434,-57.129,-38.086,228.027
1687769010.825,-51.758,-51.270,-61.523,-41.992,-53.223
1687769010.829,-59.082,-60.059,-68.359,-41.016,-125.000
1687769010.833,-66.895,-60.059,-62.012,-41.504,68.359
1687769010.837,-62.500,-51.758,-65.918,-44.922,33.691
1687769010.839,-53.711,-54.199,-71.289,-40.527,-160.156
1687769010.843,-53.711,-59.570,-63.965,-36.621,-60.547
1687769010.847,-58.594,-55.176,-61.035,-38.574,-11.230
1687769010.851,-64.453,-59.082,-64.941,-41.016,-140.137
1687769010.855,-66.406,-61.523,-61.523,-44.922,-190.918
1687769010.859,-58.594,-56.641,-59.570,-41.992,-14.648
1687769010.863,-54.199,-58.105,-63.965,-32.227,139.160
1687769010.866,-62.012,-58.594,-63.965,-34.668,-35.156
1687769010.870,-61.035,-54.688,-62.988,-44.434,-132.812
1687769010.874,-56.152,-51.270,-65.430,-37.109,64.941
1687769010.878,-59.570,-51.758,-66.895,-34.180,132.324
1687769010.882,-54.199,-52.246,-63.477,-43.945,-97.168
1687769010.899,-57.617,-52.734,-68.848,-49.805,-166.992
1687769010.903,-60.059,-52.734,-72.266,-55.664,-159.668
1687769010.907,-56.152,-53.223,-71.289,-56.641,-127.930
1687769010.911,-58.105,-49.805,-67.871,-52.734,-194.336
1687769010.915,-48.340,-45.898,-66.406,-48.340,-215.820
1687769010.919,-47.363,-46.875,-68.359,-43.457,-63.477
1687769010.923,-55.664,-48.340,-69.336,-47.363,20.996
1687769010.926,-54.688,-49.316,-72.754,-51.270,-69.824
1687769010.930,-53.711,-50.781,-70.312,-49.805,-170.898
1687769010.934,-58.105,-50.781,-67.871,-43.945,8.301
1687769010.938,-62.988,-50.781,-65.430,-45.898,7.812
1687769010.942,-71.289,-55.664,-66.895,-55.664,-195.312
1687769010.944,-76.172,-57.617,-69.336,-54.688,-152.344
1687769010.948,-70.312,-54.688,-63.477,-49.805,117.188
1687769010.952,-67.383,-54.688,-59.570,-49.316,51.758
1687769010.956,-61.035,-59.082,-59.082,-47.363,-125.488
1687769010.960,-58.105,-58.594,-56.152,-45.898,-124.512
1687769010.964,-59.570,-55.176,-53.711,-47.363,-39.062
1687769010.968,-54.688,-57.129,-56.641,-47.363,-33.203
1687769010.971,-52.246,-55.176,-56.641,-41.504,-151.855
1687769010.975,-52.246,-51.270,-53.223,-34.668,12.695
1687769010.979,-48.340,-49.316,-51.270,-36.133,123.535
1687769010.983,-47.363,-48.340,-50.293,-46.387,-134.277
1687769010.987,-43.457,-48.340,-53.223,-44.434,-191.406
1687769010.989,-36.621,-49.316,-58.105,-39.551,-67.383
1687769010.993,-40.039,-50.781,-61.523,-41.504,-20.020
1687769010.997,-44.922,-47.363,-58.105,-43.457,-91.309
1687769011.001,-51.270,-43.945,-55.176,-43.945,-132.812
1687769011.005,-52.246,-56.152,-50.293,-35.156,8.301
1687769011.009,-35.156,-62.012,-57.129,-17.578,141.602
1687769011.013,-32.227,-41.016,-62.988,-24.414,72.266
1687769011.016,-58.594,-32.227,-63.477,-58.594,-71.289
1687769011.020,-67.383,-36.621,-68.359,-62.988,152.832
1687769011.024,-56.641,-31.250,-76.172,-55.664,167.969
1687769011.028,-55.664,-27.832,-83.496,-62.988,-88.379
1687769011.032,-57.617,-28.809,-85.938,-65.430,-19.531
1687769011.034,-50.781,-22.949,-87.402,-68.848,36.133
1687769011.038,-49.316,-17.578,-89.355,-74.219,-73.242
1687769011.042,-53.223,-11.230,-89.355,-81.543,-156.738
1687769011.046,-45.898,-4.883,-89.355,-79.102,-44.434
1687769011.050,-33.203,-7.324,-95.703,-74.219,-0.977
1687769011.054,-39.062,-9.277,-102.539,-86.426,-72.266
1687769011.058,-41.016,-3.418,-103.516,-83.496,-61.523
1687769011.061,-34.180,1.465,-107.910,-71.777,89.844
1687769011.065,-25.391,5.371,-112.793,-69.824,247.070
1687769011.069,-11.719,8.301,-112.793,-64.453,-12.695
1687769011.073,-15.137,9.277,-118.652,-70.801,-150.391
1687769011.077,-27.344,15.625,-118.164,-79.102,-80.078
1687769011.079,-16.113,15.625,-124.023,-64.453,-124.023
1687769011.083,-0.977,12.207,-125.000,-58.105,-163.574
1687769011.087,-0.488,9.766,-122.070,-60.547,-168.945
1687769011.091,-7.812,9.277,-122.559,-63.965,-145.996
1687769011.095,-14.160,11.719,-125.977,-61.523,-146.973
1687769011.099,-10.254,9.766,-125.977,-66.406,-135.742
1687769011.103,-7.324,11.230,-121.094,-57.617,-139.648
1687769011.106,0.000,12.695,-123.047,-41.016,200.684
1687769011.110,6.348,13.672,-120.605,-47.852,325.195
1687769011.114,-1.953,10.254,-125.000,-58.594,-154.297
1687769011.118,-2.930,11.230,-131.836,-57.129,-160.645
1687769011.122,4.395,14.648,-130.371,-54.688,45.898
1687769011.139,20.996,14.160,-130.859,-46.387,-53.711
1687769011.143,23.438,11.719,-129.395,-38.574,-148.926
1687769011.147,12.695,9.277,-129.395,-35.156,-44.922
1687769011.151,13.184,10.742,-128.906,-37.109,-37.598
1687769011.155,20.020,12.695,-125.977,-39.062,-104.004
1687769011.159,31.738,12.207,-125.977,-32.227,-24.902
1687769011.163,36.621,12.695,-121.582,-25.879,134.766
1687769011.166,29.297,14.648,-119.141,-23.926,176.758
1687769011.170,27.344,13.672,-119.629,-28.320,18.066
1687769011.174,30.762,13.184,-114.258,-29.785,-105.469
1687769011.178,37.598,9.277,-106.934,-24.902,-8.301
1687769011.182,37.109,2.930,-108.398,-33.203,-1.465
1687769011.171,25.391,3.418,-113.281,-38.574,-176.270
1687769011.175,17.578,0.977,-115.723,-28.320,-217.773
1687769011.179,16.602,-2.441,-121.582,-32.715,-158.691
1687769011.183,27.344,-3.418,-122.559,-28.320,-92.773
1687769011.187,29.785,-6.348,-117.676,-21.484,-138.184
1687769011.191,12.207,-11.719,-114.258,-31.738,-101.074
1687769011.195,12.207,-13.672,-108.887,-30.762,57.617
1687769011.198,22.949,-6.836,-104.492,-22.461,55.176
1687769011.202,32.715,-1.953,-107.422,-8.789,-78.125
1687769011.206,34.180,-7.812,-105.957,-3.906,-140.137
1687769011.210,21.973,-8.301,-103.027,-7.812,208.984
1687769011.214,9.766,-7.324,-100.098,-12.207,290.527
1687769011.214,16.602,-7.324,-96.191,-16.602,-112.305
1687769011.218,22.949,-5.371,-97.168,-17.578,-56.641
1687769011.222,21.973,-6.348,-94.238,-20.996,73.242
1687769011.226,14.160,-4.395,-85.938,-20.996,-62.012
1687769011.230,0.488,-8.789,-88.867,-18.066,-163.086
1687769011.234,4.395,-10.254,-89.844,-17.090,15.137
1687769011.238,13.184,-8.301,-81.055,-0.488,402.832
1687769011.241,13.184,-9.277,-77.148,1.953,222.656
1687769011.245,8.789,-11.719,-80.078,-9.766,-164.551
1687769011.249,6.348,-11.230,-77.637,-9.277,-51.758
1687769011.253,14.648,-9.277,-73.242,0.000,-54.688
1687769011.257,14.160,-9.277,-74.707,0.000,-159.668
1687769011.274,17.578,-8.789,-77.637,1.465,-151.367
1687769011.278,14.648,-15.625,-74.707,4.395,-20.996
1687769011.282,9.277,-12.695,-69.336,-2.930,-13.184
1687769011.286,7.812,-7.812,-63.965,-6.836,-106.445
1687769011.290,7.324,-15.625,-59.570,-4.395,-136.719
1687769011.294,7.324,-18.066,-62.012,-3.906,-38.086
1687769011.298,-0.977,-17.090,-67.871,-11.719,41.992
1687769011.301,-10.742,-20.996,-66.406,-20.508,-66.406
1687769011.305,-5.371,-18.555,-62.988,-23.926,-108.398
1687769011.309,-8.301,-18.066,-59.570,-26.367,37.109
1687769011.313,-16.113,-21.484,-56.641,-33.203,6.836
1687769011.317,-18.555,-25.879,-58.594,-35.645,-77.148
1687769011.319,-21.484,-26.855,-58.105,-19.043,-58.594
1687769011.323,-20.020,-21.484,-52.246,-12.207,23.926
1687769011.327,-19.531,-20.508,-53.711,-25.391,-23.926
1687769011.331,-20.020,-22.949,-53.711,-22.949,-111.816
1687769011.335,-23.438,-22.949,-49.805,-24.414,34.180
1687769011.339,-30.762,-21.973,-50.781,-28.320,71.289
1687769011.343,-33.691,-22.461,-48.828,-30.273,-91.309
1687769011.346,-35.645,-28.809,-46.387,-39.062,-172.363
1687769011.350,-33.691,-31.738,-44.434,-40.039,-35.156
1687769011.354,-28.320,-30.273,-43.945,-31.738,117.188
1687769011.358,-31.738,-26.855,-45.898,-31.250,-22.949
1687769011.362,-37.109,-29.297,-46.875,-35.156,-123.047
1687769011.364,-33.203,-28.320,-44.434,-32.715,-17.090
1687769011.368,-28.320,-29.785,-51.270,-26.855,37.109
1687769011.372,-27.832,-31.738,-48.828,-35.156,-145.508
1687769011.376,-25.391,-31.250,-49.316,-31.250,-188.965
1687769011.380,-30.762,-32.715,-52.246,-22.949,-134.277
1687769011.384,-29.785,-32.227,-44.434,-27.832,-139.160
1687769011.388,-20.996,-25.879,-42.969,-23.926,-72.266
1687769011.391,-34.668,-29.297,-46.387,-32.227,-44.434
1687769011.395,-44.922,-36.133,-52.246,-38.086,197.266
1687769011.399,-46.875,-33.203,-52.246,-31.250,276.367
1687769011.403,-45.410,-32.227,-45.410,-36.621,-85.449
1687769011.407,-36.621,-30.762,-40.527,-41.992,-41.992
1687769011.409,-28.809,-31.738,-39.062,-39.062,95.215
1687769011.413,-23.438,-25.879,-36.621,-41.992,-111.816
1687769011.417,-27.832,-23.438,-35.156,-48.828,-180.176
1687769011.421,-29.785,-31.250,-39.062,-45.410,-63.477
1687769011.425,-29.297,-34.668,-48.828,-43.457,-30.762
1687769011.429,-40.039,-36.621,-45.410,-41.016,22.949
1687769011.433,-49.316,-36.621,-41.016,-38.574,20.020
1687769011.436,-49.805,-37.598,-43.457,-38.086,74.707
1687769011.440,-60.547,-40.039,-34.668,-26.855,325.195
1687769011.444,-62.500,-39.062,-28.809,-28.809,104.980
1687769011.448,-56.152,-41.504,-31.250,-38.574,-164.062
1687769011.452,-60.059,-41.992,-35.645,-41.992,-103.516
1687769011.455,-65.430,-42.969,-37.598,-46.387,-85.938
1687769011.459,-56.152,-40.527,-35.156,-48.828,-140.137
1687769011.463,-44.434,-43.457,-35.156,-43.945,-133.789
1687769011.467,-36.133,-44.922,-31.250,-46.387,-87.891
1687769011.471,-38.086,-36.621,-25.879,-51.270,-74.219
1687769011.475,-50.293,-39.062,-26.367,-48.828,-61.035
1687769011.479,-49.316,-41.992,-30.273,-48.828,-88.867
1687769011.482,-48.340,-41.504,-31.738,-39.551,64.453
1687769011.486,-48.828,-45.410,-27.344,-36.621,143.555
1687769011.490,-42.480,-47.363,-28.320,-47.852,-185.547
1687769011.494,-55.664,-50.781,-26.855,-51.270,-133.789
1687769011.498,-62.988,-49.805,-23.926,-44.922,208.984
1687769011.499,-56.641,-39.551,-22.949,-51.758,95.703
1687769011.503,-54.688,-41.016,-19.531,-55.176,-97.656
1687769011.507,-51.758,-45.410,-24.414,-52.246,-75.195
1687769011.511,-61.523,-45.410,-29.297,-50.781,-72.754
1687769011.515,-67.383,-47.852,-23.438,-52.734,-135.254
1687769011.519,-58.105,-44.922,-19.043,-53.223,-73.730
1687769011.523,-61.035,-46.387,-24.414,-54.199,140.625
1687769011.526,-61.035,-47.363,-25.879,-59.570,205.566
1687769011.530,-61.035,-41.992,-21.484,-66.406,-9.277
1687769011.534,-68.359,-41.992,-24.902,-65.918,-151.855
1687769011.538,-69.336,-42.480,-25.879,-59.570,-90.820
1687769011.542,-61.523,-39.062,-25.879,-59.570,-63.477
1687769011.547,-54.199,-35.156,-24.902,-67.383,-78.613
1687769011.551,-60.059,-37.109,-22.949,-65.918,-20.508
1687769011.555,-62.012,-38.086,-23.438,-58.594,31.250
1687769011.559,-55.664,-36.133,-26.855,-57.617,-52.246
1687769011.563,-47.363,-37.109,-27.344,-57.129,-150.879
1687769011.567,-47.852,-35.156,-25.879,-56.641,-43.457
1687769011.571,-51.758,-32.227,-25.391,-51.270,194.824
1687769011.574,-53.711,-29.297,-23.438,-55.176,111.328
1687769011.578,-49.805,-27.344,-22.949,-60.059,-57.617
1687769011.582,-45.898,-28.320,-22.949,-64.453,-65.918
1687769011.586,-48.340,-31.738,-21.973,-64.453,12.695
1687769011.590,-48.340,-31.250,-19.531,-53.711,3.418
1687769011.589,-45.410,-24.414,-21.973,-57.129,-178.711
1687769011.593,-44.434,-23.438,-24.414,-64.453,-137.207
1687769011.597,-45.898,-25.879,-19.531,-54.688,74.219
1687769011.601,-39.551,-20.996,-13.184,-49.316,26.855
1687769011.605,-37.598,-20.996,-18.555,-57.129,-172.852
1687769011.609,-44.922,-24.414,-26.855,-66.895,-63.477
1687769011.613,-40.527,-20.508,-27.344,-58.594,205.566
1687769011.616,-34.668,-22.949,-22.949,-47.852,41.504
1687769011.620,-39.062,-26.367,-22.461,-48.340,-179.688
1687769011.624,-42.480,-26.855,-22.461,-53.223,-107.422
1687769011.628,-45.410,-28.809,-22.949,-55.664,-106.445
1687769011.632,-45.410,-26.855,-22.461,-53.711,-148.438
1687769011.649,-39.551,-22.461,-20.996,-57.129,-142.090
1687769011.653,-33.691,-21.484,-19.531,-59.082,-106.934
1687769011.657,-35.156,-23.926,-17.090,-60.547,-68.848
1687769011.661,-43.945,-26.855,-21.484,-65.430,-121.094
1687769011.665,-46.387,-25.391,-18.555,-60.547,-196.289
1687769011.669,-42.969,-24.414,-13.184,-52.734,-27.832
1687769011.673,-45.410,-25.879,-18.555,-55.664,90.820
1687769011.676,-51.758,-26.855,-19.531,-57.617,10.742
1687769011.680,-54.199,-27.832,-16.113,-59.082,-70.312
1687769011.684,-55.664,-28.320,-14.160,-60.059,131.348
1687769011.688,-55.176,-32.715,-15.137,-61.523,247.070
1687769011.692,-44.922,-31.250,-17.578,-58.105,-41.992
1687769011.694,-41.992,-25.391,-22.461,-50.781,-62.500
1687769011.698,-48.340,-25.391,-24.902,-52.734,11.719
1687769011.702,-52.246,-26.367,-25.391,-52.246,-104.492
1687769011.706,-54.688,-25.879,-24.414,-50.293,-207.520
1687769011.710,-51.758,-19.043,-20.996,-47.852,-21.484
1687769011.714,-53.711,-20.996,-20.508,-45.410,136.719
1687769011.718,-59.082,-25.391,-20.020,-57.617,5.371
1687769011.721,-57.129,-15.625,-22.949,-59.082,-79.102
1687769011.725,-57.617,-19.043,-20.020,-50.293,14.160
1687769011.729,-61.523,-27.344,-18.066,-42.969,229.980
1687769011.733,-55.664,-19.043,-19.531,-37.598,45.410
1687769011.737,-56.641,-18.066,-18.555,-44.434,-127.930
1687769011.739,-64.941,-25.391,-24.414,-52.734,-109.375
1687769011.743,-62.500,-25.391,-27.832,-50.781,-143.066
1687769011.747,-55.176,-23.438,-24.902,-53.711,-140.625
1687769011.751,-53.223,-18.555,-19.531,-57.129,-110.352
1687769011.755,-54.688,-17.090,-23.438,-60.547,-86.914
1687769011.759,-58.105,-16.602,-27.344,-65.918,-93.262
1687769011.763,-56.152,-14.160,-27.344,-62.500,-29.785
1687769011.766,-47.363,-19.043,-25.879,-50.781,-115.234
1687769011.770,-44.922,-21.973,-20.508,-36.621,66.406
1687769011.774,-51.270,-18.066,-15.625,-47.363,175.293
1687769011.778,-57.617,-16.113,-17.090,-58.105,-131.836
1687769011.782,-60.547,-18.066,-18.066,-52.246,-118.164
1687769011.784,-59.570,-20.508,-11.719,-47.363,36.621
1687769011.788,-55.176,-19.531,-8.789,-49.805,-42.969
1687769011.792,-57.129,-15.625,-9.766,-47.852,-201.660
1687769011.796,-59.570,-19.531,-20.996,-38.574,-106.934
1687769011.800,-53.223,-20.996,-23.438,-37.598,28.320
1687769011.804,-48.340,-14.160,-18.066,-43.945,-4.395
1687769011.808,-45.410,-11.230,-15.137,-51.758,-38.086
1687769011.811,-45.898,-13.184,-8.789,-49.316,38.086
1687769011.815,-48.828,-16.113,-5.859,-40.527,39.551
1687769011.819,-39.551,-15.137,-10.742,-29.785,-132.324
1687769011.823,-45.898,-12.695,-14.648,-41.016,-194.336
1687769011.827,-51.270,-15.625,-9.277,-47.363,39.062
1687769011.829,-49.805,-15.137,-3.418,-35.156,252.930
1687769011.833,-49.805,-15.625,-2.930,-38.086,-9.277
1687769011.837,-48.340,-12.207,-3.418,-46.875,-135.742
1687769011.841,-53.223,-19.043,-5.859,-40.039,-0.977
1687769011.845,-41.504,-20.020,-13.672,-25.879,-2.441
1687769011.849,-39.062,-12.695,-11.230,-33.691,-25.391
1687769011.853,-59.570,-15.137,-2.930,-49.805,-17.090
1687769011.856,-60.059,-15.137,-4.395,-40.527,101.074
1687769011.860,-51.270,-16.113,-4.883,-33.203,65.918
1687769011.864,-55.664,-17.090,-6.836,-45.410,-166.016
1687769011.868,-54.688,-17.578,-9.766,-43.945,-33.203
1687769011.872,-61.035,-23.926,-11.719,-48.340,62.988
1687769011.875,-62.012,-25.391,-9.277,-55.664,-116.211
1687769011.879,-55.176,-20.508,-11.230,-60.059,-259.766
1687769011.883,-56.152,-20.020,-16.113,-49.805,-64.941
1687769011.887,-58.594,-22.461,-15.137,-49.316,61.035
1687769011.891,-62.500,-20.996,-13.672,-64.941,-91.797
1687769011.895,-63.965,-17.090,-14.160,-66.895,-82.031
1687769011.899,-57.129,-20.996,-17.090,-57.129,100.098
1687769011.902,-47.852,-21.973,-15.137,-47.852,229.980
1687769011.906,-48.828,-17.090,-10.254,-53.223,-68.359
1687769011.910,-52.734,-20.508,-13.184,-52.734,-202.637
1687769011.914,-57.129,-21.973,-14.648,-55.664,-36.621
1687769011.918,-62.988,-19.531,-12.207,-63.477,-8.789
1687769011.920,-57.129,-19.531,-10.254,-52.734,-108.887
1687769011.924,-54.199,-18.066,-9.766,-46.387,-129.395
1687769011.928,-57.129,-16.113,-12.695,-48.340,-103.516
1687769011.932,-64.453,-19.043,-20.020,-52.246,-128.418
1687769011.936,-73.242,-26.855,-22.461,-62.500,-145.996
1687769011.940,-63.965,-28.320,-13.184,-64.941,-125.000
1687769011.944,-55.176,-21.484,-9.277,-54.199,189.941
1687769011.947,-66.406,-21.484,-12.695,-52.734,248.047
1687769011.951,-61.035,-19.043,-5.371,-58.594,-41.016
1687769011.955,-56.641,-19.531,2.930,-57.129,-62.500
1687769011.959,-58.594,-22.949,-0.488,-49.316,48.828
1687769011.963,-49.805,-23.926,-5.371,-45.410,17.090
1687769011.964,-49.805,-26.367,-8.301,-49.316,-177.246
1687769011.968,-63.965,-29.297,-8.789,-58.105,-125.977
1687769011.972,-62.012,-24.414,-3.418,-55.664,20.996
1687769011.976,-55.176,-18.066,-4.395,-48.828,-121.094
1687769011.980,-55.176,-18.555,-7.324,-48.340,-191.895
1687769011.984,-58.594,-20.508,-6.348,-40.527,77.637
1687769011.988,-67.383,-20.020,-7.812,-48.828,191.406
1687769011.991,-63.477,-19.043,-8.301,-58.594,-5.371
1687769011.995,-56.641,-12.207,-8.301,-53.711,-126.465
1687769011.999,-55.664,-10.742,-6.836,-53.223,-20.508
1687769012.003,-55.664,-11.230,-5.371,-50.293,152.832
1687769012.007,-61.523,-15.625,-2.930,-58.594,-84.473
1687769012.024,-61.035,-16.602,-1.465,-55.664,-216.309
1687769012.028,-55.664,-17.578,-4.883,-54.199,-97.168
1687769012.032,-50.781,-19.043,-6.836,-61.523,-58.105
1687769012.036,-49.805,-12.207,-3.418,-63.477,-102.539
1687769012.040,-51.758,-11.230,-3.418,-66.406,-115.723
1687769012.044,-54.199,-15.625,-2.930,-65.430,-81.543
1687769012.048,-55.664,-20.508,-4.883,-66.895,-97.168
1687769012.051,-52.734,-20.996,-12.207,-66.895,-105.469
1687769012.055,-51.270,-26.855,-17.090,-64.453,-157.715
1687769012.059,-59.570,-28.320,-16.113,-58.594,95.703
1687769012.063,-67.383,-16.602,-13.672,-54.199,241.211
1687769012.067,-68.359,-10.254,-9.277,-63.477,-81.055
1687769012.069,-45.898,-9.766,-22.461,-49.316,-58.105
1687769012.073,-10.254,-3.906,-33.203,-8.789,120.605
1687769012.077,-18.066,-9.766,-8.789,-16.113,-22.461
1687769012.081,-66.406,-33.203,13.184,-59.082,-161.621
1687769012.085,-94.238,-33.203,6.836,-77.148,-91.797
1687769012.089,-94.727,-27.344,10.254,-77.637,-6.836
1687769012.093,-104.980,-40.039,19.043,-87.891,-35.156
1687769012.096,-120.605,-48.828,19.531,-98.633,-146.484
1687769012.100,-127.930,-51.758,25.391,-103.027,-21.973
1687769012.104,-137.695,-49.316,33.691,-106.934,172.852
1687769012.108,-145.020,-44.922,42.480,-107.422,-39.062
1687769012.112,-148.926,-46.875,49.805,-104.492,-114.746
1687769012.115,-156.250,-54.688,55.176,-107.910,71.289
1687769012.119,-165.527,-60.059,58.594,-118.164,-20.508
1687769012.123,-177.246,-64.941,62.500,-123.047,-152.344
1687769012.127,-188.965,-73.242,71.289,-127.930,-92.773
1687769012.131,-191.895,-75.684,77.637,-133.789,-121.582
1687769012.135,-187.500,-73.242,79.590,-124.512,-104.980
1687769012.139,-195.312,-75.684,86.426,-123.047,-15.137
1687769012.142,-190.918,-77.148,91.797,-125.488,-100.586
1687769012.146,-183.594,-84.961,91.309,-120.605,83.496
1687769012.150,-187.012,-84.473,94.727,-124.023,123.047
1687769012.154,-184.570,-80.078,94.727,-120.117,-92.773
1687769012.158,-187.500,-86.914,89.844,-111.816,-34.668
1687769012.160,-196.777,-92.285,87.402,-113.770,47.363
1687769012.164,-190.918,-91.797,90.820,-109.863,-66.895
1687769012.168,-180.664,-96.191,94.238,-101.562,-101.562
1687769012.172,-185.059,-103.027,95.215,-96.680,33.691
1687769012.176,-186.035,-104.492,98.145,-90.332,80.078
1687769012.180,-182.129,-102.539,98.633,-92.773,-9.277
1687769012.184,-177.246,-103.516,97.168,-97.168,-131.348
1687769012.187,-171.875,-103.027,95.215,-97.168,14.160
1687769012.191,-168.945,-102.051,93.750,-79.102,260.254
1687769012.195,-166.992,-99.609,98.145,-73.730,35.645
1687769012.199,-163.086,-101.074,94.727,-83.008,-192.383
1687769012.203,-164.062,-104.004,90.820,-91.309,-178.711
1687769012.204,-151.367,-98.633,90.820,-85.449,-134.277
1687769012.208,-125.977,-87.891,85.449,-64.941,-135.254
1687769012.212,-131.836,-92.285,74.219,-66.895,-175.293
1687769012.216,-140.137,-93.750,65.918,-64.941,-128.418
1687769012.220,-120.605,-84.473,62.012,-47.852,-13.184
1687769012.224,-104.492,-79.102,61.523,-43.457,6.348
1687769012.228,-103.027,-76.660,58.594,-50.781,-80.078
1687769012.231,-107.422,-73.242,49.316,-52.734,90.820
1687769012.235,-104.492,-68.848,44.922,-50.293,93.750
1687769012.239,-97.656,-68.359,45.410,-42.480,-196.289
1687769012.243,-92.773,-65.430,41.016,-39.551,-81.543
1687769012.247,-86.426,-62.500,35.645,-40.039,49.805
1687769012.249,-83.008,-55.176,31.250,-41.016,-140.625
1687769012.253,-81.055,-52.734,29.785,-42.969,-222.168
1687769012.257,-76.660,-54.688,29.785,-43.945,-145.996
1687769012.261,-70.312,-50.781,22.461,-39.551,204.102
1687769012.265,-57.617,-47.363,21.973,-42.480,215.820
1687769012.269,-51.270,-45.410,25.879,-55.176,-38.086
1687769012.273,-51.758,-43.945,18.066,-43.945,114.258
1687769012.276,-46.387,-45.898,17.090,-28.320,303.223
1687769012.280,-43.457,-37.598,21.973,-27.344,86.914
1687769012.284,-43.457,-35.156,21.973,-21.973,-155.762
1687769012.288,-54.688,-33.691,21.973,-15.625,-131.348
1687769012.292,-62.500,-36.621,23.438,-18.555,-115.723
1687769012.294,-54.688,-44.434,22.461,-27.832,-110.840
1687769012.298,-49.805,-41.504,20.020,-29.297,-96.680
1687769012.302,-45.898,-39.062,18.066,-20.020,-73.242
1687769012.306,-45.898,-37.598,13.672,-14.648,-80.078
1687769012.310,-51.270,-36.621,5.371,-24.902,-130.371
1687769012.314,-51.758,-36.621,5.859,-37.109,-177.734
1687769012.318,-48.340,-36.133,12.695,-28.809,132.812
1687769012.321,-41.504,-34.668,8.301,-24.414,218.750
1687769012.325,-41.504,-35.156,3.906,-27.832,-49.805
1687769012.329,-49.805,-34.668,6.348,-27.344,-111.328
1687769012.333,-57.129,-39.551,1.465,-29.297,29.785
1687769012.337,-50.293,-38.574,0.000,-33.203,72.266
1687769012.339,-38.086,-34.180,0.488,-32.227,-121.094
1687769012.343,-40.527,-36.133,-6.836,-35.645,-69.336
1687769012.347,-48.340,-37.109,-8.301,-38.574,61.035
1687769012.351,-47.363,-34.180,-4.395,-32.715,-69.824
1687769012.355,-40.527,-34.180,1.465,-25.391,-130.371
1687769012.359,-36.133,-34.180,-0.977,-16.113,104.004
1687769012.363,-36.621,-33.203,-8.301,-20.508,194.824
1687769012.366,-44.434,-30.762,-8.789,-34.180,-56.641
1687769012.370,-50.293,-30.762,-5.859,-38.574,-240.234
1687769012.374,-42.969,-25.879,-5.371,-27.832,-89.355
1687769012.378,-40.527,-21.484,-8.789,-30.762,-24.902
1687769012.382,-44.434,-26.367,-9.277,-41.016,-62.988
1687769012.399,-43.457,-26.367,-8.301,-38.086,-101.074
1687769012.403,-43.945,-27.832,-5.859,-39.062,-79.590
1687769012.407,-38.574,-28.320,-5.859,-32.715,-19.531
1687769012.411,-28.809,-18.555,-5.859,-24.902,-57.129
1687769012.415,-26.367,-12.695,0.000,-23.438,-119.629
1687769012.419,-25.391,-13.672,2.441,-22.461,-25.879
1687769012.423,-29.297,-12.207,1.465,-26.855,96.191
1687769012.426,-36.133,-12.695,-1.953,-29.785,-76.172
1687769012.430,-33.691,-16.113,-4.883,-15.137,-139.648
1687769012.434,-33.203,-19.531,-4.395,-10.742,123.535
1687769012.438,-37.109,-19.043,0.000,-22.461,161.621
1687769012.442,-40.039,-21.973,1.953,-27.832,-51.270
1687769012.444,-38.574,-27.832,1.953,-31.250,-37.598
1687769012.448,-36.133,-27.832,3.418,-26.855,109.375
1687769012.452,-39.551,-25.879,1.465,-26.855,64.941
1687769012.456,-38.574,-25.391,0.000,-33.203,-126.953
1687769012.460,-40.039,-24.902,-1.465,-35.156,-38.086
1687769012.464,-45.898,-22.949,-3.906,-38.574,115.723
1687769012.468,-40.039,-22.461,-3.906,-39.551,24.414
1687769012.471,-34.180,-25.879,-10.254,-32.715,-83.984
1687769012.475,-34.180,-24.414,-9.277,-19.531,-11.719
1687769012.479,-41.504,-22.949,-4.883,-18.555,154.297
1687769012.483,-50.293,-23.438,-4.395,-37.109,-65.918
1687769012.487,-40.527,-26.367,-3.418,-40.527,-170.898
1687769012.489,-31.250,-26.367,-3.418,-36.133,-89.355
1687769012.493,-39.551,-22.461,-4.395,-33.691,-81.055
1687769012.497,-44.922,-24.902,-8.301,-37.109,-97.168
1687769012.501,-44.434,-28.809,-13.672,-48.340,-155.273
1687769012.505,-45.898,-32.227,-13.672,-47.852,-45.898
1687769012.509,-44.922,-33.203,-12.207,-42.969,63.477
1687769012.513,-43.457,-29.297,-13.184,-41.992,-37.109
1687769012.516,-50.293,-26.855,-20.508,-47.852,-169.434
1687769012.520,-52.246,-28.809,-20.996,-43.945,75.684
1687769012.524,-47.363,-27.344,-18.555,-39.551,98.633
1687769012.528,-40.527,-27.832,-16.602,-41.016,-146.973
1687769012.532,-36.621,-30.762,-14.160,-37.109,-56.152
1687769012.535,-53.711,-28.809,-15.625,-50.781,28.809
1687769012.539,-58.594,-28.320,-15.137,-55.176,-104.492
1687769012.543,-46.875,-28.809,-22.949,-41.992,-204.590
1687769012.547,-41.992,-27.344,-23.438,-50.293,-66.895
1687769012.551,-46.875,-28.809,-21.484,-52.246,-29.297
1687769012.555,-50.293,-31.738,-23.926,-51.270,-4.395
1687769012.559,-55.664,-28.320,-19.043,-55.664,10.742
1687769012.562,-53.711,-25.879,-20.020,-47.852,117.676
1687769012.566,-47.852,-24.902,-21.484,-44.434,342.773
1687769012.570,-51.758,-27.344,-21.484,-43.457,61.035
1687769012.574,-50.781,-26.855,-23.926,-39.551,-208.984
1687769012.578,-51.270,-28.809,-23.926,-39.551,-126.953
1687769012.579,-50.293,-29.785,-18.555,-41.992,-110.352
1687769012.583,-45.410,-28.809,-14.160,-41.504,-175.293
1687769012.587,-41.992,-26.855,-12.695,-36.133,-211.426
1687769012.591,-45.898,-20.996,-12.695,-40.039,-164.062
1687769012.595,-49.805,-23.438,-15.625,-37.598,-173.340
1687769012.599,-44.922,-29.297,-16.113,-38.086,-99.121
1687769012.603,-43.457,-21.973,-20.996,-54.199,-8.301
1687769012.606,-42.969,-23.438,-20.996,-51.270,121.582
1687769012.610,-52.734,-18.555,-7.324,-50.781,146.973
1687769012.614,-60.547,-14.648,-4.883,-66.895,-55.664
1687769012.618,-55.664,-23.438,-13.184,-63.965,-66.895
1687769012.622,-49.316,-19.531,-10.742,-51.270,172.852
1687769012.625,-43.457,-18.066,-11.230,-43.457,127.930
1687769012.629,-42.480,-19.531,-15.625,-46.387,-122.070
1687769012.633,-49.316,-20.996,-15.625,-52.246,-107.910
1687769012.637,-53.711,-24.414,-17.090,-49.805,-61.035
1687769012.641,-49.805,-21.973,-14.160,-54.688,-103.027
1687769012.645,-46.875,-24.414,-20.020,-58.594,-134.277
1687769012.649,-44.434,-22.461,-17.578,-46.387,100.098
1687769012.652,-49.805,-19.043,-15.625,-39.062,224.121
1687769012.656,-56.152,-22.461,-22.461,-48.340,-13.672
1687769012.660,-52.734,-25.879,-21.484,-54.199,-145.996
1687769012.664,-51.270,-30.762,-23.926,-52.246,-59.082
1687769012.668,-51.758,-27.344,-22.949,-46.387,33.691
1687769012.669,-55.176,-24.414,-21.484,-46.387,-34.180
1687769012.673,-58.105,-31.738,-23.438,-54.199,-115.723
1687769012.677,-51.270,-24.902,-22.461,-48.828,-57.129
1687769012.681,-41.992,-18.555,-21.484,-41.016,-11.230
1687769012.685,-48.828,-19.531,-21.484,-38.086,-50.781
1687769012.689,-56.641,-18.066,-21.973,-43.457,-51.758
1687769012.693,-54.688,-25.879,-30.273,-46.875,148.438
1687769012.696,-50.293,-28.809,-29.785,-45.410,214.355
1687769012.700,-41.016,-21.973,-22.949,-41.992,-118.652
1687769012.704,-45.410,-18.066,-23.926,-36.621,-136.719
1687769012.708,-53.223,-18.555,-24.902,-36.133,32.227
1687769012.712,-57.617,-24.414,-24.414,-41.016,-64.941
1687769012.730,-51.270,-21.484,-25.879,-39.062,-203.613
1687769012.734,-42.969,-19.531,-29.297,-37.109,-93.750
1687769012.738,-44.434,-20.020,-21.973,-36.621,85.449
1687769012.742,-45.410,-12.207,-13.672,-40.039,-83.008
1687769012.746,-37.598,-10.254,-17.578,-43.945,-219.727
1687769012.750,-31.738,-15.137,-22.949,-36.621,24.414
1687769012.754,-31.738,-18.555,-24.902,-30.762,157.227
1687769012.757,-32.227,-20.996,-20.996,-38.086,-80.078
1687769012.761,-36.621,-21.973,-20.020,-49.805,-212.402
1687769012.765,-41.504,-23.438,-24.902,-47.363,-68.848
1687769012.769,-37.598,-20.508,-22.461,-39.551,-40.527
1687769012.773,-30.273,-13.184,-19.531,-38.574,-142.578
1687769012.774,-26.367,-10.742,-18.066,-37.109,-140.625
1687769012.778,-35.645,-14.160,-16.602,-41.504,-128.418
1687769012.782,-44.434,-17.578,-20.996,-45.898,-60.059
1687769012.786,-44.434,-19.531,-22.949,-42.480,-27.832
1687769012.790,-42.969,-27.344,-26.855,-43.945,-35.645
1687769012.794,-38.086,-30.273,-26.855,-52.246,12.207
1687769012.798,-47.852,-22.949,-21.973,-62.500,18.555
1687769012.801,-54.199,-20.020,-18.555,-64.941,-57.129
1687769012.805,-49.805,-16.602,-18.555,-57.129,-156.250
1687769012.809,-49.316,-21.973,-22.461,-45.898,139.648
1687769012.813,-44.922,-24.902,-12.207,-41.992,255.859
1687769012.817,-43.945,-22.461,-11.230,-52.734,-45.410
1687769012.819,-52.734,-26.855,-23.926,-50.781,-62.500
1687769012.823,-56.152,-30.762,-27.344,-44.922,-2.441
1687769012.827,-48.828,-38.086,-33.203,-53.711,-118.652
1687769012.831,-47.852,-43.457,-30.762,-57.129,-194.824
1687769012.835,-49.316,-39.551,-21.973,-49.805,-105.469
1687769012.839,-49.805,-39.062,-24.414,-55.664,-45.898
1687769012.843,-56.641,-35.645,-26.367,-60.059,-65.918
1687769012.846,-53.711,-28.809,-20.996,-51.758,-129.395
1687769012.850,-40.527,-28.809,-17.578,-46.875,8.301
1687769012.854,-50.781,-28.320,-25.391,-45.410,303.223
1687769012.858,-64.941,-29.785,-25.879,-61.035,90.332
1687769012.862,-64.453,-35.156,-25.879,-66.406,-91.797
1687769012.864,-56.152,-32.227,-23.926,-64.941,15.137
1687769012.868,-46.387,-27.832,-19.043,-60.059,-73.242
1687769012.872,-44.922,-24.902,-15.625,-49.316,-138.672
1687769012.876,-50.781,-23.438,-12.695,-41.992,-84.961
1687769012.880,-59.082,-24.414,-17.090,-43.945,-15.625
1687769012.884,-58.594,-22.461,-16.602,-47.852,20.508
1687769012.888,-54.199,-24.902,-7.812,-40.527,-11.230
1687769012.891,-54.199,-26.367,-12.695,-42.480,-57.129
1687769012.895,-54.199,-24.902,-22.949,-42.480,195.801
1687769012.899,-57.129,-26.367,-20.996,-46.387,174.316
1687769012.903,-52.246,-29.297,-16.113,-54.199,-141.113
1687769012.907,-44.434,-29.785,-14.160,-50.293,-100.098
1687769012.909,-47.363,-26.855,-12.207,-46.387,15.625
1687769012.913,-49.316,-24.414,-9.277,-47.852,-108.887
1687769012.917,-49.805,-24.414,-14.648,-52.734,-199.707
1687769012.921,-49.316,-24.902,-16.602,-44.922,-109.863
1687769012.925,-44.922,-27.344,-15.625,-48.340,-85.938
1687769012.929,-38.086,-28.320,-19.531,-53.711,-79.590
1687769012.933,-39.062,-24.902,-22.461,-49.316,-63.965
1687769012.936,-49.805,-20.996,-19.043,-55.176,16.113
1687769012.940,-53.223,-22.461,-19.043,-53.223,142.578
1687769012.944,-45.410,-21.973,-15.625,-58.105,-59.570
1687769012.948,-43.457,-22.461,-15.625,-58.594,-154.785
1687769012.952,-41.016,-20.996,-22.949,-49.316,5.859
1687769012.954,-41.016,-21.484,-24.902,-53.711,-52.734
1687769012.958,-51.758,-25.879,-21.973,-53.223,-213.867
1687769012.962,-50.781,-28.320,-22.949,-47.852,-164.551
1687769012.966,-49.805,-30.762,-22.461,-54.199,-86.914
1687769012.970,-50.293,-29.297,-21.484,-52.734,-141.602
1687769012.974,-45.410,-25.879,-18.555,-47.852,-91.797
1687769012.978,-45.898,-22.461,-14.160,-48.340,-90.332
1687769012.981,-47.852,-21.484,-15.137,-36.621,55.176
1687769012.985,-47.852,-20.508,-12.207,-31.738,122.070
1687769012.989,-52.246,-22.461,-6.348,-40.039,-150.879
1687769012.993,-53.223,-23.926,-9.766,-39.551,-92.285
1687769012.997,-51.270,-21.484,-12.207,-32.227,87.402
1687769013.000,-42.969,-19.043,-8.301,-36.133,-35.156
1687769013.004,-42.480,-21.973,-10.254,-40.527,-174.805
1687769013.008,-46.387,-23.926,-13.184,-40.527,-76.660
1687769013.012,-44.922,-22.949,-10.254,-40.039,-15.137
1687769013.016,-46.875,-23.438,-6.836,-44.434,-126.465
1687769013.020,-41.016,-26.367,-11.719,-44.434,-123.047
1687769013.024,-33.203,-30.273,-17.578,-39.551,79.102
1687769013.027,-39.551,-26.855,-12.695,-36.133,207.520
1687769013.031,-50.781,-23.926,-17.090,-44.434,-26.855
1687769013.035,-47.852,-26.367,-22.461,-47.363,-140.625
1687769013.039,-43.457,-25.879,-16.113,-45.410,-62.012
1687769013.043,-45.410,-29.297,-15.625,-47.363,-76.172
1687769013.044,-41.504,-26.367,-14.648,-43.945,-132.812
1687769013.048,-45.898,-25.879,-17.090,-39.551,-83.984
1687769013.052,-48.828,-25.391,-14.648,-33.691,5.371
1687769013.056,-44.922,-21.973,-8.789,-37.598,-7.324
1687769013.060,-44.434,-21.484,-14.160,-41.992,-92.285
1687769013.064,-41.016,-30.273,-12.695,-29.297,-60.547
1687769013.068,-29.297,-29.297,-10.254,-4.395,197.754
1687769013.071,-38.574,-14.648,-15.137,-21.973,273.438
1687769013.075,-54.688,-7.812,-17.090,-55.176,-27.832
1687769013.079,-46.387,-9.766,-20.508,-52.734,-93.262
1687769013.083,-41.992,-6.348,-22.949,-48.828,99.121
1687769013.087,-47.852,3.418,-30.273,-57.129,31.738
1687769013.089,-64.941,3.906,-38.086,-82.031,-184.082
1687769013.093,-66.406,6.836,-45.410,-92.285,-138.184
1687769013.097,-56.152,7.324,-57.129,-88.379,-36.621
1687769013.101,-67.871,6.348,-62.988,-102.051,-96.191
1687769013.105,-74.707,10.742,-66.406,-105.469,-155.762
1687769013.109,-66.406,10.742,-71.289,-103.516,-39.062
1687769013.113,-59.570,13.184,-73.730,-118.164,80.566
1687769013.116,-44.434,18.066,-70.801,-117.676,-25.879
1687769013.120,-33.203,19.531,-67.871,-110.352,-161.621
1687769013.124,-31.738,22.949,-71.777,-104.492,-54.688
1687769013.128,-37.598,24.414,-74.219,-93.262,143.555
1687769013.132,-39.062,29.785,-68.359,-92.285,-16.113
1687769013.163,-28.809,32.227,-74.707,-91.797,-158.203
1687769013.167,-30.762,23.926,-86.914,-84.473,-111.328
1687769013.171,-34.180,23.438,-81.055,-74.219,-74.707
1687769013.175,-33.203,29.297,-76.172,-74.707,-116.699
1687769013.179,-27.344,29.297,-81.055,-72.266,-121.094
1687769013.183,-9.766,29.297,-80.566,-60.059,-33.203
1687769013.187,3.418,29.297,-78.125,-59.570,39.062
1687769013.190,-3.418,27.344,-84.961,-62.988,59.570
1687769013.194,-4.395,24.902,-89.355,-51.270,-45.410
1687769013.198,4.395,18.555,-82.520,-38.574,64.453
1687769013.202,17.578,17.090,-79.590,-33.203,196.289
1687769013.206,25.879,26.367,-79.590,-35.156,-99.609
1687769013.193,25.879,20.508,-80.078,-33.691,-145.020
1687769013.197,25.879,15.137,-79.590,-30.762,-30.273
1687769013.201,27.832,21.973,-79.102,-36.621,-111.328
1687769013.205,34.668,26.367,-79.102,-30.273,-169.434
1687769013.209,32.227,20.508,-84.961,-32.715,-89.355
1687769013.213,34.180,19.531,-91.309,-34.668,35.645
1687769013.217,26.367,18.555,-86.914,-31.250,20.508
1687769013.220,20.508,15.625,-83.496,-41.504,-127.441
1687769013.224,21.973,18.066,-83.496,-47.852,-82.520
1687769013.228,22.461,9.766,-88.867,-45.898,12.207
1687769013.232,29.785,7.324,-98.145,-40.527,-65.918
1687769013.236,27.832,8.789,-91.797,-46.875,-174.805
1687769013.238,21.973,7.812,-80.078,-46.875,-4.395
1687769013.242,27.832,8.789,-82.031,-42.480,275.879
1687769013.246,44.434,13.672,-80.078,-34.180,62.988
1687769013.250,41.016,14.160,-80.078,-28.809,-102.539
1687769013.254,29.785,14.160,-77.637,-33.691,-96.191
1687769013.258,32.715,16.602,-73.242,-31.250,-62.988
1687769013.262,41.016,12.207,-73.730,-19.531,-45.898
1687769013.265,41.016,14.648,-71.777,-15.625,-112.793
1687769013.269,39.062,9.766,-70.312,-14.648,137.695
1687769013.273,41.504,6.836,-64.941,-6.836,162.109
1687769013.277,35.156,11.719,-66.406,-6.348,-55.176
1687769013.281,44.434,12.207,-60.059,-6.836,5.371
1687769013.283,54.688,15.137,-52.246,5.371,245.605
1687769013.287,45.898,16.113,-54.199,-3.418,119.141
1687769013.291,36.621,14.160,-55.176,-16.602,-205.566
1687769013.295,30.273,10.254,-60.059,-20.508,-164.062
1687769013.299,15.625,9.277,-60.547,-24.902,-80.078
1687769013.303,10.254,9.766,-52.734,-11.719,20.996
1687769013.307,14.160,8.789,-48.828,-13.672,34.180
1687769013.310,3.418,2.441,-48.828,-31.250,13.672
1687769013.314,-12.695,0.488,-42.480,-38.086,83.984
1687769013.318,-16.602,1.465,-37.109,-41.016,-86.426
1687769013.322,-13.184,0.000,-34.668,-39.062,-202.148
1687769013.326,-14.160,-4.395,-33.691,-43.945,-104.492
1687769013.329,-14.160,-7.324,-40.527,-50.293,-19.531
1687769013.333,-19.531,-5.859,-41.504,-54.199,-73.242
1687769013.337,-20.996,-8.789,-45.898,-64.941,-90.332
1687769013.341,-10.254,-12.207,-41.992,-53.223,58.594
1687769013.345,-10.254,-12.695,-34.180,-41.016,-20.020
1687769013.349,-12.207,-8.789,-36.621,-41.992,-86.914
1687769013.353,-10.742,-5.371,-33.691,-36.133,-54.688
1687769013.356,-16.602,-8.301,-28.809,-36.621,99.609
1687769013.360,-7.812,-5.371,-28.320,-33.203,140.625
1687769013.364,0.488,-4.883,-30.273,-29.297,-118.652
1687769013.368,-1.953,-9.277,-32.227,-30.762,-34.180
1687769013.372,-9.277,-9.766,-37.109,-30.762,67.871
1687769013.373,-8.789,-10.254,-30.762,-27.832,-122.070
1687769013.377,-4.883,-12.695,-21.973,-24.902,-193.359
1687769013.381,-6.348,-9.766,-28.320,-31.738,-74.707
1687769013.385,-5.371,-10.742,-30.273,-31.738,9.277
1687769013.389,-7.812,-18.066,-28.809,-23.926,10.742
1687769013.393,-13.184,-13.672,-35.156,-31.250,14.648
1687769013.397,-20.508,-11.719,-32.227,-37.598,98.633
1687769013.400,-25.391,-20.020,-32.227,-21.484,403.320
1687769013.404,-24.902,-16.602,-32.715,-21.484,202.637
1687769013.408,-25.391,-12.695,-31.250,-29.785,-151.855
1687769013.412,-37.598,-17.090,-29.785,-33.691,-92.285
1687769013.416,-30.273,-19.531,-25.391,-36.133,-144.043
1687769013.420,-20.508,-18.066,-22.461,-32.227,-267.578
1687769013.424,-19.531,-12.695,-19.043,-29.785,-201.660
1687769013.428,-21.484,-8.789,-20.020,-35.645,-142.090
1687769013.432,-28.809,-8.789,-17.090,-41.504,-166.504
1687769013.436,-29.785,-15.625,-21.484,-38.574,-124.023
1687769013.440,-26.367,-18.066,-23.926,-40.039,-79.102
1687769013.444,-24.414,-17.578,-20.020,-34.180,174.316
1687769013.447,-29.297,-22.949,-24.902,-22.461,278.809
1687769013.451,-32.715,-19.043,-23.438,-37.109,-77.148
1687769013.455,-27.832,-15.137,-24.902,-39.551,-166.992
1687769013.459,-10.742,-15.625,-28.320,-23.926,106.445
1687769013.463,-17.578,-16.602,-27.832,-27.344,49.316
1687769013.463,-32.715,-19.531,-25.879,-39.062,-234.863
1687769013.467,-15.625,-20.508,-29.297,-31.738,-131.836
1687769013.471,-7.324,-18.066,-31.738,-27.832,-54.199
1687769013.475,-9.277,-14.648,-29.297,-17.090,-151.367
1687769013.479,-6.348,-12.207,-34.668,-5.371,-166.504
1687769013.483,-8.301,-13.184,-36.133,-10.742,-37.598
1687769013.487,-13.184,-11.719,-35.645,-1.465,322.266
1687769013.490,-5.859,-6.836,-31.250,4.395,149.902
1687769013.494,-10.254,-10.742,-32.227,-11.230,-135.254
1687769013.498,-9.766,-10.254,-37.598,-7.812,28.320
1687769013.502,-8.301,-11.719,-36.133,-7.812,-3.418
1687769013.506,-19.531,-16.113,-38.574,-20.996,-105.957
1687769013.511,-15.625,-14.160,-46.387,-14.648,-128.906
1687769013.515,-15.625,-11.230,-51.270,-15.625,-121.582
1687769013.519,-24.902,-13.184,-52.246,-25.391,-103.516
1687769013.523,-20.508,-16.113,-51.758,-18.066,-125.000
1687769013.527,-23.438,-14.160,-54.688,-19.531,-111.816
1687769013.531,-36.621,-13.184,-48.828,-30.273,8.301
1687769013.535,-25.391,-13.184,-42.969,-26.367,40.527
1687769013.538,-16.602,-18.066,-46.387,-22.949,-59.570
1687769013.542,-30.762,-23.438,-48.828,-29.785,-127.930
1687769013.546,-30.273,-22.461,-48.340,-20.508,94.727
1687769013.550,-27.344,-23.926,-45.410,-23.926,55.664
1687769013.554,-29.785,-23.438,-37.109,-32.715,-202.637
1687769013.569,-20.020,-20.996,-32.227,-25.879,-97.656
1687769013.573,-18.066,-25.879,-38.086,-22.461,-6.348
1687769013.577,-33.691,-25.391,-37.109,-31.738,-66.406
1687769013.581,-37.109,-27.344,-30.762,-37.109,-114.258
1687769013.585,-25.879,-28.809,-32.715,-34.668,-128.418
1687769013.589,-13.672,-22.949,-29.297,-29.297,192.383
1687769013.593,-12.207,-21.973,-21.973,-29.297,217.773
1687769013.596,-26.855,-22.461,-26.367,-38.086,-200.684
1687769013.600,-36.133,-22.949,-29.297,-48.828,-121.582
1687769013.604,-29.785,-23.926,-27.832,-43.945,4.883
1687769013.608,-19.043,-25.879,-25.879,-34.668,-165.039
1687769013.612,-20.508,-27.832,-24.414,-35.156,-155.273
1687769013.615,-25.879,-24.902,-23.926,-35.645,-111.328
1687769013.619,-27.832,-22.461,-21.484,-30.273,-100.098
1687769013.623,-25.879,-22.949,-23.926,-26.367,-103.516
1687769013.627,-22.461,-24.902,-25.879,-41.016,-96.680
1687769013.631,-22.949,-25.879,-25.879,-45.410,-56.152
1687769013.635,-24.414,-22.461,-25.879,-35.645,42.480
1687769013.639,-26.855,-15.625,-20.508,-40.039,24.902
1687769013.642,-22.949,-16.602,-19.531,-41.504,-143.066
1687769013.646,-11.719,-18.555,-18.555,-25.879,66.406
1687769013.650,-11.230,-17.090,-21.484,-18.555,199.707
1687769013.654,-25.391,-23.926,-30.273,-32.715,3.418
1687769013.658,-27.832,-26.367,-30.273,-40.039,-49.805
1687769013.658,-18.066,-29.297,-23.926,-24.414,191.406
1687769013.662,-19.043,-29.297,-21.484,-22.949,205.566
1687769013.666,-24.414,-26.367,-23.926,-28.809,-128.418
1687769013.670,-26.855,-26.855,-22.949,-31.738,-101.074
1687769013.674,-38.086,-25.879,-25.391,-41.504,3.906
1687769013.678,-37.109,-26.855,-22.949,-46.387,-108.887
1687769013.682,-31.250,-26.367,-17.090,-42.969,-169.434
1687769013.685,-27.344,-31.250,-26.855,-36.133,-14.648
1687769013.689,-26.367,-31.738,-24.902,-22.949,229.980
1687769013.693,-36.133,-28.809,-23.438,-32.227,62.988
1687769013.697,-41.992,-30.762,-33.203,-46.875,-175.293
1687769013.701,-50.293,-28.809,-28.320,-52.246,-112.305
1687769013.703,-42.969,-23.438,-21.484,-43.457,-98.145
1687769013.707,-34.668,-22.949,-16.113,-41.992,-146.484
1687769013.711,-37.109,-22.949,-18.555,-53.223,-163.574
1687769013.715,-36.133,-22.949,-26.367,-45.898,-119.629
1687769013.719,-39.551,-23.926,-22.949,-43.945,-146.973
1687769013.723,-35.156,-26.367,-21.973,-43.945,-60.547
1687769013.727,-33.203,-28.320,-24.414,-47.363,-83.008
1687769013.730,-41.016,-31.738,-24.414,-46.875,83.496
1687769013.734,-38.574,-28.809,-20.996,-42.480,188.965
1687769013.738,-33.203,-28.809,-19.043,-45.410,-185.059
1687769013.742,-36.621,-36.621,-18.555,-47.363,-177.734
1687769013.746,-34.668,-42.480,-15.625,-47.363,20.508
1687769013.778,-31.738,-33.691,-11.230,-45.410,-52.246
1687769013.782,-29.785,-25.879,-9.277,-43.457,-156.738
1687769013.786,-36.133,-29.297,-12.207,-50.293,-107.910
1687769013.790,-39.551,-23.926,-12.207,-51.758,-17.090
1687769013.794,-35.645,-18.555,-10.254,-43.457,-32.227
1687769013.798,-45.410,-24.414,-7.324,-53.223,-21.973
1687769013.802,-47.363,-33.203,-12.695,-55.176,122.070
1687769013.805,-41.504,-33.203,-15.625,-45.898,236.816
1687769013.809,-43.945,-30.273,-9.766,-47.363,32.715
1687769013.813,-42.480,-33.203,-7.812,-50.293,-110.840
1687769013.817,-43.945,-35.156,-8.301,-53.711,15.137
1687769013.821,-41.504,-32.715,-7.324,-45.410,6.348
1687769013.793,-35.645,-27.344,-4.883,-38.574,-155.273
1687769013.797,-32.227,-29.297,-5.371,-45.898,-145.996
1687769013.801,-29.297,-26.367,-7.324,-42.480,-71.777
1687769013.805,-36.621,-26.855,-7.812,-38.086,-67.871
1687769013.809,-37.109,-27.344,-4.883,-41.504,-132.324
1687769013.813,-33.203,-24.902,-9.277,-45.410,-60.547
1687769013.817,-33.691,-29.297,-12.695,-42.969,102.539
1687769013.820,-26.855,-29.785,-7.324,-39.551,65.430
1687769013.824,-29.297,-24.414,-9.766,-38.574,-140.625
1687769013.828,-37.109,-25.391,-14.648,-32.715,-140.625
1687769013.832,-35.156,-28.320,-13.184,-33.203,51.270
1687769013.836,-42.480,-30.273,-12.207,-40.039,28.809
1687769013.855,-44.922,-34.668,-12.695,-34.180,-109.375
1687769013.859,-41.504,-32.715,-14.160,-33.203,-158.203
1687769013.863,-49.805,-33.203,-11.719,-37.109,147.949
1687769013.867,-56.641,-38.086,-11.719,-42.969,303.711
1687769013.871,-57.129,-40.039,-17.578,-46.875,-32.227
1687769013.875,-54.199,-36.621,-15.137,-36.133,15.625
1687769013.879,-57.129,-34.668,-9.766,-36.621,150.391
1687769013.882,-61.523,-33.203,-9.277,-52.734,-68.359
1687769013.886,-61.035,-31.250,-9.766,-55.176,-139.648
1687769013.890,-53.223,-30.273,-15.625,-46.387,-70.801
1687769013.894,-44.434,-26.855,-16.602,-42.480,-86.914
1687769013.898,-53.711,-26.855,-14.160,-50.781,-150.391
1687769013.899,-62.988,-32.715,-15.625,-55.664,-161.621
1687769013.903,-62.012,-32.715,-17.090,-50.293,-60.059
1687769013.907,-50.293,-31.250,-15.137,-45.410,21.484
1687769013.911,-42.969,-29.785,-15.625,-46.387,-59.570
1687769013.915,-49.316,-30.273,-14.648,-44.922,-150.879
1687769013.919,-55.176,-35.156,-11.719,-43.945,-64.453
1687769013.923,-55.176,-33.203,-9.277,-47.363,22.461
1687769013.926,-50.293,-30.762,-10.742,-52.734,-114.258
1687769013.930,-44.434,-35.645,-14.648,-54.199,-179.199
1687769013.934,-47.852,-41.504,-16.602,-46.875,52.246
1687769013.938,-55.176,-36.133,-12.695,-46.387,215.820
1687769013.942,-52.734,-29.785,-10.254,-50.781,-41.504
1687769013.943,-45.898,-29.785,-15.625,-48.828,-144.043
1687769013.947,-45.410,-31.250,-17.090,-44.434,28.320
1687769013.951,-49.316,-33.203,-16.113,-47.852,26.855
1687769013.955,-48.828,-30.273,-13.672,-56.641,-76.660
1687769013.959,-54.199,-31.738,-14.160,-57.129,-12.695
1687769013.963,-50.781,-31.738,-12.695,-54.199,88.379
1687769013.967,-44.434,-29.297,-10.254,-54.688,65.918
1687769013.970,-49.316,-33.691,-15.137,-61.523,-89.844
1687769013.974,-48.340,-33.203,-18.555,-64.941,-29.785
1687769013.978,-49.316,-30.273,-12.695,-64.453,153.320
1687769013.982,-43.457,-27.344,-13.184,-61.523,-67.383
1687769013.986,-31.250,-29.785,-19.531,-54.199,-199.219
1687769013.988,-32.715,-32.715,-21.484,-50.781,-94.727
1687769013.992,-37.598,-31.250,-23.438,-54.688,-98.145
1687769013.996,-40.039,-30.273,-21.973,-53.223,-166.992
1687769014.000,-46.387,-31.250,-20.020,-38.574,-206.055
1687769014.004,-54.688,-31.738,-19.531,-27.344,-39.551
1687769014.008,-62.988,-32.715,-17.090,-26.367,31.738
1687769014.012,-65.430,-30.273,-18.555,-37.109,-43.457
1687769014.015,-62.500,-25.879,-19.043,-48.340,-129.395
1687769014.019,-59.082,-30.273,-20.996,-47.852,36.621
1687769014.023,-58.105,-32.227,-22.461,-44.434,213.867
1687769014.027,-53.223,-29.785,-20.020,-46.875,-39.551
1687769014.031,-52.246,-32.715,-25.391,-47.363,-116.699
1687769014.033,-55.176,-28.320,-23.926,-46.387,0.000
1687769014.037,-58.594,-27.832,-17.578,-53.223,-67.383
1687769014.041,-61.035,-33.203,-18.555,-58.594,-187.012
1687769014.045,-60.059,-30.273,-16.602,-52.734,-91.309
1687769014.049,-63.965,-30.273,-19.043,-51.270,-83.008
1687769014.053,-70.801,-31.250,-15.625,-54.688,-102.539
1687769014.057,-69.824,-31.738,-12.695,-60.059,-66.895
1687769014.060,-60.547,-32.227,-11.230,-53.711,10.742
1687769014.064,-58.105,-28.809,-9.766,-40.527,205.566
1687769014.068,-67.383,-25.879,-16.602,-47.852,8.301
1687769014.072,-69.336,-25.391,-16.602,-57.129,-209.473
1687769014.076,-60.059,-24.414,-12.207,-54.688,-76.660
1687769014.079,-55.176,-23.438,-5.859,-50.293,-2.441
1687769014.083,-55.664,-22.461,-5.371,-57.617,-73.730
1687769014.087,-53.711,-23.926,-10.742,-53.223,-88.867
1687769014.091,-51.758,-28.320,-8.301,-46.387,-59.570
1687769014.095,-59.570,-25.879,-6.836,-60.547,-125.488
1687769014.099,-38.086,-18.066,-23.926,-45.898,-138.672
1687769014.103,10.254,-9.766,-37.598,-3.906,-76.660
1687769014.106,-5.859,-27.832,-19.043,-10.254,143.555
1687769014.110,-60.059,-50.293,-0.977,-46.387,177.734
1687769014.114,-83.984,-43.945,-1.465,-70.312,-104.980
1687769014.118,-91.309,-42.480,1.465,-80.566,-102.539
1687769014.122,-100.098,-44.434,11.230,-90.820,136.230
1687769014.123,-117.188,-43.457,18.555,-104.980,42.969
1687769014.127,-138.184,-49.316,24.414,-117.188,-178.223
1687769014.131,-148.926,-52.246,29.785,-120.605,-81.543
1687769014.135,-159.180,-56.641,33.203,-128.418,41.992
1687769014.139,-166.992,-64.453,39.551,-128.418,-59.570
1687769014.143,-168.457,-71.777,45.898,-121.094,-52.246
1687769014.147,-176.758,-77.148,49.805,-125.488,222.168
1687769014.150,-186.035,-75.684,60.059,-124.512,238.281
1687769014.154,-186.523,-74.707,72.754,-120.605,-91.797
1687769014.158,-182.617,-79.590,79.102,-112.793,-177.734
1687769014.162,-188.477,-85.449,84.473,-113.281,-102.051
1687769014.166,-197.266,-93.262,82.031,-119.141,-98.633
1687769014.169,-197.266,-97.168,83.008,-117.188,-142.578
1687769014.173,-190.918,-97.656,83.496,-110.840,-101.074
1687769014.177,-183.594,-96.191,86.914,-109.863,49.316
1687769014.181,-182.129,-98.633,92.285,-110.840,53.223
1687769014.185,-183.594,-106.934,89.844,-107.910,-118.164
1687769014.189,-191.895,-109.375,90.820,-113.770,-157.227
1687769014.193,-195.312,-109.375,92.285,-103.027,166.016
1687769014.196,-194.336,-111.328,91.797,-94.727,232.910
1687769014.200,-188.965,-112.305,87.891,-96.680,-98.145
1687769014.204,-174.316,-106.934,89.844,-92.773,-123.047
1687769014.208,-175.293,-104.980,91.797,-93.750,18.555
1687769014.212,-178.223,-105.469,90.820,-90.820,-20.020
1687769014.213,-166.016,-101.562,85.938,-88.379,-147.461
1687769014.217,-149.902,-98.633,79.590,-80.566,-77.637
1687769014.221,-133.301,-93.262,71.289,-73.242,21.973
1687769014.225,-130.859,-88.379,64.453,-71.289,-20.020
1687769014.229,-124.512,-87.402,59.082,-66.406,-62.500
1687769014.233,-111.816,-91.309,45.410,-62.988,-18.555
1687769014.237,-101.074,-86.914,39.062,-50.781,314.941
1687769014.240,-87.891,-79.102,44.922,-37.598,149.902
1687769014.244,-89.844,-77.637,42.969,-42.969,-229.980
1687769014.248,-89.355,-80.078,36.621,-42.480,-142.578
1687769014.252,-77.148,-76.660,32.227,-37.109,-87.891
1687769014.256,-74.707,-71.289,27.344,-40.527,-116.211
1687769014.274,-70.801,-71.289,25.879,-44.434,-121.094
1687769014.278,-73.730,-67.871,28.809,-43.457,-73.730
1687769014.282,-81.543,-66.895,26.855,-41.504,-2.441
1687769014.286,-70.312,-66.895,23.438,-41.504,-63.477
1687769014.290,-59.570,-54.688,26.855,-38.574,-58.105
1687769014.294,-62.012,-47.852,24.902,-29.297,38.574
1687769014.298,-66.895,-55.176,20.020,-25.879,-14.648
1687769014.301,-69.824,-55.176,20.996,-25.879,-98.633
1687769014.305,-67.383,-52.246,20.020,-27.832,-75.195
1687769014.309,-62.988,-54.199,11.230,-19.043,108.398
1687769014.313,-65.918,-52.246,5.859,-20.508,91.309
1687769014.317,-66.895,-48.828,7.324,-31.250,-79.102
1687769014.318,-64.941,-48.340,8.789,-35.156,-93.262
1687769014.322,-67.871,-53.223,7.812,-27.344,132.812
1687769014.326,-60.547,-48.828,11.230,-15.137,156.738
1687769014.330,-57.129,-46.387,12.695,-20.996,-108.887
1687769014.334,-60.547,-47.363,9.277,-22.461,-121.094
1687769014.338,-60.059,-43.457,5.859,-20.996,-5.371
1687769014.342,-56.641,-45.410,5.371,-23.438,-15.137
1687769014.345,-46.875,-40.039,10.254,-21.973,-159.180
1687769014.349,-43.945,-35.645,9.766,-23.438,-65.918
1687769014.353,-50.293,-41.992,8.789,-21.484,252.930
1687769014.357,-52.734,-42.480,7.812,-26.367,104.492
1687769014.361,-51.758,-39.062,5.371,-29.297,-108.887
1687769014.363,-47.852,-41.504,8.789,-26.367,-76.660
1687769014.367,-40.527,-47.852,5.859,-26.855,-56.152
1687769014.371,-43.457,-42.969,-0.977,-28.809,-110.840
1687769014.375,-54.688,-41.016,-2.930,-31.738,-107.910
1687769014.379,-59.082,-46.387,-6.348,-33.691,-95.215
1687769014.383,-47.852,-39.551,-6.348,-31.738,-85.449
1687769014.387,-43.945,-33.203,-1.465,-28.320,-25.879
1687769014.390,-47.852,-39.062,-0.977,-24.414,-54.199
1687769014.394,-50.781,-45.410,-7.324,-20.996,99.121
1687769014.398,-54.688,-40.527,-10.254,-28.809,115.234
1687769014.402,-49.805,-36.621,-10.742,-38.086,-61.035
1687769014.406,-41.504,-38.086,-10.254,-32.715,29.785
1687769014.409,-50.293,-39.062,-3.906,-25.391,192.383
1687769014.413,-60.059,-36.621,-3.906,-31.738,103.027
1687769014.417,-57.129,-36.621,-6.836,-41.016,-95.703
1687769014.421,-55.664,-39.062,-5.371,-33.691,-103.027
1687769014.425,-55.176,-41.992,-13.184,-36.133,-125.488
1687769014.429,-57.617,-38.574,-16.602,-34.180,-101.074
1687769014.433,-62.012,-33.691,-9.277,-33.203,-165.527
1687769014.436,-56.641,-34.180,-10.742,-33.691,-135.742
1687769014.440,-54.688,-31.738,-15.137,-35.156,85.449
1687769014.444,-53.223,-32.227,-15.625,-36.621,-34.668
1687769014.448,-44.922,-36.621,-19.531,-29.785,-149.902
1687769014.452,-44.922,-32.715,-18.555,-35.156,-102.539
1687769014.455,-45.898,-29.297,-12.695,-41.504,-43.945
1687769014.459,-41.504,-29.297,-14.648,-37.598,-44.922
1687769014.463,-47.852,-30.762,-20.996,-37.598,-142.578
1687769014.467,-55.664,-28.809,-20.020,-37.109,4.883
1687769014.471,-51.270,-23.926,-17.090,-34.668,43.457
1687769014.475,-49.805,-24.902,-11.719,-40.039,-130.859
1687769014.479,-46.875,-23.926,-10.254,-36.621,-124.023
1687769014.482,-41.992,-23.438,-12.695,-25.391,120.605
1687769014.486,-51.758,-23.926,-13.672,-30.762,158.203
1687769014.490,-55.176,-21.973,-13.184,-37.598,-130.371
1687769014.494,-51.270,-23.926,-11.719,-34.668,-108.887
1687769014.498,-48.828,-27.344,-11.230,-28.320,45.898
1687769014.499,-39.551,-24.902,-8.789,-30.762,-38.574
1687769014.503,-32.227,-22.461,-10.254,-34.668,-173.340
1687769014.507,-33.691,-24.414,-11.230,-32.227,-125.488
1687769014.511,-44.434,-27.344,-12.207,-41.016,-95.215
1687769014.515,-37.598,-24.902,-10.742,-40.527,-135.742
1687769014.519,-23.926,-25.391,-8.301,-34.180,-84.473
1687769014.523,-27.344,-30.273,-10.742,-33.691,22.949
1687769014.526,-39.551,-29.297,-13.184,-36.133,267.090
1687769014.530,-49.316,-25.879,-12.695,-48.340,140.625
1687769014.534,-23.438,-24.902,-26.855,-33.203,-175.293
1687769014.538,-10.254,-28.320,-25.391,-16.602,-83.984
1687769014.542,-50.781,-41.016,0.488,-44.922,-41.016
1687769014.550,-76.172,-43.457,2.441,-68.848,-146.484
1687769014.554,-78.613,-39.551,0.488,-63.477,-130.859
1687769014.558,-83.984,-45.410,3.418,-66.895,-91.309
1687769014.562,-77.148,-44.434,0.488,-62.500,-116.699
1687769014.566,-66.406,-46.387,-7.324,-47.852,-56.641
1687769014.570,-67.871,-46.387,-5.371,-53.711,-1.953
1687769014.574,-70.312,-40.039,-2.930,-54.688,208.984
1687769014.577,-67.871,-37.109,-7.812,-53.223,246.094
1687769014.581,-54.688,-36.133,-6.348,-46.875,-91.797
1687769014.585,-42.969,-37.109,-11.230,-41.992,-114.258
1687769014.589,-52.734,-38.574,-11.719,-46.387,52.734
1687769014.593,-62.988,-36.133,-13.184,-45.898,-37.109
1687769014.590,-55.176,-31.250,-13.184,-40.039,-138.184
1687769014.594,-49.805,-31.738,-10.254,-37.598,-57.617
1687769014.598,-45.898,-32.715,-14.160,-39.062,27.344
1687769014.602,-46.875,-33.203,-14.160,-47.852,-83.496
1687769014.606,-50.781,-33.691,-16.602,-51.270,-160.645
1687769014.610,-50.293,-33.691,-17.090,-42.480,-8.301
1687769014.614,-49.805,-31.738,-20.020,-33.203,270.020
1687769014.617,-46.875,-34.668,-20.020,-37.598,310.547
1687769014.621,-48.340,-37.598,-21.484,-46.875,37.598
1687769014.625,-54.199,-35.156,-24.414,-45.898,-42.969
1687769014.629,-57.617,-31.250,-18.555,-44.922,-56.641
1687769014.633,-49.316,-28.809,-17.578,-43.945,-161.133
1687769014.634,-41.992,-26.855,-16.113,-41.992,-153.809
1687769014.638,-38.574,-23.926,-11.230,-36.621,-94.238
1687769014.642,-44.922,-28.809,-12.695,-35.645,-94.727
1687769014.646,-47.852,-33.203,-18.555,-40.527,-154.297
1687769014.650,-43.945,-31.738,-21.973,-41.016,-128.906
1687769014.654,-34.180,-35.156,-19.043,-43.457,54.199
1687769014.658,-30.273,-36.621,-17.090,-35.645,87.402
1687769014.661,-32.227,-32.227,-16.113,-33.691,-107.422
1687769014.665,-30.762,-31.250,-16.602,-41.504,-149.902
1687769014.669,-32.715,-27.832,-16.602,-31.250,143.555
1687769014.673,-31.250,-26.855,-18.555,-24.414,191.895
1687769014.677,-34.180,-33.203,-22.461,-36.621,30.273
1687769014.693,-40.527,-32.715,-16.602,-41.504,37.598
1687769014.697,-46.387,-32.715,-9.766,-37.109,112.793
1687769014.701,-45.410,-28.809,-6.348,-35.156,26.367
1687769014.705,-40.039,-28.809,-4.883,-45.898,-245.117
1687769014.709,-39.551,-32.715,-7.324,-49.805,-62.500
1687769014.713,-46.875,-32.227,-6.348,-44.922,155.762
1687769014.717,-57.129,-30.762,-6.836,-41.504,-33.203
1687769014.720,-57.617,-30.273,-7.324,-51.758,-173.828
1687769014.724,-52.734,-38.086,-13.672,-49.316,-76.660
1687769014.728,-43.457,-37.109,-18.555,-24.902,105.469
1687769014.732,-42.480,-35.156,-8.301,-29.785,-36.133
1687769014.736,-51.270,-36.133,-8.301,-42.969,-111.816
1687769014.739,-50.781,-32.227,-7.812,-40.039,-18.066
1687769014.743,-46.387,-30.273,-6.348,-39.062,-6.836
1687769014.747,-43.457,-26.855,-6.836,-34.180,-84.961
1687769014.751,-42.969,-26.367,-1.465,-24.902,-97.168
1687769014.755,-45.898,-25.879,-1.953,-29.297,-96.680
1687769014.759,-43.457,-20.020,2.441,-29.297,-40.527
1687769014.763,-37.109,-22.461,4.395,-25.879,39.551
1687769014.766,-36.133,-29.297,3.906,-28.809,-34.668
1687769014.770,-39.551,-33.203,4.883,-37.598,27.832
1687769014.774,-44.434,-31.738,1.953,-46.875,0.977
1687769014.778,-47.363,-32.227,0.000,-47.363,-126.465
1687769014.782,-44.434,-36.133,0.977,-53.223,-126.465
1687769014.785,-45.410,-37.109,5.371,-49.805,98.145
1687769014.789,-48.340,-31.738,2.441,-38.086,159.180
1687769014.793,-42.969,-25.391,0.977,-42.969,-123.047
1687769014.797,-43.945,-25.879,2.441,-47.852,-80.078
1687769014.801,-41.992,-29.785,-5.371,-47.852,15.625
1687769014.805,-36.133,-25.879,-0.488,-56.152,-45.898
1687769014.809,-40.527,-25.879,0.977,-57.129,-62.500
1687769014.812,-48.828,-34.180,-9.766,-49.805,-12.207
1687769014.816,-55.176,-37.598,-11.230,-44.922,119.629
1687769014.820,-40.527,-31.738,-4.395,-49.805,-103.516
1687769014.824,-28.809,-30.762,-3.418,-49.805,-272.949
1687769014.828,-35.645,-38.574,-6.836,-41.016,-154.785
1687769014.828,-38.574,-41.504,-9.766,-44.434,-81.543
1687769014.832,-41.504,-43.945,-14.160,-57.617,-90.820
1687769014.836,-39.551,-45.410,-14.160,-54.199,-173.828
1687769014.840,-37.109,-40.039,-11.230,-43.457,-93.262
1687769014.844,-39.062,-39.062,-11.719,-35.156,-47.363
1687769014.848,-52.734,-44.922,-14.160,-33.691,-107.422
1687769014.852,-66.406,-48.828,-14.648,-41.016,-103.027
1687769014.855,-60.059,-45.898,-9.277,-39.551,210.449
1687769014.859,-50.781,-40.039,-6.348,-28.809,351.562
1687769014.863,-44.922,-37.109,-10.742,-36.133,-40.039
1687769014.867,-48.340,-37.109,-14.160,-45.410,-149.902
1687769014.871,-48.340,-38.574,-12.207,-45.898,14.160
1687769014.873,-44.922,-36.133,-9.277,-42.969,-49.805
1687769014.877,-40.527,-31.250,-6.836,-40.039,-139.160
1687769014.881,-37.598,-34.180,-8.789,-37.598,-95.215
1687769014.885,-35.645,-34.668,-15.137,-37.109,-116.211
1687769014.889,-44.434,-31.250,-10.254,-42.969,-207.520
1687769014.893,-48.340,-34.180,-14.648,-42.969,-139.160
1687769014.897,-39.062,-39.062,-20.996,-45.410,98.145
1687769014.900,-36.621,-38.086,-18.066,-31.250,393.066
1687769014.904,-35.156,-29.785,-15.137,-26.855,183.594
1687769014.908,-42.480,-23.926,-20.508,-57.129,-180.664
1687769014.912,-47.363,-19.531,-25.391,-59.082,-124.023
1687769014.916,-36.621,-20.020,-15.137,-46.875,-126.465
1687769014.918,-32.715,-29.297,-12.207,-47.852,-205.078
1687769014.922,-39.062,-33.203,-20.020,-56.641,-174.316
1687769014.926,-46.387,-30.273,-15.625,-58.105,-122.559
