timestamps,TP9,AF7,AF8,TP10,Right AUX
1688814060.669,-15.625,-26.855,-42.969,-95.215,99.609
1688814060.673,-33.691,-31.250,-41.504,-95.703,-44.922
1688814060.677,-146.484,-34.180,-33.691,-48.828,-11.230
1688814060.681,-299.805,-32.715,-32.227,13.672,291.016
1688814060.685,-226.074,-36.621,-39.551,-40.039,55.176
1688814060.689,-79.590,-41.016,-41.992,-106.934,-194.824
1688814060.693,-85.938,-37.598,-37.598,-86.914,54.688
1688814060.696,-179.199,-40.527,-40.039,-43.945,188.965
1688814060.700,-311.035,-40.527,-39.551,-0.977,61.035
1688814060.704,-232.422,-41.016,-32.715,-37.598,-73.730
1688814060.708,-51.270,-42.480,-36.133,-94.238,-136.230
1688814060.712,-26.855,-41.016,-41.016,-80.566,-136.719
1688814060.713,-101.562,-41.992,-44.922,-45.410,-129.395
1688814060.717,-231.934,-43.457,-42.480,15.137,-20.996
1688814060.721,-186.523,-41.504,-41.992,-1.465,11.230
1688814060.725,-14.648,-40.527,-51.758,-72.266,-12.695
1688814060.729,17.090,-40.527,-54.199,-71.777,-114.746
1688814060.733,-44.434,-40.527,-53.223,-36.133,-5.859
1688814060.737,-185.059,-38.574,-47.852,25.391,245.605
1688814060.740,-182.129,-37.598,-46.387,17.090,135.742
1688814060.744,-2.930,-39.062,-50.293,-52.734,-108.887
1688814060.748,48.340,-40.039,-44.434,-62.500,-109.375
1688814060.752,-11.719,-42.969,-38.086,-30.762,220.703
1688814060.756,-159.668,-46.387,-42.969,14.648,150.391
1688814060.743,-191.406,-41.504,-44.434,4.395,-131.348
1688814060.747,-17.578,-35.645,-42.969,-59.570,45.410
1688814060.751,45.898,-33.203,-45.898,-71.289,128.906
1688814060.755,-12.207,-32.715,-42.480,-55.176,-84.473
1688814060.759,-146.484,-32.227,-37.598,-7.812,-56.152
1688814060.763,-203.613,-36.133,-40.527,11.719,220.215
1688814060.767,-52.246,-37.109,-42.969,-48.828,196.289
1688814060.770,32.715,-32.227,-40.527,-72.266,-44.922
1688814060.774,-7.812,-34.180,-42.969,-58.594,-123.047
1688814060.778,-143.066,-37.109,-41.992,-3.906,76.172
1688814060.782,-229.980,-34.668,-34.180,26.855,219.238
1688814060.786,-80.566,-33.203,-34.180,-50.781,-16.602
1688814060.804,28.320,-28.809,-29.297,-81.055,-130.371
1688814060.808,-10.254,-33.691,-32.227,-57.617,-95.703
1688814060.812,-131.348,-37.109,-36.133,-10.742,7.812
1688814060.816,-227.539,-32.227,-30.762,23.438,7.812
1688814060.820,-85.938,-30.762,-28.809,-35.156,-46.875
1688814060.824,52.734,-23.438,-23.926,-70.801,48.828
1688814060.828,37.598,-20.508,-21.973,-54.199,-21.484
1688814060.831,-77.637,-27.344,-27.344,-10.254,-96.680
1688814060.835,-195.801,-32.227,-27.344,33.203,49.805
1688814060.839,-83.008,-26.855,-24.414,-16.602,255.371
1688814060.843,57.617,-24.902,-24.414,-64.453,109.863
1688814060.847,46.875,-22.461,-21.973,-53.711,-168.457
1688814060.850,-60.059,-23.438,-21.973,-13.184,-11.230
1688814060.854,-192.383,-32.715,-20.996,43.945,282.227
1688814060.858,-100.586,-30.273,-19.043,1.953,68.359
1688814060.862,52.734,-25.879,-22.461,-62.012,-183.594
1688814060.866,49.316,-29.785,-22.461,-59.570,-97.656
1688814060.870,-51.758,-33.203,-19.043,-20.020,3.418
1688814060.874,-213.867,-29.297,-14.648,34.180,56.641
1688814060.877,-173.340,-25.391,-14.160,0.977,-67.383
1688814060.881,-14.648,-24.902,-15.137,-54.199,-15.137
1688814060.885,-5.371,-24.902,-17.090,-51.758,174.805
1688814060.889,-87.891,-28.320,-19.531,-25.879,-4.395
1688814060.893,-243.652,-32.715,-21.484,17.090,-129.883
1688814060.893,-227.539,-30.762,-23.438,-9.766,-29.297
1688814060.897,-61.035,-30.273,-20.508,-70.312,-67.383
1688814060.901,-37.598,-32.227,-20.508,-68.848,-169.922
1688814060.905,-118.164,-30.762,-23.438,-44.434,-180.176
1688814060.909,-279.785,-35.156,-23.926,-1.465,2.930
1688814060.913,-289.551,-37.109,-28.809,-5.859,164.062
1688814060.917,-110.840,-34.180,-31.738,-63.965,76.172
1688814060.920,-57.617,-35.156,-28.320,-73.730,-71.289
1688814060.924,-112.305,-35.156,-30.273,-47.363,178.711
1688814060.928,-266.113,-33.203,-31.250,-2.441,239.258
1688814060.932,-296.387,-35.156,-29.297,-8.301,-56.152
1688814060.936,-111.328,-35.645,-32.227,-71.289,13.672
1688814060.938,-42.969,-35.156,-37.109,-87.402,50.781
1688814060.942,-86.914,-41.504,-40.039,-64.941,-38.574
1688814060.946,-219.727,-40.039,-35.156,-2.441,-23.926
1688814060.950,-267.578,-37.109,-30.762,26.855,161.133
1688814060.954,-99.609,-35.645,-34.668,-47.852,202.148
1688814060.958,-12.695,-36.133,-34.180,-82.031,-46.875
1688814060.962,-54.199,-35.645,-33.691,-62.500,-120.117
1688814060.965,-180.176,-34.180,-28.809,-3.418,135.254
1688814060.969,-260.742,-30.273,-22.461,41.504,279.785
1688814060.973,-105.957,-22.461,-20.996,-29.785,-41.504
1688814060.977,1.465,-25.879,-23.438,-67.383,-167.480
1688814060.981,-26.367,-26.855,-30.273,-48.828,-103.516
1688814060.985,-136.719,-31.250,-29.785,3.418,-61.035
1688814060.989,-257.324,-33.691,-25.879,30.762,-0.488
1688814060.993,-139.160,-25.391,-29.785,-47.363,-41.016
1688814060.997,-8.301,-26.855,-32.227,-87.891,-61.523
1688814061.001,-25.391,-30.273,-30.762,-83.496,-118.164
1688814061.005,-129.395,-28.809,-23.438,-52.246,-146.484
1688814061.009,-245.605,-23.926,-20.508,-6.348,64.453
1688814061.012,-143.066,-24.414,-26.367,-58.105,249.023
1688814061.016,-2.441,-28.320,-24.414,-115.234,-6.348
1688814061.020,2.441,-24.902,-20.508,-98.633,-197.266
1688814061.024,-90.820,-29.785,-21.973,-48.340,-56.641
1688814061.028,-226.074,-32.227,-24.902,2.930,179.199
1688814061.043,-145.020,-31.738,-31.250,-41.992,200.684
1688814061.047,13.672,-33.691,-32.227,-103.027,-10.254
1688814061.051,12.695,-38.086,-36.133,-97.656,67.383
1688814061.055,-76.172,-38.574,-41.504,-62.012,193.848
1688814061.059,-208.984,-37.109,-37.109,-5.371,29.785
1688814061.063,-156.738,-41.504,-41.504,-26.855,-42.969
1688814061.067,3.906,-41.504,-45.898,-81.543,137.695
1688814061.070,15.625,-42.969,-39.551,-78.613,307.617
1688814061.074,-61.523,-43.457,-37.598,-53.223,56.152
1688814061.078,-214.355,-44.434,-35.645,2.441,13.184
1688814061.082,-196.777,-40.527,-29.785,-12.207,28.320
1688814061.086,-10.254,-38.574,-32.715,-76.172,-117.676
1688814061.073,25.879,-42.969,-35.156,-76.660,-150.879
1688814061.077,-40.039,-46.387,-34.668,-45.898,-104.492
1688814061.081,-177.734,-47.852,-33.203,10.254,35.156
1688814061.085,-184.570,-48.828,-34.180,2.441,40.527
1688814061.089,-18.555,-51.270,-35.156,-69.336,-85.938
1688814061.093,28.809,-51.270,-32.715,-78.613,3.418
1688814061.097,-28.809,-46.875,-31.250,-56.641,137.695
1688814061.100,-170.410,-40.039,-32.227,-8.301,99.121
1688814061.104,-209.473,-36.133,-35.156,3.418,10.742
1688814061.108,-41.016,-39.551,-41.992,-67.871,-14.648
1688814061.112,34.180,-45.898,-47.852,-84.961,269.531
1688814061.116,-1.953,-42.480,-44.434,-54.688,236.328
1688814061.134,-125.488,-41.504,-39.551,-12.695,18.555
1688814061.138,-192.871,-48.340,-40.039,6.836,131.348
1688814061.142,-29.785,-46.875,-39.551,-43.945,139.160
1688814061.146,73.730,-44.434,-38.086,-74.219,-143.066
1688814061.150,44.434,-39.551,-43.457,-64.453,-269.531
1688814061.154,-77.148,-40.527,-43.457,-16.113,-22.949
1688814061.158,-173.828,-48.828,-44.434,15.625,146.484
1688814061.161,-30.273,-50.293,-48.340,-56.641,-102.539
1688814061.165,85.938,-49.805,-42.480,-95.215,-200.195
1688814061.169,45.898,-56.152,-42.480,-65.918,121.094
1688814061.173,-84.473,-56.641,-41.992,-17.090,216.309
1688814061.177,-187.988,-49.805,-33.691,22.949,-10.742
1688814061.178,-57.617,-51.270,-29.785,-29.297,-125.488
1688814061.182,68.848,-45.410,-23.926,-76.660,-165.527
1688814061.186,62.012,-45.410,-23.438,-57.617,-160.645
1688814061.190,-34.668,-46.875,-22.949,-18.066,-155.273
1688814061.194,-166.992,-39.551,-18.555,28.809,-30.762
1688814061.198,-64.453,-36.621,-22.461,-19.531,68.359
1688814061.202,91.797,-33.203,-29.297,-76.172,1.465
1688814061.205,76.660,-27.344,-31.738,-66.895,-144.043
1688814061.209,-20.996,-30.762,-28.809,-24.902,-46.875
1688814061.213,-156.738,-32.227,-29.785,35.156,347.168
1688814061.217,-91.797,-30.762,-36.621,-8.301,151.855
1688814061.221,63.477,-32.715,-38.574,-78.613,-170.410
1688814061.223,67.383,-30.273,-37.598,-68.848,54.688
1688814061.227,-20.996,-30.273,-36.621,-37.109,274.902
1688814061.231,-165.039,-26.367,-37.598,7.324,112.793
1688814061.235,-120.605,-26.855,-35.645,-17.090,-65.918
1688814061.239,49.805,-27.344,-29.297,-83.496,-77.637
1688814061.243,76.172,-24.902,-26.855,-80.566,-3.418
1688814061.247,4.883,-27.344,-26.367,-48.340,49.805
1688814061.250,-151.855,-30.762,-26.855,-1.953,-17.578
1688814061.254,-146.484,-34.180,-30.273,-10.254,120.117
1688814061.258,26.367,-29.297,-31.738,-74.219,162.109
1688814061.262,74.219,-24.414,-24.902,-82.031,-123.535
1688814061.266,22.461,-30.273,-22.949,-50.781,-126.953
1688814061.270,-116.211,-36.621,-24.902,1.953,-21.973
1688814061.274,-133.301,-35.156,-12.695,0.977,-28.809
1688814061.278,32.227,-28.320,3.418,-65.918,-61.523
1688814061.282,91.309,-27.832,15.137,-65.430,-95.215
1688814061.286,15.625,-28.320,23.926,-26.855,-26.367
1688814061.290,-179.199,-30.273,21.973,14.648,98.145
1688814061.294,-270.996,-31.250,21.973,8.301,77.637
1688814061.297,-115.234,-27.832,21.484,-52.246,-30.273
1688814061.301,-25.879,-23.926,19.043,-61.523,122.559
1688814061.305,-78.613,-21.484,20.996,-38.086,99.121
1688814061.309,-218.750,-24.902,20.996,16.602,-29.785
1688814061.313,-284.180,-25.391,17.578,51.758,97.656
1688814061.314,-122.070,-22.461,21.973,-21.484,24.414
1688814061.318,-23.438,-22.461,21.484,-60.059,-141.113
1688814061.322,-62.988,-24.902,15.137,-43.457,-145.508
1688814061.326,-213.867,-26.367,14.648,9.277,50.781
1688814061.330,-330.078,-23.438,14.160,51.270,204.102
1688814061.334,-177.246,-22.461,6.348,-15.625,23.926
1688814061.338,-61.035,-25.879,3.418,-57.617,-79.590
1688814061.341,-112.793,-32.227,4.883,-37.598,92.285
1688814061.345,-277.344,-40.039,-2.441,10.254,306.641
1688814061.349,-414.551,-42.969,-1.953,49.316,144.043
1688814061.353,-294.922,-41.992,0.000,-8.789,-53.711
1688814061.357,-169.922,-37.598,-7.324,-62.012,-140.625
1688814061.358,-181.641,-39.551,-9.766,-49.316,-154.785
1688814061.362,-290.527,-41.992,-8.301,-4.395,-131.836
1688814061.366,-436.523,-39.062,-10.742,46.875,23.926
1688814061.370,-329.102,-41.504,-14.160,-5.371,29.785
1688814061.374,-146.973,-41.992,-14.160,-57.129,-86.914
1688814061.378,-124.023,-35.645,-10.742,-36.133,-48.828
1688814061.382,-207.031,-39.062,-13.184,-4.395,11.719
1688814061.385,-339.844,-45.898,-17.090,49.316,402.344
1688814061.389,-269.043,-41.016,-12.207,18.066,368.652
1688814061.393,-129.883,-33.203,-12.207,-47.363,-110.840
1688814061.397,-167.480,-38.086,-18.066,-49.805,-114.746
1688814061.401,-316.406,-47.363,-23.926,-21.973,147.949
1688814061.403,-503.906,-48.340,-27.832,29.785,201.172
1688814061.407,-469.238,-44.922,-26.367,5.371,-22.461
1688814061.411,-282.227,-41.504,-20.508,-51.270,7.324
1688814061.415,-249.512,-39.551,-19.043,-48.340,45.898
1688814061.419,-334.961,-42.969,-24.414,-24.902,-149.414
1688814061.423,-496.582,-46.875,-21.973,31.250,-45.410
1688814061.427,-492.676,-42.480,-18.555,28.809,282.715
1688814061.430,-333.496,-41.992,-24.902,-43.457,249.512
1688814061.434,-297.363,-44.922,-32.715,-59.570,-79.590
1688814061.438,-348.633,-45.410,-27.832,-33.203,-67.871
1688814061.442,-495.117,-48.828,-29.297,20.996,52.734
1688814061.446,-513.184,-52.246,-34.180,19.043,-29.297
1688814061.448,-325.195,-47.852,-30.762,-53.223,-183.594
1688814061.452,-254.883,-42.969,-25.879,-59.570,-156.250
1688814061.456,-306.641,-40.527,-23.438,-31.738,-133.301
1688814061.460,-458.496,-45.898,-29.297,13.672,0.977
1688814061.464,-515.625,-53.223,-32.715,32.715,4.883
1688814061.468,-344.727,-51.270,-34.180,-41.504,-19.531
1688814061.472,-251.953,-49.316,-37.598,-73.730,213.867
1688814061.475,-288.086,-47.363,-38.574,-58.594,83.496
1688814061.479,-416.016,-43.945,-39.551,-18.555,-81.055
1688814061.483,-489.746,-43.945,-44.922,3.906,10.742
1688814061.487,-329.590,-41.016,-47.852,-62.988,-28.809
1688814061.491,-225.098,-39.062,-48.828,-95.703,-32.715
1688814061.495,-255.859,-41.504,-53.223,-75.684,-50.293
1688814061.499,-361.816,-42.969,-47.852,-20.020,47.852
1688814061.503,-446.289,-41.016,-40.527,17.578,250.488
1688814061.507,-294.922,-43.457,-42.480,-51.270,6.348
1688814061.511,-160.645,-42.969,-45.410,-86.426,-227.051
1688814061.515,-182.129,-41.016,-45.898,-59.082,-35.645
1688814061.519,-303.223,-43.457,-46.875,-21.484,106.934
1688814061.522,-428.711,-39.551,-43.457,16.113,0.977
1688814061.526,-309.082,-38.086,-40.527,-28.809,-76.660
1688814061.530,-172.852,-42.480,-46.875,-72.266,21.973
1688814061.534,-194.336,-49.805,-57.617,-73.730,-20.020
1688814061.538,-287.598,-51.270,-58.594,-42.969,-145.020
1688814061.553,-408.691,-55.176,-54.688,2.930,-92.773
1688814061.557,-312.012,-55.664,-49.805,-37.598,-52.734
1688814061.561,-142.578,-45.410,-44.922,-81.055,-58.594
1688814061.565,-122.559,-42.480,-41.016,-70.801,-170.898
1688814061.569,-203.613,-44.922,-40.527,-38.086,-145.020
1688814061.573,-345.703,-47.852,-45.410,14.648,155.762
1688814061.577,-289.062,-48.828,-49.805,-20.996,119.141
1688814061.580,-110.840,-47.363,-48.828,-87.402,-199.707
1688814061.584,-82.031,-45.898,-42.480,-78.613,-111.328
1688814061.588,-159.180,-47.363,-42.480,-44.434,124.512
1688814061.592,-308.105,-47.852,-48.340,0.977,76.172
1688814061.596,-275.879,-50.293,-51.758,-29.297,-41.016
1688814061.598,-104.492,-52.246,-52.734,-93.262,14.160
1688814061.602,-74.707,-47.363,-52.246,-87.891,80.078
1688814061.606,-130.371,-41.992,-50.781,-58.594,-46.387
1688814061.610,-267.090,-40.039,-45.410,3.418,2.930
1688814061.614,-261.230,-39.062,-43.457,6.836,127.930
1688814061.618,-77.637,-40.527,-43.945,-54.199,65.918
1688814061.622,-32.715,-41.016,-41.016,-72.266,-17.578
1688814061.625,-94.238,-36.133,-39.062,-53.711,-139.160
1688814061.629,-235.840,-35.156,-35.645,11.230,108.398
1688814061.633,-270.508,-34.180,-36.133,20.508,342.773
1688814061.637,-103.516,-34.180,-38.574,-60.059,0.000
1688814061.641,-36.133,-39.551,-37.109,-81.055,-112.305
1688814061.643,-90.820,-41.016,-37.598,-57.129,-75.195
1688814061.647,-231.445,-40.039,-34.668,-6.348,-83.984
1688814061.651,-287.109,-41.504,-33.691,5.371,-71.289
1688814061.655,-114.746,-46.387,-35.156,-61.035,-124.023
1688814061.659,-40.039,-51.758,-38.574,-82.031,-83.496
1688814061.663,-108.398,-52.734,-42.480,-60.059,-37.109
1688814061.667,-231.934,-52.246,-41.504,-17.090,23.926
1688814061.670,-300.781,-51.270,-39.551,-1.465,112.305
1688814061.674,-144.043,-46.875,-34.180,-54.199,287.109
1688814061.678,-35.156,-41.016,-30.273,-85.449,233.398
1688814061.682,-65.430,-45.898,-34.668,-76.660,-111.816
1688814061.686,-183.594,-52.734,-41.992,-31.250,50.293
1688814061.688,-285.645,-48.340,-41.504,2.441,206.543
1688814061.692,-137.207,-41.992,-38.086,-50.293,-51.758
1688814061.696,-7.324,-35.156,-38.086,-79.102,-168.945
1688814061.700,-36.133,-33.203,-35.156,-59.082,-44.922
1688814061.704,-143.066,-28.809,-33.203,-20.020,-4.395
1688814061.708,-264.648,-29.297,-33.691,19.531,8.789
1688814061.712,-162.598,-34.668,-36.621,-36.621,-19.531
1688814061.715,-32.227,-33.203,-35.645,-78.125,62.012
1688814061.719,-54.688,-27.832,-38.574,-58.105,189.941
1688814061.723,-165.039,-28.809,-39.551,-23.926,-18.555
1688814061.727,-310.547,-35.156,-29.297,17.578,3.906
1688814061.731,-222.168,-31.738,-25.879,-26.855,166.504
1688814061.733,-57.129,-29.785,-29.297,-79.590,19.043
1688814061.737,-57.129,-37.109,-32.227,-72.266,-99.121
1688814061.741,-148.438,-40.039,-34.668,-40.527,-17.090
1688814061.745,-295.898,-41.016,-40.039,5.859,21.973
1688814061.749,-249.512,-42.480,-40.527,-22.949,-6.836
1688814061.753,-87.891,-34.668,-37.109,-78.125,-47.363
1688814061.757,-73.242,-28.320,-32.715,-71.289,-6.348
1688814061.760,-148.438,-25.391,-29.785,-28.809,192.383
1688814061.764,-284.668,-22.461,-29.297,24.414,160.156
1688814061.768,-244.629,-23.926,-27.832,2.441,0.977
1688814061.772,-66.406,-24.902,-29.297,-60.547,-21.973
1688814061.776,-32.715,-21.973,-22.461,-62.988,-7.812
1688814061.778,-95.215,-23.438,-16.113,-29.785,-56.152
1688814061.782,-243.652,-27.832,-23.438,21.484,-27.832
1688814061.786,-246.094,-28.320,-28.320,12.207,102.051
1688814061.790,-62.012,-24.414,-24.414,-60.059,113.770
1688814061.794,-4.883,-23.438,-30.273,-74.219,-90.332
1688814061.798,-62.500,-26.855,-29.785,-42.480,-64.453
1688814061.802,-206.543,-35.156,-17.090,17.090,316.895
1688814061.805,-233.887,-35.645,-14.648,28.809,333.496
1688814061.809,-57.617,-33.203,-24.414,-46.387,-73.242
1688814061.813,9.277,-39.551,-24.902,-75.195,-124.512
1688814061.817,-37.109,-37.109,-17.578,-47.852,-85.938
1688814061.821,-168.457,-33.203,-17.578,13.184,-33.691
1688814061.825,-223.145,-34.180,-22.949,32.715,-44.434
1688814061.829,-59.570,-29.785,-27.344,-37.598,-90.820
1688814061.833,32.715,-28.320,-19.531,-60.059,-43.457
1688814061.837,-1.465,-29.785,-19.043,-41.504,-112.305
1688814061.841,-127.930,-32.715,-20.508,4.883,-105.957
1688814061.845,-211.426,-31.738,-13.672,34.668,39.551
1688814061.849,-65.430,-30.762,-17.090,-32.227,200.195
1688814061.852,38.574,-28.809,-17.578,-68.848,61.035
1688814061.856,-2.930,-24.414,-15.137,-48.340,-145.996
1688814061.860,-142.578,-30.762,-18.555,1.465,-78.125
1688814061.864,-265.625,-35.156,-23.926,32.227,-2.930
1688814061.868,-136.719,-32.227,-29.785,-24.414,-36.133
1688814061.883,-10.742,-30.273,-31.738,-69.824,-70.801
1688814061.887,-38.086,-28.809,-33.203,-52.734,-17.578
1688814061.891,-158.691,-27.832,-30.273,-3.418,114.258
1688814061.895,-287.109,-24.414,-31.250,28.320,117.676
1688814061.899,-174.805,-27.344,-37.598,-26.367,-49.805
1688814061.903,-30.762,-33.691,-37.109,-71.289,16.602
1688814061.907,-43.457,-33.203,-34.668,-57.129,231.445
1688814061.910,-142.090,-31.250,-33.203,-29.297,44.922
1688814061.914,-282.227,-30.762,-31.738,13.672,-23.438
1688814061.918,-208.496,-31.250,-32.227,-22.949,21.484
1688814061.922,-46.387,-31.250,-32.715,-78.125,-71.289
1688814061.926,-38.086,-35.156,-33.691,-72.754,-165.039
1688814061.929,-130.859,-43.457,-31.738,-41.992,-75.684
1688814061.933,-281.738,-46.875,-33.203,9.766,34.668
1688814061.937,-228.516,-44.922,-36.133,-20.508,29.297
1688814061.941,-59.082,-47.363,-34.668,-80.566,-69.336
1688814061.945,-34.180,-45.410,-33.203,-79.102,-29.297
1688814061.949,-102.539,-38.086,-30.762,-51.270,83.984
1688814061.953,-249.512,-41.504,-30.273,6.836,50.781
1688814061.956,-228.516,-42.969,-36.621,-4.395,52.734
1688814061.960,-41.992,-38.574,-39.062,-74.219,-4.883
1688814061.964,-1.465,-36.621,-35.645,-71.777,185.547
1688814061.968,-65.430,-34.180,-35.156,-41.992,189.453
1688814061.972,-186.035,-30.273,-33.203,9.766,27.344
1688814061.974,-161.621,-28.320,-33.203,8.789,124.512
1688814061.978,18.555,-33.691,-38.086,-65.430,42.969
1688814061.982,57.129,-35.156,-43.457,-86.914,-104.980
1688814061.986,-3.906,-41.016,-44.434,-57.617,-170.898
1688814061.990,-147.949,-45.410,-39.062,2.441,-70.801
1688814061.994,-183.594,-44.434,-37.598,9.277,66.406
1688814061.998,-9.766,-43.945,-42.969,-62.012,-23.438
1688814062.001,59.570,-41.504,-45.410,-76.172,-145.996
1688814062.005,12.695,-41.992,-42.969,-50.781,81.055
1688814062.009,-131.348,-41.992,-40.039,-1.465,316.895
1688814062.013,-219.727,-42.969,-39.551,10.254,40.527
1688814062.017,-57.617,-38.086,-36.621,-54.199,-166.992
1688814062.019,26.367,-39.062,-34.180,-75.684,-112.305
1688814062.023,-30.273,-43.457,-37.109,-56.641,-113.770
1688814062.027,-163.574,-41.992,-39.062,-8.789,-129.883
1688814062.031,-263.184,-41.016,-36.133,22.949,-17.090
1688814062.035,-112.793,-41.016,-34.180,-29.785,-7.812
1688814062.039,6.348,-41.992,-35.645,-59.082,-53.223
1688814062.043,-22.949,-41.016,-41.016,-45.898,-84.473
1688814062.046,-140.625,-44.434,-43.457,-2.441,-41.992
1688814062.050,-267.578,-47.363,-40.527,43.457,254.395
1688814062.054,-152.344,-43.945,-41.992,-23.926,141.113
1688814062.058,-16.113,-46.387,-43.457,-76.172,-108.887
1688814062.062,-37.109,-51.270,-40.039,-51.758,88.867
1688814062.063,-164.062,-47.852,-38.574,-1.465,319.824
1688814062.067,-288.574,-39.551,-30.762,45.410,131.836
1688814062.071,-160.645,-33.203,-24.902,-1.465,-44.434
1688814062.075,-2.930,-35.156,-26.855,-52.734,-103.027
1688814062.079,10.254,-36.133,-29.297,-47.852,-100.098
1688814062.083,-52.246,-34.180,-34.668,-13.184,-48.828
1688814062.087,-163.574,-37.598,-33.691,33.691,8.301
1688814062.090,-61.035,-30.762,-26.855,8.301,187.988
1688814062.094,129.883,-19.531,-22.461,-42.969,175.781
1688814062.098,157.227,-16.602,-18.555,-42.969,-82.031
1688814062.102,82.031,-22.949,-19.043,-13.184,-41.992
1688814062.106,-51.270,-26.367,-15.137,35.156,24.414
1688814062.109,7.812,-24.902,-12.207,11.719,-46.875
1688814062.113,180.176,-27.344,-15.625,-54.199,-48.340
1688814062.117,204.102,-26.367,-15.137,-47.363,-46.875
1688814062.121,136.230,-26.367,-22.461,-8.789,-7.812
1688814062.125,-8.789,-29.785,-24.414,41.992,76.172
1688814062.129,2.441,-30.273,-23.438,20.020,34.180
1688814062.133,173.340,-28.809,-22.949,-47.363,-0.977
1688814062.136,208.496,-31.738,-23.438,-41.992,183.105
1688814062.140,143.555,-32.715,-31.250,-19.043,125.977
1688814062.144,-11.719,-39.551,-33.691,14.160,-35.645
1688814062.148,-42.969,-41.992,-34.668,-2.441,55.664
1688814062.152,129.883,-37.598,-33.203,-72.266,7.324
1688814062.154,181.152,-38.086,-31.250,-85.449,-114.258
1688814062.158,114.746,-41.504,-33.691,-62.500,-161.133
1688814062.162,-25.879,-44.922,-29.297,6.836,95.215
1688814062.166,-80.078,-46.875,-29.297,20.020,279.785
1688814062.170,83.008,-45.410,-34.668,-68.359,-6.348
1688814062.174,159.668,-46.875,-31.738,-96.680,-173.340
1688814062.178,117.188,-48.828,-28.320,-61.035,90.332
1688814062.181,-17.578,-49.805,-23.926,-4.883,268.555
1688814062.185,-84.473,-51.270,-20.508,6.348,-0.488
1688814062.189,85.938,-52.246,-23.438,-51.270,-99.121
1688814062.193,184.082,-41.504,-25.879,-76.660,-93.262
1688814062.197,142.578,-35.156,-28.320,-59.082,-103.027
1688814062.199,6.348,-41.992,-30.273,-12.695,-42.969
1688814062.203,-95.703,-41.504,-26.855,20.996,41.504
1688814062.207,44.434,-35.645,-25.879,-32.715,15.137
1688814062.211,161.133,-34.668,-33.691,-70.312,4.395
1688814062.215,133.301,-35.156,-38.574,-65.918,-70.801
1688814062.219,22.461,-35.645,-33.691,-28.809,-36.621
1688814062.223,-87.402,-41.992,-34.180,21.484,272.461
1688814062.226,41.992,-39.062,-35.645,-36.133,169.434
1688814062.230,184.570,-29.785,-36.133,-79.590,-98.633
1688814062.234,167.969,-36.133,-42.480,-61.523,-48.340
1688814062.238,63.477,-36.133,-41.504,-27.344,89.355
1688814062.242,-75.684,-34.180,-44.922,15.625,89.355
1688814062.244,20.508,-34.180,-41.504,-28.320,5.371
1688814062.248,172.852,-34.668,-35.645,-80.566,24.902
1688814062.252,160.645,-39.062,-42.480,-74.219,82.520
1688814062.256,66.895,-37.109,-42.480,-41.992,-65.918
1688814062.260,-78.613,-40.527,-38.574,10.254,-78.125
1688814062.264,-22.461,-38.086,-38.574,-19.043,168.457
1688814062.268,128.906,-33.691,-38.086,-74.219,191.406
1688814062.271,126.953,-38.086,-39.062,-67.871,11.719
1688814062.275,36.621,-39.062,-33.691,-33.691,-78.613
1688814062.279,-125.000,-42.480,-33.203,22.949,177.246
1688814062.283,-110.840,-44.434,-40.527,-0.488,328.125
1688814062.287,44.434,-37.598,-40.039,-74.219,-59.570
1688814062.304,43.457,-39.551,-37.109,-73.242,-113.770
1688814062.308,-81.543,-41.016,-37.598,-40.527,5.859
1688814062.312,-279.297,-38.086,-40.527,8.789,-0.488
1688814062.316,-302.734,-35.645,-42.969,-3.906,-7.812
1688814062.320,-160.156,-40.039,-42.969,-71.289,22.949
1688814062.324,-147.461,-43.457,-37.598,-83.496,77.637
1688814062.328,-227.051,-39.062,-31.738,-60.059,86.914
1688814062.331,-386.230,-43.457,-31.738,-7.812,18.066
1688814062.335,-420.410,-48.828,-37.598,-12.695,58.105
1688814062.339,-257.812,-50.781,-39.062,-79.102,236.816
1688814062.343,-202.148,-47.852,-32.715,-95.215,120.117
1688814062.347,-282.715,-43.457,-26.367,-73.242,-92.285
1688814062.349,-468.262,-46.387,-31.738,-16.113,27.344
1688814062.353,-545.898,-47.363,-40.039,-2.930,256.836
1688814062.357,-398.438,-46.875,-42.969,-79.590,26.367
1688814062.361,-331.543,-50.781,-43.457,-100.586,-232.910
1688814062.365,-378.906,-50.293,-37.598,-75.684,-143.555
1688814062.369,-516.602,-47.363,-35.156,-27.832,83.496
1688814062.373,-598.145,-46.387,-38.086,0.977,229.492
1688814062.376,-449.219,-43.457,-36.133,-67.383,-46.875
1688814062.380,-353.516,-43.457,-31.250,-87.402,-33.203
1688814062.384,-386.230,-44.434,-32.715,-60.059,104.004
1688814062.388,-512.695,-41.992,-35.156,-23.926,-156.250
1688814062.392,-612.305,-41.992,-37.598,3.418,-113.281
1688814062.393,-461.914,-43.945,-40.527,-58.594,-70.312
1688814062.397,-336.426,-41.016,-35.156,-88.867,-132.324
1688814062.401,-357.422,-40.527,-32.715,-70.312,-104.980
1688814062.405,-465.332,-43.945,-38.574,-24.414,-28.320
1688814062.409,-581.543,-44.922,-41.504,10.742,104.004
1688814062.413,-434.570,-41.504,-39.551,-48.828,112.793
1688814062.417,-174.316,-42.480,-40.039,-92.285,-63.477
1688814062.420,-36.621,-49.316,-44.434,-74.707,-161.621
1688814062.424,-44.922,-53.223,-46.387,-22.949,112.793
1688814062.428,-91.797,-46.875,-42.969,19.531,151.855
1688814062.432,89.355,-45.898,-47.363,-33.203,-127.930
1688814062.436,302.734,-44.434,-45.410,-79.590,-20.996
1688814062.440,336.914,-37.109,-36.621,-67.871,33.203
1688814062.444,281.250,-34.668,-33.203,-36.133,-119.141
1688814062.448,169.434,-38.574,-29.785,7.812,-52.734
1688814062.452,176.270,-41.992,-26.367,-21.484,119.629
1688814062.456,270.020,-43.457,-22.949,-75.195,60.059
1688814062.460,312.012,-43.945,-25.391,-88.867,-17.090
1688814062.464,289.551,-40.039,-29.297,-59.082,-12.695
1688814062.467,185.059,-40.527,-31.250,1.953,135.742
1688814062.471,249.023,-41.992,-31.250,-17.090,269.531
1688814062.475,438.477,-43.945,-30.762,-81.055,-43.945
1688814062.479,481.445,-45.410,-25.879,-78.125,-148.926
1688814062.483,426.270,-39.551,-21.973,-46.387,-64.941
1688814062.484,285.645,-38.574,-19.531,4.395,-2.441
1688814062.488,296.875,-34.668,-18.555,-4.883,-14.160
1688814062.492,475.098,-35.156,-19.043,-69.824,-57.129
1688814062.496,519.043,-40.527,-21.973,-83.496,-62.988
1688814062.500,460.449,-43.945,-25.879,-58.594,-34.668
1688814062.504,321.777,-44.922,-26.367,-1.953,29.785
1688814062.508,301.270,-39.062,-26.855,-0.977,109.863
1688814062.511,475.586,-40.039,-26.367,-62.012,291.504
1688814062.515,531.250,-45.898,-24.414,-75.195,115.234
1688814062.519,465.820,-50.293,-24.414,-61.035,-148.926
1688814062.523,321.777,-49.805,-25.391,-2.441,-5.371
1688814062.527,261.230,-46.387,-29.297,15.137,95.703
1688814062.528,420.410,-41.016,-34.668,-57.129,23.438
1688814062.532,496.582,-43.457,-36.133,-82.520,-83.496
1688814062.536,448.242,-47.852,-34.180,-52.246,4.883
1688814062.540,304.688,-44.922,-29.297,2.930,156.250
1688814062.544,133.789,-39.062,-28.809,19.043,87.891
1688814062.548,199.707,-36.621,-31.250,-47.363,-27.832
1688814062.552,303.711,-36.133,-25.879,-76.172,113.281
1688814062.555,285.156,-37.598,-24.902,-58.105,269.531
1688814062.559,182.617,-35.645,-28.320,-20.508,66.895
1688814062.563,108.398,-35.156,-22.949,17.090,-7.324
1688814062.567,257.812,-36.621,-21.484,-37.109,63.477
1688814062.571,375.977,-32.227,-22.461,-83.984,-34.180
1688814062.573,356.934,-33.691,-23.438,-68.359,-157.715
1688814062.577,245.605,-37.598,-29.297,-24.902,-56.641
1688814062.581,112.305,-40.039,-33.203,14.160,69.824
1688814062.585,226.074,-40.039,-33.691,-33.691,15.625
1688814062.589,356.934,-36.621,-30.273,-75.195,-131.348
1688814062.593,333.984,-35.156,-30.273,-63.965,-56.152
1688814062.597,199.219,-42.969,-29.297,-23.926,170.410
1688814062.600,-65.918,-41.504,-25.879,27.344,109.375
1688814062.604,-133.789,-34.180,-23.438,-12.695,-80.078
1688814062.608,-84.473,-41.016,-23.926,-65.430,-0.977
1688814062.612,-170.410,-43.945,-27.832,-59.570,57.129
1688814062.616,-306.152,-35.645,-25.391,-25.391,21.484
1688814062.618,-410.156,-36.621,-22.949,26.855,-6.836
1688814062.622,-247.559,-34.180,-19.531,4.395,34.668
1688814062.626,10.742,-29.297,-15.625,-57.617,106.445
1688814062.630,98.145,-25.391,-12.207,-62.988,-119.629
1688814062.634,69.824,-25.879,-18.555,-29.785,-171.387
1688814062.638,-34.180,-33.203,-24.902,21.973,143.555
1688814062.642,30.762,-35.156,-25.879,4.883,211.914
1688814062.645,207.520,-33.691,-30.762,-63.965,-102.539
1688814062.649,222.168,-33.691,-29.785,-67.871,-202.148
1688814062.653,78.613,-34.668,-27.344,-30.762,-21.973
1688814062.657,-103.516,-36.621,-31.250,19.043,74.707
1688814062.661,-51.758,-36.621,-33.203,-3.418,-49.805
1688814062.678,168.945,-37.109,-38.086,-76.660,-59.570
1688814062.682,244.141,-37.598,-38.574,-75.684,-17.090
1688814062.686,202.148,-39.551,-38.574,-44.434,-83.984
1688814062.690,78.613,-44.434,-39.551,5.371,-64.453
1688814062.694,73.242,-41.992,-36.133,9.277,67.871
1688814062.698,256.348,-39.062,-37.598,-58.594,40.039
1688814062.702,320.312,-41.504,-41.016,-81.543,-68.848
1688814062.705,279.785,-41.504,-39.062,-55.664,-137.207
1688814062.709,156.250,-40.039,-33.203,5.371,-23.438
1688814062.713,91.797,-39.062,-32.715,25.391,172.852
1688814062.717,254.395,-36.133,-36.621,-44.434,23.438
1688814062.721,351.562,-34.668,-41.016,-72.754,-75.684
1688814062.725,306.152,-33.691,-24.902,-48.340,49.316
1688814062.729,180.176,-28.809,-17.090,7.812,183.105
1688814062.733,101.074,-32.715,-31.250,15.137,88.867
1688814062.737,241.699,-32.715,-28.809,-65.430,-106.934
1688814062.741,333.008,-32.227,-21.484,-100.098,0.000
1688814062.745,284.668,-38.574,-18.555,-91.797,98.633
1688814062.749,153.809,-31.738,-9.277,-64.453,45.898
1688814062.752,25.391,-27.832,-13.184,-53.711,-21.973
1688814062.756,126.953,-33.691,-19.043,-137.695,39.062
1688814062.760,226.562,-36.133,-14.648,-198.730,77.637
1688814062.764,175.293,-35.156,-8.789,-208.984,-128.418
1688814062.768,40.527,-31.250,-4.395,-188.477,-122.559
1688814062.768,-125.000,-33.691,-10.254,-180.664,-48.340
1688814062.772,-55.176,-29.297,-11.230,-249.023,-56.641
1688814062.776,25.391,-20.020,-11.230,-305.664,-199.707
1688814062.780,-54.199,-15.625,-13.672,-304.688,-184.570
1688814062.784,-167.480,-5.859,-12.695,-254.395,22.461
1688814062.788,-301.758,-0.977,-14.648,-187.988,160.645
1688814062.792,-216.309,-7.324,-21.973,-225.586,152.344
1688814062.795,-30.762,-11.230,-24.902,-275.391,15.625
1688814062.799,3.906,-19.043,-28.809,-247.559,214.844
1688814062.803,-63.477,-28.320,-34.668,-200.195,207.520
1688814062.807,-178.711,-28.809,-28.809,-136.230,-52.246
1688814062.811,-101.562,-30.273,-26.855,-133.789,158.203
1688814062.813,76.172,-26.367,-26.855,-167.969,196.777
1688814062.817,102.539,-28.320,-25.879,-159.668,-93.750
1688814062.821,29.785,-37.109,-30.273,-123.535,-161.133
1688814062.825,-117.188,-44.434,-39.062,-54.688,53.711
1688814062.829,-81.543,-46.387,-40.039,-60.059,123.535
1688814062.833,108.398,-48.340,-41.504,-119.629,-5.371
1688814062.837,154.785,-51.270,-47.363,-117.676,-65.918
1688814062.840,104.004,-50.293,-53.711,-82.520,154.785
1688814062.844,-30.762,-56.641,-58.105,-21.973,462.891
1688814062.848,-24.902,-57.129,-53.711,-32.715,137.695
1688814062.852,162.109,-55.176,-47.852,-92.285,-161.621
1688814062.856,217.773,-60.547,-46.387,-88.379,-114.258
1688814062.858,176.758,-61.035,-52.734,-59.082,-127.441
1688814062.862,48.340,-60.547,-56.152,-5.371,-113.770
1688814062.866,14.648,-60.059,-52.246,14.160,-16.113
1688814062.870,194.824,-46.875,-41.504,-40.039,-144.531
1688814062.874,273.926,-42.480,-37.109,-53.711,-225.098
1688814062.878,229.004,-49.805,-41.504,-28.320,-43.457
1688814062.882,97.656,-53.711,-44.922,17.090,78.613
1688814062.885,35.156,-52.734,-46.875,43.945,218.262
1688814062.889,192.383,-48.340,-43.945,-10.742,184.082
1688814062.893,281.250,-53.711,-45.410,-41.504,-36.133
1688814062.897,251.465,-56.152,-39.551,-15.625,-67.871
1688814062.901,127.441,-50.293,-33.691,44.434,40.527
1688814062.904,34.668,-50.781,-40.039,76.660,7.812
1688814062.908,179.688,-51.270,-44.434,14.160,-126.465
1688814062.912,291.992,-46.387,-45.410,-17.578,-40.527
1688814062.916,270.996,-39.062,-43.457,9.277,29.297
1688814062.920,152.344,-40.039,-42.969,50.781,-91.309
1688814062.924,51.270,-45.410,-46.387,73.730,26.367
1688814062.928,180.664,-45.898,-47.852,23.438,264.160
1688814062.931,293.945,-40.527,-38.574,-5.371,229.980
1688814062.935,270.020,-39.062,-34.180,2.441,-125.000
1688814062.939,167.480,-40.527,-37.109,43.945,-158.691
1688814062.943,51.758,-41.504,-35.156,91.797,20.508
1688814062.947,147.461,-38.574,-36.133,42.969,11.230
1688814062.948,279.297,-35.156,-37.109,-9.766,-123.047
1688814062.952,265.137,-34.668,-36.133,-1.465,-101.074
1688814062.956,170.898,-37.598,-35.156,40.527,48.340
1688814062.960,38.086,-36.133,-38.086,84.473,44.922
1688814062.964,113.281,-38.086,-43.945,35.156,-106.445
1688814062.968,267.090,-41.992,-41.992,-20.996,-170.410
1688814062.972,263.184,-39.551,-41.504,-12.207,189.941
1688814062.975,171.387,-39.062,-43.457,19.531,211.426
1688814062.979,32.227,-40.039,-41.504,70.312,-41.504
1688814062.983,82.520,-40.527,-39.551,47.363,-59.570
1688814062.987,241.699,-37.598,-41.504,-17.090,-77.148
1688814062.991,257.324,-37.598,-41.016,-23.438,27.832
1688814062.995,182.129,-40.527,-40.039,2.930,-37.109
1688814062.999,31.738,-41.504,-43.457,61.035,85.938
1688814063.003,46.387,-41.016,-39.062,46.387,335.449
1688814063.007,211.426,-37.598,-38.086,-29.785,-1.953
1688814063.011,244.141,-35.156,-40.039,-37.598,-258.789
1688814063.015,172.363,-37.109,-40.039,-1.465,-19.531
1688814063.019,27.344,-39.551,-39.551,60.059,187.500
1688814063.022,24.902,-36.621,-38.086,50.293,67.871
1688814063.026,187.988,-36.133,-39.062,-24.902,-89.355
1688814063.030,226.074,-37.109,-41.016,-27.344,17.090
1688814063.034,168.457,-33.691,-43.945,-7.324,75.195
1688814063.038,29.297,-40.527,-42.480,36.133,-51.270
1688814063.054,-15.625,-45.898,-39.551,49.805,-48.828
1688814063.058,155.762,-39.062,-34.668,-24.902,-50.293
1688814063.062,218.262,-37.109,-36.621,-43.457,-46.387
1688814063.066,164.551,-36.621,-39.062,-15.137,-38.574
1688814063.070,43.945,-35.156,-37.598,31.738,72.754
1688814063.074,-13.672,-37.109,-37.109,55.176,271.484
1688814063.078,135.254,-38.086,-37.598,-21.484,166.016
1688814063.081,216.797,-36.621,-37.598,-60.059,-162.109
1688814063.085,178.223,-35.645,-34.668,-32.227,-161.133
1688814063.089,51.270,-32.715,-37.109,21.484,147.461
1688814063.093,-36.133,-32.715,-37.109,46.875,114.258
1688814063.097,104.492,-38.086,-33.203,-31.250,-5.859
1688814063.098,204.590,-43.457,-35.156,-76.172,65.430
1688814063.102,174.805,-40.039,-32.715,-50.781,89.844
1688814063.106,62.500,-36.133,-28.809,-2.441,-25.391
1688814063.110,-44.434,-37.109,-28.809,41.992,-71.289
1688814063.114,81.543,-36.621,-36.133,-6.348,11.230
1688814063.118,204.590,-37.109,-40.039,-59.570,49.316
1688814063.122,178.711,-36.133,-36.621,-53.711,-47.852
1688814063.125,67.383,-38.574,-39.551,-6.348,-103.027
1688814063.129,-60.547,-42.969,-40.527,46.387,119.629
1688814063.133,35.156,-44.434,-41.016,-8.789,260.742
1688814063.137,180.664,-40.527,-47.363,-82.031,-28.809
1688814063.141,172.852,-41.504,-48.340,-73.730,-203.613
1688814063.144,64.453,-47.363,-48.340,-24.902,-86.426
1688814063.148,-76.172,-43.457,-46.875,36.621,74.219
1688814063.152,1.465,-38.574,-42.969,5.859,26.367
1688814063.156,165.527,-39.062,-39.062,-58.105,-123.047
1688814063.160,173.340,-41.504,-32.227,-57.129,-115.234
1688814063.164,81.055,-40.527,-34.180,-22.461,-14.648
1688814063.168,-68.848,-44.922,-39.551,40.039,139.648
1688814063.171,-19.531,-48.828,-38.086,13.672,104.004
1688814063.175,160.156,-42.480,-36.621,-52.734,217.285
1688814063.179,179.199,-41.504,-38.086,-59.570,166.504
1688814063.183,100.586,-47.852,-39.062,-37.598,-116.699
1688814063.187,-52.246,-48.340,-34.180,31.250,101.562
1688814063.189,-46.875,-45.898,-37.109,16.113,247.070
1688814063.193,132.324,-43.457,-41.016,-67.383,-75.684
1688814063.197,180.664,-43.457,-38.574,-84.473,-227.051
1688814063.201,102.051,-39.062,-33.203,-51.270,-98.633
1688814063.205,-39.551,-40.527,-35.645,6.836,3.418
1688814063.209,-41.504,-41.992,-40.527,0.977,19.531
1688814063.213,112.793,-41.504,-41.016,-69.336,-66.406
1688814063.216,171.387,-39.062,-43.945,-86.914,51.758
1688814063.220,113.281,-36.133,-47.363,-61.035,113.281
1688814063.224,-43.945,-35.156,-42.480,-3.418,-107.910
1688814063.228,-102.539,-35.645,-35.156,16.113,-55.664
1688814063.232,71.289,-36.621,-35.645,-62.988,52.734
1688814063.233,165.527,-32.227,-31.250,-88.867,-83.984
1688814063.237,125.488,-35.156,-29.785,-70.801,-179.199
1688814063.241,-19.531,-31.738,-26.855,-2.441,-18.555
1688814063.245,-115.234,-32.715,-25.391,36.621,45.410
1688814063.249,53.223,-36.621,-28.809,-41.992,25.879
1688814063.253,181.641,-36.133,-26.367,-82.031,43.457
1688814063.257,156.250,-35.645,-24.902,-58.105,45.898
1688814063.260,10.742,-36.621,-25.879,11.230,214.844
1688814063.264,-116.699,-37.598,-27.344,55.664,196.289
1688814063.268,35.156,-32.227,-29.297,-23.438,-40.527
1688814063.272,183.105,-32.227,-33.691,-83.496,-69.824
1688814063.276,161.621,-37.598,-42.969,-78.613,-42.969
1688814063.280,26.855,-40.527,-46.875,-25.879,6.836
1688814063.284,-113.281,-39.551,-46.875,35.156,113.281
1688814063.288,7.812,-39.062,-47.852,-14.160,120.605
1688814063.292,164.551,-33.691,-41.016,-74.707,119.141
1688814063.296,156.738,-28.320,-39.551,-74.219,-27.344
1688814063.300,41.992,-28.809,-38.574,-21.973,-113.770
1688814063.304,-120.605,-33.203,-32.227,57.129,267.578
1688814063.307,-33.203,-32.715,-34.180,18.555,369.141
1688814063.311,151.855,-24.414,-35.156,-72.754,-52.734
1688814063.315,172.852,-22.949,-29.785,-86.914,-136.230
1688814063.319,61.035,-23.926,-32.715,-31.250,-64.453
1688814063.323,-117.676,-21.973,-30.762,49.316,14.160
1688814063.323,-54.688,-20.508,-29.785,9.277,-10.254
1688814063.327,138.672,-24.414,-35.645,-80.566,-138.672
1688814063.331,156.738,-31.250,-38.086,-85.938,-81.055
1688814063.335,49.805,-34.180,-40.039,-46.875,-29.297
1688814063.339,-115.723,-34.180,-39.062,34.180,-20.020
1688814063.343,-78.125,-36.621,-34.180,17.578,100.098
1688814063.347,123.047,-37.598,-30.762,-67.871,309.570
1688814063.350,174.805,-35.645,-27.344,-77.148,183.105
1688814063.354,91.797,-40.039,-31.250,-56.641,-93.750
1688814063.358,-95.703,-46.387,-35.156,24.902,-20.020
1688814063.362,-105.957,-41.504,-37.109,38.574,10.742
1688814063.366,96.191,-39.551,-38.086,-57.617,-86.914
1688814063.369,161.133,-39.551,-38.086,-91.797,-140.625
1688814063.373,92.773,-40.039,-34.180,-55.176,5.859
1688814063.377,-84.473,-41.504,-34.668,23.438,224.609
1688814063.381,-128.906,-34.668,-34.180,31.738,37.598
1688814063.385,71.289,-35.156,-30.762,-61.523,-203.125
1688814063.389,160.645,-38.574,-32.227,-94.238,-112.793
1688814063.393,108.887,-33.691,-31.738,-58.594,7.812
1688814063.396,-59.082,-32.227,-31.250,22.461,57.617
1688814063.400,-138.184,-28.320,-32.715,52.734,44.434
1688814063.404,55.176,-26.367,-34.180,-37.109,44.434
1688814063.408,170.410,-29.297,-37.598,-87.891,193.359
1688814063.412,126.465,-22.949,-36.133,-67.871,20.508
1688814063.429,-44.434,-24.902,-29.297,8.789,-78.613
1688814063.433,-162.109,-29.785,-29.785,49.316,61.035
1688814063.437,22.461,-25.391,-31.738,-41.016,12.695
1688814063.441,171.875,-23.438,-27.832,-99.121,-134.277
1688814063.445,144.043,-22.949,-25.391,-75.195,-156.738
1688814063.449,-20.020,-23.438,-24.902,8.301,69.336
1688814063.453,-145.020,-23.438,-25.879,59.082,185.059
1688814063.456,20.020,-21.973,-29.297,-28.320,4.883
1688814063.460,160.645,-25.391,-30.273,-90.332,-74.707
1688814063.464,135.254,-32.715,-29.297,-71.777,187.988
1688814063.468,-9.766,-32.715,-30.762,-11.719,193.848
1688814063.472,-167.969,-30.273,-28.320,56.641,47.363
1688814063.473,-41.504,-32.715,-24.414,0.000,120.117
1688814063.477,145.508,-30.762,-25.391,-81.543,17.090
1688814063.481,147.949,-28.809,-25.879,-83.496,-177.246
1688814063.485,11.719,-31.250,-28.809,-17.090,-162.598
1688814063.489,-144.043,-35.156,-30.273,57.129,12.695
1688814063.493,-36.621,-38.574,-33.691,-5.859,15.137
1688814063.497,135.254,-34.180,-33.691,-83.496,-62.012
1688814063.500,162.598,-28.809,-26.367,-80.566,-162.109
1688814063.504,49.316,-31.250,-26.855,-18.555,40.527
1688814063.508,-146.973,-33.203,-27.344,74.219,373.535
1688814063.512,-92.285,-33.203,-29.785,34.180,132.324
1688814063.516,121.582,-40.039,-36.621,-69.336,-131.348
1688814063.519,164.551,-39.062,-36.133,-74.707,-77.148
1688814063.523,61.523,-34.668,-34.180,-25.391,-18.066
1688814063.527,-147.949,-35.645,-31.250,57.129,-46.875
1688814063.531,-134.766,-27.344,-28.809,45.410,-43.945
1688814063.535,92.773,-24.414,-26.855,-58.594,-189.941
1688814063.539,155.273,-29.297,-26.855,-83.984,-169.922
1688814063.543,55.664,-35.156,-32.715,-42.480,-23.438
1688814063.546,-152.344,-36.621,-32.715,46.387,41.992
1688814063.550,-175.293,-36.133,-27.832,56.641,214.844
1688814063.554,38.086,-37.109,-34.180,-56.152,105.469
1688814063.558,116.211,-39.062,-36.133,-97.168,-235.352
1688814063.562,43.457,-45.410,-34.180,-64.453,-92.285
1688814063.564,-158.203,-48.828,-39.062,18.066,268.066
1688814063.568,-218.750,-45.410,-40.527,34.668,111.816
1688814063.572,12.695,-36.621,-33.203,-73.242,-98.145
1688814063.576,120.605,-34.668,-29.785,-114.258,14.648
1688814063.580,51.270,-37.109,-32.715,-77.637,30.762
1688814063.584,-144.531,-41.992,-40.039,5.371,-8.789
1688814063.588,-258.789,-49.316,-41.016,43.457,149.902
1688814063.591,-66.895,-50.293,-41.016,-50.293,132.812
1688814063.595,64.453,-47.363,-39.551,-105.469,17.090
1688814063.599,5.859,-49.316,-39.062,-85.938,-174.316
1688814063.603,-173.340,-52.246,-40.039,-2.441,-102.051
1688814063.607,-301.270,-45.898,-37.109,56.641,43.457
1688814063.608,-110.840,-46.387,-37.109,-36.621,-85.938
1688814063.612,53.223,-46.387,-38.086,-102.051,-246.094
1688814063.616,18.555,-39.062,-39.062,-82.520,-159.668
1688814063.620,-136.230,-37.598,-38.086,-6.348,47.852
1688814063.624,-293.457,-34.180,-31.738,68.848,106.934
1688814063.628,-140.137,-27.832,-33.691,-11.719,40.527
1688814063.632,39.062,-27.832,-38.086,-102.539,-60.059
1688814063.635,16.602,-32.715,-38.086,-88.379,139.160
1688814063.639,-141.113,-38.086,-40.039,-20.020,165.527
1688814063.643,-311.523,-43.457,-40.527,48.828,-77.148
1688814063.647,-188.965,-49.316,-40.527,-23.926,-18.066
1688814063.651,9.277,-48.828,-39.551,-118.164,99.121
1688814063.653,23.926,-43.457,-36.621,-110.352,7.324
1688814063.657,-103.027,-44.434,-39.062,-52.734,-12.695
1688814063.661,-295.898,-50.781,-45.410,36.133,192.383
1688814063.665,-228.516,-54.199,-46.875,-4.395,270.020
1688814063.669,-27.832,-53.711,-43.945,-104.492,-80.078
1688814063.673,2.441,-53.223,-42.480,-107.910,-163.574
1688814063.677,-112.793,-50.781,-41.504,-41.504,234.863
1688814063.680,-307.129,-48.828,-38.574,60.059,511.230
1688814063.684,-258.789,-44.922,-39.062,23.438,118.164
1688814063.688,-45.410,-41.992,-43.945,-81.543,-191.406
1688814063.692,1.953,-40.527,-47.852,-95.703,-123.047
1688814063.696,-79.590,-39.551,-43.457,-54.199,-104.004
1688814063.699,-267.578,-47.363,-44.922,32.715,13.184
1688814063.703,-254.883,-49.316,-45.410,20.508,42.969
1688814063.707,-30.273,-45.898,-41.504,-85.449,-120.117
1688814063.711,29.297,-47.852,-45.898,-111.816,-185.059
1688814063.715,-55.176,-46.387,-44.434,-70.801,-195.801
1688814063.719,-250.488,-47.852,-42.480,20.996,54.688
1688814063.723,-278.809,-43.457,-41.016,47.363,432.617
1688814063.726,-60.547,-38.574,-41.992,-61.523,180.176
1688814063.730,27.344,-43.457,-45.410,-118.652,-286.133
1688814063.734,-32.715,-42.969,-42.480,-73.242,-204.590
1688814063.738,-215.820,-44.922,-42.480,29.785,59.570
1688814063.742,-281.738,-44.434,-41.016,54.688,24.902
1688814063.743,-73.242,-41.992,-39.062,-61.523,-205.078
1688814063.747,40.039,-42.969,-36.621,-112.305,-188.477
1688814063.751,-1.953,-41.016,-36.133,-78.613,-6.348
1688814063.755,-174.805,-37.598,-32.227,3.906,15.625
1688814063.759,-270.020,-42.969,-31.250,52.734,58.594
1688814063.763,-66.895,-48.828,-40.039,-51.270,177.246
1688814063.767,79.102,-42.480,-37.109,-118.164,176.758
1688814063.770,43.457,-41.504,-36.621,-100.098,-105.469
1688814063.774,-132.324,-49.316,-39.062,-25.879,-120.117
1688814063.778,-265.137,-51.270,-36.621,40.527,250.488
1688814063.782,-95.703,-50.293,-41.016,-54.688,199.707
1688814063.786,62.988,-45.898,-36.133,-137.695,-175.781
1688814063.803,43.457,-37.109,-32.227,-115.234,-157.715
1688814063.807,-104.004,-39.551,-34.180,-27.344,-0.488
1688814063.811,-246.094,-41.504,-31.738,60.059,130.371
1688814063.815,-91.309,-38.574,-32.227,-18.555,-10.742
1688814063.819,88.867,-42.969,-33.691,-108.887,-158.691
1688814063.823,72.266,-49.316,-37.109,-101.562,-68.359
1688814063.827,-67.383,-50.781,-40.527,-32.227,8.789
1688814063.830,-222.656,-46.387,-34.668,54.199,8.301
1688814063.834,-108.398,-42.969,-36.621,-6.348,10.254
1688814063.838,78.125,-42.480,-41.504,-97.168,100.098
1688814063.842,87.891,-42.969,-39.551,-97.168,8.789
1688814063.846,-41.992,-49.316,-41.504,-40.039,-4.883
1688814063.848,-223.633,-57.617,-41.992,58.105,319.824
1688814063.852,-141.113,-52.246,-38.086,21.484,379.883
1688814063.856,67.383,-42.969,-30.762,-87.891,-30.273
1688814063.860,94.238,-43.945,-26.367,-101.074,-225.098
1688814063.864,-23.926,-44.434,-28.320,-48.340,-105.957
1688814063.868,-216.797,-48.340,-27.832,44.434,136.230
1688814063.872,-178.223,-51.270,-32.227,21.484,126.953
1688814063.875,37.109,-45.410,-40.527,-86.426,-166.504
1688814063.879,79.590,-41.016,-39.551,-105.469,-45.410
1688814063.883,-27.344,-42.969,-36.621,-55.664,104.004
1688814063.887,-217.773,-43.457,-35.156,32.227,-0.488
1688814063.891,-211.426,-43.457,-31.738,35.645,16.602
1688814063.895,4.395,-44.434,-35.156,-70.801,-66.895
1688814063.899,65.430,-42.969,-35.645,-112.793,-164.062
1688814063.903,-18.555,-43.457,-31.250,-72.266,-132.324
1688814063.907,-211.426,-45.410,-27.344,29.297,62.500
1688814063.911,-247.070,-39.062,-25.879,39.062,150.391
1688814063.915,-29.297,-32.715,-33.203,-83.984,63.477
1688814063.919,52.246,-37.109,-37.109,-134.277,-47.852
1688814063.922,-14.160,-41.016,-37.598,-97.656,-52.734
1688814063.926,-184.570,-40.527,-35.645,7.812,288.574
1688814063.930,-249.512,-39.551,-30.762,44.434,283.203
1688814063.934,-34.668,-40.527,-32.227,-70.801,-107.422
1688814063.938,88.379,-41.992,-36.621,-125.000,-80.078
1688814063.938,32.715,-36.621,-36.133,-92.773,3.906
1688814063.942,-149.414,-32.227,-36.621,1.953,6.836
1688814063.946,-248.535,-36.621,-39.551,48.340,41.016
1688814063.950,-56.152,-44.922,-43.945,-66.406,-98.633
1688814063.954,74.219,-46.387,-50.781,-134.766,-141.113
1688814063.958,28.809,-46.387,-51.758,-104.980,-121.582
1688814063.962,-139.648,-51.270,-52.734,-18.555,5.371
1688814063.965,-272.949,-51.270,-51.270,49.805,272.949
1688814063.969,-114.746,-44.434,-47.363,-32.715,302.246
1688814063.973,47.363,-39.062,-42.969,-120.605,-47.852
1688814063.977,41.504,-37.598,-43.457,-114.258,-162.109
1688814063.981,-102.539,-36.133,-45.898,-31.250,-69.824
1688814063.983,-255.859,-34.668,-44.434,49.316,59.570
1688814063.987,-119.141,-39.551,-41.016,-24.902,31.250
1688814063.991,59.570,-42.969,-42.480,-113.770,-130.859
1688814063.995,60.547,-42.969,-46.387,-111.328,-149.414
1688814063.999,-64.453,-44.922,-42.969,-39.062,-40.039
1688814064.003,-232.422,-41.016,-37.109,51.270,77.148
1688814064.007,-124.512,-38.574,-35.156,-20.508,30.762
1688814064.010,83.008,-40.039,-32.227,-113.770,273.926
1688814064.014,101.074,-35.645,-34.180,-107.422,254.395
1688814064.018,-25.879,-32.715,-32.715,-47.852,-122.559
1688814064.022,-175.781,-35.645,-30.273,41.016,-7.324
1688814064.026,-87.402,-36.621,-32.715,-4.883,127.441
1688814064.028,107.422,-37.598,-31.250,-103.516,-38.086
1688814064.032,150.391,-41.504,-33.691,-122.070,-243.652
1688814064.036,46.875,-46.875,-32.715,-61.035,-21.973
1688814064.040,-137.207,-40.527,-32.227,41.992,230.957
1688814064.044,-91.797,-32.227,-29.297,20.508,55.176
1688814064.048,127.930,-32.715,-29.297,-89.355,-142.578
1688814064.052,181.641,-33.691,-35.156,-115.723,82.520
1688814064.055,92.773,-37.109,-36.133,-61.523,229.004
1688814064.059,-95.703,-35.645,-32.715,30.762,44.434
1688814064.063,-104.492,-36.621,-28.809,26.855,67.871
1688814064.067,109.863,-39.062,-27.832,-70.801,90.820
1688814064.071,189.941,-36.133,-30.762,-106.445,-92.285
1688814064.074,119.629,-36.133,-33.691,-76.660,-210.449
1688814064.078,-71.289,-40.039,-37.109,22.461,8.789
1688814064.082,-111.816,-36.621,-34.668,42.480,73.730
1688814064.086,98.633,-34.668,-31.738,-79.590,-133.789
1688814064.090,192.383,-39.062,-36.133,-131.836,-227.051
1688814064.094,137.207,-45.410,-40.039,-89.844,-135.742
1688814064.098,-37.598,-46.387,-38.086,14.648,267.578
1688814064.101,-105.957,-36.133,-29.297,44.922,247.559
1688814064.105,104.980,-32.715,-25.879,-71.289,-79.590
1688814064.109,225.586,-37.109,-26.855,-118.652,-78.125
1688814064.113,165.527,-39.551,-27.832,-77.637,-108.887
1688814064.117,-12.207,-42.480,-33.691,11.230,47.852
1688814064.120,-110.352,-43.945,-36.621,51.270,172.852
1688814064.124,77.148,-38.086,-32.227,-44.922,133.301
1688814064.128,216.797,-35.645,-36.621,-105.957,209.473
1688814064.132,187.500,-38.574,-42.969,-85.938,-16.602
1688814064.136,31.250,-43.457,-39.062,-12.207,-125.000
1688814064.140,-107.910,-46.875,-38.086,48.340,327.637
1688814064.144,47.363,-44.922,-33.203,-30.762,357.422
1688814064.147,206.055,-42.480,-29.785,-113.281,-149.414
1688814064.151,188.965,-43.457,-32.715,-101.562,-232.422
1688814064.155,43.457,-41.016,-38.574,-16.113,-10.254
1688814064.159,-114.746,-41.992,-42.969,60.059,86.914
1688814064.163,14.648,-43.945,-45.410,-21.973,-68.359
1688814064.179,191.895,-38.574,-44.434,-104.492,-193.848
1688814064.183,185.059,-34.668,-39.551,-92.773,-161.621
1688814064.187,50.293,-34.668,-34.668,-36.621,-59.570
1688814064.191,-124.512,-40.039,-38.574,39.062,1.465
1688814064.195,-30.273,-42.969,-41.992,-13.184,-3.418
1688814064.199,165.527,-44.922,-40.039,-100.098,144.531
1688814064.203,184.570,-50.781,-41.016,-101.562,101.562
1688814064.206,65.918,-47.852,-38.086,-43.945,-126.465
1688814064.210,-107.422,-40.527,-31.250,51.270,10.254
1688814064.214,-38.086,-35.645,-24.902,16.113,180.664
1688814064.218,150.879,-31.250,-29.297,-91.797,-15.625
1688814064.222,175.293,-37.598,-33.691,-110.352,-114.258
1688814064.224,80.078,-41.504,-30.273,-60.059,51.270
1688814064.228,-105.469,-40.039,-32.715,33.203,173.828
1688814064.232,-78.125,-40.039,-37.598,21.973,38.574
1688814064.236,134.277,-40.039,-40.039,-75.684,-96.680
1688814064.240,176.758,-36.621,-39.551,-107.910,-3.418
1688814064.244,86.914,-42.480,-41.016,-76.660,74.707
1688814064.248,-96.680,-49.316,-40.039,14.160,111.328
1688814064.251,-105.469,-37.109,-36.133,21.973,-32.715
1688814064.255,105.957,-33.203,-35.645,-73.242,1.465
1688814064.259,175.293,-38.574,-29.297,-105.469,214.355
1688814064.263,96.191,-36.621,-31.250,-79.102,-36.621
1688814064.267,-87.891,-37.109,-37.598,10.742,-20.508
1688814064.268,-138.184,-38.574,-42.480,28.320,101.074
1688814064.272,63.477,-35.645,-41.992,-64.453,-75.684
1688814064.276,166.992,-32.715,-32.715,-104.492,-239.746
1688814064.280,111.816,-36.133,-32.715,-97.168,-211.426
1688814064.284,-67.383,-43.945,-39.062,-4.883,-47.363
1688814064.288,-149.414,-44.434,-35.645,46.387,134.277
1688814064.292,46.875,-37.598,-27.344,-55.664,-25.879
1688814064.295,160.645,-35.645,-26.855,-115.234,-119.141
1688814064.299,111.328,-41.016,-26.855,-80.078,181.152
1688814064.303,-55.664,-47.852,-27.344,-0.488,185.059
1688814064.307,-164.062,-49.805,-27.832,44.922,9.766
1688814064.311,19.043,-43.945,-25.391,-39.551,-5.859
1688814064.314,164.551,-37.598,-31.738,-90.332,154.297
1688814064.318,126.465,-35.156,-35.645,-64.453,23.438
1688814064.322,-34.668,-39.062,-31.738,14.160,-40.039
1688814064.326,-169.434,-42.969,-34.180,84.473,114.746
1688814064.330,-14.160,-39.551,-33.691,1.465,32.715
1688814064.334,152.344,-33.691,-30.273,-62.988,-47.852
1688814064.338,141.602,-30.762,-24.902,-49.805,-130.859
1688814064.341,6.836,-34.668,-23.438,17.090,74.707
1688814064.345,-152.344,-40.527,-22.949,96.191,393.066
1688814064.349,-32.715,-36.621,-19.043,25.879,65.918
1688814064.353,147.461,-33.691,-20.996,-72.266,-210.449
1688814064.357,149.414,-30.762,-19.531,-72.754,-43.945
1688814064.359,19.531,-23.438,-19.043,-7.324,66.895
1688814064.363,-145.508,-21.484,-17.578,74.707,2.930
1688814064.367,-44.434,-24.902,-14.648,19.531,-55.664
1688814064.371,148.438,-28.809,-21.973,-74.707,-75.195
1688814064.375,156.738,-29.297,-22.461,-76.660,-125.000
1688814064.379,39.551,-30.273,-22.461,-11.230,-57.617
1688814064.383,-144.043,-37.109,-26.367,69.824,54.688
1688814064.386,-99.609,-42.480,-30.273,26.367,252.441
1688814064.390,99.609,-37.109,-32.715,-72.266,75.684
1688814064.394,143.066,-35.156,-28.320,-91.797,-211.426
1688814064.398,43.945,-41.992,-28.809,-48.340,-99.121
1688814064.402,-131.836,-45.410,-34.180,41.016,106.445
1688814064.404,-109.375,-49.316,-36.133,25.391,193.359
1688814064.408,78.125,-46.875,-36.621,-82.520,-15.137
1688814064.412,135.254,-47.363,-35.645,-100.586,-105.957
1688814064.416,55.664,-52.246,-37.598,-50.293,106.445
1688814064.420,-132.812,-49.805,-43.457,30.762,60.059
1688814064.424,-143.555,-50.781,-44.434,31.738,-40.527
1688814064.428,67.871,-50.293,-42.969,-66.406,74.219
1688814064.431,142.090,-49.316,-41.504,-91.309,132.812
1688814064.435,73.730,-52.246,-38.574,-55.176,-95.703
1688814064.439,-104.004,-48.340,-36.621,32.227,-44.922
1688814064.443,-158.203,-45.410,-34.180,50.293,132.324
1688814064.447,39.062,-46.875,-36.133,-52.734,9.277
1688814064.450,135.254,-50.293,-41.992,-100.098,-186.523
1688814064.454,81.543,-50.781,-44.922,-79.102,-151.855
1688814064.458,-91.797,-49.805,-51.270,5.371,57.617
1688814064.462,-182.129,-51.758,-51.758,42.969,69.336
1688814064.466,3.906,-50.781,-49.316,-54.199,-84.961
1688814064.470,125.000,-54.199,-49.316,-110.352,-182.617
1688814064.474,88.867,-50.781,-41.992,-82.031,130.859
1688814064.477,-64.453,-43.457,-37.109,4.395,306.641
1688814064.481,-169.434,-41.504,-41.016,52.734,70.312
1688814064.485,-1.465,-49.316,-45.410,-34.668,15.137
1688814064.489,131.348,-51.758,-49.805,-101.562,-141.602
1688814064.493,102.051,-44.922,-45.898,-85.449,-94.238
1688814064.493,-45.898,-42.480,-38.574,-10.742,67.383
1688814064.497,-175.293,-46.875,-32.227,55.664,167.480
1688814064.501,-26.855,-49.805,-30.273,-17.578,153.809
1688814064.505,124.512,-48.340,-32.227,-92.285,-71.289
1688814064.509,107.422,-48.340,-32.227,-88.379,-136.230
1688814064.513,-21.484,-48.828,-32.715,-22.461,107.422
1688814064.517,-166.016,-46.387,-30.762,54.688,465.332
1688814064.520,-48.340,-41.504,-34.180,-20.508,119.629
1688814064.524,118.652,-41.992,-37.109,-109.863,-221.680
1688814064.528,120.605,-41.992,-36.621,-107.910,-117.676
1688814064.532,-0.488,-42.480,-33.691,-47.852,-36.133
1688814064.536,-165.527,-44.922,-31.250,38.574,-4.883
1688814064.553,-85.938,-50.781,-34.180,-9.277,-40.039
1688814064.557,91.309,-54.199,-32.715,-110.840,-112.305
1688814064.561,115.723,-53.711,-33.691,-115.723,-104.004
1688814064.565,10.254,-56.641,-40.527,-57.129,-134.277
1688814064.569,-165.527,-53.711,-43.945,27.832,89.355
1688814064.573,-109.863,-45.410,-43.457,7.812,269.531
1688814064.577,85.449,-41.504,-43.457,-85.449,52.734
1688814064.580,124.023,-39.062,-41.504,-97.168,-140.137
1688814064.584,30.762,-41.016,-42.969,-45.410,-109.375
1688814064.588,-151.367,-48.340,-44.434,47.852,296.387
1688814064.592,-141.602,-52.246,-43.945,24.414,261.719
1688814064.596,60.547,-49.805,-44.922,-87.402,-122.559
1688814064.598,122.070,-44.434,-42.480,-103.516,-87.402
1688814064.602,46.387,-41.016,-39.062,-58.105,2.441
1688814064.606,-127.930,-40.039,-34.668,25.391,-47.852
1688814064.610,-145.508,-38.086,-31.738,35.156,-96.680
1688814064.614,53.223,-36.621,-32.227,-61.523,-107.910
1688814064.618,132.812,-33.691,-29.297,-94.238,-22.461
1688814064.622,74.707,-31.250,-28.809,-59.082,2.441
1688814064.625,-97.656,-34.180,-26.855,26.367,-54.688
1688814064.629,-154.297,-36.621,-27.832,54.199,202.148
1688814064.633,38.086,-34.180,-33.203,-44.922,362.305
1688814064.637,137.207,-29.297,-30.273,-104.004,-67.383
1688814064.641,91.797,-28.320,-28.809,-84.473,-197.266
1688814064.643,-86.914,-33.691,-37.109,-4.395,-11.719
1688814064.647,-181.152,-34.180,-36.133,36.621,54.688
1688814064.651,3.418,-33.203,-31.738,-57.129,-52.246
1688814064.655,118.164,-39.062,-29.297,-117.188,-120.605
1688814064.659,74.707,-42.480,-29.785,-103.027,-65.430
1688814064.663,-85.938,-48.340,-33.203,-20.996,75.195
1688814064.667,-196.289,-53.711,-34.668,37.598,124.512
1688814064.670,-33.691,-54.688,-35.156,-58.105,-45.898
1688814064.674,111.816,-51.270,-37.598,-129.883,75.684
1688814064.678,65.430,-49.316,-38.574,-104.004,99.121
1688814064.682,-88.867,-50.781,-31.738,-24.414,-55.176
1688814064.686,-188.965,-48.340,-31.250,43.457,142.578
1688814064.689,-40.527,-43.457,-28.809,-20.020,270.020
1688814064.693,124.512,-41.992,-28.320,-102.051,-23.438
1688814064.697,116.211,-41.016,-29.297,-93.750,-163.574
1688814064.701,-15.137,-41.016,-28.809,-20.996,62.988
1688814064.705,-174.316,-40.527,-28.809,50.781,220.215
1688814064.709,-57.617,-37.109,-24.902,-6.836,112.793
1688814064.713,122.070,-34.180,-27.832,-83.496,-87.891
1688814064.716,118.164,-36.133,-32.227,-82.031,-17.090
1688814064.720,3.906,-41.016,-29.785,-24.902,112.793
1688814064.724,-164.551,-42.969,-31.738,41.016,0.000
1688814064.728,-95.703,-38.574,-34.180,-8.789,20.996
1688814064.732,98.633,-31.738,-33.203,-93.262,-84.961
1688814064.735,126.953,-31.250,-34.668,-104.004,-177.734
1688814064.739,25.391,-35.156,-36.621,-56.641,-42.969
1688814064.743,-154.297,-36.621,-31.250,32.227,82.031
1688814064.747,-106.934,-37.109,-31.250,6.836,70.801
1688814064.751,95.215,-33.203,-32.227,-91.309,-110.840
1688814064.755,120.117,-33.691,-31.738,-109.863,-207.520
1688814064.759,24.902,-41.016,-32.227,-67.383,-96.680
1688814064.762,-153.320,-41.504,-32.227,29.297,193.359
1688814064.766,-154.297,-36.133,-36.621,14.160,157.715
1688814064.770,51.270,-29.297,-36.621,-96.191,-113.770
1688814064.774,122.070,-25.391,-31.250,-112.305,-110.352
1688814064.778,52.734,-26.367,-28.809,-68.848,-41.504
1688814064.778,-126.465,-30.762,-25.391,19.043,16.602
1688814064.782,-150.879,-31.738,-20.996,34.668,-4.883
1688814064.786,54.688,-32.227,-22.461,-64.453,-47.363
1688814064.790,140.625,-31.738,-25.391,-100.586,15.625
1688814064.794,81.055,-28.320,-27.344,-64.453,-56.152
1688814064.798,-99.609,-27.832,-19.531,23.926,40.527
1688814064.802,-166.992,-33.203,-13.672,50.781,311.035
1688814064.805,25.879,-34.180,-20.996,-42.969,366.699
1688814064.809,133.789,-26.855,-24.902,-101.074,-48.828
1688814064.813,90.820,-25.879,-26.367,-80.078,-234.863
1688814064.817,-76.172,-32.227,-28.809,7.812,8.301
1688814064.821,-172.363,-31.738,-23.926,52.734,38.086
1688814064.823,8.789,-27.344,-21.484,-45.410,-122.559
1688814064.827,135.254,-26.367,-20.508,-109.375,-175.781
1688814064.831,98.633,-25.391,-18.066,-83.496,-102.539
1688814064.835,-60.547,-30.762,-20.996,4.395,-68.848
1688814064.839,-177.246,-38.086,-22.949,61.523,-77.637
1688814064.843,-9.277,-33.691,-22.461,-27.344,-28.320
1688814064.847,128.906,-40.039,-25.391,-91.797,219.238
1688814064.850,96.680,-41.016,-23.438,-86.426,174.316
1688814064.854,-48.828,-29.297,-24.414,-20.020,-23.926
1688814064.858,-190.918,-30.762,-28.809,56.641,59.570
1688814064.862,-56.641,-33.691,-33.691,-17.578,87.402
1688814064.866,111.328,-32.227,-36.133,-106.934,7.812
1688814064.868,107.910,-33.691,-32.227,-98.145,-36.133
1688814064.872,-26.855,-40.527,-28.809,-24.414,63.477
1688814064.876,-198.730,-43.457,-31.738,57.617,263.184
1688814064.880,-92.285,-38.086,-29.297,-15.625,36.133
1688814064.884,92.773,-40.039,-31.738,-117.676,-255.859
1688814064.888,101.562,-38.086,-40.039,-110.352,-78.125
1688814064.892,-14.160,-33.203,-39.062,-41.016,80.078
1688814064.895,-190.430,-40.039,-41.016,45.410,23.926
1688814064.899,-112.793,-39.551,-38.574,7.324,-53.223
1688814064.903,89.355,-36.133,-38.574,-83.984,29.785
1688814064.907,116.699,-35.156,-40.527,-85.938,70.312
1688814064.911,11.719,-33.691,-40.527,-40.039,-107.422
1688814064.928,-173.828,-41.016,-38.086,43.945,20.020
1688814064.932,-136.230,-42.969,-39.062,23.926,57.129
1688814064.936,78.613,-36.621,-41.504,-80.566,-93.750
1688814064.940,130.859,-31.250,-38.574,-107.422,-166.992
1688814064.944,30.762,-31.738,-35.645,-58.105,-117.676
1688814064.948,-166.992,-40.039,-37.598,40.039,108.887
1688814064.952,-155.762,-46.387,-46.387,29.297,120.117
1688814064.955,53.223,-47.852,-48.340,-83.496,-131.348
1688814064.959,115.234,-45.898,-46.387,-109.375,-189.941
1688814064.963,35.156,-43.457,-53.223,-58.105,62.988
1688814064.967,-154.297,-44.922,-58.105,27.344,166.992
1688814064.971,-188.477,-46.387,-54.199,25.391,91.309
1688814064.973,14.648,-41.016,-45.410,-85.449,30.762
1688814064.977,95.215,-36.621,-43.457,-118.164,55.176
1688814064.981,34.180,-40.039,-41.992,-94.238,-118.164
1688814064.985,-132.324,-37.598,-38.574,-0.488,-95.215
1688814064.989,-206.055,-37.109,-39.062,29.297,136.230
1688814064.993,-14.160,-37.109,-32.715,-87.402,24.414
1688814064.997,98.633,-29.785,-24.902,-130.859,-69.336
1688814065.000,46.387,-29.785,-23.926,-104.004,-180.664
1688814065.004,-124.023,-32.227,-15.137,-12.207,119.141
1688814065.008,-240.234,-28.809,-10.254,34.180,388.184
1688814065.012,-67.871,-21.484,-15.625,-89.355,-9.277
1688814065.016,62.012,-27.832,-18.555,-172.852,-202.637
1688814065.019,11.719,-33.691,-17.578,-164.551,-125.488
1688814065.023,-160.156,-27.832,-12.695,-89.355,-18.066
1688814065.027,-306.152,-22.949,-12.207,-41.504,26.367
1688814065.031,-161.621,-25.391,-17.578,-144.043,-19.043
1688814065.035,-15.625,-23.926,-9.766,-239.746,-48.340
1688814065.039,-46.387,-21.973,1.953,-256.836,-87.402
1688814065.043,-212.402,-18.066,9.277,-192.871,-18.066
1688814065.046,-380.371,-17.578,9.277,-119.629,192.871
1688814065.050,-242.188,-17.578,1.465,-191.895,253.418
1688814065.054,-57.617,-11.230,0.488,-282.227,10.742
1688814065.058,-58.105,-8.789,5.859,-274.902,-201.660
1688814065.062,-186.523,-13.184,-1.465,-195.312,12.695
1688814065.063,-356.445,-17.578,-9.277,-108.398,195.801
1688814065.067,-249.023,-22.461,-8.789,-165.527,26.855
1688814065.071,-33.691,-29.785,-14.160,-249.023,-144.531
1688814065.075,-3.906,-30.762,-10.742,-226.562,15.137
1688814065.079,-120.117,-28.809,-11.719,-140.137,229.980
1688814065.083,-290.527,-28.320,-23.438,-41.016,152.832
1688814065.087,-204.590,-26.367,-26.367,-81.055,73.730
1688814065.090,10.742,-27.344,-20.996,-165.039,64.453
1688814065.094,42.969,-33.691,-19.043,-161.133,45.410
1688814065.098,-60.059,-41.016,-27.832,-114.258,-119.141
1688814065.102,-231.934,-48.340,-35.156,-6.348,-12.695
1688814065.106,-181.641,-45.410,-34.180,-11.719,21.484
1688814065.108,43.945,-42.480,-35.156,-121.094,-111.328
1688814065.112,106.934,-45.410,-37.109,-135.742,-137.695
1688814065.116,18.555,-43.945,-37.598,-74.707,-151.367
1688814065.120,-168.457,-46.875,-40.527,27.832,5.371
1688814065.124,-168.457,-52.246,-40.527,24.902,75.684
1688814065.128,49.805,-51.270,-37.598,-81.543,-64.941
1688814065.132,135.254,-45.898,-33.203,-112.793,-109.863
1688814065.135,67.383,-46.387,-32.227,-51.758,284.668
1688814065.139,-120.605,-51.270,-42.480,57.617,445.801
1688814065.143,-161.133,-51.270,-46.875,64.941,80.566
1688814065.147,57.129,-45.898,-43.457,-42.480,-37.598
1688814065.151,163.574,-44.922,-44.922,-82.520,-23.438
1688814065.153,108.398,-40.527,-43.945,-41.504,-33.203
1688814065.157,-67.871,-33.203,-45.410,51.270,4.883
1688814065.161,-142.578,-32.715,-50.781,95.215,205.078
1688814065.165,61.523,-34.180,-50.293,-6.836,141.113
1688814065.169,191.406,-31.738,-44.922,-68.359,-161.621
1688814065.173,150.879,-28.320,-37.109,-40.527,-115.723
1688814065.177,-19.531,-28.809,-36.133,62.500,231.445
1688814065.180,-136.230,-29.297,-38.574,118.652,445.801
1688814065.184,44.922,-29.785,-41.504,7.812,60.059
1688814065.188,193.359,-35.156,-46.875,-63.477,-229.980
1688814065.192,148.438,-36.621,-48.340,-43.945,-66.895
1688814065.196,-13.184,-26.855,-44.434,41.016,61.523
1688814065.199,-143.066,-25.879,-39.551,105.469,-33.203
1688814065.203,15.137,-27.832,-37.109,12.695,-150.391
1688814065.207,179.688,-30.273,-35.645,-69.824,-181.152
1688814065.211,169.922,-34.180,-37.109,-49.805,-155.762
1688814065.215,27.832,-36.133,-40.527,33.691,-94.238
1688814065.219,-127.930,-40.527,-42.480,109.863,79.102
1688814065.223,-3.418,-38.086,-47.852,50.293,304.688
1688814065.226,168.457,-28.809,-49.316,-47.852,89.844
1688814065.230,166.016,-29.785,-42.480,-59.570,-153.320
1688814065.234,28.320,-36.621,-45.410,19.531,4.883
1688814065.238,-145.508,-39.062,-47.852,102.539,223.145
1688814065.242,-42.969,-41.992,-46.875,36.133,116.699
1688814065.243,156.250,-39.551,-44.922,-51.758,-155.762
1688814065.247,174.805,-37.109,-40.527,-47.852,-104.980
1688814065.251,58.105,-35.645,-39.062,8.789,197.266
1688814065.255,-125.488,-36.133,-38.086,94.727,201.172
1688814065.259,-67.383,-37.598,-45.898,43.457,48.828
1688814065.263,135.742,-40.527,-49.805,-63.965,15.137
1688814065.267,168.457,-41.016,-52.246,-71.777,23.926
1688814065.270,66.895,-32.227,-57.129,-27.344,-82.031
1688814065.274,-121.094,-32.715,-55.176,73.242,-34.668
1688814065.278,-95.703,-40.527,-51.758,66.406,189.941
1688814065.282,122.070,-37.109,-55.176,-47.363,53.711
1688814065.286,184.570,-30.273,-53.223,-70.312,-201.660
1688814065.304,104.004,-24.902,-44.434,-17.090,-139.648
1688814065.308,-84.961,-22.949,-42.480,83.008,137.695
1688814065.312,-103.027,-25.391,-41.504,91.797,105.469
1688814065.316,111.328,-24.414,-37.598,-24.902,-190.430
1688814065.320,181.641,-25.391,-33.203,-70.801,-196.777
1688814065.324,100.098,-28.809,-35.645,-39.062,-72.754
1688814065.328,-83.496,-27.344,-36.621,54.688,61.523
1688814065.331,-129.395,-21.484,-34.180,82.031,61.523
1688814065.335,83.984,-21.484,-31.738,-23.926,-59.082
1688814065.339,187.500,-24.902,-30.762,-67.871,18.066
1688814065.343,123.047,-30.762,-33.203,-36.133,-41.504
1688814065.347,-63.477,-29.785,-34.180,53.223,21.973
1688814065.350,-149.414,-32.227,-38.574,92.773,278.320
1688814065.354,41.016,-39.551,-40.039,-20.020,120.605
1688814065.358,156.250,-39.062,-39.062,-92.285,-78.613
1688814065.362,112.305,-37.598,-35.156,-65.918,-86.914
1688814065.366,-52.246,-37.598,-30.273,31.250,75.195
1688814065.370,-166.504,-35.156,-32.227,83.984,250.488
1688814065.374,17.090,-30.762,-30.762,-17.090,13.184
1688814065.377,168.945,-32.715,-30.273,-86.914,-178.711
1688814065.381,136.719,-37.598,-32.715,-67.871,4.883
1688814065.385,-30.762,-38.574,-41.016,3.418,239.258
1688814065.389,-172.363,-37.598,-39.551,68.359,50.781
1688814065.393,-15.137,-38.574,-32.715,-15.137,-134.277
1688814065.394,147.461,-35.645,-36.621,-105.469,-123.535
1688814065.398,127.930,-38.086,-42.969,-96.680,-137.695
1688814065.402,-21.973,-40.527,-38.086,-17.578,-157.715
1688814065.406,-167.480,-38.574,-35.156,60.059,30.762
1688814065.410,-29.785,-36.133,-33.691,-10.742,108.887
1688814065.414,149.902,-36.133,-32.227,-96.191,-8.301
1688814065.418,147.461,-35.645,-35.156,-85.449,-15.625
1688814065.421,6.836,-31.738,-35.156,-12.207,24.902
1688814065.425,-167.969,-38.574,-33.203,76.172,285.156
1688814065.429,-73.242,-39.551,-27.344,23.926,262.207
1688814065.433,122.559,-32.715,-29.785,-86.914,-166.504
1688814065.437,140.137,-31.738,-33.203,-83.496,-106.445
1688814065.438,17.090,-36.621,-31.250,-17.090,144.531
1688814065.442,-158.691,-39.551,-30.273,68.359,73.242
1688814065.446,-91.797,-37.109,-27.344,34.180,-118.164
1688814065.450,114.258,-28.809,-23.926,-65.918,-225.586
1688814065.454,154.297,-19.043,-29.297,-82.520,-218.262
1688814065.458,56.152,-16.602,-31.250,-30.273,-75.684
1688814065.462,-133.789,-19.043,-27.344,64.453,69.824
1688814065.465,-115.234,-21.484,-31.738,46.387,213.867
1688814065.469,101.562,-21.484,-30.273,-64.941,126.953
1688814065.473,162.598,-23.438,-26.855,-99.121,-186.523
1688814065.477,70.801,-29.785,-32.715,-58.105,-229.980
1688814065.481,-123.535,-38.086,-31.738,46.387,67.871
1688814065.483,-142.578,-37.109,-25.879,61.035,289.062
1688814065.487,72.754,-32.227,-27.344,-62.500,-44.922
1688814065.491,151.855,-33.203,-30.273,-105.469,-236.328
1688814065.495,78.613,-31.738,-34.180,-68.848,-167.480
1688814065.499,-112.305,-34.668,-34.180,22.949,-46.387
1688814065.503,-168.945,-33.691,-37.109,52.734,62.500
1688814065.507,38.086,-32.715,-38.574,-60.059,30.762
1688814065.510,139.648,-37.598,-35.645,-103.516,79.102
1688814065.514,84.961,-35.645,-34.668,-67.871,-28.809
1688814065.518,-95.703,-40.527,-32.227,17.090,-79.102
1688814065.522,-189.941,-51.270,-30.273,59.082,131.836
1688814065.526,0.977,-48.340,-29.297,-46.875,102.051
1688814065.529,127.441,-43.457,-27.832,-109.375,-74.219
1688814065.533,80.566,-44.922,-32.715,-87.891,-233.887
1688814065.537,-89.844,-49.316,-32.715,-0.977,-1.953
1688814065.541,-209.473,-47.363,-30.762,52.246,191.406
1688814065.545,-29.297,-40.039,-40.039,-47.363,-54.688
1688814065.549,122.070,-33.203,-40.039,-121.582,-180.176
1688814065.553,94.238,-31.250,-36.133,-97.656,95.215
1688814065.556,-60.059,-34.668,-33.691,-7.812,309.082
1688814065.560,-204.102,-32.227,-33.691,59.570,83.984
1688814065.564,-45.898,-28.809,-33.203,-23.926,-48.340
1688814065.568,129.883,-28.809,-29.297,-107.910,-138.672
1688814065.572,114.746,-31.250,-30.762,-100.586,-223.145
1688814065.574,-22.949,-31.250,-32.715,-37.109,-151.367
1688814065.578,-182.617,-27.832,-34.180,41.992,30.273
1688814065.582,-61.035,-23.926,-29.785,-5.859,57.617
1688814065.586,131.348,-21.973,-26.855,-85.938,-79.102
1688814065.590,135.254,-26.367,-27.832,-83.984,-182.129
1688814065.594,-2.441,-31.250,-30.762,-18.066,-79.590
1688814065.598,-184.570,-33.203,-32.715,67.871,355.469
1688814065.601,-95.215,-33.203,-37.109,14.160,267.578
1688814065.605,104.492,-31.250,-39.062,-87.891,-173.828
1688814065.609,124.023,-32.715,-41.016,-100.098,-152.832
1688814065.613,5.859,-39.551,-43.945,-46.875,-34.180
1688814065.617,-187.012,-44.434,-42.969,39.551,79.102
1688814065.620,-135.742,-47.363,-43.457,2.930,-32.715
1688814065.624,80.566,-49.805,-45.410,-97.168,-129.395
1688814065.628,122.070,-45.898,-47.363,-108.887,71.777
1688814065.632,18.066,-40.527,-49.805,-71.777,-11.719
1688814065.636,-174.316,-38.086,-42.969,29.297,-50.781
1688814065.640,-152.344,-39.062,-41.992,29.297,181.152
1688814065.644,64.453,-43.457,-46.875,-78.613,221.680
1688814065.647,120.605,-40.039,-48.340,-103.027,-124.023
1688814065.651,36.621,-37.598,-50.781,-59.082,-246.094
1688814065.655,-147.949,-38.574,-48.340,46.875,79.102
1688814065.659,-172.852,-39.551,-41.016,57.617,216.309
1688814065.663,38.574,-42.480,-41.992,-59.082,-92.773
1688814065.679,130.371,-42.480,-41.992,-89.844,-218.750
1688814065.683,63.477,-41.016,-36.621,-56.152,-126.953
1688814065.687,-125.977,-40.527,-33.691,24.902,50.293
1688814065.691,-186.523,-38.086,-33.203,57.129,60.547
1688814065.695,16.602,-34.180,-36.621,-48.340,-4.395
1688814065.699,126.953,-32.227,-36.133,-100.586,140.625
1688814065.703,76.172,-33.203,-37.109,-75.195,150.391
1688814065.706,-110.352,-29.297,-38.574,4.883,75.684
1688814065.710,-213.379,-31.738,-38.086,48.828,102.051
1688814065.714,-21.973,-38.574,-40.039,-45.410,133.789
1688814065.718,113.281,-31.738,-42.969,-120.117,-21.973
1688814065.722,80.566,-24.902,-38.574,-97.168,-125.000
1688814065.723,-89.844,-31.738,-34.668,-6.348,97.168
1688814065.727,-224.121,-38.574,-39.062,53.223,253.906
1688814065.731,-46.387,-33.203,-39.062,-31.738,-12.207
1688814065.735,125.000,-27.344,-33.691,-103.516,-172.363
1688814065.739,98.145,-30.273,-30.762,-92.285,-85.938
1688814065.743,-66.895,-36.133,-34.668,-18.066,106.934
1688814065.747,-213.867,-41.992,-34.180,53.711,189.941
1688814065.750,-63.477,-37.598,-25.391,-19.043,40.527
1688814065.754,116.699,-31.738,-23.926,-94.238,100.586
1688814065.758,108.887,-33.203,-20.996,-81.543,60.059
1688814065.762,-39.551,-40.039,-24.902,-9.277,-62.012
1688814065.766,-208.496,-44.922,-26.367,74.707,-20.996
1688814065.769,-81.543,-37.598,-25.391,14.160,123.047
1688814065.773,110.840,-32.227,-24.414,-83.496,143.555
1688814065.777,115.234,-32.715,-19.531,-91.309,-93.262
1688814065.781,-10.742,-34.180,-20.020,-24.902,-35.156
1688814065.785,-189.941,-33.203,-18.066,69.824,133.789
1688814065.789,-106.934,-30.762,-13.184,22.461,124.512
1688814065.793,96.680,-29.297,-14.160,-79.102,-24.414
1688814065.796,126.953,-27.344,-11.719,-84.961,-140.137
1688814065.800,17.090,-26.367,-9.766,-20.508,145.996
1688814065.804,-174.316,-26.367,-11.719,70.312,279.297
1688814065.808,-122.559,-21.973,-15.625,32.227,-25.391
1688814065.812,89.844,-19.043,-17.578,-78.125,-16.113
1688814065.813,131.348,-21.973,-21.973,-88.867,234.375
1688814065.817,43.457,-21.973,-26.367,-36.133,81.543
1688814065.821,-145.508,-22.461,-23.438,55.176,29.785
1688814065.825,-137.207,-18.066,-20.508,50.293,101.562
1688814065.829,84.961,-15.625,-20.020,-59.570,-56.641
1688814065.833,149.902,-17.578,-20.996,-84.961,-131.836
1688814065.837,63.965,-17.578,-24.902,-44.434,-70.801
1688814065.840,-130.371,-23.926,-33.691,47.363,203.125
1688814065.844,-166.992,-26.367,-35.645,60.059,335.449
1688814065.848,46.387,-27.344,-35.645,-55.176,0.977
1688814065.852,142.578,-27.344,-33.691,-98.633,-233.887
1688814065.856,77.637,-25.879,-32.227,-62.012,-97.656
1688814065.858,-115.234,-26.367,-32.715,27.344,117.188
1688814065.862,-180.664,-28.809,-31.738,59.082,68.359
1688814065.866,28.809,-30.273,-31.250,-50.781,-66.406
1688814065.870,140.625,-31.738,-31.250,-107.910,-107.422
1688814065.874,87.891,-34.180,-32.227,-75.195,-59.570
1688814065.878,-100.098,-35.156,-31.738,7.812,39.551
1688814065.882,-204.102,-34.668,-31.250,51.758,183.105
1688814065.885,-12.207,-35.156,-29.785,-42.480,239.746
1688814065.889,119.629,-34.668,-27.344,-109.375,135.742
1688814065.893,80.566,-34.668,-29.297,-94.238,-49.316
1688814065.897,-90.332,-37.109,-33.203,-4.883,-34.180
1688814065.901,-226.562,-35.156,-34.668,52.734,195.801
1688814065.905,-58.105,-34.180,-36.621,-49.316,97.168
1688814065.909,105.957,-35.645,-35.645,-129.395,-135.742
1688814065.913,87.891,-33.691,-36.133,-109.863,-71.289
1688814065.917,-67.383,-28.320,-39.551,-21.484,210.449
1688814065.921,-217.773,-29.297,-39.551,60.059,220.215
1688814065.925,-69.824,-38.086,-41.992,-21.484,51.270
1688814065.929,108.887,-43.945,-43.945,-108.887,95.215
1688814065.932,111.328,-34.180,-41.992,-88.867,99.609
1688814065.936,-25.391,-21.973,-40.527,-20.996,-41.016
1688814065.940,-199.219,-25.391,-40.039,64.453,-7.812
1688814065.944,-86.426,-26.367,-41.992,9.766,-11.719
1688814065.948,108.398,-26.855,-45.410,-97.168,-109.863
1688814065.950,120.117,-30.273,-47.363,-106.934,-215.820
1688814065.954,-3.906,-30.762,-46.875,-36.133,-107.422
1688814065.958,-186.035,-26.855,-41.992,55.664,76.660
1688814065.962,-107.422,-25.391,-42.969,9.277,39.062
1688814065.966,96.191,-22.461,-47.852,-95.215,-29.785
1688814065.970,108.398,-27.832,-49.316,-108.398,-51.270
1688814065.974,-7.812,-41.504,-45.410,-51.270,223.145
1688814065.977,-195.801,-39.551,-40.039,39.062,384.277
1688814065.981,-153.809,-34.668,-35.645,13.184,8.301
1688814065.985,69.336,-37.109,-33.691,-93.750,-135.742
1688814065.989,114.258,-31.250,-33.691,-114.258,-102.051
1688814065.993,15.625,-27.344,-36.133,-65.430,-121.094
1688814065.994,-166.992,-37.109,-38.086,32.227,0.000
1688814065.998,-168.457,-42.969,-33.691,32.227,109.375
1688814066.002,49.316,-41.504,-28.809,-77.637,104.980
1688814066.006,117.676,-38.574,-31.250,-118.164,-115.723
1688814066.010,28.320,-38.574,-38.086,-79.102,-167.480
1688814066.014,-154.297,-44.434,-36.621,18.066,67.383
1688814066.018,-181.152,-45.898,-29.785,24.414,71.289
1688814066.021,23.438,-43.457,-24.902,-84.473,-77.148
1688814066.025,110.840,-41.504,-24.414,-130.859,-169.922
1688814066.029,45.410,-45.410,-30.273,-96.680,-30.273
1688814066.033,-142.578,-47.363,-40.039,2.930,228.027
1688814066.037,-209.961,-41.992,-45.410,30.273,115.723
1688814066.053,0.488,-36.621,-47.852,-75.195,-62.500
1688814066.057,109.375,-32.715,-44.434,-132.324,-134.766
1688814066.061,55.664,-34.180,-38.086,-107.910,-158.203
1688814066.065,-115.723,-37.598,-37.598,-10.742,-91.797
1688814066.069,-217.285,-42.480,-38.574,46.875,24.414
1688814066.073,-25.391,-42.480,-37.598,-49.316,41.016
1688814066.077,113.770,-40.527,-35.645,-118.652,-46.387
1688814066.080,79.590,-40.527,-39.062,-99.121,-144.531
1688814066.084,-85.449,-42.480,-38.086,-6.836,-32.715
1688814066.088,-217.285,-46.387,-28.320,75.684,359.863
1688814066.092,-49.805,-48.340,-29.297,-23.438,217.773
1688814066.096,104.004,-45.410,-36.621,-121.582,-94.727
1688814066.099,85.449,-41.504,-37.109,-103.027,-28.320
1688814066.103,-62.988,-41.992,-42.480,-22.949,20.020
1688814066.107,-226.562,-42.969,-42.969,49.316,-30.273
1688814066.111,-87.402,-45.410,-35.645,-29.297,-122.070
1688814066.115,104.492,-42.969,-33.691,-117.676,-89.844
1688814066.119,104.492,-34.180,-30.762,-103.516,6.836
1688814066.123,-38.086,-35.156,-26.855,-35.156,-6.348
1688814066.126,-217.773,-36.621,-27.344,49.316,-34.180
1688814066.130,-112.793,-33.203,-26.367,-1.953,77.637
1688814066.134,80.566,-33.203,-25.879,-106.934,88.867
1688814066.138,87.402,-37.598,-27.832,-122.559,-161.133
1688814066.142,-31.250,-37.109,-25.391,-56.641,-96.680
1688814066.144,-217.285,-38.574,-27.832,41.504,171.875
1688814066.148,-143.555,-41.016,-30.762,-3.906,59.570
1688814066.152,69.824,-36.133,-31.250,-111.328,-198.242
1688814066.156,105.469,-35.645,-35.156,-111.328,-179.688
1688814066.160,-3.418,-34.668,-32.227,-54.199,-59.082
1688814066.164,-202.637,-39.062,-34.180,36.133,63.477
1688814066.168,-166.992,-34.180,-32.227,21.484,53.223
1688814066.171,50.293,-31.250,-29.785,-88.379,-68.359
1688814066.175,94.238,-36.621,-39.551,-110.840,128.906
1688814066.179,5.859,-35.156,-39.062,-59.082,157.715
1688814066.183,-182.129,-36.621,-37.109,34.180,-2.930
1688814066.187,-188.965,-44.922,-40.527,30.273,190.918
1688814066.190,39.551,-48.828,-41.992,-82.520,110.352
1688814066.194,114.258,-48.340,-42.480,-124.023,-91.797
1688814066.198,36.133,-42.969,-43.945,-84.961,-148.926
1688814066.202,-157.227,-44.922,-37.598,27.832,39.551
1688814066.206,-176.758,-40.039,-27.832,44.434,250.977
1688814066.210,54.199,-35.156,-33.203,-83.984,58.594
1688814066.214,127.441,-35.156,-34.668,-111.328,-73.242
1688814066.217,68.848,-30.273,-24.902,-67.871,9.766
1688814066.221,-123.535,-35.156,-26.855,19.531,269.043
1688814066.225,-209.473,-41.992,-32.715,51.270,101.074
1688814066.229,2.441,-41.016,-28.809,-47.852,-115.723
1688814066.233,130.859,-32.715,-22.461,-98.633,-129.395
1688814066.234,72.754,-29.785,-27.344,-72.266,-156.738
1688814066.238,-112.305,-34.668,-32.227,10.254,-44.922
1688814066.242,-220.215,-36.621,-31.250,56.641,40.527
1688814066.246,-31.738,-36.133,-35.156,-39.062,6.836
1688814066.250,115.234,-31.738,-33.203,-104.004,-63.965
1688814066.254,85.938,-30.273,-29.297,-79.590,-134.277
1688814066.258,-85.449,-34.180,-30.762,-4.883,-32.227
1688814066.261,-228.027,-36.133,-27.832,65.918,395.508
1688814066.265,-66.895,-36.133,-27.832,-18.066,337.402
1688814066.269,97.168,-31.738,-29.785,-109.375,-187.012
1688814066.273,79.590,-37.598,-33.691,-97.656,-168.945
1688814066.277,-78.125,-45.410,-38.574,-22.461,86.426
1688814066.278,-233.887,-46.387,-38.086,57.129,134.277
1688814066.282,-94.238,-40.527,-35.645,-20.020,-93.750
1688814066.286,90.332,-34.668,-38.086,-108.398,-112.305
1688814066.290,92.773,-28.320,-40.527,-91.797,20.020
1688814066.294,-42.969,-27.344,-34.668,-17.578,-76.660
1688814066.298,-224.609,-34.180,-35.645,72.754,2.930
1688814066.302,-124.023,-34.668,-44.434,16.602,197.754
1688814066.305,80.566,-37.109,-46.387,-81.055,282.227
1688814066.309,96.191,-36.133,-44.922,-95.215,-26.855
1688814066.313,-32.715,-42.480,-42.969,-41.992,-197.266
1688814066.317,-220.703,-44.922,-37.109,55.664,58.105
1688814066.321,-153.809,-41.992,-36.133,21.973,68.848
1688814066.323,62.500,-43.457,-37.598,-79.590,-156.738
1688814066.327,105.469,-46.875,-35.645,-94.727,-222.168
1688814066.331,4.883,-44.922,-37.598,-48.340,-107.910
1688814066.335,-191.895,-39.551,-39.551,50.293,83.984
1688814066.339,-170.410,-39.551,-42.480,28.809,22.461
1688814066.343,52.734,-38.574,-45.410,-88.379,-102.539
1688814066.347,113.281,-37.598,-40.039,-98.145,112.305
1688814066.350,21.973,-43.457,-39.062,-57.129,124.512
1688814066.354,-173.340,-52.246,-44.922,22.461,-7.324
1688814066.358,-178.711,-52.734,-40.039,33.691,86.914
1688814066.362,49.316,-48.828,-38.086,-74.219,28.320
1688814066.366,131.836,-49.316,-36.621,-111.816,-61.523
1688814066.368,59.570,-48.828,-31.738,-75.195,-76.172
1688814066.372,-133.789,-47.363,-30.762,22.949,66.895
1688814066.376,-193.848,-49.805,-34.668,50.781,236.816
1688814066.380,19.043,-48.340,-37.109,-68.359,-35.156
1688814066.384,128.418,-47.363,-36.621,-121.582,-216.309
1688814066.388,76.172,-46.387,-37.109,-88.379,34.668
1688814066.392,-109.375,-46.875,-32.227,0.488,196.289
1688814066.395,-204.590,-49.805,-33.203,40.039,148.438
1688814066.399,0.977,-47.852,-37.598,-65.918,-66.406
1688814066.403,128.906,-49.805,-36.621,-129.395,-18.555
1688814066.407,85.938,-47.852,-35.156,-102.051,76.660
1688814066.411,-82.031,-41.504,-33.691,-9.766,-74.219
1688814066.417,-193.848,-41.992,-29.297,48.828,11.719
1688814066.421,-3.418,-37.598,-33.691,-40.527,1.465
1688814066.425,144.043,-32.715,-40.527,-107.910,-111.328
1688814066.429,114.258,-34.668,-37.598,-92.285,-171.387
1688814066.433,-43.457,-29.785,-37.598,-4.395,-108.398
1688814066.437,-193.359,-29.297,-41.992,69.336,125.977
1688814066.441,-38.574,-30.273,-41.016,-23.926,105.469
1688814066.444,134.766,-23.926,-35.645,-109.375,-155.273
1688814066.448,121.094,-20.020,-29.297,-89.844,-252.930
1688814066.452,-25.879,-22.949,-27.344,-10.254,44.434
1688814066.456,-188.965,-20.996,-28.809,66.895,152.832
1688814066.460,-59.570,-19.531,-24.414,-9.766,-11.230
1688814066.473,128.906,-25.879,-21.484,-102.539,-22.461
1688814066.477,135.254,-27.832,-23.926,-99.609,-51.758
1688814066.481,-3.418,-33.691,-29.297,-45.898,-106.934
1688814066.485,-193.848,-36.133,-29.785,38.574,-70.312
1688814066.489,-102.539,-35.645,-26.855,-9.277,21.973
1688814066.493,94.727,-36.133,-29.297,-108.398,227.539
1688814066.497,110.352,-31.250,-25.879,-115.234,106.445
1688814066.500,-8.301,-32.715,-27.832,-58.105,-110.840
1688814066.504,-196.289,-36.621,-31.738,40.527,152.344
1688814066.508,-131.836,-28.809,-29.785,15.137,242.188
1688814066.512,86.914,-25.879,-24.902,-95.215,-123.047
1688814066.516,126.953,-37.598,-28.320,-108.398,-184.082
1688814066.518,28.809,-39.551,-35.156,-53.711,-56.641
1688814066.522,-160.156,-34.668,-31.738,40.527,24.902
1688814066.526,-147.949,-39.062,-33.691,21.973,-14.160
1688814066.530,64.941,-42.480,-40.527,-91.797,-50.781
1688814066.534,126.465,-38.086,-41.992,-119.629,-12.207
1688814066.538,36.621,-35.645,-45.410,-79.590,-40.527
1688814066.542,-153.809,-39.062,-44.922,16.602,107.910
1688814066.545,-167.480,-39.062,-42.480,19.043,81.055
1688814066.549,47.363,-41.016,-41.504,-87.402,76.172
1688814066.553,127.441,-40.527,-40.527,-119.629,70.801
1688814066.557,61.035,-36.621,-41.992,-82.031,-154.297
1688814066.561,-127.441,-39.062,-42.480,16.113,36.621
1688814066.564,-190.918,-44.434,-40.527,47.363,228.516
1688814066.568,26.367,-44.434,-42.480,-69.336,-58.594
1688814066.572,136.230,-41.504,-41.992,-130.371,-242.676
1688814066.576,73.242,-36.621,-39.551,-89.844,-119.141
1688814066.580,-111.328,-34.180,-41.504,7.324,93.262
1688814066.584,-207.520,-32.715,-38.574,44.922,178.223
1688814066.588,-18.066,-41.992,-41.504,-70.312,54.199
1688814066.591,112.305,-48.828,-43.457,-132.812,89.355
1688814066.595,68.359,-40.039,-35.156,-97.168,346.680
1688814066.599,-102.539,-35.156,-26.855,-14.160,138.672
1688814066.603,-220.215,-32.715,-23.926,38.574,-15.625
1688814066.607,-37.109,-27.832,-20.996,-54.199,-55.664
1688814066.608,122.559,-24.414,-22.949,-116.211,-146.973
1688814066.612,93.262,-24.902,-26.855,-85.938,-150.879
1688814066.616,-69.336,-27.832,-29.785,-9.766,-83.984
1688814066.620,-223.633,-30.762,-33.203,47.852,74.707
1688814066.624,-65.430,-27.344,-33.203,-32.715,-20.996
1688814066.628,117.188,-27.832,-30.762,-108.887,-78.613
1688814066.632,109.375,-31.738,-29.785,-92.773,-98.633
1688814066.635,-38.086,-37.598,-35.156,-9.766,223.633
1688814066.639,-200.195,-34.668,-34.180,72.754,463.379
1688814066.643,-75.195,-30.273,-30.762,-2.441,6.348
1688814066.647,114.746,-33.691,-28.809,-97.656,-111.816
1688814066.651,120.117,-34.668,-23.926,-97.656,39.062
1688814066.668,-14.648,-34.668,-23.926,-32.715,4.883
1688814066.672,-192.871,-31.738,-19.043,53.711,26.367
1688814066.676,-103.027,-31.738,-15.625,5.859,104.980
1688814066.680,99.609,-35.156,-20.020,-96.680,80.566
1688814066.684,124.512,-37.598,-23.926,-105.469,-145.508
1688814066.688,10.254,-41.016,-28.320,-43.945,-74.219
1688814066.692,-177.246,-45.410,-30.273,53.711,316.406
1688814066.695,-124.512,-41.992,-28.809,20.996,327.148
1688814066.699,87.891,-29.297,-26.855,-95.215,-69.824
1688814066.703,134.766,-26.367,-21.484,-107.422,-218.262
1688814066.707,37.598,-27.832,-22.461,-54.688,-87.891
1688814066.711,-156.738,-25.391,-25.391,37.598,6.348
1688814066.699,-143.066,-23.438,-22.461,30.762,-45.410
1688814066.703,79.102,-22.461,-19.531,-74.707,-186.035
1688814066.707,146.973,-27.344,-21.973,-100.586,-132.324
1688814066.711,54.199,-29.297,-20.508,-61.523,-81.543
1688814066.715,-148.438,-28.809,-17.090,33.203,-47.363
1688814066.719,-170.898,-35.645,-25.391,35.156,160.645
1688814066.723,49.805,-37.598,-26.367,-78.125,153.809
1688814066.726,132.812,-39.062,-25.391,-120.605,-102.539
1688814066.730,64.453,-44.434,-29.297,-87.402,-216.797
1688814066.734,-123.535,-42.480,-24.414,17.578,12.207
1688814066.738,-182.129,-37.598,-22.949,50.293,366.699
1688814066.742,26.855,-33.691,-22.949,-62.012,145.508
1688814066.745,124.512,-37.598,-21.973,-118.652,-146.973
1688814066.749,70.312,-45.410,-32.227,-93.750,11.230
1688814066.753,-112.305,-45.410,-34.180,-0.977,262.207
1688814066.757,-206.543,-44.922,-32.227,40.039,152.344
1688814066.761,-4.883,-46.387,-35.645,-66.895,-125.000
1688814066.765,126.465,-43.945,-29.297,-120.117,91.309
1688814066.769,80.078,-41.992,-23.438,-90.332,222.168
1688814066.772,-91.797,-47.852,-27.344,-10.742,-3.906
1688814066.776,-215.332,-47.852,-31.738,45.898,-99.609
1688814066.780,-39.551,-44.434,-34.180,-43.945,0.000
1688814066.784,114.258,-48.340,-37.109,-125.488,4.395
1688814066.788,91.309,-48.828,-38.574,-113.770,-234.863
1688814066.805,-63.477,-46.875,-35.156,-26.855,-130.859
1688814066.809,-215.820,-48.828,-36.621,46.387,29.297
1688814066.813,-65.918,-48.340,-38.086,-34.668,-11.230
1688814066.817,108.887,-43.457,-35.645,-119.141,-90.332
1688814066.821,97.168,-40.039,-31.250,-108.398,-168.457
1688814066.825,-46.387,-43.945,-28.320,-26.367,271.484
1688814066.829,-213.867,-37.109,-28.809,64.941,444.824
1688814066.832,-90.820,-28.809,-24.902,-6.836,24.902
1688814066.836,108.887,-27.832,-20.996,-103.027,-131.836
1688814066.840,115.234,-29.297,-22.949,-94.727,-125.000
1688814066.844,-18.066,-31.738,-27.344,-32.715,-82.031
1688814066.848,-197.266,-35.156,-28.320,52.246,20.996
1688814066.848,-113.281,-39.551,-27.344,4.395,77.148
1688814066.852,89.355,-42.969,-35.156,-103.027,23.926
1688814066.856,112.305,-43.945,-40.527,-121.582,-138.672
1688814066.860,2.441,-41.992,-38.086,-64.453,-138.672
1688814066.864,-183.105,-40.039,-32.715,40.039,11.719
1688814066.868,-142.578,-38.574,-28.320,15.137,119.629
1688814066.872,68.848,-37.598,-26.367,-98.633,39.551
1688814066.875,117.676,-38.574,-25.391,-125.488,-115.234
1688814066.879,22.949,-40.527,-27.344,-69.336,39.062
1688814066.883,-175.293,-41.992,-31.250,29.785,400.879
1688814066.887,-172.363,-43.457,-33.203,7.812,180.176
1688814066.891,49.316,-43.945,-30.273,-103.027,-165.039
1688814066.893,121.094,-44.922,-23.926,-133.789,-193.359
1688814066.897,48.340,-38.086,-16.602,-84.473,-165.039
1688814066.901,-145.996,-32.227,-15.625,20.996,-88.379
1688814066.905,-180.176,-35.645,-19.531,35.156,0.977
1688814066.909,38.574,-34.668,-19.043,-74.219,-15.137
1688814066.913,124.023,-29.785,-26.855,-118.652,-35.645
1688814066.917,55.176,-32.227,-34.180,-80.566,-20.020
1688814066.920,-125.488,-32.715,-27.832,18.066,70.312
1688814066.924,-190.918,-35.156,-24.902,51.270,386.230
1688814066.928,16.602,-36.133,-27.832,-61.035,338.867
1688814066.932,131.836,-34.668,-30.762,-127.441,-102.539
1688814066.936,77.637,-37.598,-33.203,-99.609,-82.031
1688814066.939,-102.539,-36.621,-32.227,3.906,109.375
1688814066.943,-199.707,-29.297,-30.762,57.617,48.828
1688814066.947,-0.977,-24.902,-31.250,-48.828,-77.148
1688814066.951,140.625,-25.391,-27.832,-111.328,-86.426
1688814066.955,89.844,-22.461,-23.438,-85.449,-109.863
1688814066.959,-90.820,-31.738,-25.391,-5.371,-19.043
1688814066.963,-209.961,-43.457,-30.762,51.270,119.629
1688814066.966,-32.715,-40.527,-26.855,-31.250,90.332
1688814066.970,122.559,-34.180,-23.438,-101.562,45.898
1688814066.974,100.098,-30.273,-25.391,-92.285,-69.824
1688814066.978,-50.781,-32.227,-24.902,-21.484,-51.758
1688814066.982,-207.520,-32.715,-20.996,50.293,117.676
1688814066.984,-70.312,-31.738,-22.949,-29.297,60.059
1688814066.988,113.281,-31.738,-26.855,-120.605,-216.309
1688814066.992,111.816,-29.785,-26.367,-104.980,-174.805
1688814066.996,-31.738,-28.320,-26.855,-32.715,-26.855
1688814067.000,-197.266,-30.762,-25.391,47.852,72.754
1688814067.004,-85.449,-29.297,-22.949,-15.137,86.426
1688814067.008,108.887,-27.832,-26.855,-116.699,57.617
1688814067.011,118.652,-33.691,-32.715,-112.305,224.121
1688814067.015,-13.184,-35.645,-35.156,-45.410,187.012
1688814067.019,-196.289,-36.133,-34.668,39.551,34.180
1688814067.023,-115.234,-38.086,-32.715,-4.395,55.176
1688814067.027,88.379,-41.504,-33.203,-110.840,-10.742
1688814067.029,114.258,-41.016,-31.250,-115.234,9.766
1688814067.033,0.977,-41.992,-31.738,-52.734,-15.137
1688814067.037,-196.289,-41.992,-26.855,45.898,76.660
1688814067.041,-153.809,-39.062,-24.902,21.484,300.293
1688814067.045,59.082,-36.133,-28.809,-93.262,87.891
1688814067.049,119.629,-21.484,-12.207,-103.027,-106.934
1688814067.053,20.996,-16.602,-6.348,-52.246,74.707
1688814067.056,-188.965,-25.879,-12.207,39.062,319.824
1688814067.060,-190.430,-31.250,-19.043,20.996,121.582
1688814067.064,29.297,-23.926,-17.090,-96.191,-148.438
1688814067.068,84.473,-20.020,-9.277,-140.625,-142.090
1688814067.072,-22.949,-30.762,-14.160,-128.906,-77.637
1688814067.075,-233.398,-25.391,-12.207,-50.293,-53.711
1688814067.079,-292.969,-17.578,-6.836,-54.688,-22.949
1688814067.083,-105.469,-20.996,-11.719,-197.266,-12.695
1688814067.087,-33.691,-13.672,-9.277,-266.113,-103.027
1688814067.091,-133.301,-24.902,-8.789,-261.719,-137.695
1688814067.095,-349.609,-23.926,-8.789,-197.266,45.410
1688814067.099,-431.152,-15.137,-3.418,-167.480,421.875
1688814067.102,-229.492,-11.719,-2.441,-275.879,283.691
1688814067.106,-104.004,-4.883,-4.395,-341.309,-141.602
1688814067.110,-144.043,-7.324,-6.836,-303.223,-137.207
1688814067.114,-317.871,-18.066,-3.906,-205.566,-41.504
1688814067.118,-413.086,-20.020,1.465,-135.742,69.824
1688814067.119,-212.891,-18.066,-3.906,-226.074,-27.832
1688814067.123,-60.547,-18.066,-11.719,-288.574,-95.215
1688814067.127,-79.590,-18.066,-19.043,-242.676,54.688
1688814067.131,-231.934,-15.625,-24.414,-148.438,0.977
1688814067.135,-350.586,-14.648,-21.484,-66.406,-19.531
1688814067.139,-168.457,-23.438,-28.809,-131.348,125.977
1688814067.143,14.648,-25.879,-33.691,-185.059,196.777
1688814067.146,7.324,-28.320,-29.785,-159.180,8.789
1688814067.150,-148.438,-39.062,-30.273,-82.031,-88.867
1688814067.154,-291.016,-41.016,-34.180,15.625,103.516
1688814067.158,-132.812,-37.109,-34.180,-41.504,80.078
1688814067.162,60.059,-35.645,-34.180,-131.348,-156.738
1688814067.179,64.453,-39.062,-36.621,-118.164,-143.066
1688814067.183,-68.848,-38.574,-35.645,-31.738,-74.707
1688814067.187,-238.770,-39.551,-31.250,58.594,53.711
1688814067.191,-121.094,-42.969,-34.668,7.324,17.578
1688814067.195,94.238,-42.969,-32.715,-82.031,-85.449
1688814067.199,110.840,-44.922,-32.715,-82.520,5.859
1688814067.203,-12.695,-45.898,-39.551,-10.254,0.000
1688814067.206,-198.242,-60.547,-42.480,82.031,32.227
1688814067.210,-122.559,-64.941,-50.293,35.645,-31.250
1688814067.214,96.680,-55.176,-50.293,-49.805,70.801
1688814067.218,132.812,-47.852,-41.992,-48.340,69.824
1688814067.222,31.738,-41.992,-36.621,-0.977,-207.031
1688814067.223,-150.879,-41.504,-37.598,94.238,13.672
1688814067.227,-113.281,-45.410,-41.016,75.684,202.148
1688814067.231,105.469,-46.875,-42.480,-44.434,-104.004
1688814067.235,160.645,-49.316,-51.758,-77.148,-260.742
1688814067.239,55.176,-48.340,-53.711,-13.672,-144.043
1688814067.243,-141.602,-45.898,-49.316,94.727,123.047
1688814067.247,-127.441,-49.316,-46.875,88.379,142.090
1688814067.250,91.309,-45.410,-51.270,-20.996,-166.992
1688814067.254,166.016,-44.434,-51.270,-49.805,-49.316
1688814067.258,93.262,-46.387,-47.363,-5.371,263.184
1688814067.262,-98.145,-42.480,-51.758,83.496,187.988
1688814067.266,-134.766,-41.016,-53.711,97.168,79.102
1688814067.268,83.008,-41.016,-58.105,-15.137,4.395
1688814067.272,181.641,-41.504,-59.570,-57.129,-123.535
1688814067.276,122.070,-44.434,-59.082,-17.090,-177.246
1688814067.280,-61.523,-44.922,-53.711,82.031,-23.438
1688814067.284,-142.090,-44.434,-56.641,116.211,97.656
1688814067.288,56.152,-47.363,-62.012,2.930,-9.766
1688814067.292,174.805,-48.828,-56.641,-52.246,-131.348
1688814067.295,134.277,-45.410,-51.758,-27.832,-146.973
1688814067.299,-38.574,-38.574,-44.434,73.730,192.383
1688814067.303,-151.367,-32.227,-39.551,130.859,283.203
1688814067.307,39.062,-28.320,-36.133,21.484,-109.375
1688814067.311,177.246,-34.180,-38.574,-53.223,-68.359
1688814067.313,135.742,-40.527,-42.480,-39.062,130.859
1688814067.317,-32.715,-41.992,-41.992,39.062,64.453
1688814067.321,-176.758,-47.363,-43.457,93.750,-12.207
1688814067.325,-15.625,-45.898,-41.992,6.836,-33.691
1688814067.329,146.973,-45.410,-41.504,-69.824,-10.254
1688814067.333,121.094,-53.711,-44.922,-66.406,-7.812
1688814067.337,-28.320,-52.734,-40.039,11.230,20.508
1688814067.340,-177.246,-44.434,-32.227,103.516,201.172
1688814067.344,-41.504,-39.062,-27.344,41.504,215.820
1688814067.348,136.719,-37.109,-31.250,-58.594,-134.766
1688814067.352,134.766,-37.598,-32.715,-58.594,-211.914
1688814067.356,-5.371,-40.527,-32.227,5.371,-131.836
1688814067.360,-182.129,-44.434,-38.574,89.355,-3.418
1688814067.364,-77.637,-40.527,-39.062,35.645,48.340
1688814067.368,119.629,-36.133,-40.039,-72.266,-115.723
1688814067.372,135.742,-31.738,-40.039,-77.148,-104.004
1688814067.376,19.531,-27.832,-41.504,-14.648,-17.090
1688814067.380,-168.457,-31.738,-46.387,72.754,67.871
1688814067.384,-105.469,-37.109,-45.410,36.133,109.375
1688814067.387,108.887,-40.039,-44.922,-60.059,169.434
1688814067.391,144.043,-41.504,-41.992,-74.707,99.609
1688814067.395,39.062,-37.109,-38.574,-30.762,-139.648
1688814067.399,-147.461,-35.156,-41.992,68.848,7.812
1688814067.403,-111.816,-38.086,-43.457,48.340,161.133
1688814067.403,96.191,-37.109,-43.457,-72.266,-11.719
1688814067.407,144.043,-38.574,-41.016,-94.238,-170.898
1688814067.411,56.152,-40.039,-37.109,-43.945,-48.828
1688814067.415,-140.137,-39.062,-34.668,58.594,184.570
1688814067.419,-136.719,-35.645,-35.156,57.129,103.516
1688814067.423,90.820,-39.551,-33.691,-61.523,-32.715
1688814067.427,163.086,-41.992,-33.203,-90.820,3.906
1688814067.430,83.008,-34.668,-30.762,-39.551,187.012
1688814067.434,-119.141,-33.203,-26.855,49.805,72.754
1688814067.438,-168.945,-37.598,-27.832,59.570,-112.793
1688814067.442,46.387,-37.598,-29.297,-49.805,-178.223
1688814067.446,148.438,-38.086,-29.785,-98.633,-234.863
1688814067.448,87.402,-40.039,-30.762,-71.289,-172.852
1688814067.452,-92.773,-35.156,-24.902,27.344,-33.203
1688814067.456,-179.199,-37.598,-23.926,65.918,51.270
1688814067.460,17.578,-43.945,-26.855,-56.641,15.137
1688814067.464,147.949,-40.527,-23.926,-110.840,-140.625
1688814067.468,97.656,-41.992,-27.344,-76.172,-148.926
1688814067.472,-83.496,-46.875,-32.715,13.184,277.832
1688814067.475,-196.777,-43.457,-37.109,66.406,359.375
1688814067.479,-16.113,-42.480,-38.086,-47.852,-38.574
1688814067.483,128.906,-48.828,-34.668,-122.070,-130.371
1688814067.487,91.309,-54.688,-42.969,-99.609,40.039
1688814067.491,-74.707,-51.758,-42.480,-12.695,141.602
1688814067.494,-210.449,-45.898,-29.297,55.176,132.324
1688814067.498,-46.387,-45.898,-31.738,-36.133,14.648
1688814067.502,121.094,-45.898,-36.621,-108.887,-78.613
1688814067.506,103.027,-41.504,-29.297,-91.797,-178.223
1688814067.510,-40.527,-41.504,-25.879,-16.602,-180.664
1688814067.514,-200.195,-48.340,-26.367,63.965,161.621
1688814067.518,-75.684,-48.340,-26.855,-13.672,274.902
1688814067.521,100.098,-47.363,-32.227,-108.398,-165.527
1688814067.525,96.191,-53.223,-34.668,-100.098,-265.625
1688814067.529,-35.156,-57.617,-33.691,-26.367,63.477
1688814067.533,-214.355,-55.176,-37.598,60.059,290.039
1688814067.537,-118.164,-54.688,-45.410,-5.371,6.348
1688814067.553,92.285,-55.176,-46.875,-109.863,-193.359
1688814067.557,112.305,-51.758,-43.457,-113.770,-168.945
1688814067.561,-6.348,-48.340,-40.039,-46.387,-141.602
1688814067.565,-188.965,-47.363,-35.156,49.805,-35.645
1688814067.569,-123.047,-47.363,-35.645,20.020,96.680
1688814067.573,90.820,-46.387,-39.062,-87.402,65.918
1688814067.577,122.559,-43.945,-42.969,-110.352,-32.227
1688814067.580,14.160,-38.574,-43.945,-54.199,-63.965
1688814067.584,-182.129,-38.086,-42.480,44.434,31.738
1688814067.588,-154.297,-41.992,-41.504,32.715,272.461
1688814067.592,69.824,-39.551,-40.527,-78.613,73.242
1688814067.596,124.512,-40.039,-42.480,-110.840,-178.711
1688814067.598,33.203,-48.828,-42.480,-62.500,1.465
1688814067.602,-159.668,-52.246,-37.598,35.645,357.422
1688814067.606,-172.363,-49.805,-36.621,33.203,234.375
1688814067.610,48.828,-48.828,-34.180,-79.590,-148.438
1688814067.614,132.812,-47.363,-28.320,-110.352,-162.598
1688814067.618,62.500,-45.898,-27.344,-70.312,-8.301
1688814067.622,-130.859,-43.457,-32.715,19.043,100.098
1688814067.625,-181.152,-45.410,-38.574,39.062,95.215
1688814067.629,36.133,-48.828,-35.645,-65.918,128.906
1688814067.633,137.695,-43.945,-32.715,-104.980,172.852
1688814067.637,79.590,-39.062,-35.156,-76.660,-86.426
1688814067.641,-108.887,-36.621,-38.574,11.719,-71.777
1688814067.644,-197.266,-35.645,-41.016,53.711,104.492
1688814067.648,9.766,-33.203,-38.086,-51.270,49.316
1688814067.652,139.648,-29.785,-34.180,-116.211,-112.793
1688814067.656,94.238,-28.809,-35.156,-90.332,-180.176
1688814067.660,-74.707,-31.738,-33.691,9.277,36.133
1688814067.664,-187.988,-29.785,-32.715,73.730,161.133
1688814067.668,-9.766,-29.785,-37.598,-26.367,93.262
1688814067.671,138.672,-36.621,-40.039,-104.492,-106.934
1688814067.675,114.258,-40.527,-38.086,-79.590,95.703
1688814067.679,-44.434,-39.551,-38.086,3.906,231.445
1688814067.683,-192.871,-36.133,-39.062,69.336,-12.695
1688814067.687,-35.645,-39.062,-35.156,-9.766,46.875
1688814067.688,140.137,-35.645,-25.391,-88.379,44.922
1688814067.692,127.441,-32.715,-22.461,-80.566,-137.695
1688814067.696,-23.926,-37.109,-23.438,-5.859,-133.789
1688814067.700,-194.824,-32.715,-27.344,72.266,112.793
1688814067.704,-64.453,-31.738,-28.320,-4.395,135.254
1688814067.708,129.883,-31.250,-23.926,-95.703,-86.426
1688814067.712,127.441,-30.762,-24.902,-91.797,-142.090
1688814067.715,-10.254,-33.203,-27.344,-21.484,2.441
1688814067.719,-190.918,-34.180,-23.438,75.195,309.570
1688814067.723,-96.680,-33.203,-26.855,13.184,83.984
1688814067.727,108.887,-36.621,-37.109,-103.027,-214.355
1688814067.731,131.348,-37.598,-41.016,-105.469,-227.051
1688814067.734,4.883,-30.273,-39.062,-39.062,-72.266
1688814067.738,-192.383,-32.227,-37.109,45.410,11.719
1688814067.742,-135.742,-35.156,-41.992,16.602,-33.203
1688814067.746,99.609,-30.762,-44.922,-90.332,-28.320
1688814067.750,125.977,-31.250,-41.992,-106.445,-32.227
1688814067.754,-8.789,-32.227,-38.574,-54.199,-10.254
1688814067.758,-183.594,-29.785,-34.180,26.855,146.484
1688814067.761,-166.992,-34.668,-32.715,23.438,389.160
1688814067.765,44.922,-30.273,-37.109,-86.426,273.438
1688814067.769,110.352,-26.367,-39.551,-127.930,-123.535
1688814067.773,31.250,-28.809,-35.645,-77.148,-89.355
1688814067.777,-163.086,-22.461,-35.645,28.320,164.551
1688814067.778,-189.941,-19.531,-37.598,38.086,93.750
1688814067.782,29.785,-20.508,-35.156,-66.406,-169.922
1688814067.786,109.375,-23.926,-38.574,-108.398,-182.617
1688814067.790,31.738,-26.855,-47.363,-79.102,42.480
1688814067.794,-156.250,-26.855,-50.293,8.301,90.332
1688814067.798,-214.355,-25.391,-47.852,36.133,70.312
1688814067.802,-0.488,-25.391,-50.293,-72.266,83.496
1688814067.805,112.793,-22.461,-52.246,-118.652,71.289
1688814067.809,45.410,-22.949,-57.129,-87.891,-39.551
1688814067.813,-138.184,-26.367,-56.152,1.465,-88.379
1688814067.817,-219.727,-20.996,-50.781,51.270,145.996
1688814067.821,-14.648,-15.137,-49.805,-51.270,99.609
1688814067.825,116.211,-17.090,-48.828,-115.234,-206.055
1688814067.829,69.336,-22.949,-51.270,-88.379,-128.418
1688814067.833,-103.516,-26.855,-49.316,-2.441,-13.184
1688814067.837,-219.238,-26.855,-39.551,59.082,30.273
1688814067.841,-38.086,-25.391,-36.621,-39.062,-70.312
1688814067.845,112.793,-24.414,-41.016,-115.723,-87.891
1688814067.849,80.566,-31.250,-41.992,-86.914,176.758
1688814067.852,-91.309,-40.527,-42.969,-11.230,202.148
1688814067.856,-236.816,-41.016,-42.480,46.387,57.617
1688814067.860,-79.102,-40.039,-40.527,-37.598,-21.484
1688814067.864,83.496,-41.016,-44.434,-129.395,-90.332
1688814067.868,76.172,-38.086,-44.434,-122.559,-48.340
1688814067.868,-58.594,-35.156,-38.574,-39.062,-7.324
1688814067.872,-225.098,-40.039,-36.133,46.387,109.863
1688814067.876,-101.074,-41.016,-37.109,-18.066,210.938
1688814067.880,86.914,-41.016,-42.969,-124.512,-49.805
1688814067.884,90.820,-39.551,-40.039,-125.977,-250.000
1688814067.888,-33.203,-32.227,-32.715,-41.504,72.266
1688814067.892,-211.426,-31.250,-31.738,62.988,368.652
1688814067.895,-125.000,-27.832,-33.203,11.230,111.816
1688814067.899,78.125,-32.715,-37.598,-100.586,-180.176
1688814067.903,101.562,-36.621,-39.062,-108.887,-123.535
1688814067.907,-18.555,-34.180,-39.551,-45.410,-46.387
1688814067.911,-190.430,-41.016,-42.480,25.879,-72.754
1688814067.928,-132.812,-43.457,-40.039,-11.230,-64.941
1688814067.932,63.477,-41.016,-33.203,-98.633,-40.039
1688814067.936,114.746,-37.109,-27.832,-116.699,-88.379
1688814067.940,15.137,-34.668,-32.715,-61.035,-173.340
1688814067.944,-167.480,-35.156,-34.180,31.250,-13.184
1688814067.948,-151.855,-41.992,-35.156,17.578,134.766
1688814067.952,53.223,-41.016,-37.598,-85.449,28.320
1688814067.955,113.281,-34.668,-41.992,-111.328,-130.859
1688814067.959,26.855,-37.598,-41.504,-65.918,-194.336
1688814067.963,-160.156,-39.062,-38.086,34.180,172.852
1688814067.967,-176.270,-39.062,-37.598,32.715,250.977
1688814067.971,48.828,-39.062,-25.391,-73.730,-0.977
1688814067.974,129.395,-40.039,-22.461,-99.609,50.781
1688814067.978,62.012,-36.621,-22.461,-67.871,80.078
1688814067.982,-123.535,-33.691,-21.484,21.484,25.391
1688814067.986,-188.477,-33.691,-27.832,42.969,24.414
1688814067.990,13.672,-29.785,-32.715,-62.500,1.953
1688814067.994,121.582,-26.855,-32.227,-105.469,14.160
1688814067.998,74.707,-25.879,-29.297,-77.148,-0.977
1688814068.001,-102.539,-33.203,-27.344,7.812,-52.246
1688814068.005,-203.125,-38.574,-28.320,58.594,155.273
1688814068.009,-20.508,-35.645,-36.621,-44.922,250.977
1688814068.013,104.004,-34.668,-40.527,-125.000,-69.824
1688814068.017,70.801,-37.109,-38.086,-102.051,-163.574
1688814068.019,-90.820,-40.039,-33.691,-15.625,75.195
1688814068.023,-212.891,-37.109,-25.391,42.480,182.617
1688814068.027,-43.945,-38.574,-22.949,-46.875,-56.641
1688814068.031,95.215,-54.688,-28.809,-128.418,-198.730
1688814068.035,65.918,-59.082,-29.297,-111.816,-113.770
1688814068.039,-82.031,-58.594,-24.902,-25.391,78.613
1688814068.043,-233.887,-60.547,-23.438,48.340,178.711
1688814068.046,-90.332,-51.758,-24.414,-38.086,65.918
1688814068.050,76.660,-49.316,-26.367,-125.000,83.496
1688814068.054,60.547,-43.457,-25.879,-108.887,113.281
1688814068.058,-74.707,-32.715,-23.926,-37.598,-105.469
1688814068.062,-237.793,-39.062,-24.414,44.434,97.656
1688814068.064,-117.676,-39.551,-27.344,-15.137,160.645
1688814068.068,79.102,-31.250,-28.809,-101.562,-80.078
1688814068.072,82.520,-35.645,-34.668,-100.098,-114.746
1688814068.076,-45.898,-39.062,-38.574,-39.062,-35.645
1688814068.080,-217.773,-39.062,-30.762,52.734,97.656
1688814068.084,-131.836,-37.598,-28.809,12.207,102.539
1688814068.088,73.242,-42.969,-35.645,-90.332,12.207
1688814068.091,95.215,-51.758,-37.109,-103.027,121.582
1688814068.095,-22.461,-52.246,-38.574,-42.480,361.328
1688814068.099,-212.891,-49.805,-40.039,38.086,189.453
1688814068.103,-171.875,-48.828,-42.480,0.488,-55.664
1688814068.107,41.504,-48.828,-43.945,-98.633,-127.930
1688814068.108,91.309,-49.316,-41.016,-117.188,-140.625
1688814068.112,-2.441,-47.852,-41.992,-71.289,-195.312
1688814068.116,-190.918,-45.410,-36.621,22.461,-95.215
1688814068.120,-182.129,-44.922,-36.133,16.113,45.410
1688814068.124,35.156,-44.922,-41.504,-86.426,-121.094
1688814068.128,100.098,-44.922,-41.016,-116.211,-203.613
1688814068.132,19.043,-40.527,-40.039,-73.730,-51.758
1688814068.135,-168.457,-39.062,-35.156,34.668,270.996
1688814068.139,-193.848,-35.156,-32.715,48.340,293.457
1688814068.143,22.461,-34.180,-32.227,-67.383,-140.625
1688814068.147,102.539,-38.086,-29.297,-115.234,-111.816
1688814068.151,27.832,-41.992,-34.180,-87.891,144.531
1688814068.154,-148.926,-41.504,-32.715,1.465,120.117
1688814068.158,-208.984,-37.109,-26.855,31.250,40.039
1688814068.162,-6.348,-33.203,-23.926,-61.523,-2.441
1688814068.166,106.934,-30.273,-26.855,-109.863,-41.016
1688814068.170,56.641,-28.320,-33.203,-89.355,-56.152
1688814068.174,-117.188,-27.344,-31.738,6.836,22.461
1688814068.178,-216.797,-34.180,-38.086,61.523,241.211
1688814068.181,-26.855,-38.574,-46.875,-40.527,254.395
1688814068.185,107.910,-37.109,-49.316,-115.234,-70.312
1688814068.189,75.195,-37.109,-43.457,-91.309,-167.969
1688814068.193,-81.055,-36.621,-36.621,-2.930,12.695
1688814068.197,-203.125,-32.227,-35.156,60.059,62.988
1688814068.200,-31.738,-30.273,-32.227,-21.484,-21.973
1688814068.204,123.535,-27.832,-31.250,-94.727,-113.281
1688814068.208,104.004,-25.391,-31.250,-76.660,-88.379
1688814068.212,-46.387,-29.785,-30.273,4.395,20.508
1688814068.216,-194.824,-29.297,-30.273,73.730,4.395
1688814068.220,-56.641,-27.832,-31.738,-6.348,-50.781
1688814068.224,112.305,-34.668,-37.109,-89.355,195.801
1688814068.227,106.445,-33.203,-40.039,-90.332,177.734
1688814068.231,-33.203,-34.180,-41.016,-39.551,-96.680
1688814068.235,-207.520,-39.062,-42.969,33.691,71.289
1688814068.239,-110.352,-38.574,-42.969,-26.855,56.641
1688814068.243,71.777,-37.109,-36.133,-123.047,-62.500
1688814068.244,84.961,-38.574,-33.203,-131.836,-130.859
1688814068.248,-36.133,-38.574,-30.273,-61.035,-64.453
1688814068.252,-219.238,-41.504,-27.344,30.762,182.617
1688814068.256,-144.043,-41.992,-32.227,-20.508,45.410
1688814068.260,55.176,-41.504,-35.645,-125.000,-267.578
1688814068.264,80.566,-46.875,-32.227,-131.836,-128.418
1688814068.268,-27.832,-50.781,-30.273,-70.312,181.641
1688814068.271,-217.773,-51.270,-34.180,5.371,89.844
1688814068.275,-174.316,-46.387,-34.668,-14.160,-97.168
1688814068.279,36.133,-42.969,-28.809,-111.816,-136.719
1688814068.283,84.473,-48.340,-29.297,-144.043,-177.734
1688814068.287,0.488,-47.852,-30.762,-90.820,-198.730
1688814068.304,-187.012,-44.922,-23.926,11.719,-43.457
1688814068.308,-187.012,-44.922,-22.949,9.277,35.645
1688814068.312,30.762,-40.527,-28.320,-93.262,-104.004
1688814068.316,104.980,-42.480,-31.250,-124.023,-176.270
1688814068.320,25.879,-41.504,-31.738,-78.613,-105.469
1688814068.324,-162.598,-33.203,-35.645,20.996,89.355
1688814068.328,-190.918,-33.203,-35.645,42.480,187.500
1688814068.331,25.391,-33.203,-30.762,-64.941,-41.016
1688814068.335,113.770,-30.273,-33.203,-114.746,-219.238
1688814068.339,45.898,-36.133,-37.109,-72.266,64.941
1688814068.343,-136.719,-39.551,-38.086,16.602,204.590
1688814068.347,-215.332,-37.109,-37.598,41.016,21.484
1688814068.364,-14.160,-36.621,-41.992,-59.082,29.785
1688814068.368,107.422,-36.133,-41.504,-106.934,13.672
1688814068.372,66.406,-32.715,-38.086,-78.125,-115.234
1688814068.376,-102.539,-34.180,-37.598,9.277,-83.008
1688814068.380,-205.078,-40.527,-31.250,64.453,54.199
1688814068.384,-18.066,-37.109,-31.250,-29.785,62.012
1688814068.388,106.934,-39.062,-41.016,-109.863,-73.242
1688814068.391,71.289,-44.434,-43.457,-100.098,-148.926
1688814068.395,-81.055,-43.457,-41.992,-9.766,104.492
1688814068.399,-214.844,-46.875,-39.551,54.199,384.766
1688814068.403,-51.758,-43.945,-44.434,-40.527,85.449
1688814068.407,112.793,-38.086,-44.434,-115.234,-193.848
1688814068.394,93.262,-42.969,-39.062,-97.168,-145.020
1688814068.398,-59.570,-45.898,-40.527,-21.973,-70.312
1688814068.402,-215.820,-43.457,-37.109,44.434,11.719
1688814068.406,-81.543,-43.945,-37.598,-31.250,-19.531
1688814068.410,94.238,-44.434,-39.551,-116.699,-128.906
1688814068.414,90.820,-42.969,-37.598,-116.211,-58.105
1688814068.418,-41.992,-40.527,-37.109,-51.270,131.836
1688814068.421,-211.426,-44.434,-34.668,37.109,144.043
1688814068.425,-105.957,-43.457,-37.598,-12.207,92.773
1688814068.429,88.867,-44.922,-45.898,-111.328,-4.395
1688814068.433,100.586,-52.246,-53.711,-119.629,-146.484
1688814068.437,-21.484,-51.758,-55.664,-53.711,-54.688
1688814068.439,-204.102,-48.340,-53.711,46.387,395.996
1688814068.443,-131.836,-43.457,-52.246,4.395,453.613
1688814068.447,77.148,-33.691,-46.387,-108.398,-13.672
1688814068.451,108.398,-33.203,-43.457,-122.070,-135.254
1688814068.455,2.930,-38.086,-42.969,-64.941,-66.895
1688814068.459,-177.734,-38.574,-37.598,24.902,26.855
1688814068.463,-143.555,-33.691,-34.668,1.465,51.270
1688814068.466,63.477,-31.738,-31.738,-95.703,30.273
1688814068.470,112.305,-34.180,-30.273,-109.375,150.879
1688814068.474,22.461,-30.273,-33.691,-67.383,-34.180
1688814068.478,-165.039,-32.715,-36.133,21.484,-107.910
1688814068.482,-176.270,-37.109,-40.527,18.555,49.316
1688814068.483,33.691,-39.551,-41.504,-93.750,-37.109
1688814068.487,114.258,-37.598,-35.156,-122.070,-189.941
1688814068.491,44.922,-35.156,-36.133,-77.148,-165.527
1688814068.495,-144.043,-42.480,-43.457,8.789,96.191
1688814068.499,-187.012,-39.062,-37.598,18.555,163.574
1688814068.503,16.113,-34.668,-37.109,-86.914,-4.883
1688814068.507,105.469,-41.992,-41.016,-130.859,-88.867
1688814068.510,45.898,-41.504,-37.598,-89.844,86.426
1688814068.514,-138.672,-41.992,-39.551,9.766,278.809
1688814068.518,-208.008,-44.434,-40.039,39.551,57.617
1688814068.522,-2.441,-40.527,-38.574,-62.012,-108.887
1688814068.526,110.840,-43.457,-35.645,-113.770,-113.770
1688814068.530,63.965,-42.969,-33.691,-86.426,-145.508
1688814068.534,-102.539,-38.574,-34.668,-1.953,-91.797
1688814068.538,-211.426,-41.016,-37.109,53.223,188.965
1688814068.542,-33.691,-43.457,-39.551,-38.086,288.574
1688814068.546,104.980,-44.922,-38.574,-115.723,-33.203
1688814068.550,69.336,-44.434,-43.945,-104.980,-172.363
1688814068.554,-83.496,-42.480,-41.992,-21.484,158.203
1688814068.557,-215.332,-41.016,-34.180,48.828,345.703
1688814068.561,-62.988,-37.598,-35.156,-48.340,-48.828
1688814068.565,102.539,-35.645,-35.156,-123.047,-273.438
1688814068.569,89.844,-36.621,-34.668,-98.633,-131.836
1688814068.573,-61.523,-32.227,-33.691,-30.762,-89.844
1688814068.573,-219.238,-29.785,-37.109,38.574,-23.926
1688814068.577,-94.727,-34.668,-41.992,-33.203,0.977
1688814068.581,81.543,-38.086,-41.504,-120.117,-91.797
1688814068.585,82.031,-36.621,-37.109,-116.211,-122.070
1688814068.589,-59.570,-38.574,-35.156,-50.781,-23.438
1688814068.593,-236.328,-39.551,-31.250,30.273,179.199
1688814068.597,-132.812,-41.016,-26.367,-16.602,377.441
1688814068.600,62.012,-41.992,-29.785,-115.723,220.215
1688814068.604,77.637,-47.363,-33.203,-128.906,-180.664
1688814068.608,-42.480,-56.152,-36.133,-70.312,-139.648
1688814068.612,-231.934,-49.805,-35.156,22.461,95.215
1688814068.616,-165.527,-41.504,-31.738,-8.789,114.258
1688814068.619,44.922,-41.016,-34.180,-113.281,-48.340
1688814068.623,79.590,-39.551,-32.715,-125.000,-116.699
1688814068.627,-29.297,-42.969,-37.598,-71.777,90.820
1688814068.631,-220.215,-41.504,-38.086,21.973,141.113
1688814068.635,-186.035,-40.527,-29.297,0.977,-13.672
1688814068.639,37.598,-42.480,-28.320,-101.562,68.848
1688814068.643,93.262,-41.992,-29.297,-124.512,166.992
1688814068.646,-1.465,-47.363,-36.621,-90.332,-0.488
1688814068.650,-195.312,-50.781,-41.992,6.836,-42.480
1688814068.654,-210.449,-54.688,-43.457,15.137,120.605
1688814068.658,9.277,-50.293,-45.898,-86.426,155.762
1688814068.662,96.191,-39.062,-43.457,-115.723,-165.527
1688814068.679,29.297,-35.156,-37.598,-74.707,-198.730
1688814068.683,-152.832,-29.297,-33.203,26.855,-41.992
1688814068.687,-201.172,-32.227,-37.109,45.410,-13.672
1688814068.691,11.230,-35.156,-40.527,-69.824,-172.363
1688814068.695,110.840,-30.273,-41.016,-112.305,-184.570
1688814068.699,54.199,-29.297,-47.363,-81.543,57.129
1688814068.703,-130.859,-31.738,-51.758,10.254,180.176
1688814068.706,-222.656,-36.133,-51.270,45.898,94.238
1688814068.710,-19.531,-33.691,-46.875,-69.336,-60.547
1688814068.714,103.516,-26.855,-46.387,-120.605,200.684
1688814068.718,50.781,-25.391,-49.316,-92.285,170.410
1688814068.722,-120.117,-31.250,-54.199,-19.043,-35.645
1688814068.723,-226.562,-35.156,-55.664,33.691,162.109
1688814068.727,-49.316,-33.203,-60.059,-55.664,99.609
1688814068.731,104.980,-34.668,-70.312,-131.348,-117.676
1688814068.735,40.527,-39.062,-68.359,-96.191,-175.781
1688814068.739,-2.441,-33.203,-54.199,-66.895,68.359
1688814068.743,87.402,-29.785,-49.316,-104.980,249.023
1688814068.747,88.867,-35.156,-53.223,-100.586,260.742
1688814068.750,-73.242,-39.551,-52.734,-17.090,221.191
1688814068.754,-230.957,-40.527,-53.223,52.246,20.020
1688814068.758,-101.562,-43.457,-51.758,-20.020,-71.777
1688814068.762,82.031,-44.922,-42.969,-93.750,37.598
1688814068.766,80.078,-40.039,-37.109,-89.355,24.902
1688814068.769,-52.734,-43.945,-34.180,-32.227,-107.422
1688814068.773,-222.168,-49.805,-31.250,54.688,-50.293
1688814068.777,-127.930,-40.527,-33.203,2.930,-95.215
1688814068.781,64.941,-38.086,-33.203,-91.309,-232.910
1688814068.785,90.820,-38.086,-25.391,-86.426,-208.496
1688814068.789,-24.414,-42.480,-25.879,-20.508,-59.082
1688814068.793,-210.938,-47.363,-29.297,73.242,231.934
1688814068.796,-148.926,-40.527,-28.809,29.785,193.848
1688814068.800,60.547,-42.969,-33.691,-89.844,-148.438
1688814068.804,106.934,-46.387,-34.180,-96.191,-145.020
1688814068.808,-7.812,-45.898,-33.203,-35.156,119.629
1688814068.812,-206.055,-41.016,-26.855,54.688,100.098
1688814068.815,-173.340,-41.504,-20.508,36.133,15.625
1688814068.819,40.527,-40.039,-20.020,-67.871,26.855
1688814068.823,103.516,-35.156,-20.020,-86.426,-68.359
1688814068.827,21.484,-36.133,-19.531,-47.852,-125.488
1688814068.831,-168.945,-35.645,-18.066,41.016,-32.227
1688814068.835,-180.664,-35.645,-18.066,47.363,186.035
1688814068.839,32.715,-35.645,-21.973,-58.105,223.145
1688814068.842,105.469,-35.645,-26.855,-105.469,-63.477
1688814068.846,28.320,-39.551,-30.762,-76.660,-146.484
1688814068.850,-164.062,-40.039,-27.832,18.066,142.578
1688814068.854,-215.820,-39.062,-29.297,40.039,249.512
1688814068.858,-2.441,-41.016,-29.785,-65.430,-13.184
1688814068.874,100.098,-39.062,-26.855,-106.934,-177.246
1688814068.878,42.480,-38.574,-26.855,-68.848,-151.367
1688814068.882,-139.160,-41.992,-31.738,20.508,6.836
1688814068.886,-228.027,-45.410,-31.250,62.012,-5.371
1688814068.890,-26.367,-48.340,-26.855,-43.457,-173.340
1688814068.894,102.051,-52.734,-28.809,-103.516,-22.949
1688814068.898,55.176,-48.340,-33.203,-80.078,56.641
1688814068.901,-123.535,-45.898,-39.551,-5.859,-85.449
1688814068.905,-252.930,-54.199,-40.527,42.969,33.691
1688814068.909,-71.289,-44.434,-38.086,-44.434,172.363
1688814068.913,80.566,-38.086,-36.621,-115.234,14.648
1688814068.917,51.758,-39.551,-35.156,-110.352,-172.363
1688814068.918,-107.910,-43.457,-33.203,-28.320,-0.977
1688814068.922,-250.488,-45.898,-33.691,54.199,178.223
1688814068.926,-91.309,-51.270,-37.109,-35.156,-40.527
1688814068.930,85.449,-52.734,-35.645,-124.512,-220.703
1688814068.934,72.266,-49.805,-36.133,-104.980,-72.754
1688814068.938,-79.102,-49.805,-36.133,-27.344,75.195
1688814068.942,-245.117,-50.293,-36.621,43.945,97.168
1688814068.945,-118.652,-52.246,-39.551,-34.668,-12.207
1688814068.949,78.613,-51.758,-37.109,-118.652,3.906
1688814068.953,78.125,-51.758,-38.086,-109.375,119.629
1688814068.957,-53.711,-43.945,-39.062,-46.387,-48.340
1688814068.961,-226.074,-46.387,-36.621,50.781,16.113
1688814068.963,-137.695,-48.828,-34.668,0.488,12.695
1688814068.967,65.918,-46.875,-36.133,-104.980,-203.125
1688814068.971,89.844,-47.852,-41.016,-105.469,-232.910
1688814068.975,-22.949,-53.711,-46.387,-48.828,-117.676
1688814068.979,-208.008,-56.152,-41.504,35.156,49.805
1688814068.983,-141.602,-45.410,-34.180,5.859,115.723
1688814068.987,70.312,-41.016,-32.227,-91.797,58.594
1688814068.990,97.168,-41.992,-34.668,-103.516,30.762
1688814068.994,-1.465,-37.598,-30.762,-44.922,308.594
1688814068.998,-191.895,-40.527,-27.344,53.711,484.863
1688814069.002,-175.781,-40.527,-31.738,29.297,176.270
1688814069.006,37.598,-44.434,-41.992,-89.844,-44.434
1688814069.008,100.098,-44.922,-44.434,-113.770,10.742
1688814069.012,13.672,-40.039,-41.992,-77.637,-127.930
1688814069.016,-172.363,-45.410,-34.668,19.531,-110.352
1688814069.020,-191.895,-48.828,-37.109,27.344,17.578
1688814069.024,15.137,-46.875,-43.457,-93.262,-104.004
1688814069.028,89.355,-46.387,-42.480,-132.812,-165.039
1688814069.032,15.137,-51.270,-48.340,-96.191,-1.953
1688814069.035,-168.945,-50.781,-48.340,6.348,250.488
1688814069.039,-229.004,-44.434,-41.504,40.527,319.336
1688814069.043,-19.043,-41.992,-41.992,-76.660,-11.230
1688814069.047,100.098,-38.086,-41.016,-127.441,-222.656
1688814069.051,52.246,-36.133,-41.992,-89.355,-37.109
1688814069.054,-125.977,-35.645,-42.480,4.883,101.562
1688814069.058,-210.938,-31.738,-36.133,51.270,59.082
1688814069.062,-16.113,-30.762,-34.668,-43.945,-27.832
1688814069.066,109.375,-31.250,-34.668,-97.656,-131.836
1688814069.070,67.383,-31.738,-32.715,-72.754,-140.137
1688814069.074,-97.656,-29.785,-33.203,11.230,-12.207
1688814069.078,-214.844,-25.391,-34.180,59.082,59.082
1688814069.081,-41.504,-21.484,-30.273,-31.250,157.715
1688814069.085,102.051,-20.996,-35.156,-104.492,52.734
1688814069.089,67.871,-30.762,-41.992,-104.492,-174.805
1688814069.093,-88.867,-38.086,-42.480,-20.996,-38.574
1688814069.097,-233.398,-34.668,-39.062,56.152,242.188
1688814069.098,-92.285,-33.203,-39.062,-29.785,90.332
1688814069.102,80.566,-31.738,-41.504,-112.793,-238.770
1688814069.106,79.102,-29.297,-41.992,-96.191,-179.688
1688814069.110,-69.336,-37.109,-42.969,-24.414,-0.488
1688814069.114,-236.816,-40.039,-40.039,54.199,23.926
1688814069.118,-121.094,-38.574,-37.598,-6.348,-32.715
1688814069.122,63.965,-40.527,-36.133,-91.309,64.453
1688814069.125,75.195,-38.086,-32.715,-83.496,163.086
1688814069.129,-46.875,-37.598,-30.273,-30.273,-41.016
1688814069.133,-219.727,-38.574,-21.973,62.012,12.207
1688814069.137,-136.719,-31.250,-17.578,21.973,26.367
1688814069.141,61.035,-31.250,-23.438,-82.520,-109.375
1688814069.145,86.426,-30.762,-26.367,-92.773,-210.449
1688814069.149,-25.391,-27.832,-28.320,-39.551,-101.074
1688814069.153,-213.867,-32.715,-24.902,59.570,164.551
1688814069.157,-170.898,-40.039,-26.855,27.832,78.613
1688814069.161,39.551,-48.340,-33.691,-92.285,-107.422
1688814069.165,93.262,-50.781,-35.156,-105.469,-35.645
1688814069.169,-5.859,-46.387,-38.574,-47.363,212.402
1688814069.172,-204.590,-42.969,-40.039,35.645,231.445
1688814069.176,-192.383,-43.945,-42.480,24.414,-5.859
1688814069.180,25.879,-45.410,-41.504,-75.195,-77.148
1688814069.184,93.262,-47.852,-48.828,-102.051,102.051
1688814069.188,14.160,-47.363,-58.105,-67.383,-68.359
1688814069.188,-170.410,-47.363,-51.270,23.438,-97.168
1688814069.192,-197.266,-49.805,-46.875,36.621,80.566
1688814069.196,12.207,-47.363,-50.781,-70.312,-75.684
1688814069.200,102.051,-49.805,-53.223,-113.281,-140.625
1688814069.204,35.645,-56.152,-50.293,-84.473,-36.133
1688814069.208,-153.809,-54.688,-52.734,21.484,225.098
1688814069.212,-227.051,-57.129,-52.734,60.547,413.086
1688814069.215,-23.926,-54.688,-53.223,-66.406,-22.949
1688814069.219,94.727,-52.246,-52.246,-123.047,-257.324
