timestamps,TP9,AF7,AF8,TP10,Right AUX
1688813889.022,46.875,-25.391,-30.273,-79.590,31.738
1688813889.026,114.258,-27.344,-33.203,-67.871,270.996
1688813889.030,35.645,-29.297,-37.109,-32.715,385.742
1688813889.034,-157.715,-36.133,-51.270,8.301,82.520
1688813889.038,-204.102,-38.086,-54.688,11.719,95.703
1688813889.042,18.066,-33.203,-46.387,-68.848,81.055
1688813889.046,102.539,-36.621,-43.457,-86.914,7.812
1688813889.049,41.992,-41.504,-47.852,-58.105,-78.125
1688813889.053,-135.254,-42.480,-47.852,-0.977,49.805
1688813889.057,-227.539,-41.504,-41.504,24.414,438.477
1688813889.061,-13.184,-32.715,-42.969,-59.570,253.906
1688813889.065,102.539,-32.227,-47.363,-99.121,-115.723
1688813889.067,49.316,-36.621,-49.316,-72.754,-90.820
1688813889.071,-119.629,-40.527,-51.758,-17.578,-55.176
1688813889.075,-253.418,-44.434,-50.293,14.160,34.668
1688813889.079,-49.805,-40.039,-56.152,-61.035,-4.395
1688813889.083,108.398,-43.457,-60.059,-87.402,-26.367
1688813889.087,55.176,-45.410,-55.176,-54.199,68.359
1688813889.091,-101.562,-45.898,-50.781,-10.254,95.215
1688813889.094,-247.070,-41.992,-49.316,27.344,78.613
1688813889.098,-84.961,-44.922,-49.316,-47.363,212.891
1688813889.102,89.355,-42.480,-52.734,-96.191,207.031
1688813889.106,67.383,-39.551,-55.176,-73.730,-75.195
1688813889.110,-80.078,-49.805,-58.105,-30.762,37.109
1688813889.112,-256.836,-52.734,-57.617,25.879,376.465
1688813889.116,-120.605,-47.852,-48.828,-34.668,246.582
1688813889.120,76.172,-45.410,-47.852,-105.469,-120.117
1688813889.124,63.965,-49.805,-44.922,-88.379,-111.328
1688813889.128,-63.477,-51.270,-40.527,-43.457,17.090
1688813889.132,-251.465,-52.246,-41.992,9.277,139.648
1688813889.136,-153.320,-45.410,-43.945,-43.945,44.434
1688813889.139,67.871,-41.992,-44.922,-95.215,65.430
1688813889.143,83.496,-41.016,-44.922,-77.637,217.773
1688813889.147,-22.949,-40.039,-47.363,-49.805,61.035
1688813889.151,-225.586,-52.734,-58.594,9.277,35.156
1688813889.155,-175.781,-56.152,-69.824,-32.227,62.012
1688813889.158,56.152,-50.781,-64.941,-103.027,9.766
1688813889.162,85.938,-46.387,-58.105,-92.285,-32.715
1688813889.166,-15.137,-48.828,-57.129,-55.176,-126.953
1688813889.170,-216.309,-56.641,-56.152,5.371,33.691
1688813889.174,-209.961,-58.105,-50.781,-24.902,80.078
1688813889.178,23.926,-57.617,-42.480,-107.422,-33.203
1688813889.182,82.520,-55.664,-37.598,-107.910,49.316
1688813889.185,-5.371,-58.105,-39.551,-73.730,214.355
1688813889.189,-206.055,-57.617,-36.621,-1.953,227.051
1688813889.193,-237.793,-59.570,-31.738,-7.324,17.578
1688813889.197,-8.789,-61.523,-34.668,-84.961,-30.762
1688813889.201,71.777,-53.711,-37.109,-100.586,34.180
1688813889.202,0.977,-55.176,-42.480,-90.332,13.184
1688813889.206,-194.824,-58.105,-40.527,-27.832,-21.973
1688813889.210,-263.184,-53.711,-31.250,-4.395,85.938
1688813889.214,-45.898,-54.688,-33.203,-81.055,204.102
1688813889.218,59.082,-58.105,-38.086,-102.539,50.781
1688813889.222,12.695,-57.129,-35.156,-77.637,-36.133
1688813889.226,-159.668,-55.664,-35.156,-16.113,161.133
1688813889.229,-264.160,-52.246,-38.574,23.438,280.762
1688813889.233,-59.082,-43.457,-43.457,-63.477,23.438
1688813889.237,72.754,-42.480,-39.551,-108.887,-150.391
1688813889.241,23.926,-54.688,-44.922,-90.820,25.879
1688813889.245,-147.461,-62.500,-57.617,-43.457,27.832
1688813889.247,-277.832,-61.523,-59.082,-7.812,-12.207
1688813889.251,-88.867,-57.129,-55.176,-91.797,-22.461
1688813889.255,69.336,-57.129,-57.129,-130.859,-14.648
1688813889.259,43.945,-59.082,-60.547,-99.121,-18.066
1688813889.263,-93.750,-54.199,-59.570,-42.480,65.918
1688813889.267,-247.070,-46.875,-58.105,15.625,218.750
1688813889.271,-88.379,-50.293,-58.594,-50.781,338.867
1688813889.274,95.703,-48.340,-49.316,-99.121,392.090
1688813889.278,78.613,-37.109,-41.992,-80.566,88.379
1688813889.282,-50.781,-42.969,-46.875,-34.180,-3.906
1688813889.286,-226.074,-45.898,-50.781,27.832,128.906
1688813889.290,-112.305,-43.457,-50.781,-35.645,108.887
1688813889.292,94.238,-45.410,-47.852,-100.098,8.301
1688813889.296,102.051,-44.922,-41.992,-67.383,42.480
1688813889.300,-22.461,-45.898,-33.691,-22.461,172.363
1688813889.304,-214.355,-45.410,-31.250,26.367,115.234
1688813889.308,-133.789,-48.828,-37.598,-21.973,-6.836
1688813889.312,85.449,-52.246,-37.598,-89.844,49.805
1688813889.316,89.355,-53.223,-41.016,-75.684,273.926
1688813889.319,-15.625,-52.734,-43.945,-36.133,194.336
1688813889.323,-201.172,-46.875,-40.527,22.461,78.613
1688813889.327,-162.598,-43.457,-39.551,-7.812,250.000
1688813889.331,67.383,-48.828,-39.551,-84.961,208.984
1688813889.335,102.539,-47.852,-39.551,-85.449,-35.645
1688813889.340,8.789,-50.781,-39.551,-49.805,-21.973
1688813889.344,-188.965,-59.570,-39.551,13.184,86.426
1688813889.348,-191.406,-56.152,-37.598,-1.465,166.504
1688813889.352,44.434,-51.270,-41.016,-84.473,-24.902
1688813889.356,111.328,-50.293,-40.039,-83.984,-123.535
1688813889.360,24.414,-52.246,-36.133,-53.711,69.824
1688813889.364,-176.758,-54.199,-34.668,5.859,209.473
1688813889.367,-218.262,-45.410,-32.227,9.277,187.988
1688813889.371,7.812,-47.363,-36.621,-73.730,45.898
1688813889.375,97.168,-51.758,-39.062,-83.984,196.777
1688813889.379,31.738,-45.898,-38.574,-61.035,303.711
1688813889.383,-149.902,-47.363,-40.039,-9.277,189.941
1688813889.397,-233.887,-53.223,-36.621,20.020,193.848
1688813889.401,-14.648,-56.641,-31.738,-52.734,162.598
1688813889.405,103.516,-50.781,-35.156,-92.773,8.789
1688813889.409,49.805,-48.828,-34.180,-69.824,-72.266
1688813889.413,-115.234,-53.223,-33.203,0.977,19.043
1688813889.417,-233.398,-54.199,-34.180,40.039,409.180
1688813889.421,-34.180,-53.711,-39.062,-47.363,384.766
1688813889.424,106.445,-57.617,-45.898,-90.820,-56.641
1688813889.428,61.035,-58.105,-51.270,-55.176,-2.441
1688813889.432,-81.055,-52.246,-56.641,4.883,188.965
1688813889.436,-224.609,-50.781,-60.059,38.086,67.871
1688813889.440,-60.059,-51.270,-62.500,-39.062,-49.805
1688813889.444,119.629,-43.457,-54.199,-80.566,-6.836
1688813889.448,104.492,-36.621,-49.805,-56.641,32.715
1688813889.452,-41.504,-40.039,-46.875,-11.719,-28.809
1688813889.456,-220.703,-43.945,-34.180,36.133,4.883
1688813889.460,-83.496,-42.969,-34.668,-26.367,60.547
1688813889.464,102.539,-40.039,-39.062,-89.844,21.973
1688813889.468,86.914,-36.621,-38.086,-77.148,32.715
1688813889.471,-43.945,-41.992,-40.527,-39.551,20.508
1688813889.475,-237.305,-46.387,-37.598,17.090,239.746
1688813889.479,-151.855,-47.363,-37.598,-40.527,257.812
1688813889.483,57.129,-51.270,-40.527,-127.930,-66.406
1688813889.487,69.336,-43.945,-35.645,-110.840,6.836
1688813889.490,-55.176,-37.598,-28.809,-76.172,147.461
1688813889.494,-258.789,-41.016,-36.133,-27.832,115.723
1688813889.498,-208.008,-46.387,-47.852,-67.871,49.316
1688813889.502,9.766,-49.316,-41.504,-145.508,9.277
1688813889.506,37.109,-34.180,-35.156,-146.973,-5.859
1688813889.510,-62.500,-30.273,-34.668,-118.652,12.695
1688813889.514,-279.297,-39.062,-32.227,-65.918,140.625
1688813889.517,-270.996,-32.715,-23.438,-91.797,229.004
1688813889.521,-48.828,-20.508,-15.625,-176.270,245.117
1688813889.525,-27.832,-13.672,-15.625,-213.867,36.133
1688813889.529,-137.207,-16.602,-14.160,-211.914,-86.426
1688813889.533,-345.215,-14.160,-15.137,-157.715,220.703
1688813889.532,-388.672,-7.324,-16.602,-167.480,255.859
1688813889.536,-176.270,-7.324,-24.414,-266.113,-40.527
1688813889.540,-82.520,-13.672,-32.715,-295.410,-138.184
1688813889.544,-162.598,-19.531,-31.738,-250.488,-83.496
1688813889.548,-356.445,-25.391,-30.762,-175.293,44.434
1688813889.552,-391.602,-31.250,-38.086,-167.969,138.184
1688813889.556,-162.109,-30.273,-50.293,-238.281,86.426
1688813889.559,-42.480,-33.691,-56.152,-250.000,228.516
1688813889.563,-99.121,-44.434,-54.199,-208.008,375.977
1688813889.567,-274.414,-50.293,-52.734,-148.926,116.699
1688813889.571,-371.094,-57.129,-52.246,-112.305,75.195
1688813889.575,-151.367,-61.035,-51.758,-172.363,161.621
1688813889.592,-3.906,-62.012,-62.988,-201.660,76.660
1688813889.596,-41.016,-66.895,-75.195,-168.945,-27.344
1688813889.600,-200.684,-71.289,-79.590,-99.609,45.410
1688813889.604,-327.637,-69.824,-82.031,-46.875,204.590
1688813889.608,-127.930,-64.941,-81.543,-111.816,21.973
1688813889.612,45.410,-61.035,-83.984,-146.484,-69.336
1688813889.616,27.344,-64.453,-83.984,-109.863,50.781
1688813889.619,-115.234,-66.406,-78.125,-43.457,349.121
1688813889.623,-272.461,-59.570,-75.195,6.348,352.051
1688813889.627,-104.004,-62.012,-79.102,-62.012,33.691
1688813889.631,88.379,-66.406,-77.637,-106.934,-6.348
1688813889.635,77.148,-62.500,-69.824,-76.172,-27.832
1688813889.622,-51.758,-66.406,-72.754,-31.738,-58.105
1688813889.626,-223.633,-71.777,-80.078,25.391,100.586
1688813889.630,-91.797,-63.965,-76.660,-5.859,99.609
1688813889.634,117.676,-57.129,-72.266,-64.941,-69.336
1688813889.638,111.328,-61.523,-73.730,-56.152,-150.391
1688813889.642,-2.441,-63.965,-73.242,-6.836,-95.215
1688813889.646,-184.570,-60.547,-69.824,62.012,235.352
1688813889.649,-107.910,-60.547,-73.242,10.254,228.027
1688813889.653,108.887,-56.152,-72.754,-73.242,-32.227
1688813889.657,131.836,-52.734,-68.359,-62.500,-12.207
1688813889.661,31.738,-56.641,-63.965,-6.836,271.973
1688813889.665,-171.387,-56.641,-50.781,73.242,544.922
1688813889.667,-130.859,-55.664,-38.086,25.879,224.121
1688813889.671,99.121,-57.129,-38.086,-65.918,-41.016
1688813889.675,135.742,-50.781,-39.551,-56.152,90.332
1688813889.679,50.293,-42.480,-31.250,-18.066,38.574
1688813889.683,-139.648,-39.551,-19.043,36.621,57.129
1688813889.687,-141.113,-42.969,-12.207,26.855,239.746
1688813889.691,87.891,-43.945,-16.113,-50.293,233.887
1688813889.694,142.090,-39.551,-23.438,-56.641,18.066
1688813889.698,61.035,-39.551,-31.250,-25.879,-108.398
1688813889.702,-136.719,-43.945,-35.156,32.715,166.992
1688813889.706,-179.688,-46.387,-36.621,24.414,275.391
1688813889.710,51.758,-48.340,-38.086,-72.754,-58.105
1688813889.727,133.301,-50.293,-39.062,-86.914,-60.547
1688813889.731,72.754,-48.340,-39.062,-53.223,134.277
1688813889.735,-105.469,-47.852,-33.691,15.625,164.551
1688813889.739,-197.754,-53.223,-28.320,35.156,65.918
1688813889.743,10.742,-58.594,-36.621,-57.129,14.648
1688813889.747,120.117,-63.965,-48.340,-90.820,53.223
1688813889.751,75.195,-61.523,-45.410,-55.664,105.469
1688813889.754,-85.938,-56.152,-43.945,17.090,65.918
1688813889.758,-216.309,-57.129,-48.340,48.828,41.992
1688813889.762,-15.137,-53.223,-48.340,-30.273,192.871
1688813889.766,129.883,-47.852,-54.199,-65.430,146.484
1688813889.770,91.309,-46.875,-61.035,-43.945,31.738
1688813889.773,-64.453,-48.340,-60.059,3.418,134.766
1688813889.777,-219.238,-52.734,-54.199,42.480,236.816
1688813889.781,-47.852,-50.781,-51.758,-27.344,157.227
1688813889.785,127.441,-44.922,-52.734,-76.172,-27.344
1688813889.789,105.469,-49.805,-50.293,-52.734,14.648
1688813889.793,-44.434,-52.246,-48.340,-8.301,174.316
1688813889.797,-217.285,-43.945,-51.758,37.598,219.238
1688813889.800,-71.289,-36.133,-53.223,-28.809,0.000
1688813889.804,119.629,-37.598,-48.340,-81.055,-29.297
1688813889.808,110.352,-40.039,-44.434,-48.828,204.102
1688813889.812,-17.578,-38.574,-47.363,-8.789,88.867
1688813889.816,-210.938,-42.480,-48.828,32.715,40.527
1688813889.818,-109.375,-47.363,-43.457,-15.137,45.410
1688813889.822,109.863,-41.504,-37.598,-77.148,-77.637
1688813889.826,114.258,-40.039,-30.762,-63.965,-126.465
1688813889.830,-4.395,-42.969,-26.855,-19.043,-75.195
1688813889.834,-188.477,-44.434,-23.438,41.992,129.395
1688813889.838,-130.859,-44.434,-24.902,0.488,169.922
1688813889.842,80.078,-41.504,-21.973,-68.848,78.613
1688813889.845,109.863,-40.527,-22.949,-59.082,13.672
1688813889.849,10.254,-44.434,-31.250,-26.367,121.094
1688813889.853,-201.172,-45.410,-30.762,30.273,313.477
1688813889.857,-187.012,-46.387,-29.297,-9.277,81.543
1688813889.861,57.617,-39.062,-22.461,-90.820,-32.715
1688813889.862,120.117,-30.273,-16.602,-77.637,81.055
1688813889.866,32.715,-34.668,-25.879,-41.016,35.645
1688813889.870,-169.434,-38.574,-26.367,0.977,22.949
1688813889.874,-196.289,-40.039,-26.367,-13.184,130.859
1688813889.878,38.086,-44.434,-35.156,-93.262,26.367
1688813889.882,103.516,-48.340,-31.250,-99.609,-36.133
1688813889.886,27.344,-47.363,-29.297,-68.848,10.254
1688813889.889,-154.297,-47.852,-32.715,-9.277,199.219
1688813889.893,-226.562,-52.246,-34.180,5.371,457.520
1688813889.897,-0.977,-50.293,-42.969,-92.773,131.836
1688813889.901,101.562,-49.316,-49.805,-110.352,-100.098
1688813889.905,45.410,-48.340,-43.457,-71.777,35.156
1688813889.907,-134.766,-47.363,-39.062,-17.090,45.410
1688813889.911,-245.117,-54.688,-41.992,10.742,92.285
1688813889.915,-37.598,-59.082,-41.992,-73.730,26.855
1688813889.919,97.656,-56.152,-42.480,-101.074,11.230
1688813889.923,56.152,-50.781,-42.969,-73.242,18.066
1688813889.927,-111.328,-49.316,-44.922,-23.926,114.258
1688813889.931,-243.164,-42.480,-51.270,12.695,232.910
1688813889.934,-45.898,-30.273,-55.664,-53.711,259.277
1688813889.938,103.027,-30.762,-59.570,-94.238,233.887
1688813889.942,60.059,-44.434,-62.500,-83.496,61.035
1688813889.946,-82.031,-45.410,-63.965,-28.320,7.324
1688813889.950,-247.559,-45.898,-63.477,18.555,200.195
1688813889.952,-94.727,-43.945,-63.965,-58.105,175.781
1688813889.956,105.957,-38.574,-65.430,-108.398,-137.695
1688813889.960,81.543,-47.852,-68.359,-89.355,-105.469
1688813889.964,-63.477,-51.758,-69.824,-46.387,55.664
1688813889.968,-237.305,-48.340,-68.848,2.930,63.477
1688813889.972,-109.375,-41.504,-61.035,-49.805,-3.906
1688813889.976,98.145,-39.551,-52.734,-103.027,93.262
1688813889.979,84.473,-43.457,-50.293,-83.984,246.094
1688813889.983,-43.945,-40.527,-55.664,-51.270,98.633
1688813889.987,-235.840,-43.457,-63.477,-0.977,41.504
1688813889.991,-148.926,-44.434,-67.383,-38.086,104.004
1688813889.995,75.684,-43.945,-65.918,-99.609,118.164
1688813889.997,91.797,-41.016,-61.035,-89.844,27.344
1688813890.001,-14.648,-37.109,-59.570,-44.922,-25.391
1688813890.005,-208.008,-40.039,-52.734,30.273,178.223
1688813890.009,-168.945,-36.621,-45.898,-9.766,206.055
1688813890.013,62.988,-33.203,-46.875,-89.844,32.715
1688813890.017,106.934,-35.645,-44.922,-77.637,79.102
1688813890.021,20.020,-35.156,-42.480,-33.203,316.406
1688813890.024,-180.176,-36.621,-44.434,27.344,376.953
1688813890.028,-200.684,-44.922,-46.387,-6.836,125.000
1688813890.032,41.504,-45.410,-43.457,-80.566,10.742
1688813890.036,110.352,-43.457,-40.039,-70.312,5.859
1688813890.040,29.785,-45.410,-47.363,-38.574,2.441
1688813890.043,-155.273,-41.504,-45.410,24.414,59.570
1688813890.047,-200.684,-42.969,-42.969,19.043,83.496
1688813890.051,32.227,-43.457,-47.363,-58.594,237.305
1688813890.055,114.746,-41.016,-54.199,-72.754,127.441
1688813890.059,47.852,-45.898,-59.082,-53.223,-92.285
1688813890.063,-125.488,-51.758,-57.617,11.230,260.742
1688813890.067,-219.238,-54.688,-59.570,31.738,549.316
1688813890.070,-3.906,-47.852,-52.734,-55.176,197.266
1688813890.074,114.258,-43.457,-51.758,-81.055,-43.457
1688813890.078,62.012,-46.875,-54.199,-44.434,6.348
1688813890.082,-99.121,-44.922,-48.828,13.672,21.484
1688813890.086,-218.262,-35.156,-43.945,48.340,-26.855
1688813890.103,-11.719,-28.809,-39.551,-22.461,-96.680
1688813890.107,132.812,-32.227,-41.992,-68.359,-30.762
1688813890.111,80.566,-41.504,-47.852,-52.734,-55.176
1688813890.115,-83.984,-50.293,-44.434,-1.953,-47.363
1688813890.119,-232.910,-50.781,-34.668,34.180,124.512
1688813890.123,-59.082,-46.387,-36.621,-37.109,285.645
1688813890.127,113.770,-41.992,-43.457,-83.496,250.488
1688813890.130,83.984,-41.504,-44.922,-71.777,-37.598
1688813890.134,-69.336,-44.922,-41.992,-29.297,-79.102
1688813890.138,-242.188,-46.387,-35.156,20.508,113.770
1688813890.142,-104.492,-47.852,-38.086,-51.758,80.078
1688813890.146,81.543,-53.223,-44.922,-118.652,-30.762
1688813890.147,68.848,-56.152,-46.875,-95.703,-40.527
1688813890.151,-54.199,-53.711,-52.246,-51.270,18.555
1688813890.155,-245.117,-57.617,-61.035,-14.160,18.066
1688813890.159,-146.973,-60.547,-59.570,-68.359,-98.145
1688813890.163,66.895,-60.059,-53.223,-122.559,-41.992
1688813890.167,75.195,-62.500,-54.199,-107.422,116.699
1688813890.171,-39.551,-64.453,-55.664,-65.918,110.840
1688813890.174,-230.957,-61.035,-54.199,-6.348,134.766
1688813890.178,-161.621,-52.246,-50.781,-46.387,217.285
1688813890.182,69.824,-47.852,-53.711,-107.910,336.914
1688813890.186,95.215,-45.410,-63.965,-100.098,120.117
1688813890.190,-3.906,-44.434,-57.617,-65.918,-162.598
1688813890.207,-195.801,-42.480,-48.340,-0.488,-11.719
1688813890.211,-175.781,-37.109,-52.734,-29.297,26.855
1688813890.215,54.199,-35.156,-54.199,-105.957,-102.051
1688813890.219,97.656,-41.016,-53.223,-103.027,-125.977
1688813890.223,12.695,-46.387,-56.152,-61.523,-32.227
1688813890.227,-177.246,-45.898,-53.223,8.789,100.586
1688813890.231,-200.195,-44.434,-47.852,9.766,125.488
1688813890.234,36.133,-41.992,-50.781,-80.078,-20.508
1688813890.238,111.328,-45.898,-49.805,-95.215,169.434
1688813890.242,22.461,-44.922,-52.246,-68.848,306.641
1688813890.246,-174.805,-50.293,-58.105,-17.578,29.297
1688813890.250,-234.375,-62.988,-58.105,-10.254,54.199
1688813890.237,-13.672,-62.012,-52.734,-90.820,100.098
1688813890.241,91.309,-56.152,-55.176,-101.074,2.441
1688813890.245,40.039,-52.246,-64.941,-73.242,-51.270
1688813890.249,-135.742,-50.781,-62.012,-16.113,56.152
1688813890.253,-241.211,-52.734,-57.129,2.930,173.828
1688813890.257,-38.574,-48.340,-52.734,-82.520,162.598
1688813890.261,101.562,-44.922,-50.293,-116.699,69.824
1688813890.264,51.758,-55.176,-47.363,-91.797,111.328
1688813890.268,-124.512,-60.059,-50.781,-39.551,183.105
1688813890.272,-247.559,-54.688,-50.781,-4.883,63.477
1688813890.276,-54.688,-48.340,-46.875,-80.566,-99.609
1688813890.280,101.074,-51.270,-50.781,-110.840,106.934
1688813890.282,62.500,-50.781,-49.316,-81.543,393.555
1688813890.286,-88.379,-47.363,-48.340,-38.086,182.129
1688813890.290,-248.535,-50.293,-44.434,9.277,33.691
1688813890.294,-82.031,-41.016,-37.109,-51.758,19.043
1688813890.298,107.422,-37.109,-40.527,-108.398,-11.719
1688813890.302,79.590,-43.945,-45.410,-101.074,35.156
1688813890.306,-56.641,-45.898,-45.410,-52.734,99.121
1688813890.309,-234.863,-51.758,-48.828,1.953,303.711
1688813890.313,-119.141,-51.758,-58.105,-58.594,258.789
1688813890.317,77.148,-48.828,-57.617,-112.305,-73.242
1688813890.321,79.590,-52.734,-49.316,-90.820,-80.078
1688813890.325,-38.574,-48.340,-46.387,-52.734,81.543
1688813890.328,-242.676,-49.805,-55.664,0.488,122.559
1688813890.332,-164.551,-55.664,-56.641,-50.293,42.480
1688813890.336,63.965,-51.758,-49.805,-116.699,37.109
1688813890.340,81.543,-53.223,-50.781,-92.285,131.836
1688813890.344,-28.320,-55.664,-51.758,-52.734,84.961
1688813890.348,-224.609,-58.105,-50.293,0.000,128.418
1688813890.352,-181.641,-62.500,-51.270,-34.180,288.086
1688813890.355,50.781,-63.965,-42.969,-101.562,226.074
1688813890.359,93.750,-59.082,-34.180,-103.516,-34.180
1688813890.363,6.348,-54.199,-23.926,-73.730,-67.383
1688813890.367,-198.730,-57.129,-14.160,4.395,166.016
1688813890.371,-193.848,-50.293,-10.254,-10.742,164.062
1688813890.387,47.363,-43.457,-11.719,-93.262,-46.875
1688813890.391,101.074,-48.828,-14.648,-91.797,-53.223
1688813890.395,14.648,-54.199,-15.625,-62.012,-26.367
1688813890.399,-180.664,-57.129,-20.020,-0.977,36.133
1688813890.403,-227.051,-58.105,-23.926,-6.348,47.363
1688813890.407,-0.977,-55.176,-29.297,-100.098,-18.555
1688813890.411,85.938,-55.176,-32.715,-108.398,206.543
1688813890.414,23.438,-53.711,-38.086,-78.125,228.516
1688813890.418,-159.180,-49.316,-44.434,-26.855,1.953
1688813890.422,-240.723,-51.758,-45.898,-8.789,-11.719
1688813890.426,-26.367,-52.246,-49.805,-82.520,103.027
1688813890.430,88.379,-41.504,-49.316,-105.957,143.066
1688813890.417,43.945,-33.691,-49.316,-85.449,-34.668
1688813890.421,-121.582,-38.086,-49.805,-27.344,-2.441
1688813890.425,-232.910,-45.898,-42.480,9.277,208.008
1688813890.429,-26.855,-41.992,-35.156,-63.477,90.332
1688813890.433,116.699,-41.016,-33.203,-104.004,-79.590
1688813890.437,67.383,-44.922,-35.156,-83.008,111.816
1688813890.441,-98.145,-44.434,-35.156,-21.484,294.434
1688813890.444,-235.352,-45.898,-34.668,12.695,248.535
1688813890.448,-45.898,-39.062,-34.668,-69.824,79.590
1688813890.452,117.188,-37.109,-27.344,-111.816,29.785
1688813890.456,76.172,-40.527,-22.461,-78.613,298.340
1688813890.460,-67.383,-38.574,-22.461,-37.109,229.980
1688813890.477,-234.375,-41.016,-21.484,8.789,33.203
1688813890.481,-89.355,-41.504,-24.902,-51.270,32.715
1688813890.485,107.910,-40.039,-27.832,-111.816,-58.594
1688813890.489,90.332,-35.645,-22.461,-88.867,-163.086
1688813890.493,-33.203,-38.086,-20.996,-39.062,-57.129
1688813890.497,-218.262,-44.434,-22.949,14.648,178.223
1688813890.501,-124.023,-40.527,-24.902,-47.852,159.180
1688813890.504,88.867,-38.574,-24.902,-109.375,-39.551
1688813890.508,97.168,-44.434,-27.344,-89.844,-130.371
1688813890.512,-20.020,-48.828,-31.738,-35.645,143.555
1688813890.516,-217.773,-45.898,-34.180,30.762,331.543
1688813890.520,-156.250,-36.133,-26.367,-18.066,72.754
1688813890.522,64.453,-32.715,-28.320,-98.145,3.418
1688813890.526,90.332,-32.715,-38.574,-93.750,65.430
1688813890.530,0.488,-29.785,-35.156,-44.922,66.406
1688813890.534,-199.219,-33.203,-30.762,21.484,60.059
1688813890.538,-166.016,-33.691,-28.320,-7.812,93.262
1688813890.542,69.824,-27.832,-26.855,-84.961,20.020
1688813890.546,96.191,-22.461,-22.461,-75.684,14.160
1688813890.549,12.695,-22.949,-20.508,-43.945,47.363
1688813890.553,-184.570,-28.320,-23.438,17.090,147.949
1688813890.557,-211.426,-27.344,-26.367,9.277,314.941
1688813890.561,17.090,-24.902,-27.832,-81.543,49.805
1688813890.565,89.355,-33.691,-30.762,-97.168,-155.273
1688813890.567,21.484,-41.016,-29.297,-60.059,-1.953
1688813890.571,-168.945,-36.621,-24.902,6.836,105.469
1688813890.575,-233.887,-33.691,-21.973,9.766,51.758
1688813890.579,-3.418,-32.227,-18.066,-70.312,-51.758
1688813890.583,104.004,-31.250,-16.602,-74.219,-80.078
1688813890.587,41.504,-35.156,-18.066,-40.527,74.707
1688813890.591,-144.531,-38.086,-15.625,4.883,163.574
1688813890.594,-235.352,-37.598,-21.484,24.902,98.145
1688813890.598,-22.949,-36.621,-31.738,-52.246,184.570
1688813890.602,103.027,-34.668,-31.738,-100.098,148.926
1688813890.606,66.895,-33.203,-21.484,-80.566,-22.461
1688813890.610,-96.680,-27.832,-14.160,-15.625,35.156
1688813890.613,-236.816,-27.344,-13.672,30.273,414.551
1688813890.617,-56.641,-27.832,-13.184,-40.039,465.820
1688813890.621,92.285,-26.855,-20.996,-97.168,31.250
1688813890.625,65.918,-32.227,-27.344,-71.777,48.828
1688813890.629,-85.449,-41.016,-22.461,-13.184,161.621
1688813890.633,-244.629,-42.480,-17.090,22.949,85.938
1688813890.637,-76.172,-41.504,-15.625,-41.992,-4.395
1688813890.640,105.469,-40.039,-20.996,-87.891,44.434
1688813890.644,84.961,-40.039,-30.273,-63.477,190.918
1688813890.648,-42.480,-35.645,-32.227,-6.836,79.590
1688813890.652,-232.422,-32.715,-32.227,46.875,-1.953
1688813890.656,-116.699,-34.668,-35.156,-13.184,53.711
1688813890.657,87.402,-36.621,-33.691,-67.383,13.672
1688813890.661,85.938,-37.598,-27.344,-53.223,-75.684
1688813890.665,-26.855,-35.156,-25.879,-13.184,-33.691
1688813890.669,-214.844,-27.832,-27.832,49.316,179.199
1688813890.673,-111.328,-19.531,-33.203,0.000,196.777
1688813890.677,103.027,-22.461,-34.180,-71.777,59.570
1688813890.681,108.398,-26.855,-33.691,-54.199,70.801
1688813890.684,16.602,-26.367,-36.621,-6.836,215.820
1688813890.688,-192.383,-25.391,-32.715,51.758,265.137
1688813890.692,-163.086,-25.391,-25.391,0.977,26.855
1688813890.696,74.219,-25.879,-19.043,-78.125,-47.363
1688813890.700,107.422,-28.809,-17.090,-68.848,49.316
1688813890.702,16.113,-28.809,-19.531,-35.645,33.203
1688813890.706,-175.293,-25.391,-16.113,24.902,-16.602
1688813890.710,-184.570,-33.691,-9.277,7.812,104.004
1688813890.714,49.316,-39.062,-16.113,-71.777,199.219
1688813890.718,109.375,-37.109,-26.367,-92.285,42.969
1688813890.722,18.066,-36.621,-23.438,-73.242,-28.809
1688813890.726,-176.758,-35.156,-18.066,-9.277,173.340
1688813890.729,-216.797,-34.668,-19.043,-1.953,471.680
1688813890.733,18.555,-26.855,-18.555,-92.285,230.957
1688813890.737,107.422,-26.855,-24.902,-110.352,-145.020
1688813890.741,34.180,-38.574,-33.691,-67.871,-29.297
1688813890.745,-145.508,-40.039,-33.691,-5.371,169.922
1688813890.747,-221.680,-35.645,-40.527,-2.441,108.887
1688813890.751,-4.883,-39.551,-50.293,-76.660,-17.578
1688813890.755,120.117,-35.645,-54.199,-93.262,-97.168
1688813890.759,75.195,-29.785,-52.246,-64.941,-81.055
1688813890.763,-113.770,-34.668,-42.969,-6.348,-47.363
1688813890.767,-244.629,-36.621,-43.945,16.602,120.605
1688813890.771,-33.691,-37.598,-44.922,-53.711,289.062
1688813890.774,110.840,-37.598,-41.504,-88.867,288.086
1688813890.778,63.477,-36.133,-46.875,-81.055,15.137
1688813890.782,-100.098,-44.922,-50.781,-25.391,-132.812
1688813890.786,-243.164,-44.434,-44.922,25.879,60.059
1688813890.790,-56.641,-36.621,-39.062,-39.551,109.375
1688813890.792,112.305,-40.527,-40.527,-81.055,-5.859
1688813890.796,77.637,-45.410,-40.527,-53.711,0.977
1688813890.800,-57.129,-40.039,-40.527,4.883,192.871
1688813890.804,-216.797,-34.668,-43.457,52.734,258.301
1688813890.808,-73.242,-32.227,-38.574,-17.578,70.801
1688813890.812,123.535,-31.250,-30.762,-60.059,-6.348
1688813890.816,114.746,-24.902,-30.762,-30.762,106.934
1688813890.819,-24.902,-23.926,-38.574,8.789,40.527
1688813890.823,-217.773,-28.320,-40.527,60.059,44.922
1688813890.827,-97.168,-20.508,-31.738,7.324,95.215
1688813890.831,122.559,-7.324,-21.484,-49.316,81.055
1688813890.835,125.977,-7.324,-22.461,-42.480,-33.203
1688813890.840,12.695,-18.555,-24.414,-9.766,-50.781
1688813890.844,-172.852,-21.484,-22.949,59.570,195.801
1688813890.848,-110.352,-20.020,-20.020,20.508,188.477
1688813890.852,98.633,-21.973,-21.484,-61.035,-65.430
1688813890.856,121.094,-31.250,-16.602,-53.223,-79.590
1688813890.860,26.367,-36.621,-14.160,-11.719,26.855
1688813890.864,-165.527,-31.738,-20.508,56.641,86.914
1688813890.867,-137.695,-28.320,-17.578,31.738,-1.953
1688813890.871,93.262,-32.227,-19.531,-51.758,-86.914
1688813890.875,136.230,-35.645,-18.066,-40.527,93.750
1688813890.879,47.363,-38.086,-20.508,-4.883,146.973
1688813890.883,-160.645,-48.828,-33.203,41.504,74.707
1688813890.897,-174.805,-47.363,-32.227,26.855,186.035
1688813890.901,65.430,-47.852,-37.598,-63.965,166.992
1688813890.905,129.395,-43.945,-47.363,-77.148,-17.578
1688813890.909,56.152,-38.086,-42.480,-30.273,-125.000
1688813890.913,-135.254,-43.457,-39.062,27.344,-20.020
1688813890.917,-199.707,-41.992,-39.551,37.109,458.496
1688813890.921,30.762,-31.738,-40.039,-40.039,437.500
1688813890.924,127.441,-30.273,-39.062,-71.289,-4.883
1688813890.928,64.941,-34.668,-41.016,-42.480,50.781
1688813890.932,-123.047,-40.527,-44.922,18.555,128.906
1688813890.936,-235.352,-43.945,-39.551,35.645,20.996
1688813890.940,-16.113,-43.945,-39.062,-43.457,-45.410
1688813890.958,114.258,-48.828,-45.410,-86.914,-55.664
1688813890.962,62.500,-54.199,-49.805,-70.312,-81.055
1688813890.966,-99.609,-55.176,-47.852,-14.648,-14.648
1688813890.970,-244.141,-58.105,-42.969,9.766,102.051
1688813890.974,-59.082,-58.594,-45.898,-62.500,163.086
1688813890.978,107.422,-56.152,-44.434,-94.238,222.168
1688813890.982,69.824,-57.129,-37.109,-65.918,139.160
1688813890.985,-84.473,-60.547,-31.250,-13.184,42.480
1688813890.989,-240.234,-61.523,-27.344,34.180,301.270
1688813890.993,-81.543,-58.594,-35.156,-39.062,328.613
1688813890.997,93.750,-54.199,-41.992,-102.051,-52.246
1688813891.001,83.496,-54.688,-36.133,-70.312,22.461
1688813890.987,-54.688,-58.105,-36.621,-21.973,210.938
1688813890.991,-237.793,-61.523,-34.180,19.531,162.598
1688813890.995,-104.980,-64.941,-35.645,-45.898,27.832
1688813890.999,91.797,-64.941,-38.574,-106.934,3.906
1688813891.003,83.496,-57.617,-37.598,-75.684,73.730
1688813891.007,-36.133,-54.199,-40.527,-31.250,71.289
1688813891.011,-224.609,-61.035,-51.758,15.137,175.293
1688813891.014,-127.930,-66.895,-58.105,-22.949,229.004
1688813891.018,93.262,-56.641,-55.664,-85.938,168.945
1688813891.022,97.168,-41.016,-63.477,-94.727,62.500
1688813891.026,-7.324,-40.039,-66.406,-62.012,-54.199
1688813891.030,-194.336,-43.457,-65.918,9.766,120.117
1688813891.032,-150.391,-47.363,-70.801,-20.996,365.723
1688813891.036,64.941,-48.828,-71.777,-106.445,94.727
1688813891.040,93.262,-53.223,-72.754,-97.656,-102.539
1688813891.044,8.789,-49.805,-70.801,-60.547,-27.344
1688813891.048,-193.848,-49.316,-71.777,-6.348,82.520
1688813891.052,-200.684,-52.734,-72.754,-30.273,109.863
1688813891.056,38.574,-44.434,-71.777,-105.469,3.418
1688813891.059,96.680,-47.852,-75.195,-98.145,179.688
1688813891.063,13.672,-53.223,-75.684,-70.801,307.617
1688813891.067,-170.898,-45.410,-71.777,-15.625,71.289
1688813891.071,-211.914,-47.852,-72.266,-9.766,25.391
1688813891.075,17.578,-49.316,-76.660,-98.633,93.262
1688813891.093,113.770,-42.480,-68.848,-107.910,10.742
1688813891.097,48.828,-43.457,-63.477,-74.707,-89.355
1688813891.101,-136.230,-43.457,-61.035,-11.719,-8.789
1688813891.105,-211.426,-39.551,-59.082,4.883,179.688
1688813891.109,1.465,-33.203,-58.594,-85.938,9.766
1688813891.113,111.816,-33.691,-51.758,-96.191,-156.250
1688813891.117,63.965,-37.109,-46.387,-61.035,50.293
1688813891.120,-108.398,-37.598,-36.133,-3.906,322.754
1688813891.124,-226.562,-36.621,-34.668,19.043,193.359
1688813891.128,-24.414,-36.621,-43.457,-75.195,-27.344
1688813891.132,116.699,-35.645,-42.480,-110.352,72.266
1688813891.136,68.359,-35.156,-39.062,-79.590,69.824
1688813891.123,-97.656,-34.180,-39.551,-24.414,21.973
1688813891.127,-243.652,-30.273,-33.691,11.719,100.586
1688813891.131,-67.383,-26.855,-25.879,-55.664,78.125
1688813891.135,106.934,-25.879,-24.902,-101.074,3.906
1688813891.139,82.031,-25.391,-25.391,-84.961,-24.902
1688813891.143,-67.383,-22.949,-25.879,-28.320,57.617
1688813891.147,-237.305,-23.926,-33.691,15.137,202.637
1688813891.150,-89.844,-24.414,-41.016,-54.688,76.172
1688813891.154,106.445,-24.902,-41.992,-111.816,-53.223
1688813891.158,84.473,-29.785,-44.434,-86.914,-63.477
1688813891.162,-53.223,-34.668,-44.922,-28.320,202.148
1688813891.166,-227.539,-32.227,-41.016,26.855,379.395
1688813891.168,-118.652,-27.832,-38.574,-34.668,44.434
1688813891.172,83.984,-25.879,-41.016,-104.492,-62.500
1688813891.176,85.449,-29.785,-43.457,-74.707,205.078
1688813891.180,-27.344,-28.809,-46.387,-29.297,226.562
1688813891.184,-211.426,-23.438,-39.551,16.113,64.453
1688813891.188,-134.277,-24.414,-24.414,-13.184,165.527
1688813891.192,84.961,-30.273,-24.902,-89.355,242.676
1688813891.195,99.609,-30.762,-22.461,-101.074,65.430
1688813891.199,4.395,-27.344,-18.066,-66.895,-60.547
1688813891.203,-184.082,-30.762,-23.926,6.836,106.934
1688813891.207,-166.504,-30.762,-28.809,-11.719,119.629
1688813891.211,52.734,-29.785,-41.016,-101.562,-93.262
1688813891.228,97.656,-32.715,-47.852,-103.516,-147.461
1688813891.232,19.531,-29.297,-45.410,-65.430,-32.227
1688813891.236,-173.340,-32.227,-52.246,-6.836,162.109
1688813891.240,-194.824,-31.738,-58.105,-22.949,165.527
1688813891.244,39.062,-27.832,-54.199,-109.375,-30.273
1688813891.248,107.910,-35.645,-54.688,-111.328,129.883
1688813891.252,34.668,-35.156,-57.617,-74.707,316.406
1688813891.255,-152.832,-30.273,-54.688,-26.367,133.301
1688813891.259,-216.797,-33.691,-55.664,-28.320,73.730
1688813891.263,14.160,-30.762,-63.477,-100.098,135.742
1688813891.267,111.328,-32.227,-66.406,-115.234,31.250
1688813891.271,39.062,-37.598,-59.082,-103.516,-37.109
1688813891.273,-141.602,-41.992,-57.617,-46.875,59.570
1688813891.277,-242.188,-45.410,-60.059,-17.578,187.500
1688813891.281,-29.785,-38.574,-61.523,-94.727,87.402
1688813891.285,102.539,-40.039,-69.336,-125.000,-97.656
1688813891.289,51.270,-46.875,-76.172,-95.703,21.973
1688813891.293,-110.352,-40.527,-70.801,-34.668,161.621
1688813891.297,-240.723,-43.457,-67.871,-11.230,163.574
1688813891.300,-56.641,-50.293,-67.383,-89.355,-22.949
1688813891.304,112.305,-39.551,-56.641,-113.281,-78.125
1688813891.308,79.102,-38.086,-48.828,-75.195,228.516
1688813891.312,-86.426,-41.992,-41.992,-33.203,136.719
1688813891.316,-241.699,-44.434,-44.922,0.977,-38.086
1688813891.317,-66.895,-44.922,-47.852,-66.895,127.930
1688813891.321,107.910,-40.527,-45.410,-124.512,103.027
1688813891.325,73.242,-48.340,-51.758,-113.281,-65.430
1688813891.329,-64.941,-55.664,-52.734,-66.406,-25.391
1688813891.333,-243.652,-56.641,-52.734,-7.812,144.043
1688813891.337,-115.234,-55.176,-54.688,-71.777,149.414
1688813891.341,91.797,-48.828,-51.758,-130.371,37.598
1688813891.344,88.379,-53.711,-52.246,-103.516,-8.301
1688813891.348,-41.016,-62.988,-62.500,-54.688,193.359
1688813891.352,-231.934,-60.059,-65.918,12.695,372.070
1688813891.356,-138.672,-49.316,-68.848,-39.062,103.027
1688813891.360,72.266,-47.363,-72.754,-107.910,-12.695
1688813891.363,78.125,-47.363,-71.777,-84.961,167.969
1688813891.367,-33.203,-44.922,-66.406,-51.270,115.234
1688813891.371,-228.027,-42.480,-63.965,6.836,64.941
1688813891.375,-165.527,-41.016,-60.547,-19.531,7.324
1688813891.379,62.988,-44.434,-60.547,-101.562,-20.020
1688813891.383,88.379,-45.898,-64.941,-92.285,41.504
1688813891.387,-4.883,-44.434,-61.523,-58.105,-12.207
1688813891.390,-201.660,-46.875,-59.082,-0.977,168.457
1688813891.394,-189.941,-42.480,-60.059,-9.277,299.805
1688813891.398,41.504,-33.203,-56.641,-89.355,126.953
1688813891.402,102.539,-32.227,-51.270,-85.449,-116.211
1688813891.406,24.414,-40.039,-51.270,-56.641,23.438
1688813891.407,-179.199,-47.363,-53.223,-3.418,346.680
1688813891.411,-216.797,-44.434,-53.223,-15.625,129.883
1688813891.415,10.254,-47.363,-47.852,-97.656,-36.133
1688813891.419,90.820,-51.270,-43.457,-104.492,13.672
1688813891.423,25.879,-46.875,-35.156,-68.848,-42.969
1688813891.427,-135.742,-44.922,-32.227,-1.465,45.898
1688813891.431,-208.496,-48.828,-34.180,9.766,108.887
1688813891.434,-4.883,-48.828,-32.715,-69.336,180.664
1688813891.438,104.004,-48.340,-35.645,-102.539,203.125
1688813891.442,36.621,-50.293,-40.527,-96.680,1.953
1688813891.446,-132.812,-53.223,-34.180,-39.062,23.438
1688813891.450,-238.770,-54.199,-25.879,5.371,205.566
1688813891.452,-37.598,-52.734,-27.832,-75.195,176.758
1688813891.456,103.027,-44.922,-27.832,-106.934,29.785
1688813891.460,60.059,-44.922,-29.297,-75.684,-8.301
1688813891.464,-103.027,-47.363,-30.762,-19.531,126.953
1688813891.468,-245.117,-44.922,-27.832,15.625,160.156
1688813891.472,-72.266,-43.457,-27.344,-64.453,67.383
1688813891.476,93.262,-37.598,-22.949,-100.586,180.176
1688813891.479,67.871,-34.180,-15.137,-60.059,237.793
1688813891.483,-87.891,-38.086,-27.832,-19.043,71.777
1688813891.487,-248.535,-37.109,-26.855,16.602,19.043
1688813891.491,-98.145,-35.645,-20.020,-37.109,166.504
1688813891.495,84.473,-39.062,-20.508,-82.520,236.816
1688813891.499,61.523,-39.551,-15.625,-57.129,-2.930
1688813891.503,-66.895,-45.410,-17.578,-17.090,-20.020
1688813891.507,-236.816,-48.340,-17.090,30.762,234.375
1688813891.511,-120.605,-45.898,-19.043,-27.344,181.641
1688813891.515,81.055,-44.434,-22.461,-100.586,-3.906
1688813891.519,77.148,-46.875,-26.367,-85.449,12.695
1688813891.523,-39.551,-57.617,-33.203,-36.621,353.027
1688813891.526,-228.516,-56.152,-34.180,24.414,495.117
1688813891.530,-149.414,-45.898,-38.574,-24.414,114.746
1688813891.534,74.707,-45.898,-38.086,-85.938,-72.754
1688813891.538,98.145,-48.340,-41.992,-65.918,-37.598
1688813891.542,3.418,-50.781,-44.434,-31.738,56.152
1688813891.542,-192.383,-49.805,-30.273,35.156,103.516
1688813891.546,-174.316,-49.805,-27.344,16.113,70.801
1688813891.550,65.918,-42.480,-22.461,-52.734,93.262
1688813891.554,122.070,-37.109,-15.137,-45.410,36.621
1688813891.558,30.273,-41.992,-17.578,-27.344,28.320
1688813891.562,-178.711,-46.875,-27.832,19.043,180.664
1688813891.566,-205.566,-47.852,-36.621,19.531,488.281
1688813891.569,36.133,-43.457,-43.457,-61.523,337.891
1688813891.573,112.793,-41.504,-46.875,-80.566,-30.273
1688813891.577,38.574,-39.062,-41.504,-42.480,5.371
1688813891.581,-155.273,-36.621,-41.992,29.297,147.461
1688813891.585,-212.402,-31.738,-43.457,35.645,58.105
1688813891.602,26.855,-25.879,-36.621,-52.734,-100.098
1688813891.606,124.512,-29.785,-32.715,-74.219,-70.801
1688813891.610,56.152,-33.691,-34.668,-45.410,-47.852
1688813891.614,-130.371,-34.668,-37.598,15.625,-69.824
1688813891.618,-236.328,-38.086,-39.551,35.645,-0.977
1688813891.622,-13.672,-35.156,-32.715,-43.945,108.887
1688813891.626,124.023,-25.879,-30.762,-71.289,93.262
1688813891.629,65.430,-29.297,-42.969,-56.152,18.555
1688813891.633,-106.445,-41.016,-51.758,-1.465,52.734
1688813891.637,-240.723,-41.016,-55.664,35.645,262.207
1688813891.641,-45.410,-35.156,-61.035,-45.898,217.773
1688813891.645,117.676,-32.227,-62.012,-84.961,-41.016
1688813891.662,84.473,-37.109,-63.965,-68.848,-106.445
1688813891.666,-79.590,-45.898,-67.383,-8.301,229.004
1688813891.670,-255.371,-47.363,-68.848,46.875,423.828
1688813891.674,-86.426,-46.387,-69.336,-42.480,34.668
1688813891.678,96.191,-48.828,-69.336,-99.121,-35.645
1688813891.682,71.289,-54.688,-75.684,-81.543,147.461
1688813891.686,-67.871,-57.617,-80.566,-37.109,169.922
1688813891.689,-250.488,-53.711,-77.148,10.742,128.906
1688813891.693,-117.676,-52.246,-75.195,-51.758,160.156
1688813891.697,87.891,-45.410,-74.219,-101.562,253.906
1688813891.701,78.613,-38.086,-69.824,-96.191,67.871
1688813891.705,-46.875,-42.969,-64.453,-63.965,-61.035
1688813891.692,-249.023,-47.363,-62.988,11.230,145.020
1688813891.696,-165.039,-40.527,-64.453,-35.645,129.883
1688813891.700,57.617,-37.109,-60.547,-116.699,-89.355
1688813891.704,80.566,-42.480,-55.176,-108.398,-132.812
1688813891.708,-31.738,-49.316,-56.152,-72.266,-62.012
1688813891.712,-253.906,-55.664,-60.059,-2.441,126.465
1688813891.716,-207.031,-51.758,-63.477,-37.598,115.723
1688813891.719,31.738,-50.781,-73.242,-119.141,-22.461
1688813891.723,62.500,-57.129,-76.660,-118.652,40.039
1688813891.727,-37.109,-60.547,-76.660,-83.496,122.559
1688813891.731,-240.723,-61.523,-80.566,-7.324,114.258
1688813891.735,-235.352,-61.035,-79.102,-23.438,135.254
1688813891.738,10.254,-62.988,-75.684,-97.168,284.668
1688813891.742,81.543,-57.617,-66.895,-89.355,448.730
1688813891.746,5.859,-53.223,-61.523,-72.754,135.742
1688813891.750,-193.848,-55.176,-64.453,-16.113,36.621
1688813891.754,-229.492,-53.223,-60.059,-7.812,73.242
1688813891.758,13.184,-46.875,-55.176,-89.844,-3.418
1688813891.762,103.516,-49.316,-58.594,-109.863,33.691
1688813891.765,46.387,-53.711,-62.988,-76.660,86.914
1688813891.769,-151.855,-55.664,-63.965,0.488,246.582
1688813891.773,-250.488,-55.176,-62.500,4.395,163.086
1688813891.777,-14.648,-49.805,-47.363,-78.125,-50.293
1688813891.781,111.816,-50.293,-38.574,-81.543,-15.625
1688813891.783,63.477,-54.688,-33.691,-48.828,3.906
1688813891.787,-120.605,-59.082,-30.762,-0.977,77.637
1688813891.791,-236.328,-58.105,-31.738,25.879,149.414
1688813891.795,-23.438,-47.363,-33.691,-51.758,93.750
1688813891.799,111.328,-44.434,-31.250,-93.750,-9.766
1688813891.803,69.336,-50.781,-34.180,-70.312,14.648
1688813891.807,-98.633,-51.270,-39.551,-16.113,102.051
1688813891.810,-252.930,-51.270,-41.992,34.668,187.500
1688813891.814,-72.754,-50.781,-50.781,-39.062,144.531
1688813891.818,99.609,-48.828,-58.105,-98.633,-148.926
1688813891.822,71.289,-46.875,-62.012,-77.148,-192.871
1688813891.826,-83.008,-51.270,-63.477,-24.902,-48.828
1688813891.827,-262.207,-53.223,-61.035,17.090,19.531
1688813891.831,-112.793,-49.805,-55.664,-61.035,-66.406
1688813891.835,91.797,-49.805,-52.246,-112.305,-75.684
1688813891.839,79.102,-49.805,-49.805,-87.891,56.152
1688813891.843,-57.129,-49.316,-47.363,-44.922,-1.465
1688813891.847,-253.418,-54.688,-46.875,8.301,56.152
1688813891.851,-141.113,-49.316,-50.781,-43.457,155.762
1688813891.854,87.402,-42.480,-52.734,-94.238,229.492
1688813891.858,86.914,-44.922,-57.617,-86.914,145.020
1688813891.862,-32.715,-43.457,-62.012,-55.664,-75.195
1688813891.866,-228.516,-48.828,-62.500,16.113,11.230
1688813891.870,-163.574,-57.129,-66.406,-40.039,-4.395
1688813891.874,69.824,-54.199,-63.965,-117.676,-144.043
1688813891.878,102.539,-49.805,-57.617,-90.332,-96.680
1688813891.882,-5.859,-53.223,-59.570,-51.270,5.859
1688813891.886,-215.332,-52.246,-59.082,16.602,87.891
1688813891.890,-175.293,-44.434,-56.641,-15.137,86.914
1688813891.894,61.035,-40.527,-58.105,-109.375,38.086
1688813891.898,98.145,-45.898,-60.547,-96.680,219.238
1688813891.901,21.484,-41.992,-56.641,-47.852,338.867
1688813891.905,-181.152,-39.551,-57.617,4.395,157.227
1688813891.909,-210.449,-47.363,-57.617,-17.090,75.684
1688813891.913,41.504,-41.016,-52.734,-96.680,57.617
1688813891.917,115.234,-37.598,-52.246,-101.562,64.453
1688813891.917,34.668,-37.598,-50.781,-71.289,1.953
1688813891.921,-165.527,-37.109,-51.270,-18.555,67.383
1688813891.925,-229.492,-37.598,-49.316,-11.719,176.270
1688813891.929,12.207,-40.039,-45.410,-96.191,65.918
1688813891.933,120.605,-42.969,-38.086,-110.352,-55.176
1688813891.937,64.941,-43.457,-32.715,-71.289,-9.277
1688813891.941,-128.906,-46.875,-33.203,-5.371,386.719
1688813891.944,-236.816,-42.480,-32.715,14.648,450.195
1688813891.948,-15.137,-40.527,-33.691,-81.543,114.258
1688813891.952,100.586,-51.270,-47.363,-118.164,115.723
1688813891.956,47.363,-56.152,-59.570,-96.191,129.395
1688813891.960,-115.234,-53.711,-60.547,-40.039,-16.602
1688813891.978,-255.371,-55.664,-55.176,-3.906,10.742
1688813891.982,-63.477,-54.688,-51.270,-80.566,48.828
1688813891.986,104.980,-52.734,-54.199,-128.418,-9.277
1688813891.990,75.684,-57.617,-60.059,-114.746,-69.824
1688813891.994,-92.285,-62.012,-62.012,-59.082,-26.855
1688813891.998,-236.816,-64.941,-54.199,-18.066,108.887
1688813892.002,-64.453,-65.430,-50.781,-92.773,120.117
1688813892.005,96.191,-59.082,-48.340,-142.578,-5.859
1688813892.009,75.684,-62.500,-44.922,-120.605,-33.203
1688813892.013,-71.289,-66.895,-44.922,-67.383,73.730
1688813892.017,-244.629,-53.223,-38.574,3.418,110.352
1688813892.021,-110.352,-48.340,-37.109,-51.270,69.824
1688813892.022,91.309,-54.199,-47.363,-127.930,16.113
1688813892.026,86.426,-55.664,-51.270,-112.793,171.875
1688813892.030,-39.062,-54.688,-49.805,-67.383,357.422
1688813892.034,-240.234,-50.781,-54.688,-12.695,127.930
1688813892.038,-146.484,-55.176,-53.711,-56.152,41.992
1688813892.042,71.289,-60.547,-50.293,-119.629,15.625
1688813892.046,75.684,-54.199,-49.316,-101.562,25.391
1688813892.049,-27.832,-46.875,-45.410,-68.848,46.875
1688813892.053,-233.887,-51.270,-42.480,-6.836,135.254
1688813892.057,-190.430,-54.199,-46.387,-29.297,323.242
1688813892.061,46.387,-50.293,-51.270,-119.141,45.898
1688813892.065,86.914,-45.410,-45.410,-117.676,-110.352
1688813892.068,-0.488,-45.410,-43.457,-73.242,9.766
1688813892.072,-199.219,-42.480,-44.922,-15.137,153.809
1688813892.076,-190.918,-36.621,-46.387,-30.762,90.332
1688813892.080,46.387,-37.598,-46.875,-104.492,-77.148
1688813892.084,102.051,-41.016,-45.410,-104.492,-2.441
1688813892.088,26.855,-42.969,-45.410,-73.730,138.184
1688813892.092,-172.363,-44.922,-43.457,-14.160,195.801
1688813892.095,-218.262,-45.410,-44.434,-17.578,98.145
1688813892.099,12.695,-44.434,-43.945,-87.891,120.117
1688813892.103,86.914,-48.828,-48.340,-98.145,162.598
1688813892.107,21.484,-48.340,-51.270,-87.402,-74.707
1688813892.111,-146.484,-44.922,-42.969,-18.555,60.547
1688813892.113,-225.586,-40.527,-35.645,-0.977,285.156
1688813892.117,-0.977,-32.715,-32.227,-86.426,130.859
1688813892.121,119.629,-27.344,-26.367,-107.422,-87.402
1688813892.125,64.941,-31.250,-27.832,-76.172,-6.348
1688813892.129,-115.723,-37.109,-36.621,-16.602,162.109
1688813892.133,-236.328,-37.598,-38.086,2.930,147.461
1688813892.137,-27.344,-33.203,-38.086,-82.031,108.398
1688813892.140,110.840,-36.133,-37.109,-105.469,92.773
1688813892.144,61.523,-39.551,-36.133,-68.848,277.344
1688813892.148,-94.238,-35.645,-36.133,-21.484,255.371
1688813892.152,-229.004,-31.250,-31.250,13.672,76.172
1688813892.156,-50.781,-25.391,-25.391,-47.363,13.672
1688813892.158,114.258,-19.043,-26.855,-91.797,-58.594
1688813892.162,90.820,-14.648,-24.902,-66.406,-57.129
1688813892.166,-57.129,-18.555,-31.738,-13.184,55.664
1688813892.170,-226.562,-21.973,-38.086,29.785,134.766
1688813892.174,-73.242,-16.602,-31.250,-25.879,-4.883
1688813892.178,115.723,-14.648,-29.785,-79.590,-54.688
1688813892.182,97.168,-19.531,-33.203,-56.152,-62.012
1688813892.185,-38.574,-29.785,-34.180,-3.418,149.414
1688813892.189,-233.398,-34.180,-38.086,43.945,396.484
1688813892.193,-121.094,-30.762,-44.922,-24.902,104.980
1688813892.197,99.121,-34.180,-47.852,-88.867,-89.844
1688813892.201,95.703,-38.086,-52.734,-64.453,58.105
1688813892.202,-21.484,-30.762,-53.711,-23.438,123.535
1688813892.206,-205.566,-23.438,-50.293,38.574,111.816
1688813892.210,-131.836,-24.902,-47.852,7.324,74.219
1688813892.214,90.820,-22.949,-41.504,-62.500,74.219
1688813892.218,105.469,-21.973,-40.527,-61.035,50.781
1688813892.222,-0.488,-26.855,-40.039,-27.344,12.207
1688813892.226,-193.359,-35.645,-39.062,40.527,170.410
1688813892.229,-164.062,-39.551,-39.551,26.367,386.230
1688813892.233,66.406,-31.738,-39.062,-54.688,207.520
1688813892.237,116.699,-35.645,-45.410,-71.777,-99.609
1688813892.241,32.715,-41.504,-47.363,-33.203,44.922
1688813892.245,-167.480,-37.109,-45.410,37.598,226.562
1688813892.247,-185.547,-36.621,-46.387,13.184,70.312
1688813892.251,38.086,-41.504,-48.828,-69.336,-54.688
1688813892.255,109.375,-42.480,-48.340,-70.801,-63.477
1688813892.259,37.109,-47.363,-47.363,-44.434,-110.840
1688813892.263,-160.156,-50.293,-48.828,8.301,10.254
1688813892.267,-221.680,-46.387,-42.969,6.348,195.312
1688813892.271,11.719,-41.016,-31.250,-59.570,254.395
1688813892.274,119.629,-33.691,-31.250,-55.664,166.504
1688813892.278,55.176,-32.227,-41.504,-45.898,-36.621
1688813892.282,-125.488,-37.109,-44.922,7.324,-16.113
1688813892.286,-217.773,-41.016,-47.363,48.828,283.203
1688813892.290,-17.090,-41.504,-51.758,-39.062,217.773
1688813892.292,102.051,-41.504,-58.594,-90.332,-59.082
1688813892.296,56.641,-45.410,-61.523,-55.664,-75.684
1688813892.300,-113.770,-46.387,-56.152,11.230,99.121
1688813892.304,-244.629,-46.875,-52.246,31.250,207.031
1688813892.308,-51.270,-45.898,-44.434,-51.758,33.203
1688813892.312,104.492,-41.992,-42.480,-87.891,85.938
1688813892.316,65.918,-43.945,-49.316,-66.406,333.008
1688813892.319,-87.891,-45.898,-49.316,-20.020,133.301
1688813892.323,-249.023,-51.758,-46.387,18.066,-35.645
1688813892.327,-89.355,-54.199,-47.852,-55.664,0.000
1688813892.331,82.031,-51.270,-44.922,-101.074,-34.180
1688813892.335,55.176,-57.617,-46.387,-84.961,-139.160
1688813892.338,-81.543,-58.594,-53.711,-35.156,-47.852
1688813892.342,-254.395,-53.711,-49.316,26.367,241.699
1688813892.346,-119.141,-48.340,-37.598,-29.785,143.555
1688813892.350,80.566,-43.945,-34.180,-89.844,-43.457
1688813892.354,73.730,-45.410,-40.039,-72.266,-58.594
1688813892.358,-57.617,-48.828,-46.875,-16.602,99.121
1688813892.362,-243.164,-47.852,-49.316,42.969,295.410
1688813892.365,-131.348,-39.551,-49.316,-11.230,122.559
1688813892.369,85.938,-35.645,-48.340,-78.613,-122.559
1688813892.373,94.727,-41.504,-42.969,-54.688,69.336
1688813892.377,-24.414,-45.898,-41.016,-7.812,209.961
1688813892.381,-221.680,-51.270,-45.410,42.480,71.289
1688813892.397,-168.945,-55.664,-51.758,-1.465,96.680
1688813892.401,45.898,-56.152,-57.617,-84.961,137.207
1688813892.405,79.590,-53.711,-51.758,-72.754,143.066
1688813892.409,-16.113,-54.199,-45.898,-43.457,48.340
1688813892.413,-212.402,-58.105,-51.758,11.719,81.543
1688813892.417,-203.125,-57.617,-51.758,0.977,244.629
1688813892.421,22.949,-53.223,-41.992,-80.566,90.332
1688813892.424,87.891,-46.875,-37.109,-87.402,-124.512
1688813892.428,11.230,-44.922,-34.668,-55.176,-25.391
1688813892.432,-179.688,-49.316,-34.180,13.184,302.246
1688813892.436,-215.820,-48.340,-35.645,3.906,177.734
1688813892.440,7.324,-50.293,-33.691,-80.078,-42.969
1688813892.442,87.402,-53.711,-27.832,-80.566,2.441
1688813892.446,21.973,-52.734,-28.809,-51.758,-40.527
1688813892.450,-160.156,-49.316,-30.273,6.836,-14.160
1688813892.454,-237.793,-44.434,-26.367,21.484,72.266
1688813892.458,-18.555,-42.969,-32.227,-62.500,69.824
1688813892.462,83.984,-44.922,-34.668,-83.496,76.172
1688813892.466,31.250,-48.340,-33.203,-46.875,140.137
1688813892.469,-135.742,-50.781,-37.598,5.371,84.473
1688813892.473,-250.488,-53.711,-43.945,22.461,229.980
1688813892.477,-47.363,-45.410,-41.992,-46.875,309.570
1688813892.481,90.332,-37.598,-38.574,-84.473,-40.527
1688813892.485,55.664,-40.039,-41.992,-65.430,-25.879
1688813892.487,-106.445,-41.016,-47.363,-9.277,225.098
1688813892.491,-254.883,-37.109,-46.875,22.461,180.664
1688813892.495,-71.777,-38.086,-46.387,-54.199,29.785
1688813892.499,88.867,-44.922,-46.875,-101.562,-40.039
1688813892.503,49.316,-51.270,-52.734,-92.285,-43.457
1688813892.507,-102.051,-60.547,-63.477,-46.875,-2.930
1688813892.511,-262.207,-60.059,-67.383,-2.441,97.656
1688813892.514,-96.680,-51.270,-58.594,-56.641,184.082
1688813892.518,87.891,-50.293,-54.688,-100.098,381.836
1688813892.522,57.617,-45.898,-50.293,-94.238,214.844
1688813892.526,-63.965,-45.898,-41.992,-56.641,-89.355
1688813892.530,-233.887,-47.852,-41.504,0.000,54.688
1688813892.532,-117.676,-44.434,-37.598,-50.781,12.207
1688813892.536,79.102,-45.898,-35.645,-122.559,-66.406
1688813892.540,70.801,-47.363,-34.180,-112.305,8.301
1688813892.544,-38.086,-44.922,-28.320,-55.664,62.988
1688813892.548,-219.727,-40.039,-24.414,11.230,91.309
1688813892.552,-151.855,-46.387,-28.809,-34.180,133.301
1688813892.556,62.988,-52.246,-34.668,-115.234,75.684
1688813892.559,87.402,-51.270,-32.227,-101.562,165.527
1688813892.563,-17.090,-45.898,-30.273,-62.500,241.211
1688813892.567,-212.402,-40.039,-30.273,-6.348,11.230
1688813892.571,-187.012,-41.504,-36.621,-27.832,36.133
1688813892.575,38.086,-43.945,-40.039,-110.352,133.301
1688813892.577,77.148,-45.410,-41.504,-118.652,69.824
1688813892.581,-23.438,-49.805,-49.316,-90.332,-76.172
1688813892.585,-211.914,-50.293,-48.340,-21.973,12.695
1688813892.589,-212.891,-44.434,-39.062,-17.090,182.617
1688813892.593,5.859,-43.945,-40.527,-105.957,57.617
1688813892.597,67.871,-49.805,-45.898,-111.328,-47.852
1688813892.601,-3.906,-56.641,-46.875,-71.777,85.938
1688813892.604,-187.500,-60.059,-50.293,-15.137,330.566
1688813892.608,-242.188,-61.035,-52.246,-20.020,195.801
1688813892.612,-13.184,-56.641,-48.828,-103.027,-81.543
1688813892.616,85.938,-49.316,-45.898,-116.211,-69.824
1688813892.620,23.926,-44.434,-41.992,-84.961,-28.320
1688813892.623,-154.785,-44.434,-36.621,-25.879,43.945
1688813892.627,-250.488,-44.922,-34.668,-13.672,25.879
1688813892.631,-38.086,-45.410,-39.551,-86.426,44.434
1688813892.635,87.891,-40.039,-45.410,-111.816,52.734
1688813892.639,41.016,-38.574,-50.293,-90.820,-85.449
1688813892.643,-136.230,-39.062,-50.781,-30.762,1.953
1688813892.647,-264.160,-39.062,-51.270,11.230,270.508
1688813892.650,-74.707,-43.945,-56.152,-65.918,154.785
1688813892.654,67.871,-43.457,-58.105,-114.258,-17.578
1688813892.658,37.598,-38.086,-55.176,-93.750,-85.938
1688813892.662,-110.840,-40.527,-41.504,-32.715,135.742
1688813892.666,-263.184,-44.922,-33.203,18.066,239.258
1688813892.669,-98.145,-41.504,-43.945,-62.500,-61.035
1688813892.673,76.660,-37.598,-51.758,-111.328,-71.777
1688813892.677,54.199,-38.086,-50.781,-75.195,218.750
1688813892.681,-82.520,-34.180,-49.805,-32.715,205.566
1688813892.685,-249.512,-32.715,-52.734,14.160,42.969
1688813892.689,-112.793,-36.133,-60.547,-48.340,147.461
1688813892.693,85.938,-39.062,-62.988,-106.934,349.121
1688813892.696,83.008,-32.715,-61.035,-82.520,200.684
1688813892.700,-39.062,-32.715,-63.965,-34.180,-38.086
1688813892.704,-229.980,-41.992,-70.312,22.949,97.168
1688813892.708,-138.672,-43.457,-66.895,-29.297,84.961
1688813892.712,69.824,-43.457,-55.176,-97.168,-84.961
1688813892.727,77.637,-47.852,-50.293,-87.402,-90.332
1688813892.731,-25.391,-44.922,-47.852,-48.828,-10.254
1688813892.735,-220.215,-42.480,-44.922,3.906,72.754
1688813892.739,-172.363,-42.480,-47.852,-32.227,56.152
1688813892.743,49.805,-39.062,-50.293,-99.609,1.953
1688813892.747,81.543,-39.062,-52.246,-89.355,221.191
1688813892.751,-16.113,-40.039,-54.688,-62.988,330.566
1688813892.754,-208.984,-39.062,-52.246,-10.742,182.617
1688813892.758,-199.219,-41.504,-47.852,-33.203,80.566
1688813892.762,17.090,-47.852,-52.246,-109.863,166.992
1688813892.766,74.707,-43.945,-54.688,-109.375,133.301
1688813892.770,0.488,-33.203,-49.805,-86.426,-46.387
1688813892.772,-194.336,-36.133,-47.852,-25.879,83.984
1688813892.776,-217.773,-33.203,-47.363,-17.578,223.145
1688813892.780,12.207,-23.926,-47.852,-96.191,104.980
1688813892.784,89.844,-26.367,-48.340,-116.699,-20.996
1688813892.788,26.367,-30.273,-41.504,-89.844,75.684
1688813892.792,-147.461,-29.297,-36.621,-21.484,142.090
1688813892.796,-212.402,-23.926,-37.109,-2.930,187.500
1688813892.799,-1.465,-18.555,-41.016,-97.168,150.391
1688813892.803,95.215,-25.391,-49.805,-113.281,73.730
1688813892.807,44.434,-29.785,-57.129,-62.012,332.520
1688813892.811,-118.652,-23.438,-63.477,-15.625,293.457
1688813892.815,-227.539,-32.227,-62.012,-6.836,16.113
1688813892.817,-25.391,-40.039,-57.617,-78.125,26.367
1688813892.821,102.051,-36.621,-56.152,-105.469,30.762
1688813892.825,56.641,-37.598,-52.734,-82.520,-23.926
1688813892.829,-101.074,-42.480,-55.176,-26.367,-0.488
1688813892.833,-250.488,-47.363,-56.641,18.555,118.164
1688813892.837,-71.777,-42.969,-55.664,-53.223,157.715
1688813892.841,91.797,-35.156,-51.758,-102.051,66.406
1688813892.844,57.129,-32.227,-48.340,-80.566,-95.703
1688813892.848,-92.285,-38.574,-47.363,-20.508,151.367
1688813892.852,-258.301,-35.645,-46.875,29.785,446.289
1688813892.856,-108.398,-28.809,-42.480,-40.527,125.488
1688813892.860,81.543,-29.785,-37.598,-83.984,-30.273
1688813892.862,65.430,-29.785,-35.156,-45.410,191.895
1688813892.866,-63.477,-31.738,-32.715,-4.883,179.199
1688813892.870,-236.328,-27.344,-24.902,36.621,-2.930
1688813892.874,-128.418,-24.414,-26.855,-11.719,18.066
1688813892.878,67.383,-29.297,-36.621,-79.590,-63.965
1688813892.882,62.012,-31.250,-38.086,-64.941,8.301
1688813892.886,-47.852,-31.738,-33.691,-25.391,83.496
1688813892.889,-239.746,-38.086,-32.227,30.762,137.695
1688813892.893,-170.898,-41.992,-28.320,-3.418,279.785
1688813892.897,54.688,-36.133,-28.320,-80.566,19.043
1688813892.901,67.383,-37.109,-31.250,-72.266,-108.887
1688813892.905,-27.344,-42.480,-30.273,-25.879,67.383
1688813892.908,-203.613,-42.480,-26.367,33.203,141.602
1688813892.912,-172.363,-42.969,-26.367,3.418,51.270
1688813892.916,57.617,-39.062,-32.715,-68.848,-9.277
1688813892.920,105.469,-37.598,-41.016,-63.477,-23.438
1688813892.924,8.789,-41.016,-46.387,-40.527,-46.875
1688813892.928,-186.523,-41.504,-42.969,15.625,75.195
1688813892.932,-191.895,-42.969,-40.527,7.324,111.816
1688813892.935,28.809,-44.922,-45.898,-74.707,198.730
1688813892.939,87.402,-48.340,-47.363,-75.195,247.070
1688813892.943,13.184,-48.828,-43.945,-50.293,25.391
1688813892.947,-169.434,-45.410,-40.527,11.230,36.621
1688813892.951,-208.008,-43.945,-41.016,25.391,238.281
1688813892.954,15.625,-39.062,-43.945,-57.617,106.934
1688813892.958,102.539,-36.621,-46.875,-79.102,-91.797
1688813892.962,50.781,-32.715,-48.340,-46.875,-53.223
1688813892.966,-130.859,-31.250,-49.316,14.648,219.727
1688813892.970,-223.145,-25.879,-53.223,28.320,215.332
1688813892.974,-8.301,-19.043,-58.594,-55.664,1.465
1688813892.978,109.863,-21.973,-61.523,-79.590,82.520
1688813892.981,57.129,-22.461,-59.570,-53.711,200.195
1688813892.985,-105.957,-19.043,-51.270,-3.906,119.141
1688813892.989,-219.727,-19.043,-49.316,23.438,87.891
1688813892.993,-28.320,-21.973,-46.875,-49.805,181.152
1688813892.997,112.793,-17.578,-35.156,-81.543,199.707
1688813892.997,74.707,-16.113,-29.785,-66.895,-17.578
1688813893.001,-74.219,-21.484,-27.344,-17.578,-34.668
1688813893.005,-227.051,-20.996,-25.879,23.926,184.570
1688813893.009,-71.289,-21.484,-23.438,-45.898,99.121
1688813893.013,103.516,-18.555,-24.902,-89.355,13.184
1688813893.017,82.031,-14.160,-27.344,-73.242,50.293
1688813893.021,-54.688,-16.602,-21.973,-11.230,268.555
1688813893.024,-215.820,-21.484,-22.461,55.176,510.254
1688813893.028,-76.660,-22.949,-21.484,-20.020,143.066
1688813893.032,117.676,-22.949,-22.949,-84.961,-67.383
1688813893.036,89.355,-22.949,-33.203,-63.477,12.207
1688813893.040,-41.504,-25.879,-32.715,-19.531,57.129
1688813893.042,-208.984,-30.273,-26.855,37.109,153.320
1688813893.046,-108.398,-27.832,-21.973,-7.324,55.176
1688813893.050,97.656,-26.367,-22.461,-76.660,37.598
1688813893.054,105.957,-23.438,-17.090,-71.777,32.227
1688813893.058,-3.906,-19.043,-5.859,-33.691,-70.801
1688813893.062,-181.641,-23.438,-5.859,26.855,151.855
1688813893.066,-118.164,-25.391,-16.113,-11.719,383.789
1688813893.069,81.543,-25.879,-20.996,-90.332,181.641
1688813893.073,103.516,-23.438,-19.043,-81.543,-62.500
1688813893.077,5.859,-24.414,-22.949,-37.598,34.668
1688813893.081,-186.035,-29.785,-33.203,31.250,253.906
1688813893.085,-180.664,-24.902,-39.551,0.488,72.754
1688813893.102,41.016,-23.438,-41.992,-84.473,-90.332
1688813893.106,93.262,-24.414,-44.434,-85.938,-7.812
1688813893.110,14.648,-19.043,-43.945,-60.547,-34.668
1688813893.114,-173.828,-20.020,-41.992,3.418,-68.359
1688813893.118,-204.590,-23.926,-41.992,-3.418,89.355
1688813893.122,16.602,-30.762,-48.340,-99.609,90.820
1688813893.126,94.238,-38.574,-45.898,-109.863,24.902
1688813893.129,20.020,-39.551,-39.551,-61.035,4.395
1688813893.133,-167.480,-41.016,-38.574,-3.906,5.371
1688813893.137,-225.098,-40.527,-41.504,13.184,296.875
1688813893.141,-3.418,-38.086,-47.363,-52.734,250.000
1688813893.145,100.098,-41.016,-49.316,-89.355,28.320
1688813893.148,43.945,-47.363,-46.875,-70.312,8.301
1688813893.152,-128.418,-51.758,-43.457,-8.789,97.656
1688813893.156,-233.398,-52.734,-39.551,7.812,187.988
1688813893.160,-28.320,-49.316,-39.551,-71.289,-58.594
1688813893.164,102.051,-50.293,-41.504,-101.562,-41.992
1688813893.168,44.922,-59.082,-43.945,-83.008,165.527
1688813893.172,-108.398,-60.059,-43.945,-25.879,166.992
1688813893.175,-233.398,-54.688,-42.480,6.836,67.871
1688813893.179,-64.453,-57.617,-46.875,-66.406,85.449
1688813893.183,98.633,-59.570,-46.875,-97.168,188.477
1688813893.187,67.383,-57.617,-43.945,-76.172,6.836
1688813893.191,-80.078,-56.152,-50.293,-31.738,-76.660
1688813893.192,-244.629,-50.293,-59.082,19.531,116.699
1688813893.196,-103.027,-47.363,-59.570,-44.922,101.562
1688813893.200,82.520,-49.316,-62.988,-102.051,-64.453
1688813893.204,70.801,-58.594,-64.453,-83.984,-106.445
1688813893.208,-68.848,-63.477,-64.941,-54.199,-27.832
1688813893.212,-256.836,-59.570,-62.012,2.441,190.918
1688813893.216,-136.719,-56.152,-49.805,-33.691,193.359
1688813893.219,72.754,-56.641,-47.363,-102.539,-57.617
1688813893.223,81.543,-55.664,-49.805,-83.008,50.781
1688813893.227,-35.645,-50.293,-52.734,-36.621,205.078
1688813893.231,-241.211,-48.340,-50.781,19.043,14.648
1688813893.235,-167.969,-50.781,-49.316,-20.020,-17.578
1688813893.238,56.152,-46.875,-56.641,-93.262,57.129
1688813893.242,78.613,-44.922,-62.500,-78.613,41.504
1688813893.246,-21.484,-48.828,-63.965,-43.945,-98.145
1688813893.250,-216.309,-47.852,-67.383,21.484,-71.289
1688813893.254,-172.363,-45.898,-64.941,1.465,113.281
1688813893.258,53.223,-46.875,-58.105,-89.844,63.965
1688813893.262,74.707,-49.805,-60.059,-91.309,-88.867
1688813893.265,-7.324,-50.293,-60.059,-56.152,-2.441
1688813893.269,-203.125,-50.293,-50.293,5.859,161.621
1688813893.273,-217.285,-46.387,-41.992,-7.324,52.246
1688813893.277,26.855,-44.922,-46.387,-104.004,-97.656
1688813893.281,93.750,-49.805,-51.758,-111.816,7.812
1688813893.297,18.066,-45.898,-57.617,-68.848,187.988
1688813893.301,-170.898,-43.457,-63.965,-13.672,129.883
1688813893.305,-228.027,-46.387,-63.965,-18.066,114.746
1688813893.309,3.906,-43.945,-63.477,-99.121,59.570
1688813893.313,96.680,-41.992,-62.500,-118.652,-22.949
1688813893.317,43.457,-40.039,-57.617,-87.891,19.043
1688813893.321,-134.277,-47.852,-61.035,-18.555,110.840
1688813893.324,-235.840,-52.734,-64.941,16.602,328.125
1688813893.328,-23.438,-51.758,-62.988,-63.477,377.930
1688813893.332,93.262,-53.711,-65.918,-118.164,63.965
1688813893.336,42.480,-56.641,-66.895,-93.262,-70.312
1688813893.340,-121.094,-57.617,-66.895,-23.438,98.633
1688813893.327,-249.023,-58.105,-62.988,13.672,177.246
1688813893.331,-50.293,-54.688,-58.105,-72.266,48.828
1688813893.335,104.980,-49.316,-57.617,-113.770,33.203
1688813893.339,70.801,-51.758,-51.758,-73.242,99.609
1688813893.343,-80.078,-50.781,-47.852,-7.812,59.082
1688813893.347,-238.281,-50.293,-54.688,29.785,79.102
1688813893.351,-84.473,-56.641,-60.547,-56.641,163.086
1688813893.354,84.473,-57.617,-55.176,-113.281,125.000
1688813893.358,62.012,-56.641,-49.805,-97.656,0.488
1688813893.362,-73.242,-56.641,-52.734,-51.270,10.742
1688813893.366,-247.559,-55.664,-52.734,11.230,192.871
1688813893.370,-111.816,-49.805,-46.387,-38.574,402.344
1688813893.372,88.867,-45.898,-54.688,-104.492,103.516
1688813893.376,72.754,-50.293,-69.336,-92.285,-148.926
1688813893.380,-63.965,-54.199,-71.289,-55.664,38.574
1688813893.384,-258.301,-53.223,-68.359,5.371,102.539
1688813893.388,-159.668,-53.223,-66.406,-40.039,25.879
1688813893.392,55.176,-58.594,-67.871,-115.723,82.031
1688813893.396,60.547,-58.105,-64.453,-93.262,300.293
1688813893.399,-40.527,-49.316,-47.363,-52.734,331.055
1688813893.403,-232.910,-43.945,-34.668,8.301,143.555
1688813893.407,-176.270,-43.457,-28.320,-27.832,46.387
1688813893.411,52.734,-45.898,-31.738,-107.910,20.020
1688813893.415,73.730,-45.898,-38.086,-103.516,41.992
1688813893.432,-19.043,-47.363,-36.621,-68.359,-50.293
1688813893.436,-208.984,-48.828,-41.016,0.000,-4.883
1688813893.440,-202.148,-52.246,-43.457,-14.648,131.348
1688813893.444,35.645,-49.805,-36.133,-93.750,-17.090
1688813893.448,98.145,-41.992,-35.645,-94.238,-126.465
1688813893.452,17.578,-45.898,-41.504,-59.082,54.688
1688813893.456,-169.434,-49.316,-35.645,-4.395,256.836
1688813893.459,-203.613,-42.969,-33.691,-18.066,131.836
1688813893.463,27.344,-33.691,-29.297,-99.609,-65.430
1688813893.467,105.957,-32.715,-24.902,-103.027,-20.020
1688813893.471,33.203,-40.527,-29.785,-82.031,114.746
1688813893.475,-152.344,-41.016,-25.879,-36.133,71.777
1688813893.493,-218.750,-35.645,-21.484,-13.184,12.207
1688813893.497,9.766,-31.738,-28.320,-83.008,70.312
1688813893.501,114.258,-30.762,-34.668,-109.375,21.973
1688813893.505,57.617,-28.809,-34.180,-91.797,-129.395
1688813893.509,-108.398,-33.203,-36.133,-25.879,-47.363
1688813893.513,-220.215,-37.598,-39.062,7.324,116.699
1688813893.517,-19.531,-32.715,-37.598,-74.707,148.438
1688813893.520,117.676,-35.156,-38.574,-101.074,17.090
1688813893.524,72.754,-31.250,-38.086,-74.219,-72.266
1688813893.528,-83.496,-19.531,-30.762,-15.625,199.707
1688813893.532,-214.844,-16.602,-26.367,29.785,356.445
1688813893.536,-34.180,-21.484,-25.391,-51.270,91.797
1688813893.522,125.977,-23.438,-25.391,-102.539,-11.719
1688813893.526,100.098,-23.926,-22.461,-65.430,183.594
1688813893.530,-43.457,-26.855,-21.973,-5.859,193.848
1688813893.534,-212.402,-33.203,-31.250,27.344,0.000
1688813893.538,-62.500,-38.086,-30.273,-34.180,43.457
1688813893.542,122.559,-36.133,-26.855,-87.402,52.734
1688813893.546,100.586,-34.180,-33.203,-76.172,-10.254
1688813893.549,-27.832,-32.715,-32.715,-28.809,-34.668
1688813893.553,-201.660,-32.715,-35.156,34.180,96.680
1688813893.557,-88.867,-33.203,-36.133,-20.020,139.648
1688813893.561,112.305,-33.691,-38.086,-94.238,-8.789
1688813893.565,109.863,-34.180,-41.992,-80.078,-55.664
1688813893.568,-3.418,-35.645,-32.715,-18.555,104.980
1688813893.572,-191.895,-34.180,-29.297,50.781,343.262
1688813893.576,-125.000,-35.645,-34.180,-9.766,151.855
1688813893.580,82.031,-39.551,-35.645,-83.984,-3.906
1688813893.584,94.238,-34.180,-36.621,-62.500,145.020
1688813893.588,-5.859,-34.668,-35.156,-20.508,175.293
1688813893.592,-198.242,-38.086,-32.715,47.363,183.594
1688813893.595,-159.668,-34.668,-35.156,20.508,82.031
1688813893.599,68.848,-37.109,-37.598,-58.105,71.777
1688813893.603,106.934,-34.668,-38.086,-55.176,103.516
1688813893.607,24.902,-27.832,-41.992,-25.879,-0.977
1688813893.611,-162.109,-31.250,-41.992,38.574,159.668
1688813893.612,-171.875,-36.621,-39.062,29.297,370.117
1688813893.616,50.781,-36.621,-40.039,-58.594,247.559
1688813893.620,107.910,-36.133,-38.574,-73.242,-37.109
1688813893.624,33.691,-42.480,-40.039,-46.875,-77.148
1688813893.628,-163.086,-46.387,-41.992,21.973,52.734
1688813893.632,-208.008,-43.945,-40.527,25.879,89.355
1688813893.636,28.320,-41.016,-46.875,-67.871,16.113
1688813893.639,117.676,-43.945,-53.223,-80.566,95.703
1688813893.643,45.410,-51.270,-55.176,-45.410,333.008
1688813893.647,-143.066,-50.293,-59.570,2.930,260.742
1688813893.651,-226.562,-47.363,-62.012,18.066,-34.180
1688813893.655,-7.324,-39.062,-56.152,-46.875,-53.711
1688813893.657,115.723,-28.809,-50.293,-64.453,-103.516
1688813893.661,70.312,-25.391,-47.363,-36.133,-88.867
1688813893.665,-100.586,-32.227,-44.922,29.297,52.246
1688813893.669,-228.516,-30.762,-38.086,74.219,147.949
1688813893.673,-22.461,-18.555,-31.250,-5.371,93.750
1688813893.677,128.418,-18.066,-35.645,-55.176,54.688
1688813893.681,87.891,-21.484,-36.621,-33.691,55.176
1688813893.684,-73.730,-30.762,-30.762,21.973,232.910
1688813893.688,-242.188,-30.273,-30.273,64.453,440.430
1688813893.692,-74.707,-22.949,-30.273,-20.020,138.672
1688813893.696,108.398,-28.320,-25.391,-77.637,-62.988
1688813893.700,78.613,-34.180,-29.785,-59.082,17.090
1688813893.702,-63.477,-35.156,-34.668,-8.789,45.410
1688813893.706,-238.281,-30.273,-32.715,51.270,25.391
1688813893.710,-95.703,-24.902,-33.203,-1.953,31.250
1688813893.714,115.234,-22.949,-30.762,-62.012,56.641
1688813893.718,107.422,-26.367,-28.320,-42.480,22.461
1688813893.722,-23.438,-32.715,-31.250,-2.930,81.055
1688813893.726,-220.703,-34.180,-30.762,51.270,284.668
1688813893.729,-121.094,-29.297,-22.949,17.090,310.059
1688813893.733,101.562,-21.973,-20.508,-57.617,97.656
1688813893.737,109.375,-26.855,-28.320,-59.570,-86.426
1688813893.741,7.324,-31.250,-26.855,-14.160,74.707
1688813893.745,-198.242,-24.902,-24.902,51.758,245.117
1688813893.747,-169.922,-25.391,-34.668,14.160,80.078
1688813893.751,68.359,-26.367,-40.527,-71.777,-13.184
1688813893.755,106.445,-27.344,-41.016,-73.730,-46.387
1688813893.759,5.371,-36.133,-45.410,-41.504,-43.457
1688813893.763,-201.660,-40.039,-49.316,31.738,71.289
1688813893.767,-207.031,-37.109,-46.875,18.066,127.441
1688813893.771,36.133,-36.621,-47.363,-73.242,266.602
1688813893.774,110.352,-36.133,-44.922,-81.055,233.398
1688813893.778,33.691,-36.133,-44.434,-58.105,-91.797
1688813893.782,-171.875,-38.574,-44.434,15.625,51.270
1688813893.786,-223.145,-38.574,-41.016,21.973,151.855
1688813893.790,13.672,-40.039,-45.410,-74.707,-19.043
1688813893.793,111.328,-34.180,-48.828,-95.703,-33.203
1688813893.797,47.363,-31.738,-48.340,-68.359,-23.438
1688813893.801,-150.391,-40.527,-51.758,10.254,212.402
1688813893.805,-241.699,-39.062,-55.176,34.668,281.250
1688813893.809,-7.812,-37.109,-62.500,-70.312,-37.109
1688813893.813,127.441,-34.668,-60.547,-104.004,71.289
1688813893.817,77.148,-29.297,-55.664,-72.266,245.605
1688813893.820,-110.840,-29.297,-59.082,-14.160,100.586
1688813893.824,-241.211,-28.320,-57.617,23.438,9.277
1688813893.828,-26.367,-22.461,-56.641,-47.852,88.379
1688813893.832,136.719,-16.602,-59.570,-85.938,105.469
1688813893.836,104.980,-11.719,-58.594,-65.430,-51.270
1688813893.852,-74.707,-14.648,-51.758,-4.395,-103.027
1688813893.856,-229.980,-20.996,-47.363,42.969,51.270
1688813893.860,-35.156,-24.902,-47.363,-35.156,107.422
1688813893.864,128.418,-28.809,-50.781,-82.031,8.789
1688813893.868,91.309,-32.227,-52.246,-70.312,-125.000
1688813893.872,-60.547,-35.645,-44.922,-14.648,182.617
1688813893.876,-246.582,-38.086,-26.855,53.223,498.047
1688813893.879,-108.398,-41.504,-26.367,-23.438,107.422
1688813893.883,93.750,-43.457,-33.203,-101.562,-108.398
1688813893.887,87.402,-43.945,-28.809,-83.984,42.969
1688813893.891,-57.617,-44.434,-32.715,-41.016,47.852
1688813893.895,-260.254,-50.781,-43.945,17.090,61.523
1688813893.897,-150.879,-51.270,-49.316,-32.227,45.898
1688813893.901,65.918,-42.480,-48.340,-104.980,45.898
1688813893.905,74.219,-41.016,-46.387,-92.285,43.457
1688813893.909,-47.852,-46.387,-48.340,-52.246,-67.383
1688813893.913,-257.324,-47.363,-47.852,28.320,110.840
1688813893.917,-177.246,-41.504,-45.410,-2.441,310.547
1688813893.921,67.383,-34.180,-41.504,-82.031,150.391
1688813893.924,97.656,-33.691,-45.410,-76.172,36.621
1688813893.928,-1.953,-37.109,-49.316,-44.922,79.102
1688813893.932,-211.426,-41.016,-46.875,37.598,388.672
1688813893.936,-182.129,-40.527,-42.969,16.602,335.449
1688813893.940,65.430,-38.086,-44.922,-73.730,-82.520
1688813893.943,115.723,-37.598,-43.457,-68.848,-51.270
1688813893.947,35.645,-32.227,-31.738,-37.109,38.574
1688813893.951,-169.434,-27.832,-27.344,32.715,78.125
1688813893.955,-191.895,-26.855,-22.461,35.645,93.750
1688813893.959,55.664,-27.344,-19.531,-54.199,83.008
1688813893.963,120.605,-29.785,-26.367,-65.918,117.676
1688813893.967,41.016,-32.227,-35.156,-35.645,53.711
1688813893.970,-152.832,-36.621,-36.621,25.391,148.926
1688813893.974,-217.773,-40.527,-39.551,44.434,313.965
1688813893.978,23.438,-35.645,-44.434,-43.945,267.090
1688813893.982,128.418,-32.715,-44.922,-86.426,-3.906
1688813893.986,66.406,-34.180,-38.574,-59.570,-65.918
1688813893.987,-128.906,-32.715,-43.457,9.277,187.500
1688813893.991,-234.375,-28.320,-43.457,26.855,166.016
1688813893.995,-7.812,-24.902,-34.180,-56.641,-51.270
1688813893.999,121.582,-27.832,-37.109,-87.402,-55.664
1688813894.003,68.848,-32.227,-41.992,-63.965,-23.926
1688813894.007,-101.562,-32.715,-41.504,4.883,58.105
1688813894.011,-236.328,-34.668,-45.898,42.480,180.176
1688813894.014,-41.992,-35.645,-46.875,-44.434,178.711
1688813894.018,116.211,-32.715,-44.434,-82.520,229.004
1688813894.022,79.590,-31.738,-47.363,-69.824,142.090
1688813894.026,-79.590,-32.715,-50.293,-22.949,-1.465
1688813894.030,-247.559,-38.086,-54.688,25.391,159.668
1688813894.032,-87.402,-41.992,-61.523,-46.387,202.148
1688813894.036,84.961,-43.457,-61.523,-101.562,-82.520
1688813894.040,65.430,-46.387,-56.152,-74.707,-94.727
1688813894.044,-69.336,-41.016,-52.734,-21.484,32.227
1688813894.048,-255.371,-40.527,-47.363,25.879,82.520
1688813894.052,-118.164,-44.434,-41.992,-37.598,75.684
1688813894.056,94.727,-40.039,-43.457,-94.238,39.551
1688813894.059,93.262,-40.039,-46.875,-68.848,189.941
1688813894.063,-32.227,-38.574,-46.387,-18.555,251.465
1688813894.067,-227.051,-37.109,-53.223,33.203,18.066
1688813894.071,-135.742,-41.016,-53.711,-25.391,-5.859
1688813894.075,74.219,-43.945,-52.246,-80.566,47.363
1688813894.078,78.613,-44.922,-56.152,-66.895,37.109
1688813894.082,-31.738,-43.457,-48.340,-40.039,-27.832
1688813894.086,-221.191,-39.551,-36.133,34.668,45.410
1688813894.090,-159.180,-34.668,-31.738,10.254,233.398
1688813894.094,71.777,-34.668,-31.250,-66.406,77.637
1688813894.098,106.445,-38.086,-32.715,-65.430,0.000
1688813894.102,9.277,-37.109,-29.297,-32.227,110.840
1688813894.105,-187.500,-37.109,-20.996,54.199,305.664
1688813894.109,-166.016,-32.227,-28.809,33.691,198.242
1688813894.113,73.730,-22.949,-35.645,-53.223,-72.266
1688813894.117,118.652,-18.066,-31.738,-45.898,-45.898
1688813894.121,36.133,-19.531,-30.762,-26.855,49.805
1688813894.124,-159.668,-21.484,-32.715,35.156,71.777
1688813894.128,-193.359,-21.973,-32.227,30.273,20.996
1688813894.132,41.016,-20.508,-33.203,-58.594,68.848
1688813894.136,124.023,-19.043,-31.738,-64.941,36.621
1688813894.140,42.480,-20.996,-38.086,-34.180,-18.555
1688813894.144,-148.926,-27.344,-46.387,25.879,119.629
1688813894.148,-204.102,-27.344,-42.480,34.668,324.707
1688813894.151,7.324,-25.879,-40.527,-51.270,370.117
1688813894.155,110.840,-22.461,-34.668,-69.336,49.316
1688813894.159,62.988,-20.020,-27.832,-36.621,-39.062
1688813894.163,-113.281,-25.879,-33.203,19.531,99.609
1688813894.167,-223.145,-29.297,-33.691,44.922,206.543
1688813894.167,-20.020,-29.297,-28.809,-42.969,84.473
1688813894.171,115.723,-25.879,-28.809,-78.125,-123.535
1688813894.175,73.242,-27.832,-39.062,-49.316,40.527
1688813894.179,-92.285,-33.203,-44.922,-0.977,98.633
1688813894.183,-231.934,-35.156,-42.480,28.809,79.102
1688813894.187,-48.340,-33.691,-39.062,-53.711,125.977
1688813894.191,110.840,-31.250,-38.574,-80.566,291.504
1688813894.194,73.730,-32.715,-42.480,-55.176,167.969
1688813894.198,-80.078,-40.039,-40.527,-20.020,-109.863
1688813894.202,-241.211,-50.781,-41.016,26.367,105.469
1688813894.206,-87.402,-48.828,-43.457,-45.898,147.949
1688813894.210,94.727,-46.387,-40.039,-99.609,-74.219
1688813894.227,70.801,-48.828,-45.898,-70.312,-76.660
1688813894.231,-63.477,-53.223,-53.223,-24.902,33.203
1688813894.235,-239.746,-53.223,-50.293,31.738,122.070
1688813894.239,-129.883,-53.711,-47.852,-26.855,83.496
1688813894.243,75.684,-54.688,-52.734,-98.633,-114.746
1688813894.247,77.148,-49.316,-50.293,-76.172,-101.074
1688813894.251,-43.945,-48.828,-42.969,-27.344,51.758
1688813894.254,-229.004,-47.852,-44.922,29.297,187.988
1688813894.258,-149.414,-48.828,-50.293,-21.973,82.520
1688813894.262,64.453,-48.340,-45.898,-86.914,145.996
1688813894.266,76.172,-45.898,-41.016,-67.383,250.488
1688813894.270,-25.391,-47.363,-43.945,-40.527,42.969
1688813894.273,-214.355,-42.480,-41.992,16.602,173.340
1688813894.277,-175.293,-34.668,-37.598,1.465,226.074
1688813894.281,52.246,-31.738,-39.551,-78.613,49.316
1688813894.285,87.891,-35.156,-43.457,-87.891,-97.656
1688813894.289,-4.883,-42.480,-46.875,-47.363,-32.227
1688813894.293,-195.801,-42.969,-41.992,16.602,159.180
1688813894.297,-196.777,-41.016,-38.574,-0.488,207.520
1688813894.300,33.691,-35.645,-43.457,-81.543,-15.625
1688813894.304,104.492,-33.203,-39.551,-86.426,-69.336
1688813894.308,31.738,-39.062,-34.180,-47.363,295.898
1688813894.312,-167.969,-36.133,-33.691,10.742,253.906
1688813894.316,-219.238,-32.227,-28.320,4.395,3.906
1688813894.318,9.277,-35.645,-28.320,-70.801,66.895
1688813894.322,108.398,-33.203,-28.320,-82.031,152.344
1688813894.326,48.340,-22.461,-22.949,-59.082,-7.324
1688813894.330,-129.883,-24.902,-20.996,1.465,-32.227
1688813894.334,-219.727,-27.344,-26.367,12.695,143.066
1688813894.338,-19.043,-26.855,-36.621,-63.965,165.039
1688813894.342,95.215,-30.762,-40.527,-88.867,36.133
1688813894.345,48.340,-35.645,-39.551,-70.312,-109.375
1688813894.349,-117.676,-36.621,-31.738,-2.441,142.090
1688813894.353,-250.000,-28.320,-20.508,33.203,306.152
1688813894.357,-60.547,-30.762,-27.832,-62.988,-42.969
1688813894.361,85.449,-43.457,-41.016,-106.934,-51.758
1688813894.362,48.340,-51.270,-46.875,-77.148,206.543
1688813894.366,-98.145,-46.387,-45.898,-19.043,188.477
1688813894.370,-250.000,-40.527,-47.363,19.043,69.336
1688813894.374,-93.262,-42.969,-52.246,-60.059,63.965
1688813894.378,84.473,-41.504,-45.410,-96.191,51.758
1688813894.382,68.848,-38.086,-39.551,-69.336,1.465
1688813894.386,-67.383,-34.668,-33.691,-24.414,37.109
1688813894.389,-248.047,-35.645,-31.738,24.902,167.969
1688813894.393,-121.094,-42.480,-39.062,-35.156,227.539
1688813894.397,78.613,-41.504,-45.898,-97.656,13.184
1688813894.401,72.754,-39.062,-52.734,-76.172,-150.879
1688813894.405,-45.898,-40.039,-54.688,-18.066,-3.418
1688813894.423,-221.191,-34.180,-49.316,41.016,84.961
1688813894.427,-126.465,-34.668,-54.688,-14.648,-9.766
1688813894.431,83.008,-34.668,-67.383,-80.078,21.973
1688813894.435,95.215,-29.785,-65.918,-66.406,88.379
1688813894.439,-15.625,-32.227,-62.500,-35.156,112.305
1688813894.443,-212.402,-38.574,-55.664,24.414,172.852
1688813894.447,-154.785,-37.109,-45.410,-6.348,93.262
1688813894.450,77.148,-33.691,-36.133,-68.848,175.781
1688813894.454,98.633,-38.574,-39.551,-57.617,226.562
1688813894.458,-5.859,-42.969,-47.363,-41.504,1.953
1688813894.462,-199.707,-43.457,-44.434,19.043,6.348
1688813894.466,-184.570,-42.969,-48.828,6.836,137.695
1688813894.452,45.898,-42.969,-52.734,-76.660,96.191
1688813894.456,99.121,-44.434,-54.688,-80.566,-79.590
1688813894.460,17.090,-42.480,-55.176,-49.316,-62.012
1688813894.464,-173.828,-40.039,-43.945,17.578,178.711
1688813894.468,-204.590,-38.574,-30.273,19.531,157.715
1688813894.472,23.926,-38.574,-32.227,-68.359,32.227
1688813894.476,99.121,-42.969,-39.062,-89.355,62.500
1688813894.479,30.273,-41.504,-31.738,-53.711,148.438
1688813894.483,-149.414,-35.645,-25.391,13.184,64.941
1688813894.487,-225.586,-38.086,-29.297,16.602,-37.598
1688813894.491,-9.277,-46.875,-34.668,-62.500,51.758
1688813894.495,93.262,-54.199,-39.551,-73.730,241.699
1688813894.497,40.527,-50.781,-35.645,-45.898,120.117
1688813894.501,-119.629,-45.898,-27.344,15.137,-1.465
1688813894.505,-224.609,-46.387,-28.809,40.039,120.117
1688813894.509,-20.996,-41.504,-33.203,-42.480,37.109
1688813894.513,110.352,-40.527,-35.156,-79.590,-48.340
1688813894.517,58.594,-44.434,-40.039,-57.617,66.406
1688813894.521,-103.027,-46.875,-37.109,8.789,339.844
1688813894.524,-241.699,-43.457,-29.297,43.945,451.172
1688813894.528,-62.988,-41.016,-28.809,-44.434,108.398
1688813894.532,104.004,-46.875,-35.156,-81.543,-2.930
1688813894.536,85.938,-41.016,-34.668,-47.363,63.477
1688813894.540,-55.664,-35.156,-34.180,7.812,76.172
1688813894.542,-225.586,-35.645,-34.180,48.828,34.180
1688813894.546,-74.219,-33.691,-35.156,-19.531,-96.680
1688813894.550,117.676,-32.227,-36.133,-68.359,-23.438
1688813894.554,100.098,-34.180,-41.504,-54.688,-16.113
1688813894.558,-31.250,-33.203,-42.969,-12.695,-74.707
1688813894.562,-212.891,-39.062,-40.527,44.434,136.230
1688813894.566,-104.980,-39.551,-41.016,-6.836,294.434
1688813894.569,92.285,-39.551,-40.039,-75.684,77.148
1688813894.573,87.891,-46.875,-36.621,-65.918,-88.379
1688813894.577,-28.809,-41.992,-30.762,-11.230,135.742
1688813894.581,-217.285,-40.039,-32.715,41.504,277.832
1688813894.585,-139.160,-35.645,-34.180,-11.719,73.730
1688813894.587,85.938,-24.414,-32.715,-76.172,-29.785
1688813894.591,105.957,-25.879,-36.621,-64.941,13.672
1688813894.595,-9.277,-32.227,-41.016,-31.738,48.828
1688813894.599,-211.914,-35.645,-42.480,21.484,90.332
1688813894.603,-173.340,-38.086,-42.480,-3.418,39.551
1688813894.607,56.641,-39.062,-41.504,-72.266,81.543
1688813894.611,104.492,-32.715,-37.109,-55.664,196.289
1688813894.614,15.625,-35.645,-37.598,-26.367,129.883
1688813894.618,-188.965,-46.387,-47.363,15.625,44.922
1688813894.622,-201.660,-51.270,-47.363,3.418,244.141
1688813894.626,32.715,-49.316,-47.363,-81.543,206.055
1688813894.630,104.492,-42.480,-47.363,-88.867,-30.273
1688813894.647,35.156,-37.109,-39.551,-43.457,1.465
1688813894.651,-161.133,-41.016,-36.621,24.414,280.762
1688813894.655,-217.285,-44.434,-39.551,22.461,255.371
1688813894.659,13.672,-42.480,-44.922,-72.266,-122.070
1688813894.663,106.445,-43.457,-51.758,-91.797,-110.352
1688813894.667,38.086,-44.434,-53.223,-67.871,45.410
1688813894.671,-146.973,-42.480,-50.293,-13.184,82.031
1688813894.674,-235.352,-40.039,-47.363,6.836,-8.301
1688813894.678,-13.672,-38.574,-40.039,-68.359,20.508
1688813894.682,108.398,-36.133,-38.574,-87.891,139.648
1688813894.686,53.223,-41.016,-47.363,-72.266,15.625
1688813894.690,-115.723,-50.293,-53.223,-29.297,42.480
1688813894.693,-243.164,-45.410,-49.316,0.000,121.582
1688813894.697,-55.176,-41.992,-55.176,-77.637,50.781
1688813894.701,94.238,-39.551,-63.477,-115.234,18.066
1688813894.705,61.035,-39.551,-55.664,-87.891,-115.723
1688813894.709,-102.539,-41.504,-45.410,-25.879,25.879
1688813894.713,-248.047,-39.551,-37.109,13.672,228.027
1688813894.717,-74.219,-40.527,-35.645,-68.359,144.043
1688813894.720,89.844,-43.457,-35.645,-111.328,-72.266
1688813894.724,64.941,-40.527,-29.297,-78.613,90.820
1688813894.728,-79.590,-34.668,-26.367,-26.367,259.277
1688813894.732,-252.930,-32.227,-27.832,16.113,-7.812
1688813894.736,-118.652,-35.645,-30.762,-48.340,49.805
1688813894.737,80.566,-34.668,-35.645,-94.238,134.277
1688813894.741,75.684,-37.109,-38.574,-72.754,-5.371
1688813894.745,-52.246,-43.457,-41.016,-37.109,-79.590
1688813894.749,-241.211,-43.945,-40.039,17.578,52.734
1688813894.753,-139.160,-39.062,-41.016,-30.762,95.215
1688813894.757,73.730,-36.133,-55.176,-100.586,82.520
1688813894.761,78.125,-39.551,-62.012,-89.355,51.270
1688813894.764,-25.391,-39.551,-57.129,-43.457,-0.488
1688813894.768,-221.191,-39.062,-51.758,24.902,333.984
1688813894.772,-177.246,-41.016,-56.641,-22.461,241.211
1688813894.776,50.781,-39.551,-58.105,-105.957,-99.121
1688813894.780,89.844,-37.598,-52.246,-93.750,-72.266
1688813894.782,-10.254,-45.898,-52.734,-61.035,-66.895
1688813894.786,-211.914,-46.387,-51.758,-1.953,6.348
1688813894.790,-193.359,-41.504,-49.316,-19.043,36.133
1688813894.794,34.668,-40.039,-47.852,-89.844,4.395
1688813894.798,87.402,-36.133,-45.410,-84.473,-28.809
1688813894.802,17.578,-39.062,-45.898,-53.711,-14.160
1688813894.806,-180.664,-47.363,-52.734,-6.348,92.773
1688813894.809,-221.680,-56.641,-59.082,-16.602,283.203
1688813894.813,1.465,-54.199,-61.523,-94.238,385.742
1688813894.817,86.914,-47.363,-59.082,-108.398,95.703
1688813894.821,22.949,-50.781,-49.805,-76.172,-15.625
1688813894.825,-155.273,-48.828,-38.574,-4.395,231.445
1688813894.827,-213.867,-44.434,-31.738,10.254,228.516
1688813894.831,16.602,-40.039,-27.344,-69.824,3.906
1688813894.835,124.023,-38.086,-23.926,-79.102,-86.914
1688813894.839,61.523,-41.016,-25.391,-56.641,80.078
1688813894.843,-111.328,-44.434,-26.367,-6.836,165.039
1688813894.847,-218.750,-44.922,-20.508,15.137,165.039
1688813894.851,-15.625,-43.945,-13.672,-64.941,173.828
1688813894.854,110.352,-39.551,-10.742,-83.496,227.051
1688813894.858,64.453,-33.203,-13.672,-62.500,147.461
1688813894.862,-84.961,-30.273,-10.742,-16.602,1.465
1688813894.866,-220.215,-26.367,-13.672,27.832,113.770
1688813894.870,-39.551,-27.344,-32.715,-42.480,120.605
1688813894.872,113.281,-28.809,-40.039,-94.727,-85.449
1688813894.876,75.195,-31.738,-41.016,-75.684,-111.816
1688813894.880,-74.219,-36.133,-42.480,-25.391,-6.348
1688813894.884,-236.328,-36.133,-43.457,17.090,113.281
1688813894.888,-86.914,-33.691,-40.039,-44.434,64.941
1688813894.892,105.957,-29.785,-36.621,-85.449,-2.441
1688813894.896,90.820,-34.180,-37.109,-61.523,233.887
1688813894.899,-43.457,-41.016,-38.086,-13.672,346.191
1688813894.903,-226.074,-41.016,-45.410,39.062,98.633
1688813894.907,-115.234,-41.016,-42.480,-17.578,19.043
1688813894.911,95.215,-33.203,-34.668,-83.496,-3.906
1688813894.915,89.844,-33.691,-36.133,-68.359,49.805
1688813894.917,-32.715,-44.434,-36.621,-23.438,40.527
1688813894.921,-225.586,-53.711,-36.133,26.855,-60.059
1688813894.925,-145.020,-58.105,-30.273,-0.977,183.105
1688813894.929,76.172,-51.758,-26.367,-61.035,187.988
1688813894.933,92.285,-50.293,-26.367,-67.871,-55.176
1688813894.937,-9.277,-52.246,-22.461,-28.320,24.414
1688813894.941,-201.660,-51.270,-21.973,42.480,257.324
1688813894.944,-163.574,-51.270,-27.344,8.301,168.945
1688813894.948,69.824,-49.316,-28.320,-76.172,-107.422
1688813894.952,109.863,-48.828,-23.926,-62.500,-38.086
1688813894.956,19.531,-45.898,-26.855,-26.367,7.324
1688813894.960,-178.711,-48.828,-31.738,25.879,-19.043
1688813894.963,-190.918,-51.270,-23.926,7.812,10.742
1688813894.967,43.457,-47.363,-23.438,-71.289,85.449
1688813894.971,107.422,-46.387,-33.691,-73.730,72.754
1688813894.975,40.527,-44.922,-32.715,-42.480,-124.512
1688813894.979,-136.230,-46.875,-29.785,10.742,17.090
1688813894.983,-184.082,-46.875,-33.691,10.254,293.457
1688813894.987,21.973,-43.457,-40.039,-73.242,205.566
1688813894.990,98.633,-45.898,-48.828,-101.562,-17.578
1688813894.994,37.598,-50.781,-46.875,-76.660,-96.191
1688813894.998,-142.090,-55.664,-41.504,-16.113,78.613
1688813895.002,-245.605,-52.734,-45.410,0.977,171.875
1688813895.006,-39.062,-46.875,-46.875,-79.102,71.289
1688813895.022,85.938,-51.270,-54.688,-112.305,74.219
1688813895.026,36.133,-49.805,-57.617,-78.125,109.863
1688813895.030,-121.094,-40.527,-45.898,-14.648,60.547
1688813895.034,-235.352,-42.480,-43.945,11.719,46.387
1688813895.038,-47.852,-46.387,-45.410,-62.012,91.309
1688813895.042,101.562,-42.969,-42.969,-95.215,125.977
1688813895.046,62.500,-42.480,-38.086,-75.195,68.848
1688813895.049,-95.703,-45.410,-35.156,-29.785,-7.324
1688813895.053,-236.328,-43.457,-34.180,21.973,118.164
1688813895.057,-60.059,-37.109,-25.879,-35.645,268.066
1688813895.061,110.840,-30.762,-16.602,-81.543,94.238
1688813895.065,79.590,-30.273,-15.137,-56.152,-52.246
1688813895.067,-57.617,-29.297,-20.996,-3.906,23.926
1688813895.071,-222.656,-25.391,-21.484,42.969,79.102
1688813895.075,-93.750,-22.949,-19.043,-19.043,-12.207
1688813895.079,108.887,-20.020,-17.578,-68.359,-69.824
1688813895.083,86.914,-17.578,-17.090,-37.109,-3.418
1688813895.087,-47.852,-14.160,-15.625,7.324,177.734
1688813895.091,-205.078,-14.648,-5.859,55.176,255.371
1688813895.094,-108.398,-14.648,-5.859,2.441,136.719
1688813895.098,96.191,-11.719,-9.277,-54.688,184.570
1688813895.102,102.051,-12.207,-16.113,-38.086,270.020
1688813895.106,-4.395,-14.648,-19.043,-18.066,35.645
1688813895.110,-194.336,-20.996,-17.090,34.668,133.789
1688813895.112,-149.902,-27.832,-23.926,2.930,321.289
1688813895.116,69.336,-31.250,-28.320,-64.453,32.715
1688813895.120,99.121,-27.832,-29.297,-49.805,-102.051
1688813895.124,8.789,-26.367,-21.973,-7.324,25.879
1688813895.128,-174.316,-25.391,-20.020,55.664,123.047
1688813895.132,-164.062,-21.973,-32.715,26.367,200.684
1688813895.136,57.617,-20.508,-38.574,-58.594,97.168
1688813895.139,112.305,-21.973,-35.645,-50.781,-19.043
1688813895.143,27.832,-32.227,-41.504,-21.973,244.141
1688813895.147,-171.387,-39.551,-43.457,22.949,260.254
1688813895.151,-205.078,-41.016,-32.227,14.648,-5.859
1688813895.155,17.090,-40.039,-27.344,-62.012,20.996
1688813895.157,88.379,-39.062,-35.645,-75.195,3.906
1688813895.161,19.531,-38.086,-43.457,-54.199,-106.934
1688813895.165,-155.762,-38.086,-46.387,-0.488,-21.973
1688813895.169,-221.680,-37.598,-54.199,5.859,164.551
1688813895.173,-11.719,-35.156,-59.082,-74.219,33.691
1688813895.177,86.914,-38.086,-55.664,-86.914,-47.852
1688813895.181,32.715,-40.527,-52.246,-58.594,47.363
1688813895.184,-132.812,-41.504,-42.480,5.859,259.766
1688813895.188,-240.234,-36.133,-43.945,36.133,346.191
1688813895.192,-38.086,-32.715,-51.758,-51.758,85.449
1688813895.196,99.609,-41.992,-52.246,-80.566,-95.215
1688813895.200,51.758,-50.293,-56.152,-53.223,112.305
1688813895.202,-112.793,-53.223,-61.035,-5.859,250.977
1688813895.206,-250.977,-56.641,-65.918,19.531,12.207
1688813895.210,-64.453,-49.805,-65.430,-57.129,-73.242
1688813895.214,98.633,-36.133,-57.129,-87.402,50.293
1688813895.218,62.988,-40.527,-56.152,-62.988,10.742
1688813895.222,-79.590,-50.293,-55.664,-15.137,11.230
1688813895.226,-235.352,-48.340,-48.828,29.297,92.773
1688813895.229,-87.402,-48.340,-49.805,-31.738,180.664
1688813895.233,91.309,-46.387,-55.176,-87.402,75.684
1688813895.237,79.590,-43.457,-55.664,-67.383,-117.188
1688813895.241,-52.246,-46.387,-53.711,-18.555,9.277
1688813895.245,-229.980,-42.480,-44.434,34.180,109.375
1688813895.248,-108.887,-39.551,-43.457,-20.508,13.184
1688813895.252,86.426,-45.898,-43.945,-91.309,-115.723
1688813895.256,79.102,-46.387,-41.504,-63.965,30.273
1688813895.260,-38.574,-42.969,-44.922,-19.043,170.898
1688813895.264,-230.469,-41.504,-42.480,31.250,84.961
1688813895.268,-147.949,-41.992,-40.527,-15.625,151.367
1688813895.272,73.730,-46.387,-44.922,-82.031,313.965
1688813895.275,84.961,-47.363,-52.246,-65.918,219.238
1688813895.279,-16.113,-45.898,-56.641,-36.133,18.555
1688813895.283,-207.031,-50.293,-59.082,27.832,112.793
1688813895.287,-165.527,-46.387,-57.617,1.953,70.312
1688813895.291,65.430,-38.086,-50.781,-73.730,109.863
1688813895.293,99.121,-34.180,-53.711,-65.430,94.727
1688813895.297,6.348,-35.156,-54.688,-33.203,-65.430
1688813895.301,-188.477,-41.992,-50.293,29.785,171.387
1688813895.305,-201.172,-42.480,-51.270,12.695,250.977
1688813895.309,28.809,-40.527,-51.270,-83.984,10.254
1688813895.313,92.773,-48.828,-55.664,-83.984,-23.438
1688813895.317,16.113,-55.664,-61.035,-30.273,329.102
1688813895.320,-159.180,-48.828,-58.594,37.598,395.508
1688813895.324,-204.590,-41.016,-55.664,23.438,48.828
1688813895.328,8.301,-43.457,-59.570,-60.059,-4.883
1688813895.332,95.703,-45.898,-60.059,-79.590,-7.324
1688813895.336,35.645,-49.805,-58.105,-62.500,-5.859
1688813895.338,-152.832,-56.152,-59.082,-1.953,-8.789
1688813895.342,-243.652,-53.223,-51.270,21.973,41.992
1688813895.346,-15.625,-48.340,-44.922,-59.570,42.480
1688813895.350,111.816,-42.480,-46.387,-85.938,-40.527
1688813895.354,64.941,-41.504,-46.387,-57.617,-90.820
1688813895.358,-104.004,-48.340,-40.039,-2.930,149.902
1688813895.362,-232.422,-41.016,-28.809,32.227,216.309
1688813895.365,-43.945,-33.203,-25.391,-48.828,34.180
1688813895.369,102.051,-38.086,-27.344,-97.656,-14.648
1688813895.373,63.965,-36.133,-23.926,-65.430,113.770
1688813895.377,-99.609,-39.551,-26.855,-17.090,136.230
1688813895.381,-250.977,-48.828,-30.762,15.625,50.781
1688813895.385,-81.543,-47.852,-29.785,-60.547,34.668
1688813895.389,90.820,-46.387,-29.785,-106.934,203.613
1688813895.393,65.430,-42.969,-27.832,-78.125,328.125
1688813895.397,-73.242,-40.039,-27.832,-36.133,46.387
1688813895.401,-244.629,-41.504,-35.156,10.742,81.055
1688813895.405,-120.117,-41.504,-28.320,-45.410,281.250
1688813895.409,77.148,-39.062,-10.254,-99.609,71.777
1688813895.412,71.289,-38.086,-10.742,-84.473,-133.789
1688813895.416,-51.758,-41.016,-13.672,-39.551,-5.371
1688813895.420,-235.840,-36.621,-10.742,19.531,135.742
1688813895.424,-142.578,-31.738,-10.742,-29.297,59.570
1688813895.428,70.312,-36.133,-11.230,-100.098,-49.316
1688813895.442,77.148,-35.645,-6.836,-80.078,42.969
1688813895.446,-39.062,-35.156,-9.766,-41.992,150.879
1688813895.450,-233.398,-37.109,-13.184,6.348,117.676
1688813895.454,-181.641,-30.273,2.441,-35.645,34.668
1688813895.458,36.133,-32.715,1.953,-105.957,56.641
1688813895.462,57.129,-33.691,-13.184,-105.469,261.719
1688813895.466,-51.270,-24.414,-4.883,-96.680,168.945
1688813895.469,-255.371,-20.996,0.488,-44.434,65.430
1688813895.473,-246.582,-20.508,-9.277,-75.195,240.234
1688813895.477,-31.738,-20.996,-10.254,-176.270,166.016
1688813895.481,-1.465,-20.020,2.930,-184.082,-116.699
1688813895.485,-89.844,-18.066,12.695,-162.109,-82.520
1688813895.487,-290.527,-20.020,4.883,-109.375,272.949
1688813895.491,-330.078,-18.555,5.371,-118.164,319.824
1688813895.495,-111.328,-15.625,7.324,-218.750,-81.543
1688813895.499,-33.203,-17.090,1.953,-229.492,-111.816
1688813895.503,-98.145,-14.648,-6.348,-194.824,-16.113
1688813895.507,-282.715,-18.066,-21.484,-143.555,55.664
1688813895.511,-346.191,-22.949,-25.879,-145.996,140.625
1688813895.514,-123.047,-21.973,-28.809,-220.703,88.867
1688813895.518,-17.090,-25.391,-37.109,-214.844,208.984
1688813895.522,-62.988,-29.297,-42.969,-178.711,157.227
1688813895.526,-224.121,-20.508,-37.109,-121.094,-67.871
1688813895.530,-311.523,-17.090,-29.297,-83.496,71.777
1688813895.533,-88.867,-20.996,-31.250,-148.438,162.598
1688813895.537,42.969,-18.555,-34.668,-172.363,17.090
1688813895.541,2.441,-18.555,-33.203,-136.719,-62.012
1688813895.545,-146.973,-24.902,-34.668,-72.754,106.445
1688813895.549,-273.438,-25.879,-39.062,-33.691,183.105
1688813895.553,-82.031,-22.949,-40.527,-101.562,13.184
1688813895.557,83.496,-24.414,-47.852,-140.625,3.906
1688813895.560,60.059,-29.785,-55.176,-111.816,173.828
1688813895.564,-81.543,-28.320,-52.246,-44.434,272.461
1688813895.568,-238.770,-24.414,-52.734,1.953,122.559
1688813895.572,-87.402,-26.367,-58.105,-70.312,16.602
1688813895.576,96.191,-22.949,-60.059,-121.094,17.578
1688813895.594,82.031,-20.996,-59.570,-94.238,9.277
1688813895.598,-60.059,-31.738,-60.547,-53.711,-46.875
1688813895.602,-252.930,-51.270,-59.570,-11.230,72.754
1688813895.606,-137.207,-45.898,-52.246,-72.266,313.965
1688813895.610,71.289,-33.203,-51.758,-139.160,135.254
1688813895.614,70.312,-43.457,-47.852,-123.535,-33.203
1688813895.618,-55.176,-49.805,-24.902,-81.055,94.238
1688813895.621,-259.277,-47.852,-27.832,-29.297,297.363
1688813895.625,-196.777,-35.156,-33.691,-86.426,143.066
1688813895.629,12.695,-23.438,-26.367,-167.480,-87.402
1688813895.633,18.555,-35.156,-29.785,-160.645,-57.617
1688813895.637,-104.004,-35.156,-22.949,-139.648,-37.109
1688813895.622,-307.617,-20.996,-14.160,-89.355,-26.855
1688813895.626,-275.391,-7.812,0.000,-117.676,-14.648
1688813895.630,-49.316,-2.930,2.930,-197.266,41.992
1688813895.634,-20.508,-1.953,-7.324,-190.918,1.465
1688813895.638,-112.305,6.836,-4.395,-154.297,-39.062
1688813895.642,-291.504,5.371,-0.977,-104.004,101.562
1688813895.646,-293.457,-1.465,-0.977,-116.211,270.996
1688813895.649,-62.500,1.465,7.812,-185.059,138.184
1688813895.653,-9.766,-4.883,9.277,-189.453,-32.227
1688813895.657,-86.426,-12.695,3.906,-166.016,-42.969
1688813895.661,-268.066,-13.672,2.441,-97.656,216.797
1688813895.665,-312.012,-8.301,-4.883,-73.242,503.906
1688813895.667,-75.195,-2.930,-15.137,-158.691,194.336
1688813895.671,22.949,-11.230,-14.648,-168.945,-67.871
1688813895.675,-32.715,-20.508,-9.766,-120.117,20.020
1688813895.679,-206.055,-22.949,-20.508,-62.012,22.461
1688813895.683,-288.574,-27.344,-29.297,-48.340,-15.625
1688813895.687,-62.500,-31.250,-31.738,-118.164,71.777
1688813895.691,64.453,-36.621,-33.691,-130.859,200.195
1688813895.694,11.719,-43.945,-28.809,-106.445,113.281
1688813895.698,-148.926,-51.758,-27.832,-47.363,5.371
1688813895.702,-250.488,-53.711,-31.250,-2.441,108.398
1688813895.706,-41.992,-51.270,-38.086,-70.801,147.461
1688813895.710,107.910,-51.270,-48.340,-104.980,-19.531
1688813895.712,79.102,-57.617,-58.105,-71.777,-62.500
1688813895.716,-54.199,-55.176,-55.176,-11.719,-1.465
1688813895.720,-195.312,-49.805,-43.945,37.598,103.516
1688813895.724,-34.180,-52.246,-44.434,-24.414,17.578
1688813895.728,144.043,-53.223,-37.598,-49.805,-77.148
1688813895.732,127.441,-54.688,-31.738,-12.207,175.293
1688813895.736,-6.836,-54.199,-35.645,35.645,232.910
1688813895.739,-162.598,-45.410,-34.668,96.680,132.812
1688813895.743,-17.578,-46.875,-36.133,49.805,37.109
1688813895.747,181.641,-54.688,-41.504,3.906,118.164
1688813895.751,172.852,-53.223,-44.434,18.555,202.148
1688813895.755,40.039,-53.711,-43.945,55.176,-10.254
1688813895.772,-146.973,-54.688,-47.363,123.047,64.941
1688813895.776,-46.387,-53.223,-52.734,78.613,226.074
1688813895.780,168.457,-54.688,-52.734,-0.977,59.570
1688813895.784,184.082,-55.664,-49.805,6.348,-113.770
1688813895.788,80.078,-53.223,-49.316,55.176,6.348
1688813895.792,-119.629,-56.152,-53.223,116.211,157.227
1688813895.796,-68.359,-57.129,-59.082,72.754,125.488
1688813895.799,163.574,-50.293,-58.105,-0.977,-42.480
1688813895.803,200.195,-46.875,-55.176,16.113,-70.312
1688813895.807,103.027,-47.363,-54.688,47.852,139.160
1688813895.811,-100.586,-50.293,-53.711,95.215,88.867
1688813895.815,-84.961,-50.293,-47.363,71.289,6.348
1688813895.817,142.578,-47.363,-49.316,-8.301,126.465
1688813895.821,190.430,-42.480,-57.617,-10.742,119.141
1688813895.825,114.746,-41.016,-58.594,21.484,-56.152
1688813895.829,-74.707,-41.992,-56.152,85.938,0.488
1688813895.833,-104.980,-37.109,-56.152,68.359,107.910
1688813895.837,121.094,-30.273,-59.082,-14.648,43.945
1688813895.841,196.289,-25.879,-54.688,-8.789,101.074
1688813895.844,130.371,-25.391,-49.316,15.137,26.367
1688813895.848,-56.152,-36.133,-52.246,75.684,164.551
1688813895.852,-137.695,-44.922,-55.176,83.984,339.844
1688813895.856,83.496,-40.039,-52.246,-13.184,58.105
1688813895.860,196.777,-40.527,-49.805,-30.762,-6.836
1688813895.863,132.812,-40.039,-51.758,4.883,109.863
1688813895.867,-44.434,-39.062,-51.758,61.523,68.848
1688813895.871,-152.832,-46.875,-55.176,74.219,-0.977
1688813895.875,45.410,-47.852,-53.711,-14.648,-6.836
1688813895.879,171.875,-43.457,-47.852,-48.828,-1.465
1688813895.883,125.977,-41.504,-49.316,-18.555,34.180
1688813895.887,-30.762,-37.109,-52.734,33.691,104.980
1688813895.890,-161.621,-37.109,-52.246,61.523,124.512
1688813895.894,16.113,-36.133,-45.898,-5.371,254.883
1688813895.898,172.363,-29.785,-39.551,-49.805,134.277
1688813895.902,147.949,-28.809,-39.062,-27.344,-121.582
1688813895.906,2.441,-29.785,-38.574,32.227,-29.297
1688813895.908,-163.574,-30.273,-30.762,70.801,105.957
1688813895.912,-17.090,-29.785,-33.691,6.348,18.066
1688813895.916,169.434,-25.879,-43.945,-41.504,-61.523
1688813895.920,150.879,-31.738,-46.875,-27.832,-21.484
1688813895.924,12.207,-40.039,-45.410,15.625,70.801
1688813895.928,-169.922,-41.992,-40.039,73.242,204.590
1688813895.932,-55.664,-35.156,-35.156,16.602,194.824
1688813895.935,152.344,-25.391,-29.297,-47.363,217.773
1688813895.939,159.180,-21.484,-24.902,-23.926,283.203
1688813895.943,34.180,-20.508,-17.090,11.719,94.238
1688813895.947,-164.551,-25.391,-13.672,55.176,90.820
1688813895.951,-91.797,-26.855,-12.695,7.812,149.414
1688813895.953,123.047,-25.879,-3.418,-63.477,10.742
1688813895.957,143.555,-23.926,-3.906,-54.688,-83.496
1688813895.961,35.156,-27.344,-12.207,-16.113,-90.332
1688813895.965,-170.898,-32.715,-15.137,41.016,113.281
1688813895.969,-137.695,-31.250,-17.578,5.859,139.160
1688813895.973,105.469,-23.438,-16.602,-64.453,-37.109
1688813895.977,154.785,-20.996,-11.230,-57.617,-26.855
1688813895.980,65.430,-21.973,-9.277,-18.555,314.453
1688813895.984,-141.113,-20.020,-6.836,40.039,308.594
1688813895.988,-151.367,-22.461,-10.742,20.020,-12.207
1688813895.992,80.078,-25.391,-19.043,-49.805,3.418
1688813895.996,140.137,-26.367,-29.297,-56.641,18.555
1688813895.997,61.523,-29.785,-30.762,-32.227,-39.062
1688813896.001,-126.465,-34.668,-33.691,25.391,-23.438
1688813896.005,-172.852,-37.598,-32.715,29.785,73.730
1688813896.009,55.176,-29.297,-27.344,-49.805,2.930
1688813896.013,142.578,-26.855,-29.785,-76.660,-16.602
1688813896.017,73.242,-33.203,-32.715,-56.152,58.105
1688813896.021,-109.863,-36.621,-35.645,12.207,278.809
1688813896.024,-204.102,-38.574,-43.945,28.320,337.402
1688813896.028,7.324,-35.645,-48.828,-66.406,36.133
1688813896.032,123.535,-38.574,-51.270,-93.750,-95.703
1688813896.036,73.242,-44.434,-56.641,-70.801,-31.250
1688813896.040,-93.750,-41.016,-59.082,-20.508,93.750
1688813896.042,-216.309,-35.645,-54.688,12.207,129.883
1688813896.046,-22.461,-35.156,-45.410,-59.082,62.988
1688813896.050,119.629,-38.574,-41.504,-96.680,132.812
1688813896.054,74.707,-42.480,-41.016,-83.008,72.754
1688813896.058,-85.449,-47.852,-40.527,-35.156,2.930
1688813896.062,-232.422,-49.316,-40.527,0.000,202.637
1688813896.066,-61.035,-44.922,-32.715,-63.965,298.340
1688813896.069,114.258,-40.039,-31.250,-104.004,121.094
1688813896.073,90.820,-42.969,-40.527,-103.027,-49.316
1688813896.077,-58.105,-48.340,-49.316,-58.105,70.312
1688813896.081,-235.352,-48.828,-49.316,-1.465,187.012
1688813896.085,-98.145,-46.875,-48.828,-63.477,125.488
1688813896.090,89.355,-45.898,-46.875,-124.512,30.762
1688813896.094,79.102,-48.340,-43.945,-102.539,94.238
1688813896.098,-39.062,-51.758,-46.387,-56.641,227.539
1688813896.102,-221.191,-49.316,-46.875,-3.418,140.137
1688813896.106,-114.746,-42.969,-44.434,-46.875,62.988
1688813896.110,97.656,-41.992,-41.992,-111.816,141.602
1688813896.114,97.168,-39.062,-41.016,-100.586,196.289
1688813896.117,-9.766,-36.621,-40.039,-63.477,81.055
1688813896.121,-199.707,-42.480,-44.922,-11.719,45.898
1688813896.125,-150.391,-46.387,-52.734,-48.340,148.438
1688813896.129,70.312,-41.992,-55.664,-115.234,161.621
1688813896.133,99.609,-37.109,-54.688,-112.793,72.266
1688813896.147,4.395,-35.156,-51.270,-83.984,74.707
1688813896.151,-178.711,-36.133,-46.875,-19.043,215.332
1688813896.155,-169.434,-33.203,-39.551,-42.969,210.938
1688813896.159,32.715,-33.691,-34.668,-141.113,20.996
1688813896.163,76.172,-41.504,-37.598,-149.902,-32.715
1688813896.167,-1.953,-49.805,-38.086,-104.004,253.418
1688813896.171,-199.707,-57.617,-30.762,-44.922,468.750
1688813896.174,-229.980,-50.781,-21.484,-72.754,152.344
1688813896.178,-5.859,-52.246,-20.508,-159.180,-48.828
1688813896.182,63.965,-57.617,-28.320,-167.969,-48.828
1688813896.186,13.184,-48.828,-25.391,-123.535,-98.633
1688813896.190,-162.598,-45.898,-21.484,-53.223,-70.312
1688813896.192,-245.117,-51.758,-20.996,-45.898,49.316
1688813896.196,-26.367,-52.734,-28.320,-128.418,-7.324
1688813896.200,83.496,-55.664,-35.156,-146.484,-105.469
1688813896.204,32.227,-56.152,-37.598,-129.883,-54.199
1688813896.208,-132.812,-50.293,-33.691,-64.941,227.051
1688813896.212,-234.863,-41.016,-22.949,-18.066,331.055
1688813896.216,-35.645,-30.273,-24.414,-88.379,119.141
1688813896.219,100.098,-22.461,-25.391,-109.863,-45.410
1688813896.223,70.801,-23.438,-21.973,-74.707,59.082
1688813896.227,-88.867,-25.391,-25.391,-14.648,205.566
1688813896.231,-229.980,-13.184,-25.879,13.184,72.754
1688813896.235,-46.875,-9.766,-22.949,-60.547,-9.766
1688813896.237,105.957,-17.090,-27.344,-93.262,61.523
1688813896.241,75.195,-13.184,-25.879,-59.570,34.180
1688813896.245,-68.848,-12.207,-20.508,-14.648,-94.727
1688813896.249,-229.980,-16.602,-21.484,28.320,30.762
1688813896.253,-70.312,-13.184,-24.414,-33.691,81.055
1688813896.257,116.699,-15.625,-21.973,-83.984,23.926
1688813896.261,101.562,-18.555,-14.160,-58.105,-39.551
1688813896.264,-36.621,-28.809,-15.625,-20.020,80.078
1688813896.268,-226.562,-36.133,-16.602,28.809,317.871
1688813896.272,-111.816,-32.227,-21.973,-29.785,135.742
1688813896.276,87.402,-30.273,-32.715,-95.703,-101.562
1688813896.280,79.102,-31.250,-28.809,-67.871,-4.883
1688813896.282,-35.645,-34.180,-25.391,-20.508,160.156
1688813896.286,-233.398,-34.668,-32.227,14.160,104.492
1688813896.290,-152.832,-33.691,-38.574,-34.180,40.039
1688813896.294,82.520,-31.738,-46.875,-98.633,9.766
1688813896.298,99.121,-37.598,-45.410,-86.426,17.578
1688813896.302,-8.301,-42.969,-37.598,-44.434,107.422
1688813896.306,-189.941,-39.062,-39.551,8.301,111.328
1688813896.309,-145.020,-36.133,-42.969,-10.742,226.074
1688813896.313,73.242,-33.691,-42.480,-79.590,280.273
1688813896.317,114.746,-29.297,-42.480,-85.938,-21.973
1688813896.321,33.203,-29.785,-45.410,-54.199,-149.414
1688813896.325,-163.574,-36.621,-46.387,16.602,218.262
1688813896.328,-178.223,-38.574,-47.363,2.441,286.133
1688813896.332,43.945,-42.969,-54.688,-91.797,-59.570
1688813896.336,109.375,-46.387,-59.082,-88.379,-14.648
1688813896.340,31.738,-38.574,-56.152,-55.664,97.656
1688813896.344,-162.109,-39.551,-52.734,0.977,177.734
1688813896.348,-204.590,-34.668,-45.410,14.648,145.020
1688813896.352,27.832,-28.320,-37.109,-63.477,115.234
1688813896.355,118.164,-33.691,-36.133,-72.754,269.531
1688813896.359,46.875,-35.156,-40.039,-45.410,94.238
1688813896.363,-137.207,-33.203,-35.645,8.789,-119.629
1688813896.367,-225.586,-32.715,-29.785,27.832,70.801
1688813896.371,-7.812,-29.297,-27.832,-54.688,176.270
1688813896.372,117.676,-26.367,-30.762,-86.426,-24.414
1688813896.376,63.477,-30.273,-34.668,-67.383,-144.043
1688813896.380,-103.516,-40.039,-35.156,-3.906,125.977
1688813896.384,-228.027,-36.133,-31.738,30.273,223.633
1688813896.388,-39.062,-28.320,-30.273,-59.570,19.043
1688813896.392,106.445,-35.645,-35.156,-103.516,34.180
1688813896.396,69.336,-44.434,-41.504,-71.289,223.633
1688813896.399,-83.496,-48.828,-47.852,-7.812,251.953
1688813896.403,-243.652,-47.363,-53.223,18.066,147.949
1688813896.407,-82.031,-45.898,-53.223,-59.570,38.574
1688813896.411,98.633,-41.016,-46.387,-88.867,-72.266
1688813896.415,78.125,-39.551,-38.574,-59.570,-32.715
1688813896.418,-66.895,-45.410,-36.621,-22.949,-22.949
1688813896.422,-241.211,-49.805,-38.086,16.113,73.242
1688813896.426,-110.840,-48.340,-39.551,-32.227,300.781
1688813896.430,81.543,-41.504,-45.898,-90.332,234.863
1688813896.434,47.852,-43.945,-57.129,-91.797,-46.387
1688813896.438,-89.355,-44.922,-62.500,-46.387,44.434
1688813896.442,-248.047,-41.504,-59.082,11.719,386.719
1688813896.445,-145.020,-40.527,-52.734,-42.480,241.699
1688813896.449,71.289,-40.039,-50.293,-114.258,-113.770
1688813896.453,81.055,-39.062,-47.852,-93.750,-11.719
1688813896.457,-26.367,-39.062,-37.598,-44.922,108.398
1688813896.461,-222.656,-44.434,-32.715,8.301,44.922
1688813896.462,-162.598,-46.387,-33.203,-35.156,23.438
1688813896.466,68.848,-44.434,-38.086,-95.703,56.152
1688813896.470,92.773,-42.480,-42.480,-77.637,20.996
1688813896.474,-0.977,-41.504,-35.156,-43.945,23.438
1688813896.478,-188.965,-45.410,-32.227,13.184,60.547
1688813896.482,-168.945,-45.410,-37.109,-5.371,315.918
1688813896.486,61.523,-36.621,-41.504,-77.148,379.395
1688813896.489,97.656,-32.715,-45.410,-85.449,10.742
1688813896.493,10.742,-38.574,-46.875,-53.223,-47.852
1688813896.497,-175.293,-44.434,-45.410,8.301,53.223
1688813896.501,-207.520,-43.945,-41.992,-7.324,36.133
1688813896.505,27.832,-39.062,-43.457,-92.285,38.574
1688813896.523,107.910,-42.480,-49.805,-91.309,23.438
1688813896.527,35.156,-44.922,-41.504,-54.199,97.656
1688813896.531,-146.484,-42.969,-33.203,-3.906,80.078
1688813896.535,-219.727,-39.551,-37.109,2.930,-52.734
1688813896.539,0.488,-38.574,-38.574,-73.242,6.348
1688813896.543,104.004,-39.062,-37.598,-88.379,144.531
1688813896.547,42.969,-34.180,-37.598,-63.965,138.184
1688813896.550,-129.883,-28.809,-39.062,-10.742,133.789
1688813896.554,-229.492,-30.273,-38.086,12.695,142.578
1688813896.558,-24.414,-36.133,-39.062,-56.641,231.934
1688813896.562,98.633,-34.668,-39.551,-82.031,52.246
1688813896.566,62.500,-24.902,-28.320,-58.594,-163.574
1688813896.568,-86.426,-20.020,-21.484,5.371,82.520
1688813896.572,-232.910,-23.926,-25.391,43.457,151.367
1688813896.576,-60.059,-27.832,-21.484,-39.551,-41.016
1688813896.580,93.262,-29.785,-20.020,-83.496,-125.977
1688813896.584,55.664,-28.320,-21.484,-63.965,-29.785
1688813896.588,-94.238,-34.180,-19.531,-20.996,53.223
1688813896.592,-255.371,-39.551,-13.672,29.785,86.426
1688813896.595,-104.980,-28.320,-14.648,-39.551,27.344
1688813896.599,79.590,-26.367,-21.973,-83.496,154.785
1688813896.603,67.871,-27.832,-26.855,-57.617,342.285
1688813896.607,-69.824,-28.320,-36.621,-35.156,68.359
1688813896.611,-249.512,-34.668,-41.992,18.066,28.320
1688813896.612,-134.277,-34.180,-43.457,-29.297,202.148
1688813896.616,69.824,-28.809,-36.133,-90.332,-0.977
1688813896.620,78.125,-26.855,-30.273,-74.219,-154.297
1688813896.624,-42.969,-29.297,-29.785,-21.973,-100.098
1688813896.628,-222.168,-37.109,-35.156,20.020,15.137
1688813896.632,-123.047,-36.133,-37.598,-43.945,139.648
1688813896.636,68.848,-29.297,-34.180,-99.609,61.523
1688813896.639,78.125,-30.762,-32.227,-85.449,-43.945
1688813896.643,-11.719,-32.715,-30.762,-41.992,145.508
1688813896.647,-222.168,-35.645,-32.715,15.137,199.219
1688813896.651,-202.637,-35.645,-27.832,-21.484,118.164
1688813896.655,40.039,-34.668,-26.855,-103.027,192.871
1688813896.657,80.566,-39.551,-30.762,-102.051,122.559
1688813896.661,-6.836,-42.969,-28.320,-64.453,-20.508
1688813896.665,-202.148,-43.457,-17.090,0.977,38.574
1688813896.669,-215.820,-40.527,-8.789,-14.160,140.137
1688813896.673,30.762,-40.527,-6.836,-98.633,107.422
1688813896.677,100.098,-42.969,-5.859,-103.516,50.781
1688813896.681,22.949,-42.969,-12.207,-67.871,60.059
1688813896.684,-171.875,-42.969,-12.207,7.324,308.594
1688813896.688,-234.375,-41.992,-15.137,14.160,452.148
1688813896.692,-15.137,-43.457,-26.855,-90.332,86.914
1688813896.696,85.449,-42.480,-33.203,-115.234,-73.730
1688813896.700,45.410,-37.598,-32.227,-75.684,67.871
1688813896.703,-136.719,-37.109,-26.855,-6.836,105.469
1688813896.707,-229.980,-39.062,-23.438,10.742,71.289
1688813896.711,-8.301,-39.551,-25.879,-72.266,-30.273
1688813896.715,115.723,-34.668,-22.949,-82.031,113.770
1688813896.719,63.965,-28.320,-24.414,-45.410,148.926
1688813896.723,-115.234,-38.574,-30.273,-5.859,42.480
1688813896.727,-246.094,-46.875,-28.320,12.207,188.477
1688813896.730,-48.340,-43.945,-32.715,-50.781,296.875
1688813896.734,104.980,-37.598,-34.668,-86.914,119.141
1688813896.738,71.289,-34.180,-31.738,-71.777,-71.289
1688813896.742,-76.172,-30.273,-30.762,-8.301,3.418
1688813896.746,-220.215,-25.391,-24.902,39.062,90.820
1688813896.747,-52.246,-25.879,-24.414,-28.320,-6.836
1688813896.751,122.559,-26.855,-35.645,-75.684,-147.461
1688813896.755,96.680,-28.809,-46.875,-49.316,-101.074
1688813896.759,-44.434,-27.344,-43.945,1.465,36.621
1688813896.763,-208.496,-27.832,-33.691,45.410,53.711
1688813896.767,-71.289,-24.414,-28.320,-15.625,14.648
1688813896.771,117.188,-27.344,-27.344,-62.012,129.395
1688813896.774,96.191,-34.668,-35.156,-38.574,243.652
1688813896.778,-23.926,-31.250,-37.598,-4.395,-5.859
1688813896.782,-193.359,-30.273,-32.715,49.805,-6.836
1688813896.786,-104.980,-37.109,-40.527,-3.906,130.371
1688813896.790,98.633,-41.504,-43.945,-71.777,58.105
1688813896.793,105.957,-38.086,-36.133,-52.734,20.996
1688813896.797,-6.836,-37.598,-27.344,-17.090,-61.523
1688813896.801,-189.453,-37.109,-21.973,33.691,130.371
1688813896.805,-126.953,-34.668,-20.508,-7.812,120.117
1688813896.809,90.820,-25.879,-15.625,-78.613,-105.957
1688813896.813,109.863,-27.344,-22.949,-67.871,-3.418
1688813896.817,18.555,-30.762,-32.715,-34.668,219.238
1688813896.820,-166.992,-22.949,-32.715,16.113,230.469
1688813896.824,-155.273,-24.414,-31.250,-4.883,36.133
1688813896.828,69.824,-27.344,-26.855,-71.777,-20.508
1688813896.832,113.770,-27.832,-28.809,-64.453,147.461
1688813896.836,38.086,-27.344,-25.391,-37.598,74.219
1688813896.852,-141.113,-26.367,-19.531,16.113,13.184
1688813896.856,-169.922,-30.762,-19.531,15.137,68.848
1688813896.860,52.246,-29.785,-12.207,-64.453,21.973
1688813896.864,125.977,-20.020,-13.672,-71.289,-55.664
1688813896.868,59.570,-21.484,-23.926,-47.363,-111.816
1688813896.872,-125.977,-31.250,-29.785,12.207,208.008
1688813896.876,-204.102,-31.738,-31.738,26.367,325.195
1688813896.879,7.324,-26.367,-36.133,-53.711,-2.441
1688813896.883,115.723,-27.832,-39.551,-76.172,-98.633
1688813896.887,67.871,-30.762,-33.691,-44.434,125.977
1688813896.891,-108.887,-35.645,-27.344,11.719,293.457
1688813896.895,-213.379,-38.086,-30.273,25.391,153.320
1688813896.897,-11.719,-35.645,-38.086,-56.152,49.316
1688813896.901,119.141,-31.250,-41.016,-79.590,72.266
1688813896.905,78.125,-26.855,-32.227,-43.457,60.547
1688813896.909,-80.566,-27.832,-27.344,12.695,-1.465
1688813896.913,-209.961,-32.715,-29.297,51.758,88.867
1688813896.917,-29.785,-36.133,-31.250,-29.785,78.613
1688813896.921,117.188,-36.621,-32.715,-77.637,56.641
1688813896.924,88.867,-29.297,-27.832,-53.711,-8.301
1688813896.928,-47.363,-24.414,-26.855,1.465,17.090
1688813896.932,-212.891,-24.902,-29.297,53.223,314.453
1688813896.936,-61.523,-26.367,-29.297,-21.973,218.750
1688813896.940,123.047,-32.227,-33.691,-84.961,-70.312
1688813896.942,104.980,-32.227,-36.621,-58.594,12.207
1688813896.946,-38.574,-32.227,-34.668,-15.625,117.188
1688813896.950,-221.191,-33.691,-33.203,31.250,106.445
1688813896.954,-97.168,-35.156,-29.785,-15.625,10.254
1688813896.958,98.633,-34.180,-24.414,-71.777,-55.176
1688813896.962,99.609,-31.250,-20.996,-58.594,52.246
1688813896.966,-20.508,-33.691,-15.625,-24.902,44.434
1688813896.969,-221.191,-38.574,-13.184,23.926,0.000
1688813896.973,-133.301,-33.691,-7.812,-8.789,195.801
1688813896.977,96.191,-25.391,1.465,-81.055,241.699
1688813896.981,114.746,-26.367,0.488,-80.566,-57.617
1688813896.985,10.742,-31.738,-7.324,-42.480,-1.953
1688813896.987,-197.266,-30.762,-7.812,28.320,283.203
1688813896.991,-166.016,-24.414,-9.277,5.859,189.453
1688813896.995,79.590,-20.508,-8.789,-78.613,-81.055
1688813896.999,120.605,-24.902,-13.184,-78.613,-65.918
1688813897.003,16.602,-33.691,-23.438,-54.688,76.172
1688813897.007,-178.711,-37.109,-27.832,-2.441,174.805
1688813897.011,-188.477,-29.785,-25.879,-17.090,140.137
1688813897.014,41.992,-29.297,-21.973,-88.379,-1.953
1688813897.018,112.305,-37.598,-27.832,-86.426,133.789
1688813897.022,31.738,-40.527,-30.762,-62.500,66.895
1688813897.026,-157.715,-41.016,-25.391,5.371,-54.688
1688813897.030,-199.707,-36.621,-24.414,17.090,40.527
1688813897.034,38.574,-34.668,-33.203,-74.707,1.953
1688813897.038,128.418,-33.203,-37.598,-93.262,-41.992
1688813897.042,59.082,-36.621,-38.574,-57.129,-47.363
1688813897.046,-124.023,-45.898,-40.527,14.160,187.988
1688813897.050,-218.750,-48.828,-36.621,32.227,303.711
1688813897.054,-2.441,-47.363,-40.527,-69.336,143.066
1688813897.058,112.793,-45.898,-43.457,-103.027,116.211
1688813897.061,60.547,-42.969,-42.480,-65.918,189.453
1688813897.065,-105.469,-39.062,-50.293,-0.977,213.867
1688813897.069,-229.492,-40.039,-54.199,18.555,87.891
1688813897.073,-33.691,-41.992,-52.734,-66.406,57.129
1688813897.077,119.629,-36.133,-45.898,-96.191,78.613
1688813897.077,72.754,-37.598,-38.574,-77.637,60.547
1688813897.081,-86.914,-44.434,-40.039,-31.738,-41.992
1688813897.085,-240.723,-45.898,-42.969,12.207,39.062
1688813897.089,-65.430,-36.621,-37.598,-52.246,127.930
1688813897.093,114.258,-31.250,-31.738,-97.168,66.406
1688813897.097,89.355,-35.645,-32.227,-74.219,43.945
1688813897.101,-53.711,-36.133,-28.809,-29.297,67.383
1688813897.104,-241.211,-40.039,-28.809,23.926,392.090
1688813897.108,-99.121,-40.527,-35.156,-39.062,360.840
1688813897.112,101.074,-39.062,-39.062,-110.352,-60.547
1688813897.116,85.938,-44.434,-41.016,-93.262,-68.359
1688813897.120,-41.992,-44.922,-39.062,-42.969,0.000
1688813897.122,-229.492,-39.062,-33.203,23.438,62.988
1688813897.126,-131.348,-33.691,-35.156,-20.020,11.719
1688813897.130,76.660,-25.879,-35.645,-83.984,-52.246
1688813897.134,87.891,-24.414,-33.203,-71.289,-3.906
1688813897.138,-17.090,-26.855,-31.738,-29.785,59.570
1688813897.142,-213.379,-29.785,-27.344,27.832,100.098
1688813897.146,-154.297,-31.738,-28.809,-4.883,242.676
1688813897.149,71.289,-26.855,-32.227,-79.590,331.543
1688813897.153,86.914,-27.832,-34.668,-84.961,39.551
1688813897.157,-8.789,-32.227,-33.203,-53.711,-112.793
1688813897.161,-201.172,-38.574,-32.715,17.090,213.867
1688813897.165,-188.965,-44.922,-36.621,-0.977,291.016
1688813897.168,43.457,-38.086,-36.133,-95.215,-38.574
1688813897.172,98.145,-38.086,-35.156,-86.914,-88.867
1688813897.176,19.043,-43.457,-32.715,-46.875,78.613
1688813897.180,-160.645,-41.992,-31.738,1.953,137.207
1688813897.184,-186.035,-38.086,-28.809,-11.719,20.996
1688813897.188,37.109,-38.574,-31.738,-93.750,73.730
1688813897.192,110.352,-46.387,-34.668,-98.633,317.871
1688813897.195,34.668,-50.293,-40.039,-77.148,137.207
1688813897.199,-156.738,-55.176,-46.387,-29.785,-59.570
1688813897.203,-225.098,-53.223,-49.805,-9.277,230.469
1688813897.207,1.465,-48.340,-55.664,-76.172,310.059
1688813897.211,103.027,-48.340,-55.176,-107.910,12.695
1688813897.227,46.387,-45.410,-45.898,-85.938,-88.867
1688813897.231,-126.465,-45.410,-38.086,-10.742,40.527
1688813897.235,-241.211,-45.898,-38.574,16.113,82.520
1688813897.239,-41.504,-43.457,-42.969,-74.707,-64.941
1688813897.243,92.285,-43.457,-46.875,-109.863,-93.750
1688813897.247,50.293,-41.504,-44.922,-86.426,104.980
1688813897.251,-107.422,-39.062,-39.062,-34.180,262.695
1688813897.254,-252.441,-43.457,-39.551,-7.812,123.047
1688813897.258,-78.125,-46.875,-47.363,-88.379,-39.062
1688813897.262,90.820,-45.898,-44.922,-117.676,32.227
1688813897.266,60.059,-44.922,-40.039,-90.820,107.910
1688813897.270,-92.285,-45.898,-38.086,-45.410,102.051
1688813897.272,-257.812,-49.805,-38.086,2.441,164.062
1688813897.276,-101.562,-46.875,-37.598,-59.570,280.273
1688813897.280,85.938,-44.434,-34.180,-110.840,239.746
1688813897.284,66.895,-43.457,-38.086,-96.191,-69.824
1688813897.288,-73.242,-48.340,-36.621,-48.340,-16.602
1688813897.292,-266.113,-49.805,-33.691,7.812,268.066
1688813897.296,-147.949,-46.387,-31.250,-48.828,189.941
1688813897.299,59.082,-44.922,-30.273,-118.164,-21.484
1688813897.303,64.941,-40.039,-29.297,-100.098,20.508
1688813897.307,-49.805,-40.527,-29.297,-47.363,178.711
1688813897.311,-239.746,-38.574,-30.762,8.301,116.211
1688813897.315,-159.180,-38.086,-32.715,-43.945,-4.395
1688813897.318,65.430,-39.062,-30.762,-112.305,71.289
1688813897.322,87.402,-34.668,-27.832,-86.914,98.145
1688813897.326,-16.602,-33.691,-28.809,-51.758,31.250
1688813897.330,-213.867,-40.039,-26.855,3.906,70.801
1688813897.334,-185.059,-44.434,-34.180,-26.855,160.645
1688813897.338,51.758,-43.945,-41.016,-98.633,104.980
1688813897.342,94.727,-41.992,-36.133,-95.703,2.930
1688813897.345,7.812,-44.434,-33.691,-63.477,-54.688
1688813897.349,-186.035,-51.758,-35.645,8.789,149.902
1688813897.353,-198.242,-48.828,-27.832,-0.977,313.965
1688813897.357,38.086,-41.992,-25.879,-93.262,-62.012
1688813897.361,109.375,-42.480,-26.855,-92.773,-79.590
1688813897.362,39.062,-41.504,-29.785,-54.199,217.773
1688813897.366,-158.203,-43.945,-39.062,-5.371,239.746
1688813897.370,-217.285,-42.480,-45.898,-18.555,34.180
1688813897.374,22.461,-36.621,-52.246,-92.285,-68.359
1688813897.378,115.723,-40.039,-58.594,-97.656,-61.523
1688813897.382,44.434,-41.504,-62.500,-77.637,-9.277
1688813897.386,-133.301,-41.016,-56.641,-29.785,36.133
1688813897.389,-217.773,-40.527,-48.340,-14.160,27.344
1688813897.393,-4.395,-33.691,-49.805,-78.613,197.266
1688813897.397,117.676,-26.367,-47.852,-104.004,225.586
1688813897.401,74.219,-23.926,-37.598,-85.938,-25.391
1688813897.405,-97.168,-28.320,-35.156,-23.926,75.195
1688813897.407,-215.820,-31.738,-36.621,0.977,123.535
1688813897.411,-17.578,-26.367,-36.621,-76.660,-29.297
1688813897.415,121.094,-25.391,-38.574,-106.445,-73.730
1688813897.419,72.754,-29.297,-46.387,-77.148,-11.230
1688813897.423,-77.148,-28.809,-50.781,-14.160,84.473
1688813897.427,-221.680,-35.156,-46.875,19.531,201.172
1688813897.431,-58.105,-40.039,-45.898,-53.711,103.516
1688813897.434,130.371,-33.691,-45.410,-76.660,63.965
1688813897.438,107.910,-28.320,-45.898,-41.016,241.211
1688813897.442,-40.527,-27.344,-49.805,-8.301,82.031
1688813897.446,-191.406,-27.832,-45.898,32.715,13.672
1688813897.450,-49.805,-29.785,-40.039,-28.809,146.484
1688813897.452,127.930,-32.227,-41.016,-82.031,110.352
1688813897.456,115.723,-31.738,-41.504,-63.477,30.762
1688813897.460,-13.672,-34.180,-41.016,-20.996,33.203
1688813897.464,-200.684,-34.180,-44.434,37.109,163.574
1688813897.468,-100.098,-29.785,-44.922,-10.742,172.363
1688813897.472,105.469,-26.855,-41.504,-78.613,-1.465
1688813897.476,114.258,-22.949,-36.621,-67.383,-2.441
1688813897.479,4.883,-27.344,-29.297,-19.531,235.352
1688813897.483,-200.684,-37.109,-30.273,39.062,283.691
1688813897.487,-143.555,-36.133,-34.180,-12.695,100.098
1688813897.491,79.590,-35.156,-32.227,-85.938,51.758
1688813897.495,97.656,-34.180,-26.855,-74.219,114.258
1688813897.497,-3.418,-31.738,-24.414,-40.039,15.137
1688813897.501,-213.379,-44.434,-31.250,13.184,81.543
1688813897.505,-208.496,-48.340,-33.691,-21.484,83.984
1688813897.509,18.555,-46.387,-33.203,-101.074,-95.703
1688813897.513,62.988,-50.293,-35.156,-98.633,-80.078
1688813897.517,-17.578,-49.316,-39.062,-65.430,41.504
1688813897.521,-203.125,-51.758,-41.504,5.859,229.980
1688813897.524,-235.352,-54.199,-45.410,-8.301,297.852
1688813897.528,-11.230,-53.711,-50.293,-106.934,-31.250
1688813897.532,76.660,-55.664,-42.480,-117.676,-128.418
1688813897.536,-2.441,-53.223,-38.086,-86.426,32.227
1688813897.540,-199.707,-54.199,-42.480,-20.996,67.383
1688813897.543,-260.742,-54.688,-47.363,-6.348,137.695
1688813897.547,-39.062,-52.734,-49.805,-84.961,113.770
1688813897.551,72.266,-45.898,-49.805,-89.844,170.410
1688813897.555,15.625,-39.062,-52.734,-54.199,166.992
1688813897.559,-154.785,-34.668,-42.969,-3.418,-31.738
1688813897.563,-252.441,-34.668,-28.320,24.414,129.395
1688813897.567,-47.852,-41.016,-27.344,-53.223,315.430
1688813897.570,91.797,-38.086,-22.949,-84.961,130.371
1688813897.574,49.805,-37.598,-17.578,-70.312,-112.305
1688813897.578,-118.652,-41.504,-21.484,-9.766,-20.508
1688813897.582,-261.719,-42.969,-20.508,31.738,173.340
1688813897.586,-80.078,-39.062,-23.926,-56.152,69.824
1688813897.589,77.637,-40.039,-29.785,-103.027,-15.137
1688813897.593,46.387,-42.480,-30.762,-79.102,61.035
1688813897.597,-99.609,-42.480,-39.062,-32.227,125.000
1688813897.601,-254.883,-40.527,-38.574,17.090,131.348
1688813897.605,-95.215,-36.133,-27.344,-39.551,24.902
1688813897.609,83.984,-41.992,-26.367,-80.566,86.914
1688813897.613,64.453,-47.363,-33.691,-58.105,294.434
1688813897.616,-71.289,-41.992,-35.645,-25.391,64.453
1688813897.620,-256.348,-44.434,-29.785,17.090,-0.977
1688813897.624,-139.160,-47.852,-31.250,-43.457,121.094
1688813897.628,72.266,-41.992,-31.250,-98.145,-18.066
