timestamps,TP9,AF7,AF8,TP10,Right AUX
1688814289.286,-33.203,-38.086,-28.809,-39.551,-46.875
1688814289.290,-96.191,-39.062,-29.297,2.441,-8.301
1688814289.294,-78.125,-42.480,-31.250,-5.859,-9.766
1688814289.298,5.859,-44.434,-23.926,-39.062,25.391
1688814289.302,20.508,-40.527,-18.066,-40.039,39.551
1688814289.306,-21.973,-41.504,-24.902,-29.785,-100.586
1688814289.310,-86.426,-43.457,-25.391,0.488,46.387
1688814289.313,-80.078,-44.922,-22.461,9.766,286.621
1688814289.317,-4.395,-42.480,-25.391,-41.016,107.422
1688814289.321,11.230,-41.016,-24.902,-66.895,-214.844
1688814289.325,-21.484,-45.410,-23.438,-36.621,-155.762
1688814289.329,-90.332,-44.922,-28.809,-1.465,24.902
1688814289.345,-102.051,-40.039,-37.109,-6.348,-43.457
1688814289.349,-26.855,-41.016,-42.480,-38.086,-118.652
1688814289.353,7.324,-41.992,-34.180,-56.641,-116.699
1688814289.357,-21.484,-36.621,-31.250,-41.992,-155.273
1688814289.361,-83.008,-33.691,-33.203,-4.883,-37.109
1688814289.365,-109.375,-35.645,-32.715,7.812,61.523
1688814289.369,-36.621,-29.297,-34.180,-37.109,63.477
1688814289.372,-4.395,-32.227,-39.062,-71.289,303.711
1688814289.376,-36.621,-36.621,-42.969,-73.242,85.938
1688814289.380,-91.309,-35.156,-44.922,-51.758,-139.160
1688814289.384,-119.141,-38.574,-42.480,-31.250,-20.508
1688814289.388,-52.734,-39.062,-43.945,-63.965,-88.379
1688814289.376,-10.254,-36.133,-44.434,-92.285,-194.336
1688814289.380,-22.461,-37.598,-41.504,-86.914,-161.133
1688814289.384,-64.941,-41.992,-41.016,-52.734,30.762
1688814289.388,-104.004,-39.062,-41.992,-16.602,69.336
1688814289.392,-50.781,-40.039,-35.156,-53.711,-122.070
1688814289.396,5.371,-37.109,-31.738,-76.660,-98.633
1688814289.400,-10.254,-41.992,-34.668,-59.570,-32.715
1688814289.403,-62.988,-45.410,-32.227,-41.992,-24.414
1688814289.407,-107.422,-42.969,-26.367,-13.184,-20.508
1688814289.411,-60.059,-41.504,-26.855,-22.461,-75.195
1688814289.415,-8.789,-41.016,-33.691,-54.688,165.527
1688814289.419,-23.438,-44.922,-40.039,-61.523,163.574
1688814289.421,-62.988,-49.316,-41.504,-30.762,-97.168
1688814289.425,-115.723,-46.387,-41.016,13.672,-51.758
1688814289.429,-85.938,-48.340,-45.898,-5.371,9.766
1688814289.433,-14.160,-53.711,-47.363,-41.016,-59.082
1688814289.437,-12.695,-50.781,-42.969,-49.316,-166.992
1688814289.441,-64.453,-51.758,-41.504,-24.414,-9.766
1688814289.445,-124.512,-51.270,-40.039,14.648,185.547
1688814289.448,-89.355,-45.898,-33.691,5.371,41.016
1688814289.452,-7.812,-44.922,-36.133,-36.133,-153.809
1688814289.456,-4.395,-41.992,-38.574,-50.781,-121.094
1688814289.460,-44.434,-34.668,-35.156,-36.621,-13.184
1688814289.464,-98.145,-28.320,-37.598,1.953,-129.883
1688814289.480,-81.055,-21.484,-38.086,11.230,-137.207
1688814289.484,-1.953,-15.625,-35.645,-27.344,75.684
1688814289.488,20.996,-17.578,-34.668,-53.711,-44.434
1688814289.492,-11.719,-17.578,-30.273,-46.875,-184.082
1688814289.496,-80.078,-18.555,-30.762,3.418,-36.133
1688814289.500,-83.496,-25.391,-34.180,24.902,257.812
1688814289.504,-4.395,-21.973,-34.668,-21.973,123.047
1688814289.507,26.855,-21.973,-33.691,-51.270,-224.121
1688814289.511,0.000,-26.367,-28.809,-29.297,-149.414
1688814289.515,-62.012,-28.320,-23.926,12.207,194.336
1688814289.519,-81.543,-31.250,-25.391,20.020,135.742
1688814289.523,-20.020,-35.645,-25.391,-18.066,-112.793
1688814289.513,11.230,-36.621,-23.926,-48.828,-78.125
1688814289.517,-14.160,-32.715,-22.461,-48.828,13.672
1688814289.521,-68.359,-36.621,-24.902,-29.297,-52.246
1688814289.525,-88.867,-35.645,-26.367,-8.301,-84.473
1688814289.529,-14.160,-30.273,-23.926,-40.527,-90.820
1688814289.533,26.855,-32.227,-25.391,-78.125,-41.992
1688814289.537,1.465,-26.855,-16.113,-74.219,-16.113
1688814289.540,-61.035,-28.809,-17.090,-49.805,-105.469
1688814289.544,-110.840,-37.598,-31.738,-32.715,11.719
1688814289.548,-51.758,-31.250,-21.973,-60.547,182.129
1688814289.552,0.000,-19.043,-18.066,-109.863,-72.754
1688814289.556,-38.086,-26.367,-23.926,-123.047,-139.648
1688814289.571,-113.770,-26.855,-16.602,-93.262,-32.715
1688814289.575,-170.410,-21.484,-13.184,-81.543,-14.648
1688814289.579,-131.348,-14.648,-6.836,-129.883,-67.871
1688814289.583,-94.238,-10.742,0.488,-181.152,-125.000
1688814289.587,-133.301,-22.461,-3.906,-196.289,114.746
1688814289.591,-212.402,-28.809,-6.836,-182.129,288.574
1688814289.595,-271.484,-18.555,-4.883,-173.340,13.672
1688814289.598,-237.793,-8.301,-4.883,-204.102,-87.402
1688814289.602,-185.547,-6.348,-4.883,-239.258,80.566
1688814289.606,-191.406,-6.836,-3.906,-263.184,-72.754
1688814289.610,-235.352,-10.742,-6.836,-237.305,-201.172
1688814289.614,-283.203,-13.672,-6.348,-172.852,-29.297
1688814289.615,-236.328,-5.371,-9.277,-175.781,-33.203
1688814289.619,-149.902,-4.395,-20.020,-212.891,-172.852
1688814289.623,-133.789,-17.090,-21.973,-203.125,-244.141
1688814289.627,-169.922,-17.090,-21.973,-165.527,-130.371
1688814289.631,-213.379,-13.184,-24.414,-115.234,26.855
1688814289.635,-171.387,-23.438,-28.809,-114.746,44.434
1688814289.639,-86.426,-30.762,-32.715,-156.250,-46.875
1688814289.642,-70.312,-35.645,-37.109,-159.668,-106.934
1688814289.646,-96.191,-46.387,-42.969,-131.348,155.273
1688814289.650,-134.766,-43.945,-44.434,-92.285,74.707
1688814289.654,-105.469,-33.203,-40.039,-84.961,-81.543
1688814289.658,-30.762,-37.109,-40.039,-125.977,-104.004
1688814289.660,-20.508,-41.992,-46.875,-151.367,-119.141
1688814289.664,-41.504,-43.945,-50.781,-139.648,-94.238
1688814289.668,-88.379,-45.898,-51.270,-98.145,-29.785
1688814289.672,-89.355,-50.293,-49.805,-80.078,112.305
1688814289.676,-5.371,-45.898,-42.480,-112.305,18.066
1688814289.680,33.203,-40.527,-38.574,-119.141,-126.953
1688814289.684,13.672,-37.598,-35.645,-84.961,-119.629
1688814289.687,-49.316,-42.480,-37.598,-30.762,151.855
1688814289.691,-66.406,-47.363,-46.875,-7.812,293.457
1688814289.695,19.043,-41.016,-47.852,-53.223,-17.090
1688814289.699,56.641,-42.480,-47.363,-76.660,-244.141
1688814289.703,20.996,-47.363,-52.246,-64.941,-191.406
1688814289.705,-33.203,-41.504,-49.805,-40.039,-67.383
1688814289.709,-50.781,-35.156,-47.852,-13.184,-34.668
1688814289.713,8.789,-40.039,-47.852,-45.410,-75.195
1688814289.717,44.922,-42.480,-48.340,-81.543,-143.066
1688814289.721,34.180,-36.133,-44.434,-65.918,-164.062
1688814289.725,-7.324,-30.762,-39.062,-20.996,-74.707
1688814289.729,-49.316,-36.621,-40.527,16.113,130.859
1688814289.732,-4.883,-41.016,-41.016,-15.625,186.523
1688814289.736,47.363,-31.738,-39.062,-57.129,-83.008
1688814289.740,37.109,-29.297,-43.945,-41.992,-213.379
1688814289.744,-8.301,-30.273,-46.387,9.766,-36.133
1688814289.748,-43.945,-30.273,-41.016,51.758,84.961
1688814289.750,-1.953,-29.785,-39.062,17.090,-116.699
1688814289.754,62.500,-25.879,-41.016,-30.273,-139.160
1688814289.758,58.594,-25.879,-46.387,-20.508,20.508
1688814289.762,13.672,-28.320,-45.410,18.066,-5.859
1688814289.766,-33.203,-31.250,-45.898,56.152,-89.844
1688814289.770,0.488,-31.250,-49.805,27.832,-58.594
1688814289.774,66.895,-27.344,-47.852,-6.836,77.148
1688814289.777,57.129,-29.297,-45.410,-0.977,-14.648
1688814289.781,7.812,-29.297,-44.434,25.879,-191.406
1688814289.785,-40.039,-28.320,-41.504,72.266,-33.691
1688814289.789,-9.766,-24.414,-38.574,58.594,99.609
1688814289.793,48.340,-21.484,-41.016,5.859,5.371
1688814289.797,44.922,-27.344,-38.574,-5.859,-128.418
1688814289.801,7.812,-33.203,-32.227,22.461,-141.602
1688814289.805,-45.410,-33.691,-30.762,68.359,21.973
1688814289.809,-31.738,-36.133,-33.203,64.453,64.941
1688814289.813,40.527,-37.109,-37.598,12.695,-77.637
1688814289.817,51.758,-36.133,-35.645,0.977,-38.086
1688814289.821,19.043,-33.203,-29.297,26.367,129.883
1688814289.824,-40.039,-31.738,-34.180,44.434,-28.320
1688814289.828,-33.203,-32.715,-40.039,48.828,-111.816
1688814289.832,36.133,-32.715,-40.039,9.277,-39.551
1688814289.836,47.852,-30.762,-42.969,-22.949,-63.965
1688814289.840,25.391,-26.367,-42.969,-3.906,-182.617
1688814289.855,-27.832,-23.438,-35.645,23.438,-82.520
1688814289.859,-43.457,-23.438,-33.203,36.133,206.055
1688814289.863,28.320,-21.484,-33.203,5.859,185.547
1688814289.867,57.129,-23.438,-32.715,-24.902,-89.355
1688814289.871,23.438,-23.438,-35.645,-25.391,-163.086
1688814289.875,-30.762,-18.066,-36.621,9.277,142.578
1688814289.879,-44.922,-14.160,-31.738,32.715,272.949
1688814289.882,20.508,-14.160,-34.668,-17.578,-45.410
1688814289.886,58.594,-13.672,-39.062,-41.016,-103.027
1688814289.890,33.203,-17.090,-40.527,-21.484,61.035
1688814289.894,-29.785,-20.996,-42.969,6.836,-48.828
1688814289.898,-58.105,-18.555,-44.434,29.297,-137.207
1688814289.900,10.742,-14.160,-42.480,-0.488,-107.422
1688814289.904,54.688,-15.137,-38.086,-27.344,-86.914
1688814289.908,24.414,-17.578,-43.945,-26.367,-139.160
1688814289.912,-33.691,-21.484,-45.898,-5.371,-89.844
1688814289.916,-75.684,-24.902,-38.086,23.438,41.992
1688814289.920,-20.020,-24.414,-40.039,-6.836,141.113
1688814289.924,41.016,-24.902,-47.852,-45.898,110.840
1688814289.927,31.250,-26.367,-40.527,-32.715,-120.117
1688814289.931,-19.531,-26.855,-38.086,25.391,-71.289
1688814289.935,-73.730,-25.879,-38.574,79.102,273.438
1688814289.939,-28.809,-24.414,-40.039,35.156,58.105
1688814289.943,48.340,-25.391,-41.016,-20.996,-237.305
1688814289.945,41.016,-31.738,-30.762,-34.180,-151.367
1688814289.949,-32.227,-34.668,-29.785,-30.273,-83.984
1688814289.953,-87.891,-29.297,-32.715,18.066,-10.742
1688814289.957,-47.852,-27.344,-31.738,5.371,-5.859
1688814289.961,21.484,-29.785,-31.738,-44.434,67.383
1688814289.965,21.973,-31.738,-39.062,-60.547,110.840
1688814289.969,-22.461,-36.133,-42.969,-67.383,31.738
1688814289.972,-79.590,-40.527,-38.574,-35.645,68.848
1688814289.976,-56.641,-39.551,-36.133,-37.598,238.281
1688814289.980,23.926,-35.645,-31.738,-104.004,164.062
1688814289.984,33.691,-30.762,-31.738,-136.230,-187.500
1688814289.988,-12.695,-34.180,-36.621,-116.699,-126.953
1688814289.990,-75.684,-31.738,-35.645,-73.730,53.223
1688814289.994,-62.500,-30.762,-34.668,-75.195,-36.133
1688814289.998,18.066,-31.250,-31.738,-130.371,-115.723
1688814290.002,35.645,-28.809,-29.297,-149.902,-148.438
1688814290.006,3.906,-30.762,-26.855,-132.324,-127.441
1688814290.010,-58.594,-32.715,-25.879,-87.891,42.969
1688814290.014,-62.500,-30.273,-30.762,-86.914,-15.625
1688814290.017,22.461,-30.273,-32.715,-143.066,-70.801
1688814290.021,61.035,-31.250,-32.227,-156.250,354.004
1688814290.025,33.203,-30.273,-33.691,-146.484,77.637
1688814290.029,-40.039,-32.227,-35.156,-119.629,-178.711
1688814290.033,-60.547,-33.691,-39.062,-114.746,-45.410
1688814290.035,24.414,-33.691,-40.527,-156.250,-110.840
1688814290.039,66.895,-34.180,-35.156,-180.664,-100.098
1688814290.043,35.645,-31.738,-32.227,-173.340,-144.531
1688814290.047,-32.715,-29.297,-29.785,-136.230,54.688
1688814290.051,-67.871,-26.367,-30.762,-107.422,134.766
1688814290.055,10.254,-28.320,-39.551,-135.254,-86.914
1688814290.059,62.500,-30.273,-43.457,-174.316,-116.211
1688814290.062,35.645,-30.273,-37.109,-178.711,174.805
1688814290.066,-39.551,-37.598,-36.621,-160.156,132.812
1688814290.070,-79.590,-42.480,-38.574,-150.879,-149.902
1688814290.074,-20.508,-45.898,-38.574,-175.781,-146.973
1688814290.078,30.273,-48.828,-41.992,-196.289,-9.766
1688814290.080,12.695,-47.363,-43.945,-196.289,-74.707
1688814290.084,-50.293,-44.922,-40.527,-166.504,-183.105
1688814290.088,-105.469,-44.922,-38.086,-141.602,-45.410
1688814290.092,-59.570,-47.363,-38.574,-174.805,59.082
1688814290.096,16.602,-40.527,-40.039,-202.637,-51.270
1688814290.100,19.531,-29.297,-36.133,-195.801,-141.113
1688814290.104,-36.621,-33.691,-38.574,-174.805,-72.754
1688814290.107,-104.492,-42.480,-42.969,-143.066,167.969
1688814290.111,-55.176,-40.527,-38.574,-158.691,7.324
1688814290.115,27.344,-31.738,-37.109,-202.637,-211.914
1688814290.119,21.973,-31.250,-43.457,-208.008,-128.906
1688814290.123,-26.855,-36.133,-40.527,-167.480,-33.691
1688814290.126,-103.516,-33.691,-37.598,-116.211,-2.930
1688814290.130,-80.566,-36.133,-41.016,-125.488,28.809
1688814290.134,13.672,-40.527,-40.039,-154.785,99.609
1688814290.138,34.180,-32.227,-34.180,-141.113,94.238
1688814290.142,-10.742,-32.227,-33.203,-110.352,-91.797
1688814290.146,-87.402,-34.180,-38.086,-76.660,22.949
1688814290.150,-75.195,-30.273,-41.504,-76.172,343.262
1688814290.153,16.602,-28.809,-39.551,-111.816,166.992
1688814290.157,40.527,-28.809,-36.621,-125.000,-187.500
1688814290.161,-5.371,-26.367,-32.715,-95.703,-118.164
1688814290.165,-83.496,-23.926,-27.344,-56.152,13.184
1688814290.169,-84.961,-26.367,-26.855,-58.105,-36.133
1688814290.171,8.301,-25.391,-30.273,-102.539,-125.000
1688814290.175,35.156,-25.391,-32.715,-115.234,-141.113
1688814290.179,-9.277,-24.902,-35.156,-95.215,-57.617
1688814290.183,-88.867,-25.879,-37.598,-77.148,5.371
1688814290.187,-103.027,-32.715,-38.574,-80.566,-78.613
1688814290.191,-9.277,-34.668,-41.504,-116.699,41.504
1688814290.195,31.738,-33.691,-43.457,-135.254,352.051
1688814290.198,-1.953,-32.715,-41.992,-131.348,138.184
1688814290.202,-66.406,-29.785,-34.180,-95.703,5.859
1688814290.206,-94.727,-27.832,-33.203,-81.543,65.430
1688814290.210,-17.090,-32.227,-38.574,-117.188,-35.645
1688814290.214,34.180,-32.227,-39.062,-124.023,-161.621
1688814290.245,2.930,-30.273,-42.480,-114.258,-128.906
1688814290.249,-76.172,-36.133,-46.387,-89.844,112.305
1688814290.253,-115.234,-31.738,-45.898,-83.008,67.871
1688814290.257,-35.156,-24.414,-46.387,-115.723,-159.180
1688814290.261,26.855,-26.367,-42.969,-124.023,-179.199
1688814290.265,10.254,-27.344,-38.574,-112.305,-6.836
1688814290.269,-61.035,-24.902,-37.598,-90.332,20.996
1688814290.272,-113.281,-25.391,-37.598,-57.617,-25.879
1688814290.276,-48.340,-24.414,-37.109,-81.055,-77.637
1688814290.280,4.395,-28.809,-39.062,-117.188,81.055
1688814290.284,-10.254,-36.621,-49.316,-115.234,96.191
1688814290.288,-76.172,-43.945,-52.734,-96.680,-130.859
1688814290.275,-136.230,-44.434,-46.387,-70.312,-86.426
1688814290.279,-76.660,-43.457,-45.410,-92.773,-101.074
1688814290.283,2.441,-43.457,-40.039,-124.512,-128.418
1688814290.287,-2.441,-36.133,-36.133,-119.629,-103.516
1688814290.291,-62.012,-38.086,-36.621,-101.562,-68.848
1688814290.295,-136.230,-44.434,-33.691,-68.848,49.316
1688814290.299,-100.098,-38.574,-30.273,-87.891,28.320
1688814290.302,-14.648,-39.551,-32.715,-130.859,-125.977
1688814290.306,-12.207,-43.945,-35.645,-137.207,-68.848
1688814290.310,-65.430,-36.621,-34.180,-124.023,-42.480
1688814290.314,-136.230,-32.715,-29.297,-100.586,-112.793
1688814290.318,-110.352,-37.109,-34.180,-120.605,-153.320
1688814290.320,-14.648,-39.062,-41.016,-150.879,-23.438
1688814290.324,-1.465,-35.645,-42.480,-145.020,300.781
1688814290.328,-48.828,-36.133,-41.504,-121.582,147.461
1688814290.332,-127.930,-36.133,-33.203,-86.914,-84.961
1688814290.336,-122.559,-28.320,-29.785,-106.934,-78.125
1688814290.340,-24.902,-27.344,-30.762,-144.531,-100.098
1688814290.344,0.488,-29.785,-34.668,-150.879,-131.348
1688814290.347,-48.828,-31.738,-30.762,-135.254,-128.418
1688814290.351,-133.301,-38.086,-25.391,-99.121,87.402
1688814290.355,-133.301,-35.645,-27.344,-103.516,62.988
1688814290.359,-38.086,-32.227,-32.227,-149.414,-113.281
1688814290.363,2.441,-27.344,-32.227,-156.250,-109.863
1688814290.365,-32.715,-27.832,-30.273,-134.766,-36.133
1688814290.369,-121.582,-28.809,-33.691,-102.051,-73.730
1688814290.373,-138.672,-28.320,-36.621,-94.238,-122.070
1688814290.377,-47.852,-34.668,-40.527,-130.859,-136.230
1688814290.381,-4.395,-35.645,-40.527,-139.648,-171.875
1688814290.385,-25.391,-35.645,-37.598,-107.910,-101.562
1688814290.389,-100.098,-37.598,-37.598,-60.547,-11.719
1688814290.392,-134.766,-31.738,-36.621,-20.020,54.688
1688814290.396,-42.969,-28.320,-39.551,-19.043,173.828
1688814290.400,18.555,-26.855,-39.551,-41.992,-146.973
1688814290.404,-9.766,-28.320,-40.527,-34.668,-312.500
1688814290.408,-85.938,-29.785,-43.457,6.348,-101.562
1688814290.411,-136.719,-27.344,-42.480,30.273,8.789
1688814290.415,-58.594,-25.391,-39.062,23.926,-55.176
1688814290.419,12.695,-27.832,-40.527,17.578,-152.344
1688814290.423,5.859,-26.855,-35.156,21.973,63.965
1688814290.427,-58.105,-22.461,-33.203,53.711,226.562
1688814290.431,-120.605,-28.809,-38.086,68.848,139.648
1688814290.435,-56.152,-31.738,-37.598,31.738,49.316
1688814290.438,31.250,-28.320,-35.156,3.418,89.355
1688814290.442,27.344,-28.809,-33.691,14.648,17.090
1688814290.446,-36.133,-31.738,-35.156,43.457,-125.000
1688814290.450,-113.281,-36.133,-37.109,71.289,-65.430
1688814290.454,-59.082,-36.133,-36.133,54.688,-54.199
1688814290.457,31.250,-33.691,-39.062,23.438,-137.207
1688814290.461,32.715,-32.227,-39.551,36.621,-159.668
1688814290.465,-27.832,-31.250,-39.551,74.219,-27.344
1688814290.469,-109.863,-29.785,-41.016,107.910,104.492
1688814290.473,-69.336,-31.250,-42.969,94.727,-41.016
1688814290.477,21.484,-27.344,-42.969,57.617,-131.836
1688814290.481,21.973,-31.250,-43.457,54.688,18.555
1688814290.484,-30.762,-37.598,-41.504,90.820,229.004
1688814290.488,-117.188,-35.645,-41.992,111.816,68.848
1688814290.492,-107.910,-43.457,-47.363,74.707,-89.844
1688814290.496,-5.371,-44.434,-42.969,36.621,-112.305
1688814290.500,14.160,-33.691,-34.668,52.246,-112.305
1688814290.500,-38.574,-32.227,-34.180,88.379,-117.188
1688814290.504,-115.234,-32.715,-31.250,117.676,-11.230
1688814290.508,-103.027,-29.785,-27.832,122.070,141.602
1688814290.512,-5.859,-24.414,-30.273,86.426,8.301
1688814290.516,20.996,-26.367,-34.668,74.219,-137.695
1688814290.520,-15.625,-31.250,-40.039,97.656,-122.559
1688814290.524,-95.703,-30.762,-35.645,146.484,236.816
1688814290.527,-118.652,-30.273,-35.645,148.926,433.105
1688814290.531,-30.762,-28.320,-48.828,79.102,-44.434
1688814290.535,10.742,-30.762,-49.805,65.430,-229.980
1688814290.539,-24.902,-31.250,-50.293,93.750,-111.816
1688814290.543,-110.352,-32.227,-53.223,129.395,-94.238
1688814290.545,-142.090,-35.645,-51.758,145.996,-66.895
1688814290.549,-47.852,-29.785,-46.387,114.746,-56.641
1688814290.553,13.184,-24.902,-43.457,94.238,-108.887
1688814290.557,-13.184,-24.902,-49.316,113.281,-209.961
1688814290.561,-90.332,-27.344,-49.316,145.996,-202.637
1688814290.565,-140.625,-33.691,-48.828,154.297,82.520
1688814290.569,-62.012,-36.133,-53.223,123.535,242.188
1688814290.572,3.418,-30.762,-55.176,95.215,71.289
1688814290.576,-14.648,-24.902,-52.734,92.285,-138.672
1688814290.580,-81.055,-28.320,-46.387,120.117,-84.473
1688814290.584,-135.742,-34.668,-48.340,143.066,89.844
1688814290.588,-64.453,-37.598,-52.734,109.863,-65.430
1688814290.605,16.602,-36.621,-49.316,71.289,-204.590
1688814290.609,12.207,-31.738,-50.293,70.801,-35.645
1688814290.613,-59.082,-31.738,-52.734,96.191,30.273
1688814290.617,-123.047,-32.227,-45.410,95.703,-102.051
1688814290.621,-65.430,-26.367,-37.109,40.527,-100.586
1688814290.625,11.230,-22.949,-39.551,6.348,88.867
1688814290.629,11.719,-20.996,-41.016,8.301,76.172
1688814290.632,-54.199,-20.508,-42.480,32.715,-52.734
1688814290.636,-140.625,-28.809,-50.293,61.523,-47.852
1688814290.640,-96.680,-35.156,-57.617,37.598,164.551
1688814290.644,-2.930,-27.832,-56.152,-2.441,26.855
1688814290.648,2.441,-25.391,-49.316,1.953,-267.578
1688814290.665,-50.293,-30.762,-47.363,35.156,-156.250
1688814290.669,-132.324,-31.738,-49.316,76.660,220.703
1688814290.673,-103.027,-31.738,-52.246,61.035,138.672
1688814290.677,-9.277,-34.180,-55.664,20.996,-114.746
1688814290.681,3.906,-34.180,-57.617,23.438,-122.559
1688814290.685,-44.434,-38.086,-57.617,42.969,-39.062
1688814290.689,-132.324,-36.621,-53.223,67.383,35.645
1688814290.692,-112.305,-28.320,-44.434,56.641,-105.469
1688814290.696,-3.418,-34.668,-45.410,8.301,-132.812
1688814290.700,20.020,-34.180,-46.875,5.371,161.133
1688814290.704,-26.367,-31.738,-43.945,15.625,-20.508
1688814290.708,-108.887,-32.227,-40.527,41.016,-183.105
1688814290.695,-107.910,-29.297,-41.016,44.922,44.434
1688814290.699,-8.789,-23.438,-45.410,-1.953,37.109
1688814290.703,19.531,-20.020,-47.363,-16.602,-119.629
1688814290.707,-27.344,-27.344,-47.852,-0.488,-145.996
1688814290.711,-117.676,-35.156,-46.387,39.551,23.926
1688814290.715,-142.090,-33.203,-41.992,60.059,102.539
1688814290.719,-47.363,-32.227,-42.480,19.043,-14.648
1688814290.722,9.277,-39.551,-46.387,2.930,-101.074
1688814290.726,-14.648,-35.645,-49.805,23.926,-78.613
1688814290.730,-99.121,-24.902,-46.875,57.617,-106.445
1688814290.734,-132.812,-21.973,-41.992,69.824,-132.812
1688814290.738,-44.922,-26.855,-39.062,30.762,-151.855
1688814290.741,9.766,-29.297,-38.574,11.719,48.340
1688814290.745,-15.137,-27.832,-40.039,18.066,22.949
1688814290.749,-81.055,-24.902,-42.480,36.621,-126.953
1688814290.753,-121.582,-22.461,-37.109,46.875,-12.207
1688814290.757,-51.270,-24.902,-31.250,2.930,23.926
1688814290.761,19.531,-25.391,-30.762,-25.391,-15.625
1688814290.765,6.348,-21.973,-29.785,-21.484,-73.242
1688814290.768,-67.383,-25.391,-31.250,-2.930,11.719
1688814290.772,-125.000,-29.297,-32.715,28.809,262.695
1688814290.776,-55.176,-28.320,-31.250,-14.648,-13.184
1688814290.780,27.344,-28.320,-31.250,-60.547,-208.984
1688814290.784,14.160,-29.785,-32.715,-50.293,-147.949
1688814290.785,-60.059,-31.738,-34.668,-19.531,-113.770
1688814290.789,-123.047,-30.273,-34.180,13.672,-21.973
1688814290.793,-70.312,-28.809,-33.203,-5.371,-83.496
1688814290.797,6.836,-27.832,-33.691,-34.668,-25.879
1688814290.801,5.371,-28.809,-34.180,-32.715,12.695
1688814290.805,-52.734,-32.715,-36.133,-32.227,-34.180
1688814290.809,-123.535,-33.691,-39.551,-25.879,100.586
1688814290.812,-78.613,-30.762,-35.645,-38.574,311.523
1688814290.816,18.066,-26.855,-31.250,-79.102,281.738
1688814290.820,23.438,-27.832,-38.086,-103.516,-95.215
1688814290.824,-32.715,-33.691,-43.945,-91.797,-171.875
1688814290.828,-113.281,-38.086,-42.480,-61.523,-32.715
1688814290.830,-84.961,-36.621,-41.504,-72.266,-121.582
1688814290.834,8.301,-33.203,-43.945,-125.000,-206.055
1688814290.838,20.996,-34.180,-42.969,-143.555,-220.703
1688814290.842,-19.531,-31.738,-34.668,-115.234,-190.918
1688814290.846,-94.238,-31.250,-32.227,-85.449,-99.121
1688814290.850,-92.285,-31.738,-30.762,-97.168,-164.062
1688814290.854,-0.977,-28.320,-29.785,-140.137,-138.672
1688814290.857,21.973,-30.273,-34.180,-130.371,220.215
1688814290.861,-21.973,-32.715,-33.691,-113.281,58.594
1688814290.865,-95.703,-35.645,-32.715,-77.637,-126.953
1688814290.869,-98.145,-34.668,-36.621,-56.641,-0.977
1688814290.873,-6.348,-34.668,-37.598,-103.027,-46.875
1688814290.875,29.297,-40.039,-36.621,-121.094,-151.855
1688814290.879,0.488,-41.504,-34.180,-101.074,-94.238
1688814290.883,-79.590,-41.016,-30.273,-65.918,73.730
1688814290.887,-109.375,-39.551,-31.250,-63.477,88.867
1688814290.891,-24.902,-35.645,-35.156,-102.051,-105.957
1688814290.895,27.344,-29.785,-30.762,-113.770,-57.617
1688814290.899,4.395,-25.879,-26.855,-85.938,205.078
1688814290.902,-69.336,-23.438,-34.668,-57.617,188.965
1688814290.906,-107.910,-27.832,-38.574,-58.105,-52.246
1688814290.910,-22.461,-31.250,-34.180,-93.750,6.348
1688814290.914,28.320,-30.762,-35.156,-105.469,90.820
1688814290.918,-0.977,-30.273,-42.480,-86.914,-63.477
1688814290.922,-66.406,-28.809,-40.039,-57.617,-109.863
1688814290.926,-113.281,-25.391,-34.180,-31.738,-44.922
1688814290.930,-45.898,-29.785,-34.668,-67.871,-114.746
1688814290.934,26.367,-34.668,-36.621,-99.121,-172.852
1688814290.938,8.789,-33.203,-34.180,-80.078,-187.500
1688814290.942,-67.871,-37.109,-29.785,-39.062,-7.812
1688814290.946,-128.418,-38.086,-30.762,-19.531,115.723
1688814290.949,-70.312,-35.645,-36.133,-57.617,-118.164
1688814290.953,7.324,-33.691,-36.621,-91.797,-195.801
1688814290.957,9.766,-28.320,-33.691,-79.102,-43.457
1688814290.961,-48.340,-30.762,-34.180,-27.832,69.336
1688814290.965,-122.559,-36.133,-37.109,-4.395,74.219
1688814290.966,-64.941,-31.738,-33.691,-41.992,75.684
1688814290.970,20.020,-29.297,-28.320,-64.453,91.797
1688814290.974,7.812,-28.809,-29.785,-64.453,46.387
1688814290.978,-41.504,-28.320,-31.250,-57.617,-67.871
1688814290.982,-111.816,-28.809,-27.344,-27.344,-78.125
1688814290.986,-84.473,-30.762,-27.344,-40.039,175.781
1688814290.990,11.230,-35.645,-33.203,-77.148,216.309
1688814290.993,16.113,-37.598,-37.109,-92.773,-145.020
1688814290.997,-40.039,-36.621,-35.156,-97.168,-156.250
1688814291.001,-116.699,-34.668,-33.691,-64.941,68.848
1688814291.005,-96.191,-33.691,-38.574,-80.566,-22.949
1688814291.009,9.277,-32.715,-39.062,-123.535,-181.641
1688814291.013,26.367,-32.715,-40.039,-137.207,-117.676
1688814291.017,-29.297,-41.504,-47.363,-119.141,-60.547
1688814291.021,-116.699,-45.898,-49.805,-79.102,18.066
1688814291.025,-113.770,-42.969,-42.480,-98.145,-16.602
1688814291.029,-5.371,-41.992,-41.504,-144.531,-62.500
1688814291.033,28.809,-42.480,-39.551,-138.184,134.277
1688814291.037,-14.160,-46.387,-37.598,-122.070,107.422
1688814291.040,-103.027,-45.898,-36.133,-85.938,-86.426
1688814291.044,-124.023,-44.922,-35.645,-69.336,-25.879
1688814291.048,-22.461,-41.016,-35.645,-114.258,144.043
1688814291.052,27.344,-35.645,-32.227,-130.859,-67.871
1688814291.056,-15.137,-41.992,-32.227,-104.004,-210.449
1688814291.070,-96.191,-41.504,-33.691,-74.219,-24.902
1688814291.074,-124.023,-39.551,-31.250,-68.848,132.812
1688814291.078,-35.156,-44.434,-32.227,-109.375,5.371
1688814291.082,23.438,-41.992,-31.250,-126.465,-131.348
1688814291.086,1.465,-44.434,-30.273,-92.773,81.055
1688814291.090,-71.777,-40.527,-30.273,-46.387,249.023
1688814291.094,-110.840,-34.668,-31.738,-43.945,56.641
1688814291.097,-32.715,-37.109,-34.180,-81.543,-144.043
1688814291.101,23.926,-36.133,-32.227,-85.938,-43.945
1688814291.105,9.766,-34.668,-30.762,-69.824,-7.324
1688814291.109,-55.664,-38.086,-33.203,-41.016,-107.422
1688814291.113,-116.699,-34.180,-27.344,-22.949,-22.461
1688814291.115,-45.898,-28.320,-24.902,-54.199,15.137
1688814291.119,37.109,-34.180,-25.391,-83.496,-142.578
1688814291.123,27.832,-32.715,-21.973,-68.848,-200.195
1688814291.127,-44.434,-32.715,-25.391,-33.203,-140.625
1688814291.131,-116.699,-39.062,-27.344,-2.930,-44.922
1688814291.135,-60.059,-40.527,-27.832,-20.996,15.625
1688814291.139,29.785,-33.203,-27.344,-60.059,-70.312
1688814291.142,23.438,-34.180,-24.414,-69.824,10.254
1688814291.146,-55.176,-35.156,-26.367,-44.922,273.438
1688814291.150,-138.672,-35.156,-27.344,-31.250,67.383
1688814291.154,-97.168,-43.945,-26.855,-65.430,-138.672
1688814291.158,-9.277,-42.480,-27.344,-103.027,-62.500
1688814291.160,-11.719,-36.621,-23.926,-114.258,-126.953
1688814291.164,-74.707,-27.832,-9.277,-102.051,-124.023
1688814291.168,-169.922,-30.762,-13.184,-65.430,-45.898
1688814291.172,-154.785,-33.203,-24.414,-88.867,68.848
1688814291.176,-52.734,-19.043,-10.742,-140.137,23.438
1688814291.180,-50.293,-20.508,0.000,-156.250,-56.152
1688814291.184,-118.164,-15.625,-2.930,-158.691,8.301
1688814291.187,-214.355,-21.484,0.488,-114.258,154.785
1688814291.191,-220.703,-29.297,2.930,-111.816,127.930
1688814291.195,-130.371,-23.926,-3.906,-182.617,-122.070
1688814291.199,-111.328,-17.090,-6.348,-209.961,-145.996
1688814291.203,-164.062,-19.043,-9.766,-203.125,-12.695
1688814291.209,-253.418,-16.602,-13.184,-187.500,-27.832
1688814291.213,-260.254,-8.789,-13.184,-195.312,-89.844
1688814291.217,-153.320,-16.602,-17.090,-242.676,-144.531
1688814291.221,-110.840,-23.438,-15.137,-250.977,-66.406
1688814291.225,-164.551,-24.902,-12.207,-228.027,-120.605
1688814291.229,-254.395,-26.367,-20.020,-196.289,-112.305
1688814291.233,-264.160,-29.297,-27.344,-175.781,90.332
1688814291.236,-153.320,-26.855,-25.879,-196.777,239.746
1688814291.240,-90.332,-24.414,-30.273,-223.633,-11.230
1688814291.244,-119.629,-27.832,-40.527,-218.262,-237.793
1688814291.248,-187.988,-29.297,-40.039,-164.551,-15.625
1688814291.252,-210.938,-34.180,-41.504,-136.719,137.695
1688814291.250,-116.211,-40.527,-41.504,-158.691,-105.957
1688814291.254,-37.598,-42.969,-38.086,-164.062,-143.066
1688814291.258,-53.223,-46.387,-42.480,-151.367,-34.668
1688814291.262,-120.605,-51.270,-46.387,-111.328,-71.777
1688814291.266,-158.203,-55.664,-45.410,-71.289,-96.680
1688814291.270,-66.406,-56.152,-46.875,-94.238,-38.574
1688814291.274,15.137,-56.152,-53.223,-122.559,169.434
1688814291.277,2.930,-58.594,-54.199,-123.047,270.508
1688814291.281,-58.594,-58.105,-52.734,-106.934,19.531
1688814291.285,-117.188,-60.547,-55.664,-90.332,-31.250
1688814291.289,-44.922,-64.453,-53.711,-101.562,-7.324
1688814291.293,49.805,-59.082,-49.316,-112.793,-196.289
1688814291.297,49.316,-52.246,-46.387,-99.121,-233.398
1688814291.301,-15.625,-55.664,-44.922,-61.035,-34.180
1688814291.305,-85.449,-54.688,-48.340,-32.715,138.184
1688814291.309,-30.273,-49.316,-50.781,-57.617,3.418
1688814291.313,69.336,-44.434,-45.410,-77.148,-205.078
1688814291.317,73.730,-44.434,-46.875,-64.453,-37.109
1688814291.321,16.113,-46.387,-53.223,-41.504,230.957
1688814291.324,-57.617,-45.898,-54.199,-13.672,72.266
1688814291.328,-19.043,-46.875,-54.199,-17.578,-66.895
1688814291.332,79.102,-48.828,-52.734,-29.297,-57.617
1688814291.336,86.914,-45.410,-54.199,-16.602,-58.594
1688814291.340,24.414,-44.922,-54.199,14.648,-90.332
1688814291.355,-53.223,-48.340,-51.270,63.965,-37.109
1688814291.359,-32.715,-45.898,-51.758,69.824,119.141
1688814291.363,58.594,-44.434,-51.758,20.996,-6.836
1688814291.367,79.590,-47.852,-54.199,-14.160,-187.012
1688814291.371,25.391,-50.293,-56.641,-7.324,-122.070
1688814291.375,-57.129,-53.223,-51.270,36.133,214.844
1688814291.379,-49.805,-53.223,-50.781,39.551,354.980
1688814291.382,54.688,-50.781,-51.758,-15.625,-83.496
1688814291.386,96.191,-47.852,-48.828,-32.715,-200.195
1688814291.390,41.504,-49.316,-51.758,-23.438,-49.316
1688814291.394,-50.781,-50.781,-50.781,-1.953,-134.766
1688814291.398,-60.059,-50.293,-50.293,7.812,-168.457
1688814291.400,30.762,-53.711,-49.805,-27.832,-118.652
1688814291.404,63.477,-50.293,-43.945,-43.945,-143.066
1688814291.408,28.320,-43.457,-38.574,-24.902,-169.922
1688814291.412,-41.504,-47.363,-39.551,10.742,-73.730
1688814291.416,-61.035,-47.363,-42.480,29.297,6.348
1688814291.420,23.926,-40.039,-41.992,-2.930,27.832
1688814291.424,65.918,-44.434,-48.340,-25.879,6.348
1688814291.427,41.016,-50.293,-48.340,-7.324,-65.430
1688814291.431,-33.203,-47.852,-43.945,41.504,41.992
1688814291.435,-75.684,-47.852,-46.875,62.500,194.824
1688814291.439,18.066,-50.293,-47.363,17.090,-26.855
1688814291.443,84.473,-44.434,-40.527,-11.719,-198.730
1688814291.446,60.547,-38.574,-35.645,-4.395,9.766
1688814291.450,-8.301,-38.086,-30.273,33.203,426.758
1688814291.454,-65.430,-39.062,-31.250,56.641,154.297
1688814291.458,4.395,-38.574,-29.785,21.973,-135.254
1688814291.462,72.754,-36.133,-28.809,-7.324,-128.906
1688814291.466,51.270,-36.621,-33.203,-10.254,-85.449
1688814291.470,-7.812,-41.504,-35.156,13.672,20.508
1688814291.473,-67.871,-44.922,-38.086,38.574,-39.551
1688814291.477,-25.391,-45.410,-38.574,18.066,192.383
1688814291.481,40.039,-47.363,-40.039,-9.277,205.078
1688814291.485,37.598,-46.875,-41.504,-4.883,-149.414
1688814291.489,-10.742,-43.945,-37.109,29.297,-132.324
1688814291.490,-78.613,-41.504,-38.574,59.082,-44.434
1688814291.494,-33.691,-39.551,-36.133,32.715,-115.723
1688814291.498,54.199,-37.598,-36.133,-19.043,-169.434
1688814291.502,56.641,-40.527,-41.504,-27.344,-161.133
1688814291.506,-0.488,-44.434,-42.969,-1.465,-64.453
1688814291.510,-72.754,-43.457,-39.062,25.391,56.641
1688814291.514,-38.574,-40.527,-33.691,8.789,32.715
1688814291.517,46.387,-35.156,-35.156,-32.227,9.277
1688814291.521,55.664,-32.227,-31.250,-20.020,102.051
1688814291.525,8.301,-34.180,-29.785,15.137,-73.242
1688814291.529,-63.965,-32.715,-28.320,51.270,-60.059
1688814291.533,-44.922,-33.203,-27.832,39.551,36.133
1688814291.535,44.434,-36.621,-35.156,-21.484,-63.965
1688814291.539,53.711,-41.016,-42.969,-41.016,-91.797
1688814291.543,3.906,-41.016,-41.504,-21.973,-134.766
1688814291.547,-79.102,-41.016,-43.457,-0.488,34.180
1688814291.551,-79.102,-40.039,-45.410,-6.836,156.738
1688814291.555,9.766,-43.945,-42.480,-44.922,15.137
1688814291.559,34.668,-41.016,-43.945,-55.176,-89.844
1688814291.562,1.465,-35.645,-47.363,-36.133,126.953
1688814291.566,-74.707,-40.039,-49.316,-8.301,162.109
1688814291.570,-88.379,-43.945,-43.457,-5.371,-116.699
1688814291.574,-12.695,-42.480,-41.016,-41.504,-162.109
1688814291.578,20.020,-42.480,-42.480,-63.477,-193.359
1688814291.581,-1.953,-47.363,-43.945,-48.340,-154.297
1688814291.585,-72.266,-52.246,-45.898,-15.137,-29.297
1688814291.589,-87.402,-49.316,-40.527,-6.836,-9.277
1688814291.593,5.371,-44.434,-36.621,-43.945,20.996
1688814291.597,41.016,-46.875,-40.039,-54.688,-115.723
1688814291.601,17.090,-49.805,-41.016,-35.156,-158.203
1688814291.605,-43.945,-54.199,-42.969,-7.812,81.055
1688814291.608,-83.008,-53.223,-44.922,10.254,303.223
1688814291.612,-11.230,-52.246,-42.969,-28.320,30.273
1688814291.616,44.434,-63.965,-43.457,-43.945,-182.129
1688814291.620,26.367,-66.406,-46.387,-30.762,-105.957
1688814291.624,-43.945,-65.918,-46.875,-1.465,-96.680
1688814291.625,-105.957,-67.383,-44.434,20.996,-20.996
1688814291.629,-43.457,-62.500,-44.922,-17.578,54.688
1688814291.633,28.320,-61.035,-46.387,-42.969,77.148
1688814291.637,13.672,-58.594,-46.875,-45.898,26.855
1688814291.641,-49.805,-53.711,-49.316,-12.695,-78.125
1688814291.645,-115.234,-52.246,-50.293,37.598,20.996
1688814291.649,-59.570,-52.734,-44.434,22.461,266.602
1688814291.652,27.832,-51.758,-38.574,-4.395,255.371
1688814291.656,17.090,-51.758,-39.551,-13.184,-77.637
1688814291.660,-48.828,-47.363,-39.062,-6.348,-122.070
1688814291.664,-111.328,-39.551,-41.992,22.461,-0.977
1688814291.668,-60.547,-38.574,-41.504,10.742,-24.414
1688814291.671,26.855,-39.062,-42.480,-30.762,-146.973
1688814291.675,27.832,-37.598,-45.410,-37.109,-197.266
1688814291.679,-27.344,-35.645,-42.969,-6.836,-116.211
1688814291.683,-105.469,-36.621,-40.527,39.062,-63.477
1688814291.687,-90.332,-44.922,-41.504,12.207,-58.594
1688814291.691,-2.441,-47.852,-47.852,-64.941,-26.367
1688814291.695,12.207,-52.246,-47.363,-81.543,56.152
1688814291.698,-43.945,-60.059,-45.898,-64.941,14.160
1688814291.702,-124.023,-59.082,-46.875,-32.227,-69.336
1688814291.706,-107.422,-53.711,-47.363,-14.160,41.016
1688814291.710,-17.090,-48.828,-43.457,-48.340,238.770
1688814291.714,9.277,-44.922,-41.504,-79.590,1.465
1688814291.730,-29.785,-48.828,-43.945,-79.102,-81.055
1688814291.734,-123.535,-57.129,-43.457,-42.969,189.453
1688814291.738,-126.465,-55.176,-47.363,-50.781,152.832
1688814291.742,-24.414,-45.410,-46.387,-106.445,-166.016
1688814291.746,8.301,-42.969,-41.016,-123.047,-210.938
1688814291.750,-24.902,-40.527,-42.969,-96.680,104.492
1688814291.754,-103.516,-34.668,-42.480,-57.617,105.469
1688814291.757,-131.836,-33.691,-40.039,-58.105,-102.539
1688814291.761,-36.621,-33.203,-38.086,-95.215,-118.164
1688814291.765,5.371,-34.668,-42.969,-110.352,2.441
1688814291.769,-29.785,-37.109,-52.734,-115.723,-39.062
1688814291.773,-99.121,-31.738,-52.734,-109.863,-133.301
1688814291.775,-134.766,-32.227,-47.852,-127.930,-47.852
1688814291.779,-48.828,-36.621,-46.387,-193.848,-84.473
1688814291.783,12.695,-33.691,-40.527,-213.379,-233.398
1688814291.787,-2.930,-29.785,-40.039,-185.547,-230.957
1688814291.791,-68.359,-27.344,-46.387,-136.719,-160.156
1688814291.795,-134.277,-24.902,-43.457,-104.004,14.648
1688814291.799,-59.082,-26.367,-38.574,-138.672,117.676
1688814291.802,25.391,-29.297,-41.016,-170.898,-82.520
1688814291.806,9.766,-33.691,-43.945,-159.668,-93.750
1688814291.810,-85.938,-40.527,-45.898,-137.207,168.945
1688814291.814,-159.668,-39.062,-45.410,-140.137,102.539
1688814291.818,-76.172,-33.691,-38.574,-181.641,-195.801
1688814291.820,5.859,-36.621,-33.691,-221.191,-159.180
1688814291.824,-3.418,-33.203,-34.668,-214.844,73.730
1688814291.828,-59.082,-22.949,-32.715,-180.664,-8.301
1688814291.832,-130.371,-23.438,-33.203,-155.273,-72.266
1688814291.836,-85.449,-28.809,-35.645,-178.711,112.305
1688814291.840,-4.395,-30.762,-39.551,-212.891,94.238
1688814291.844,3.906,-27.832,-36.621,-210.449,-107.422
1688814291.847,-44.434,-22.949,-32.227,-185.059,-155.762
1688814291.851,-131.348,-26.367,-28.809,-138.184,144.531
1688814291.855,-111.328,-30.273,-26.367,-122.559,185.059
1688814291.859,-4.883,-29.297,-33.203,-152.832,-115.234
1688814291.863,13.184,-31.738,-35.156,-176.758,-113.770
1688814291.865,-37.598,-36.133,-31.250,-151.855,-4.883
1688814291.869,-121.582,-41.016,-34.668,-96.680,-35.156
1688814291.873,-101.074,-36.621,-40.039,-92.773,-161.133
1688814291.877,-2.441,-29.785,-37.109,-125.488,-140.625
1688814291.881,22.461,-27.832,-37.109,-96.191,-66.406
1688814291.885,-35.645,-32.715,-43.457,-64.941,-25.391
1688814291.889,-117.676,-33.203,-41.016,-24.414,79.102
1688814291.892,-93.262,-29.785,-34.668,1.953,118.164
1688814291.896,9.277,-30.762,-36.621,-28.320,179.199
1688814291.900,37.598,-32.715,-33.691,-40.527,-60.059
1688814291.904,-11.719,-41.016,-31.738,-18.066,-119.629
1688814291.908,-102.539,-42.969,-28.809,16.602,-66.406
1688814291.912,-115.234,-33.203,-27.832,15.625,-87.891
1688814291.916,-15.137,-32.227,-34.668,-35.156,-100.098
1688814291.920,15.625,-43.457,-34.668,-51.758,-154.297
1688814291.924,-7.324,-45.410,-35.645,-27.344,32.715
1688814291.928,-81.055,-41.016,-41.504,-8.789,193.848
1688814291.932,-114.258,-39.551,-41.992,-14.648,20.996
1688814291.936,-29.297,-38.086,-40.527,-37.598,-65.430
1688814291.939,7.812,-40.527,-39.062,-54.199,62.012
1688814291.943,-19.043,-38.574,-44.922,-51.758,10.254
1688814291.947,-104.004,-40.039,-48.828,-25.879,-153.809
1688814291.951,-150.879,-44.434,-46.875,-15.137,-50.293
1688814291.955,-51.270,-47.363,-48.828,-52.246,-10.254
1688814291.955,21.973,-42.969,-46.875,-78.613,-148.926
1688814291.959,-5.859,-44.434,-43.945,-68.848,-184.570
1688814291.963,-83.496,-50.293,-47.363,-38.574,-117.676
1688814291.967,-145.996,-49.316,-49.805,-16.113,-39.551
1688814291.971,-55.664,-45.410,-49.316,-45.898,-67.383
1688814291.975,31.250,-42.969,-48.340,-64.941,-112.305
1688814291.979,4.883,-47.363,-53.223,-67.383,64.941
1688814291.982,-60.059,-54.199,-50.293,-27.832,419.434
1688814291.986,-120.605,-47.363,-48.828,0.000,300.293
1688814291.990,-53.711,-41.992,-50.781,-38.086,-25.879
1688814291.994,29.785,-43.945,-47.852,-67.383,-118.164
1688814291.998,18.066,-44.434,-46.387,-64.941,-118.164
1688814292.015,-52.246,-41.016,-46.387,-29.785,-83.008
1688814292.019,-131.348,-41.992,-50.293,9.277,81.543
1688814292.023,-78.125,-49.316,-60.059,-3.418,203.125
1688814292.027,12.207,-55.176,-63.477,-25.879,23.438
1688814292.031,9.766,-60.059,-62.988,-22.949,-162.109
1688814292.035,-44.434,-57.617,-54.199,14.648,7.812
1688814292.039,-124.023,-54.199,-54.688,42.480,345.703
1688814292.042,-83.008,-53.711,-59.570,16.113,296.387
1688814292.046,25.391,-54.199,-53.223,-33.691,-64.941
1688814292.050,38.574,-54.688,-53.223,-23.926,-173.828
1688814292.054,-17.090,-52.734,-51.270,27.832,-8.789
1688814292.058,-125.000,-49.316,-42.480,57.617,-56.152
1688814292.045,-123.047,-47.363,-38.574,48.828,-145.020
1688814292.049,-0.488,-46.875,-39.062,14.648,-110.352
1688814292.053,26.855,-50.781,-43.945,11.719,-101.074
1688814292.057,-29.297,-56.641,-46.875,24.902,-164.062
1688814292.061,-104.980,-48.340,-43.457,45.410,-166.992
1688814292.065,-97.656,-42.969,-41.504,43.945,-47.852
1688814292.069,8.301,-43.457,-41.992,-1.465,52.246
1688814292.072,57.617,-39.062,-43.945,-21.973,-75.195
1688814292.076,15.625,-43.945,-49.316,-11.719,-184.082
1688814292.080,-84.473,-50.293,-43.945,3.906,-53.711
1688814292.084,-104.004,-42.969,-40.039,4.395,336.426
1688814292.088,-1.465,-38.086,-43.945,-46.387,102.051
1688814292.105,54.199,-41.016,-40.527,-60.547,-167.480
1688814292.109,20.020,-51.270,-42.480,-36.621,75.684
1688814292.113,-59.082,-46.875,-43.457,-7.812,80.078
1688814292.117,-83.008,-35.156,-33.691,-1.465,-17.090
1688814292.121,0.977,-37.109,-40.527,-44.434,-106.934
1688814292.125,60.059,-35.156,-45.898,-56.641,-58.594
1688814292.129,33.203,-34.180,-41.504,-52.246,-84.961
1688814292.132,-44.922,-40.039,-42.480,-29.297,-158.203
1688814292.136,-88.379,-38.574,-39.062,-4.395,-80.078
1688814292.140,-11.719,-33.203,-37.598,-39.062,74.219
1688814292.144,56.152,-34.668,-41.504,-68.848,-19.531
1688814292.148,32.227,-39.062,-44.434,-66.406,-178.223
1688814292.166,-52.734,-44.922,-43.945,-32.227,-71.777
1688814292.170,-116.211,-49.316,-41.016,-4.883,82.520
1688814292.174,-45.898,-47.363,-42.969,-43.457,-34.180
1688814292.178,37.598,-44.922,-49.316,-80.566,-173.828
1688814292.182,18.066,-42.480,-48.828,-65.430,-135.254
1688814292.186,-53.711,-40.527,-42.969,-24.902,5.859
1688814292.190,-111.328,-37.109,-42.969,6.348,84.473
1688814292.193,-43.945,-35.156,-41.992,-26.367,-12.695
1688814292.197,39.062,-41.504,-35.156,-54.688,-117.188
1688814292.201,31.738,-44.434,-32.227,-33.203,114.746
1688814292.205,-26.367,-37.598,-28.809,-20.508,49.316
1688814292.209,-87.891,-37.598,-30.273,12.695,-108.398
1688814292.196,-42.480,-38.086,-34.180,0.977,-18.066
1688814292.200,41.504,-36.621,-35.156,-47.363,11.230
1688814292.204,52.246,-36.133,-37.109,-53.223,-5.371
1688814292.208,-7.324,-40.527,-39.062,-27.344,-31.738
1688814292.212,-94.238,-41.992,-38.086,10.254,156.738
1688814292.216,-75.684,-38.086,-37.598,-6.348,378.906
1688814292.220,29.785,-31.738,-42.480,-56.641,99.609
1688814292.223,51.758,-31.738,-42.480,-67.383,-147.461
1688814292.227,4.395,-37.598,-41.504,-41.504,-60.547
1688814292.231,-73.242,-42.480,-36.133,-1.465,-10.254
1688814292.235,-47.852,-38.086,-32.227,-10.742,-56.152
1688814292.239,75.684,-37.109,-33.691,-69.336,-113.281
1688814292.240,83.008,-44.434,-33.203,-87.891,112.305
1688814292.244,-26.367,-46.875,-34.668,-61.523,66.406
1688814292.248,-122.070,-45.898,-33.203,-35.645,-126.465
1688814292.252,-121.582,-49.316,-31.738,-36.621,-66.406
1688814292.256,-12.695,-35.645,-30.273,-65.918,-14.648
1688814292.260,55.664,-25.879,-25.879,-82.031,-28.809
1688814292.264,28.809,-29.297,-28.809,-82.031,11.719
1688814292.267,-61.035,-31.250,-32.715,-51.270,90.332
1688814292.271,-100.098,-36.133,-35.645,-32.715,318.848
1688814292.275,-2.441,-34.668,-39.551,-83.984,131.836
1688814292.279,55.664,-36.133,-41.992,-139.160,-177.734
1688814292.283,16.602,-40.527,-42.480,-112.305,-157.715
1688814292.285,-64.941,-39.062,-37.109,-65.430,-81.543
1688814292.289,-101.074,-37.109,-33.691,-73.730,-9.277
1688814292.293,-14.160,-36.133,-38.086,-159.180,-53.223
1688814292.297,49.316,-41.016,-39.551,-181.152,-35.645
1688814292.301,11.719,-42.480,-40.039,-155.762,-33.691
1688814292.305,-42.969,-41.504,-36.621,-135.742,-39.551
1688814292.309,-54.688,-42.480,-36.621,-96.680,-21.484
1688814292.312,10.254,-42.480,-32.715,-105.957,155.762
1688814292.316,37.598,-41.992,-33.691,-126.465,199.219
1688814292.320,-4.395,-44.922,-39.551,-115.723,-160.156
1688814292.324,-54.688,-44.922,-35.645,-62.988,-216.309
1688814292.328,-111.816,-43.457,-31.738,-16.602,-67.383
1688814292.330,-69.336,-51.270,-34.668,-33.691,-108.398
1688814292.334,24.414,-49.805,-32.715,-78.125,-268.555
1688814292.338,29.297,-44.922,-32.715,-78.125,-198.730
1688814292.342,-43.457,-47.363,-32.227,-51.270,-81.055
1688814292.346,-84.961,-42.480,-34.180,-44.434,-49.805
1688814292.350,-36.133,-40.527,-39.062,-74.707,-8.789
1688814292.354,59.570,-38.574,-38.086,-96.191,31.250
1688814292.357,71.289,-38.086,-35.645,-72.754,111.328
1688814292.361,-50.293,-39.062,-29.785,-74.219,-84.961
1688814292.365,-133.301,-39.551,-30.762,-67.383,-147.461
1688814292.369,-75.684,-35.645,-36.621,-57.617,-42.969
1688814292.373,-3.906,-36.133,-32.715,-87.402,-83.008
1688814292.375,29.297,-34.180,-33.203,-142.090,-161.621
1688814292.379,4.395,-25.391,-39.551,-132.812,-115.234
1688814292.383,-57.617,-28.320,-41.016,-26.855,116.211
1688814292.387,-42.480,-34.668,-38.086,4.883,42.969
1688814292.391,22.461,-34.668,-35.156,-47.363,-210.449
1688814292.395,68.848,-36.133,-35.156,-46.875,-108.887
1688814292.399,-1.953,-39.062,-36.621,12.695,112.305
1688814292.402,-125.000,-41.016,-29.785,80.566,92.773
1688814292.406,-113.770,-39.062,-31.738,45.410,-123.047
1688814292.410,-33.691,-40.039,-36.133,-13.672,-202.148
1688814292.414,0.977,-41.016,-38.086,-45.898,-114.746
1688814292.418,-38.086,-46.387,-36.621,-61.035,-129.883
1688814292.422,-108.887,-42.480,-37.598,-23.926,-151.855
1688814292.426,-125.977,-42.969,-32.227,5.371,-28.809
1688814292.430,-53.711,-48.340,-27.344,-4.883,19.043
1688814292.434,-16.113,-42.969,-27.832,-1.465,-130.859
1688814292.438,-38.574,-38.086,-23.926,9.766,-174.805
1688814292.442,-79.590,-39.551,-24.414,29.785,123.535
1688814292.446,-106.934,-47.852,-27.832,15.625,272.461
1688814292.449,-59.570,-48.340,-27.344,-52.246,-83.496
1688814292.453,-14.160,-44.922,-30.762,-48.340,-245.117
1688814292.457,-1.465,-42.480,-37.109,13.672,-86.914
1688814292.461,-35.156,-41.016,-39.062,49.316,-11.719
1688814292.465,-83.008,-46.875,-38.574,71.777,-97.656
1688814292.466,-0.977,-46.387,-33.691,84.473,-95.703
1688814292.470,52.246,-39.062,-32.227,103.027,-31.250
1688814292.474,7.324,-41.016,-30.273,157.227,-10.742
1688814292.478,-61.523,-40.039,-29.297,230.957,-55.176
1688814292.482,-104.980,-39.062,-30.762,296.875,-81.543
1688814292.486,-37.598,-40.527,-30.273,281.738,201.660
1688814292.490,27.344,-37.598,-36.133,247.070,325.684
1688814292.493,21.973,-39.062,-37.109,221.191,-113.281
1688814292.497,-26.855,-42.480,-37.109,205.078,-178.223
1688814292.501,-86.426,-42.969,-41.016,204.102,-7.812
1688814292.505,-40.527,-38.574,-40.527,159.180,-87.891
1688814292.509,43.945,-37.109,-43.945,113.281,-152.832
1688814292.525,41.992,-40.527,-44.434,96.680,-204.590
1688814292.529,-20.996,-40.039,-35.645,111.816,-101.562
1688814292.533,-98.145,-42.969,-39.062,133.301,-13.672
1688814292.537,-68.848,-50.293,-42.480,109.863,-68.359
1688814292.541,5.371,-51.270,-39.062,77.637,50.293
1688814292.545,7.324,-47.363,-38.574,72.754,129.395
1688814292.549,-41.992,-47.363,-36.621,67.383,-5.859
1688814292.552,-112.305,-48.340,-34.180,74.707,-84.473
1688814292.556,-84.961,-46.387,-32.227,46.387,-40.039
1688814292.560,-2.441,-45.898,-33.203,-8.789,94.238
1688814292.564,5.371,-50.781,-37.598,-44.434,-103.027
1688814292.568,-33.203,-50.293,-37.109,-33.203,-140.625
1688814292.570,-96.191,-44.434,-34.180,-1.465,39.062
1688814292.574,-93.262,-44.434,-35.645,-29.297,38.086
1688814292.578,-20.996,-48.828,-40.527,-85.449,-130.859
1688814292.582,1.465,-52.734,-41.504,-107.422,-229.492
1688814292.586,-34.668,-53.223,-44.434,-86.914,-23.926
1688814292.590,-107.910,-51.270,-40.527,-47.363,111.816
1688814292.594,-109.863,-46.875,-36.621,-58.594,29.297
1688814292.597,-29.785,-45.410,-41.992,-119.141,-54.688
1688814292.601,-7.812,-50.293,-45.898,-146.973,91.309
1688814292.605,-47.852,-52.246,-54.199,-143.555,197.266
1688814292.609,-121.094,-49.805,-52.734,-120.605,-78.125
1688814292.613,-140.625,-52.246,-47.363,-125.488,-104.492
1688814292.616,-58.105,-52.734,-49.316,-190.918,-136.719
1688814292.620,-11.230,-46.387,-45.898,-226.074,-227.539
1688814292.624,-36.133,-45.898,-41.504,-218.262,-186.523
1688814292.628,-104.980,-47.852,-43.945,-188.965,-82.520
1688814292.632,-128.418,-34.668,-40.527,-170.898,-41.504
1688814292.636,-45.410,-22.461,-26.855,-220.703,-15.625
1688814292.640,5.371,-22.461,-21.973,-268.066,-63.965
1688814292.643,-26.367,-25.391,-30.273,-274.902,-108.398
1688814292.647,-110.352,-31.738,-34.668,-256.836,233.398
1688814292.651,-164.551,-27.344,-32.715,-247.559,151.367
1688814292.655,-102.051,-19.531,-29.297,-283.691,-194.824
1688814292.659,-58.105,-12.695,-22.949,-326.172,-158.691
1688814292.660,-110.352,-15.137,-21.973,-356.934,-89.355
1688814292.664,-182.617,-17.578,-27.832,-347.656,-60.547
1688814292.668,-251.465,-11.719,-27.344,-342.285,-13.672
1688814292.672,-215.820,-10.254,-18.066,-391.113,80.566
1688814292.676,-166.016,-13.672,-23.438,-439.453,-11.719
1688814292.680,-202.637,-19.043,-28.809,-445.312,-57.129
1688814292.684,-262.695,-19.043,-22.949,-430.664,7.324
1688814292.687,-328.125,-22.461,-20.020,-420.410,213.867
1688814292.691,-278.320,-23.438,-21.484,-460.938,189.941
1688814292.695,-181.641,-21.484,-23.438,-521.484,-162.598
1688814292.699,-173.828,-17.578,-28.809,-517.578,-165.039
1688814292.703,-214.355,-20.508,-32.715,-472.168,-2.441
1688814292.705,-269.531,-24.902,-31.738,-428.711,-9.277
1688814292.709,-229.980,-32.227,-32.715,-409.180,-67.383
1688814292.713,-125.977,-41.016,-37.598,-369.141,-83.984
1688814292.717,-92.773,-42.480,-40.527,-324.219,-69.824
1688814292.721,-134.277,-41.016,-38.574,-267.090,-83.984
1688814292.725,-206.543,-45.410,-39.551,-189.453,32.715
1688814292.729,-166.504,-49.316,-46.387,-181.641,163.574
1688814292.732,-45.898,-45.898,-44.922,-196.777,261.230
1688814292.736,-19.043,-39.551,-47.852,-188.477,-34.180
1688814292.740,-52.246,-41.504,-51.758,-155.762,-257.324
1688814292.744,-124.512,-42.480,-46.875,-86.914,-62.012
1688814292.748,-118.164,-41.504,-47.363,-72.754,-24.902
1688814292.751,-15.137,-41.016,-47.363,-102.051,-124.512
1688814292.755,15.625,-40.039,-44.434,-100.098,-40.039
1688814292.759,-19.043,-49.805,-50.293,-76.660,138.184
1688814292.763,-83.496,-44.922,-49.805,-41.504,196.289
1688814292.767,-93.750,-48.340,-46.875,-60.547,58.105
1688814292.771,-6.836,-46.875,-44.922,-116.211,50.293
1688814292.775,32.715,-36.133,-45.898,-138.672,179.688
1688814292.778,-5.371,-38.574,-45.898,-136.719,91.309
1688814292.782,-90.820,-40.527,-31.738,-116.211,-101.074
1688814292.786,-128.418,-33.691,-22.949,-132.324,-29.785
1688814292.790,-64.453,-31.250,-22.949,-198.242,-47.852
1688814292.794,-43.457,-31.738,-23.438,-240.234,-149.414
1688814292.795,-91.309,-21.973,-16.602,-248.047,-216.309
1688814292.799,-172.852,-14.160,-19.043,-227.051,-98.145
1688814292.803,-216.309,-16.113,-24.902,-218.750,79.102
1688814292.807,-152.344,-10.742,-25.391,-266.113,22.949
1688814292.811,-110.352,-11.719,-27.832,-300.293,-133.789
1688814292.815,-138.184,-16.113,-26.367,-306.152,-70.312
1688814292.819,-202.637,-6.836,-23.926,-276.855,352.051
1688814292.822,-247.559,-8.301,-25.391,-261.719,214.355
1688814292.826,-180.176,-10.254,-26.855,-294.922,-153.320
1688814292.830,-116.211,-14.648,-20.020,-313.965,-166.504
1688814292.834,-126.465,-25.879,-15.137,-293.945,-181.152
1688814292.838,-167.480,-28.320,-20.996,-243.652,-158.691
1688814292.856,-214.355,-28.809,-22.949,-195.312,-123.535
1688814292.860,-155.762,-36.133,-26.367,-222.168,11.719
1688814292.864,-71.777,-44.922,-28.320,-275.879,34.180
1688814292.868,-66.406,-52.246,-30.762,-263.672,-187.012
1688814292.872,-115.234,-56.641,-32.715,-222.656,-122.070
1688814292.876,-158.691,-61.035,-27.344,-186.035,78.125
1688814292.880,-97.656,-62.500,-30.762,-191.406,0.977
1688814292.883,-21.973,-54.688,-37.598,-216.309,-66.895
1688814292.887,-10.742,-51.758,-37.598,-208.496,-159.668
1688814292.891,-47.852,-54.688,-46.875,-157.715,45.898
1688814292.895,-114.746,-60.059,-48.828,-120.605,242.676
1688814292.899,-77.637,-63.477,-41.992,-160.156,-57.129
1688814292.900,19.531,-59.570,-50.293,-198.730,-154.297
1688814292.904,36.621,-60.547,-53.223,-200.195,-97.656
1688814292.908,-0.488,-63.965,-51.270,-174.316,-107.910
1688814292.912,-63.965,-62.500,-55.664,-127.441,-78.613
1688814292.916,-41.504,-62.500,-58.105,-121.582,-27.832
1688814292.920,47.363,-65.430,-55.176,-155.273,-63.477
1688814292.924,67.383,-62.012,-49.316,-147.949,-86.914
1688814292.927,37.109,-56.641,-51.758,-116.211,-127.930
1688814292.931,-25.879,-58.105,-56.641,-78.125,5.859
1688814292.935,-18.555,-53.711,-58.105,-57.129,324.707
1688814292.939,73.730,-46.387,-60.547,-103.516,116.211
1688814292.943,108.887,-43.457,-54.199,-130.859,-199.707
1688814292.945,73.730,-40.039,-52.246,-107.422,-118.652
1688814292.949,3.906,-38.574,-53.711,-73.242,44.922
1688814292.953,-7.812,-42.969,-53.711,-75.684,6.836
1688814292.957,77.637,-42.480,-56.641,-130.371,-140.625
1688814292.961,126.465,-40.039,-62.500,-146.484,-28.809
1688814292.965,96.680,-37.598,-63.477,-129.395,90.332
1688814292.969,17.090,-42.480,-62.012,-124.023,94.727
1688814292.972,0.488,-50.781,-62.500,-124.023,54.199
1688814292.976,85.449,-51.270,-61.035,-143.555,158.691
1688814292.980,119.141,-52.734,-60.547,-155.273,94.238
1688814292.984,92.773,-49.805,-60.059,-158.203,-101.562
1688814292.988,32.227,-45.410,-59.570,-138.672,35.156
1688814292.990,-8.301,-41.504,-56.152,-109.375,178.223
1688814292.994,62.500,-41.016,-58.594,-142.090,-12.695
1688814292.998,125.000,-43.457,-59.570,-168.457,-145.508
1688814293.002,101.562,-41.992,-55.176,-147.461,-131.348
1688814293.006,39.551,-43.945,-57.617,-107.910,-71.777
1688814293.010,-13.672,-51.270,-57.129,-85.938,25.391
1688814293.014,43.945,-46.387,-52.734,-118.652,-18.555
1688814293.017,111.328,-41.992,-54.199,-140.625,-46.387
1688814293.021,102.051,-44.922,-49.316,-125.000,191.406
1688814293.025,36.621,-46.875,-51.270,-111.816,-15.137
1688814293.029,-28.320,-48.828,-50.781,-96.680,-145.020
1688814293.033,32.715,-48.828,-47.852,-106.445,-48.828
1688814293.037,106.934,-46.387,-50.293,-139.648,-114.258
1688814293.041,95.703,-49.316,-44.434,-145.996,-108.887
1688814293.045,33.691,-45.410,-39.551,-118.164,-90.332
1688814293.049,-36.621,-32.715,-42.480,-79.102,106.445
1688814293.053,-3.906,-36.621,-49.316,-97.168,179.688
1688814293.057,80.566,-43.945,-48.340,-125.488,-40.039
1688814293.061,101.074,-41.016,-42.969,-118.164,-108.398
1688814293.064,40.527,-41.504,-44.922,-110.840,72.266
1688814293.068,-66.406,-38.574,-51.270,-93.262,140.137
1688814293.072,-34.180,-31.738,-48.828,-106.445,-92.285
1688814293.076,58.105,-31.250,-41.016,-147.949,-201.172
1688814293.080,62.500,-35.156,-41.992,-137.207,-191.895
1688814293.080,12.695,-42.480,-46.875,-94.727,-229.492
1688814293.084,-55.176,-44.434,-45.898,-56.152,-159.668
1688814293.088,-49.316,-47.852,-43.945,-61.035,-77.148
1688814293.092,36.133,-47.852,-45.410,-88.379,-135.254
1688814293.096,59.570,-39.062,-44.922,-88.867,-206.055
1688814293.100,23.438,-34.668,-42.969,-65.918,-92.285
1688814293.104,-49.805,-39.062,-45.410,-16.113,40.039
1688814293.107,-67.383,-41.992,-49.805,-16.602,274.902
1688814293.111,34.668,-40.039,-48.340,-52.246,158.203
1688814293.115,71.777,-40.039,-44.922,-63.965,-118.652
1688814293.119,20.996,-41.992,-43.945,-45.898,-62.500
1688814293.123,-64.453,-42.480,-42.480,-2.441,-20.508
1688814293.125,-91.309,-42.480,-45.410,-18.066,-44.434
1688814293.129,13.184,-42.480,-42.969,-55.664,8.301
1688814293.133,54.199,-43.945,-41.504,-67.871,58.594
1688814293.137,20.020,-40.527,-41.504,-56.641,-40.527
1688814293.141,-58.594,-38.574,-44.922,-19.043,-62.500
1688814293.145,-86.914,-34.668,-44.434,-8.789,109.375
1688814293.149,-0.488,-32.715,-46.387,-47.852,276.855
1688814293.152,37.109,-39.551,-51.758,-72.754,229.980
1688814293.156,19.531,-37.598,-48.828,-58.105,-107.910
1688814293.160,-63.477,-35.156,-42.969,-31.250,-134.277
1688814293.164,-125.000,-41.504,-41.992,-18.066,55.664
1688814293.168,-28.809,-47.363,-43.945,-59.570,-57.129
1688814293.172,33.691,-46.387,-39.551,-90.820,-169.434
1688814293.176,2.930,-47.852,-34.668,-82.520,-169.434
1688814293.180,-62.500,-50.781,-36.133,-63.965,-155.273
1688814293.184,-124.023,-51.270,-35.156,-46.875,-75.195
1688814293.188,-55.664,-50.293,-34.180,-70.312,-96.680
1688814293.192,25.879,-47.363,-34.180,-96.191,-36.621
1688814293.196,10.742,-47.852,-37.109,-82.031,189.941
1688814293.199,-54.688,-53.711,-41.504,-61.035,26.855
1688814293.203,-123.047,-51.758,-40.527,-52.734,-70.312
1688814293.207,-58.594,-42.969,-41.992,-84.473,5.859
1688814293.211,31.738,-45.410,-46.387,-115.723,43.457
1688814293.215,24.902,-49.316,-49.316,-116.211,-133.301
1688814293.230,-42.480,-48.828,-48.828,-90.820,-210.449
1688814293.234,-125.977,-52.734,-44.434,-54.688,16.113
1688814293.238,-90.332,-49.316,-42.480,-80.566,54.199
1688814293.242,18.555,-43.945,-44.434,-116.211,-122.070
1688814293.246,31.250,-42.969,-47.852,-102.539,-199.219
1688814293.250,-31.738,-46.387,-53.711,-78.613,81.543
1688814293.254,-117.676,-45.410,-57.129,-59.570,368.652
1688814293.257,-99.121,-41.016,-55.176,-87.891,65.430
1688814293.261,7.812,-44.922,-57.129,-132.324,-122.559
1688814293.265,28.809,-48.828,-59.570,-125.488,15.137
1688814293.269,-23.926,-50.781,-57.617,-110.840,24.414
1688814293.273,-110.352,-46.387,-59.082,-101.074,-66.406
1688814293.275,-106.934,-45.410,-56.152,-115.234,-130.859
1688814293.279,-2.930,-49.316,-54.688,-150.879,-28.809
1688814293.283,38.086,-49.805,-54.688,-168.457,-56.152
1688814293.287,-16.602,-56.641,-57.617,-155.273,-148.438
1688814293.291,-113.770,-58.105,-56.152,-105.957,-59.570
1688814293.295,-130.371,-56.641,-53.223,-107.422,83.984
1688814293.299,-31.738,-58.594,-51.758,-156.738,3.418
1688814293.302,13.184,-56.641,-45.410,-175.781,-181.641
1688814293.306,-18.066,-53.223,-46.875,-162.109,-123.047
1688814293.310,-101.074,-50.293,-48.828,-121.094,150.391
1688814293.314,-128.418,-41.504,-52.246,-114.258,-35.156
1688814293.318,-27.832,-38.574,-53.711,-156.250,-169.434
1688814293.320,34.180,-41.992,-46.387,-157.715,-158.203
1688814293.324,4.395,-42.480,-40.039,-136.719,-100.586
1688814293.328,-79.102,-45.410,-36.621,-114.746,-20.508
1688814293.332,-120.117,-48.828,-36.621,-84.473,-1.953
1688814293.336,-31.738,-51.270,-36.133,-86.426,104.492
1688814293.340,36.133,-46.875,-36.621,-96.191,88.379
1688814293.344,24.902,-42.969,-35.156,-88.867,-16.602
1688814293.347,-62.988,-46.875,-31.250,-64.453,-69.824
1688814293.351,-129.395,-46.875,-31.250,-26.855,112.793
1688814293.355,-39.551,-41.504,-31.738,-52.734,89.355
1688814293.359,40.039,-39.551,-29.297,-82.031,-232.422
1688814293.363,24.414,-41.504,-33.203,-54.199,-209.961
1688814293.365,-52.246,-43.945,-36.133,-21.973,-84.961
1688814293.369,-130.859,-45.410,-32.227,-13.672,-91.309
1688814293.373,-58.105,-46.875,-32.227,-34.668,-53.711
1688814293.377,45.898,-47.363,-35.645,-41.504,25.391
1688814293.381,43.945,-43.457,-39.062,-30.273,20.020
1688814293.385,-29.785,-41.992,-40.527,-2.930,24.414
1688814293.389,-122.559,-45.898,-41.504,28.809,21.973
1688814293.392,-71.777,-47.852,-32.715,24.414,19.531
1688814293.396,37.109,-48.340,-25.879,13.672,178.711
1688814293.400,41.016,-44.922,-27.344,29.785,-31.738
1688814293.404,-29.297,-43.457,-23.926,65.918,-165.527
1688814293.408,-124.512,-45.410,-23.926,92.773,-66.406
1688814293.410,-87.891,-44.922,-24.902,70.801,-66.406
1688814293.414,20.020,-48.340,-25.391,45.898,-101.074
1688814293.418,32.715,-51.270,-24.414,56.641,-181.152
1688814293.422,-19.531,-52.734,-23.438,99.609,-44.922
1688814293.426,-119.141,-54.199,-23.926,144.531,12.695
1688814293.430,-107.910,-52.246,-23.926,132.324,-88.867
1688814293.434,20.020,-49.316,-26.367,91.797,-38.086
1688814293.437,64.941,-49.316,-24.902,91.309,159.668
1688814293.441,3.418,-55.664,-25.391,109.375,222.168
1688814293.445,-123.047,-62.012,-23.926,120.117,-29.785
1688814293.449,-138.672,-66.406,-20.020,108.887,-74.219
1688814293.453,-13.672,-63.965,-20.508,70.312,163.574
1688814293.455,48.828,-52.734,-21.973,65.430,29.297
1688814293.459,-2.441,-50.781,-24.414,81.055,-141.602
1688814293.463,-104.492,-50.293,-29.297,97.656,-8.789
1688814293.467,-123.535,-46.387,-30.273,97.656,45.898
1688814293.471,-17.090,-48.828,-28.809,57.617,-89.355
1688814293.475,29.785,-47.363,-27.344,49.805,-151.367
1688814293.479,-6.348,-43.457,-31.738,65.918,4.395
1688814293.482,-96.191,-45.410,-30.762,91.797,343.750
1688814293.486,-130.859,-42.969,-36.133,96.680,207.520
1688814293.490,-34.180,-42.480,-42.480,58.105,-91.309
1688814293.494,20.996,-44.922,-43.945,38.086,-121.094
1688814293.498,-2.930,-43.945,-41.504,41.016,-103.027
1688814293.500,-77.637,-40.039,-38.086,67.383,-88.379
1688814293.504,-129.883,-34.180,-37.109,86.426,-29.297
1688814293.508,-43.945,-36.133,-38.574,63.477,34.668
1688814293.512,47.363,-35.645,-41.992,39.551,-24.414
1688814293.516,18.066,-39.551,-44.434,44.434,-191.406
1688814293.520,-70.801,-45.898,-43.457,89.355,-143.555
1688814293.524,-136.719,-41.504,-39.062,110.840,177.246
1688814293.527,-64.453,-37.598,-43.945,66.406,153.809
1688814293.531,27.344,-44.434,-42.969,43.945,-227.539
1688814293.535,22.949,-43.457,-36.621,55.176,-230.469
1688814293.539,-59.082,-40.527,-41.992,77.637,67.383
1688814293.543,-133.301,-35.645,-35.156,118.652,26.367
1688814293.545,-65.918,-34.668,-27.344,102.051,-137.695
1688814293.549,39.062,-34.668,-34.180,75.195,-168.457
1688814293.553,36.621,-32.227,-37.109,75.684,-155.273
1688814293.557,-37.109,-33.203,-41.504,95.703,-108.398
1688814293.561,-119.629,-34.180,-41.504,118.652,-123.047
1688814293.565,-81.055,-38.574,-38.086,96.680,8.789
1688814293.569,14.648,-42.480,-33.691,76.660,192.871
1688814293.572,28.320,-37.598,-28.320,67.383,-52.246
1688814293.576,-29.297,-33.691,-27.344,77.148,-251.953
1688814293.580,-122.070,-34.180,-30.273,109.863,-89.844
1688814293.584,-93.750,-34.668,-37.598,101.074,-1.953
1688814293.588,4.883,-36.133,-40.527,62.988,-114.746
1688814293.591,11.230,-40.527,-45.410,48.340,-98.145
1688814293.595,-49.805,-46.875,-47.363,75.195,170.410
1688814293.599,-137.695,-43.457,-41.016,116.699,321.777
1688814293.603,-127.441,-35.645,-39.062,94.238,-69.824
1688814293.607,-13.184,-41.016,-39.551,60.059,-216.797
1688814293.611,28.809,-43.945,-44.922,59.082,37.109
1688814293.615,-28.809,-41.504,-44.434,74.707,15.137
1688814293.618,-114.746,-41.992,-40.039,126.465,-58.105
1688814293.622,-119.629,-42.480,-39.551,165.527,-62.988
1688814293.626,-19.531,-44.922,-34.668,185.059,105.469
1688814293.630,11.230,-45.410,-37.109,222.168,44.922
1688814293.634,-33.203,-42.480,-37.598,250.977,-201.172
1688814293.651,-111.328,-41.016,-31.738,272.949,-71.289
1688814293.655,-129.395,-41.016,-31.250,233.398,12.207
1688814293.659,-35.645,-40.527,-33.203,139.648,-42.969
1688814293.663,12.695,-43.457,-32.715,106.934,-132.812
1688814293.667,-19.531,-47.363,-32.227,102.539,-139.648
1688814293.671,-101.074,-45.898,-28.809,100.098,182.129
1688814293.675,-138.184,-41.504,-27.344,74.707,200.684
1688814293.678,-41.504,-39.062,-25.391,13.184,-69.336
1688814293.682,28.809,-37.598,-25.391,-33.203,-174.316
1688814293.686,-4.883,-33.691,-29.297,-43.457,-76.172
1688814293.690,-84.473,-33.691,-32.227,-34.180,-103.027
1688814293.694,-123.535,-33.691,-28.320,-15.625,-153.320
1688814293.695,-45.898,-37.109,-25.879,-34.180,30.762
1688814293.699,10.254,-44.434,-27.832,-77.148,158.691
1688814293.703,-5.371,-37.109,-26.855,-82.031,-59.570
1688814293.707,-71.777,-31.738,-20.996,-62.012,-162.109
1688814293.711,-128.418,-33.691,-20.996,-53.711,74.219
1688814293.715,-66.895,-34.668,-26.855,-79.102,83.496
1688814293.719,1.465,-41.016,-35.645,-113.770,-83.984
1688814293.722,-9.277,-40.039,-39.551,-107.910,-80.566
1688814293.726,-63.477,-37.598,-37.109,-72.754,137.207
1688814293.730,-129.883,-34.180,-41.992,-54.199,224.121
1688814293.734,-77.637,-29.785,-42.480,-85.938,-135.742
1688814293.738,14.160,-29.785,-42.969,-128.418,-250.977
1688814293.740,16.602,-27.344,-45.898,-136.230,-194.336
1688814293.744,-43.457,-27.344,-40.527,-99.121,-197.266
1688814293.748,-122.559,-29.785,-38.574,-63.965,-65.918
1688814293.752,-94.238,-32.715,-42.969,-81.055,-20.508
1688814293.756,-7.812,-37.109,-42.969,-115.723,-99.121
1688814293.760,10.254,-34.180,-30.762,-110.840,-61.035
1688814293.764,-43.457,-35.156,-25.879,-69.336,-3.418
1688814293.767,-124.023,-37.109,-31.250,-41.016,54.688
1688814293.771,-94.238,-31.250,-25.391,-57.617,267.578
1688814293.775,0.000,-33.691,-27.344,-99.609,87.402
1688814293.779,9.766,-37.598,-40.527,-114.746,-159.180
1688814293.783,-28.320,-37.109,-39.062,-80.078,-155.273
1688814293.800,-104.980,-40.527,-36.133,-28.320,-29.785
1688814293.804,-119.141,-41.992,-41.016,-31.250,41.504
1688814293.808,-19.043,-32.715,-38.574,-73.242,-153.809
1688814293.812,20.996,-37.598,-37.598,-86.914,-129.395
1688814293.816,-21.973,-46.387,-39.551,-69.336,2.441
1688814293.820,-98.145,-46.387,-45.410,-38.574,-55.176
1688814293.824,-113.281,-42.969,-41.504,-37.109,-73.730
1688814293.827,-29.785,-46.875,-39.551,-62.500,105.957
1688814293.831,15.625,-46.875,-41.992,-79.102,59.082
1688814293.835,-6.348,-40.039,-41.016,-69.336,-164.062
1688814293.839,-80.078,-35.156,-40.039,-22.461,-45.898
1688814293.843,-106.934,-32.715,-37.598,0.977,108.887
1688814293.830,-22.949,-32.715,-43.457,-42.969,-109.375
1688814293.834,26.367,-29.785,-45.410,-81.055,-219.238
1688814293.838,9.766,-27.344,-37.109,-67.871,-154.297
1688814293.842,-56.641,-30.762,-34.668,-15.137,-41.504
1688814293.846,-110.840,-38.574,-34.180,4.395,9.277
1688814293.850,-37.598,-43.457,-32.227,-52.734,-27.344
1688814293.854,28.320,-42.480,-38.086,-93.262,70.801
1688814293.857,1.953,-39.062,-45.898,-81.543,2.930
1688814293.861,-68.848,-43.945,-43.945,-43.457,-106.445
1688814293.865,-117.188,-46.387,-41.992,-10.254,-59.570
1688814293.869,-55.176,-43.457,-41.016,-37.598,-41.016
1688814293.873,14.648,-38.574,-40.527,-73.242,-50.293
1688814293.876,8.301,-32.227,-44.922,-72.266,-82.520
1688814293.880,-57.617,-33.691,-42.969,-49.805,-68.359
1688814293.884,-120.117,-38.574,-41.992,-19.531,115.234
1688814293.888,-79.102,-48.340,-47.363,-47.852,383.789
1688814293.892,-8.301,-49.805,-46.387,-98.633,153.809
1688814293.896,-3.418,-43.457,-42.969,-97.656,-19.531
1688814293.900,-62.988,-42.969,-43.945,-63.965,293.457
1688814293.903,-128.906,-39.551,-39.551,-26.855,271.484
1688814293.907,-78.613,-41.992,-34.668,-54.199,-95.215
1688814293.911,5.859,-53.711,-39.062,-116.211,-171.875
1688814293.915,1.953,-52.246,-42.969,-132.324,-114.746
1688814293.919,-45.898,-43.457,-39.551,-100.586,-143.555
1688814293.921,-119.141,-42.480,-37.598,-71.289,-125.977
1688814293.925,-99.609,-42.480,-37.109,-96.680,-68.848
1688814293.929,-12.207,-41.016,-37.598,-142.578,-57.617
1688814293.933,12.207,-34.180,-35.156,-151.855,-105.469
1688814293.937,-30.762,-30.762,-32.227,-130.859,-159.180
1688814293.941,-113.281,-32.715,-32.227,-84.961,39.551
1688814293.945,-95.703,-27.832,-34.180,-82.520,347.656
1688814293.948,-4.883,-28.809,-33.203,-140.137,46.875
1688814293.952,17.090,-32.227,-34.668,-157.227,-213.379
1688814293.956,-23.438,-31.250,-36.621,-130.371,-163.574
1688814293.960,-99.121,-32.715,-33.203,-83.008,-52.734
1688814293.964,-94.727,-35.645,-34.180,-77.637,-93.750
1688814293.981,-3.906,-33.203,-26.367,-116.211,-197.266
1688814293.985,29.785,-32.715,-20.020,-118.164,-32.227
1688814293.989,-8.301,-36.621,-25.879,-93.750,-1.465
1688814293.993,-94.727,-36.621,-33.203,-53.223,-92.773
1688814293.997,-121.094,-34.180,-33.691,-40.527,44.434
1688814294.001,-36.621,-35.156,-31.250,-77.637,225.586
1688814294.005,12.207,-28.320,-26.855,-78.125,210.449
1688814294.008,-9.277,-26.855,-26.855,-57.129,-60.059
1688814294.012,-78.125,-27.832,-29.297,-13.184,-18.555
1688814294.016,-110.840,-28.809,-30.762,-9.277,209.473
1688814294.020,-37.598,-32.227,-34.180,-78.613,-16.602
1688814294.024,11.719,-29.297,-32.227,-102.051,-242.676
1688814294.025,-9.277,-27.832,-31.738,-83.496,-205.566
1688814294.029,-84.961,-32.227,-32.715,-49.316,-102.051
1688814294.033,-124.512,-30.762,-32.715,-20.508,-35.156
1688814294.037,-47.852,-26.855,-28.320,-59.082,-158.691
1688814294.041,13.672,-30.762,-28.809,-88.379,-194.336
1688814294.045,-3.418,-32.715,-34.668,-63.477,-86.914
1688814294.049,-72.266,-35.156,-37.109,-34.180,-78.125
1688814294.052,-125.977,-40.527,-33.203,-21.973,2.930
1688814294.056,-57.129,-38.574,-26.855,-51.758,16.113
1688814294.060,20.020,-30.762,-25.879,-84.473,166.992
1688814294.064,12.207,-29.785,-28.809,-81.055,30.273
1688814294.068,-51.758,-35.156,-26.367,-50.293,-186.035
1688814294.070,-118.652,-37.109,-25.391,-11.230,-54.199
1688814294.074,-64.453,-36.621,-27.344,-33.203,-69.336
1688814294.078,20.020,-34.180,-24.414,-79.590,-168.457
1688814294.082,14.648,-33.691,-27.832,-83.008,-247.559
1688814294.086,-45.898,-37.109,-32.715,-51.270,-70.312
1688814294.090,-119.629,-33.691,-33.203,-12.207,171.387
1688814294.094,-83.008,-29.297,-35.156,-27.344,27.344
1688814294.097,6.348,-22.949,-33.691,-72.266,-117.676
1688814294.101,15.625,-24.902,-29.785,-76.172,88.379
1688814294.105,-39.551,-26.367,-27.344,-41.504,187.988
1688814294.109,-118.652,-22.949,-23.926,-3.418,-76.660
1688814294.113,-94.727,-24.414,-23.438,-7.324,-116.211
1688814294.115,-3.906,-25.879,-23.926,-44.922,-89.355
1688814294.119,11.230,-26.855,-26.855,-53.223,-153.320
1688814294.123,-26.855,-26.367,-29.297,-17.578,-157.715
1688814294.127,-106.445,-29.297,-35.156,32.227,-35.156
1688814294.131,-107.422,-26.367,-37.109,27.344,-41.992
1688814294.135,-4.395,-20.020,-31.250,-7.324,1.465
1688814294.139,29.785,-16.602,-33.203,-14.160,-39.551
1688814294.142,-8.301,-21.484,-36.621,2.441,-52.734
1688814294.146,-83.496,-26.367,-35.156,45.898,182.617
1688814294.150,-93.262,-20.508,-36.133,37.598,72.754
1688814294.154,-0.977,-14.648,-32.715,-17.090,-133.789
1688814294.158,38.574,-14.160,-24.902,-31.738,-44.922
1688814294.160,-6.348,-20.508,-25.391,-4.883,157.227
1688814294.164,-83.496,-22.461,-32.227,36.621,55.664
1688814294.168,-104.980,-22.461,-31.738,45.898,8.789
1688814294.172,-21.484,-22.949,-33.203,0.977,43.945
1688814294.176,27.832,-22.461,-34.668,-18.555,-40.039
1688814294.180,2.441,-23.926,-31.250,-4.883,-91.797
1688814294.184,-69.824,-29.785,-28.320,15.137,21.973
1688814294.187,-101.562,-29.297,-29.785,41.992,188.477
1688814294.191,-22.461,-22.949,-28.320,1.465,103.516
1688814294.195,34.668,-27.344,-31.250,-54.199,-222.168
1688814294.199,12.695,-24.902,-38.086,-35.156,-211.914
1688814294.203,-59.082,-18.555,-37.598,-5.371,-40.527
1688814294.206,-104.980,-27.344,-35.645,-12.695,-19.043
1688814294.210,-24.902,-30.762,-32.715,-66.406,-133.789
1688814294.214,49.316,-27.832,-31.250,-86.426,-128.418
1688814294.218,28.809,-26.855,-33.691,-61.523,-4.395
1688814294.222,-43.457,-30.273,-39.551,-37.598,-16.602
1688814294.226,-111.328,-38.086,-46.387,-22.949,44.922
1688814294.230,-52.734,-37.109,-45.898,-64.453,134.277
1688814294.233,25.391,-35.156,-38.086,-96.191,251.465
1688814294.237,16.602,-34.668,-35.156,-83.496,-8.301
1688814294.241,-37.109,-33.203,-38.574,-48.828,-158.691
1688814294.245,-104.980,-32.227,-38.574,-9.277,-28.320
1688814294.249,-65.430,-33.203,-40.527,-48.340,-24.902
1688814294.250,18.066,-32.715,-50.293,-120.117,-146.484
1688814294.254,21.973,-32.715,-50.781,-122.070,-147.461
1688814294.258,-35.156,-36.133,-47.852,-82.520,0.488
1688814294.262,-109.375,-35.156,-47.852,-44.434,35.156
1688814294.266,-77.637,-33.203,-49.316,-54.688,-73.730
1688814294.270,9.277,-31.738,-51.758,-97.168,-84.961
1688814294.274,20.508,-30.762,-46.875,-92.285,119.629
1688814294.277,-25.879,-34.668,-44.922,-59.570,220.215
1688814294.281,-104.004,-38.086,-43.457,-29.785,-60.059
1688814294.285,-86.426,-38.574,-36.133,-39.062,-76.660
1688814294.289,6.836,-36.621,-38.574,-88.867,-28.809
1688814294.293,28.809,-39.062,-40.527,-98.145,-165.527
1688814294.295,-13.184,-45.410,-41.016,-67.871,-187.500
1688814294.299,-91.797,-43.945,-44.434,-27.832,-65.430
1688814294.303,-91.309,-34.668,-47.852,-33.203,-15.625
1688814294.307,1.465,-33.203,-47.363,-82.520,-120.117
1688814294.311,31.250,-34.180,-40.527,-85.938,-161.133
1688814294.315,-17.090,-36.133,-37.109,-56.152,35.156
1688814294.319,-93.750,-37.109,-39.062,-10.742,256.836
1688814294.322,-110.840,-36.621,-39.062,-5.371,111.816
1688814294.326,-31.738,-40.039,-39.062,-53.223,-176.758
1688814294.330,9.277,-42.480,-41.992,-74.707,-122.559
1688814294.334,-21.973,-41.016,-38.086,-51.270,48.340
1688814294.338,-94.727,-31.250,-31.738,-15.137,-101.074
1688814294.355,-120.117,-33.691,-36.133,-31.738,-81.055
1688814294.359,-36.621,-43.457,-41.504,-96.680,90.332
1688814294.363,5.859,-42.480,-40.527,-128.418,-8.789
1688814294.367,-22.949,-41.016,-40.039,-103.516,-151.855
1688814294.371,-89.355,-42.480,-39.551,-66.895,-59.570
1688814294.375,-135.254,-41.992,-41.504,-84.473,166.016
1688814294.379,-56.641,-39.062,-44.434,-140.625,15.625
1688814294.382,15.625,-33.691,-40.527,-160.156,-224.121
1688814294.386,-2.930,-32.715,-36.621,-145.020,-187.988
1688814294.390,-75.684,-36.621,-39.062,-107.422,149.902
1688814294.394,-121.094,-33.691,-35.156,-79.102,208.496
1688814294.398,-49.805,-27.344,-35.156,-116.211,-135.254
1688814294.400,17.090,-28.320,-38.574,-140.137,-210.938
1688814294.404,7.324,-32.715,-35.156,-110.352,39.062
1688814294.408,-55.664,-35.156,-31.250,-85.938,-28.320
1688814294.412,-121.094,-36.621,-36.621,-74.219,-131.348
1688814294.416,-63.477,-40.527,-38.574,-107.910,-128.906
1688814294.420,15.137,-38.086,-36.621,-139.160,-191.406
1688814294.424,8.789,-38.574,-40.527,-130.859,-134.766
1688814294.427,-56.641,-47.852,-43.457,-101.562,-74.707
1688814294.431,-127.930,-53.223,-48.340,-56.152,43.457
1688814294.435,-77.637,-50.781,-50.781,-74.707,264.160
1688814294.439,10.254,-43.457,-46.875,-130.859,12.695
1688814294.443,20.508,-41.992,-44.922,-130.859,-185.059
1688814294.445,-24.414,-38.574,-42.969,-100.586,20.020
1688814294.449,-98.633,-29.297,-41.992,-67.871,191.895
1688814294.453,-70.801,-29.785,-42.969,-87.402,46.875
1688814294.457,29.785,-28.809,-41.016,-126.465,-121.094
1688814294.461,53.711,-26.855,-41.016,-114.258,-103.516
1688814294.465,12.207,-32.227,-38.086,-87.891,-15.137
1688814294.469,-80.078,-33.691,-37.109,-59.570,30.762
1688814294.472,-84.473,-31.738,-37.598,-55.176,31.250
1688814294.476,13.672,-33.691,-36.133,-97.168,100.586
1688814294.480,38.574,-37.109,-37.598,-122.559,80.078
1688814294.484,-3.418,-33.691,-38.086,-118.164,-155.273
1688814294.488,-85.938,-37.109,-40.527,-108.887,-65.918
1688814294.505,-95.703,-42.969,-46.387,-138.672,55.176
1688814294.509,3.906,-40.039,-47.852,-202.148,-78.613
1688814294.513,38.086,-41.016,-47.852,-234.863,-172.852
1688814294.517,-0.977,-46.875,-50.293,-233.887,-122.070
1688814294.521,-81.543,-46.387,-51.758,-196.777,108.887
1688814294.525,-88.379,-43.945,-50.293,-169.922,141.602
1688814294.529,0.000,-38.086,-49.316,-187.500,-103.516
1688814294.532,35.645,-41.992,-53.711,-202.637,-142.090
1688814294.536,7.324,-46.387,-55.176,-172.363,87.402
1688814294.540,-70.312,-39.062,-52.734,-113.281,-50.781
1688814294.544,-115.234,-39.551,-42.969,-85.938,-174.316
1688814294.548,-20.508,-38.574,-43.457,-116.211,-113.281
1688814294.535,51.758,-36.133,-48.828,-144.531,-115.723
1688814294.539,20.508,-38.574,-54.688,-132.324,-145.996
1688814294.543,-62.012,-40.039,-59.082,-100.586,-138.184
1688814294.547,-119.629,-46.875,-55.176,-74.219,211.426
1688814294.551,-39.551,-45.898,-50.293,-103.027,282.227
1688814294.555,40.527,-38.574,-45.898,-136.719,-53.711
1688814294.559,25.879,-38.086,-44.922,-131.348,-94.727
1688814294.562,-52.734,-38.086,-44.922,-98.145,30.762
1688814294.566,-122.070,-35.645,-42.969,-68.359,-39.551
1688814294.570,-50.293,-34.668,-42.480,-102.539,-180.176
1688814294.574,27.344,-38.574,-47.852,-129.883,-145.996
1688814294.578,18.555,-38.086,-45.898,-109.863,35.156
1688814294.580,-41.992,-35.156,-40.039,-81.055,13.672
1688814294.584,-124.023,-35.156,-38.574,-47.852,-91.309
1688814294.588,-75.195,-41.992,-38.574,-64.941,-6.836
1688814294.592,29.785,-49.316,-35.156,-109.863,87.891
1688814294.596,38.086,-42.480,-40.039,-126.953,-9.766
1688814294.600,-22.949,-32.227,-44.434,-104.004,-34.180
1688814294.604,-107.910,-31.738,-38.086,-54.688,76.172
1688814294.607,-71.289,-31.738,-35.645,-62.500,391.113
1688814294.611,24.902,-27.832,-35.156,-121.582,118.164
1688814294.615,33.691,-33.691,-36.133,-141.602,-223.145
1688814294.619,-16.113,-39.062,-35.645,-114.258,-76.172
1688814294.623,-115.723,-43.945,-37.598,-83.496,-21.484
1688814294.641,-106.934,-44.922,-40.527,-109.375,-68.848
1688814294.645,2.441,-41.504,-33.691,-154.297,-62.500
1688814294.649,28.809,-40.039,-31.738,-160.156,-40.039
1688814294.653,-19.531,-40.039,-36.133,-155.762,3.418
1688814294.657,-113.281,-45.410,-35.645,-130.371,18.555
1688814294.661,-112.793,-44.922,-38.574,-126.953,76.660
1688814294.665,-5.371,-45.410,-41.992,-171.875,207.031
1688814294.668,27.832,-42.969,-43.457,-186.035,151.855
1688814294.672,-10.742,-40.527,-40.527,-178.223,-49.805
1688814294.676,-102.539,-38.086,-37.109,-141.602,-70.312
1688814294.680,-119.629,-34.180,-32.227,-118.652,52.734
1688814294.684,-16.602,-45.410,-31.738,-158.203,-61.035
1688814294.670,27.344,-43.457,-37.109,-192.871,-217.285
1688814294.674,-19.531,-41.016,-39.551,-187.500,-196.289
1688814294.678,-114.258,-45.898,-38.574,-162.598,-110.840
1688814294.682,-156.738,-42.480,-38.574,-175.781,-65.430
1688814294.686,-83.496,-43.457,-36.133,-228.027,-167.969
1688814294.690,-40.527,-34.668,-23.438,-262.207,-101.562
1688814294.694,-92.773,-26.855,-31.738,-276.367,50.781
1688814294.697,-197.266,-23.926,-35.156,-261.719,-16.602
1688814294.701,-254.395,-19.043,-22.461,-262.207,-122.070
1688814294.705,-188.477,-20.996,-25.879,-340.332,-131.348
1688814294.709,-142.578,-21.973,-25.879,-374.512,243.652
1688814294.713,-178.223,-22.949,-18.555,-364.746,133.789
1688814294.731,-265.625,-25.879,-18.066,-357.910,-120.117
1688814294.735,-327.148,-21.973,-20.508,-340.820,187.988
1688814294.739,-242.676,-14.648,-17.090,-368.164,94.727
1688814294.743,-151.367,-13.184,-20.020,-414.062,-240.234
1688814294.747,-167.969,-18.066,-26.367,-415.527,-265.137
1688814294.751,-241.699,-18.066,-27.344,-359.863,-12.695
1688814294.755,-298.828,-16.602,-24.414,-318.359,144.531
1688814294.758,-219.727,-13.184,-25.879,-335.449,-21.484
1688814294.762,-112.793,-15.625,-29.297,-334.473,-162.109
1688814294.766,-110.840,-25.879,-34.180,-308.105,-14.160
1688814294.770,-168.945,-30.762,-41.504,-283.691,12.207
1688814294.774,-238.281,-37.598,-46.875,-238.770,-106.934
1688814294.763,-186.035,-48.340,-41.992,-237.305,-104.492
1688814294.767,-69.824,-45.410,-45.898,-254.395,-85.938
1688814294.771,-36.621,-45.898,-44.434,-222.656,-149.414
1688814294.775,-86.914,-53.711,-42.480,-188.965,-190.918
1688814294.779,-154.785,-52.734,-40.527,-148.926,-45.410
1688814294.783,-105.469,-48.340,-39.062,-150.879,70.312
1688814294.787,-8.301,-47.363,-45.898,-188.477,-4.883
1688814294.790,12.207,-49.316,-38.086,-170.410,-110.352
1688814294.794,-22.461,-47.363,-31.738,-109.863,-96.680
1688814294.798,-107.910,-49.316,-36.133,-53.223,234.375
1688814294.802,-91.797,-51.758,-39.551,-66.406,95.703
1688814294.806,27.344,-50.781,-43.457,-98.145,-216.309
1688814294.820,49.805,-51.758,-40.039,-80.566,-150.879
1688814294.824,1.953,-50.293,-34.180,-48.828,-43.945
1688814294.828,-76.172,-49.805,-34.668,-8.789,-40.039
1688814294.832,-80.078,-53.223,-36.133,-8.301,17.090
1688814294.836,28.809,-55.176,-39.062,-40.039,124.023
1688814294.840,69.824,-54.199,-39.062,-30.273,351.074
1688814294.844,30.273,-53.711,-38.574,-16.113,130.859
1688814294.847,-46.387,-53.711,-41.016,18.066,-3.418
1688814294.851,-64.453,-53.223,-39.062,36.621,151.855
1688814294.855,41.016,-48.828,-38.086,7.812,29.297
1688814294.859,94.238,-42.480,-36.133,-1.465,-155.762
1688814294.863,56.641,-47.852,-37.109,11.719,-124.512
1688814294.870,-23.926,-53.711,-41.016,43.457,-13.672
1688814294.874,-63.477,-56.152,-42.969,56.641,-3.418
1688814294.878,26.367,-55.664,-43.945,19.043,-113.770
1688814294.882,92.285,-49.805,-40.527,2.441,-191.895
1688814294.886,64.941,-45.410,-40.039,27.344,-131.836
1688814294.890,-22.949,-50.293,-42.480,77.148,-93.750
1688814294.894,-78.125,-52.734,-41.504,145.508,-83.008
1688814294.897,3.906,-53.223,-39.062,158.691,-2.930
1688814294.901,79.590,-48.828,-36.621,151.855,-41.504
1688814294.905,64.453,-46.875,-41.992,174.805,-123.535
1688814294.909,-12.695,-50.781,-44.922,219.238,-101.562
1688814294.913,-84.961,-51.270,-37.109,252.930,-10.254
1688814294.910,-13.672,-49.805,-32.715,229.492,84.961
1688814294.914,81.543,-46.875,-36.621,211.426,7.324
1688814294.918,72.266,-45.898,-38.086,219.238,-140.625
1688814294.922,-4.883,-50.781,-32.715,255.371,-3.418
1688814294.926,-78.613,-43.457,-23.438,309.082,98.633
1688814294.930,-19.531,-39.062,-18.066,287.109,-29.785
1688814294.934,60.547,-46.387,-21.973,238.281,-17.578
1688814294.937,46.387,-52.734,-30.273,239.746,59.082
1688814294.941,-16.113,-57.129,-32.715,269.043,371.582
1688814294.945,-98.145,-57.129,-33.691,285.156,386.719
1688814294.949,-56.152,-51.270,-33.203,230.469,-39.551
1688814294.953,47.363,-45.898,-30.273,165.039,-182.129
1688814294.955,62.988,-44.434,-29.297,144.043,-154.297
1688814294.959,7.812,-42.480,-25.879,147.949,-183.105
1688814294.963,-79.102,-41.504,-23.438,166.992,-72.754
1688814294.967,-48.340,-40.527,-24.902,142.090,-13.184
1688814294.971,60.059,-38.086,-26.367,101.074,-85.449
1688814294.975,71.777,-41.016,-31.738,108.398,-94.238
1688814294.979,22.949,-41.016,-34.180,125.488,84.961
1688814294.982,-60.547,-37.109,-32.715,165.527,375.977
1688814294.986,-57.617,-39.062,-29.785,139.160,119.629
1688814294.990,39.551,-41.992,-26.367,57.129,-141.602
1688814294.994,76.172,-37.109,-21.973,41.992,-25.879
1688814294.998,32.715,-35.156,-27.344,60.547,-52.734
1688814295.000,-57.129,-42.480,-32.227,84.473,-88.867
1688814295.004,-59.570,-41.504,-28.809,79.590,-104.492
1688814295.008,37.109,-41.016,-28.809,22.949,-40.039
1688814295.012,78.125,-43.945,-26.855,-0.977,82.031
1688814295.016,41.992,-44.922,-21.973,20.996,-73.730
1688814295.020,-46.387,-43.457,-21.973,71.777,-41.992
1688814295.024,-73.730,-43.945,-27.832,107.422,268.555
1688814295.027,20.020,-45.898,-33.691,74.707,185.547
1688814295.031,72.266,-43.945,-32.715,65.918,-250.000
1688814295.035,45.898,-43.945,-28.320,100.586,-261.230
1688814295.039,-38.086,-42.480,-27.832,139.648,-100.586
1688814295.043,-85.938,-39.062,-32.227,165.527,-114.746
1688814295.062,4.395,-41.016,-34.180,134.277,-185.059
1688814295.066,75.195,-42.480,-31.738,116.211,-197.754
1688814295.070,54.199,-42.480,-34.180,146.484,-37.109
1688814295.074,-23.926,-39.551,-37.598,183.594,17.578
1688814295.078,-84.961,-40.527,-31.738,204.590,-64.453
1688814295.082,-13.184,-45.898,-29.785,195.312,46.875
1688814295.086,66.895,-42.480,-31.250,178.711,252.930
1688814295.089,58.594,-41.016,-35.156,175.781,-15.137
1688814295.093,-21.484,-43.945,-36.133,207.031,-142.578
1688814295.097,-98.633,-45.898,-34.668,243.164,34.180
1688814295.101,-34.668,-45.410,-35.156,214.844,13.672
1688814295.105,54.199,-45.410,-39.062,177.734,-136.719
1688814295.106,55.664,-41.504,-46.387,194.824,-175.781
1688814295.110,-9.766,-39.062,-46.875,225.586,23.438
1688814295.114,-99.121,-39.062,-47.363,250.488,77.148
1688814295.118,-48.828,-27.832,-41.992,239.746,-130.859
1688814295.122,49.316,-22.461,-42.480,213.379,-234.863
1688814295.126,40.527,-24.414,-46.875,218.750,40.039
1688814295.130,-25.391,-20.508,-42.969,252.441,203.613
1688814295.133,-108.887,-21.484,-43.457,288.574,-4.395
1688814295.137,-76.172,-25.391,-44.922,273.438,-120.117
1688814295.141,26.855,-25.391,-40.039,246.582,43.945
1688814295.145,40.527,-23.438,-33.203,264.648,210.449
1688814295.149,-5.859,-22.461,-38.574,291.504,-93.750
1688814295.150,-92.285,-21.484,-34.668,321.777,-130.859
1688814295.154,-78.613,-20.996,-32.715,309.570,-4.883
1688814295.158,26.855,-24.902,-42.480,262.695,-81.055
1688814295.162,54.688,-29.297,-42.969,254.395,-163.574
1688814295.166,-0.488,-35.156,-38.086,282.715,-137.695
1688814295.170,-96.191,-35.645,-34.668,335.449,74.707
1688814295.174,-100.098,-31.250,-32.715,324.219,174.805
1688814295.177,-3.418,-35.645,-36.621,242.676,-31.738
1688814295.181,30.762,-44.434,-41.016,224.121,-100.098
1688814295.185,-6.348,-46.875,-42.480,238.281,160.156
1688814295.189,-93.262,-45.410,-42.969,250.977,91.309
1688814295.193,-113.770,-40.527,-38.574,250.977,-52.734
1688814295.195,-14.160,-37.598,-34.180,186.523,13.672
1688814295.199,32.715,-38.574,-31.738,141.113,-2.441
1688814295.203,-6.836,-42.480,-33.691,142.090,-117.676
1688814295.207,-97.656,-45.898,-31.738,164.062,-111.328
1688814295.211,-138.672,-49.316,-36.133,158.203,44.922
1688814295.215,-48.828,-51.758,-44.434,113.770,121.094
1688814295.219,11.719,-48.340,-42.969,99.121,8.789
1688814295.222,-18.555,-44.922,-45.898,113.770,-87.891
1688814295.226,-101.562,-47.363,-45.410,141.113,115.723
1688814295.230,-154.297,-44.434,-40.039,159.668,253.906
1688814295.234,-63.965,-43.945,-40.039,117.676,-53.711
1688814295.238,20.996,-48.340,-39.551,94.727,-187.012
1688814295.240,3.418,-46.387,-39.062,116.211,-120.117
1688814295.244,-75.684,-47.852,-37.109,160.156,-94.727
1688814295.248,-145.020,-56.641,-36.133,198.242,-100.098
1688814295.252,-72.754,-54.688,-37.598,169.922,-39.551
1688814295.256,13.184,-46.875,-37.598,145.996,-85.449
1688814295.260,2.441,-43.945,-38.574,159.668,-79.102
1688814295.264,-62.500,-41.016,-38.086,187.500,-8.789
1688814295.267,-134.277,-40.527,-34.668,200.684,45.410
1688814295.271,-68.359,-36.133,-31.250,173.828,243.164
1688814295.275,31.250,-30.273,-28.320,145.508,15.137
1688814295.279,25.391,-29.785,-28.809,140.137,-262.207
1688814295.283,-42.480,-30.273,-31.250,173.340,-131.836
1688814295.285,-122.070,-24.414,-25.391,218.750,52.734
1688814295.289,-81.543,-20.508,-24.414,187.012,35.156
1688814295.293,18.555,-20.996,-28.809,142.090,-161.133
1688814295.297,22.949,-24.414,-31.738,150.391,-114.746
1688814295.301,-43.945,-29.785,-37.109,164.062,21.484
1688814295.305,-132.324,-32.715,-39.551,189.941,2.441
1688814295.309,-107.422,-40.527,-42.480,177.246,-5.859
1688814295.312,-1.465,-40.039,-46.875,127.930,111.816
1688814295.316,20.020,-30.273,-44.922,126.465,142.578
1688814295.320,-27.832,-32.227,-36.133,145.996,-104.980
1688814295.324,-112.305,-32.227,-35.645,166.016,-125.000
1688814295.328,-105.469,-33.691,-38.086,147.949,-25.391
1688814295.330,-4.883,-40.039,-38.574,106.445,-94.238
1688814295.334,24.414,-42.969,-41.016,105.469,-210.449
1688814295.338,-11.719,-46.875,-41.504,132.324,-125.488
1688814295.342,-104.004,-48.340,-40.039,173.828,97.168
1688814295.346,-122.559,-48.828,-37.598,166.992,35.156
1688814295.350,-18.555,-51.270,-42.480,116.211,-67.383
1688814295.354,18.066,-50.781,-46.387,105.957,-45.410
1688814295.357,-26.367,-48.340,-39.551,128.906,116.699
1688814295.361,-115.234,-44.922,-40.039,144.531,31.738
1688814295.365,-142.090,-43.945,-43.945,138.184,-104.980
1688814295.369,-41.016,-46.387,-40.527,98.145,-63.965
1688814295.373,16.113,-38.574,-40.527,79.590,-112.305
1688814295.376,-19.531,-32.227,-42.969,91.797,-175.781
1688814295.380,-100.098,-36.621,-36.621,123.535,-76.172
1688814295.384,-137.695,-33.203,-32.227,135.742,147.461
1688814295.388,-51.270,-32.227,-31.738,102.051,116.211
1688814295.392,11.719,-41.504,-35.645,71.777,-195.312
1688814295.396,-8.789,-43.945,-37.109,83.496,-120.117
1688814295.400,-87.891,-44.922,-35.645,145.508,148.926
1688814295.403,-144.531,-40.527,-35.645,185.059,145.508
1688814295.407,-60.059,-37.109,-36.133,157.715,-130.371
1688814295.411,17.578,-43.457,-39.551,146.484,-157.715
1688814295.415,4.883,-47.852,-41.992,169.434,-109.863
1688814295.419,-69.824,-46.875,-41.504,209.473,-134.766
1688814295.422,-142.578,-41.504,-46.875,239.746,-95.703
1688814295.426,-71.777,-45.898,-48.828,217.773,-57.617
1688814295.430,15.137,-46.875,-47.852,175.293,-92.773
1688814295.434,0.977,-44.922,-41.504,188.477,-110.352
1688814295.438,-61.523,-50.293,-41.504,228.516,-88.867
1688814295.442,-132.812,-53.223,-46.875,252.930,139.648
1688814295.446,-80.566,-48.828,-42.480,241.211,441.895
1688814295.449,17.578,-41.504,-41.504,196.289,131.348
1688814295.453,30.273,-39.551,-40.527,176.758,-141.113
1688814295.457,-26.367,-40.527,-37.598,195.801,-90.820
1688814295.461,-114.746,-38.574,-39.062,213.379,-1.953
1688814295.465,-81.543,-41.016,-38.574,187.012,-38.574
1688814295.480,20.020,-44.434,-36.621,143.555,-155.762
1688814295.484,28.809,-43.945,-38.086,137.695,-120.117
1688814295.488,-22.461,-43.457,-42.969,165.527,-82.520
1688814295.492,-104.980,-43.457,-43.945,187.012,-72.266
1688814295.496,-88.867,-44.922,-44.434,152.344,-112.793
1688814295.500,13.672,-50.781,-45.410,89.355,96.191
1688814295.504,30.273,-49.316,-46.875,63.477,353.027
1688814295.507,-19.043,-43.945,-43.457,65.918,31.738
1688814295.511,-103.516,-39.551,-39.551,91.797,-147.949
1688814295.515,-107.422,-39.551,-34.668,104.492,81.055
1688814295.519,-5.859,-41.992,-37.109,78.613,13.184
1688814295.523,31.738,-37.109,-40.039,67.383,-209.961
1688814295.526,-15.137,-38.574,-41.016,76.172,-161.621
1688814295.530,-105.957,-40.527,-41.992,115.234,-50.293
1688814295.534,-125.488,-41.504,-38.086,128.906,-39.062
1688814295.538,-25.391,-46.875,-34.668,79.590,-108.398
1688814295.542,22.461,-48.340,-40.039,59.082,-171.387
1688814295.546,-10.742,-45.410,-40.039,83.008,-72.754
1688814295.550,-96.680,-42.969,-36.621,116.699,-17.090
1688814295.553,-134.766,-35.645,-38.574,122.070,-83.496
1688814295.557,-35.156,-34.668,-39.062,87.402,-7.812
1688814295.561,20.996,-40.039,-39.551,85.938,270.020
1688814295.565,-5.371,-38.086,-39.062,103.027,80.078
1688814295.569,-82.520,-36.621,-38.086,123.535,-111.328
1688814295.570,-136.719,-38.574,-32.227,144.531,12.207
1688814295.574,-44.922,-39.062,-31.250,111.328,15.137
1688814295.578,28.809,-42.969,-40.039,72.754,-192.383
1688814295.582,7.324,-45.898,-38.086,88.867,-260.254
1688814295.586,-69.824,-47.852,-31.738,132.812,38.574
1688814295.590,-140.137,-38.086,-35.645,155.273,222.656
1688814295.594,-68.359,-31.738,-38.574,106.445,49.805
1688814295.597,19.531,-35.645,-39.551,69.824,-135.742
1688814295.601,4.883,-31.738,-41.016,83.008,57.129
1688814295.605,-72.754,-30.273,-41.504,104.004,132.324
1688814295.609,-135.742,-29.785,-42.480,119.629,-105.469
1688814295.613,-62.988,-29.785,-39.062,103.027,-48.340
1688814295.615,30.762,-30.273,-38.086,75.684,77.637
1688814295.619,26.855,-28.809,-38.574,76.660,-115.234
1688814295.623,-35.156,-30.762,-36.621,105.469,-160.156
1688814295.627,-116.699,-39.551,-37.598,138.672,-42.480
1688814295.631,-75.684,-39.062,-41.992,109.375,-39.551
1688814295.635,23.438,-31.738,-41.992,59.082,-38.574
1688814295.639,28.809,-33.203,-42.969,42.480,-27.832
1688814295.642,-34.668,-34.668,-46.387,53.711,12.207
1688814295.646,-125.000,-37.598,-46.875,88.379,223.145
1688814295.650,-95.703,-42.480,-44.922,61.523,37.598
1688814295.654,13.184,-43.945,-43.457,6.836,-211.426
1688814295.658,26.367,-41.992,-47.852,-7.324,-94.238
1688814295.661,-30.762,-41.504,-41.016,-1.953,-89.844
1688814295.665,-115.234,-39.551,-31.738,26.855,-49.316
1688814295.669,-108.398,-33.691,-29.297,0.488,84.473
1688814295.673,-2.930,-34.180,-25.391,-57.617,76.172
1688814295.677,28.320,-35.156,-21.484,-59.570,130.859
1688814295.681,-14.160,-27.344,-20.020,-44.922,-11.719
1688814295.685,-98.633,-29.297,-20.996,-8.789,-41.504
1688814295.688,-115.234,-36.133,-25.391,-7.324,224.121
1688814295.692,-17.578,-34.180,-25.391,-47.852,141.113
1688814295.696,32.227,-31.250,-19.531,-59.570,-235.352
1688814295.700,2.930,-32.227,-16.602,-46.875,-191.406
1688814295.704,-81.543,-30.273,-14.160,-30.273,0.488
1688814295.707,-111.816,-29.785,-18.066,-31.250,-14.160
1688814295.711,-6.348,-33.203,-25.391,-35.645,-42.969
1688814295.715,51.270,-34.180,-29.297,-24.414,-96.680
1688814295.719,6.348,-35.645,-27.832,10.254,-81.543
1688814295.723,-77.148,-39.551,-29.297,51.758,38.086
1688814295.727,-114.746,-39.062,-32.227,68.848,140.625
1688814295.731,-26.855,-37.109,-30.762,43.457,100.586
1688814295.734,36.133,-40.039,-33.691,37.598,162.109
1688814295.738,15.137,-36.133,-36.621,55.176,-24.414
1688814295.742,-65.430,-34.668,-35.156,83.496,-255.371
1688814295.746,-119.141,-38.574,-34.668,106.934,-50.293
1688814295.750,-33.203,-38.574,-37.598,77.148,124.512
1688814295.765,41.504,-35.156,-38.574,57.617,-88.379
1688814295.769,30.762,-31.250,-35.156,77.148,-163.086
1688814295.773,-41.992,-33.203,-38.574,112.305,-24.414
1688814295.777,-112.305,-32.715,-37.598,138.672,-30.762
1688814295.781,-43.457,-28.809,-35.156,108.398,-119.141
1688814295.785,35.645,-28.320,-40.039,69.336,-110.352
1688814295.789,20.996,-35.156,-45.898,80.566,131.348
1688814295.792,-39.062,-40.039,-44.434,123.047,398.926
1688814295.796,-114.746,-40.039,-42.480,148.926,214.844
1688814295.800,-58.594,-38.574,-33.203,120.605,-140.137
1688814295.804,36.621,-41.992,-28.320,76.660,-216.309
1688814295.808,22.949,-49.316,-34.668,79.102,-208.496
1688814295.795,-39.062,-54.688,-29.297,115.234,-163.086
1688814295.799,-116.699,-53.711,-23.926,137.207,0.000
1688814295.803,-82.520,-50.781,-29.785,102.539,49.316
1688814295.807,14.648,-55.664,-34.180,63.965,-88.867
1688814295.811,28.809,-56.152,-37.598,71.777,-152.344
1688814295.815,-22.461,-52.734,-41.016,101.562,-41.992
1688814295.819,-115.723,-53.223,-41.016,131.836,135.254
1688814295.822,-94.238,-46.875,-41.016,117.676,-27.344
1688814295.826,20.508,-44.922,-41.992,75.195,-155.273
1688814295.830,39.551,-49.316,-45.898,55.176,-9.277
1688814295.834,-19.043,-53.711,-48.828,69.824,236.816
1688814295.838,-109.375,-56.641,-45.898,102.051,109.863
1688814295.855,-104.492,-56.641,-51.270,88.379,-64.941
1688814295.859,0.000,-54.199,-56.152,51.270,29.785
1688814295.863,32.227,-51.270,-52.734,38.574,-60.547
1688814295.867,-11.719,-48.828,-48.828,50.781,-199.219
1688814295.871,-100.586,-46.387,-48.828,93.750,-118.164
1688814295.875,-110.352,-42.969,-47.363,103.027,107.910
1688814295.879,-9.277,-42.480,-46.875,59.082,36.621
1688814295.882,38.574,-40.039,-44.922,41.016,-118.164
1688814295.886,9.766,-39.551,-43.457,53.711,-175.781
1688814295.890,-84.473,-41.504,-43.457,80.078,13.672
1688814295.894,-122.559,-37.598,-40.527,81.055,42.480
1688814295.898,-22.461,-34.180,-41.016,33.691,-100.098
1688814295.888,31.250,-29.297,-41.016,23.438,-82.031
1688814295.892,-2.441,-31.738,-39.551,46.875,-8.789
1688814295.896,-88.379,-35.156,-39.062,70.801,-35.645
1688814295.900,-132.812,-36.133,-41.016,95.215,-26.855
1688814295.904,-41.992,-42.969,-46.387,61.035,-47.852
1688814295.908,28.809,-41.504,-50.293,26.367,-70.801
1688814295.912,7.324,-41.992,-47.852,44.922,-81.543
1688814295.915,-79.102,-46.875,-46.387,76.660,-125.000
1688814295.919,-142.578,-47.852,-41.992,84.473,-49.805
1688814295.923,-60.547,-42.969,-39.062,50.781,160.156
1688814295.927,21.484,-40.039,-43.945,16.113,-63.965
1688814295.931,1.953,-44.922,-43.945,23.438,-169.434
1688814295.945,-68.848,-48.828,-44.434,68.359,-52.246
1688814295.949,-135.742,-45.410,-42.969,99.609,16.113
1688814295.953,-76.660,-46.387,-45.410,69.336,-4.395
1688814295.957,11.230,-47.363,-50.781,40.527,-134.277
1688814295.961,6.348,-47.852,-46.387,59.082,-12.695
1688814295.965,-78.125,-49.316,-43.457,85.449,233.398
1688814295.969,-152.344,-46.387,-41.992,92.773,110.840
1688814295.972,-85.938,-49.316,-38.574,64.941,-58.105
1688814295.976,14.160,-46.875,-35.645,32.715,-0.977
1688814295.980,19.043,-38.086,-37.109,32.227,18.555
1688814295.984,-44.922,-41.504,-38.574,53.711,-110.352
1688814295.988,-134.277,-47.852,-37.598,85.938,-36.133
1688814295.990,-104.004,-42.480,-38.574,83.008,32.715
1688814295.994,-0.977,-39.551,-35.156,54.199,-87.891
1688814295.998,17.578,-43.945,-36.621,50.293,-204.590
1688814296.002,-35.645,-47.852,-42.480,82.520,-87.891
1688814296.006,-128.418,-43.457,-42.969,133.301,131.836
1688814296.010,-115.723,-41.016,-39.551,124.512,100.098
1688814296.014,-7.324,-37.109,-40.527,71.289,-43.457
1688814296.017,15.625,-35.645,-44.922,57.129,-85.938
1688814296.021,-34.668,-40.039,-44.434,91.309,161.621
1688814296.025,-118.164,-40.039,-37.598,126.465,82.520
1688814296.029,-128.906,-40.527,-37.109,118.652,-78.613
1688814296.033,-32.227,-39.551,-39.551,86.914,-99.121
1688814296.035,8.789,-39.062,-35.156,77.637,-30.762
1688814296.039,-23.926,-38.574,-32.227,91.797,-20.020
1688814296.043,-112.793,-40.039,-40.039,119.141,-111.328
1688814296.047,-143.555,-43.457,-39.062,126.953,37.598
1688814296.051,-40.527,-40.527,-36.621,89.844,9.766
1688814296.055,15.625,-40.527,-40.039,78.125,-170.898
1688814296.059,-20.996,-44.434,-33.203,93.262,-90.332
1688814296.062,-107.910,-47.363,-32.227,126.465,177.734
1688814296.066,-143.555,-46.875,-38.086,141.113,359.863
1688814296.070,-45.898,-49.805,-36.133,96.191,-21.973
1688814296.074,14.160,-51.270,-34.180,81.055,-215.820
1688814296.078,-15.137,-49.805,-33.203,86.426,-130.859
1688814296.080,-93.262,-48.340,-32.715,106.445,-159.668
1688814296.084,-151.855,-46.875,-34.180,129.883,-160.156
1688814296.088,-66.895,-47.852,-37.109,95.703,-132.324
1688814296.092,12.207,-44.922,-43.945,62.012,-116.699
1688814296.096,-3.906,-37.598,-40.527,62.500,-148.438
1688814296.100,-77.637,-38.574,-39.062,84.961,-113.770
1688814296.104,-144.043,-42.480,-44.922,96.191,68.848
1688814296.107,-68.359,-38.086,-42.969,71.289,275.391
1688814296.111,21.484,-34.180,-38.574,50.781,78.613
1688814296.115,8.789,-32.715,-33.203,44.434,-158.203
1688814296.119,-67.383,-34.668,-39.551,56.152,-41.016
1688814296.123,-140.137,-29.785,-43.945,81.055,55.664
1688814296.125,-76.660,-31.250,-40.039,63.477,-48.828
1688814296.129,11.719,-35.645,-41.504,36.621,-125.488
1688814296.133,6.836,-41.016,-44.434,42.969,-50.293
1688814296.137,-51.758,-38.086,-43.945,72.754,25.391
1688814296.141,-132.324,-29.785,-41.504,101.074,-48.340
1688814296.145,-94.727,-28.809,-39.551,72.266,-36.621
1688814296.149,2.441,-33.203,-37.598,41.992,169.922
1688814296.152,15.625,-36.621,-38.086,52.246,175.781
1688814296.156,-22.461,-30.273,-33.691,77.637,-130.859
1688814296.160,-110.352,-26.367,-28.320,104.492,-121.094
1688814296.164,-99.121,-29.297,-31.738,94.238,34.668
1688814296.168,9.277,-28.320,-31.250,62.012,-94.727
1688814296.171,32.227,-24.902,-26.855,48.340,-224.609
1688814296.175,-19.043,-27.832,-27.832,74.707,-149.902
1688814296.179,-114.746,-26.855,-35.645,107.910,96.191
1688814296.183,-115.723,-27.832,-43.457,70.801,-3.418
1688814296.187,-6.348,-33.203,-46.387,13.184,-189.941
1688814296.191,30.762,-31.738,-43.457,4.395,-61.035
1688814296.195,-14.160,-35.645,-45.898,20.020,112.305
1688814296.198,-102.539,-38.574,-48.340,48.340,6.348
1688814296.202,-115.723,-32.715,-42.480,49.805,-90.332
1688814296.206,-13.184,-28.320,-39.551,12.207,-10.254
1688814296.210,31.738,-28.320,-37.598,4.395,-27.344
1688814296.214,0.000,-30.273,-35.156,20.996,-191.895
1688814296.216,-88.379,-28.320,-33.691,47.363,-124.512
1688814296.220,-123.535,-29.785,-30.762,58.594,198.730
1688814296.224,-16.602,-31.250,-30.273,25.391,281.250
1688814296.228,46.875,-26.855,-32.227,1.953,-117.188
1688814296.232,10.742,-33.203,-34.668,15.625,-215.332
1688814296.236,-71.777,-35.645,-33.691,50.293,71.289
1688814296.240,-112.305,-33.691,-33.691,65.918,203.125
1688814296.243,-26.855,-36.133,-35.645,31.738,-8.789
1688814296.247,32.715,-36.133,-37.109,-2.441,-205.078
1688814296.251,14.160,-32.227,-35.645,10.742,-42.969
1688814296.255,-61.523,-28.320,-32.227,46.875,6.836
1688814296.259,-124.512,-26.855,-34.668,52.734,-83.496
1688814296.275,-52.246,-31.738,-41.992,6.348,-77.148
1688814296.279,26.367,-32.227,-37.598,-20.020,-83.008
1688814296.283,14.160,-27.832,-29.297,0.977,-92.773
1688814296.287,-60.547,-30.762,-29.297,32.227,-46.387
1688814296.291,-132.324,-33.203,-29.297,56.152,48.340
1688814296.295,-72.754,-34.180,-32.715,30.762,268.555
1688814296.299,10.742,-34.668,-35.645,-11.230,73.242
1688814296.302,3.906,-37.109,-32.715,-7.812,-268.066
1688814296.306,-64.941,-43.945,-33.691,20.996,-114.258
1688814296.310,-138.672,-41.992,-36.133,50.781,69.336
1688814296.314,-82.031,-38.574,-39.551,32.227,-75.195
1688814296.318,19.043,-38.574,-38.086,-0.977,-216.797
1688814296.320,22.949,-40.527,-37.598,6.836,-118.652
1688814296.324,-38.086,-43.457,-37.109,34.668,-40.039
1688814296.328,-125.977,-41.992,-36.621,63.965,-70.312
1688814296.332,-99.121,-42.969,-37.598,45.410,-93.262
1688814296.336,4.395,-44.922,-37.109,9.277,-75.684
1688814296.340,22.949,-46.875,-41.016,3.906,-50.781
1688814296.344,-33.691,-45.898,-43.945,20.508,31.250
1688814296.347,-127.930,-45.410,-41.992,55.176,74.707
1688814296.351,-108.398,-48.340,-41.504,52.246,126.465
1688814296.355,2.930,-41.504,-40.039,18.555,249.512
1688814296.359,26.855,-36.621,-41.016,0.977,-33.691
1688814296.363,-17.578,-36.621,-35.645,25.879,-135.254
1688814296.365,-106.445,-39.062,-26.367,64.941,31.250
1688814296.369,-113.770,-41.016,-28.809,63.477,-15.625
1688814296.373,-7.324,-41.992,-33.691,20.508,-123.047
1688814296.377,23.438,-43.457,-31.250,12.695,-151.855
1688814296.381,-24.902,-42.480,-27.344,37.598,-125.000
1688814296.385,-112.305,-42.969,-30.273,66.895,47.852
1688814296.389,-128.418,-41.504,-33.691,68.848,136.719
1688814296.392,-22.461,-44.434,-38.086,29.785,60.059
1688814296.396,30.273,-52.246,-41.504,23.926,213.379
1688814296.400,1.465,-50.781,-40.527,47.852,72.754
1688814296.404,-78.125,-50.781,-39.062,82.520,-163.086
1688814296.408,-115.234,-57.129,-36.133,98.633,-49.316
1688814296.410,-20.508,-63.477,-37.109,60.059,-96.191
1688814296.414,32.715,-64.941,-41.992,32.715,-154.297
1688814296.418,5.371,-59.082,-41.992,39.062,-177.734
1688814296.422,-66.895,-58.105,-33.691,75.684,-32.715
1688814296.426,-123.047,-53.223,-32.715,103.516,97.656
1688814296.430,-38.574,-49.316,-35.156,64.453,-78.125
1688814296.434,40.039,-47.852,-32.227,41.992,-117.188
1688814296.437,20.996,-48.828,-32.227,60.059,92.773
1688814296.441,-56.152,-48.340,-37.109,83.984,125.977
1688814296.445,-120.117,-49.805,-39.062,90.332,-42.969
1688814296.449,-52.734,-50.293,-39.062,58.105,-91.797
1688814296.453,33.203,-45.898,-42.480,37.598,-43.457
1688814296.455,23.926,-47.363,-45.410,39.551,-77.637
1688814296.459,-51.758,-48.340,-49.805,62.988,-124.023
1688814296.463,-127.930,-46.387,-53.223,89.355,-12.695
1688814296.467,-62.988,-47.363,-53.711,54.688,-37.109
1688814296.471,29.297,-45.898,-52.734,20.508,-88.867
1688814296.475,18.555,-47.852,-57.617,22.949,-48.340
1688814296.479,-41.992,-49.805,-57.617,60.059,21.484
1688814296.482,-122.559,-48.828,-51.758,98.145,314.453
1688814296.486,-84.961,-50.293,-49.805,61.035,86.426
1688814296.490,14.160,-50.293,-46.875,13.184,-226.074
1688814296.494,25.391,-47.852,-41.504,22.461,-140.625
1688814296.498,-37.109,-47.852,-38.574,44.922,-43.457
1688814296.502,-125.488,-54.199,-41.504,71.289,47.363
1688814296.506,-93.262,-51.270,-42.969,57.129,52.734
1688814296.510,6.836,-50.781,-43.945,10.254,68.359
1688814296.514,20.508,-47.363,-40.527,12.207,166.504
1688814296.518,-28.320,-44.434,-41.016,28.809,3.906
1688814296.522,-121.582,-51.758,-41.992,49.316,-35.645
1688814296.526,-118.164,-56.641,-41.504,42.480,205.078
1688814296.529,-2.930,-51.270,-38.086,2.441,215.820
1688814296.533,35.645,-47.852,-37.109,-15.625,-103.516
1688814296.537,-16.113,-53.711,-39.062,1.953,-87.891
1688814296.541,-106.445,-58.105,-38.086,37.598,19.531
1688814296.545,-114.746,-57.129,-39.062,22.949,-86.914
1688814296.560,-10.742,-54.199,-39.062,-34.668,-188.965
1688814296.564,35.156,-50.781,-35.645,-44.434,-213.867
1688814296.568,-0.977,-49.316,-37.598,-18.066,-110.352
1688814296.572,-93.262,-51.758,-38.574,10.742,9.277
1688814296.576,-122.070,-50.781,-40.527,9.766,-29.785
1688814296.580,-22.949,-48.828,-39.551,-29.297,20.020
1688814296.584,32.715,-48.828,-38.086,-33.203,324.219
1688814296.587,1.953,-42.480,-38.086,-22.461,150.879
1688814296.591,-81.055,-44.922,-37.598,5.371,-156.250
1688814296.595,-127.441,-47.363,-44.922,20.508,-66.895
1688814296.599,-40.527,-41.992,-43.945,-23.438,-132.324
1688814296.603,30.273,-41.016,-36.133,-45.898,-203.613
1688814296.605,9.277,-45.410,-34.668,-35.156,-177.246
1688814296.609,-77.148,-47.852,-38.086,-11.719,1.465
1688814296.613,-137.695,-44.434,-35.645,8.789,120.605
1688814296.617,-59.570,-42.969,-38.574,-20.508,-68.359
1688814296.621,21.484,-40.039,-46.875,-51.758,-211.914
1688814296.625,12.695,-42.480,-48.828,-39.062,-78.613
1688814296.629,-62.988,-45.898,-52.734,-0.977,-26.855
1688814296.632,-140.625,-41.504,-50.781,31.250,-34.180
1688814296.636,-69.336,-35.156,-43.945,13.672,-88.379
1688814296.640,26.855,-40.039,-41.504,-16.602,-12.207
1688814296.644,25.391,-45.898,-39.551,-17.090,71.289
1688814296.648,-34.180,-38.574,-36.133,1.953,-64.453
1688814296.651,-111.328,-33.203,-32.715,32.715,-79.590
1688814296.655,-64.941,-33.691,-35.156,8.789,-58.105
1688814296.659,30.273,-36.133,-40.039,-32.227,-182.617
1688814296.663,31.738,-39.551,-40.039,-28.809,-214.355
1688814296.667,-35.645,-45.898,-41.016,-2.930,-87.891
1688814296.671,-123.047,-45.898,-39.062,33.203,27.344
1688814296.675,-89.355,-40.039,-38.574,8.789,27.344
1688814296.678,12.207,-39.062,-39.551,-55.176,-91.309
1688814296.682,27.832,-40.039,-40.039,-54.688,-43.457
1688814296.686,-27.832,-42.480,-37.109,-9.277,267.578
1688814296.690,-112.305,-36.621,-32.227,28.320,220.703
1688814296.694,-87.402,-34.180,-27.832,10.742,-100.586
1688814296.695,19.531,-38.086,-29.297,-20.508,-145.020
1688814296.699,30.273,-39.551,-37.598,-18.555,-57.617
1688814296.703,-17.090,-37.598,-40.527,-10.742,-103.516
1688814296.707,-95.703,-35.645,-38.086,18.555,-147.461
1688814296.711,-104.492,-37.109,-38.574,20.996,43.457
1688814296.715,-3.418,-40.039,-44.922,-11.230,140.625
1688814296.719,35.645,-37.109,-45.410,-14.648,-91.309
1688814296.722,7.324,-34.668,-41.016,11.230,-217.285
1688814296.726,-74.707,-37.598,-32.715,64.453,42.480
1688814296.730,-103.516,-34.180,-33.203,79.102,196.777
1688814296.734,-5.371,-29.297,-37.109,30.273,-105.469
1688814296.738,45.410,-30.273,-37.598,12.207,-161.621
1688814296.742,6.836,-28.320,-37.598,28.809,7.324
1688814296.746,-84.473,-26.855,-38.086,60.547,-52.734
1688814296.750,-116.699,-26.367,-34.668,76.172,-131.836
1688814296.754,-21.973,-24.414,-31.738,39.062,-174.805
1688814296.758,33.691,-24.414,-38.574,15.625,-191.895
1688814296.762,0.000,-25.391,-45.410,24.902,-86.426
1688814296.766,-85.938,-24.902,-42.969,54.199,-14.648
1688814296.769,-135.742,-25.879,-39.062,75.195,64.941
1688814296.773,-47.363,-26.367,-40.039,44.922,271.484
1688814296.777,24.414,-25.879,-47.363,9.277,123.535
1688814296.781,7.324,-28.320,-46.875,6.348,-125.488
1688814296.785,-73.730,-33.203,-47.852,35.156,-81.055
1688814296.785,-142.090,-40.527,-43.945,63.965,27.344
1688814296.789,-69.336,-42.969,-38.574,35.645,16.602
1688814296.793,14.160,-39.551,-44.434,2.930,-162.598
1688814296.797,4.395,-34.668,-39.551,19.531,-81.055
1688814296.801,-69.336,-35.156,-36.621,48.340,120.605
1688814296.805,-148.438,-38.574,-44.922,68.359,75.195
1688814296.809,-90.332,-37.109,-45.898,41.992,-16.602
1688814296.812,5.859,-37.598,-45.898,12.207,50.293
1688814296.816,6.836,-41.992,-48.828,31.250,291.016
1688814296.820,-52.734,-35.156,-45.410,55.176,37.109
1688814296.824,-137.207,-32.715,-45.410,79.102,-134.277
1688814296.828,-96.191,-38.574,-48.340,56.641,-94.727
1688814296.831,9.277,-34.668,-49.316,11.230,-193.359
1688814296.835,17.578,-29.297,-51.758,9.277,-232.910
1688814296.839,-43.945,-37.598,-52.246,38.574,-56.641
1688814296.843,-130.859,-41.992,-49.316,81.055,129.883
1688814296.847,-106.934,-38.574,-45.410,63.477,-21.973
1688814296.851,-2.930,-38.574,-40.527,18.555,-76.172
1688814296.855,18.066,-39.062,-40.527,21.973,44.922
1688814296.858,-37.598,-39.062,-39.551,50.293,192.871
1688814296.862,-125.977,-34.180,-36.133,83.008,126.953
1688814296.866,-110.352,-32.227,-35.156,69.336,-70.312
1688814296.870,-5.859,-36.133,-38.086,18.066,-147.949
1688814296.874,23.926,-37.598,-39.551,6.836,-139.648
1688814296.876,-18.555,-36.621,-42.480,21.484,-100.586
1688814296.880,-110.352,-40.527,-49.805,49.316,51.758
1688814296.884,-118.164,-42.969,-55.664,45.410,128.906
1688814296.888,-9.766,-37.598,-51.758,5.859,36.133
1688814296.892,28.809,-39.062,-48.340,-5.859,-103.027
1688814296.896,-12.695,-44.434,-50.781,6.836,-46.387
1688814296.900,-96.191,-41.504,-48.828,46.387,321.289
1688814296.903,-130.859,-37.109,-41.504,58.594,427.734
1688814296.907,-30.762,-36.621,-40.527,10.254,3.418
1688814296.911,28.320,-40.039,-38.086,-3.418,-153.809
1688814296.915,-5.859,-38.086,-33.691,14.648,-124.023
1688814296.919,-85.449,-40.527,-29.785,45.410,-124.023
1688814296.920,-125.000,-40.527,-25.391,54.199,-78.125
1688814296.924,-33.691,-40.039,-28.320,13.672,-65.430
1688814296.928,30.273,-45.410,-29.297,-4.395,-58.105
1688814296.932,6.348,-44.922,-29.297,0.488,-106.934
1688814296.936,-71.289,-43.457,-30.273,22.461,-115.234
1688814296.940,-129.395,-47.852,-29.785,42.480,122.559
1688814296.944,-46.387,-53.223,-32.715,13.672,315.430
1688814296.947,32.715,-49.316,-32.715,-27.832,48.340
1688814296.951,11.719,-45.410,-33.691,-24.902,-143.066
1688814296.955,-60.547,-45.410,-32.715,15.625,-40.039
1688814296.959,-126.465,-47.363,-33.691,37.598,152.832
1688814296.963,-58.105,-44.434,-40.527,-4.883,-52.734
1688814296.980,27.832,-44.922,-41.992,-48.340,-242.188
1688814296.984,21.484,-45.410,-37.109,-37.109,-32.227
1688814296.988,-44.922,-41.016,-32.715,3.906,26.367
1688814296.992,-125.000,-44.434,-31.738,38.086,-78.613
1688814296.996,-75.684,-49.316,-36.133,6.836,-101.562
1688814297.000,17.578,-49.316,-39.551,-34.668,-55.664
1688814297.004,16.113,-48.828,-36.133,-34.180,64.453
1688814297.007,-43.945,-42.969,-33.691,-17.578,-61.035
1688814297.011,-122.070,-36.621,-26.367,22.949,-144.043
1688814297.015,-90.332,-42.480,-30.273,13.184,179.199
1688814297.019,6.836,-41.504,-42.480,-32.715,188.965
1688814297.023,19.043,-39.062,-43.457,-35.156,-187.500
1688814297.025,-35.156,-43.945,-42.969,-5.371,-186.523
1688814297.029,-124.512,-48.828,-43.945,27.832,-50.781
1688814297.033,-108.398,-46.387,-45.410,12.207,-124.023
1688814297.037,-3.906,-39.062,-42.969,-30.762,-236.816
1688814297.041,20.996,-41.504,-35.156,-34.668,-184.082
1688814297.045,-31.250,-45.898,-39.062,-15.137,-45.410
1688814297.049,-130.859,-44.434,-41.504,20.020,14.160
1688814297.052,-135.742,-46.875,-38.086,14.160,-71.289
1688814297.056,-20.020,-45.898,-39.062,-22.461,-130.859
1688814297.060,16.602,-40.039,-42.480,-20.996,72.266
1688814297.064,-38.574,-38.574,-50.293,-11.230,17.090
1688814297.068,-122.070,-40.527,-54.688,17.090,-18.066
1688814297.070,-140.625,-48.828,-53.223,24.902,73.242
1688814297.074,-42.969,-47.852,-55.664,-14.160,75.684
1688814297.078,13.672,-41.016,-56.152,-32.227,-140.625
1688814297.082,-10.742,-37.109,-49.316,-8.789,-229.492
1688814297.086,-98.145,-29.785,-41.992,34.668,-5.859
1688814297.090,-129.883,-28.320,-39.062,46.387,100.098
1688814297.094,-28.320,-28.320,-41.992,-2.441,-20.996
1688814297.097,22.949,-32.715,-41.992,-31.738,-145.508
1688814297.101,-16.113,-39.551,-37.109,-17.090,29.785
1688814297.105,-98.145,-30.762,-28.320,13.672,128.418
1688814297.109,-156.250,-23.438,-32.715,8.301,-105.469
1688814297.113,-87.891,-20.020,-28.320,-38.086,-82.031
1688814297.117,-29.297,-16.602,-21.484,-78.613,-61.523
1688814297.121,-65.430,-11.230,-17.090,-90.820,-116.211
1688814297.125,-169.434,-11.719,-17.578,-75.684,-72.266
1688814297.129,-253.418,-17.090,-20.020,-71.777,-4.395
1688814297.133,-194.336,-19.531,-10.254,-129.883,46.387
1688814297.137,-137.207,-15.625,-3.418,-192.871,-77.148
1688814297.141,-168.457,-6.836,6.836,-189.453,-148.926
1688814297.144,-250.488,-6.836,3.906,-167.480,-14.648
1688814297.148,-333.984,-11.230,-3.906,-152.832,265.137
1688814297.152,-275.879,-7.324,-3.906,-191.406,78.125
1688814297.156,-181.641,-6.836,-8.301,-235.840,-199.219
1688814297.160,-182.129,-7.812,-15.137,-224.609,-158.691
1688814297.160,-241.699,-10.742,-14.160,-189.941,-42.969
1688814297.164,-317.871,-18.066,-18.555,-155.273,85.938
1688814297.168,-265.625,-16.602,-24.414,-165.039,0.977
1688814297.172,-151.855,-24.902,-31.738,-187.012,-10.254
1688814297.176,-130.371,-34.180,-35.156,-170.898,104.492
1688814297.180,-181.152,-32.227,-32.715,-139.648,83.984
1688814297.184,-254.883,-30.762,-34.180,-98.633,97.656
1688814297.187,-211.914,-37.598,-39.551,-96.191,229.004
1688814297.191,-97.656,-44.922,-43.457,-122.070,292.969
1688814297.195,-64.941,-46.875,-42.969,-124.023,-92.285
1688814297.199,-100.586,-50.781,-48.828,-89.355,-201.172
1688814297.203,-183.105,-54.199,-54.688,-41.016,-55.176
1688814297.205,-171.875,-50.293,-54.688,-38.086,-92.773
1688814297.209,-52.734,-48.340,-57.129,-71.289,-201.660
1688814297.213,-13.184,-52.734,-61.523,-75.195,-227.539
1688814297.217,-57.617,-55.664,-61.523,-43.945,-124.512
1688814297.221,-134.766,-56.641,-62.500,6.836,-6.348
1688814297.225,-118.164,-59.082,-60.059,8.789,-44.922
1688814297.229,-10.254,-58.105,-55.664,-21.484,5.859
1688814297.232,22.949,-59.570,-54.688,-17.090,403.809
1688814297.236,-3.906,-54.688,-48.828,0.488,253.906
1688814297.240,-86.914,-54.199,-48.828,34.180,-87.891
1688814297.244,-110.840,-56.152,-49.316,47.363,-33.203
1688814297.248,6.348,-52.734,-45.410,6.836,-85.938
1688814297.251,75.195,-52.246,-40.039,-10.742,-126.465
1688814297.255,48.340,-53.223,-42.480,6.348,-112.305
1688814297.259,-37.598,-52.734,-49.805,48.340,18.066
1688814297.263,-78.613,-52.246,-48.340,63.965,151.855
1688814297.267,20.508,-50.293,-43.457,21.484,-30.762
1688814297.271,84.961,-53.223,-48.828,4.395,-85.938
1688814297.275,55.176,-56.152,-57.617,23.926,101.562
1688814297.278,-24.414,-52.246,-58.105,58.594,190.918
1688814297.282,-82.031,-55.176,-54.199,67.871,-52.246
1688814297.286,0.488,-56.152,-56.152,26.367,-115.723
1688814297.290,78.125,-53.711,-57.617,-3.906,-62.012
1688814297.294,57.129,-55.664,-57.129,0.488,-153.320
1688814297.295,-17.578,-55.176,-61.035,26.855,-179.688
1688814297.299,-85.449,-56.641,-60.059,51.758,-100.098
1688814297.303,-23.438,-56.152,-60.059,20.996,-99.121
1688814297.307,64.453,-54.199,-65.430,-13.184,-214.844
1688814297.311,63.477,-55.176,-69.336,-8.301,-221.191
1688814297.315,-12.207,-55.664,-73.730,21.484,38.086
1688814297.319,-94.238,-56.641,-74.707,54.199,354.980
1688814297.322,-29.785,-52.734,-70.312,33.203,143.066
1688814297.326,76.172,-45.898,-64.453,5.371,-168.457
1688814297.330,83.008,-38.574,-56.641,15.137,-129.395
1688814297.334,22.949,-33.203,-55.176,44.922,-12.207
1688814297.338,-60.059,-35.156,-55.664,82.031,59.082
1688814297.341,-21.973,-42.480,-53.711,64.453,-68.359
1688814297.345,80.078,-45.898,-52.246,21.484,-2.441
1688814297.349,86.426,-45.410,-49.805,25.391,170.898
1688814297.353,22.461,-41.992,-52.246,44.434,-40.527
1688814297.357,-71.777,-41.992,-54.688,71.289,-92.285
1688814297.361,-50.293,-48.828,-49.805,71.777,-13.672
1688814297.365,55.176,-54.199,-45.410,24.902,-72.266
1688814297.368,71.777,-52.734,-49.316,5.371,-174.805
1688814297.372,22.949,-50.781,-49.316,22.461,-238.770
1688814297.376,-66.406,-51.758,-49.805,52.734,39.062
1688814297.380,-63.477,-46.875,-53.223,47.852,135.742
1688814297.384,40.527,-45.410,-49.316,-4.395,-157.227
1688814297.388,71.777,-45.898,-49.805,-16.602,-209.961
1688814297.392,22.461,-46.875,-53.223,-2.930,-30.762
1688814297.396,-72.754,-47.363,-51.270,23.438,15.625
1688814297.400,-88.867,-46.387,-55.176,25.879,-52.734
1688814297.404,16.113,-43.945,-57.617,-16.113,-19.043
1688814297.408,56.152,-44.434,-55.176,-33.203,154.785
1688814297.412,20.020,-47.363,-52.246,-22.949,53.223
1688814297.415,-59.082,-48.340,-49.805,14.160,-202.637
1688814297.419,-94.238,-47.852,-51.270,24.902,-113.281
1688814297.423,0.977,-42.969,-43.945,-9.277,70.312
1688814297.427,62.500,-39.062,-38.086,-22.949,-87.402
1688814297.431,36.621,-41.992,-39.062,-7.812,-184.082
1688814297.445,-38.574,-42.480,-38.086,28.809,-106.445
1688814297.449,-90.332,-43.457,-39.551,36.621,-18.555
1688814297.453,-3.906,-41.016,-41.504,0.000,-134.766
1688814297.457,72.266,-38.574,-42.969,-25.391,-224.121
1688814297.461,45.898,-45.410,-42.969,-12.695,14.160
1688814297.465,-37.598,-45.898,-40.039,34.180,328.125
1688814297.469,-100.098,-38.086,-42.969,46.387,172.852
1688814297.472,-27.832,-40.527,-42.969,-1.465,-89.844
1688814297.476,40.039,-50.781,-45.410,-31.738,-29.297
1688814297.480,25.391,-50.293,-47.363,-19.531,-69.336
1688814297.484,-37.598,-45.898,-39.551,20.508,-162.109
1688814297.488,-114.258,-54.199,-37.109,43.945,-51.758
1688814297.490,-50.293,-55.664,-33.203,9.277,-18.066
1688814297.494,42.480,-50.293,-33.203,-30.273,-93.262
1688814297.498,33.203,-47.852,-35.156,-30.762,-144.531
1688814297.502,-37.109,-42.969,-32.715,-3.418,-25.879
1688814297.506,-120.605,-40.527,-37.598,29.785,125.000
1688814297.510,-55.664,-41.992,-41.504,2.441,28.809
1688814297.514,36.133,-44.922,-39.062,-35.645,-138.672
1688814297.517,31.738,-44.922,-42.969,-34.180,-65.918
1688814297.521,-19.531,-43.945,-45.898,2.441,297.852
1688814297.525,-108.887,-45.410,-41.016,39.551,258.301
1688814297.529,-82.031,-45.410,-39.062,22.461,-98.633
1688814297.533,16.113,-45.410,-44.922,-20.020,-201.172
1688814297.536,37.109,-45.898,-47.852,-27.832,-167.969
1688814297.540,-9.766,-41.992,-51.270,-9.766,-120.605
1688814297.544,-107.910,-40.527,-57.129,24.902,-134.766
1688814297.548,-101.562,-40.039,-52.246,18.066,-2.441
1688814297.552,3.906,-42.969,-51.758,-24.902,4.395
1688814297.556,36.133,-42.480,-51.758,-39.062,-73.730
1688814297.560,0.977,-35.156,-46.875,-18.066,-85.449
1688814297.563,-87.891,-38.574,-44.922,27.832,81.055
1688814297.567,-102.539,-43.457,-48.828,28.809,271.973
1688814297.571,0.488,-42.969,-48.828,-21.484,-75.195
1688814297.575,38.086,-41.016,-47.852,-31.250,-218.750
1688814297.579,-11.719,-41.992,-44.922,-6.348,108.398
1688814297.580,-98.633,-38.086,-40.039,38.086,176.758
1688814297.584,-120.117,-36.133,-36.133,42.480,-100.586
1688814297.588,-16.113,-39.062,-35.156,-0.977,-210.449
1688814297.592,43.457,-34.180,-36.133,-12.695,-161.621
1688814297.596,11.719,-33.691,-34.668,2.441,-105.469
1688814297.600,-75.684,-37.598,-34.180,37.109,-69.824
1688814297.604,-112.793,-37.598,-36.621,58.105,-16.602
1688814297.607,-19.043,-34.668,-37.598,15.137,227.539
1688814297.611,36.621,-31.250,-36.133,-21.973,-1.465
1688814297.615,6.348,-29.297,-39.062,-10.742,-195.801
1688814297.619,-70.801,-27.344,-37.109,24.414,-44.922
1688814297.623,-124.512,-33.203,-33.203,39.551,44.922
1688814297.625,-38.086,-35.645,-38.574,0.488,-33.203
1688814297.629,33.691,-36.621,-43.945,-36.133,-131.348
1688814297.633,12.207,-37.109,-43.457,-25.391,-37.109
1688814297.637,-59.082,-38.086,-44.434,13.184,117.676
1688814297.641,-125.488,-40.039,-42.480,33.691,50.781
1688814297.645,-55.176,-38.086,-42.969,0.977,-26.855
1688814297.649,28.809,-38.086,-45.410,-20.508,102.051
1688814297.652,18.555,-37.109,-43.457,-10.254,179.199
1688814297.656,-52.246,-35.645,-42.480,4.395,-112.305
1688814297.660,-130.371,-39.551,-40.527,19.043,-160.156
1688814297.664,-76.660,-44.434,-42.969,-9.277,-15.137
1688814297.668,19.043,-42.480,-44.922,-45.410,-77.637
1688814297.673,18.555,-40.527,-42.480,-41.016,-197.266
1688814297.677,-43.457,-40.039,-45.410,-17.578,-78.125
1688814297.681,-131.348,-43.457,-48.340,12.207,117.676
1688814297.685,-102.051,-45.410,-45.898,-2.930,18.555
1688814297.689,5.371,-40.039,-45.410,-38.086,-140.625
1688814297.693,16.602,-41.992,-48.340,-39.551,-22.461
1688814297.697,-45.410,-46.875,-45.410,-14.648,240.234
1688814297.700,-126.465,-41.504,-41.504,21.973,118.652
1688814297.704,-109.863,-39.062,-37.598,3.906,-79.102
1688814297.708,-8.789,-44.922,-37.598,-27.344,-99.121
1688814297.712,16.602,-45.898,-44.434,-18.555,-100.098
1688814297.716,-34.180,-42.969,-47.852,-19.531,-187.988
1688814297.731,-119.629,-42.480,-46.387,-2.930,-70.801
1688814297.735,-113.281,-42.480,-45.898,-10.254,63.965
1688814297.739,-6.836,-41.504,-45.410,-43.945,-15.137
1688814297.743,26.367,-40.039,-49.316,-49.805,-68.359
1688814297.747,-21.484,-41.016,-50.781,-28.809,-83.984
1688814297.751,-112.793,-41.992,-47.852,20.996,63.965
1688814297.755,-126.953,-35.645,-43.457,32.227,378.906
1688814297.758,-22.949,-32.715,-43.457,-20.996,151.367
1688814297.762,21.973,-33.691,-44.434,-34.668,-213.379
1688814297.766,-9.766,-34.668,-43.457,-0.488,-156.250
1688814297.770,-89.355,-38.086,-40.527,20.996,-133.301
1688814297.774,-118.164,-34.180,-37.598,25.879,-163.574
1688814297.775,-22.949,-30.273,-33.203,2.441,-143.555
1688814297.779,35.645,-31.250,-30.762,-11.230,-109.375
1688814297.783,7.324,-37.109,-34.180,1.953,-124.023
1688814297.787,-80.566,-38.574,-34.668,30.273,-143.555
1688814297.791,-129.883,-41.992,-34.668,32.227,-24.902
1688814297.795,-45.898,-44.434,-39.551,-16.602,14.160
1688814297.799,23.926,-44.434,-40.039,-43.945,-83.984
1688814297.802,3.418,-48.340,-40.527,-42.480,-58.594
1688814297.806,-75.195,-45.410,-44.434,-11.719,16.113
1688814297.810,-129.883,-40.527,-41.016,30.273,269.043
1688814297.814,-50.781,-39.551,-41.992,-2.930,158.203
1688814297.818,35.156,-40.039,-43.945,-41.504,-170.898
1688814297.821,20.996,-45.410,-41.992,-28.320,-97.656
1688814297.825,-56.152,-45.898,-42.969,-2.441,1.953
1688814297.829,-128.906,-44.434,-47.852,20.996,-80.078
1688814297.833,-58.594,-44.922,-48.340,-4.883,-157.227
1688814297.837,39.062,-40.527,-42.480,-36.621,-52.246
1688814297.841,24.902,-41.504,-43.945,-32.227,101.074
1688814297.845,-50.293,-41.992,-44.922,-6.836,13.672
1688814297.848,-131.348,-37.598,-43.945,14.648,-46.875
1688814297.852,-84.473,-34.180,-45.898,-7.812,211.426
1688814297.856,9.766,-33.691,-48.828,-42.969,283.691
1688814297.860,15.625,-35.645,-54.688,-49.805,-103.516
