timestamps,TP9,AF7,AF8,TP10,Right AUX
1688816001.338,114.258,-25.879,-12.695,-127.441,-151.367
1688816001.342,61.523,-26.367,-16.113,-101.562,-106.934
1688816001.346,-113.281,-23.438,-19.531,11.719,-115.723
1688816001.350,-202.148,-23.438,-23.926,66.406,-102.051
1688816001.354,-10.254,-24.902,-19.043,-60.059,-146.484
1688816001.358,121.094,-28.320,-15.625,-132.812,-129.883
1688816001.362,84.961,-24.902,-17.578,-101.074,-184.570
1688816001.365,-77.148,-18.555,-20.020,0.000,-80.566
1688816001.369,-199.707,-21.484,-20.508,76.660,329.590
1688816001.373,-37.109,-20.508,-15.137,-26.855,38.574
1688816001.377,121.094,-21.973,-15.137,-119.629,-278.809
1688816001.381,99.609,-29.785,-19.043,-108.398,-94.727
1688816001.397,-55.176,-28.809,-25.391,-17.090,5.371
1688816001.401,-200.195,-25.879,-27.344,79.102,2.441
1688816001.405,-63.965,-27.832,-22.949,-15.625,-125.977
1688816001.409,102.539,-29.785,-24.414,-129.395,-282.227
1688816001.413,93.262,-28.809,-27.832,-118.164,-285.645
1688816001.417,-42.969,-26.367,-32.715,-23.438,-66.406
1688816001.421,-194.336,-31.250,-36.621,83.008,151.855
1688816001.424,-94.238,-36.133,-32.715,11.719,146.484
1688816001.428,85.938,-35.156,-31.250,-114.746,-62.988
1688816001.432,105.469,-32.715,-34.180,-124.023,-218.262
1688816001.436,-16.602,-31.250,-38.086,-50.293,-193.359
1688816001.440,-202.637,-32.227,-40.527,74.219,224.121
1688816001.429,-135.254,-27.344,-32.227,29.297,302.246
1688816001.433,66.895,-25.391,-28.809,-100.098,-135.254
1688816001.437,100.586,-31.738,-34.668,-117.188,-242.188
1688816001.441,-10.742,-36.621,-36.621,-51.270,-90.820
1688816001.445,-200.684,-35.156,-36.621,69.336,-51.270
1688816001.449,-154.297,-32.227,-26.855,42.969,-76.660
1688816001.453,61.035,-32.715,-16.113,-79.590,-8.789
1688816001.456,104.980,-29.297,-17.090,-102.539,44.922
1688816001.460,12.695,-25.879,-23.926,-57.129,-125.977
1688816001.464,-171.387,-30.273,-33.203,61.523,-92.773
1688816001.468,-167.480,-33.203,-26.855,65.430,33.203
1688816001.472,48.340,-29.297,-11.719,-59.570,103.027
1688816001.488,125.000,-24.414,-13.184,-109.375,-140.137
1688816001.492,51.270,-24.902,-18.066,-65.918,-252.441
1688816001.496,-137.207,-27.344,-21.973,57.129,43.945
1688816001.500,-162.109,-20.996,-18.066,78.613,103.516
1688816001.504,49.805,-17.578,-9.277,-43.457,-181.152
1688816001.508,138.184,-22.949,-2.930,-97.168,-249.512
1688816001.512,74.707,-23.926,-1.465,-61.523,71.289
1688816001.515,-106.445,-25.879,-11.230,57.617,312.012
1688816001.519,-162.109,-23.926,-12.695,96.191,56.152
1688816001.523,22.461,-19.043,-0.488,-24.902,-147.461
1688816001.527,128.418,-23.926,0.000,-95.215,-85.938
1688816001.531,94.727,-26.855,-0.977,-65.918,-158.691
1688816001.535,-77.637,-25.879,-6.348,40.527,-150.391
1688816001.539,-181.641,-27.832,-13.672,101.562,30.762
1688816001.543,-14.160,-23.438,-7.812,-24.902,-65.430
1688816001.547,102.051,-17.578,-14.160,-134.766,-261.719
1688816001.551,75.684,-11.230,-22.949,-115.723,-227.051
1688816001.555,-69.336,-9.277,-27.344,-7.324,-20.020
1688816001.559,-194.824,-2.441,-34.668,80.566,112.793
1688816001.562,-47.852,6.836,-35.645,-26.367,-20.020
1688816001.566,111.816,12.207,-36.133,-126.465,-249.023
1688816001.570,93.262,13.672,-43.457,-113.770,-231.934
1688816001.574,-52.246,12.207,-56.641,-31.250,-22.461
1688816001.578,-191.895,17.090,-62.988,62.500,73.242
1688816001.578,-54.688,20.996,-55.664,-24.414,-45.898
1688816001.582,122.559,17.578,-51.758,-134.277,-93.262
1688816001.586,117.676,18.555,-61.035,-112.305,-95.703
1688816001.590,-5.859,26.855,-68.359,-26.855,-175.293
1688816001.594,-187.500,20.996,-74.707,62.012,22.461
1688816001.598,-83.984,17.090,-74.707,-4.395,227.051
1688816001.602,117.188,30.762,-67.383,-126.953,92.285
1688816001.605,127.930,30.273,-65.918,-136.719,-132.324
1688816001.609,22.949,26.855,-73.242,-63.477,-103.516
1688816001.613,-159.180,20.996,-83.008,56.641,345.215
1688816001.617,-88.379,16.602,-79.590,22.949,591.797
1688816001.621,109.863,22.461,-75.684,-122.070,97.168
1688816001.637,139.160,22.461,-72.754,-136.719,-248.535
1688816001.641,54.688,18.555,-66.895,-59.082,12.207
1688816001.645,-132.324,20.020,-65.430,61.523,98.145
1688816001.649,-105.469,22.949,-57.129,40.527,-62.500
1688816001.653,110.352,16.113,-46.387,-97.168,-165.527
1688816001.657,142.090,7.324,-46.387,-123.535,-153.809
1688816001.661,58.594,2.930,-49.316,-68.848,-103.516
1688816001.664,-120.605,-0.488,-53.711,47.363,-103.027
1688816001.668,-135.742,-0.977,-47.363,66.406,-27.832
1688816001.672,64.941,-6.348,-39.062,-63.965,92.285
1688816001.676,141.113,-8.789,-44.434,-125.488,-137.207
1688816001.680,76.172,-8.301,-45.898,-85.449,-233.398
1688816001.714,-117.676,-16.113,-44.434,29.785,7.812
1688816001.718,-177.734,-17.090,-45.410,52.246,122.070
1688816001.722,36.133,-8.301,-37.109,-65.430,-150.391
1688816001.726,142.578,-2.930,-30.273,-109.375,-215.820
1688816001.730,81.543,-3.906,-33.203,-69.336,-78.125
1688816001.734,-95.703,-10.742,-45.898,27.832,65.430
1688816001.738,-170.410,-8.789,-48.340,67.383,59.570
1688816001.741,24.902,-2.441,-36.621,-47.363,-138.184
1688816001.745,145.508,-8.789,-32.227,-113.770,-91.797
1688816001.749,103.516,-12.695,-38.574,-82.520,-113.281
1688816001.753,-60.547,-8.301,-45.410,25.879,-169.922
1688816001.757,-179.688,-11.719,-46.387,104.004,-46.387
1688816001.728,-18.066,-17.578,-35.156,-0.977,148.438
1688816001.732,122.070,-17.578,-32.227,-99.121,-33.691
1688816001.736,96.680,-20.996,-37.598,-87.891,-314.453
1688816001.740,-55.176,-26.367,-42.969,7.812,-133.789
1688816001.744,-204.590,-25.879,-44.434,98.633,128.906
1688816001.748,-59.082,-22.461,-39.062,12.207,30.273
1688816001.752,105.469,-20.996,-37.109,-101.074,-192.871
1688816001.755,86.426,-23.438,-43.457,-90.820,-118.652
1688816001.759,-54.199,-29.785,-50.293,-1.953,79.102
1688816001.763,-206.543,-27.344,-58.105,83.496,70.312
1688816001.767,-83.496,-26.855,-52.734,10.254,-140.625
1688816001.771,93.750,-27.832,-36.621,-97.656,-144.531
1688816001.773,93.262,-24.902,-31.250,-101.562,-5.859
1688816001.777,-22.949,-22.949,-37.598,-21.973,-116.211
1688816001.781,-190.918,-25.879,-47.852,81.543,-78.125
1688816001.785,-111.328,-29.297,-48.340,20.996,107.422
1688816001.789,85.938,-24.902,-37.598,-98.633,-20.020
1688816001.793,113.770,-24.414,-41.016,-120.605,-205.566
1688816001.797,0.488,-24.902,-52.734,-54.199,-84.961
1688816001.800,-185.547,-21.484,-53.711,74.219,147.949
1688816001.804,-129.883,-16.113,-46.387,46.875,389.160
1688816001.808,58.594,-14.160,-42.480,-91.309,120.605
1688816001.812,99.609,-19.043,-43.945,-125.977,-241.699
1688816001.816,9.277,-25.391,-45.410,-54.199,49.805
1688816001.803,-180.176,-25.391,-47.363,79.590,404.785
1688816001.807,-157.715,-23.926,-48.340,63.965,98.145
1688816001.811,50.781,-31.250,-42.480,-76.660,-257.812
1688816001.815,104.980,-40.527,-43.945,-117.188,-284.180
1688816001.819,34.180,-37.109,-47.852,-71.289,-201.660
1688816001.823,-145.996,-34.668,-53.711,44.922,30.273
1688816001.827,-179.199,-33.203,-55.176,61.035,157.715
1688816001.830,28.320,-28.809,-48.340,-76.172,-31.738
1688816001.834,120.117,-26.855,-43.457,-134.766,-245.117
1688816001.838,55.176,-25.879,-46.387,-91.309,-215.332
1688816001.842,-116.211,-28.809,-49.805,25.391,-29.297
1688816001.846,-187.500,-28.809,-48.340,72.266,288.574
1688816001.862,4.883,-22.461,-47.363,-60.059,41.992
1688816001.866,124.023,-22.949,-47.363,-141.602,-279.785
1688816001.870,62.500,-27.344,-55.176,-108.398,-163.574
1688816001.874,-115.234,-35.156,-53.223,11.230,-87.402
1688816001.878,-211.426,-47.363,-46.387,80.566,-78.613
1688816001.882,-44.434,-48.828,-37.109,-51.758,-95.703
1688816001.886,72.754,-52.246,-23.438,-139.160,69.336
1688816001.889,29.297,-55.176,-20.508,-110.840,84.473
1688816001.893,-137.207,-61.523,-22.949,-5.859,-83.008
1688816001.897,-256.348,-68.359,-22.461,68.848,29.297
1688816001.901,-99.121,-68.359,-10.254,-25.879,147.949
1688816001.905,52.246,-71.289,3.906,-118.652,-40.527
1688816001.908,39.551,-76.172,3.906,-104.492,-290.039
1688816001.912,-108.887,-84.473,0.488,-10.742,-146.484
1688816001.916,-259.277,-81.543,4.883,89.355,142.090
1688816001.920,-127.441,-76.660,12.695,0.488,-46.387
1688816001.924,41.016,-80.078,12.207,-119.141,-297.852
1688816001.928,42.969,-80.078,6.836,-113.281,-129.395
1688816001.932,-88.867,-84.473,4.395,-21.484,298.340
1688816001.935,-266.113,-85.449,2.441,87.891,239.746
1688816001.939,-168.457,-83.008,5.371,8.789,-96.191
1688816001.943,24.414,-83.984,6.836,-114.746,-81.543
1688816001.947,44.434,-87.402,4.395,-111.816,199.707
1688816001.951,-69.824,-83.008,3.418,-38.086,56.152
1688816001.952,-243.164,-79.102,-0.977,78.613,-99.609
1688816001.956,-173.828,-79.590,-0.488,40.039,-43.945
1688816001.960,18.555,-81.055,-0.488,-90.820,-118.164
1688816001.964,51.270,-80.566,-5.859,-121.094,-237.793
1688816001.968,-39.551,-73.242,-9.766,-60.547,-184.570
1688816001.972,-223.633,-71.777,-16.602,69.824,126.953
1688816001.976,-188.965,-65.918,-14.648,51.758,167.480
1688816001.979,27.344,-55.664,-4.395,-80.078,-95.215
1688816001.983,85.938,-58.105,-3.906,-105.957,-284.180
1688816001.987,2.930,-56.152,-4.395,-48.828,136.230
1688816001.991,-191.895,-55.176,-12.207,72.266,486.328
1688816001.995,-190.918,-52.734,-14.648,79.102,43.457
1688816001.997,31.738,-46.387,-0.488,-51.270,-121.582
1688816002.001,110.352,-45.410,2.930,-103.027,-100.098
1688816002.005,33.203,-44.434,-5.371,-67.383,-238.281
1688816002.009,-144.043,-46.875,-14.160,52.734,-188.965
1688816002.013,-183.105,-50.293,-11.230,92.285,13.672
1688816002.017,15.625,-48.340,-5.371,-23.926,187.012
1688816002.021,111.328,-43.945,-10.254,-92.773,1.953
1688816002.024,56.152,-40.527,-12.695,-54.199,-224.121
1688816002.028,-119.629,-39.062,-14.648,71.777,-24.902
1688816002.032,-197.266,-41.992,-20.020,113.281,273.438
1688816002.036,-4.395,-37.598,-11.719,-15.625,-31.250
1688816002.040,112.793,-31.738,-3.906,-88.379,-278.809
1688816002.044,61.523,-38.086,-13.184,-66.895,-182.617
1688816002.048,-122.070,-47.852,-23.926,41.016,-32.715
1688816002.052,-220.703,-47.363,-26.855,100.586,62.500
1688816002.056,-41.992,-37.598,-17.090,-17.090,-139.648
1688816002.060,87.402,-37.598,-16.602,-107.422,-184.570
1688816002.064,58.594,-42.480,-27.344,-104.492,-79.590
1688816002.068,-97.168,-38.086,-32.715,-8.789,-28.809
1688816002.071,-235.352,-34.180,-35.156,80.078,-28.809
1688816002.075,-84.473,-42.969,-32.227,-19.043,121.094
1688816002.079,81.055,-44.922,-30.273,-119.629,214.844
1688816002.083,66.406,-37.109,-35.645,-117.188,-201.660
1688816002.087,-72.266,-37.598,-40.527,-29.297,-190.430
1688816002.088,-227.051,-44.434,-41.992,79.102,193.848
1688816002.092,-119.629,-41.992,-36.621,-0.977,21.973
1688816002.096,53.223,-41.504,-27.832,-118.164,-196.289
1688816002.100,62.500,-47.363,-33.691,-121.582,-179.199
1688816002.104,-62.012,-48.828,-41.992,-52.246,-76.172
1688816002.108,-237.793,-49.805,-42.969,59.570,134.766
1688816002.112,-150.879,-51.270,-39.551,4.395,73.730
1688816002.115,38.086,-58.594,-32.715,-124.512,-102.539
1688816002.119,55.176,-61.523,-35.156,-127.930,113.770
1688816002.123,-39.551,-48.828,-41.992,-58.594,27.832
1688816002.127,-202.637,-36.133,-41.504,54.688,-82.520
1688816002.131,-145.508,-35.156,-31.738,31.738,-16.602
1688816002.148,53.711,-32.227,-22.461,-94.238,-107.422
1688816002.152,91.797,-25.391,-25.879,-109.375,-144.043
1688816002.156,-4.883,-31.738,-31.738,-41.992,-122.559
1688816002.160,-181.641,-39.062,-36.133,78.125,52.246
1688816002.164,-168.457,-40.039,-33.691,68.359,59.082
1688816002.168,29.297,-43.945,-23.926,-67.383,-114.746
1688816002.172,92.285,-39.062,-22.949,-104.492,-237.305
1688816002.175,14.160,-38.086,-29.785,-49.316,8.301
1688816002.179,-163.086,-39.062,-34.180,63.477,411.621
1688816002.183,-169.434,-32.715,-29.297,70.312,173.828
1688816002.187,37.598,-33.203,-21.973,-52.246,-127.441
1688816002.191,119.141,-29.785,-15.625,-104.004,-156.250
1688816002.196,66.895,-24.414,-15.625,-54.199,-218.262
1688816002.200,-113.281,-25.879,-24.414,67.383,-123.535
1688816002.204,-173.340,-25.879,-24.414,96.680,10.254
1688816002.208,18.066,-25.879,-15.137,-40.039,15.625
1688816002.212,124.512,-24.414,-11.719,-112.305,-161.621
1688816002.216,67.871,-25.391,-13.184,-70.312,-235.840
1688816002.220,-101.562,-30.273,-17.578,41.504,7.812
1688816002.223,-184.082,-28.809,-17.090,98.145,241.211
1688816002.227,-0.488,-23.438,-7.812,-17.090,-4.883
1688816002.231,123.047,-25.391,-4.883,-94.238,-204.590
1688816002.235,83.008,-29.785,-10.742,-78.613,-164.551
1688816002.239,-77.148,-34.668,-20.508,16.113,55.664
1688816002.228,-202.148,-40.039,-24.414,81.543,20.020
1688816002.232,-55.176,-44.922,-19.531,-31.250,-171.387
1688816002.236,81.055,-45.410,-18.555,-124.023,-195.801
1688816002.240,58.594,-42.969,-20.508,-108.887,-227.539
1688816002.244,-82.520,-45.410,-27.344,-9.766,-165.039
1688816002.248,-216.797,-45.898,-30.273,89.844,72.266
1688816002.252,-86.914,-47.852,-23.438,-1.465,132.324
1688816002.255,77.637,-44.434,-18.066,-120.117,-114.258
1688816002.259,73.730,-41.016,-18.555,-108.398,-259.766
1688816002.263,-55.664,-41.992,-23.926,-15.137,-105.469
1688816002.267,-209.473,-40.527,-27.344,88.379,238.770
1688816002.271,-111.328,-41.992,-20.508,13.672,386.230
1688816002.284,65.918,-41.504,-15.137,-113.770,-146.973
1688816002.288,78.125,-40.527,-19.531,-122.559,-368.164
1688816002.292,-38.086,-39.062,-22.461,-38.574,-79.590
1688816002.296,-209.473,-37.109,-29.297,81.055,-16.602
1688816002.300,-129.883,-36.133,-29.785,28.809,-111.816
1688816002.304,71.289,-34.180,-23.438,-99.121,-148.438
1688816002.308,79.590,-35.645,-23.926,-110.352,106.445
1688816002.311,-26.367,-38.574,-30.762,-39.062,392.578
1688816002.315,-199.219,-34.668,-36.133,80.078,304.199
1688816002.319,-157.227,-29.785,-27.832,55.176,8.301
1688816002.323,44.922,-32.227,-20.508,-86.426,-185.059
1688816002.327,90.332,-34.180,-23.926,-125.977,-246.094
1688816002.329,5.859,-27.832,-28.809,-62.500,-237.305
1688816002.333,-181.641,-30.762,-34.668,65.918,-45.898
1688816002.337,-180.664,-36.621,-36.621,69.336,26.855
1688816002.341,31.738,-34.668,-31.250,-67.871,-220.215
1688816002.345,104.980,-35.645,-31.738,-110.840,-279.785
1688816002.349,27.832,-38.574,-35.645,-64.453,14.160
1688816002.353,-155.273,-36.621,-37.109,53.711,151.855
1688816002.356,-191.406,-33.691,-36.133,83.008,-5.371
1688816002.360,16.113,-34.180,-28.809,-48.828,-164.062
1688816002.364,118.652,-36.133,-22.461,-107.910,53.711
1688816002.368,48.340,-36.133,-26.855,-74.707,205.566
1688816002.372,-136.230,-34.668,-33.691,30.762,-20.020
1688816002.372,-198.242,-38.086,-31.738,80.566,8.301
1688816002.376,-18.066,-44.922,-28.320,-37.598,162.109
1688816002.380,98.145,-43.457,-27.344,-117.676,-56.641
1688816002.384,63.477,-38.574,-28.320,-93.262,-282.227
1688816002.388,-105.957,-34.668,-31.738,31.250,32.715
1688816002.392,-194.824,-30.273,-29.297,100.098,256.836
1688816002.396,-7.324,-20.996,-16.602,-18.555,48.828
1688816002.399,131.348,-14.648,-9.766,-102.539,-212.402
1688816002.403,102.539,-13.672,-7.812,-72.266,-193.359
1688816002.407,-49.316,-13.184,-12.695,37.109,152.832
1688816002.411,-182.617,-9.277,-22.461,106.934,115.234
1688816002.415,-41.992,-7.812,-19.043,4.883,-174.805
1688816002.417,114.258,-9.766,-13.672,-97.168,-229.980
1688816002.421,105.469,-11.719,-12.207,-97.168,-225.586
1688816002.425,-38.086,-16.602,-21.973,1.953,-183.105
1688816002.429,-186.035,-20.996,-30.762,99.609,-27.832
1688816002.433,-49.316,-21.484,-23.438,10.742,-60.059
1688816002.437,114.258,-19.043,-24.902,-92.773,-113.281
1688816002.441,104.492,-21.973,-33.203,-90.820,-136.719
1688816002.444,-17.090,-22.461,-31.250,-7.812,-109.863
1688816002.448,-189.453,-28.320,-33.691,100.586,177.734
1688816002.452,-101.562,-34.180,-32.715,36.621,378.906
1688816002.456,92.773,-28.320,-25.879,-83.496,11.719
1688816002.460,114.746,-24.902,-24.902,-102.051,-284.668
1688816002.463,8.789,-27.344,-29.297,-33.691,-182.129
1688816002.467,-169.434,-33.203,-36.133,80.566,-10.254
1688816002.471,-108.887,-30.273,-32.715,47.852,-59.082
1688816002.475,94.727,-26.367,-31.738,-69.824,-180.664
1688816002.479,134.766,-26.855,-33.203,-97.656,-165.527
1688816002.483,29.297,-25.879,-34.180,-39.551,-36.621
1688816002.487,-158.203,-27.344,-41.016,75.195,131.348
1688816002.490,-130.859,-26.367,-36.133,57.617,12.695
1688816002.494,72.754,-20.020,-24.414,-63.965,113.770
1688816002.498,124.023,-17.578,-29.297,-100.098,-11.230
1688816002.502,35.156,-21.484,-36.621,-55.176,-312.012
1688816002.506,-149.902,-19.531,-36.133,70.312,-58.105
1688816002.508,-162.598,-13.184,-37.109,86.914,184.570
1688816002.512,42.969,-8.789,-29.785,-48.828,-106.934
1688816002.516,124.023,-11.719,-27.832,-96.680,-260.254
1688816002.520,55.176,-16.602,-31.250,-43.457,-147.461
1688816002.524,-120.117,-16.602,-33.691,79.102,-8.789
1688816002.528,-150.391,-18.555,-31.738,100.586,15.137
1688816002.532,31.738,-20.508,-28.320,-26.855,-93.750
1688816002.535,125.000,-19.043,-28.809,-92.285,6.836
1688816002.539,69.824,-9.277,-23.926,-51.270,79.102
1688816002.543,-105.469,-8.789,-33.691,56.152,-4.883
1688816002.547,-178.223,-10.742,-40.527,93.750,-9.277
1688816002.551,7.812,-6.836,-25.391,-15.625,161.621
1688816002.552,130.371,-6.348,-26.367,-99.121,133.301
1688816002.556,82.031,-1.465,-32.227,-85.449,-158.203
1688816002.560,-98.145,-14.160,-32.715,19.531,-83.984
1688816002.564,-212.891,-19.043,-31.250,86.426,60.547
1688816002.568,-51.270,-11.230,-15.625,-21.484,-47.852
1688816002.572,83.496,-22.949,-14.160,-114.258,-199.707
1688816002.576,55.176,-22.461,-26.855,-113.281,-129.395
1688816002.579,-106.934,-4.883,-32.227,-39.551,73.242
1688816002.583,-268.066,-0.488,-37.109,16.602,51.270
1688816002.587,-137.207,4.883,-36.621,-85.938,-86.426
1688816002.591,19.531,20.508,-35.156,-197.754,-177.246
1688816002.595,-9.277,24.414,-47.852,-208.008,-75.684
1688816002.599,-160.156,36.621,-65.430,-140.137,-145.508
1688816002.603,-328.613,41.992,-71.289,-50.293,-75.195
1688816002.607,-241.211,41.016,-74.707,-141.602,51.758
1688816002.611,-78.125,44.434,-78.613,-274.414,-125.977
1688816002.615,-75.684,53.223,-73.730,-284.180,-235.352
1688816002.619,-207.031,52.246,-81.543,-197.754,-72.754
1688816002.623,-353.027,49.316,-89.844,-84.961,215.820
1688816002.626,-266.113,51.758,-86.426,-140.137,39.551
1688816002.630,-64.453,51.270,-89.355,-252.930,-283.691
1688816002.634,-21.484,53.711,-88.379,-258.789,-183.105
1688816002.638,-116.699,52.734,-94.727,-178.711,140.137
1688816002.642,-276.855,55.664,-109.375,-41.016,360.352
1688816002.657,-208.984,60.059,-103.516,-58.594,51.758
1688816002.661,-1.953,48.340,-99.121,-188.965,-186.523
1688816002.665,46.387,42.969,-103.516,-207.520,-191.406
1688816002.669,-20.508,45.410,-104.004,-124.512,-119.141
1688816002.673,-195.801,37.109,-106.934,6.836,63.965
1688816002.677,-186.523,30.273,-106.934,1.465,84.473
1688816002.681,30.762,25.391,-99.121,-110.352,173.828
1688816002.684,106.934,20.996,-100.586,-136.719,-13.672
1688816002.688,37.598,13.184,-107.910,-81.543,-259.766
1688816002.692,-133.301,0.977,-109.375,54.199,-118.652
1688816002.696,-154.785,-8.301,-99.609,73.242,57.617
1688816002.700,55.664,-11.230,-85.449,-51.758,-161.621
1688816002.704,154.297,-10.254,-83.496,-96.191,-284.180
1688816002.708,100.586,-20.508,-90.332,-44.922,-155.273
1688816002.712,-76.172,-28.809,-94.238,78.613,-27.344
1688816002.716,-126.465,-26.855,-89.355,131.348,-2.930
1688816002.720,78.613,-26.367,-74.219,28.320,-94.727
1688816002.724,186.523,-32.227,-63.477,-30.273,-128.906
1688816002.728,145.996,-30.273,-64.941,-15.137,-63.965
1688816002.731,-14.160,-33.203,-72.754,84.961,87.402
1688816002.735,-94.727,-32.715,-72.266,157.227,107.910
1688816002.739,79.102,-29.785,-56.152,45.898,179.688
1688816002.743,202.148,-31.250,-53.711,-41.504,9.766
1688816002.747,163.574,-34.180,-60.059,-11.719,-220.215
1688816002.737,-1.465,-39.551,-56.641,98.633,-84.961
1688816002.741,-138.672,-41.992,-50.293,179.688,287.598
1688816002.745,8.301,-45.410,-44.434,67.871,260.254
1688816002.749,168.457,-43.457,-39.551,-41.504,-187.988
1688816002.753,155.762,-39.062,-41.016,-24.902,-231.445
1688816002.757,-0.977,-40.527,-43.945,74.707,24.902
1688816002.761,-147.949,-42.969,-48.828,163.574,127.441
1688816002.764,-11.719,-43.457,-39.551,64.453,-103.027
1688816002.768,152.344,-45.898,-32.715,-40.527,-140.137
1688816002.772,153.320,-45.410,-37.109,-27.832,150.391
1688816002.776,28.320,-45.898,-37.109,49.805,5.859
1688816002.780,-129.883,-43.945,-41.504,147.461,-98.633
1688816002.793,-26.367,-40.039,-33.203,88.867,-0.488
1688816002.797,155.762,-36.133,-24.414,-26.367,-80.078
1688816002.801,166.016,-33.203,-25.391,-31.738,-138.672
1688816002.805,50.781,-35.645,-31.250,40.039,-148.926
1688816002.809,-134.766,-41.504,-39.062,139.648,66.895
1688816002.813,-78.613,-45.898,-38.086,88.867,449.219
1688816002.817,122.070,-44.922,-36.133,-43.945,7.324
1688816002.820,158.203,-39.551,-33.691,-66.406,-362.793
1688816002.824,58.105,-40.527,-33.691,-3.418,-30.273
1688816002.828,-129.395,-44.434,-38.574,120.117,222.656
1688816002.832,-96.680,-44.922,-35.156,95.215,23.438
1688816002.836,103.027,-46.387,-30.762,-49.316,-101.074
1688816002.837,148.926,-47.363,-36.133,-76.660,60.059
1688816002.841,71.777,-37.109,-38.086,-18.066,-17.090
1688816002.845,-119.141,-33.691,-37.598,96.191,-96.680
1688816002.849,-129.883,-38.086,-34.668,91.309,-96.191
1688816002.853,75.684,-35.156,-28.320,-40.039,-196.777
1688816002.857,140.625,-35.645,-29.785,-86.914,-160.156
1688816002.861,72.266,-36.621,-29.785,-40.527,-74.219
1688816002.864,-106.934,-32.227,-27.344,88.379,5.371
1688816002.868,-144.531,-28.320,-24.414,118.164,234.375
1688816002.872,53.711,-26.367,-21.973,-17.090,-45.898
1688816002.876,142.578,-31.250,-26.367,-74.707,-311.523
1688816002.880,83.984,-34.180,-30.273,-34.668,-232.422
1688816002.884,-94.727,-34.180,-33.691,83.496,-48.828
1688816002.888,-168.457,-33.691,-29.297,133.789,85.449
1688816002.892,15.625,-34.668,-24.414,8.301,-89.844
1688816002.896,122.070,-40.527,-28.320,-66.895,-199.707
1688816002.900,72.266,-37.109,-29.785,-50.293,-155.273
1688816002.904,-105.957,-39.551,-34.668,50.293,-31.250
1688816002.908,-203.613,-40.527,-35.645,107.422,43.457
1688816002.911,-28.320,-36.621,-26.855,0.000,102.051
1688816002.915,105.957,-30.273,-19.043,-78.613,72.266
1688816002.919,81.543,-20.996,-15.625,-61.035,-84.473
1688816002.923,-68.359,-21.973,-18.555,41.016,-58.594
1688816002.927,-197.266,-26.855,-21.484,117.188,160.645
1688816002.942,-41.504,-29.297,-13.184,12.695,13.672
1688816002.946,113.281,-31.738,-9.277,-80.078,-240.234
1688816002.950,81.543,-34.180,-16.113,-71.289,-209.473
1688816002.954,-60.059,-33.691,-22.461,8.301,36.621
1688816002.958,-204.590,-32.227,-21.973,110.840,186.523
1688816002.962,-81.055,-30.762,-15.625,23.926,14.648
1688816002.966,92.773,-37.598,-16.113,-94.727,-54.199
1688816002.969,97.656,-41.504,-16.602,-78.125,110.352
1688816002.973,-28.320,-34.668,-18.066,1.465,57.617
1688816002.977,-193.848,-31.250,-20.508,101.074,-35.645
1688816002.981,-92.285,-31.738,-13.184,46.387,-23.438
1688816002.985,104.980,-26.855,-7.324,-66.406,-165.527
1688816002.973,135.254,-17.578,-9.277,-71.777,-288.574
1688816002.977,25.879,-15.137,-15.625,-5.371,-187.988
1688816002.981,-155.273,-16.113,-15.625,119.141,5.859
1688816002.985,-100.586,-14.160,-13.672,88.379,-33.203
1688816002.989,97.168,-11.719,-14.160,-49.316,-229.492
1688816002.993,139.648,-10.254,-11.230,-71.289,-162.109
1688816002.997,40.039,-11.719,-19.043,-6.348,173.828
1688816003.000,-155.273,-10.254,-26.367,108.398,223.633
1688816003.004,-140.625,-6.348,-19.043,98.633,30.273
1688816003.008,62.500,-11.230,-10.254,-37.598,-156.250
1688816003.012,122.559,-18.555,-7.812,-66.406,-44.434
1688816003.016,35.645,-23.438,-15.625,-16.602,204.102
1688816003.017,-157.227,-22.949,-27.832,81.055,61.035
1688816003.021,-172.852,-25.391,-30.762,78.125,-94.727
1688816003.025,24.414,-33.203,-21.484,-64.941,-156.250
1688816003.029,104.980,-34.668,-20.996,-110.352,-269.531
1688816003.033,39.551,-35.156,-25.391,-60.059,-281.738
1688816003.037,-153.320,-40.527,-33.691,47.363,-36.133
1688816003.041,-208.496,-41.016,-41.992,83.984,270.020
1688816003.044,2.930,-39.551,-40.039,-53.223,-82.520
1688816003.048,103.027,-34.180,-35.645,-123.047,-358.887
1688816003.052,38.574,-30.762,-35.645,-81.055,-224.121
1688816003.056,-138.184,-35.156,-43.457,34.180,214.355
1688816003.060,-223.633,-27.344,-47.363,73.242,160.156
1688816003.077,-32.715,-21.973,-46.875,-50.781,-120.605
1688816003.081,107.422,-26.855,-43.457,-111.816,-169.434
1688816003.085,63.965,-32.227,-32.227,-78.613,-230.957
1688816003.089,-112.305,-40.039,-32.715,20.996,-67.383
1688816003.093,-234.375,-50.781,-35.156,92.285,85.938
1688816003.097,-75.684,-55.176,-18.555,-13.672,124.512
1688816003.101,79.590,-57.129,-4.883,-108.887,6.836
1688816003.104,61.035,-60.059,-3.906,-93.262,-171.875
1688816003.108,-94.727,-65.918,-6.836,-0.977,-171.875
1688816003.112,-250.488,-77.637,-4.883,94.727,217.285
1688816003.116,-113.770,-83.008,2.441,16.602,459.961
1688816003.120,59.570,-81.055,5.371,-99.121,-1.465
1688816003.123,50.293,-80.078,5.371,-106.445,-243.164
1688816003.127,-81.055,-78.613,5.859,-20.020,-62.500
1688816003.131,-243.652,-81.543,-0.488,87.891,33.203
1688816003.135,-137.207,-85.449,2.930,26.367,-93.262
1688816003.139,23.438,-85.449,10.742,-96.191,-234.375
1688816003.143,18.555,-86.426,7.324,-105.957,-162.598
1688816003.147,-90.332,-83.984,6.348,-36.621,-10.742
1688816003.150,-261.230,-78.613,4.883,75.684,27.832
1688816003.154,-190.918,-80.566,0.000,26.855,-31.738
1688816003.158,0.488,-84.473,2.441,-101.074,153.320
1688816003.162,39.551,-74.707,-0.488,-124.023,-105.957
1688816003.166,-60.547,-69.824,-10.742,-71.289,-333.496
1688816003.183,-246.582,-68.359,-12.207,45.898,-62.500
1688816003.187,-198.242,-62.988,-9.277,19.531,-24.414
1688816003.191,15.625,-63.477,-6.836,-111.816,-193.359
1688816003.195,69.336,-61.035,-4.395,-140.137,-201.172
1688816003.199,-17.090,-58.594,-5.371,-73.730,-89.844
1688816003.203,-207.031,-62.500,-15.137,51.758,91.797
1688816003.207,-198.242,-62.012,-20.020,45.898,75.684
1688816003.210,9.766,-59.570,-13.672,-88.867,-161.133
1688816003.214,80.566,-59.570,-8.301,-124.512,23.926
1688816003.218,14.648,-55.176,-10.742,-68.848,303.711
1688816003.222,-160.156,-49.316,-19.531,39.551,103.516
1688816003.226,-188.965,-46.875,-20.508,57.129,23.926
1688816003.213,17.090,-41.992,-11.719,-60.547,65.430
1688816003.217,115.234,-38.574,-13.672,-111.328,-142.090
1688816003.221,67.383,-37.109,-18.066,-75.684,-260.254
1688816003.225,-113.281,-38.086,-20.020,41.016,-36.133
1688816003.229,-193.848,-41.504,-23.926,83.984,181.152
1688816003.233,-4.883,-41.504,-20.508,-45.898,117.188
1688816003.237,106.445,-41.016,-20.508,-113.281,-100.586
1688816003.240,58.105,-39.551,-21.484,-78.125,-205.078
1688816003.244,-109.863,-42.969,-23.438,20.996,-59.570
1688816003.248,-208.008,-41.504,-26.367,88.379,6.836
1688816003.252,-31.250,-39.551,-23.438,-21.973,-217.773
1688816003.256,104.004,-43.945,-21.484,-119.629,-222.168
1688816003.258,69.336,-40.527,-19.531,-100.586,33.691
1688816003.262,-83.496,-33.691,-23.438,5.371,-77.637
1688816003.266,-203.613,-34.668,-25.879,92.773,-54.199
1688816003.270,-60.547,-41.016,-24.414,-16.602,-33.691
1688816003.274,87.402,-44.922,-28.809,-127.930,-181.152
1688816003.278,70.312,-47.363,-33.691,-118.652,-175.293
1688816003.282,-77.637,-49.805,-33.691,-25.879,-66.895
1688816003.285,-228.516,-49.316,-32.227,85.449,243.164
1688816003.289,-107.422,-48.828,-29.785,12.207,363.770
1688816003.293,70.801,-43.945,-29.297,-112.305,-39.062
1688816003.297,82.031,-38.086,-29.297,-113.281,-281.738
1688816003.301,-39.551,-35.156,-34.668,-25.391,6.836
1688816003.303,-206.543,-30.762,-35.645,83.008,101.562
1688816003.307,-108.398,-32.715,-24.414,28.320,-162.109
1688816003.311,82.520,-35.156,-23.926,-89.355,-248.047
1688816003.315,90.820,-34.668,-26.855,-104.492,-152.832
1688816003.319,-15.137,-29.785,-29.297,-28.320,-95.215
1688816003.323,-190.430,-28.320,-34.668,83.496,36.621
1688816003.327,-130.859,-27.344,-29.297,42.969,52.734
1688816003.330,70.312,-27.832,-20.996,-71.777,250.488
1688816003.334,101.074,-27.832,-21.484,-109.375,175.781
1688816003.338,-4.395,-29.297,-24.414,-54.199,-166.992
1688816003.342,-186.035,-33.203,-23.926,87.402,5.859
1688816003.346,-157.715,-30.273,-20.020,73.242,64.941
1688816003.347,49.316,-25.879,-12.207,-62.012,-195.801
1688816003.351,115.723,-25.879,-10.254,-98.633,-231.934
1688816003.355,38.574,-29.785,-19.043,-49.316,-145.996
1688816003.359,-151.367,-29.785,-27.344,69.336,32.715
1688816003.363,-171.875,-30.762,-27.832,80.078,22.949
1688816003.367,30.762,-31.738,-22.949,-48.340,-138.672
1688816003.371,111.328,-33.203,-21.973,-95.215,63.965
1688816003.374,39.062,-34.180,-30.762,-55.176,78.613
1688816003.378,-145.996,-31.250,-35.156,59.570,-18.555
1688816003.382,-190.430,-29.785,-32.227,85.938,43.457
1688816003.386,3.418,-34.180,-29.297,-45.410,75.684
1688816003.390,107.422,-27.344,-27.344,-103.516,-21.484
1688816003.424,52.246,-19.043,-26.367,-72.754,-205.078
1688816003.428,-125.488,-20.508,-31.250,37.109,-3.418
1688816003.432,-201.172,-18.555,-33.691,90.332,140.137
1688816003.436,-19.531,-19.531,-27.832,-28.809,-52.246
1688816003.440,102.051,-26.855,-25.391,-105.469,-241.699
1688816003.444,64.453,-32.715,-31.250,-86.426,-205.078
1688816003.448,-94.727,-33.691,-36.621,23.926,151.855
1688816003.451,-202.148,-31.250,-31.738,93.262,124.512
1688816003.455,-44.922,-29.297,-22.949,-26.855,-159.180
1688816003.459,95.215,-29.785,-20.508,-116.211,-204.590
1688816003.463,83.008,-28.320,-23.926,-95.703,-135.254
1688816003.467,-66.895,-29.785,-32.715,0.000,-78.125
1688816003.440,-218.262,-36.621,-37.598,82.031,66.406
1688816003.444,-75.684,-37.109,-38.086,-4.395,91.797
1688816003.448,94.238,-25.879,-34.668,-100.586,-57.617
1688816003.452,85.938,-19.043,-29.297,-93.262,-226.074
1688816003.456,-52.734,-24.902,-32.715,-6.348,-170.410
1688816003.460,-213.379,-21.973,-35.156,92.773,185.547
1688816003.464,-95.215,-19.531,-30.762,16.602,142.578
1688816003.467,88.867,-20.508,-25.879,-96.680,-187.988
1688816003.471,95.703,-19.531,-22.949,-87.891,-190.918
1688816003.475,-27.832,-18.066,-26.855,-13.672,-1.465
1688816003.479,-199.707,-19.043,-38.086,82.031,25.391
1688816003.483,-118.652,-21.973,-37.598,30.273,-108.398
1688816003.527,82.520,-23.438,-28.809,-96.680,-182.129
1688816003.531,102.051,-27.344,-26.367,-112.793,45.898
1688816003.535,-15.625,-31.250,-35.156,-39.062,297.852
1688816003.539,-190.918,-27.832,-38.574,70.801,98.145
1688816003.543,-142.090,-33.691,-32.227,39.551,-4.883
1688816003.547,60.547,-38.574,-29.785,-81.543,180.176
1688816003.551,101.074,-37.109,-30.273,-115.723,3.906
1688816003.554,6.836,-38.574,-32.715,-72.754,-230.469
1688816003.558,-178.711,-38.574,-37.598,47.852,-20.996
1688816003.562,-174.805,-37.109,-38.086,50.781,226.074
1688816003.566,24.902,-34.180,-28.809,-79.590,-86.426
1688816003.570,88.867,-35.156,-24.902,-118.652,-259.277
1688816003.557,20.020,-34.668,-29.785,-66.406,-96.680
1688816003.561,-154.297,-31.738,-36.621,52.734,20.996
1688816003.565,-184.082,-31.250,-30.762,67.871,23.926
1688816003.569,20.020,-26.855,-18.066,-55.176,-133.301
1688816003.573,108.887,-26.367,-18.066,-106.445,-165.527
1688816003.577,42.480,-30.762,-24.414,-71.777,-10.254
1688816003.581,-134.766,-29.785,-27.344,51.758,115.723
1688816003.584,-189.941,-33.691,-25.879,95.703,93.262
1688816003.588,14.160,-26.855,-18.066,-35.645,-6.836
1688816003.592,116.699,-16.113,-15.625,-98.633,-63.477
1688816003.596,65.430,-20.020,-21.973,-63.477,-159.668
1688816003.600,-90.332,-19.043,-19.531,49.805,-42.969
1688816003.604,-185.059,-20.020,-18.555,105.957,172.852
1688816003.608,-16.602,-20.996,-16.602,-19.531,-37.598
1688816003.612,111.816,-21.973,-17.578,-105.469,-310.059
1688816003.616,79.102,-30.273,-22.949,-78.613,-145.508
1688816003.620,-89.355,-33.691,-28.809,21.973,83.984
1688816003.624,-214.844,-34.668,-33.691,83.496,70.801
1688816003.628,-44.922,-30.273,-22.949,-17.090,-18.066
1688816003.631,113.770,-27.344,-14.648,-106.934,-125.977
1688816003.635,84.473,-34.668,-18.555,-89.844,183.105
1688816003.639,-64.941,-31.250,-18.066,6.836,249.023
1688816003.643,-198.242,-23.926,-16.113,97.168,-99.609
1688816003.647,-61.035,-31.250,-5.371,20.020,-118.652
1688816003.662,113.281,-33.203,-0.488,-76.172,170.410
1688816003.666,115.723,-18.555,-5.371,-88.379,29.785
1688816003.670,-12.207,-19.043,-10.742,-13.184,-131.348
1688816003.674,-171.875,-25.391,-15.137,93.262,93.750
1688816003.678,-74.707,-21.973,-7.324,21.973,22.461
1688816003.682,104.004,-18.066,-1.465,-93.750,-125.000
1688816003.686,120.605,-20.996,-4.395,-101.074,-132.324
1688816003.689,4.395,-24.902,-12.695,-30.273,-46.875
1688816003.693,-145.996,-21.484,-15.137,69.336,13.184
1688816003.697,-75.684,-20.020,-6.836,33.203,-9.277
1688816003.701,93.262,-21.484,-4.395,-81.543,-176.270
1688816003.705,128.418,-22.949,-2.441,-91.797,-57.617
1688816003.679,29.785,-23.926,-3.418,-23.438,284.180
1688816003.683,-162.598,-15.625,-7.812,77.637,80.078
1688816003.687,-129.395,-13.672,-5.371,52.734,-64.453
1688816003.691,72.754,-20.508,-2.930,-71.289,0.977
1688816003.695,116.211,-18.555,-9.277,-106.934,-238.770
1688816003.699,19.531,-21.973,-16.602,-45.410,-205.078
1688816003.703,-155.762,-20.996,-18.555,76.172,139.648
1688816003.706,-157.227,-18.066,-18.066,69.336,92.285
1688816003.710,42.969,-22.949,-16.113,-62.012,-185.547
1688816003.714,119.141,-22.461,-15.625,-108.398,-315.430
1688816003.718,44.434,-19.531,-15.137,-59.570,-211.914
1688816003.722,-128.906,-16.602,-17.578,65.430,12.207
1688816003.723,-160.645,-13.672,-13.672,84.961,62.988
1688816003.727,35.645,-15.625,-11.719,-47.852,-148.926
1688816003.731,132.812,-21.484,-15.137,-102.539,-141.602
1688816003.735,69.336,-22.461,-16.602,-57.617,156.738
1688816003.739,-116.699,-19.531,-22.949,47.852,58.594
1688816003.743,-183.105,-16.113,-22.461,93.750,-41.992
1688816003.747,17.578,-12.207,-13.184,-20.508,89.355
1688816003.750,129.883,-11.719,-12.207,-84.961,164.551
1688816003.754,72.266,-5.371,-13.184,-45.898,-121.582
1688816003.758,-74.707,-3.418,-11.230,55.176,-87.891
1688816003.762,-161.133,-6.348,-11.230,123.047,225.098
1688816003.766,11.230,-2.930,-6.348,6.348,103.027
1688816003.783,139.648,-5.859,-9.766,-99.121,-254.883
1688816003.787,93.262,-12.207,-13.184,-72.266,-309.570
1688816003.791,-56.641,-13.184,-11.719,30.273,-47.363
1688816003.795,-183.105,-11.230,-12.695,102.539,55.664
1688816003.799,-32.715,-5.371,-0.977,0.000,-119.141
1688816003.803,124.023,-6.836,3.418,-100.586,-55.664
1688816003.807,99.609,-16.602,-10.742,-92.773,201.660
1688816003.810,-41.016,-23.438,-21.973,-7.812,16.602
1688816003.814,-186.035,-20.508,-25.879,95.215,-96.191
1688816003.818,-68.848,-21.973,-21.973,12.207,-16.602
1688816003.822,102.539,-28.809,-19.043,-107.910,-136.230
1688816003.826,106.934,-26.367,-23.438,-117.188,-315.430
1688816003.827,-21.973,-24.414,-24.414,-36.133,-229.004
1688816003.831,-200.684,-25.391,-32.227,77.148,70.312
1688816003.835,-106.445,-23.438,-29.297,21.484,-6.836
1688816003.839,96.191,-20.996,-23.438,-101.562,-184.082
1688816003.843,111.816,-23.438,-33.203,-118.652,-137.695
1688816003.847,-18.066,-27.344,-38.086,-41.504,15.137
1688816003.851,-195.312,-27.344,-38.086,69.824,145.020
1688816003.854,-134.766,-32.227,-32.715,23.438,-42.480
1688816003.858,78.125,-40.039,-29.297,-95.215,-224.121
1688816003.862,133.301,-32.227,-29.297,-98.633,85.449
1688816003.866,20.996,-24.414,-29.785,-43.945,341.797
1688816003.870,-181.641,-17.578,-40.039,57.617,134.766
1688816003.872,-153.809,-13.184,-38.086,49.316,4.395
1688816003.876,63.965,-9.277,-34.668,-78.613,-88.867
1688816003.880,118.164,-2.441,-49.805,-128.418,-203.613
1688816003.884,31.738,1.465,-60.547,-77.637,-232.422
1688816003.888,-150.879,2.930,-66.406,42.969,-88.867
1688816003.892,-160.645,3.906,-70.801,40.527,77.637
1688816003.896,49.805,9.277,-67.871,-78.613,-63.477
1688816003.899,128.418,9.277,-67.383,-130.859,-218.262
1688816003.903,49.805,3.418,-80.078,-102.539,-176.270
1688816003.907,-144.043,-1.465,-92.285,18.555,58.594
1688816003.911,-190.430,2.441,-90.332,54.688,38.086
1688816003.915,12.695,6.348,-83.496,-71.289,-158.203
1688816003.918,118.164,8.789,-82.031,-135.254,-138.672
1688816003.922,63.477,12.207,-82.520,-100.098,153.809
1688816003.926,-112.793,14.648,-86.914,10.254,45.898
1688816003.930,-195.312,19.043,-87.402,53.223,-78.125
1688816003.934,-13.184,18.066,-80.078,-65.918,-69.336
1688816003.938,103.516,13.672,-77.148,-129.883,-127.441
1688816003.942,76.660,22.461,-78.613,-100.098,-133.301
1688816003.945,-68.359,22.461,-87.402,-8.301,-109.375
1688816003.949,-186.035,8.301,-90.332,53.223,247.559
1688816003.953,-29.785,0.488,-82.031,-47.363,498.047
1688816003.957,124.023,5.859,-81.055,-139.648,-45.410
1688816003.961,99.121,1.465,-83.496,-131.836,-271.973
1688816003.962,-46.875,-3.418,-83.008,-24.414,104.492
1688816003.966,-187.988,0.000,-86.426,69.336,103.027
1688816003.970,-54.688,-4.395,-79.590,-24.902,-152.832
1688816003.974,119.629,-10.742,-70.801,-134.766,-233.398
1688816003.978,113.770,-17.578,-72.754,-133.301,-228.027
1688816003.982,-55.664,-20.508,-74.707,-20.508,-30.762
1688816003.986,-203.125,-21.973,-78.613,75.195,157.715
1688816003.989,-73.242,-23.438,-73.242,-8.301,27.832
1688816003.993,107.910,-22.949,-65.918,-107.422,65.430
1688816003.997,113.281,-23.438,-69.824,-110.840,28.320
1688816004.001,-9.277,-14.160,-71.777,-39.062,-125.000
1688816004.005,-179.199,-13.184,-73.730,82.031,83.008
1688816004.007,-101.074,-14.160,-69.336,38.574,75.684
1688816004.011,97.168,-11.719,-59.570,-83.008,-236.816
1688816004.015,125.000,-12.207,-56.641,-93.750,-295.410
1688816004.019,10.742,-20.508,-56.641,-31.738,-157.227
1688816004.023,-173.828,-24.902,-61.523,86.426,-33.203
1688816004.027,-133.789,-28.320,-62.988,52.734,42.969
1688816004.031,59.570,-32.715,-54.199,-83.496,-2.441
1688816004.034,103.516,-34.180,-53.223,-110.352,-61.523
1688816004.038,8.789,-33.203,-59.570,-63.965,-46.875
1688816004.042,-180.176,-36.621,-65.430,49.316,70.801
1688816004.046,-173.340,-36.621,-66.406,45.898,34.668
1688816004.050,35.645,-34.668,-54.199,-80.078,57.617
1688816004.054,110.840,-24.902,-42.969,-115.723,94.238
1688816004.058,30.762,-18.555,-44.434,-83.496,-181.152
1688816004.062,-165.039,-27.832,-53.711,38.086,45.410
1688816004.066,-189.453,-27.832,-53.223,62.988,276.855
1688816004.070,12.695,-31.250,-44.922,-80.078,-49.316
1688816004.074,91.797,-36.621,-46.875,-136.719,-152.344
1688816004.078,33.691,-33.691,-50.781,-91.797,-35.645
1688816004.081,-133.789,-31.250,-55.176,33.203,198.730
1688816004.085,-199.219,-32.227,-57.617,73.730,105.957
1688816004.089,-14.160,-38.086,-52.246,-59.570,-227.539
1688816004.093,102.539,-37.598,-45.410,-129.395,-233.887
1688816004.097,60.547,-34.180,-41.992,-96.680,-187.012
1688816004.098,-103.027,-33.203,-49.316,9.277,-138.184
1688816004.102,-197.266,-35.156,-48.828,71.777,-10.742
1688816004.106,-20.020,-38.574,-43.457,-46.875,-19.531
1688816004.110,122.070,-36.133,-47.363,-142.090,-121.094
1688816004.114,82.031,-31.250,-47.852,-120.605,-114.746
1688816004.118,-82.031,-33.691,-50.293,-16.113,-71.777
1688816004.122,-198.730,-37.109,-51.270,69.824,278.320
1688816004.125,-44.922,-32.715,-40.527,-22.461,382.324
1688816004.129,114.746,-28.320,-32.715,-117.188,-86.914
1688816004.133,104.980,-26.367,-37.598,-109.863,-189.453
1688816004.137,-40.039,-26.855,-46.875,-9.277,59.082
1688816004.141,-186.035,-22.461,-46.875,90.332,87.891
1688816004.173,-51.758,-22.949,-42.480,-4.395,-154.785
1688816004.177,125.977,-21.973,-41.504,-113.770,-224.121
1688816004.181,111.328,-17.578,-39.551,-109.863,-166.992
1688816004.185,-18.555,-19.043,-37.598,-23.438,-146.973
1688816004.189,-177.734,-16.602,-38.574,88.379,-64.941
1688816004.193,-92.285,-15.625,-37.598,25.391,-7.812
1688816004.197,92.285,-17.578,-33.203,-94.238,79.102
1688816004.200,110.840,-16.113,-34.180,-105.957,-56.641
1688816004.204,-0.977,-19.043,-38.574,-32.227,-233.398
1688816004.208,-183.594,-28.809,-44.434,81.543,-7.324
1688816004.212,-126.953,-28.809,-41.016,31.250,209.473
1688816004.216,77.148,-23.438,-31.738,-104.492,-111.328
1688816004.202,110.840,-23.438,-30.273,-128.418,-294.922
1688816004.206,6.836,-29.785,-33.691,-67.383,-193.848
1688816004.210,-177.246,-27.832,-39.551,59.082,-33.203
1688816004.214,-149.414,-21.484,-29.785,51.270,-34.180
1688816004.218,55.176,-15.137,-16.113,-81.055,-182.617
1688816004.222,116.699,-18.555,-19.043,-114.258,-61.523
1688816004.226,37.598,-24.902,-26.367,-54.688,-69.336
1688816004.229,-154.785,-24.902,-26.367,72.754,-61.523
1688816004.233,-168.457,-27.832,-23.438,78.613,37.598
1688816004.237,42.480,-32.227,-17.090,-51.758,60.547
1688816004.241,120.117,-32.227,-16.113,-99.609,-72.266
1688816004.245,49.316,-31.738,-24.414,-68.359,-176.758
1688816004.247,-137.695,-33.691,-29.297,40.039,-86.914
1688816004.251,-182.617,-33.691,-23.926,78.613,179.688
1688816004.255,20.508,-31.250,-15.137,-48.828,325.195
1688816004.259,113.770,-28.809,-15.137,-124.512,-78.613
1688816004.263,55.664,-35.156,-24.414,-85.938,-303.711
1688816004.267,-122.070,-42.969,-31.738,28.809,-42.969
1688816004.271,-199.219,-39.551,-33.691,81.055,97.656
1688816004.274,-9.277,-35.645,-30.273,-40.527,-132.812
1688816004.278,116.211,-36.133,-25.391,-125.000,-215.820
1688816004.282,69.824,-39.062,-24.902,-90.820,74.219
1688816004.286,-93.750,-38.086,-29.785,20.020,54.688
1688816004.290,-196.777,-36.621,-30.273,85.938,11.230
1688816004.293,-31.250,-37.598,-20.508,-23.926,-52.734
1688816004.297,112.305,-35.156,-21.973,-114.258,-106.934
1688816004.301,86.426,-34.668,-25.879,-90.332,-140.625
1688816004.305,-70.312,-38.574,-28.320,4.883,-63.965
1688816004.309,-206.055,-39.551,-37.109,90.820,11.230
1688816004.313,-64.941,-39.062,-31.738,-5.371,-21.973
1688816004.317,96.191,-40.039,-26.367,-126.465,-35.645
1688816004.320,86.914,-42.480,-28.809,-127.441,-221.191
1688816004.324,-48.828,-38.086,-31.250,-39.551,-14.160
1688816004.328,-194.824,-33.203,-40.527,66.406,317.871
1688816004.332,-68.848,-33.691,-24.902,8.789,-49.316
1688816004.336,101.562,-39.551,-0.488,-107.910,-220.215
1688816004.338,91.797,-49.805,-0.488,-123.535,0.977
1688816004.342,-32.227,-56.152,-4.883,-45.898,101.562
1688816004.346,-205.566,-58.105,1.465,62.012,18.066
1688816004.350,-129.395,-63.477,14.648,11.230,-55.664
1688816004.354,59.570,-68.848,29.785,-105.469,104.492
1688816004.358,74.707,-68.359,36.133,-119.629,52.734
1688816004.362,-30.273,-68.359,33.691,-59.570,-140.137
1688816004.365,-214.355,-73.242,33.203,52.734,62.988
1688816004.369,-162.109,-74.707,40.039,33.691,303.223
1688816004.373,48.340,-71.777,49.805,-100.098,-60.547
1688816004.377,87.402,-75.684,48.828,-134.766,-311.035
1688816004.381,-14.648,-83.496,41.016,-74.219,-154.297
1688816004.384,-206.543,-80.078,37.109,48.340,-56.152
1688816004.388,-189.453,-77.148,42.480,31.738,-44.922
1688816004.392,12.207,-80.566,49.805,-106.445,-166.992
1688816004.396,68.359,-86.426,41.992,-141.602,-154.297
1688816004.400,-2.441,-85.449,30.273,-90.332,-74.707
1688816004.404,-183.105,-75.195,24.902,36.133,-19.531
1688816004.408,-209.473,-74.219,20.996,54.688,5.859
1688816004.411,-1.953,-73.242,20.996,-76.172,7.324
1688816004.415,79.590,-65.430,16.113,-130.859,79.590
1688816004.419,17.090,-61.035,13.672,-86.914,-49.805
1688816004.423,-155.762,-62.988,13.184,41.016,-78.125
1688816004.427,-210.938,-63.965,6.836,82.520,94.238
1688816004.427,-12.207,-62.500,6.836,-51.270,-84.473
1688816004.431,103.516,-60.059,8.789,-124.023,-327.637
1688816004.435,62.012,-54.199,4.883,-82.520,-226.562
1688816004.439,-115.234,-53.223,-1.465,26.855,15.625
1688816004.443,-207.520,-47.363,-0.977,92.773,84.961
1688816004.447,-21.973,-41.992,7.324,-17.578,-22.461
1688816004.451,107.910,-43.457,9.277,-104.980,-63.965
1688816004.454,68.848,-48.828,0.000,-76.172,216.797
1688816004.458,-96.680,-48.340,-10.254,17.578,175.293
1688816004.462,-209.961,-41.504,-11.230,80.566,-46.387
1688816004.466,-42.480,-42.969,-4.883,-23.926,-50.293
1688816004.470,107.422,-38.574,0.000,-112.305,90.820
1688816004.472,83.984,-30.762,-1.953,-99.121,-95.703
1688816004.476,-57.129,-28.320,-8.789,1.465,-151.367
1688816004.480,-188.477,-28.809,-11.230,95.215,14.648
1688816004.484,-64.453,-33.691,-3.906,6.836,-50.293
1688816004.488,94.727,-32.715,-2.441,-97.656,-152.832
1688816004.492,89.355,-35.156,-9.766,-96.680,-186.523
1688816004.496,-45.410,-35.156,-12.695,-13.184,60.059
1688816004.499,-212.402,-36.133,-20.020,86.914,275.879
1688816004.503,-110.840,-36.133,-18.066,11.230,64.453
1688816004.507,83.496,-28.809,-7.812,-108.887,-92.285
1688816004.511,94.727,-29.297,-10.254,-108.887,-36.621
1688816004.515,-27.344,-29.297,-21.973,-32.227,34.668
1688816004.518,-202.148,-30.762,-33.203,71.777,-6.348
1688816004.522,-131.348,-34.668,-29.297,20.996,-45.410
1688816004.526,69.336,-33.203,-23.926,-102.051,-86.914
1688816004.530,93.750,-28.320,-33.203,-119.141,-160.156
1688816004.534,-12.207,-32.715,-41.504,-58.594,-152.344
1688816004.538,-192.871,-38.086,-43.945,53.711,48.828
1688816004.542,-159.668,-40.039,-43.945,45.898,271.973
1688816004.545,46.875,-33.203,-37.598,-81.543,-41.504
1688816004.549,101.562,-27.344,-35.156,-126.953,-304.199
1688816004.553,7.324,-29.785,-38.574,-61.523,-240.234
1688816004.557,-165.039,-26.855,-41.504,69.336,-3.906
1688816004.561,-164.551,-20.996,-39.551,76.660,52.734
1688816004.562,26.367,-19.043,-27.832,-62.500,-189.941
1688816004.566,95.215,-23.926,-28.809,-115.234,-277.344
1688816004.570,17.090,-24.414,-41.016,-64.941,-143.066
1688816004.574,-164.551,-20.508,-42.969,52.734,-16.602
1688816004.578,-187.500,-20.996,-33.203,79.590,0.000
1688816004.582,15.625,-25.391,-30.762,-47.852,59.082
1688816004.586,108.887,-20.508,-33.203,-118.164,95.215
1688816004.589,55.176,-15.625,-38.086,-82.031,-45.898
1688816004.593,-120.117,-19.043,-41.016,38.086,-36.133
1688816004.597,-198.242,-21.484,-37.598,87.891,283.203
1688816004.601,-6.836,-21.484,-30.762,-30.273,341.797
1688816004.605,111.816,-25.391,-31.738,-123.047,-122.559
1688816004.623,59.082,-28.809,-30.273,-92.773,-148.438
1688816004.627,-114.258,-28.809,-30.762,34.180,221.191
1688816004.631,-214.844,-24.414,-40.039,91.797,126.465
1688816004.635,-39.062,-26.367,-33.691,-27.344,-173.828
1688816004.639,99.121,-31.250,-26.855,-112.305,-243.164
1688816004.643,62.500,-38.086,-34.180,-95.215,-105.957
1688816004.647,-98.633,-40.039,-42.969,4.883,-2.441
1688816004.650,-221.680,-33.203,-40.527,91.309,-10.742
1688816004.654,-71.289,-33.203,-35.156,-4.395,-93.750
1688816004.658,81.543,-33.691,-34.180,-102.539,2.441
1688816004.662,65.430,-32.715,-36.133,-96.191,-141.113
1688816004.666,-74.219,-33.691,-36.133,-3.906,-201.660
1688816004.667,-231.445,-27.344,-38.086,96.680,13.184
1688816004.671,-109.375,-24.902,-31.738,14.648,-49.805
1688816004.675,72.754,-27.344,-24.414,-105.469,-202.637
1688816004.679,71.289,-28.809,-30.273,-111.328,-141.113
1688816004.683,-62.012,-27.832,-40.527,-23.926,56.152
1688816004.687,-228.027,-30.762,-44.922,83.984,173.340
1688816004.691,-125.488,-31.250,-36.133,20.996,85.938
1688816004.694,70.801,-33.203,-30.762,-96.680,-158.203
1688816004.698,83.984,-38.086,-35.156,-90.332,2.441
1688816004.702,-29.297,-36.621,-42.480,-18.555,209.473
1688816004.706,-203.613,-28.809,-46.387,89.355,38.086
1688816004.710,-147.949,-25.391,-41.504,46.875,-54.199
1688816004.728,54.688,-29.785,-33.691,-85.449,25.391
1688816004.732,99.121,-37.598,-33.691,-107.910,-65.918
1688816004.736,4.883,-38.574,-41.504,-47.363,-154.297
1688816004.740,-188.965,-40.527,-48.340,76.660,21.973
1688816004.744,-171.875,-39.062,-46.875,62.500,24.902
1688816004.748,38.574,-34.668,-39.062,-69.824,-115.234
1688816004.752,100.586,-32.715,-36.133,-106.934,-148.926
1688816004.755,16.602,-31.738,-41.992,-62.500,-56.152
1688816004.759,-171.387,-32.715,-43.945,61.035,312.012
1688816004.763,-187.500,-30.273,-41.992,63.477,225.098
1688816004.767,24.414,-27.344,-40.527,-75.684,-186.035
1688816004.771,110.840,-28.809,-41.504,-122.070,-212.891
1688816004.758,36.621,-32.715,-43.457,-64.941,-179.688
1688816004.762,-151.367,-33.203,-49.316,53.223,-89.355
1688816004.766,-193.848,-38.086,-49.316,73.730,-4.395
1688816004.770,4.395,-40.527,-42.969,-57.129,-105.957
1688816004.774,93.750,-39.062,-41.992,-130.859,-187.012
1688816004.778,29.785,-38.086,-41.504,-92.773,-166.016
1688816004.782,-133.301,-39.551,-44.434,17.090,31.738
1688816004.785,-208.496,-42.480,-42.969,57.129,182.617
1688816004.789,-28.809,-37.598,-37.109,-58.105,67.383
1688816004.793,102.051,-37.109,-37.598,-131.836,-69.336
1688816004.797,71.289,-39.062,-43.945,-105.957,-165.039
1688816004.801,-91.797,-41.504,-40.527,9.277,63.965
1688816004.803,-210.938,-40.527,-41.504,87.402,436.523
1688816004.807,-43.457,-34.180,-46.387,-23.926,90.820
1688816004.811,98.145,-33.691,-44.922,-116.211,-258.301
1688816004.815,61.523,-29.785,-43.945,-103.027,-269.531
1688816004.819,-85.938,-26.367,-47.363,-8.789,-221.680
1688816004.823,-213.867,-33.691,-46.875,79.102,-10.254
1688816004.827,-74.219,-38.574,-42.480,-17.090,21.484
1688816004.830,87.402,-37.109,-38.574,-121.094,-54.688
1688816004.834,84.473,-29.297,-40.039,-105.957,-175.781
1688816004.838,-52.734,-28.809,-48.828,-24.414,-149.414
1688816004.842,-217.285,-35.156,-55.664,76.172,18.555
1688816004.846,-104.980,-34.668,-45.898,12.695,40.527
1688816004.847,75.684,-31.738,-39.551,-104.492,-163.574
1688816004.851,77.637,-38.086,-44.922,-114.258,-318.848
1688816004.855,-41.504,-39.062,-45.898,-30.762,-105.957
1688816004.859,-217.285,-35.156,-49.805,82.520,308.594
1688816004.863,-145.508,-29.785,-47.363,20.508,81.055
1688816004.867,46.875,-29.785,-43.945,-106.934,-209.473
1688816004.871,68.359,-32.227,-44.434,-116.699,62.500
1688816004.874,-37.598,-27.344,-41.992,-47.363,170.410
1688816004.878,-213.379,-26.367,-49.316,62.988,-24.902
1688816004.882,-159.180,-28.809,-45.410,37.109,-20.020
1688816004.886,46.387,-30.762,-34.180,-82.031,19.531
1688816004.890,89.355,-27.832,-35.156,-106.934,-122.070
1688816004.894,-0.977,-24.414,-40.039,-50.781,-210.938
1688816004.898,-171.875,-24.414,-39.062,64.453,-15.137
1688816004.902,-161.621,-24.902,-36.133,64.941,115.234
1688816004.906,33.691,-20.996,-30.273,-66.895,-95.703
1688816004.910,97.656,-23.926,-29.297,-109.375,-328.125
1688816004.914,20.508,-31.250,-32.227,-57.129,-173.828
1688816004.918,-164.551,-34.668,-36.621,55.664,282.227
1688816004.921,-189.941,-28.809,-37.109,65.918,99.121
1688816004.925,23.926,-16.602,-26.367,-54.688,-297.363
1688816004.929,113.770,-12.695,-19.043,-96.680,-285.156
1688816004.933,47.363,-13.672,-22.949,-59.082,-215.820
1688816004.937,-133.789,-16.602,-27.832,51.270,-107.422
1688816004.953,-199.219,-18.555,-21.973,87.402,-44.434
1688816004.957,-10.742,-22.461,-14.648,-43.945,-164.062
1688816004.961,93.262,-26.855,-19.531,-122.070,-187.988
1688816004.965,41.016,-30.273,-24.414,-94.727,-120.605
1688816004.969,-126.953,-33.691,-24.902,14.160,-101.562
1688816004.973,-213.867,-35.645,-25.879,83.008,233.398
1688816004.977,-35.156,-35.645,-21.973,-23.438,291.504
1688816004.980,96.680,-31.738,-20.508,-118.164,-123.047
1688816004.984,66.406,-32.227,-25.879,-95.703,-184.082
1688816004.988,-94.238,-36.133,-28.320,14.648,160.156
1688816004.992,-227.539,-40.527,-29.297,86.914,298.340
1688816004.996,-72.754,-42.480,-33.203,-25.879,-52.246
1688816005.014,84.961,-39.551,-26.855,-119.141,-204.590
1688816005.018,64.453,-39.551,-27.344,-105.957,-205.566
1688816005.022,-79.102,-42.480,-34.668,-22.949,-106.934
1688816005.026,-226.562,-41.504,-36.621,63.477,41.016
1688816005.030,-98.633,-37.598,-33.691,-18.555,16.113
1688816005.034,75.195,-34.180,-31.250,-125.000,-7.324
1688816005.038,72.754,-31.250,-32.227,-131.836,-38.574
1688816005.041,-52.734,-34.180,-33.691,-51.758,-27.344
1688816005.045,-207.031,-33.691,-32.227,69.336,109.863
1688816005.049,-100.586,-25.879,-17.578,20.996,243.164
1688816005.053,80.078,-22.461,-8.789,-104.492,-87.891
1688816005.057,99.121,-22.949,-12.695,-110.840,-281.738
1688816005.059,-3.906,-20.508,-12.207,-27.832,-104.492
1688816005.063,-175.293,-17.578,-11.230,92.285,127.441
1688816005.067,-109.375,-20.020,-13.184,45.410,-42.480
1688816005.071,86.914,-20.508,-9.277,-93.750,-183.594
1688816005.075,116.211,-23.438,-8.301,-119.141,-85.938
1688816005.079,13.672,-26.367,-13.184,-57.617,17.090
1688816005.083,-175.293,-29.785,-13.672,62.500,112.793
1688816005.086,-141.113,-24.902,-5.371,47.852,85.938
1688816005.090,73.242,-20.020,4.883,-80.566,6.348
1688816005.094,125.977,-19.531,3.418,-110.840,-145.996
1688816005.098,37.109,-16.602,-6.836,-55.176,-252.930
1688816005.102,-154.297,-19.531,-15.137,65.918,-88.379
1688816005.102,-158.691,-24.414,-13.672,68.359,229.004
1688816005.106,46.387,-20.508,-9.277,-61.035,299.805
1688816005.110,118.164,-17.090,-14.160,-112.305,-81.055
1688816005.114,49.316,-19.531,-15.137,-68.359,-247.070
1688816005.118,-131.836,-22.461,-14.160,50.293,29.297
1688816005.122,-163.574,-23.926,-12.207,66.406,152.344
1688816005.126,23.926,-28.320,-8.301,-60.059,-83.984
1688816005.129,108.398,-24.902,-10.254,-122.559,-211.914
1688816005.133,44.434,-24.414,-15.625,-85.938,-69.824
1688816005.137,-136.230,-26.367,-26.367,24.902,52.734
1688816005.141,-211.426,-26.367,-33.203,68.848,-2.441
1688816005.145,-21.973,-28.809,-28.320,-51.758,-102.539
1688816005.132,99.121,-32.227,-25.879,-122.070,116.211
1688816005.136,54.199,-28.809,-28.809,-100.586,-34.668
1688816005.140,-106.445,-26.367,-33.203,3.418,-147.949
1688816005.144,-198.730,-27.344,-33.203,76.660,159.180
1688816005.148,-33.203,-24.414,-24.414,-22.949,250.000
1688816005.152,98.145,-21.484,-24.902,-120.605,-91.309
1688816005.156,68.848,-24.902,-32.715,-113.770,-168.457
1688816005.159,-87.891,-31.250,-38.086,-15.625,-0.488
1688816005.163,-201.172,-30.762,-39.551,58.105,49.316
1688816005.167,-63.965,-29.297,-39.062,-34.668,-15.137
1688816005.171,85.938,-20.020,-35.645,-133.301,-236.816
1688816005.175,81.055,-23.438,-35.156,-121.094,-69.336
1688816005.193,-62.988,-28.320,-38.086,-25.879,289.551
1688816005.197,-216.797,-27.832,-40.527,60.059,24.414
1688816005.201,-90.332,-35.156,-38.574,-27.344,-129.395
1688816005.205,93.262,-33.691,-31.250,-131.836,37.109
1688816005.209,90.820,-29.297,-31.738,-125.000,-45.410
1688816005.213,-36.133,-29.785,-37.109,-48.340,-181.641
1688816005.217,-210.938,-31.738,-39.062,65.430,30.762
1688816005.220,-131.836,-29.785,-34.180,7.324,135.254
1688816005.224,65.918,-24.902,-26.855,-119.141,-64.941
1688816005.228,86.914,-27.344,-28.809,-130.371,-198.242
1688816005.232,-19.531,-29.785,-30.762,-54.199,-41.992
1688816005.236,-193.359,-30.273,-34.180,63.477,164.551
1688816005.224,-135.254,-28.809,-30.762,22.949,-23.438
1688816005.228,62.500,-25.879,-25.879,-102.051,-233.398
1688816005.232,96.680,-25.879,-26.855,-118.164,-69.824
1688816005.236,-0.977,-25.391,-28.320,-57.617,57.129
1688816005.240,-189.453,-26.367,-38.086,54.199,-71.289
1688816005.244,-165.527,-28.809,-37.598,35.645,-84.961
1688816005.248,41.016,-31.250,-22.949,-94.727,-32.715
1688816005.251,93.262,-24.902,-18.555,-125.000,-138.672
1688816005.255,11.719,-19.043,-23.926,-63.477,-262.207
1688816005.259,-165.527,-24.414,-35.156,58.105,-106.445
1688816005.263,-177.246,-27.344,-35.645,67.383,188.477
1688816005.267,28.809,-23.926,-23.438,-68.359,247.070
1688816005.282,105.957,-26.367,-26.367,-133.789,-142.090
1688816005.286,33.203,-32.227,-31.738,-98.145,-278.809
1688816005.290,-153.809,-32.227,-35.645,18.066,-66.895
1688816005.294,-210.938,-33.691,-34.180,49.805,-88.379
1688816005.298,-11.230,-35.156,-27.344,-77.637,-171.875
1688816005.302,96.191,-34.180,-25.391,-131.836,-148.438
1688816005.306,41.016,-35.156,-30.273,-79.590,173.340
1688816005.309,-131.836,-33.691,-38.574,22.949,208.496
1688816005.313,-204.102,-31.738,-35.645,62.012,-17.578
1688816005.317,-20.020,-31.250,-27.832,-49.316,-141.602
1688816005.321,96.191,-30.762,-30.273,-130.371,-253.906
1688816005.325,53.711,-30.762,-36.621,-116.699,-282.227
1688816005.328,-106.934,-33.203,-42.480,-14.160,-137.695
1688816005.332,-211.426,-29.785,-43.945,64.941,29.785
1688816005.336,-41.504,-22.949,-37.598,-35.156,-71.289
1688816005.340,99.609,-22.461,-32.227,-132.812,-259.766
1688816005.344,68.359,-22.461,-29.785,-118.164,-294.434
1688816005.348,-79.590,-20.508,-29.785,-8.301,36.133
1688816005.352,-211.914,-17.090,-31.738,80.078,204.102
1688816005.355,-70.312,-19.043,-25.879,-12.695,-68.848
1688816005.359,83.008,-25.391,-22.461,-121.094,-175.293
1688816005.363,73.730,-29.785,-29.785,-113.770,113.281
1688816005.367,-54.688,-33.691,-34.668,-21.973,390.137
1688816005.371,-215.332,-29.297,-34.668,77.148,286.621
1688816005.388,-102.051,-29.785,-34.668,0.488,-0.488
1688816005.392,80.566,-33.691,-31.250,-110.840,-119.629
1688816005.396,80.566,-34.180,-31.250,-117.188,-145.508
1688816005.400,-39.062,-37.598,-38.574,-51.758,-143.066
1688816005.404,-207.520,-39.062,-44.922,65.430,-49.805
1688816005.408,-126.953,-37.598,-35.156,20.508,30.762
1688816005.412,67.871,-35.156,-27.832,-99.121,-36.621
1688816005.415,90.820,-28.320,-27.344,-107.910,-204.102
1688816005.419,-17.090,-30.273,-31.250,-51.270,-176.758
1688816005.423,-194.824,-39.551,-42.480,62.988,382.324
1688816005.427,-145.020,-38.574,-36.621,44.922,324.219
1688816005.431,59.082,-35.645,-30.762,-84.961,-149.414
1688816005.418,105.469,-25.879,-38.574,-117.676,-171.875
1688816005.422,5.371,-22.949,-45.898,-68.359,-120.117
1688816005.426,-178.711,-28.809,-52.734,41.016,12.207
1688816005.430,-166.504,-29.297,-53.223,24.902,1.465
1688816005.434,31.250,-24.414,-54.199,-102.539,-204.102
1688816005.438,90.820,-15.625,-59.082,-144.043,-196.289
1688816005.442,20.508,-10.742,-67.871,-107.910,-100.098
1688816005.445,-157.227,-7.324,-78.125,0.977,-69.824
1688816005.449,-184.082,-6.348,-80.078,19.043,74.219
1688816005.453,11.230,-2.441,-74.707,-111.328,46.387
1688816005.457,94.727,4.883,-76.660,-153.320,-193.359
1688816005.461,37.109,8.789,-81.543,-109.863,-205.566
1688816005.462,-137.207,12.695,-86.914,-1.953,144.043
1688816005.466,-182.617,20.508,-87.891,37.109,219.727
1688816005.470,13.672,24.414,-84.961,-88.867,-177.246
1688816005.474,106.934,22.461,-86.914,-165.039,-257.812
1688816005.478,55.664,18.555,-90.332,-136.230,89.844
1688816005.482,-103.516,19.043,-97.168,-25.391,255.371
1688816005.486,-192.871,23.926,-99.609,26.855,68.359
1688816005.489,-20.996,25.391,-98.145,-90.820,-44.434
1688816005.493,91.309,19.043,-98.145,-167.480,98.633
1688816005.497,51.270,23.926,-93.262,-136.719,-23.438
1688816005.501,-92.285,30.762,-89.355,-34.668,-156.738
1688816005.505,-196.777,20.508,-89.844,42.969,-6.836
1688816005.509,-37.109,17.578,-88.867,-59.082,-50.781
1688816005.513,101.562,16.602,-84.961,-152.344,-233.887
1688816005.517,70.801,11.230,-83.496,-131.348,-246.582
1688816005.521,-67.383,1.953,-83.496,-34.180,-71.777
1688816005.525,-190.430,-2.930,-82.031,57.129,80.566
1688816005.529,-56.152,-2.441,-73.730,-21.973,45.410
1688816005.533,102.051,-3.906,-63.965,-116.211,-109.863
1688816005.536,95.703,-13.184,-61.523,-110.840,-41.992
1688816005.540,-21.973,-20.996,-66.406,-39.062,153.809
1688816005.544,-175.293,-24.414,-66.406,58.594,71.777
1688816005.548,-72.754,-23.438,-55.176,0.000,-93.262
1688816005.552,94.727,-23.926,-48.340,-109.863,-117.188
1688816005.553,104.980,-17.090,-50.781,-103.027,-186.523
1688816005.557,10.742,-12.207,-60.059,-33.691,-241.211
1688816005.561,-165.039,-20.508,-66.406,66.406,-59.570
1688816005.565,-104.980,-24.414,-61.523,33.203,102.051
1688816005.569,84.961,-21.973,-57.129,-92.773,-84.473
1688816005.573,113.770,-20.996,-54.688,-122.559,-117.188
1688816005.577,15.137,-26.367,-51.758,-53.223,4.395
1688816005.580,-164.551,-35.156,-57.129,70.801,282.715
1688816005.584,-129.395,-27.832,-53.711,46.875,200.195
1688816005.588,69.824,-21.973,-43.945,-79.102,-212.402
1688816005.592,111.328,-24.902,-44.434,-92.285,-212.891
1688816005.596,20.020,-22.949,-47.363,-35.645,-89.355
1688816005.598,-158.203,-23.438,-50.781,74.707,-41.016
1688816005.602,-156.250,-28.809,-47.363,66.406,-50.293
1688816005.606,44.434,-29.785,-37.598,-75.684,-145.508
1688816005.610,114.746,-30.273,-39.062,-121.094,-226.074
1688816005.614,38.574,-28.809,-45.898,-71.777,-183.105
1688816005.618,-142.090,-30.273,-53.223,48.340,73.730
1688816005.622,-177.734,-31.250,-51.270,76.660,302.734
1688816005.625,13.672,-23.438,-33.691,-46.875,196.289
1688816005.629,105.957,-22.949,-33.691,-109.863,-126.465
1688816005.633,43.457,-25.879,-45.898,-83.496,-126.953
1688816005.637,-134.277,-31.250,-51.270,27.832,192.383
1688816005.641,-195.312,-24.902,-48.340,77.148,369.141
1688816005.643,-5.859,-14.160,-39.551,-44.434,-70.312
1688816005.647,104.004,-18.066,-37.109,-117.676,-309.570
1688816005.651,57.617,-20.508,-36.133,-94.727,-184.570
1688816005.655,-100.098,-19.531,-41.992,10.742,-83.496
1688816005.659,-190.918,-23.926,-42.969,72.266,-37.109
1688816005.663,-24.902,-30.273,-34.668,-37.109,11.230
1688816005.667,102.539,-30.762,-30.273,-119.629,152.344
1688816005.670,75.684,-27.832,-29.297,-102.051,-102.539
1688816005.674,-83.008,-25.879,-36.133,0.000,-136.230
1688816005.678,-216.309,-28.320,-45.410,81.055,101.074
1688816005.682,-63.965,-31.250,-41.016,-12.207,235.352
1688816005.686,88.867,-28.320,-36.621,-114.258,-8.789
1688816005.703,74.219,-21.484,-37.109,-102.539,-274.902
1688816005.707,-53.223,-20.020,-38.574,-11.230,-133.301
1688816005.711,-189.941,-22.949,-39.551,80.078,-12.207
1688816005.715,-67.871,-23.438,-32.227,11.719,-126.953
1688816005.719,96.191,-20.996,-24.902,-95.703,-259.277
1688816005.723,83.984,-21.484,-23.438,-83.496,-97.168
1688816005.727,-22.949,-16.113,-20.508,-0.977,-8.301
1688816005.730,-177.246,-15.625,-21.973,96.191,-79.102
1688816005.734,-89.844,-18.555,-21.484,34.668,-184.570
1688816005.738,94.727,-10.254,-13.184,-77.148,-86.426
1688816005.742,95.215,-7.812,-18.555,-81.055,-25.391
1688816005.746,-11.230,-12.207,-26.855,-19.531,-80.566
1688816005.748,-178.711,-14.160,-27.832,89.355,-40.039
1688816005.752,-122.070,-14.648,-15.625,60.059,175.781
1688816005.756,63.477,-14.160,-15.137,-76.172,221.191
1688816005.760,95.703,-19.043,-31.250,-112.305,-130.859
1688816005.764,17.578,-25.879,-16.113,-33.203,-198.730
1688816005.768,-167.480,-33.691,-6.836,77.637,47.363
1688816005.772,-157.715,-34.180,-6.348,35.156,183.594
1688816005.775,38.574,-33.203,4.883,-95.215,-60.547
1688816005.779,88.867,-39.062,14.160,-114.746,-217.773
1688816005.783,3.418,-48.340,15.137,-62.012,-0.488
1688816005.787,-177.734,-55.664,11.230,54.688,62.988
1688816005.791,-187.988,-60.547,20.020,64.941,-87.402
1688816005.793,16.602,-63.477,31.250,-64.941,-165.527
1688816005.797,83.008,-67.871,37.109,-108.887,55.176
1688816005.801,10.254,-72.266,35.645,-71.289,-82.520
1688816005.805,-162.109,-68.359,31.250,38.086,-190.430
1688816005.809,-205.078,-67.383,35.645,65.430,76.172
1688816005.813,-8.301,-66.895,45.410,-54.688,112.305
1688816005.817,84.473,-64.453,49.316,-110.352,-57.617
1688816005.820,29.297,-67.383,46.387,-65.430,-184.082
1688816005.824,-145.996,-78.125,37.109,41.992,35.156
1688816005.828,-225.098,-82.031,28.809,90.820,469.727
1688816005.832,-32.227,-73.730,23.438,-29.785,54.688
1688816005.836,82.520,-70.801,20.508,-105.469,-258.301
1688816005.838,29.297,-70.801,19.043,-80.566,-148.926
1688816005.842,-124.512,-68.848,12.695,16.113,-87.402
1688816005.846,-217.285,-62.500,10.254,90.332,-19.043
1688816005.850,-50.293,-60.059,10.254,-16.113,-40.527
1688816005.854,80.566,-59.570,12.695,-106.934,-45.898
1688816005.858,42.969,-60.547,10.742,-95.215,-121.094
1688816005.862,-97.656,-58.594,0.977,-7.324,0.000
1688816005.865,-225.098,-56.152,-1.953,74.219,90.332
1688816005.869,-91.797,-57.129,7.324,-13.184,152.344
1688816005.873,66.895,-54.199,9.766,-118.164,-126.465
1688816005.877,60.547,-51.758,6.836,-111.328,-320.312
1688816005.881,-66.406,-56.152,1.465,-23.926,-152.832
1688816005.883,-224.609,-59.570,-7.812,78.613,-20.508
1688816005.887,-125.488,-56.641,-8.789,-0.488,-52.734
1688816005.891,52.246,-56.152,-8.301,-122.070,-146.484
1688816005.895,59.082,-52.246,-7.812,-120.605,-114.258
1688816005.899,-51.270,-41.504,-13.184,-34.180,-54.688
1688816005.903,-189.941,-38.574,-19.531,62.988,99.609
1688816005.907,-117.188,-41.504,-17.578,13.184,107.422
1688816005.910,54.688,-46.387,-15.625,-96.191,120.605
1688816005.914,68.848,-43.945,-14.648,-110.840,211.426
1688816005.918,-41.504,-41.504,-17.578,-55.176,-18.066
1688816005.922,-214.844,-50.293,-25.391,58.105,-104.980
1688816005.926,-158.691,-46.875,-19.043,45.898,108.398
1688816005.927,51.758,-36.133,-11.230,-83.008,36.621
1688816005.931,99.121,-30.273,-14.648,-117.188,-304.688
1688816005.935,2.930,-33.691,-22.461,-58.594,-232.910
1688816005.939,-178.223,-31.738,-28.320,65.918,-23.926
1688816005.943,-167.480,-25.391,-26.367,65.918,-35.156
1688816005.947,35.645,-23.926,-22.461,-70.801,-110.840
1688816005.951,94.727,-22.949,-16.602,-111.816,-120.117
1688816005.954,7.324,-30.273,-21.973,-59.570,163.574
1688816005.958,-171.387,-36.133,-33.691,53.223,269.531
1688816005.962,-189.941,-37.109,-31.250,44.434,-34.180
1688816005.966,15.625,-36.621,-22.949,-93.262,-143.555
1688816005.970,95.703,-29.785,-19.531,-135.742,-148.438
1688816005.973,16.113,-27.344,-27.344,-88.867,-215.332
1688816005.977,-155.273,-26.367,-34.180,27.832,-95.215
1688816005.981,-206.543,-25.391,-29.297,70.801,55.664
1688816005.985,-11.230,-25.391,-23.926,-53.711,-70.801
1688816005.989,97.656,-24.414,-26.855,-122.559,-272.949
1688816005.993,41.992,-27.344,-30.762,-89.844,-308.594
1688816005.997,-119.141,-31.250,-32.715,19.531,52.734
1688816006.000,-200.195,-32.227,-35.156,78.125,304.688
1688816006.004,-24.902,-32.715,-29.785,-43.945,-44.922
1688816006.008,87.891,-40.039,-28.320,-125.000,-211.914
1688816006.012,41.504,-42.480,-31.250,-89.355,67.383
1688816006.016,-111.816,-42.480,-32.227,10.742,150.879
1688816006.018,-222.656,-42.969,-33.691,75.195,-69.336
1688816006.022,-57.129,-40.527,-27.832,-27.832,-105.957
1688816006.026,90.332,-37.598,-25.879,-118.164,-162.598
1688816006.030,57.617,-36.133,-30.273,-103.516,-235.352
1688816006.034,-89.355,-38.086,-33.203,-20.996,-209.961
1688816006.038,-225.098,-42.480,-38.574,70.801,38.086
1688816006.042,-85.449,-42.480,-35.645,-1.953,330.078
1688816006.045,84.473,-34.180,-32.227,-111.328,8.789
1688816006.049,74.707,-32.227,-39.062,-110.840,-181.641
1688816006.053,-54.199,-38.574,-41.992,-32.227,-91.309
1688816006.057,-205.078,-37.598,-40.039,70.801,-27.344
1688816006.061,-98.633,-30.762,-34.668,3.906,-52.246
1688816006.064,71.289,-37.109,-31.738,-121.582,-181.152
1688816006.068,82.031,-44.434,-37.109,-122.559,-144.531
1688816006.072,-21.973,-37.109,-39.062,-45.410,-31.738
1688816006.076,-191.895,-34.668,-41.016,61.523,-1.953
1688816006.080,-118.164,-40.527,-36.621,13.672,-22.949
1688816006.084,67.871,-42.969,-35.156,-112.793,-52.246
1688816006.088,84.961,-35.645,-34.668,-124.023,-63.477
1688816006.091,-12.207,-34.180,-35.645,-57.129,-131.348
1688816006.095,-190.430,-39.062,-45.898,55.176,-126.465
1688816006.099,-151.367,-35.645,-40.039,41.016,151.855
1688816006.103,59.082,-29.785,-29.297,-81.055,288.574
1688816006.107,102.051,-29.297,-34.180,-120.117,-81.055
1688816006.122,8.789,-35.645,-42.969,-74.707,-204.102
1688816006.126,-167.480,-33.203,-48.828,43.945,-25.879
1688816006.130,-161.621,-31.250,-42.480,48.340,18.066
1688816006.134,43.945,-31.738,-29.785,-79.590,-132.324
1688816006.138,107.422,-29.297,-31.738,-127.441,-237.793
1688816006.142,27.832,-36.621,-38.086,-75.684,120.117
1688816006.146,-146.484,-34.668,-35.645,50.293,201.660
1688816006.149,-178.223,-29.297,-35.156,68.848,-35.645
1688816006.153,14.648,-30.762,-33.203,-64.941,-66.406
1688816006.157,98.633,-30.273,-31.250,-127.441,33.203
1688816006.161,33.691,-29.785,-38.574,-106.934,-86.914
1688816006.165,-140.137,-29.297,-41.992,9.277,-95.215
1688816006.167,-208.008,-30.762,-39.062,58.594,28.320
1688816006.171,-24.902,-28.809,-34.668,-73.730,-136.719
1688816006.175,89.844,-29.297,-34.180,-148.438,-263.672
1688816006.179,44.922,-34.668,-36.133,-104.980,-297.852
1688816006.183,-131.836,-37.109,-36.621,18.066,-155.762
1688816006.187,-200.195,-33.691,-33.203,51.758,-0.977
1688816006.191,-25.391,-28.320,-27.832,-60.547,-158.691
1688816006.194,86.426,-27.344,-24.902,-125.977,-291.992
1688816006.198,55.664,-27.344,-25.879,-102.051,-37.109
1688816006.202,-94.727,-30.762,-34.180,6.348,387.207
1688816006.206,-213.867,-31.738,-40.039,74.707,273.926
1688816006.210,-60.059,-33.203,-32.715,-31.738,-129.883
1688816006.213,89.355,-27.344,-22.461,-131.836,-261.719
1688816006.217,71.289,-22.949,-20.508,-116.211,-245.605
1688816006.221,-61.523,-28.809,-26.855,-22.949,-227.051
1688816006.225,-211.914,-31.738,-31.250,80.566,-102.539
1688816006.229,-88.379,-31.738,-24.414,5.859,-61.523
1688816006.233,87.891,-28.809,-17.578,-104.492,-21.973
1688816006.237,84.961,-26.855,-20.508,-101.074,-31.738
1688816006.240,-37.598,-34.180,-34.180,-22.461,-37.598
1688816006.244,-200.684,-33.203,-39.062,97.168,436.523
1688816006.248,-116.699,-25.391,-25.391,35.156,266.602
1688816006.252,76.172,-23.926,-16.113,-95.215,-216.309
1688816006.256,98.145,-26.367,-21.973,-112.305,-202.637
1688816006.273,-14.648,-25.391,-26.367,-44.922,-134.766
1688816006.277,-184.082,-22.949,-25.391,79.590,-4.395
1688816006.281,-119.141,-19.043,-19.043,49.316,-5.859
1688816006.285,83.008,-17.090,-10.254,-88.867,-170.898
1688816006.289,113.281,-18.555,-12.207,-118.652,-215.820
1688816006.293,15.137,-22.461,-18.555,-53.711,-66.895
1688816006.297,-172.852,-27.832,-27.832,64.941,142.578
1688816006.300,-153.809,-30.762,-30.762,53.711,252.441
1688816006.304,58.594,-28.320,-25.391,-83.496,73.242
1688816006.308,108.887,-27.832,-28.320,-120.605,-204.102
1688816006.312,26.855,-25.879,-33.203,-72.266,-169.922
1688816006.316,-152.832,-26.367,-35.645,58.105,182.617
1688816006.302,-168.945,-25.879,-33.691,77.637,409.668
1688816006.306,29.785,-27.344,-27.344,-71.289,7.324
1688816006.310,95.703,-38.574,-28.809,-129.395,-190.430
1688816006.314,29.297,-38.574,-30.273,-83.984,-168.457
1688816006.318,-140.137,-29.785,-27.832,35.156,-150.879
1688816006.322,-175.293,-32.227,-27.832,63.477,33.203
1688816006.326,25.879,-38.574,-23.926,-65.918,-32.227
1688816006.329,117.188,-37.109,-22.949,-137.207,-202.148
1688816006.333,44.434,-41.016,-29.785,-99.609,-222.168
1688816006.337,-127.930,-42.969,-36.621,24.414,-150.391
1688816006.341,-197.754,-38.086,-34.180,81.055,-20.996
1688816006.345,0.488,-34.180,-23.926,-25.879,183.594
1688816006.349,116.211,-35.156,-23.926,-98.145,-34.668
1688816006.353,60.059,-37.109,-30.762,-85.938,-262.207
1688816006.357,-101.562,-37.598,-39.551,10.742,-66.895
1688816006.361,-203.125,-29.297,-44.922,84.473,83.984
1688816006.365,-37.598,-21.484,-40.039,-27.832,-46.387
1688816006.369,105.469,-21.973,-32.227,-127.930,-100.586
1688816006.373,80.078,-24.414,-25.391,-103.516,25.879
1688816006.376,-65.918,-24.414,-25.879,-1.953,193.359
1688816006.380,-191.406,-29.297,-29.785,76.172,93.262
1688816006.384,-50.293,-31.250,-24.414,-7.812,-1.953
1688816006.388,112.305,-32.227,-21.973,-106.445,16.602
1688816006.392,94.727,-36.133,-31.250,-115.234,-80.566
1688816006.407,-48.828,-36.621,-40.527,-41.504,-145.020
1688816006.411,-200.684,-40.527,-46.875,67.871,-14.160
1688816006.415,-89.355,-42.969,-37.598,5.371,140.137
1688816006.419,84.473,-40.039,-32.227,-121.094,-16.113
1688816006.423,86.914,-39.062,-37.109,-135.742,-234.375
1688816006.427,-41.504,-41.504,-39.551,-54.199,-129.883
1688816006.431,-215.820,-46.387,-40.039,60.059,291.504
1688816006.434,-131.836,-43.945,-30.273,0.977,248.535
1688816006.438,75.684,-38.574,-21.484,-122.559,-234.375
1688816006.442,102.539,-37.109,-20.020,-133.789,-312.012
1688816006.446,-15.137,-37.598,-23.926,-73.242,-140.625
1688816006.450,-188.965,-40.039,-29.785,49.316,38.574
1688816006.452,-135.254,-37.109,-26.855,28.809,38.086
1688816006.456,62.500,-35.156,-23.438,-104.004,-140.137
1688816006.460,97.168,-31.738,-25.879,-137.207,-211.426
1688816006.464,0.000,-28.320,-30.762,-84.961,-175.781
1688816006.468,-174.805,-33.691,-36.133,26.367,-104.492
1688816006.472,-152.832,-40.039,-36.621,17.090,67.383
1688816006.476,31.250,-38.086,-30.762,-97.168,74.219
1688816006.479,95.703,-33.691,-30.762,-129.883,-83.984
1688816006.483,26.855,-40.527,-39.062,-88.867,-168.945
1688816006.487,-167.969,-46.875,-43.945,33.203,196.289
1688816006.491,-192.871,-40.039,-36.621,61.523,496.094
1688816006.495,13.184,-32.715,-26.367,-70.312,17.090
1688816006.498,86.914,-35.156,-28.320,-133.301,-220.703
1688816006.502,17.578,-37.598,-31.250,-97.168,-115.723
1688816006.506,-141.602,-36.133,-34.180,19.043,-59.570
1688816006.510,-182.617,-38.086,-30.273,52.734,-44.434
1688816006.514,7.812,-38.086,-23.926,-67.383,-198.242
1688816006.518,104.980,-38.574,-21.484,-129.395,-207.031
1688816006.522,48.340,-42.480,-24.414,-95.703,-58.105
1688816006.525,-112.793,-43.457,-27.832,9.766,41.504
1688816006.529,-193.848,-48.340,-25.879,66.406,81.543
1688816006.533,-21.484,-48.828,-13.184,-30.762,249.512
1688816006.537,95.215,-42.969,-8.789,-109.863,137.695
1688816006.541,62.988,-41.016,-20.020,-97.168,-195.801
1688816006.543,-81.055,-40.527,-20.020,1.465,-77.148
1688816006.547,-204.590,-40.527,-21.484,67.383,50.781
1688816006.551,-56.152,-40.527,-20.996,-33.203,-91.309
1688816006.555,85.938,-40.039,-15.625,-116.211,-220.703
1688816006.559,56.152,-37.598,-18.066,-103.027,-196.289
1688816006.563,-80.566,-35.156,-21.973,-21.973,-58.105
1688816006.567,-198.730,-30.762,-20.996,73.730,48.340
1688816006.570,-66.406,-25.879,-12.207,0.000,-80.078
1688816006.574,84.473,-28.809,-3.906,-102.051,-37.109
1688816006.578,74.219,-29.785,-7.324,-100.098,214.355
1688816006.582,-44.434,-24.414,-20.996,-39.062,94.727
1688816006.586,-189.941,-21.973,-26.855,62.500,-21.973
1688816006.588,-93.262,-22.461,-20.020,3.906,101.562
1688816006.592,80.078,-19.531,-12.695,-116.211,-26.367
1688816006.596,88.379,-20.020,-14.648,-117.188,-238.281
1688816006.600,-21.484,-22.949,-20.996,-44.434,-138.184
1688816006.604,-178.223,-23.926,-21.973,61.035,-0.977
1688816006.608,-111.816,-23.926,-22.461,15.625,36.133
1688816006.612,68.848,-19.043,-15.625,-107.910,-56.152
1688816006.615,98.145,-19.531,-16.113,-125.000,-190.430
1688816006.619,-1.953,-21.973,-19.531,-55.664,97.656
1688816006.623,-170.410,-15.625,-22.461,63.477,158.691
1688816006.627,-128.418,-15.137,-19.043,37.109,-91.797
1688816006.631,61.523,-15.137,-5.859,-86.426,-201.172
1688816006.634,110.352,-13.184,-3.418,-102.539,-191.895
1688816006.638,36.133,-9.277,-7.324,-48.340,-222.656
1688816006.642,-139.648,-16.602,-13.184,57.617,-156.250
1688816006.646,-140.625,-23.438,-10.254,58.594,-33.691
1688816006.650,63.965,-16.602,-0.488,-59.570,-110.352
1688816006.654,131.836,-14.160,0.977,-93.750,-163.574
1688816006.658,57.617,-18.066,-3.906,-51.758,-64.453
1688816006.661,-118.652,-23.438,-10.742,64.453,188.965
1688816006.665,-122.559,-20.996,-12.695,77.637,247.070
1688816006.669,49.805,-15.137,-4.883,-37.598,-59.570
1688816006.673,109.863,-14.648,-0.488,-81.055,-186.035
1688816006.677,54.688,-18.555,-8.789,-48.340,-20.020
1688816006.679,-111.816,-20.996,-21.973,49.805,11.719
1688816006.683,-166.992,-19.043,-22.949,76.172,-145.996
1688816006.687,11.719,-19.043,-14.160,-42.969,-119.141
1688816006.691,108.398,-21.484,-11.230,-104.492,-142.090
1688816006.695,64.941,-17.090,-10.742,-77.637,-246.094
1688816006.699,-89.355,-17.090,-13.672,18.066,-53.711
1688816006.703,-178.223,-20.508,-16.602,75.195,135.254
1688816006.706,-15.625,-18.555,-8.789,-26.855,285.645
1688816006.710,104.492,-14.648,-8.789,-108.398,123.047
1688816006.714,72.266,-15.137,-15.137,-93.750,-174.316
1688816006.718,-72.754,-17.578,-19.043,2.930,-86.914
1688816006.722,-188.477,-13.672,-22.949,84.473,65.430
1688816006.722,-42.969,-13.184,-14.648,-9.277,-113.281
1688816006.726,100.586,-8.301,-6.348,-108.887,-278.320
1688816006.730,87.402,-4.395,-8.789,-95.703,-175.781
1688816006.734,-40.039,-9.766,-16.113,-14.160,-50.781
1688816006.738,-187.012,-12.207,-23.438,73.242,86.914
1688816006.742,-69.336,-11.719,-19.043,-0.488,99.609
1688816006.746,95.703,-17.578,-17.090,-106.934,112.793
1688816006.749,86.914,-22.461,-23.926,-97.656,240.723
1688816006.753,-46.387,-19.043,-32.715,-20.508,34.668
1688816006.757,-186.035,-17.578,-36.133,63.477,15.625
1688816006.761,-85.938,-18.066,-28.320,3.906,176.758
1688816006.765,76.172,-16.602,-21.973,-95.215,-41.992
1688816006.768,83.496,-13.184,-22.949,-95.703,-249.512
1688816006.772,-16.602,-12.207,-26.855,-34.668,-101.562
1688816006.776,-175.781,-17.578,-31.738,72.754,55.176
1688816006.780,-116.211,-24.414,-29.297,31.738,-57.129
1688816006.784,64.941,-21.484,-24.902,-101.074,-191.406
1688816006.788,88.867,-21.973,-25.879,-117.676,-76.172
1688816006.792,0.000,-25.391,-27.344,-41.504,209.961
1688816006.795,-165.527,-24.414,-32.227,64.941,137.695
1688816006.799,-133.301,-20.996,-27.344,40.527,-121.094
1688816006.803,58.594,-21.973,-20.020,-82.031,-135.742
1688816006.807,102.051,-19.043,-23.438,-113.770,-64.453
1688816006.811,26.855,-12.207,-27.344,-64.941,-171.875
1688816006.829,-145.508,-15.625,-33.691,46.875,-110.352
1688816006.833,-159.180,-21.973,-31.738,53.711,43.457
1688816006.837,28.809,-24.414,-27.344,-70.312,-27.344
1688816006.841,94.727,-27.832,-28.320,-113.770,-183.594
1688816006.845,31.250,-28.320,-25.391,-68.848,-206.543
1688816006.849,-135.742,-32.715,-30.762,38.574,125.000
1688816006.853,-170.898,-33.691,-29.785,61.523,266.113
1688816006.856,12.695,-26.855,-21.973,-61.035,-95.703
1688816006.860,91.309,-25.391,-21.484,-121.094,-205.566
1688816006.864,32.715,-25.879,-24.902,-82.031,86.426
1688816006.868,-126.953,-23.438,-31.738,30.762,353.516
1688816006.872,-189.941,-20.996,-34.180,70.801,83.984
1688816006.873,-12.207,-22.461,-23.438,-47.852,-134.766
1688816006.877,99.121,-23.438,-13.184,-115.723,-139.648
1688816006.881,56.641,-20.996,-16.113,-84.961,-123.047
1688816006.885,-93.262,-22.949,-23.438,5.859,-82.520
1688816006.889,-196.777,-27.832,-24.902,65.430,-15.625
1688816006.893,-48.340,-27.344,-20.020,-26.367,8.789
1688816006.897,85.938,-29.785,-20.508,-115.723,-96.680
1688816006.900,64.453,-29.297,-21.973,-104.004,-242.188
1688816006.904,-74.219,-31.738,-26.855,-11.719,-128.418
1688816006.908,-210.449,-39.551,-31.738,70.801,267.578
1688816006.912,-71.289,-35.156,-24.902,-13.184,56.641
1688816006.916,83.984,-35.156,-23.926,-109.375,-308.105
1688816006.917,66.406,-33.691,-33.691,-107.422,-175.293
1688816006.921,-62.500,-34.668,-41.504,-30.273,17.578
1688816006.925,-205.566,-34.668,-41.504,64.941,6.348
1688816006.929,-98.145,-26.367,-30.762,-4.395,-113.770
1688816006.933,70.801,-24.902,-27.344,-114.258,-147.949
1688816006.937,80.566,-28.320,-32.227,-123.535,-111.816
1688816006.941,-37.109,-31.250,-36.133,-52.734,-61.035
1688816006.944,-200.195,-35.156,-41.016,55.664,-6.348
1688816006.948,-125.977,-37.598,-35.645,9.277,78.125
1688816006.952,51.270,-38.574,-27.344,-94.238,285.156
1688816006.956,81.055,-26.367,-32.227,-105.469,-106.445
1688816006.960,-15.137,-15.625,-41.016,-60.059,-241.211
1688816006.978,-196.289,-18.555,-43.945,50.293,53.223
1688816006.982,-149.902,-15.137,-43.945,29.297,-27.344
1688816006.986,50.293,-7.324,-42.969,-101.074,-186.523
1688816006.990,97.656,-5.859,-46.387,-126.465,-215.820
1688816006.994,15.137,-6.348,-52.734,-69.336,-19.531
1688816006.998,-164.551,-3.906,-54.688,43.457,108.887
1688816007.002,-160.156,0.977,-58.105,28.320,60.547
1688816007.005,39.062,1.953,-59.570,-98.633,-43.457
1688816007.009,105.469,0.488,-58.594,-134.277,-5.371
1688816007.013,27.344,5.859,-66.895,-98.145,-62.500
1688816007.017,-142.090,10.254,-72.754,14.648,-92.285
1688816007.021,-159.668,15.625,-68.848,34.668,3.418
1688816007.008,30.762,18.066,-64.453,-83.984,151.855
1688816007.012,113.281,16.602,-66.895,-132.812,-98.633
1688816007.016,53.223,18.066,-78.125,-101.562,-243.652
1688816007.020,-116.699,16.602,-85.938,7.812,-56.152
1688816007.024,-169.434,11.230,-83.984,50.293,83.008
1688816007.028,19.043,8.789,-80.078,-69.824,-24.902
1688816007.032,118.164,7.324,-78.125,-135.254,-123.047
1688816007.035,68.359,8.301,-82.031,-111.328,-17.090
1688816007.039,-101.074,7.812,-88.867,-14.160,86.426
1688816007.043,-179.199,6.836,-87.402,38.574,61.523
1688816007.047,0.977,9.766,-74.219,-71.289,-113.281
1688816007.051,114.258,5.859,-67.383,-143.555,-1.465
1688816007.053,82.520,3.418,-67.383,-117.188,247.559
1688816007.057,-64.941,6.348,-65.430,-26.855,-8.789
1688816007.061,-191.406,-2.930,-69.336,55.176,-83.008
1688816007.065,-40.527,-7.812,-67.871,-43.945,-125.000
1688816007.069,108.398,-6.348,-65.430,-140.137,-253.418
1688816007.073,71.777,-14.160,-73.730,-114.258,-276.367
1688816007.077,-53.223,-22.461,-75.684,-28.320,-117.188
1688816007.080,-181.152,-23.926,-73.730,59.082,366.211
1688816007.084,-59.570,-20.020,-69.336,-22.461,173.828
1688816007.088,97.656,-23.926,-66.406,-132.324,-293.945
1688816007.092,92.285,-32.715,-65.430,-121.582,-201.172
1688816007.096,-34.668,-36.621,-65.918,-33.203,93.750
1688816007.097,-196.289,-32.227,-68.359,62.500,65.918
1688816007.101,-103.027,-34.668,-64.453,1.953,-104.492
1688816007.105,71.289,-38.086,-55.664,-111.328,-211.914
1688816007.109,93.750,-39.062,-56.152,-126.953,-229.492
1688816007.113,-11.230,-36.621,-62.012,-60.547,-178.223
1688816007.117,-188.965,-37.598,-64.941,43.457,41.016
1688816007.121,-129.395,-42.480,-63.965,4.883,180.664
1688816007.124,58.105,-36.133,-57.617,-110.840,-65.918
1688816007.128,87.402,-31.738,-53.711,-134.766,-261.719
1688816007.132,-4.395,-39.551,-56.641,-66.406,-112.305
1688816007.136,-174.805,-41.016,-59.570,50.781,152.832
1688816007.140,-136.719,-33.203,-55.176,21.973,67.871
1688816007.143,59.082,-36.133,-51.270,-108.398,-148.926
1688816007.147,97.656,-36.133,-47.363,-135.254,-182.617
1688816007.151,16.602,-34.180,-41.504,-70.801,68.848
1688816007.155,-152.344,-34.668,-43.945,36.621,369.629
1688816007.159,-152.832,-33.691,-47.852,22.461,91.797
1688816007.163,39.062,-36.133,-41.016,-91.309,-52.734
1688816007.167,113.281,-35.645,-34.180,-119.141,94.238
1688816007.170,44.922,-33.203,-34.668,-89.355,-58.594
1688816007.174,-131.348,-35.156,-39.062,18.555,-119.629
1688816007.178,-161.621,-34.180,-41.016,46.875,-55.664
1688816007.182,22.949,-36.133,-39.062,-77.148,-127.930
1688816007.186,103.516,-41.504,-39.551,-141.602,-166.504
1688816007.189,49.805,-41.992,-38.086,-111.328,-210.938
1688816007.193,-117.188,-41.992,-40.039,1.465,-20.020
1688816007.197,-187.500,-40.039,-43.457,44.434,155.273
1688816007.201,-9.277,-40.039,-37.598,-78.125,-104.004
1688816007.205,97.656,-38.574,-36.133,-145.508,-239.258
1688816007.209,57.129,-37.109,-37.598,-107.422,-56.641
1688816007.213,-101.074,-38.574,-41.992,-10.742,169.922
1688816007.216,-201.660,-36.133,-40.527,55.176,77.148
1688816007.220,-41.504,-35.645,-29.785,-45.898,-158.203
1688816007.224,87.402,-32.715,-26.855,-122.559,-10.254
1688816007.228,60.059,-31.738,-34.180,-104.492,136.230
1688816007.232,-88.867,-31.250,-40.527,-18.066,-97.656
1688816007.249,-208.496,-30.273,-40.527,60.547,-53.711
1688816007.253,-63.477,-35.645,-39.062,-38.574,57.617
1688816007.257,83.008,-38.086,-34.668,-131.348,-128.906
1688816007.261,65.430,-37.109,-33.203,-112.305,-240.234
1688816007.265,-61.035,-41.016,-39.551,-29.785,-46.875
1688816007.269,-189.453,-35.645,-37.109,63.477,324.707
1688816007.273,-77.148,-29.297,-25.879,-13.672,149.902
1688816007.276,84.961,-33.203,-24.414,-113.281,-188.965
1688816007.280,88.867,-32.227,-22.461,-105.957,-211.914
1688816007.284,-35.156,-30.273,-21.973,-38.086,-1.465
1688816007.288,-191.895,-29.785,-26.855,58.105,55.176
1688816007.292,-91.797,-26.367,-23.438,2.930,-120.605
1688816007.292,87.891,-22.461,-16.602,-93.750,-187.500
1688816007.296,92.773,-24.902,-16.602,-101.074,-99.609
1688816007.300,-13.184,-28.809,-23.438,-53.711,-207.520
1688816007.304,-171.875,-28.320,-28.320,43.945,-130.859
1688816007.308,-115.234,-22.949,-27.344,2.441,43.945
1688816007.312,60.547,-23.926,-26.855,-119.141,-80.566
1688816007.316,93.750,-27.832,-24.414,-134.277,-227.539
1688816007.319,5.859,-32.715,-15.625,-71.777,-204.590
1688816007.323,-178.711,-40.039,-19.531,26.367,104.004
1688816007.327,-161.133,-44.434,-17.090,19.043,506.836
1688816007.331,20.020,-44.434,0.000,-98.633,80.566
1688816007.335,59.570,-52.734,7.324,-128.418,-290.527
1688816007.352,-16.113,-61.523,6.348,-81.055,-134.277
1688816007.356,-177.734,-63.477,6.348,25.391,-5.859
1688816007.360,-195.801,-65.430,7.812,37.109,-7.324
1688816007.364,-19.043,-66.406,14.648,-85.938,-112.793
1688816007.368,50.293,-66.406,17.578,-125.977,-114.258
1688816007.372,-43.945,-71.777,13.672,-80.566,-40.527
1688816007.376,-178.223,-75.684,10.742,0.000,17.090
1688816007.379,-204.590,-80.078,18.066,27.344,150.879
1688816007.383,-72.266,-86.426,27.832,-56.152,243.164
1688816007.387,8.301,-87.402,30.273,-109.375,61.035
1688816007.391,-28.809,-88.867,31.738,-82.031,-205.566
1688816007.395,-160.156,-95.703,28.320,0.000,-152.344
1688816007.382,-213.867,-93.262,23.438,36.133,2.441
1688816007.386,-69.824,-87.402,24.414,-52.734,-117.676
1688816007.390,34.180,-81.055,26.367,-110.840,-245.605
1688816007.394,8.301,-78.125,16.602,-89.355,-211.426
1688816007.398,-142.578,-72.266,5.859,0.488,-111.328
1688816007.402,-237.793,-66.895,9.277,64.453,-26.367
1688816007.406,-75.195,-67.383,14.160,-35.645,-131.836
1688816007.409,59.570,-62.500,16.113,-113.281,-104.004
1688816007.413,38.574,-61.035,10.742,-94.727,-79.102
1688816007.417,-94.238,-65.430,2.441,-13.184,-39.551
1688816007.421,-218.750,-57.617,-0.488,69.336,53.223
1688816007.425,-81.543,-51.270,1.953,4.395,148.926
1688816007.428,70.801,-49.805,6.348,-79.590,305.664
1688816007.432,57.129,-41.016,3.418,-85.938,-7.324
1688816007.436,-62.500,-39.551,-1.465,-10.742,-167.480
1688816007.440,-200.195,-43.945,-2.930,80.078,4.883
1688816007.444,-100.586,-47.363,-2.930,2.441,-118.164
1688816007.448,59.570,-45.898,1.953,-90.332,-219.238
1688816007.452,65.430,-43.945,5.859,-88.867,-88.867
1688816007.455,-35.156,-45.898,5.371,-18.066,219.238
1688816007.459,-186.523,-40.039,-2.930,81.055,132.324
1688816007.463,-104.004,-36.621,-4.883,19.531,-155.762
1688816007.467,79.590,-35.156,0.000,-88.867,-172.852
1688816007.471,87.402,-33.203,-3.906,-87.402,-122.070
1688816007.473,-18.066,-34.668,-13.184,-31.738,-141.113
1688816007.477,-181.641,-36.621,-23.926,62.012,-61.035
1688816007.481,-141.113,-41.504,-22.461,26.855,15.137
1688816007.485,43.945,-40.527,-14.160,-85.938,-75.684
1688816007.489,76.660,-36.133,-15.137,-102.539,-183.105
1688816007.493,-0.977,-40.039,-19.043,-45.410,-156.250
1688816007.497,-161.133,-40.527,-26.855,78.125,101.562
1688816007.500,-141.602,-34.668,-24.414,72.266,253.906
1688816007.504,56.641,-30.273,-16.113,-62.500,-95.703
1688816007.508,106.934,-30.762,-13.672,-102.539,-174.316
1688816007.512,26.855,-34.180,-18.066,-58.594,-11.230
1688816007.516,-153.320,-33.203,-26.855,56.641,-47.852
1688816007.519,-169.434,-30.273,-32.227,60.059,-135.254
1688816007.523,31.250,-28.320,-28.809,-66.406,-81.543
1688816007.527,104.004,-26.367,-20.996,-106.445,-73.242
1688816007.531,39.551,-30.762,-26.855,-73.242,-199.219
1688816007.535,-132.324,-35.645,-37.598,24.902,-188.477
1688816007.539,-186.523,-38.086,-31.738,53.223,27.832
1688816007.543,-6.836,-41.016,-25.391,-49.316,214.355
1688816007.546,81.543,-38.574,-29.785,-104.004,-69.336
1688816007.550,38.086,-36.621,-32.715,-66.895,-223.145
1688816007.554,-118.164,-38.574,-29.785,34.668,-108.398
1688816007.558,-192.871,-37.598,-27.344,65.430,-85.449
1688816007.562,-21.484,-38.574,-22.949,-41.504,-174.805
1688816007.578,83.984,-42.480,-23.438,-103.027,-301.758
1688816007.582,46.875,-47.852,-32.715,-82.031,-264.648
1688816007.586,-96.191,-48.828,-41.504,11.719,-105.957
1688816007.590,-190.918,-40.039,-42.480,73.242,8.789
1688816007.594,-52.246,-42.969,-35.645,-27.344,-31.250
1688816007.598,63.965,-45.898,-30.273,-106.934,87.402
1688816007.602,45.898,-49.316,-35.156,-93.750,369.629
1688816007.605,-89.844,-52.734,-42.480,-22.949,92.285
1688816007.609,-204.590,-51.270,-43.945,39.062,-87.402
1688816007.613,-61.523,-54.199,-39.062,-31.250,138.672
1688816007.617,71.777,-55.664,-36.621,-112.793,151.367
1688816007.621,56.641,-48.828,-41.504,-113.281,-192.383
1688816007.623,-50.781,-52.246,-49.316,-39.551,-125.977
1688816007.627,-187.988,-54.688,-56.152,51.758,130.371
1688816007.631,-86.914,-45.898,-48.828,-11.230,-16.602
1688816007.635,74.219,-41.016,-38.086,-94.727,-130.371
1688816007.639,64.453,-37.598,-34.180,-84.473,-107.422
1688816007.643,-41.504,-39.551,-37.109,-32.227,-1.465
1688816007.647,-181.152,-43.945,-42.969,51.758,68.359
1688816007.650,-113.770,-39.551,-35.645,17.578,-20.996
1688816007.654,61.035,-38.086,-28.809,-84.473,-187.012
1688816007.658,81.543,-39.062,-28.320,-82.520,70.312
1688816007.662,-7.324,-36.621,-34.668,-22.949,72.266
1688816007.666,-160.645,-41.504,-40.527,66.895,-103.516
1688816007.668,-118.164,-40.039,-33.203,40.039,-29.297
1688816007.672,64.453,-32.715,-26.855,-76.660,-182.617
1688816007.676,94.727,-37.109,-30.273,-108.398,-276.855
1688816007.680,14.160,-36.621,-31.738,-54.199,-174.805
1688816007.684,-149.902,-30.273,-33.203,55.176,59.082
1688816007.688,-139.160,-25.879,-27.344,53.223,243.652
1688816007.692,50.781,-24.902,-18.555,-58.594,60.059
1688816007.695,100.098,-24.414,-24.902,-102.051,-214.355
1688816007.699,32.715,-25.879,-23.926,-52.246,-62.500
1688816007.703,-122.070,-22.461,-22.461,49.316,163.086
1688816007.707,-145.996,-15.625,-25.391,65.918,-14.648
1688816007.711,37.109,-16.602,-18.555,-46.875,-185.059
1688816007.727,104.980,-26.367,-17.090,-95.215,55.664
1688816007.731,46.875,-27.832,-22.949,-54.688,259.277
1688816007.735,-104.492,-27.832,-34.180,19.043,43.457
1688816007.739,-164.062,-26.367,-39.551,39.062,43.457
1688816007.743,5.859,-22.461,-28.320,-59.570,-7.324
1688816007.747,102.539,-21.484,-25.391,-115.234,-153.320
1688816007.751,60.059,-21.973,-28.809,-89.844,-166.504
1688816007.754,-93.262,-23.926,-35.645,3.906,-23.926
1688816007.758,-175.781,-19.043,-33.203,73.242,318.848
1688816007.762,-1.465,-10.742,-18.555,-23.926,82.031
1688816007.766,108.887,-13.184,-15.625,-102.539,-193.848
1688816007.770,64.941,-20.508,-21.484,-92.285,-139.160
1688816007.757,-81.055,-23.438,-26.855,-10.254,-69.824
1688816007.761,-185.547,-26.855,-32.715,55.664,-42.969
1688816007.765,-45.410,-28.809,-28.809,-35.156,-135.742
1688816007.769,82.031,-33.691,-22.461,-117.676,-190.918
1688816007.773,69.824,-33.203,-24.414,-106.934,-165.527
1688816007.777,-55.176,-29.297,-26.855,-26.367,-14.648
1688816007.781,-185.059,-28.809,-31.250,61.035,124.512
1688816007.784,-57.129,-27.344,-33.203,-11.719,87.891
1688816007.788,94.727,-27.344,-24.902,-109.863,-28.320
1688816007.792,84.473,-24.414,-20.996,-100.098,-79.102
1688816007.796,-22.461,-22.949,-27.344,-23.926,-85.938
1688816007.800,-163.574,-25.879,-29.785,72.754,208.008
1688816007.804,-71.777,-22.949,-22.461,20.020,359.863
1688816007.808,89.355,-18.555,-18.555,-89.844,-52.734
1688816007.812,92.773,-20.508,-19.531,-92.285,-256.836
1688816007.816,-0.977,-17.090,-20.508,-23.438,48.340
1688816007.820,-147.461,-10.254,-22.461,76.172,193.359
1688816007.824,-86.426,-13.184,-20.996,37.598,-2.930
1688816007.828,85.938,-16.602,-14.648,-81.543,-52.734
1688816007.831,100.098,-20.996,-16.602,-100.098,148.438
1688816007.835,7.324,-26.855,-21.973,-48.340,39.062
1688816007.839,-150.391,-33.203,-22.949,39.551,-112.305
1688816007.843,-119.629,-32.227,-17.578,16.113,-41.016
1688816007.847,57.129,-29.785,-11.719,-93.750,-153.320
1688816007.848,98.145,-27.344,-12.207,-134.277,-262.207
1688816007.852,27.832,-29.785,-14.648,-96.191,-197.266
1688816007.856,-133.789,-35.156,-19.531,19.531,1.465
1688816007.860,-131.836,-33.691,-18.066,19.043,65.430
1688816007.864,43.945,-27.832,-12.207,-90.820,-129.395
1688816007.868,93.750,-28.809,-13.184,-118.652,-229.004
1688816007.872,30.762,-32.227,-17.090,-86.914,16.602
1688816007.875,-127.930,-33.691,-28.320,10.742,312.500
1688816007.879,-149.902,-31.738,-31.738,28.320,92.773
1688816007.883,31.738,-31.250,-20.996,-84.473,-157.227
1688816007.887,103.516,-31.250,-14.648,-118.652,-83.008
1688816007.891,53.223,-23.926,-17.090,-83.984,-109.863
1688816007.893,-99.121,-17.578,-27.832,5.859,-143.555
1688816007.897,-159.180,-15.137,-26.367,41.016,-44.922
1688816007.901,10.742,-13.672,-16.602,-58.594,-82.520
1688816007.905,106.934,-14.648,-17.090,-110.352,-231.934
1688816007.909,66.895,-14.160,-18.066,-83.008,-281.250
1688816007.913,-81.543,-20.996,-20.996,12.207,-77.148
1688816007.917,-166.016,-25.391,-20.996,69.336,398.438
1688816007.920,-5.859,-19.043,-9.277,-29.297,207.520
1688816007.924,103.027,-21.973,-8.301,-96.191,-296.387
1688816007.928,80.078,-20.996,-10.742,-74.707,-252.930
1688816007.932,-47.363,-15.137,-14.648,7.324,-6.836
1688816007.936,-167.969,-16.602,-20.996,78.613,10.742
1688816007.937,-30.762,-15.625,-17.090,-7.812,-136.230
1688816007.941,107.422,-16.113,-14.648,-103.027,-242.676
1688816007.945,88.379,-16.113,-18.066,-93.262,-170.898
1688816007.949,-33.203,-9.766,-20.508,-15.137,-75.684
1688816007.953,-161.621,-11.719,-20.996,54.199,6.348
1688816007.957,-56.152,-14.160,-14.160,-14.160,141.113
1688816007.961,89.844,-14.160,-14.648,-93.750,58.105
1688816007.964,101.562,-16.602,-19.043,-103.027,-55.176
1688816007.968,-10.742,-17.090,-22.949,-52.734,-18.066
1688816007.972,-171.387,-19.531,-27.344,51.758,210.938
1688816007.976,-81.543,-18.066,-17.578,17.578,418.457
1688816007.980,88.867,-16.113,-13.672,-88.867,23.438
1688816008.013,98.633,-20.508,-20.020,-98.145,-211.426
1688816008.017,-4.883,-24.414,-24.902,-40.527,-70.801
1688816008.021,-155.762,-25.879,-31.738,48.828,38.574
1688816008.025,-89.844,-25.879,-28.320,13.184,-51.270
1688816008.029,80.566,-26.855,-22.949,-96.191,-176.758
1688816008.033,99.609,-31.250,-27.344,-103.516,-92.285
1688816008.037,12.207,-33.203,-31.738,-50.781,-36.621
1688816008.040,-144.043,-29.297,-35.156,48.828,10.254
1688816008.044,-116.211,-26.855,-26.367,42.480,10.742
1688816008.048,67.383,-24.414,-12.207,-56.152,-0.977
1688816008.052,108.398,-22.461,-11.719,-83.008,-53.223
1688816008.056,31.738,-27.344,-19.531,-48.340,-172.852
1688816008.034,-123.047,-28.809,-23.438,55.664,-23.438
1688816008.038,-128.906,-26.855,-10.742,66.406,250.000
1688816008.042,57.129,-21.484,-0.977,-47.363,-80.566
1688816008.046,131.348,-20.020,-6.836,-90.332,-238.770
1688816008.050,68.359,-23.438,-11.719,-58.105,-115.234
1688816008.054,-104.004,-24.414,-18.066,38.574,21.484
1688816008.058,-147.461,-24.414,-21.484,56.152,98.145
1688816008.061,27.832,-20.996,-11.719,-53.711,-88.379
1688816008.065,109.863,-20.020,-13.184,-95.215,-82.520
1688816008.069,63.965,-23.438,-14.648,-65.918,-62.012
1688816008.073,-86.426,-28.320,-18.066,26.367,-139.648
1688816008.077,-153.809,-33.691,-25.879,69.824,-62.988
1688816008.087,9.277,-35.645,-24.414,-39.551,110.840
1688816008.091,110.352,-31.250,-17.090,-101.074,-27.832
1688816008.095,67.383,-31.250,-15.137,-81.543,-190.918
1688816008.099,-81.055,-36.133,-19.531,0.000,-97.168
1688816008.103,-172.852,-38.574,-21.484,68.848,201.172
1688816008.107,-23.438,-37.598,-12.207,-12.695,501.465
1688816008.111,102.051,-31.738,-7.812,-95.703,204.590
1688816008.114,83.984,-33.691,-11.719,-87.402,-242.676
1688816008.118,-50.781,-35.645,-15.137,-3.418,-145.020
1688816008.122,-176.270,-35.156,-22.949,62.500,-15.625
1688816008.126,-52.246,-36.133,-20.020,-22.949,-145.996
1688816008.130,86.914,-39.551,-15.137,-96.680,-187.012
1688816008.134,67.871,-41.016,-17.578,-84.473,37.598
1688816008.138,-65.918,-37.598,-22.461,-24.414,-68.848
1688816008.142,-189.453,-39.551,-28.320,48.828,-66.895
1688816008.146,-71.777,-35.156,-21.973,-12.207,-7.812
1688816008.150,78.613,-31.250,-16.113,-92.285,-165.039
1688816008.154,77.637,-37.109,-23.926,-92.285,-214.844
1688816008.158,-23.438,-41.504,-31.250,-37.109,-92.285
1688816008.161,-165.527,-40.039,-33.203,61.523,153.809
1688816008.165,-94.238,-36.133,-26.367,11.230,193.359
1688816008.169,67.871,-34.180,-15.137,-102.051,-54.199
1688816008.173,79.590,-35.156,-14.648,-109.863,-184.082
1688816008.177,-10.254,-43.457,-23.926,-51.270,-37.598
1688816008.208,-170.898,-50.781,-33.203,49.805,68.359
1688816008.212,-125.977,-48.340,-26.855,29.297,-110.840
1688816008.216,57.617,-45.410,-16.113,-75.684,-133.789
1688816008.220,95.703,-41.992,-19.043,-102.539,-68.848
1688816008.224,13.184,-39.551,-23.926,-61.035,-102.539
1688816008.228,-150.391,-41.504,-29.785,38.574,-20.020
1688816008.232,-127.441,-36.133,-24.414,35.645,86.426
1688816008.235,50.293,-32.715,-16.113,-63.477,236.816
1688816008.239,92.285,-29.785,-19.043,-92.285,132.324
1688816008.243,29.297,-24.414,-18.555,-53.711,-166.992
1688816008.247,-125.000,-26.367,-23.438,41.504,-103.516
1688816008.251,-134.766,-25.391,-22.461,43.457,-24.902
1688816008.222,39.551,-25.391,-13.184,-70.312,-153.320
1688816008.226,105.469,-25.391,-8.301,-104.492,-218.262
1688816008.230,57.129,-24.414,-10.254,-64.453,-153.809
1688816008.234,-103.516,-26.367,-18.555,21.973,-77.148
1688816008.238,-154.785,-27.344,-21.484,45.898,-14.160
1688816008.242,19.531,-24.414,-14.160,-56.641,-54.199
1688816008.246,103.516,-19.531,-12.207,-98.145,-79.590
1688816008.249,55.664,-18.066,-13.672,-66.895,-63.965
1688816008.253,-97.168,-23.438,-21.973,8.789,-43.945
1688816008.257,-173.340,-24.414,-30.762,51.758,112.793
1688816008.261,-4.883,-24.414,-23.438,-41.016,83.984
1688816008.265,95.703,-26.367,-23.926,-109.863,-91.797
1688816008.313,52.734,-25.879,-29.785,-93.750,-190.430
1688816008.317,-80.566,-28.320,-35.645,-8.789,-130.859
1688816008.321,-174.316,-34.668,-34.180,73.730,244.141
1688816008.325,-32.715,-32.227,-20.508,-6.836,366.699
1688816008.329,89.844,-29.297,-20.996,-96.191,-44.922
1688816008.333,69.336,-30.273,-28.320,-78.125,-115.234
1688816008.337,-47.363,-29.785,-30.762,6.348,136.719
1688816008.340,-162.598,-25.879,-36.621,72.754,55.664
1688816008.344,-37.598,-21.484,-30.762,-17.578,-181.641
1688816008.348,84.961,-24.902,-26.855,-97.168,-158.203
1688816008.352,67.871,-28.809,-32.715,-85.938,14.160
1688816008.356,-35.156,-25.879,-36.133,-26.855,-46.387
1688816008.320,-167.969,-26.855,-41.504,52.734,-52.246
1688816008.324,-69.336,-31.738,-35.156,-9.277,-87.402
1688816008.328,93.750,-30.762,-24.902,-84.961,-182.129
1688816008.332,92.773,-29.785,-20.020,-80.078,-188.477
1688816008.336,-24.902,-28.320,-25.391,-29.785,-125.488
1688816008.340,-172.852,-28.320,-36.133,57.129,64.941
1688816008.344,-111.328,-30.762,-38.574,8.789,64.941
1688816008.347,57.617,-27.344,-30.762,-88.379,-172.363
1688816008.351,71.777,-33.691,-32.227,-94.238,-228.516
1688816008.355,-20.996,-39.062,-37.598,-46.387,62.012
1688816008.359,-167.480,-33.203,-40.527,46.875,103.516
1688816008.363,-127.930,-33.203,-38.574,18.555,27.344
1688816008.373,37.109,-37.598,-26.367,-84.961,-1.465
1688816008.377,79.102,-40.527,-22.461,-95.215,-81.055
1688816008.381,20.020,-31.250,-34.668,-63.477,-87.891
1688816008.385,-153.320,-26.855,-45.898,8.789,-0.488
1688816008.389,-169.434,-27.344,-45.898,-5.859,11.230
1688816008.393,2.930,-29.785,-45.410,-120.605,202.637
1688816008.397,46.875,-28.809,-51.270,-153.320,392.578
1688816008.400,-22.949,-23.438,-58.594,-128.906,257.324
1688816008.404,-198.242,-11.230,-66.895,-55.176,-8.789
1688816008.408,-241.211,-0.488,-76.172,-54.688,-28.809
1688816008.412,-77.637,-5.859,-83.496,-180.176,-123.047
1688816008.416,-12.207,0.977,-80.078,-221.680,-312.988
1688816008.418,-62.500,17.578,-77.637,-187.988,-214.844
1688816008.422,-223.633,21.484,-92.285,-116.211,-31.738
1688816008.426,-290.527,23.926,-105.957,-108.398,-4.395
1688816008.430,-129.395,31.738,-94.238,-211.914,-114.258
1688816008.434,-42.480,42.480,-94.727,-259.766,-158.203
1688816008.438,-83.008,46.875,-105.957,-232.910,-134.277
1688816008.442,-221.191,48.340,-110.840,-155.273,-64.453
1688816008.445,-291.992,47.363,-113.770,-117.188,-44.434
1688816008.449,-121.094,41.992,-102.051,-195.312,-34.668
1688816008.453,-11.230,40.527,-95.215,-245.605,197.754
1688816008.457,-33.203,45.410,-99.609,-222.168,-93.262
1688816008.461,-145.996,40.039,-107.910,-129.883,-217.773
1688816008.464,-244.141,29.297,-109.863,-51.270,28.320
1688816008.468,-88.379,24.902,-101.562,-115.234,-106.445
1688816008.472,55.176,20.508,-99.609,-183.105,-242.676
1688816008.476,46.875,11.230,-99.121,-152.832,-178.223
1688816008.480,-58.594,0.000,-102.051,-55.664,4.395
1688816008.484,-165.039,-1.953,-101.562,36.621,182.617
1688816008.488,-37.109,-3.906,-84.961,-10.254,96.680
1688816008.491,104.980,-11.230,-78.125,-94.727,-125.000
1688816008.495,105.957,-15.137,-75.195,-89.355,80.566
1688816008.499,22.949,-18.066,-71.289,-14.648,135.742
1688816008.503,-110.840,-28.320,-73.730,66.406,0.977
1688816008.507,-23.926,-33.203,-61.523,14.648,-26.855
1688816008.507,141.113,-36.133,-44.922,-64.453,-60.059
1688816008.511,158.691,-35.156,-42.969,-56.641,-176.270
1688816008.515,74.219,-34.180,-48.340,-8.301,-141.602
1688816008.519,-82.520,-36.621,-47.852,84.473,17.090
1688816008.523,-25.879,-36.133,-38.086,53.711,-41.016
1688816008.527,138.184,-43.945,-35.156,-48.828,-152.832
1688816008.531,160.645,-41.992,-36.621,-61.035,-184.570
1688816008.534,78.613,-40.039,-37.598,-11.719,16.113
1688816008.538,-77.148,-46.875,-39.551,70.801,437.012
1688816008.542,-55.176,-47.852,-35.156,11.230,157.715
1688816008.546,108.398,-49.805,-30.273,-128.418,-208.008
1688816008.550,134.277,-53.711,-33.691,-165.527,-56.641
1688816008.568,61.035,-52.246,-35.645,-133.301,-75.195
1688816008.572,-88.867,-54.199,-40.039,-31.250,-127.441
1688816008.576,-92.285,-52.734,-32.715,-6.348,-66.895
1688816008.580,94.727,-45.410,-14.160,-95.703,-145.508
1688816008.584,159.668,-40.527,-10.742,-115.234,-195.801
1688816008.588,84.473,-41.016,-14.160,-65.918,-132.324
1688816008.592,-68.848,-43.945,-16.602,30.273,51.270
1688816008.595,-95.215,-46.875,-16.602,56.641,148.926
1688816008.599,87.891,-46.875,-14.160,-42.969,-72.266
1688816008.603,165.039,-44.922,-15.137,-81.543,-214.844
1688816008.607,112.793,-46.387,-18.555,-59.082,-167.480
1688816008.611,-32.715,-44.434,-20.508,41.504,136.230
1688816008.599,-83.496,-37.598,-17.578,90.332,78.613
1688816008.603,84.961,-35.645,-8.789,-11.719,-199.707
1688816008.607,171.387,-36.621,-6.836,-59.570,-181.152
1688816008.611,129.395,-32.715,-10.742,-32.227,-41.992
1688816008.615,-15.625,-31.250,-20.508,46.875,-73.730
1688816008.619,-99.609,-28.320,-23.438,105.957,20.020
1688816008.623,43.945,-26.855,-19.531,22.949,169.434
1688816008.626,141.602,-31.250,-19.531,-48.828,-35.645
1688816008.630,117.676,-34.668,-23.438,-40.527,-193.359
1688816008.634,-12.695,-38.574,-27.832,22.949,-64.941
1688816008.638,-141.113,-41.992,-36.133,85.938,157.715
1688816008.642,-14.160,-43.945,-31.250,12.207,439.453
1688816008.644,121.582,-40.527,-24.902,-64.941,115.234
1688816008.648,102.051,-41.504,-35.156,-65.430,-206.055
1688816008.652,-15.625,-48.828,-43.945,-1.465,-50.781
1688816008.656,-153.320,-50.781,-45.410,83.984,-36.133
1688816008.660,-50.781,-45.898,-35.156,17.090,-197.754
1688816008.664,95.703,-44.434,-30.273,-73.242,-188.477
1688816008.668,86.426,-47.852,-38.574,-62.988,56.641
1688816008.671,-15.137,-45.410,-47.363,0.488,-7.324
1688816008.675,-145.020,-41.992,-47.852,91.797,-156.738
1688816008.679,-68.359,-42.969,-42.480,46.387,-100.098
1688816008.683,79.102,-42.969,-37.598,-53.711,-110.352
1688816008.687,96.191,-41.992,-40.039,-46.387,-231.934
1688816008.691,21.484,-37.109,-40.039,18.066,-252.930
1688816008.695,-133.789,-34.180,-44.434,85.449,-8.789
1688816008.699,-94.727,-28.320,-43.945,25.391,-15.625
1688816008.703,81.055,-24.902,-37.109,-71.289,-229.004
1688816008.707,98.633,-30.762,-42.480,-70.312,-235.352
1688816008.711,8.789,-31.738,-48.340,-26.855,28.809
1688816008.715,-137.695,-29.297,-51.758,48.828,331.543
1688816008.718,-109.863,-27.344,-49.805,20.020,71.777
1688816008.722,60.059,-26.855,-40.039,-82.520,-165.039
1688816008.726,103.027,-31.250,-41.992,-99.609,-25.391
1688816008.730,50.293,-26.855,-47.852,-54.688,-24.414
1688816008.734,-110.840,-24.414,-49.316,39.062,-50.293
1688816008.748,-125.000,-27.832,-42.480,45.410,-27.832
1688816008.752,57.129,-28.809,-33.203,-44.434,33.203
1688816008.756,120.605,-27.344,-29.785,-70.312,-79.102
1688816008.760,62.988,-30.273,-35.156,-40.527,-171.875
1688816008.764,-93.750,-34.180,-43.945,48.340,48.828
1688816008.768,-143.066,-34.668,-42.480,73.730,409.180
1688816008.772,22.949,-26.367,-35.645,-25.391,446.289
1688816008.775,109.863,-19.043,-32.715,-77.148,-25.391
1688816008.779,63.965,-22.461,-38.086,-59.082,-167.969
1688816008.783,-86.914,-24.902,-44.434,22.949,-16.602
1688816008.787,-163.086,-24.902,-42.969,65.430,14.160
1688816008.791,-7.812,-25.391,-32.715,-23.926,-152.832
1688816008.793,94.238,-27.832,-29.297,-78.613,-266.602
1688816008.797,68.848,-25.879,-30.762,-52.246,-164.062
1688816008.801,-57.129,-24.902,-28.320,29.785,-83.496
1688816008.805,-154.785,-27.344,-33.691,78.613,-62.988
1688816008.809,-9.277,-26.367,-25.879,-20.996,-112.305
1688816008.813,107.910,-22.949,-20.508,-93.750,-119.629
1688816008.817,87.402,-23.926,-25.879,-66.406,-115.234
1688816008.820,-36.133,-26.855,-23.438,16.113,-74.707
1688816008.824,-155.762,-27.832,-19.043,94.727,150.879
1688816008.828,-26.855,-25.879,-10.254,32.227,427.734
1688816008.832,111.816,-23.926,-11.719,-56.641,114.746
1688816008.836,101.074,-20.996,-15.625,-55.664,-254.395
1688816008.853,-2.930,-19.531,-14.160,16.602,-89.844
1688816008.857,-151.367,-23.438,-25.391,79.102,41.504
1688816008.861,-65.430,-22.461,-22.949,20.020,-120.605
1688816008.865,92.773,-14.648,-8.789,-57.617,-178.223
1688816008.869,99.121,-8.301,-10.254,-69.824,-131.836
1688816008.873,2.930,-8.789,-15.625,-13.184,-59.570
1688816008.877,-139.160,-7.324,-16.113,74.707,131.836
1688816008.880,-72.266,-4.395,-14.648,20.020,25.879
1688816008.884,71.289,-5.371,-16.113,-77.637,113.770
1688816008.888,80.566,-3.418,-20.020,-75.684,59.082
1688816008.892,0.977,-5.371,-20.020,-32.715,-204.590
1688816008.896,-152.344,-10.742,-25.879,35.645,17.090
1688816008.883,-108.398,-11.230,-27.832,15.625,209.961
1688816008.887,75.195,-11.719,-10.254,-62.500,-87.402
1688816008.891,108.887,-23.438,1.953,-81.055,-202.148
1688816008.895,28.320,-30.762,-0.488,-49.805,-98.633
1688816008.899,-138.184,-36.621,-2.930,59.082,-51.758
1688816008.903,-136.230,-42.480,8.301,54.199,1.465
1688816008.907,19.531,-43.945,19.043,-67.871,-100.098
1688816008.910,74.707,-50.781,21.973,-90.820,-108.887
1688816008.914,35.156,-53.711,21.973,-47.363,-101.562
1688816008.918,-157.227,-62.500,22.949,33.203,-43.945
1688816008.922,-188.477,-66.406,28.320,51.270,-5.859
1688816008.926,-0.488,-64.941,41.016,-44.922,59.082
1688816008.928,58.594,-68.848,42.969,-93.750,185.547
1688816008.932,-0.488,-76.172,31.250,-73.242,-98.145
1688816008.936,-142.578,-74.219,23.926,13.672,-200.195
1688816008.940,-194.336,-73.242,31.250,47.363,75.684
1688816008.944,-45.410,-73.730,38.086,-62.500,-43.945
1688816008.948,35.156,-75.195,41.504,-117.188,-240.234
1688816008.952,1.953,-77.148,40.039,-83.008,-121.094
1688816008.955,-142.578,-72.266,31.250,3.418,148.438
1688816008.959,-228.027,-64.453,28.809,43.945,83.008
1688816008.963,-66.406,-63.965,31.738,-41.504,-182.129
1688816008.967,48.828,-64.453,25.879,-84.961,-195.801
1688816008.971,32.715,-60.547,26.367,-66.406,-132.324
1688816008.974,-93.750,-58.594,26.855,-2.930,-116.211
1688816008.978,-198.730,-54.688,20.020,56.641,-67.383
1688816008.982,-58.105,-53.711,21.973,-23.926,-45.898
1688816008.986,57.617,-50.781,27.344,-89.844,-30.273
1688816008.990,42.969,-44.922,24.902,-80.078,-217.773
1688816008.994,-67.871,-39.551,17.578,-3.418,-201.660
1688816008.998,-177.246,-35.645,11.719,82.520,198.242
1688816009.001,-51.270,-37.598,17.578,6.348,251.465
1688816009.005,83.008,-38.574,20.508,-84.961,-136.230
1688816009.009,73.242,-34.180,13.672,-77.148,-226.562
1688816009.013,-27.832,-29.785,9.277,-5.371,-16.602
1688816009.017,-172.363,-37.109,0.488,76.660,137.695
1688816009.018,-80.078,-38.086,1.465,17.090,-11.719
1688816009.022,87.891,-30.762,5.371,-58.594,-131.836
1688816009.026,89.355,-30.762,-5.859,-63.965,-148.438
1688816009.030,-16.602,-31.738,-14.648,-28.320,-39.551
1688816009.034,-172.852,-31.738,-17.578,61.523,45.410
1688816009.038,-112.305,-35.156,-17.090,20.508,45.898
1688816009.042,56.641,-43.457,-16.602,-76.172,193.848
1688816009.045,81.543,-44.434,-21.973,-88.379,120.117
1688816009.049,4.395,-41.992,-25.391,-51.270,-125.000
1688816009.053,-167.969,-42.480,-24.902,42.480,-46.387
1688816009.057,-147.949,-36.621,-17.090,28.320,15.137
1688816009.061,35.645,-30.762,-9.277,-69.336,-102.051
1688816009.063,74.219,-25.879,-10.254,-107.910,-180.176
1688816009.067,7.812,-30.273,-11.719,-61.523,-118.652
1688816009.071,-157.227,-37.109,-17.578,51.270,8.789
1688816009.075,-165.039,-37.109,-18.066,34.668,-19.043
1688816009.079,23.926,-35.645,-13.184,-70.801,-168.457
1688816009.083,96.680,-31.738,-8.789,-90.332,-86.426
1688816009.087,40.527,-27.832,-7.324,-42.480,62.500
1688816009.090,-116.699,-30.273,-12.207,47.363,-7.324
1688816009.094,-147.461,-33.203,-16.602,38.086,-42.969
1688816009.098,6.348,-35.156,-11.719,-63.477,115.723
1688816009.102,72.266,-37.598,-11.719,-99.609,178.711
1688816009.106,38.086,-36.133,-17.090,-75.684,-134.277
1688816009.123,-118.164,-43.945,-24.902,36.133,-138.184
1688816009.127,-181.641,-42.969,-30.762,70.312,173.828
1688816009.131,-3.906,-31.738,-30.762,-55.664,107.910
1688816009.135,88.867,-32.715,-27.344,-83.984,-243.652
1688816009.139,46.387,-35.645,-24.414,-66.895,-217.773
1688816009.143,-98.633,-36.133,-31.738,-18.555,115.723
1688816009.147,-192.383,-34.180,-34.180,44.434,167.480
1688816009.150,-41.504,-32.715,-24.414,-39.062,-35.156
1688816009.154,86.426,-33.691,-25.879,-101.074,-118.164
1688816009.158,62.988,-31.738,-29.785,-74.707,41.992
1688816009.162,-80.566,-31.738,-38.086,-7.324,11.719
1688816009.166,-187.988,-37.109,-45.410,55.664,-129.395
1688816009.167,-37.109,-37.109,-38.086,-21.973,-118.652
1688816009.171,96.191,-37.598,-36.621,-83.008,2.441
1688816009.175,74.219,-34.180,-43.457,-67.383,-170.898
1688816009.179,-43.457,-34.180,-54.688,-5.371,-145.996
1688816009.183,-171.387,-37.109,-57.129,73.242,-12.695
1688816009.187,-57.129,-33.203,-45.898,15.625,-55.176
1688816009.191,97.168,-31.250,-41.992,-59.570,-75.684
1688816009.194,98.145,-29.297,-45.898,-52.246,-181.641
1688816009.198,-5.859,-27.344,-52.734,18.066,-27.832
1688816009.202,-151.855,-31.250,-61.523,114.746,312.500
1688816009.206,-80.566,-32.227,-58.594,63.477,134.766
1688816009.210,76.660,-27.832,-50.781,-28.809,-236.328
1688816009.214,96.191,-36.621,-58.105,-25.391,-100.098
1688816009.218,0.000,-41.992,-68.359,38.574,170.410
1688816009.222,-176.758,-35.645,-74.707,127.441,24.414
1688816009.226,-129.883,-37.598,-72.754,94.238,-55.176
1688816009.230,33.203,-42.969,-65.430,-3.418,-105.957
1688816009.234,52.246,-45.898,-71.777,-23.926,-67.871
1688816009.238,-24.902,-41.992,-77.637,25.391,-20.996
1688816009.241,-186.523,-39.062,-88.867,111.816,16.113
1688816009.245,-168.457,-40.527,-88.867,98.145,244.141
1688816009.249,4.395,-44.434,-82.031,1.953,9.766
1688816009.253,56.152,-44.434,-84.473,-14.648,-332.520
1688816009.257,-4.883,-37.109,-79.590,35.156,-248.535
1688816009.259,-175.293,-41.504,-82.520,123.047,2.441
1688816009.263,-183.594,-40.527,-82.520,127.441,99.609
1688816009.267,8.789,-34.668,-70.312,32.715,-147.461
1688816009.271,74.219,-38.574,-67.871,-11.230,-178.223
1688816009.275,5.859,-36.133,-73.242,11.230,-14.648
1688816009.279,-157.227,-36.621,-83.496,109.375,27.832
1688816009.283,-186.035,-43.457,-89.355,134.277,37.109
1688816009.286,6.348,-43.945,-81.055,20.020,49.805
1688816009.290,92.773,-41.016,-71.289,-12.695,98.145
1688816009.294,46.387,-36.133,-67.871,27.344,-53.711
1688816009.298,-102.539,-44.434,-71.289,106.445,-94.238
1688816009.302,-167.969,-48.828,-67.871,147.949,97.168
1688816009.303,-5.859,-42.969,-56.641,52.246,-16.602
1688816009.307,89.844,-40.039,-53.223,2.930,-245.605
1688816009.311,55.176,-38.086,-51.270,27.832,-183.594
1688816009.315,-82.031,-43.457,-55.176,106.934,8.301
1688816009.319,-177.246,-43.457,-60.547,157.715,37.109
1688816009.323,-25.879,-36.133,-53.223,60.547,-56.641
1688816009.327,81.055,-35.156,-48.828,1.465,-87.402
1688816009.330,47.363,-38.086,-43.945,32.715,183.105
1688816009.334,-99.121,-42.969,-46.387,89.844,186.523
1688816009.338,-218.750,-43.457,-50.293,140.137,-30.273
1688816009.342,-85.449,-37.598,-45.410,77.637,-61.035
1688816009.346,52.246,-38.574,-40.527,8.789,-107.422
1688816009.348,48.340,-41.504,-36.621,13.672,-207.031
1688816009.352,-70.801,-42.480,-44.922,72.754,-215.820
1688816009.356,-208.496,-45.410,-55.176,139.648,-63.965
1688816009.360,-85.938,-44.434,-46.875,65.918,-93.262
1688816009.364,67.871,-42.969,-36.621,-18.555,-249.512
1688816009.368,66.406,-40.527,-38.574,-16.113,-216.797
1688816009.372,-34.668,-44.922,-42.480,43.457,138.672
1688816009.375,-188.477,-50.293,-45.898,130.859,465.820
1688816009.379,-102.051,-43.945,-37.598,86.914,130.859
1688816009.383,68.359,-35.156,-30.273,-4.883,-128.906
1688816009.387,80.566,-31.250,-27.344,-5.371,-5.859
1688816009.391,-6.348,-35.156,-31.250,44.922,10.254
1688816009.392,-164.551,-37.109,-36.133,117.188,-24.902
1688816009.396,-117.188,-38.086,-28.809,79.590,-78.613
1688816009.400,52.734,-41.504,-31.250,-18.066,-94.238
1688816009.404,70.312,-32.715,-34.180,-32.227,-174.805
1688816009.408,-15.625,-33.691,-33.203,16.113,-253.418
1688816009.412,-152.344,-38.574,-35.156,104.980,-68.359
1688816009.416,-104.004,-30.273,-32.227,97.168,237.305
1688816009.419,39.062,-27.344,-27.344,-6.836,107.910
1688816009.423,67.871,-30.273,-27.832,-40.527,-207.031
1688816009.427,14.648,-32.227,-32.227,5.859,-187.500
1688816009.431,-144.531,-26.855,-32.715,101.562,104.492
1688816009.435,-149.414,-20.996,-27.344,95.215,83.496
1688816009.438,18.066,-21.484,-18.066,-0.977,-135.742
1688816009.442,66.895,-28.809,-14.648,-24.902,-199.219
1688816009.446,-2.930,-31.738,-15.137,-4.395,-134.277
1688816009.450,-152.832,-25.391,-23.438,81.543,-89.355
1688816009.454,-181.641,-31.738,-23.438,108.398,-18.066
1688816009.458,-15.625,-42.969,-15.625,3.418,74.219
1688816009.462,63.477,-39.551,-13.672,-38.086,83.984
1688816009.465,20.508,-30.762,-14.160,-6.836,-83.496
1688816009.469,-118.652,-36.133,-20.020,68.359,-125.000
1688816009.473,-180.176,-36.133,-25.879,101.562,125.000
1688816009.477,-36.133,-35.645,-18.555,20.020,319.336
1688816009.481,54.688,-33.691,-17.578,-30.273,-36.621
1688816009.498,24.414,-28.320,-19.531,-6.836,-250.000
1688816009.502,-110.840,-34.180,-24.414,53.223,-18.066
1688816009.506,-197.266,-30.762,-20.996,85.449,-25.391
1688816009.510,-48.340,-14.160,-1.953,14.160,-213.379
1688816009.514,71.289,-21.484,4.395,-38.086,-270.508
1688816009.518,49.805,-29.785,1.953,-17.578,-156.250
1688816009.522,-79.102,-30.273,0.977,46.387,-42.480
1688816009.525,-184.570,-30.762,-0.488,107.910,-60.547
1688816009.529,-62.012,-25.879,5.859,40.039,-129.883
1688816009.533,64.941,-31.738,9.277,-32.715,7.324
1688816009.537,56.152,-36.133,3.906,-39.062,-42.480
1688816009.541,-60.547,-28.809,5.859,12.695,-133.789
1688816009.542,-195.312,-26.367,9.277,81.543,48.340
1688816009.546,-91.309,-24.902,12.207,25.879,109.863
1688816009.550,52.246,-24.414,16.113,-59.570,-79.102
1688816009.554,55.176,-24.414,13.672,-61.035,-169.922
1688816009.558,-32.715,-20.020,14.648,-4.395,-82.520
1688816009.562,-165.527,-18.555,11.230,74.219,38.574
1688816009.566,-94.238,-17.090,14.648,41.504,54.688
1688816009.569,57.129,-13.184,21.484,-48.828,-155.762
1688816009.573,76.172,-20.020,16.602,-56.152,-28.320
1688816009.577,-5.371,-24.902,11.230,-9.766,339.844
1688816009.581,-153.809,-20.020,7.324,60.059,107.910
1688816009.585,-117.188,-17.090,9.277,29.785,-86.426
1688816009.589,38.574,-17.578,19.043,-62.988,-41.504
1688816009.593,62.988,-15.137,20.996,-67.871,-148.438
1688816009.597,-3.418,-18.066,15.625,-36.133,-194.336
1688816009.601,-153.320,-23.926,8.301,23.926,-28.320
1688816009.605,-148.438,-21.973,8.789,10.254,134.766
1688816009.609,12.695,-19.043,17.090,-83.984,25.879
1688816009.613,57.129,-20.508,17.090,-107.910,-104.492
1688816009.616,-1.465,-19.531,15.137,-65.918,-81.543
1688816009.620,-149.902,-23.438,12.207,31.738,263.672
1688816009.624,-163.086,-20.996,7.812,31.738,224.609
1688816009.628,5.371,-15.625,14.160,-62.500,-107.910
1688816009.632,62.988,-20.020,20.020,-82.031,-192.383
1688816009.633,9.766,-21.484,13.184,-54.688,-214.844
1688816009.637,-126.465,-21.484,0.977,16.602,-132.324
1688816009.641,-155.273,-15.625,4.883,37.109,-25.391
1688816009.645,-3.418,-15.625,9.766,-42.969,-52.734
1688816009.649,51.758,-26.367,-0.488,-73.730,-141.602
1688816009.653,-2.441,-30.273,-5.371,-51.270,-149.414
1688816009.657,-144.043,-33.691,-10.742,7.324,-12.695
1688816009.660,-189.453,-35.156,-10.742,40.039,127.441
1688816009.664,-31.738,-31.738,-2.441,-20.020,263.672
1688816009.668,42.969,-26.855,-4.395,-61.523,44.434
1688816009.672,8.789,-26.367,-8.301,-59.082,-148.926
1688816009.676,-116.211,-31.250,-11.719,-0.977,75.684
1688816009.678,-190.430,-24.902,-12.207,48.828,102.539
1688816009.682,-48.340,-17.578,-6.836,-23.926,-130.859
1688816009.686,37.109,-21.973,-5.859,-72.266,-202.148
1688816009.690,12.695,-22.461,-4.883,-42.969,-123.047
1688816009.694,-91.309,-19.043,-8.301,-1.953,-13.672
1688816009.698,-188.477,-21.973,-7.812,32.227,-42.480
1688816009.702,-58.105,-26.855,0.977,-28.320,-41.504
1688816009.705,52.246,-28.320,0.977,-79.102,168.457
1688816009.709,16.113,-23.926,-4.395,-65.430,-17.090
1688816009.713,-83.984,-23.438,-9.766,-12.695,-158.203
1688816009.717,-193.359,-28.320,-11.230,39.062,-35.156
1688816009.721,-92.285,-24.902,-4.883,-2.441,180.176
1688816009.737,34.668,-17.578,-0.977,-62.500,27.344
1688816009.741,24.902,-21.484,-6.348,-64.941,-260.742
1688816009.745,-53.223,-24.414,-10.742,-14.160,-174.316
1688816009.749,-179.688,-23.438,-16.113,44.922,-42.969
1688816009.753,-111.816,-24.414,-16.602,-2.441,-95.703
1688816009.757,28.809,-22.949,-9.766,-63.965,-87.891
1688816009.761,26.367,-21.973,-9.277,-56.152,77.148
1688816009.764,-59.570,-27.832,-16.113,-11.719,117.676
1688816009.768,-178.711,-27.344,-24.414,45.410,-14.160
1688816009.772,-116.699,-24.902,-22.461,7.812,-27.344
1688816009.776,17.578,-35.156,-17.578,-54.199,123.047
1688816009.780,26.367,-35.156,-16.113,-52.734,111.328
1688816009.768,-30.762,-35.156,-16.602,-26.367,-120.117
1688816009.772,-160.645,-42.969,-20.996,54.199,-94.238
1688816009.776,-138.672,-37.598,-16.602,51.270,108.398
1688816009.780,14.160,-32.227,-7.812,-36.133,-44.434
1688816009.784,41.504,-32.715,-8.789,-38.574,-275.879
1688816009.788,-20.020,-32.715,-12.207,-4.883,-87.402
1688816009.792,-143.066,-31.738,-15.625,49.316,143.066
1688816009.795,-132.812,-20.996,-3.418,52.734,9.277
1688816009.799,21.973,-17.090,7.324,-20.508,-133.301
1688816009.803,63.965,-21.484,5.371,-41.992,-63.965
1688816009.807,18.066,-17.090,9.766,-6.348,6.348
1688816009.811,-108.398,-20.508,6.836,63.477,-5.371
1688816009.813,-142.090,-22.461,6.836,69.336,21.484
1688816009.817,14.648,-21.973,10.742,-11.719,-63.477
1688816009.821,80.078,-21.973,11.230,-26.367,135.254
1688816009.825,36.621,-12.695,4.883,-8.301,32.715
1688816009.829,-84.473,-6.836,-2.930,43.457,-153.320
1688816009.833,-142.090,-15.137,-2.441,67.383,65.918
1688816009.837,-4.395,-16.113,4.883,-6.348,97.656
1688816009.840,73.730,-14.160,5.859,-38.574,-154.785
1688816009.844,32.227,-24.414,3.418,-12.695,-194.336
1688816009.848,-91.797,-30.762,-2.930,41.016,74.219
1688816009.852,-162.598,-25.879,-10.742,58.105,106.445
1688816009.856,-27.344,-20.508,-5.371,-17.090,-39.551
1688816009.874,64.453,-20.996,2.441,-53.223,-248.535
1688816009.878,36.621,-20.996,0.488,-30.273,-77.148
1688816009.882,-64.453,-19.531,-5.859,21.484,287.598
1688816009.886,-154.297,-20.508,-12.695,51.758,-40.039
1688816009.890,-41.992,-19.531,-8.301,-6.836,-149.414
1688816009.894,63.965,-18.555,-0.488,-41.992,85.938
1688816009.898,44.434,-18.066,-5.371,-33.691,-32.715
1688816009.901,-49.805,-15.137,-14.160,-0.977,-159.180
1688816009.905,-165.039,-20.996,-17.578,46.875,-57.617
1688816009.909,-81.543,-32.227,-13.672,-0.977,68.359
1688816009.913,42.480,-31.738,-11.719,-63.965,-154.785
1688816009.917,36.133,-26.367,-19.043,-64.453,-238.281
1688816009.918,-51.758,-28.809,-22.461,-22.949,-102.051
1688816009.922,-169.434,-35.645,-19.531,33.691,-58.594
1688816009.926,-80.078,-31.250,-16.602,9.277,-115.234
1688816009.930,59.082,-18.066,-10.254,-45.410,-210.938
