timestamps,TP9,AF7,AF8,TP10,Right AUX
1688816609.144,83.008,-27.832,-27.832,6.348,-58.105
1688816609.148,54.199,-25.879,-24.902,20.020,-30.273
1688816609.152,-99.121,-26.855,-22.461,0.000,28.809
1688816609.156,-198.242,-25.879,-25.879,-68.848,-110.352
1688816609.160,-47.852,-28.320,-29.785,-83.496,-176.270
1688816609.164,62.500,-35.156,-32.715,-20.996,34.180
1688816609.168,38.086,-38.574,-32.227,4.883,377.930
1688816609.171,-95.703,-34.180,-33.203,-19.531,375.488
1688816609.175,-214.844,-31.250,-34.180,-79.102,-6.836
1688816609.179,-78.125,-35.156,-31.738,-91.797,-208.496
1688816609.183,60.547,-35.156,-34.180,-39.062,-174.316
1688816609.187,50.293,-34.668,-32.715,-22.461,-162.109
1688816609.202,-64.941,-34.180,-30.762,-41.504,-179.199
1688816609.206,-196.777,-28.809,-28.809,-82.520,-129.395
1688816609.210,-85.938,-28.809,-26.367,-103.027,-194.336
1688816609.214,79.102,-32.227,-26.367,-50.781,-193.848
1688816609.218,75.684,-31.738,-28.809,-11.719,-144.531
1688816609.222,-51.270,-34.668,-29.297,-9.766,144.531
1688816609.226,-200.195,-34.180,-30.273,-54.688,224.121
1688816609.229,-112.305,-31.250,-34.180,-104.980,-203.125
1688816609.233,62.012,-32.715,-31.738,-47.852,-181.641
1688816609.237,72.754,-29.785,-25.879,6.348,109.863
1688816609.241,-28.809,-27.832,-28.809,-11.719,55.664
1688816609.245,-185.547,-25.879,-36.133,-60.059,-108.398
1688816609.262,-132.812,-25.879,-36.133,-109.863,-72.266
1688816609.266,35.156,-31.250,-40.039,-64.453,82.520
1688816609.270,63.477,-31.738,-43.457,-4.883,44.434
1688816609.274,-11.719,-30.273,-41.992,-15.137,-124.512
1688816609.278,-168.457,-32.715,-38.086,-53.223,-46.387
1688816609.282,-149.414,-31.738,-36.621,-103.027,-80.078
1688816609.286,24.414,-30.762,-32.715,-65.918,-91.797
1688816609.289,68.848,-30.273,-30.273,0.488,-32.227
1688816609.293,8.301,-31.738,-34.668,3.418,4.883
1688816609.297,-151.367,-30.762,-35.156,-30.273,73.730
1688816609.301,-175.781,-24.902,-33.691,-97.168,-147.949
1688816609.305,3.418,-27.832,-36.133,-69.824,-244.141
1688816609.292,77.637,-29.297,-38.574,6.836,-48.828
1688816609.296,30.762,-27.344,-38.574,7.812,-6.348
1688816609.300,-122.559,-24.902,-38.086,-34.668,-155.762
1688816609.304,-178.223,-23.438,-31.738,-93.750,-221.680
1688816609.308,-13.672,-29.297,-27.832,-74.219,-45.898
1688816609.312,79.590,-36.621,-26.855,-8.789,112.793
1688816609.316,43.457,-35.156,-31.250,-3.418,-114.258
1688816609.319,-107.422,-35.645,-31.250,-32.227,-158.203
1688816609.323,-193.848,-31.250,-24.414,-83.496,-28.320
1688816609.327,-30.273,-28.809,-28.809,-81.055,-111.328
1688816609.331,81.055,-35.156,-31.250,-15.137,-120.605
1688816609.335,50.781,-37.109,-28.809,1.953,-42.969
1688816609.337,-81.543,-38.086,-32.715,-17.090,208.496
1688816609.341,-189.941,-32.715,-36.133,-71.289,311.035
1688816609.345,-56.152,-27.832,-37.109,-101.074,-43.945
1688816609.349,70.801,-32.715,-35.156,-36.133,-64.941
1688816609.353,57.129,-35.156,-40.527,-9.766,-76.660
1688816609.357,-54.199,-38.086,-47.852,-27.344,-81.543
1688816609.361,-173.828,-40.039,-36.133,-63.477,-59.570
1688816609.364,-77.148,-39.551,-26.367,-80.566,-82.031
1688816609.368,44.434,-44.434,-23.438,-24.902,65.430
1688816609.372,42.480,-46.387,-14.160,4.395,25.879
1688816609.376,-60.059,-46.875,-6.836,-8.789,-131.348
1688816609.380,-209.473,-54.199,-0.977,-55.664,-14.160
1688816609.382,-134.277,-56.641,6.348,-92.285,77.637
1688816609.386,24.902,-57.617,10.254,-47.852,-151.367
1688816609.390,41.016,-59.082,14.648,-8.789,-160.156
1688816609.394,-59.570,-61.523,18.066,-20.996,-120.117
1688816609.398,-227.539,-65.918,18.066,-65.430,-114.258
1688816609.402,-170.410,-62.988,25.879,-101.074,-166.992
1688816609.406,0.977,-65.430,32.715,-53.223,-70.312
1688816609.409,22.949,-68.848,36.621,5.371,170.898
1688816609.413,-60.059,-69.336,38.086,-1.953,83.496
1688816609.417,-224.121,-72.754,36.133,-56.152,-179.199
1688816609.421,-201.660,-73.242,43.945,-107.910,-225.098
1688816609.425,-33.691,-73.242,36.133,-76.172,-85.938
1688816609.442,0.488,-74.219,31.250,-21.973,27.344
1688816609.446,-67.383,-75.195,42.480,-21.973,-94.238
1688816609.450,-226.562,-77.148,39.062,-61.035,-75.684
1688816609.454,-241.699,-74.707,41.016,-110.840,175.293
1688816609.458,-56.641,-72.754,46.875,-83.496,34.668
1688816609.462,24.902,-73.730,42.480,-26.855,-184.082
1688816609.466,-21.973,-79.590,40.527,-11.719,41.992
1688816609.469,-188.477,-79.102,43.945,-40.527,178.223
1688816609.473,-245.117,-70.312,43.945,-105.469,-63.965
1688816609.477,-62.012,-72.754,40.527,-84.961,-168.457
1688816609.481,31.738,-78.125,43.457,-6.836,-73.242
1688816609.485,-21.973,-80.078,46.387,-4.395,-77.637
1688816609.473,-173.340,-79.102,48.340,-39.551,-127.441
1688816609.477,-244.141,-74.219,47.363,-89.844,-152.832
1688816609.481,-83.008,-72.754,38.086,-89.844,-57.617
1688816609.485,31.738,-63.965,28.809,-23.438,-9.277
1688816609.489,8.301,-62.988,27.344,0.488,-120.117
1688816609.493,-117.188,-72.266,24.902,-7.812,-36.133
1688816609.497,-213.867,-67.871,21.484,-59.082,65.918
1688816609.500,-81.055,-61.035,24.902,-73.730,-111.328
1688816609.504,52.246,-62.988,23.438,-2.441,-186.523
1688816609.508,45.898,-66.406,18.066,22.461,-170.898
1688816609.512,-75.684,-64.453,18.555,15.625,135.742
1688816609.516,-205.078,-52.734,20.020,-34.180,241.211
1688816609.532,-84.961,-48.340,22.949,-71.289,-177.246
1688816609.536,69.336,-54.199,20.508,0.000,-81.543
1688816609.540,64.453,-55.176,17.090,39.551,14.648
1688816609.544,-38.086,-55.176,12.207,18.555,-104.492
1688816609.548,-177.734,-52.734,10.742,-22.949,-44.922
1688816609.552,-89.844,-49.805,14.160,-48.828,11.719
1688816609.556,71.289,-48.828,13.672,12.207,240.234
1688816609.559,80.078,-47.852,6.836,33.691,115.723
1688816609.563,-12.695,-49.805,4.395,7.324,-156.250
1688816609.567,-174.805,-49.805,5.859,-25.879,-121.094
1688816609.571,-119.629,-45.898,2.441,-85.449,-162.109
1688816609.575,52.246,-42.969,-1.953,-45.898,-208.496
1688816609.577,77.148,-46.387,-5.371,15.625,-151.855
1688816609.581,-2.930,-50.781,-1.953,2.441,-64.941
1688816609.585,-152.832,-47.852,1.953,-41.992,-94.238
1688816609.589,-126.953,-41.992,-2.930,-85.449,-146.973
1688816609.593,41.504,-43.457,-8.301,-40.527,-116.699
1688816609.597,84.473,-46.875,-10.742,22.461,11.230
1688816609.601,12.207,-44.922,-7.812,20.508,58.105
1688816609.604,-148.438,-38.086,-6.348,-11.230,-19.043
1688816609.608,-159.668,-33.203,-9.766,-70.801,-132.324
1688816609.612,17.090,-32.715,-10.254,-39.551,125.488
1688816609.616,79.590,-35.156,-12.695,39.062,313.965
1688816609.620,20.996,-38.086,-15.625,38.574,-1.465
1688816609.622,-131.348,-37.598,-22.949,4.883,-38.574
1688816609.626,-174.805,-37.598,-27.832,-51.270,104.492
1688816609.630,-6.836,-40.039,-28.809,-36.133,-115.723
1688816609.634,83.008,-41.992,-33.691,31.738,-159.180
1688816609.638,46.387,-37.109,-32.715,43.945,22.461
1688816609.642,-102.539,-37.598,-31.250,12.695,86.426
1688816609.646,-182.617,-39.062,-32.227,-52.246,44.922
1688816609.649,-23.438,-37.109,-35.645,-61.523,-151.367
1688816609.653,86.914,-35.156,-35.645,15.625,15.137
1688816609.657,61.523,-29.297,-28.320,56.152,458.008
1688816609.661,-76.172,-26.367,-26.367,16.602,183.594
1688816609.665,-176.758,-23.438,-27.832,-40.527,-172.852
1688816609.713,-28.809,-23.438,-29.297,-40.527,-73.730
1688816609.717,91.797,-27.344,-32.715,6.348,-114.258
1688816609.721,68.848,-27.832,-33.203,20.996,-245.117
1688816609.725,-53.223,-28.320,-27.344,3.906,-218.262
1688816609.729,-181.641,-31.738,-27.832,-43.945,-140.137
1688816609.733,-59.082,-32.715,-31.738,-58.105,-59.570
1688816609.737,86.914,-36.621,-28.809,6.348,-110.352
1688816609.740,79.102,-37.109,-28.320,34.180,-149.414
1688816609.744,-49.316,-42.969,-26.855,22.949,139.648
1688816609.748,-201.172,-52.246,-26.367,-21.484,167.969
1688816609.752,-79.590,-50.293,-28.320,-44.434,-115.723
1688816609.756,97.168,-30.762,-35.156,15.137,-3.418
1688816609.743,93.750,-18.066,-50.781,41.016,185.059
1688816609.747,-13.184,-20.508,-56.152,3.418,-15.625
1688816609.751,-160.156,-17.090,-65.430,-50.293,-245.117
1688816609.755,-90.332,-4.883,-73.242,-87.891,-235.840
1688816609.759,81.055,-3.418,-83.984,-43.457,-193.848
1688816609.763,107.422,-7.812,-98.145,10.742,-152.344
1688816609.767,29.297,-3.906,-99.121,1.953,-35.645
1688816609.770,-130.859,1.953,-102.051,-46.875,34.180
1688816609.774,-101.074,7.812,-108.398,-100.586,-118.164
1688816609.778,81.543,6.348,-109.863,-58.105,-123.047
1688816609.782,111.328,6.348,-112.305,2.441,-87.402
1688816609.786,30.273,6.348,-124.023,-23.438,-90.820
1688816609.776,-120.117,6.348,-126.465,-63.477,-64.941
1688816609.780,-122.559,15.137,-121.094,-115.723,-67.871
1688816609.784,48.828,14.160,-124.023,-88.379,-117.676
1688816609.788,107.422,6.348,-125.488,-13.672,-92.773
1688816609.792,53.223,3.906,-124.512,-15.625,-35.645
1688816609.796,-101.074,12.695,-126.953,-52.734,-20.020
1688816609.800,-135.742,19.043,-123.047,-103.027,-24.902
1688816609.803,31.250,14.160,-120.605,-75.684,110.352
1688816609.807,96.680,7.324,-125.977,-15.137,157.715
1688816609.811,63.965,4.395,-121.582,-7.812,-87.402
1688816609.815,-72.266,4.395,-109.375,-30.762,31.738
1688816609.819,-144.043,2.930,-102.539,-91.309,266.113
1688816609.802,15.625,3.418,-99.609,-82.520,36.133
1688816609.806,104.980,-5.371,-98.633,-13.672,-118.164
1688816609.810,70.312,-11.230,-94.238,-2.930,-47.852
1688816609.814,-69.824,-2.930,-86.426,-26.367,249.023
1688816609.818,-165.527,4.395,-81.055,-75.684,222.656
1688816609.822,-9.766,4.395,-80.078,-84.473,-87.402
1688816609.826,90.332,-10.254,-84.473,-21.973,56.641
1688816609.829,62.988,-12.695,-86.426,-7.324,104.492
1688816609.833,-55.664,-7.812,-81.055,-39.551,-80.078
1688816609.837,-180.664,-13.672,-73.242,-95.215,-147.949
1688816609.841,-53.711,-7.324,-70.801,-106.445,-18.555
1688816609.845,91.797,-4.883,-71.289,-31.738,349.609
1688816609.848,85.938,-6.348,-69.824,-8.301,273.926
1688816609.852,-36.133,-4.395,-69.824,-43.457,-140.137
1688816609.856,-191.895,-2.441,-66.895,-93.262,-150.879
1688816609.860,-96.680,-1.465,-65.430,-126.953,-119.141
1688816609.864,62.988,-9.766,-64.453,-79.102,-152.344
1688816609.868,69.824,-16.602,-65.918,-34.668,-125.488
1688816609.872,-34.668,-16.602,-63.965,-29.785,172.363
1688816609.875,-187.500,-12.695,-58.105,-67.871,228.516
1688816609.879,-117.188,-10.254,-62.012,-132.324,-168.457
1688816609.883,50.781,-16.113,-63.477,-88.867,-221.191
1688816609.887,74.219,-22.949,-60.547,-29.785,41.016
1688816609.891,-13.184,-20.508,-58.594,-44.434,31.250
1688816609.892,-173.828,-17.090,-50.781,-84.961,-197.266
1688816609.896,-138.184,-18.066,-46.387,-120.605,-135.254
1688816609.900,33.203,-22.461,-44.922,-76.660,-47.852
1688816609.904,67.383,-24.902,-42.969,-13.184,-155.762
1688816609.908,-10.254,-22.461,-42.969,-23.926,-216.309
1688816609.912,-165.527,-23.926,-37.598,-65.430,62.012
1688816609.916,-159.180,-21.973,-36.133,-110.352,356.445
1688816609.919,18.555,-19.531,-39.551,-83.984,65.430
1688816609.923,76.172,-22.949,-45.898,-18.066,-180.176
1688816609.927,11.719,-25.879,-46.875,-16.602,-4.883
1688816609.931,-146.973,-27.344,-41.992,-65.430,-37.109
1688816609.935,-179.688,-23.438,-41.504,-124.512,-230.957
1688816609.952,-9.277,-24.902,-39.551,-97.656,-221.191
1688816609.956,75.684,-26.367,-37.598,-24.414,-129.883
1688816609.960,35.156,-27.832,-36.133,-6.836,-121.582
1688816609.964,-119.141,-32.715,-34.668,-35.645,-157.715
1688816609.968,-170.898,-28.320,-33.691,-88.379,-114.258
1688816609.972,-9.277,-26.367,-37.109,-83.984,-67.871
1688816609.976,71.289,-29.297,-41.992,-17.090,-0.977
1688816609.979,47.363,-24.902,-40.039,1.465,-38.086
1688816609.983,-90.820,-20.020,-27.832,-28.809,-121.582
1688816609.987,-174.805,-19.531,-24.414,-78.125,45.410
1688816609.991,-22.949,-19.531,-29.297,-77.637,8.301
1688816609.995,76.172,-22.949,-29.297,-10.742,-75.195
1688816610.012,51.758,-25.879,-32.227,-2.441,-29.785
1688816610.016,-81.055,-30.273,-31.250,-24.902,180.664
1688816610.020,-197.266,-30.762,-32.227,-75.684,125.488
1688816610.024,-61.523,-33.691,-35.645,-97.656,-134.766
1688816610.028,70.312,-32.227,-32.715,-24.414,-87.891
1688816610.032,62.500,-26.855,-31.250,7.324,-58.594
1688816610.036,-53.711,-30.762,-37.598,-22.461,-32.227
1688816610.039,-190.918,-29.785,-37.598,-73.242,-166.992
1688816610.043,-85.938,-27.344,-41.992,-100.098,-71.289
1688816610.047,59.082,-29.297,-41.016,-43.457,164.551
1688816610.051,57.129,-32.227,-34.668,-12.695,-61.523
1688816610.055,-39.062,-32.715,-38.086,-27.344,-201.660
1688816610.042,-187.012,-26.855,-33.691,-65.430,-161.133
1688816610.046,-111.328,-25.879,-22.461,-101.562,-89.844
1688816610.050,69.336,-34.180,-27.344,-52.246,-118.652
1688816610.054,80.566,-36.133,-31.250,-10.254,-93.262
1688816610.058,-22.949,-35.156,-30.273,-22.949,17.578
1688816610.062,-181.152,-30.762,-26.855,-57.617,-20.508
1688816610.066,-138.672,-31.738,-25.879,-104.004,-91.309
1688816610.069,38.574,-32.715,-29.297,-59.082,-3.906
1688816610.073,75.684,-34.180,-32.227,-7.812,-14.160
1688816610.077,-7.812,-40.039,-29.297,-15.137,-108.398
1688816610.081,-174.316,-39.551,-28.809,-45.410,-86.914
1688816610.085,-161.621,-36.133,-29.297,-97.656,-60.059
1688816610.088,24.414,-31.250,-25.391,-52.734,227.539
1688816610.092,78.613,-31.250,-28.809,7.324,284.668
1688816610.096,10.742,-34.180,-32.715,-2.441,-81.543
1688816610.100,-145.508,-39.551,-33.203,-27.832,-9.766
1688816610.104,-164.551,-35.156,-31.250,-83.984,9.766
1688816610.108,9.277,-34.668,-32.227,-65.918,-173.340
1688816610.112,71.777,-41.992,-35.156,3.906,-118.164
1688816610.115,23.438,-44.434,-40.039,12.695,0.977
1688816610.119,-129.395,-44.434,-41.992,-15.625,200.195
1688816610.123,-188.477,-41.016,-39.062,-76.172,-20.508
1688816610.127,-15.137,-42.969,-35.156,-72.266,-211.914
1688816610.131,82.520,-44.922,-39.062,-3.906,-101.074
1688816610.132,52.246,-40.527,-37.109,12.207,-79.102
1688816610.136,-89.844,-38.574,-33.203,-15.137,-149.902
1688816610.140,-181.641,-38.086,-34.180,-68.848,-183.594
1688816610.144,-27.344,-37.109,-33.691,-75.684,-139.160
1688816610.148,96.680,-41.016,-34.180,-7.324,-88.867
1688816610.152,65.918,-45.410,-37.109,21.484,-63.965
1688816610.156,-81.055,-41.992,-38.086,0.977,-5.859
1688816610.159,-202.637,-38.574,-34.668,-42.969,304.688
1688816610.163,-73.242,-36.133,-31.250,-57.129,302.246
1688816610.167,60.059,-38.574,-35.156,-6.836,-89.844
1688816610.171,56.641,-41.992,-35.156,13.672,-33.203
1688816610.175,-61.523,-42.969,-33.691,-4.883,13.672
1688816610.177,-203.613,-41.504,-35.156,-40.039,-194.824
1688816610.181,-93.750,-34.180,-33.203,-71.289,-290.527
1688816610.185,62.012,-38.086,-31.250,-18.066,-93.750
1688816610.189,68.848,-44.434,-28.320,30.273,81.055
1688816610.193,-31.250,-38.574,-30.273,13.184,-106.445
1688816610.197,-183.105,-36.133,-28.809,-37.109,-132.812
1688816610.201,-98.633,-36.133,-23.438,-82.031,27.344
1688816610.204,60.547,-32.715,-24.902,-29.785,161.621
1688816610.208,59.570,-32.715,-21.973,19.043,-5.371
1688816610.212,-23.926,-31.738,-21.484,0.488,-176.758
1688816610.216,-177.734,-29.297,-22.461,-31.738,-36.621
1688816610.220,-130.371,-19.531,-21.973,-67.871,-47.852
1688816610.222,52.734,-20.020,-23.438,-26.855,-129.395
1688816610.226,90.820,-26.855,-25.879,32.715,-123.535
1688816610.230,18.555,-28.320,-25.391,23.926,-131.836
1688816610.234,-146.484,-30.762,-26.367,-20.508,-49.316
1688816610.238,-141.602,-23.438,-23.438,-81.055,-193.359
1688816610.242,32.227,-22.461,-22.461,-52.734,-124.023
1688816610.246,80.078,-24.414,-25.879,19.043,218.262
1688816610.249,21.484,-22.949,-27.344,22.461,150.879
1688816610.253,-137.695,-27.344,-33.691,-19.043,-76.660
1688816610.257,-154.785,-32.227,-37.109,-83.496,-166.504
1688816610.261,23.438,-34.668,-35.156,-66.406,-88.379
1688816610.265,83.008,-30.762,-36.133,-0.488,-0.488
1688816610.268,33.203,-28.809,-37.598,3.906,-73.242
1688816610.272,-116.699,-30.762,-38.086,-22.461,-37.109
1688816610.276,-173.828,-30.762,-35.645,-66.406,289.551
1688816610.280,-6.348,-32.715,-35.645,-60.547,172.852
1688816610.284,84.473,-33.203,-35.645,1.953,-174.805
1688816610.288,50.293,-29.785,-32.715,24.414,2.930
1688816610.292,-90.820,-24.414,-26.855,1.953,179.688
1688816610.295,-180.664,-18.555,-31.250,-55.176,-34.668
1688816610.299,-38.574,-23.926,-35.645,-63.477,-227.539
1688816610.303,73.242,-26.367,-28.320,18.555,-42.969
1688816610.307,60.059,-25.879,-33.691,41.016,36.621
1688816610.311,-73.242,-32.227,-34.180,-3.418,-125.488
1688816610.328,-198.242,-31.738,-27.832,-41.992,-147.461
1688816610.332,-66.895,-25.879,-33.691,-55.176,-62.500
1688816610.336,70.801,-26.855,-35.645,-3.418,-42.969
1688816610.340,63.477,-33.691,-32.227,20.508,-139.160
1688816610.344,-56.641,-33.691,-34.668,-0.977,-95.215
1688816610.348,-193.848,-25.879,-33.203,-36.133,216.309
1688816610.352,-83.008,-28.320,-31.250,-60.547,206.055
1688816610.355,70.801,-33.203,-38.086,-5.371,-65.918
1688816610.359,67.871,-36.621,-42.480,31.250,-121.094
1688816610.363,-41.992,-35.645,-37.109,17.090,-23.926
1688816610.367,-187.500,-27.344,-34.668,-27.344,4.395
1688816610.371,-102.051,-21.484,-35.156,-71.777,-100.586
1688816610.402,76.172,-23.438,-34.668,-24.414,-83.008
1688816610.406,86.914,-25.391,-39.062,23.438,15.625
1688816610.410,-20.996,-28.320,-44.434,14.160,-41.992
1688816610.414,-179.199,-34.180,-44.434,-34.180,-62.500
1688816610.418,-120.117,-31.738,-44.922,-84.473,15.625
1688816610.422,57.617,-30.273,-41.016,-32.227,239.258
1688816610.426,78.613,-27.344,-34.668,28.320,116.211
1688816610.429,7.324,-24.902,-34.668,15.137,-116.699
1688816610.433,-146.973,-25.391,-29.785,-30.762,19.531
1688816610.437,-134.766,-21.973,-26.855,-69.336,205.078
1688816610.441,44.922,-21.973,-32.227,-39.551,-59.082
1688816610.445,92.285,-30.762,-35.645,10.254,-198.242
1688816610.436,23.438,-35.156,-37.598,8.301,0.488
1688816610.440,-140.137,-31.250,-39.551,-32.227,-73.242
1688816610.444,-155.762,-27.344,-35.156,-86.914,-294.922
1688816610.448,22.949,-29.297,-33.203,-59.082,-250.488
1688816610.452,79.590,-29.785,-38.574,0.000,-155.762
1688816610.456,19.043,-33.203,-40.039,-3.906,-55.176
1688816610.460,-133.789,-35.156,-40.039,-33.203,59.570
1688816610.463,-180.664,-34.180,-37.109,-85.938,34.668
1688816610.467,-7.324,-38.086,-38.574,-82.520,-2.930
1688816610.471,86.914,-36.133,-39.062,-9.277,-63.477
1688816610.475,47.363,-33.203,-31.738,4.883,-122.070
1688816610.479,-101.562,-36.621,-27.344,-34.180,-14.648
1688816610.462,-194.824,-37.598,-31.738,-88.379,25.391
1688816610.466,-37.598,-35.645,-36.133,-88.867,-100.586
1688816610.470,74.707,-39.062,-38.086,-25.391,-217.285
1688816610.474,54.688,-41.504,-36.133,0.488,-124.023
1688816610.478,-76.172,-38.086,-36.621,-26.367,20.508
1688816610.482,-197.754,-33.691,-40.527,-92.285,-110.352
1688816610.486,-56.152,-30.762,-35.156,-104.004,-174.316
1688816610.489,80.566,-31.738,-30.273,-23.926,24.902
1688816610.493,62.988,-33.203,-32.227,10.254,97.656
1688816610.497,-54.688,-32.227,-34.180,-17.090,-114.258
1688816610.501,-181.152,-30.762,-28.809,-63.965,-220.703
1688816610.505,-71.777,-34.180,-27.344,-83.984,-23.438
1688816610.507,81.543,-34.668,-29.297,-14.648,353.516
1688816610.511,83.496,-30.273,-29.297,17.578,336.426
1688816610.515,-34.180,-35.645,-35.156,-10.742,-9.277
1688816610.519,-182.129,-30.273,-33.691,-48.828,-68.359
1688816610.523,-93.750,-24.414,-28.320,-74.707,-135.254
1688816610.527,69.824,-28.809,-40.527,-39.062,-127.930
1688816610.531,96.191,-28.809,-43.945,-7.812,-41.992
1688816610.534,-1.465,-35.156,-28.809,0.000,129.883
1688816610.538,-185.547,-31.738,-24.902,-52.246,226.074
1688816610.542,-137.207,-28.809,-26.855,-110.352,-111.816
1688816610.546,35.645,-39.551,-20.508,-56.641,-119.141
1688816610.550,58.105,-44.434,-11.719,-1.953,-3.906
1688816610.552,-21.973,-51.270,-13.184,-14.648,-108.887
1688816610.556,-184.570,-56.641,-11.230,-57.617,-189.453
1688816610.560,-162.598,-57.617,1.465,-101.074,-118.652
1688816610.564,20.996,-61.035,6.348,-57.129,79.590
1688816610.568,65.918,-62.500,7.324,10.742,-52.246
1688816610.572,-20.996,-69.824,14.648,9.277,-150.391
1688816610.576,-184.082,-73.730,20.508,-29.297,64.453
1688816610.579,-199.219,-66.406,25.879,-96.191,62.012
1688816610.583,-18.555,-64.941,25.391,-85.938,-159.180
1688816610.587,49.805,-74.219,25.879,-13.672,-131.836
1688816610.591,-11.719,-82.031,32.715,3.418,44.922
1688816610.595,-173.340,-85.938,35.645,-21.484,132.812
1688816610.613,-232.422,-82.031,33.203,-86.426,-94.238
1688816610.617,-55.664,-84.961,32.227,-72.754,-229.980
1688816610.621,29.297,-98.145,34.180,-0.977,-75.195
1688816610.625,-14.160,-94.238,37.598,3.906,-56.152
1688816610.629,-157.227,-85.938,41.016,-31.250,-131.348
1688816610.633,-240.723,-83.008,41.504,-90.820,-102.539
1688816610.637,-73.730,-83.496,45.898,-83.008,170.898
1688816610.640,33.691,-85.938,41.992,-10.742,222.656
1688816610.644,4.395,-85.938,39.062,5.859,-50.781
1688816610.648,-123.535,-85.938,41.992,-19.531,-110.352
1688816610.652,-228.516,-80.078,40.527,-83.008,-127.441
1688816610.656,-95.703,-78.125,38.574,-98.633,-145.508
1688816610.688,22.949,-86.426,33.203,-26.855,-166.504
1688816610.692,6.348,-92.285,32.715,0.000,-117.676
1688816610.696,-114.746,-83.984,39.062,-19.043,-62.988
1688816610.700,-245.117,-74.219,38.086,-60.059,-115.723
1688816610.704,-128.906,-74.707,33.691,-87.402,-171.387
1688816610.708,31.250,-71.289,28.320,-31.738,47.852
1688816610.712,48.828,-67.383,27.344,12.207,306.152
1688816610.715,-74.219,-68.848,20.996,-14.160,40.527
1688816610.719,-234.863,-67.383,16.602,-61.523,-167.969
1688816610.723,-132.324,-69.824,19.043,-81.055,-3.906
1688816610.727,38.086,-66.895,22.461,-33.203,151.855
1688816610.731,54.199,-60.547,24.414,6.348,-35.645
1688816610.704,-41.992,-63.477,15.625,5.859,-142.578
1688816610.708,-204.102,-63.965,16.602,-35.645,-86.914
1688816610.712,-146.973,-61.523,20.020,-79.102,-150.391
1688816610.716,31.738,-61.035,17.578,-20.020,-177.246
1688816610.720,60.547,-61.035,12.695,22.461,-102.051
1688816610.724,-14.648,-62.500,12.695,12.695,185.547
1688816610.728,-166.504,-55.664,14.648,-22.949,273.438
1688816610.731,-148.438,-48.828,9.277,-87.402,-43.457
1688816610.735,19.531,-55.664,7.324,-49.316,-147.949
1688816610.739,69.336,-60.547,6.348,20.996,21.973
1688816610.743,14.160,-60.547,8.301,13.184,47.852
1688816610.747,-146.484,-59.570,6.836,-21.973,-79.590
1688816610.747,-164.551,-54.688,6.348,-74.219,-75.195
1688816610.751,12.695,-55.176,3.906,-47.363,-0.977
1688816610.755,78.125,-59.570,-0.977,22.949,-55.664
1688816610.759,28.320,-55.176,1.465,26.855,-194.336
1688816610.763,-122.559,-51.270,2.441,-9.277,-80.566
1688816610.767,-170.410,-51.270,-0.977,-62.988,262.695
1688816610.771,-13.672,-50.293,-6.836,-61.523,178.711
1688816610.774,73.242,-44.922,-11.719,-1.465,-65.430
1688816610.778,40.039,-46.387,-9.766,17.578,-69.336
1688816610.782,-112.793,-50.781,-13.184,-3.418,233.887
1688816610.786,-189.941,-43.945,-17.578,-64.453,170.410
1688816610.790,-25.879,-41.016,-16.602,-76.660,-209.961
1688816610.792,78.125,-41.992,-18.555,4.395,-125.488
1688816610.796,42.969,-42.969,-20.020,24.414,-64.453
1688816610.800,-93.750,-45.898,-20.508,-14.160,-121.582
1688816610.804,-195.312,-42.969,-19.043,-71.777,-156.738
1688816610.808,-55.664,-35.645,-21.484,-82.520,-161.133
1688816610.812,73.730,-32.227,-23.926,-12.695,-65.918
1688816610.816,61.035,-38.086,-19.531,15.137,-65.430
1688816610.819,-62.012,-43.457,-23.926,-2.930,-123.047
1688816610.823,-189.453,-41.992,-26.367,-54.688,72.754
1688816610.827,-70.801,-37.598,-25.879,-78.125,132.324
1688816610.831,74.219,-40.039,-29.785,-18.066,2.441
1688816610.835,62.988,-46.875,-37.109,2.930,-28.320
1688816610.837,-52.246,-48.340,-35.645,-22.461,134.766
1688816610.841,-195.801,-41.016,-26.855,-64.941,66.406
1688816610.845,-94.727,-39.062,-29.297,-100.586,-257.812
1688816610.849,73.730,-46.875,-30.762,-50.781,-168.945
1688816610.853,89.844,-50.781,-31.250,1.465,-94.238
1688816610.857,-11.230,-46.387,-34.668,-7.324,-112.793
1688816610.861,-175.781,-39.062,-28.809,-58.594,-109.375
1688816610.864,-111.816,-40.039,-30.273,-97.656,-41.992
1688816610.868,52.734,-43.457,-32.715,-39.062,129.883
1688816610.872,72.754,-44.434,-26.367,16.602,-18.066
1688816610.876,-3.906,-41.992,-23.438,-4.395,-202.148
1688816610.880,-151.855,-36.621,-23.438,-43.945,-116.211
1688816610.882,-120.117,-34.180,-19.043,-88.379,-91.309
1688816610.886,51.758,-32.227,-20.020,-63.965,-151.367
1688816610.890,92.285,-32.227,-24.414,-1.953,-129.395
1688816610.894,17.578,-35.156,-21.484,4.883,-119.141
1688816610.898,-136.719,-35.156,-22.461,-33.691,-125.000
1688816610.902,-135.742,-33.691,-25.391,-92.773,-113.770
1688816610.906,37.109,-32.715,-30.762,-67.383,-60.059
1688816610.909,103.027,-34.668,-31.250,12.207,136.719
1688816610.913,41.504,-38.086,-29.785,13.672,111.816
1688816610.917,-123.535,-40.039,-31.250,-37.109,-186.035
1688816610.921,-162.109,-38.574,-28.809,-88.867,-163.574
1688816610.925,8.789,-38.086,-33.691,-66.406,-61.523
1688816610.943,78.613,-42.969,-35.645,-1.953,-80.078
1688816610.947,32.715,-46.387,-29.785,16.602,-68.359
1688816610.951,-113.281,-42.969,-29.297,-10.254,39.062
1688816610.955,-186.523,-41.992,-25.391,-70.801,-39.062
1688816610.959,-20.996,-53.223,-25.879,-63.477,-146.484
1688816610.963,94.238,-53.711,-36.621,5.859,-43.945
1688816610.967,72.754,-32.715,-47.852,20.508,62.012
1688816610.970,-75.684,-20.020,-59.082,-13.672,228.516
1688816610.974,-180.664,-20.996,-66.895,-84.473,69.336
1688816610.978,-24.414,-18.066,-70.801,-94.727,-168.457
1688816610.982,98.633,-9.766,-74.707,-23.438,-108.887
1688816610.986,77.637,-9.766,-86.426,6.348,-36.133
1688816610.972,-37.598,-10.254,-89.355,-9.766,-73.242
1688816610.976,-162.109,-6.348,-94.238,-65.430,-96.680
1688816610.980,-44.434,-0.977,-99.609,-86.914,-105.469
1688816610.984,93.750,2.441,-103.516,-25.391,-119.629
1688816610.988,93.750,-2.441,-109.863,9.766,-57.129
1688816610.992,-15.137,-0.977,-115.723,-14.160,63.477
1688816610.996,-162.598,5.371,-119.141,-69.824,77.637
1688816610.999,-56.641,9.277,-117.188,-100.098,-109.375
1688816611.003,104.980,14.160,-123.047,-59.570,-171.387
1688816611.007,114.258,16.602,-124.512,-16.113,-160.645
1688816611.011,8.301,16.113,-127.930,-23.926,173.340
1688816611.015,-151.855,18.066,-136.230,-77.637,379.883
1688816611.017,-82.031,21.484,-142.090,-130.371,-55.664
1688816611.021,86.426,21.973,-140.137,-79.590,-154.297
1688816611.025,103.516,22.949,-139.648,-29.785,-62.988
1688816611.029,7.812,23.926,-141.113,-45.410,-162.598
1688816611.033,-154.785,20.508,-138.184,-81.543,-193.359
1688816611.037,-116.211,14.648,-135.254,-120.605,73.242
1688816611.041,63.477,12.695,-132.324,-72.266,231.934
1688816611.044,104.004,9.277,-126.953,-19.531,-44.434
1688816611.048,32.227,3.906,-123.535,-34.180,-152.832
1688816611.052,-133.301,-0.488,-117.188,-69.824,101.562
1688816611.056,-131.348,1.465,-107.910,-116.211,185.059
1688816611.060,51.758,4.395,-106.445,-97.168,-110.352
1688816611.077,107.910,-6.348,-105.469,-30.762,-166.504
1688816611.081,52.734,-7.812,-98.633,-21.973,-173.340
1688816611.085,-105.957,-6.836,-90.820,-54.688,-102.051
1688816611.089,-140.625,-9.766,-88.867,-105.957,-120.605
1688816611.093,34.180,-13.672,-89.844,-82.520,-99.121
1688816611.097,107.910,-16.602,-84.473,-14.648,58.105
1688816611.101,67.871,-17.578,-78.125,-0.977,16.602
1688816611.104,-86.426,-22.461,-72.266,-17.578,-52.246
1688816611.108,-157.227,-17.090,-62.988,-75.195,-101.074
1688816611.112,11.719,-12.207,-59.082,-73.242,0.977
1688816611.116,114.258,-10.742,-60.059,12.207,15.137
1688816611.120,76.660,-8.301,-61.035,30.762,-102.051
1688816611.122,-66.406,-13.184,-61.035,-1.465,-170.898
1688816611.126,-162.109,-13.672,-56.641,-61.035,138.672
1688816611.130,-16.602,-11.719,-56.152,-77.637,197.266
1688816611.134,102.051,-18.555,-56.152,-18.066,-153.809
1688816611.138,83.496,-15.137,-51.758,17.578,-113.281
1688816611.142,-36.621,-11.719,-49.316,7.324,36.133
1688816611.146,-151.855,-17.578,-51.270,-45.410,78.125
1688816611.149,-40.527,-20.020,-58.105,-68.848,-51.270
1688816611.153,89.844,-20.996,-56.641,-4.395,-13.672
1688816611.157,81.543,-22.461,-48.828,38.574,96.680
1688816611.161,-37.598,-22.949,-49.805,0.977,-114.258
1688816611.165,-175.781,-26.855,-53.711,-55.176,-115.723
1688816611.167,-79.102,-23.926,-50.293,-86.426,-51.270
1688816611.171,72.754,-20.020,-47.852,-32.715,-114.258
1688816611.175,80.078,-26.367,-43.457,20.996,-146.484
1688816611.179,-18.066,-23.438,-36.133,8.301,-78.125
1688816611.183,-172.852,-21.484,-37.109,-48.340,-25.879
1688816611.187,-105.957,-26.855,-45.410,-87.891,-87.891
1688816611.191,65.430,-26.855,-53.711,-36.133,-103.516
1688816611.194,72.754,-24.902,-51.758,9.766,-148.438
1688816611.198,-20.508,-22.949,-42.480,3.906,-0.977
1688816611.202,-162.598,-22.461,-37.598,-34.668,132.812
1688816611.206,-124.023,-23.438,-33.691,-84.961,-82.031
1688816611.210,44.434,-23.926,-32.227,-40.527,-48.828
1688816611.213,83.984,-25.879,-35.645,26.855,23.438
1688816611.217,10.742,-28.809,-38.086,26.855,-43.945
1688816611.221,-145.996,-27.832,-42.480,-20.996,-144.531
1688816611.225,-142.578,-24.414,-45.410,-80.078,-105.469
1688816611.229,27.832,-22.461,-47.852,-48.828,23.438
1688816611.233,71.289,-30.762,-49.316,8.789,20.508
1688816611.237,11.719,-33.691,-41.504,13.672,-55.176
1688816611.240,-136.230,-27.832,-34.668,-7.812,42.969
1688816611.244,-160.645,-27.832,-30.762,-57.129,81.055
1688816611.248,12.207,-26.855,-34.668,-41.992,-163.086
1688816611.252,83.496,-27.832,-34.180,23.926,-240.234
1688816611.256,42.969,-31.738,-29.297,31.250,-20.508
1688816611.257,-104.980,-33.691,-30.273,-10.742,73.730
1688816611.261,-168.945,-27.832,-33.691,-78.125,-194.336
1688816611.265,-5.859,-26.855,-35.645,-71.777,-299.316
1688816611.269,88.867,-32.715,-37.598,2.441,-165.039
1688816611.273,61.035,-32.715,-49.316,19.043,-23.438
1688816611.277,-78.613,-31.738,-56.152,-10.254,9.766
1688816611.281,-175.293,-30.762,-57.617,-70.801,-46.875
1688816611.284,-38.086,-31.738,-57.617,-77.148,93.262
1688816611.288,82.520,-30.273,-51.270,-6.348,263.672
1688816611.292,72.266,-31.250,-48.828,9.766,-46.875
1688816611.296,-57.617,-30.762,-49.316,-14.160,-71.777
1688816611.300,-184.082,-22.949,-51.758,-58.105,86.914
1688816611.302,-60.059,-23.438,-49.316,-77.637,-40.039
1688816611.306,78.125,-28.320,-49.805,-28.320,-140.137
1688816611.310,70.801,-25.391,-48.828,7.324,-99.609
1688816611.314,-44.434,-26.367,-45.898,-3.906,-68.848
1688816611.318,-184.082,-27.344,-44.922,-57.617,-105.469
1688816611.322,-78.125,-23.926,-41.992,-83.008,-109.375
1688816611.326,76.660,-30.273,-41.504,-17.090,34.668
1688816611.329,81.055,-33.203,-41.992,20.996,319.336
1688816611.333,-24.414,-29.297,-44.922,-1.465,132.812
1688816611.337,-181.152,-23.438,-45.898,-45.410,-209.961
1688816611.341,-109.375,-21.973,-42.969,-82.520,-114.746
1688816611.345,58.594,-27.344,-39.551,-39.551,-90.820
1688816611.347,78.125,-25.391,-40.039,10.742,-183.105
1688816611.351,-6.348,-23.438,-41.016,-1.465,-151.855
1688816611.355,-152.832,-22.461,-38.574,-52.246,-91.797
1688816611.359,-110.352,-20.508,-35.645,-100.586,-149.902
1688816611.363,47.852,-25.879,-39.551,-55.664,-208.496
1688816611.367,73.242,-29.785,-41.504,1.953,-65.918
1688816611.371,5.371,-29.297,-35.645,0.488,206.055
1688816611.374,-146.973,-29.297,-36.133,-35.645,160.156
1688816611.378,-140.625,-26.855,-34.668,-91.309,-110.352
1688816611.382,32.715,-29.297,-31.738,-57.617,-100.098
1688816611.386,79.590,-37.598,-38.086,4.883,34.180
1688816611.390,18.066,-35.156,-33.691,2.930,-13.672
1688816611.392,-139.160,-28.809,-28.320,-32.227,-174.316
1688816611.396,-169.922,-30.273,-30.273,-86.914,-143.066
1688816611.400,6.348,-29.297,-30.273,-62.500,54.199
1688816611.404,83.984,-28.320,-33.203,2.441,36.133
1688816611.408,21.484,-32.715,-31.738,0.488,-114.746
1688816611.412,-138.184,-35.645,-29.785,-20.508,99.609
1688816611.416,-176.270,-29.785,-30.762,-73.242,221.680
1688816611.419,-3.906,-20.996,-32.715,-83.984,-6.348
1688816611.423,94.238,-20.508,-31.250,-18.066,-130.859
1688816611.427,58.594,-25.391,-31.250,5.859,10.254
1688816611.431,-102.539,-24.414,-33.203,-20.020,205.566
1688816611.435,-204.590,-23.438,-36.621,-83.008,-82.031
1688816611.452,-47.852,-25.391,-42.480,-88.379,-246.582
1688816611.456,69.336,-26.367,-42.480,-22.461,-72.266
1688816611.460,44.434,-29.785,-40.527,-8.301,-12.207
1688816611.464,-81.543,-32.227,-42.480,-37.598,-77.637
1688816611.468,-190.430,-30.273,-38.574,-81.543,-96.680
1688816611.472,-53.711,-27.832,-35.645,-84.961,14.648
1688816611.476,80.078,-31.738,-36.621,-26.855,36.133
1688816611.479,64.453,-32.715,-38.086,0.977,-133.301
1688816611.483,-53.223,-32.715,-33.691,-16.602,-105.957
1688816611.487,-192.383,-33.203,-27.832,-73.730,94.238
1688816611.491,-93.262,-33.203,-37.109,-110.840,66.406
1688816611.495,63.477,-31.250,-36.133,-52.246,-145.996
1688816611.497,67.383,-34.668,-29.785,-5.859,-161.621
1688816611.501,-44.922,-37.598,-36.133,-21.484,194.336
1688816611.505,-197.266,-29.785,-33.691,-68.359,166.504
1688816611.509,-110.840,-28.809,-28.809,-98.633,-163.086
1688816611.513,56.152,-35.645,-35.645,-48.828,-97.656
1688816611.517,58.105,-37.598,-35.156,-17.090,-0.488
1688816611.521,-26.855,-34.668,-33.203,-32.715,-0.488
1688816611.524,-166.992,-31.250,-32.715,-74.219,-50.781
1688816611.528,-125.488,-31.250,-29.785,-105.469,-62.988
1688816611.532,45.898,-32.715,-31.738,-47.852,151.367
1688816611.536,77.148,-33.691,-33.203,-2.930,41.504
1688816611.540,-7.324,-38.574,-32.715,-4.395,-104.980
1688816611.542,-179.688,-40.039,-34.180,-38.574,-54.199
1688816611.546,-159.668,-32.227,-34.180,-98.145,-114.258
1688816611.550,28.320,-27.832,-37.598,-65.430,-184.570
1688816611.554,83.008,-26.367,-40.039,3.906,-93.750
1688816611.558,19.043,-29.297,-33.203,7.812,93.750
1688816611.562,-147.949,-31.738,-28.320,-33.203,71.289
1688816611.566,-177.246,-23.438,-30.762,-102.051,-13.672
1688816611.569,-4.883,-24.414,-32.227,-81.543,-120.605
1688816611.573,66.406,-27.832,-26.367,6.348,49.805
1688816611.577,4.395,-29.785,-29.297,-2.441,110.352
1688816611.581,-151.855,-37.598,-41.992,-59.082,-56.152
1688816611.585,-203.125,-37.598,-39.062,-109.863,-84.961
1688816611.602,-37.109,-32.227,-38.086,-100.098,-71.289
1688816611.606,56.152,-37.598,-44.434,-30.762,-104.492
1688816611.610,14.648,-41.992,-42.969,-18.555,-203.125
1688816611.614,-122.559,-37.598,-40.527,-44.922,-110.352
1688816611.618,-198.730,-32.227,-38.574,-97.656,-84.961
1688816611.622,-50.293,-36.621,-33.691,-101.074,-128.418
1688816611.626,55.176,-39.062,-29.297,-34.668,-145.996
1688816611.629,33.691,-35.156,-27.344,-12.207,104.492
1688816611.633,-100.098,-36.133,-26.367,-33.203,250.488
1688816611.637,-215.820,-33.691,-29.785,-92.773,-18.555
1688816611.641,-68.359,-32.715,-29.297,-111.816,-163.574
1688816611.645,68.848,-36.621,-17.578,-34.180,10.254
1688816611.634,41.016,-35.156,-15.625,-7.324,114.746
1688816611.638,-84.473,-36.133,-20.020,-34.180,-54.199
1688816611.642,-210.449,-40.039,-19.531,-69.824,-95.703
1688816611.646,-97.656,-38.086,-19.531,-100.098,-177.246
1688816611.650,55.176,-39.551,-23.438,-48.340,-92.773
1688816611.654,57.129,-41.504,-28.809,-8.301,28.809
1688816611.658,-52.734,-41.016,-30.273,-20.020,98.633
1688816611.661,-198.242,-37.598,-31.250,-67.871,123.047
1688816611.665,-113.281,-34.180,-36.133,-112.305,-17.578
1688816611.669,51.758,-35.156,-39.062,-53.711,-141.113
1688816611.673,79.590,-37.109,-38.574,-4.395,-54.199
1688816611.677,-13.184,-36.621,-34.668,-20.020,229.492
1688816611.677,-186.523,-35.156,-33.203,-57.617,113.281
1688816611.681,-134.766,-30.762,-35.156,-102.051,-143.555
1688816611.685,45.898,-37.598,-37.598,-62.012,-41.016
1688816611.689,77.637,-45.898,-39.551,-0.977,41.504
1688816611.693,-3.418,-41.016,-42.480,-2.441,-52.734
1688816611.697,-170.410,-39.062,-37.598,-51.270,-43.457
1688816611.701,-147.461,-36.133,-31.250,-97.168,-2.930
1688816611.704,38.086,-36.133,-30.273,-49.805,221.191
1688816611.708,69.824,-34.668,-34.180,4.395,161.133
1688816611.712,6.348,-37.109,-32.227,-2.441,-181.641
1688816611.716,-142.578,-42.969,-31.738,-32.227,-74.219
1688816611.720,-166.992,-43.457,-31.738,-93.262,-58.594
1688816611.725,2.441,-47.363,-32.227,-69.824,-212.402
1688816611.729,70.312,-47.852,-31.738,3.906,-142.090
1688816611.733,23.926,-44.922,-28.809,12.695,-91.797
1688816611.737,-127.441,-46.875,-30.762,-14.160,-102.539
1688816611.741,-183.594,-41.992,-34.668,-75.195,-171.387
1688816611.745,-17.578,-42.969,-41.016,-75.684,-212.402
1688816611.749,77.637,-47.852,-40.039,-1.953,140.625
1688816611.752,38.086,-38.574,-41.992,17.578,157.715
1688816611.756,-106.445,-33.691,-45.410,-21.973,-239.258
1688816611.760,-196.289,-36.621,-41.504,-91.309,-274.902
1688816611.764,-38.086,-39.551,-41.504,-90.820,-97.168
1688816611.768,84.961,-40.039,-42.969,-9.766,-106.445
1688816611.768,48.828,-40.527,-42.480,12.207,-176.758
1688816611.772,-94.727,-43.457,-40.527,-10.742,-35.156
1688816611.776,-206.543,-40.039,-37.598,-48.828,-19.531
1688816611.780,-69.336,-34.180,-35.645,-69.336,-144.043
1688816611.784,72.754,-37.598,-32.715,-11.719,-161.621
1688816611.788,68.359,-41.504,-28.809,23.926,-84.961
1688816611.792,-58.105,-38.086,-24.902,11.719,288.574
1688816611.795,-191.406,-28.809,-23.926,-35.156,314.941
1688816611.799,-75.195,-26.855,-26.855,-72.266,-108.398
1688816611.803,76.172,-34.668,-33.203,-14.648,-115.234
1688816611.807,81.055,-35.156,-31.738,29.297,-79.102
1688816611.811,-29.785,-35.156,-28.320,10.742,-184.082
1688816611.827,-185.547,-33.691,-31.250,-46.875,-181.152
1688816611.831,-95.215,-28.809,-33.203,-82.520,-153.809
1688816611.835,69.336,-33.691,-36.621,-24.414,-87.402
1688816611.839,78.613,-41.504,-34.180,7.324,12.207
1688816611.843,-12.695,-42.480,-31.250,-2.930,-138.184
1688816611.847,-170.898,-40.039,-31.738,-26.855,56.152
1688816611.851,-125.000,-38.086,-32.227,-79.590,259.277
1688816611.854,45.898,-35.156,-32.227,-47.363,-16.113
1688816611.858,78.125,-39.551,-29.297,11.230,-52.734
1688816611.862,-2.441,-42.480,-27.344,0.488,-8.789
1688816611.866,-158.203,-38.574,-29.785,-37.598,0.977
1688816611.870,-133.789,-32.715,-28.320,-87.402,-130.859
1688816611.872,36.133,-31.738,-29.297,-52.734,-142.090
1688816611.876,70.312,-41.504,-32.227,17.090,25.879
1688816611.880,8.301,-42.969,-34.180,12.207,-15.625
1688816611.884,-142.578,-40.039,-32.715,-38.574,-83.984
1688816611.888,-153.320,-38.086,-29.785,-94.727,-109.375
1688816611.892,20.508,-38.086,-31.738,-67.383,-97.168
1688816611.896,83.496,-39.551,-33.203,5.371,-59.082
1688816611.899,33.203,-40.039,-34.668,20.020,9.277
1688816611.903,-121.094,-43.457,-36.621,-7.324,97.168
1688816611.907,-170.898,-39.062,-37.598,-56.152,281.738
1688816611.911,-5.371,-28.809,-39.551,-54.199,38.574
1688816611.915,79.102,-31.738,-39.062,-1.465,-159.668
1688816611.917,44.922,-32.227,-34.668,10.742,-34.668
1688816611.921,-92.773,-32.715,-35.645,-17.578,-36.133
1688816611.925,-174.805,-33.691,-34.668,-76.660,-145.508
1688816611.929,-21.973,-32.227,-32.227,-72.754,-197.266
1688816611.933,88.379,-36.133,-32.227,3.906,-57.129
1688816611.937,56.152,-32.715,-40.039,6.348,-46.387
1688816611.941,-83.496,-36.621,-49.805,-27.832,25.879
1688816611.944,-188.477,-41.016,-45.410,-78.613,-43.945
1688816611.948,-57.129,-42.969,-43.457,-90.332,41.992
1688816611.952,72.266,-41.504,-42.969,-20.996,242.188
1688816611.956,66.895,-40.527,-43.457,-3.418,-22.949
1688816611.960,-64.453,-41.504,-48.340,-24.902,-107.910
1688816611.962,-202.637,-37.598,-47.852,-61.523,112.305
1688816611.966,-85.938,-35.156,-45.410,-95.703,2.441
1688816611.970,66.406,-36.133,-45.898,-42.480,-204.102
1688816611.974,63.477,-34.180,-41.504,2.930,-91.309
1688816611.978,-51.758,-36.621,-37.598,-21.484,-43.945
1688816611.982,-199.219,-38.086,-37.598,-72.266,25.879
1688816611.986,-117.188,-40.039,-37.109,-99.609,0.000
1688816611.989,38.086,-39.551,-33.203,-34.668,61.035
1688816611.993,52.246,-35.645,-29.297,10.742,216.797
1688816611.997,-39.062,-34.668,-28.320,-19.043,55.176
1688816612.001,-188.965,-31.738,-36.621,-76.660,-51.270
1688816612.005,-123.047,-33.691,-42.480,-110.352,70.312
1688816612.007,39.551,-34.668,-29.785,-53.223,76.172
1688816612.011,60.059,-37.598,-24.902,-2.930,-134.277
1688816612.015,-15.625,-47.363,-24.902,-5.371,-177.246
1688816612.019,-191.895,-48.828,-20.996,-42.969,-95.215
1688816612.023,-175.781,-52.246,-15.137,-98.633,-121.582
1688816612.027,3.418,-63.965,-5.859,-61.523,-107.910
1688816612.031,42.969,-74.219,6.348,2.441,-24.902
1688816612.034,-24.902,-77.637,13.184,4.395,138.184
1688816612.038,-183.594,-74.219,17.578,-30.273,145.508
1688816612.042,-188.477,-71.777,22.949,-82.031,-145.996
1688816612.046,-10.254,-81.543,24.902,-58.105,-97.168
1688816612.050,57.617,-83.984,25.879,-1.465,140.137
1688816612.053,-0.977,-82.031,26.855,-11.230,54.688
1688816612.057,-164.551,-90.332,29.297,-44.434,-63.477
1688816612.061,-222.168,-97.168,36.621,-89.355,-41.992
1688816612.065,-54.199,-94.727,43.457,-62.012,-69.824
1688816612.069,43.945,-93.750,44.922,6.836,-102.539
1688816612.073,-0.488,-95.215,46.387,-3.906,-58.594
1688816612.077,-161.621,-99.609,43.457,-32.227,87.891
1688816612.080,-235.352,-91.309,46.387,-63.477,296.875
1688816612.084,-66.895,-87.891,47.852,-62.988,-7.324
1688816612.088,41.504,-95.215,37.598,2.441,-208.008
1688816612.092,20.020,-91.309,38.086,20.996,-87.891
1688816612.096,-109.375,-91.797,41.992,-8.789,-123.535
1688816612.113,-209.473,-88.867,40.527,-45.410,-174.316
1688816612.117,-66.895,-83.496,40.039,-48.340,-239.746
1688816612.121,56.641,-83.984,39.551,18.555,-104.980
1688816612.125,47.363,-74.219,39.062,46.387,-4.395
1688816612.129,-67.871,-67.383,39.551,29.297,-128.906
1688816612.133,-207.031,-66.895,39.551,-18.555,-167.969
1688816612.137,-98.633,-62.500,36.133,-34.668,139.648
1688816612.140,45.410,-63.477,30.762,28.320,291.504
1688816612.144,39.551,-61.523,21.973,55.176,-65.430
1688816612.148,-70.801,-62.012,24.902,30.762,-182.129
1688816612.152,-205.078,-62.500,21.973,-21.973,-93.750
1688816612.156,-107.910,-58.105,18.555,-56.641,-102.539
1688816612.142,49.805,-55.176,20.020,1.465,-147.949
1688816612.146,68.359,-56.152,16.602,50.293,-66.895
1688816612.150,-20.508,-58.105,11.719,34.668,49.805
1688816612.154,-178.711,-53.711,4.395,-12.695,-27.832
1688816612.158,-130.859,-47.852,10.254,-62.988,-118.652
1688816612.162,32.715,-58.105,5.859,-6.348,-42.480
1688816612.166,61.035,-59.570,-1.953,46.387,56.152
1688816612.169,-15.137,-60.547,2.930,27.344,17.578
1688816612.173,-179.199,-59.082,1.953,-19.531,-109.863
1688816612.177,-149.414,-48.340,0.977,-63.477,-69.824
1688816612.181,34.668,-47.363,4.395,-6.348,187.988
1688816612.185,54.688,-46.387,-3.906,40.039,53.223
1688816612.202,-20.996,-48.340,-9.277,28.320,-136.719
1688816612.206,-154.297,-50.781,-6.836,3.418,-145.020
1688816612.210,-160.645,-38.086,-10.254,-57.617,-157.227
1688816612.214,9.277,-37.109,-13.672,-53.711,-163.086
1688816612.218,66.895,-43.457,-19.043,2.930,-156.250
1688816612.222,8.301,-42.480,-20.508,12.695,-97.656
1688816612.226,-147.949,-38.574,-13.184,-19.043,27.344
1688816612.229,-190.430,-35.156,-10.742,-73.730,44.922
1688816612.233,-17.090,-36.133,-12.207,-68.359,-118.652
1688816612.237,68.848,-45.410,-14.648,17.578,117.188
1688816612.241,41.992,-51.270,-16.113,40.039,265.625
1688816612.245,-109.375,-43.457,-20.996,-18.066,-88.379
1688816612.247,-189.453,-39.551,-23.926,-77.148,-143.555
1688816612.251,-20.020,-41.992,-24.902,-61.523,-37.109
1688816612.255,79.102,-41.992,-27.832,5.371,-48.828
1688816612.259,46.875,-43.945,-31.250,25.391,-130.371
1688816612.263,-96.191,-48.340,-32.227,0.000,-43.457
1688816612.267,-196.289,-37.109,-25.391,-53.711,113.770
1688816612.271,-51.758,-31.250,-26.855,-63.965,70.312
1688816612.274,69.824,-37.109,-30.762,2.930,-100.098
1688816612.278,62.988,-38.086,-27.344,42.969,-34.668
1688816612.282,-59.570,-30.273,-28.320,22.949,250.977
1688816612.286,-189.453,-23.926,-25.879,-44.434,5.371
1688816612.290,-68.848,-26.367,-24.414,-82.520,-270.508
1688816612.292,78.125,-32.227,-25.391,-28.809,-147.949
1688816612.296,77.148,-33.203,-33.203,-7.812,-88.867
1688816612.300,-37.598,-31.738,-37.598,-20.020,-143.555
1688816612.304,-177.734,-28.809,-31.250,-56.152,-152.344
1688816612.308,-79.102,-27.344,-30.762,-100.586,-65.430
1688816612.312,75.684,-25.879,-25.879,-41.504,4.395
1688816612.316,82.031,-24.902,-21.484,10.254,-51.270
1688816612.319,-17.578,-27.832,-26.367,-8.789,-139.160
1688816612.323,-168.457,-22.461,-26.367,-45.898,73.242
1688816612.327,-104.004,-23.438,-29.785,-92.285,0.488
1688816612.331,58.594,-36.133,-35.645,-52.734,-145.508
1688816612.335,79.590,-35.645,-34.180,1.465,49.316
1688816612.337,-3.418,-36.621,-34.180,0.000,272.461
1688816612.341,-163.086,-36.621,-35.156,-33.691,250.977
1688816612.345,-126.953,-30.762,-34.668,-88.379,-87.402
1688816612.349,52.246,-33.691,-34.180,-57.129,-175.293
1688816612.353,87.891,-32.715,-34.180,-2.441,-122.070
1688816612.357,11.719,-33.691,-40.527,-12.695,-81.055
1688816612.361,-142.090,-37.109,-37.598,-52.246,-93.262
1688816612.364,-145.996,-34.668,-30.762,-102.539,-13.184
1688816612.368,4.395,-39.551,-33.203,-76.660,92.285
1688816612.372,57.617,-54.199,-33.691,-1.465,-48.828
1688816612.376,36.621,-49.805,-27.344,20.996,-135.742
1688816612.380,-96.191,-20.996,-33.203,-2.441,-71.289
1688816612.383,-130.371,-5.859,-43.945,-79.590,-110.840
1688816612.387,45.410,-10.742,-50.781,-92.773,-223.633
1688816612.391,107.910,-10.742,-61.523,-31.738,-119.141
1688816612.395,57.617,-1.465,-65.430,-14.160,12.695
1688816612.399,-92.773,4.883,-75.684,-34.668,-42.969
1688816612.403,-151.367,4.883,-88.867,-95.703,-98.145
1688816612.407,22.949,0.977,-96.680,-93.750,-55.176
1688816612.410,110.352,1.465,-106.445,-18.066,156.738
1688816612.414,80.566,3.906,-114.258,-12.207,129.883
1688816612.418,-51.758,4.883,-117.188,-50.293,-78.125
1688816612.422,-145.508,15.137,-117.188,-96.680,-69.824
1688816612.426,-9.766,15.137,-121.582,-95.215,150.879
1688816612.457,105.469,11.719,-125.000,-26.367,160.156
1688816612.461,85.938,12.207,-129.395,-12.695,-134.766
1688816612.465,-41.992,14.160,-130.371,-39.551,-105.469
1688816612.469,-159.668,16.113,-129.883,-95.215,-91.309
1688816612.473,-30.762,12.695,-128.418,-107.910,-127.930
1688816612.477,114.258,21.973,-124.512,-37.598,-30.273
1688816612.481,105.469,19.531,-126.953,-15.137,107.422
1688816612.484,0.977,9.277,-120.605,-17.090,323.730
1688816612.488,-122.070,18.066,-111.328,-54.199,107.422
1688816612.492,-38.574,19.043,-109.375,-86.914,-207.520
1688816612.496,97.656,7.812,-106.445,-23.926,-116.699
1688816612.500,106.934,5.859,-100.098,7.812,-150.879
1688816612.478,8.789,1.465,-100.098,-17.578,-217.773
1688816612.482,-146.484,-2.930,-96.680,-64.941,-177.734
1688816612.486,-75.195,2.441,-92.285,-99.121,-138.184
1688816612.490,96.680,3.906,-90.332,-43.945,-106.445
1688816612.494,117.188,-1.953,-90.332,0.488,-108.398
1688816612.498,29.785,-5.371,-85.449,-3.418,16.602
1688816612.502,-131.836,-3.906,-78.613,-40.039,78.125
1688816612.505,-104.004,-2.441,-77.148,-93.262,-41.504
1688816612.509,58.594,-5.859,-80.078,-60.547,-114.258
1688816612.513,89.844,-10.254,-76.660,8.301,-63.965
1688816612.517,20.508,-11.230,-71.289,11.230,-33.203
1688816612.521,-141.602,-8.789,-70.312,-39.551,-24.414
1688816612.532,-137.207,-8.789,-64.941,-99.121,-139.160
1688816612.536,45.410,-17.090,-63.965,-71.289,-111.816
1688816612.540,94.238,-16.113,-63.965,-6.836,117.188
1688816612.544,28.320,-14.648,-64.941,-10.254,19.531
1688816612.548,-122.559,-18.555,-59.570,-33.203,-129.883
1688816612.552,-147.461,-20.508,-53.711,-73.730,-39.551
1688816612.556,28.809,-25.391,-54.199,-60.059,168.457
1688816612.559,100.586,-23.438,-55.176,5.371,314.453
1688816612.563,46.875,-24.414,-59.082,2.441,123.047
1688816612.567,-110.352,-29.785,-57.129,-26.855,34.180
1688816612.571,-176.758,-24.902,-52.734,-76.660,-17.090
1688816612.575,-0.488,-22.461,-54.199,-77.637,-208.496
1688816612.597,102.051,-23.438,-56.152,-0.488,-169.434
1688816612.601,57.129,-21.973,-50.293,15.137,-126.465
1688816612.605,-84.473,-20.508,-47.852,-18.066,-115.723
1688816612.609,-162.598,-21.484,-48.828,-64.941,-144.531
1688816612.613,-9.277,-21.973,-51.758,-72.754,-149.414
1688816612.617,89.355,-24.414,-55.176,-11.230,45.410
1688816612.621,63.965,-26.367,-50.293,13.184,118.652
1688816612.624,-60.059,-27.344,-47.363,-8.789,7.324
1688816612.628,-192.383,-31.250,-43.945,-54.199,-142.578
1688816612.632,-63.965,-26.855,-47.852,-81.055,-24.414
1688816612.636,81.055,-21.484,-51.270,-24.414,92.285
1688816612.640,68.848,-29.785,-51.270,10.254,-59.082
1688816612.652,-38.086,-33.691,-54.688,-10.254,-69.336
1688816612.656,-167.969,-22.461,-49.805,-50.781,-13.672
1688816612.660,-72.266,-14.160,-47.363,-83.496,-82.520
1688816612.664,79.102,-13.184,-48.340,-36.621,-127.441
1688816612.668,76.660,-18.555,-44.922,1.953,-40.039
1688816612.672,-26.855,-21.484,-47.363,-8.789,105.469
1688816612.676,-162.109,-16.602,-47.363,-52.246,4.395
1688816612.679,-83.008,-12.207,-42.480,-98.633,-187.988
1688816612.683,79.590,-20.020,-42.480,-41.016,-10.742
1688816612.687,94.727,-29.785,-44.922,24.902,139.160
1688816612.691,0.488,-23.926,-43.457,3.906,-82.031
1688816612.695,-164.062,-21.973,-38.574,-52.734,-185.059
1688816612.684,-115.234,-20.508,-35.156,-85.449,-79.102
1688816612.688,67.871,-20.020,-36.621,-45.898,242.676
1688816612.692,100.586,-25.391,-35.645,2.930,329.590
1688816612.696,21.484,-27.344,-33.203,5.859,12.695
1688816612.700,-148.438,-29.297,-36.621,-39.062,-153.320
1688816612.704,-152.832,-27.832,-41.992,-98.145,-133.301
1688816612.708,13.184,-26.855,-42.969,-76.172,-103.516
1688816612.711,64.941,-28.809,-40.039,-8.301,-85.449
1688816612.715,6.836,-29.297,-39.062,2.441,-96.680
1688816612.719,-153.809,-26.367,-38.086,-35.156,-108.887
1688816612.723,-182.617,-25.391,-33.691,-90.820,-85.449
1688816612.727,-3.906,-26.855,-32.715,-78.613,-47.852
1688816612.712,82.031,-27.832,-41.504,-17.578,14.648
1688816612.716,26.367,-29.785,-42.480,0.977,-37.598
1688816612.720,-141.113,-38.086,-38.574,-20.020,-98.145
1688816612.724,-194.336,-34.668,-37.109,-82.031,-127.930
1688816612.728,-22.461,-29.297,-30.273,-56.152,126.953
1688816612.732,74.707,-22.461,-37.109,12.695,386.719
1688816612.736,27.344,-16.602,-47.363,-18.066,15.137
1688816612.739,-123.047,-26.367,-40.527,-48.828,-140.625
1688816612.743,-195.801,-27.832,-39.062,-83.984,-87.402
1688816612.747,-33.691,-19.531,-40.039,-84.961,-238.281
1688816612.751,72.754,-23.438,-37.109,-18.555,-266.602
1688816612.755,48.828,-32.227,-38.574,-0.977,-43.457
1688816612.757,-71.289,-33.203,-40.527,-8.301,188.965
1688816612.761,-184.082,-29.297,-42.480,-55.664,-92.285
1688816612.765,-49.316,-31.738,-43.945,-84.473,-297.852
1688816612.769,95.215,-31.250,-39.551,-7.812,-38.086
1688816612.773,89.844,-26.855,-34.180,26.855,31.738
1688816612.777,-27.344,-27.344,-34.668,-5.371,-108.398
1688816612.781,-171.387,-29.297,-37.598,-49.316,-162.598
1688816612.784,-68.359,-31.738,-35.645,-62.988,166.992
1688816612.788,92.773,-33.203,-30.762,-7.324,311.523
1688816612.792,89.355,-35.645,-28.809,15.137,-77.637
1688816612.796,-21.973,-38.574,-30.273,2.441,-65.430
1688816612.800,-168.457,-35.156,-37.109,-43.945,59.570
1688816612.833,-89.844,-29.785,-39.551,-88.867,-85.938
1688816612.837,74.707,-29.297,-37.598,-38.086,-210.938
1688816612.841,87.891,-30.273,-34.668,12.207,-88.379
1688816612.845,0.000,-32.715,-33.691,5.371,-45.410
1688816612.849,-162.598,-31.250,-31.250,-39.551,-139.160
1688816612.853,-115.234,-28.809,-29.297,-90.820,-153.320
1688816612.857,67.383,-29.785,-35.156,-36.621,-21.973
1688816612.860,106.934,-26.855,-32.715,22.949,12.695
1688816612.864,20.020,-29.297,-31.250,-1.465,-93.750
1688816612.868,-144.531,-30.273,-34.180,-43.457,-105.469
1688816612.872,-123.047,-25.391,-29.785,-84.961,-51.758
1688816612.876,50.293,-26.855,-23.926,-50.293,-83.984
1688816612.926,99.121,-27.344,-21.973,7.324,-157.227
1688816612.930,41.016,-30.273,-23.926,2.930,-87.402
1688816612.934,-121.582,-29.297,-23.926,-32.227,-17.090
1688816612.938,-146.973,-23.926,-22.949,-81.055,-133.789
1688816612.942,30.273,-27.344,-25.879,-56.641,-240.723
1688816612.946,86.914,-33.203,-28.320,12.207,-62.500
1688816612.950,33.691,-36.133,-30.273,19.043,119.629
1688816612.953,-110.352,-36.133,-28.809,-25.391,-2.930
1688816612.957,-168.457,-28.320,-26.367,-105.469,-191.406
1688816612.961,-1.953,-25.391,-25.879,-96.191,-228.516
1688816612.965,87.402,-31.250,-30.762,-4.883,126.465
1688816612.969,55.664,-29.297,-35.156,6.348,226.562
1688816612.932,-86.426,-28.809,-32.715,-34.180,-155.762
1688816612.936,-190.430,-33.691,-33.203,-90.820,-164.062
1688816612.940,-42.480,-33.203,-35.645,-89.844,23.438
1688816612.944,83.984,-36.133,-32.715,-19.531,-84.473
1688816612.948,65.918,-38.086,-31.738,2.930,-272.461
1688816612.952,-64.453,-39.062,-28.809,-15.625,-56.152
1688816612.956,-188.477,-39.551,-30.762,-65.918,101.562
1688816612.959,-57.129,-34.668,-37.109,-90.332,-21.484
1688816612.963,87.402,-31.738,-35.645,-30.273,-123.047
1688816612.967,77.148,-36.621,-35.156,-2.441,20.996
1688816612.971,-46.387,-40.039,-39.062,-19.531,202.148
1688816612.975,-183.594,-36.133,-35.156,-60.059,-47.852
1688816612.955,-72.754,-31.250,-28.320,-86.426,-174.805
1688816612.959,75.684,-33.203,-30.273,-22.949,50.293
1688816612.963,70.312,-41.992,-30.762,20.508,72.266
1688816612.967,-42.969,-41.992,-30.762,-7.324,-113.770
1688816612.971,-175.781,-37.598,-31.738,-53.223,-114.258
1688816612.975,-91.309,-34.180,-31.250,-73.242,20.020
1688816612.979,46.875,-36.133,-33.203,-25.879,25.879
1688816612.982,65.430,-37.598,-35.645,1.465,-47.852
1688816612.986,-25.879,-39.062,-37.598,-25.879,-90.332
1688816612.990,-177.246,-38.086,-36.621,-70.801,40.527
1688816612.994,-121.582,-33.203,-32.227,-111.816,48.828
1688816612.998,46.875,-35.645,-35.156,-69.336,-86.914
1688816612.997,77.637,-44.434,-41.016,-17.090,-159.668
1688816613.001,-0.488,-49.316,-44.434,-18.066,79.590
1688816613.005,-163.086,-40.527,-39.551,-40.527,333.984
1688816613.009,-158.203,-40.527,-37.109,-86.426,380.859
1688816613.013,13.672,-43.457,-42.969,-62.988,258.789
1688816613.017,68.848,-43.945,-45.410,-8.789,-87.891
1688816613.021,3.418,-42.480,-44.922,-12.695,-130.371
1688816613.024,-151.367,-39.062,-39.551,-51.758,-188.477
1688816613.028,-172.852,-38.574,-36.133,-101.074,-158.203
1688816613.032,-1.953,-42.969,-36.621,-63.477,203.613
1688816613.036,73.730,-42.969,-38.086,-9.277,198.242
1688816613.040,22.461,-41.016,-42.969,-20.020,-84.961
1688816613.042,-135.254,-41.504,-37.598,-38.086,-116.211
1688816613.046,-180.664,-32.715,-25.879,-85.449,-191.406
1688816613.050,-4.395,-32.227,-33.691,-85.449,-237.793
1688816613.054,75.195,-38.086,-38.574,-14.160,-193.359
1688816613.058,38.574,-35.645,-34.180,10.254,-130.859
1688816613.062,-97.656,-32.227,-38.574,-20.996,-82.031
1688816613.066,-180.176,-26.855,-35.156,-72.754,-139.648
1688816613.069,-22.949,-20.996,-31.738,-75.684,-183.105
1688816613.073,84.473,-22.949,-32.715,4.883,17.578
1688816613.077,69.824,-20.996,-31.250,40.527,113.770
1688816613.081,-62.012,-21.973,-32.715,7.812,-15.625
1688816613.085,-191.406,-29.297,-33.203,-47.363,-120.605
1688816613.087,-50.781,-29.785,-30.762,-64.453,18.066
1688816613.091,81.055,-24.902,-29.785,0.977,141.602
1688816613.095,61.035,-26.367,-30.762,29.297,-118.164
1688816613.099,-57.129,-29.297,-30.762,12.695,-151.855
1688816613.103,-187.500,-33.691,-31.250,-37.109,-136.719
1688816613.107,-77.148,-32.227,-30.762,-71.289,-144.531
1688816613.111,72.754,-29.785,-29.297,-18.066,-116.699
1688816613.114,74.707,-36.133,-35.156,27.344,-22.949
1688816613.118,-41.016,-36.133,-36.133,22.461,258.301
1688816613.122,-190.430,-25.879,-30.273,-31.250,34.180
1688816613.126,-98.145,-20.996,-33.691,-70.801,-260.742
1688816613.130,70.312,-28.809,-38.574,-14.160,-164.062
1688816613.162,90.820,-33.203,-33.691,34.180,-100.098
1688816613.166,-5.371,-27.832,-28.320,23.438,-107.910
1688816613.170,-173.828,-30.762,-27.344,-18.555,-117.676
1688816613.174,-124.512,-31.738,-31.738,-72.266,-113.281
1688816613.178,56.152,-32.715,-36.133,-35.645,-141.113
1688816613.182,87.891,-38.574,-36.621,23.438,-7.324
1688816613.186,-0.977,-38.574,-35.645,4.883,31.738
1688816613.189,-167.969,-35.156,-34.668,-34.668,162.109
1688816613.193,-149.414,-33.203,-30.762,-74.707,175.781
1688816613.197,30.762,-41.016,-32.227,-53.711,-138.184
1688816613.201,88.379,-44.434,-36.133,0.488,-68.848
1688816613.205,27.344,-45.898,-34.668,6.348,147.461
1688816613.177,-148.926,-45.898,-31.738,-25.391,11.230
1688816613.181,-176.270,-39.062,-30.273,-79.590,-238.281
1688816613.185,2.441,-37.109,-29.297,-56.641,-174.805
1688816613.189,81.055,-32.715,-25.879,11.719,-46.387
1688816613.193,31.250,-27.832,-30.273,6.836,-131.836
1688816613.197,-121.094,-31.250,-31.250,-32.227,-98.633
1688816613.201,-159.180,-31.250,-27.344,-77.148,8.301
1688816613.204,-3.906,-33.203,-31.250,-64.941,4.883
1688816613.208,75.195,-38.086,-34.668,0.977,-71.289
1688816613.212,45.410,-37.109,-32.227,17.090,-110.352
1688816613.216,-97.656,-40.039,-29.785,-1.465,-15.137
1688816613.220,-193.359,-38.086,-31.250,-54.199,-30.273
1688816613.225,-49.805,-33.203,-36.133,-65.430,-86.426
1688816613.229,66.406,-33.691,-43.457,0.977,-130.859
1688816613.233,51.758,-34.668,-41.992,22.461,39.062
1688816613.237,-79.590,-30.762,-34.180,-3.906,324.219
1688816613.241,-190.918,-28.320,-34.180,-70.312,45.410
1688816613.245,-50.293,-28.809,-35.645,-90.332,-100.098
1688816613.249,82.520,-28.320,-38.086,-24.414,114.746
1688816613.252,69.336,-27.344,-37.109,8.789,77.637
1688816613.256,-61.523,-30.762,-38.574,-11.719,-114.746
1688816613.260,-199.707,-29.785,-38.574,-62.012,-147.461
1688816613.264,-78.125,-26.855,-35.645,-72.754,227.539
1688816613.268,65.430,-24.414,-35.645,-16.602,274.902
1688816613.282,62.012,-22.949,-37.598,3.418,-151.367
1688816613.286,-47.363,-27.832,-39.551,-3.906,-106.934
1688816613.290,-192.383,-26.367,-36.133,-37.598,-16.113
1688816613.294,-106.934,-29.785,-30.273,-83.496,-46.875
1688816613.298,48.828,-36.621,-32.227,-35.156,-135.742
1688816613.302,71.777,-36.621,-30.762,22.461,-22.949
1688816613.306,-20.996,-33.203,-23.926,18.066,383.301
1688816613.309,-183.594,-31.250,-25.879,-34.668,253.906
1688816613.313,-127.930,-30.762,-30.273,-90.820,-164.551
1688816613.317,49.316,-30.762,-31.738,-43.457,-113.281
1688816613.321,80.566,-37.598,-31.250,13.184,-87.402
1688816613.325,-2.930,-40.527,-34.180,0.977,-134.766
1688816613.328,-169.922,-48.340,-35.156,-35.156,-130.859
1688816613.332,-149.414,-44.922,-34.180,-88.867,-124.023
1688816613.336,46.387,-37.598,-35.156,-67.383,-176.270
1688816613.340,101.562,-41.992,-29.297,8.789,-233.398
1688816613.344,16.113,-39.551,-19.531,20.020,-215.820
1688816613.348,-153.809,-36.133,-16.113,-25.391,-156.250
1688816613.352,-165.527,-38.086,-13.184,-88.867,-145.020
1688816613.355,7.324,-40.039,-1.465,-68.359,-122.559
1688816613.359,64.453,-45.410,2.930,1.465,-150.391
1688816613.363,12.695,-54.199,7.324,12.695,80.566
1688816613.367,-143.066,-55.176,14.648,-23.438,309.570
1688816613.371,-209.473,-57.617,19.531,-96.191,-62.500
1688816613.373,-44.922,-63.965,23.926,-85.938,-185.059
1688816613.377,42.480,-70.801,24.902,-7.324,119.141
1688816613.381,0.488,-75.684,25.879,-8.789,48.340
1688816613.385,-146.973,-72.266,22.949,-43.945,-183.105
1688816613.389,-232.422,-68.359,24.902,-77.148,-101.074
1688816613.393,-79.102,-70.312,30.273,-68.359,-44.922
1688816613.397,25.879,-69.824,33.203,-10.254,-84.473
1688816613.400,8.789,-71.777,40.039,1.465,-129.395
1688816613.404,-124.023,-80.566,45.898,-25.879,-65.430
1688816613.408,-241.699,-85.449,44.922,-65.430,248.047
1688816613.412,-106.445,-84.961,42.969,-78.613,159.668
1688816613.416,20.508,-86.426,45.410,-15.625,-196.289
1688816613.417,4.883,-86.914,48.828,13.184,-166.992
1688816613.421,-113.770,-84.961,49.805,-19.043,-82.520
1688816613.425,-243.164,-84.961,50.293,-64.941,-131.348
1688816613.429,-127.930,-85.449,45.410,-85.938,-123.535
1688816613.433,24.902,-87.402,42.480,-34.668,-41.992
1688816613.437,25.879,-81.055,49.805,6.836,-6.348
1688816613.441,-92.773,-72.754,50.293,-1.465,-45.410
1688816613.444,-238.281,-72.754,41.992,-41.992,-132.324
1688816613.448,-140.625,-70.801,38.086,-74.707,29.785
1688816613.452,39.551,-71.289,37.109,-26.367,137.207
1688816613.456,45.410,-74.707,36.621,8.789,-20.996
1688816613.460,-62.500,-76.660,34.668,5.371,-32.715
1688816613.462,-216.309,-75.195,35.156,-22.949,151.367
1688816613.466,-158.691,-67.383,34.180,-71.289,68.359
1688816613.470,8.301,-62.988,27.832,-38.086,-183.594
1688816613.474,40.039,-60.059,29.785,13.672,-73.730
1688816613.478,-33.203,-65.430,27.344,6.836,-71.777
1688816613.482,-198.242,-70.801,17.578,-35.645,-71.777
1688816613.486,-170.898,-62.500,17.090,-83.008,-97.656
1688816613.489,18.066,-56.641,18.066,-48.828,-54.688
1688816613.493,58.594,-54.199,12.207,7.324,174.316
1688816613.497,3.418,-57.617,12.207,0.000,10.742
1688816613.501,-158.691,-59.570,18.066,-29.785,-178.711
1688816613.505,-170.898,-54.688,18.066,-69.336,-163.086
1688816613.510,24.414,-55.176,14.160,-54.688,-84.961
1688816613.514,84.473,-54.688,12.207,11.719,-94.238
1688816613.518,19.531,-58.594,3.418,32.715,-169.922
1688816613.522,-149.414,-59.570,-4.883,-3.418,28.809
1688816613.526,-184.082,-53.711,-5.371,-64.941,39.551
1688816613.530,3.906,-46.387,-2.441,-41.504,-28.320
1688816613.534,80.078,-49.805,-5.859,15.137,-37.598
1688816613.537,24.414,-55.664,-9.277,12.695,115.723
1688816613.541,-128.906,-50.293,-6.348,-12.695,209.473
1688816613.545,-198.730,-45.898,-3.418,-60.547,-84.473
1688816613.549,-29.297,-46.387,-7.324,-54.688,-109.375
1688816613.553,74.219,-47.852,-16.113,3.418,7.812
1688816613.553,44.922,-49.316,-19.043,14.648,-45.898
1688816613.557,-81.055,-47.852,-22.461,-8.789,-143.555
1688816613.561,-187.500,-46.875,-22.461,-74.219,-104.492
1688816613.565,-45.898,-43.457,-21.973,-87.891,66.406
1688816613.569,85.938,-44.922,-24.414,-19.531,-44.434
1688816613.573,72.754,-51.758,-27.344,3.418,-81.543
1688816613.577,-62.988,-50.781,-27.344,-21.973,25.879
1688816613.580,-206.543,-47.852,-22.949,-57.617,274.902
1688816613.584,-69.336,-41.504,-19.043,-78.613,245.605
1688816613.588,82.031,-43.457,-28.320,-34.668,-115.723
1688816613.592,58.105,-48.828,-30.762,9.277,-150.391
1688816613.596,-45.898,-50.781,-23.926,-4.883,-77.148
1688816613.597,-188.965,-48.828,-23.438,-56.152,-98.633
1688816613.601,-106.445,-45.898,-23.438,-89.355,-188.477
1688816613.605,55.176,-49.316,-26.855,-35.156,-144.043
1688816613.609,77.637,-47.852,-31.738,10.742,-69.336
1688816613.613,-9.766,-45.410,-31.738,7.324,-108.398
1688816613.617,-183.594,-48.828,-31.250,-39.062,-119.141
1688816613.621,-127.930,-46.387,-31.250,-86.914,128.906
1688816613.624,53.711,-43.945,-31.738,-44.922,239.258
1688816613.628,89.844,-45.898,-30.273,2.441,-57.129
1688816613.632,4.395,-46.387,-28.320,2.441,-123.047
1688816613.636,-160.156,-43.457,-27.832,-33.203,13.672
1688816613.640,-111.816,-38.086,-28.809,-87.891,-40.039
1688816613.642,65.430,-39.062,-30.273,-47.363,-156.738
1688816613.646,87.402,-37.598,-26.855,16.602,-86.426
1688816613.650,22.949,-35.645,-23.438,12.695,-21.484
1688816613.654,-128.906,-35.645,-24.414,-20.996,-80.078
1688816613.658,-133.789,-34.180,-27.344,-73.242,-144.531
1688816613.662,27.832,-54.199,-34.668,-49.316,13.184
1688816613.666,94.238,-65.918,-30.273,30.273,198.242
1688816613.669,66.895,-42.969,-34.180,33.691,-34.180
1688816613.673,-79.102,-26.855,-43.945,-19.043,-201.660
1688816613.677,-120.605,-20.508,-45.898,-71.289,25.391
1688816613.681,38.086,-19.043,-58.105,-52.734,121.582
1688816613.685,112.793,-25.391,-68.848,-12.695,-132.812
1688816613.702,82.031,-14.648,-80.566,-13.672,-160.645
1688816613.706,-58.105,-13.184,-83.984,-27.832,-69.824
1688816613.710,-142.578,-9.766,-84.961,-86.426,-125.488
1688816613.714,25.391,3.418,-93.750,-82.031,-211.426
1688816613.718,148.438,1.953,-94.727,-4.395,-142.090
1688816613.722,106.934,1.465,-95.215,3.418,27.832
1688816613.726,-47.852,3.418,-97.168,-28.809,20.020
1688816613.729,-143.066,13.672,-99.121,-75.684,-87.891
1688816613.733,1.953,13.672,-104.492,-99.121,-115.234
1688816613.737,125.000,5.859,-108.887,-34.668,173.828
1688816613.741,103.027,5.859,-113.770,-8.301,277.344
1688816613.745,-35.156,3.418,-116.699,-49.805,-91.309
1688816613.748,-166.504,4.883,-117.188,-105.957,-158.203
1688816613.752,-41.504,8.301,-113.281,-119.629,-115.234
1688816613.756,104.492,13.672,-118.652,-60.059,-140.137
1688816613.760,91.309,15.625,-123.535,-40.039,-175.781
1688816613.764,-22.461,12.695,-124.023,-56.152,-111.816
1688816613.768,-157.227,12.695,-126.953,-99.121,-17.578
1688816613.772,-68.848,7.812,-130.371,-143.066,-34.180
1688816613.775,86.426,10.254,-128.418,-92.285,-191.406
1688816613.779,98.633,14.160,-123.047,-46.387,-94.727
1688816613.783,-9.277,5.371,-122.559,-54.199,176.758
1688816613.787,-143.066,2.441,-125.488,-80.078,5.371
1688816613.791,-62.500,-0.488,-120.117,-115.234,-184.082
1688816613.792,97.656,-4.395,-115.723,-62.500,41.504
1688816613.796,125.488,-4.883,-114.258,2.930,79.590
1688816613.800,22.461,-6.836,-104.492,-14.160,-111.328
1688816613.804,-138.184,-6.836,-91.309,-57.129,-82.520
1688816613.808,-87.891,-3.906,-85.449,-90.820,-107.422
1688816613.812,93.262,-3.906,-83.496,-48.828,-83.008
1688816613.816,128.906,-6.836,-86.426,18.066,-39.551
1688816613.819,48.340,-8.789,-83.008,27.832,-75.684
1688816613.823,-106.445,-11.230,-77.637,0.977,96.191
1688816613.827,-113.281,-8.789,-81.543,-63.477,119.141
1688816613.831,56.641,-13.672,-83.008,-50.293,-81.055
1688816613.835,110.840,-20.508,-77.148,11.230,-14.648
1688816613.838,44.922,-23.926,-75.195,6.348,65.918
1688816613.842,-106.934,-20.020,-69.336,-15.625,36.621
1688816613.846,-143.066,-13.184,-67.871,-62.500,-110.352
1688816613.850,22.461,-17.578,-71.777,-62.988,-101.074
1688816613.854,103.516,-20.020,-67.871,-5.371,13.184
1688816613.858,66.895,-18.555,-60.547,2.930,-45.410
1688816613.862,-83.008,-21.484,-59.082,-22.461,-139.160
1688816613.865,-160.156,-26.367,-60.059,-62.500,-41.016
1688816613.869,7.812,-26.367,-55.664,-58.105,106.934
1688816613.873,114.746,-21.973,-54.688,-7.324,-13.672
1688816613.877,75.195,-23.438,-54.688,7.812,-141.602
1688816613.881,-64.941,-21.973,-54.199,-16.113,-70.312
1688816613.882,-153.809,-13.184,-52.246,-75.195,-61.523
1688816613.886,-7.812,-12.207,-46.387,-93.750,-149.414
1688816613.890,110.840,-21.973,-46.387,-27.832,-143.066
1688816613.894,94.238,-27.832,-51.270,11.230,-133.789
1688816613.898,-44.922,-30.762,-56.641,-5.859,-39.551
1688816613.902,-160.645,-34.668,-54.688,-54.199,68.848
1688816613.906,-38.574,-28.809,-44.922,-82.520,15.137
1688816613.909,82.520,-28.320,-46.387,-23.926,162.598
1688816613.913,77.637,-30.273,-51.758,14.648,276.367
1688816613.917,-29.785,-25.391,-47.363,3.906,-36.133
1688816613.921,-169.434,-27.832,-47.852,-38.574,-47.363
1688816613.925,-72.754,-22.949,-45.898,-72.266,59.082
1688816613.957,86.426,-21.973,-42.480,-25.391,-59.082
1688816613.961,90.820,-29.785,-42.480,10.742,-157.715
1688816613.965,-14.648,-31.738,-39.551,1.465,-52.246
1688816613.969,-169.434,-34.668,-44.922,-41.992,18.066
1688816613.973,-104.492,-33.203,-47.852,-97.168,-117.676
1688816613.977,59.082,-33.691,-42.969,-60.547,-103.027
1688816613.981,80.566,-40.527,-38.086,-7.324,75.684
1688816613.984,-1.465,-41.504,-36.133,-4.395,343.750
1688816613.988,-164.551,-37.598,-34.180,-39.551,123.535
1688816613.992,-127.930,-33.691,-33.691,-94.727,-252.930
1688816613.996,56.152,-28.809,-36.621,-46.875,-211.426
1688816614.000,81.543,-31.250,-41.992,14.160,-167.480
1688816613.972,-1.465,-33.203,-42.969,-5.371,-192.383
1688816613.976,-160.645,-29.785,-40.527,-55.176,-110.352
1688816613.980,-153.320,-28.320,-40.527,-112.305,-68.848
1688816613.984,23.926,-33.203,-41.992,-80.566,-97.656
1688816613.988,68.359,-38.574,-39.551,-4.883,-73.730
1688816613.992,12.207,-37.109,-37.598,-0.977,42.480
1688816613.996,-135.742,-37.598,-38.574,-36.621,170.410
1688816613.999,-164.551,-32.715,-37.109,-84.961,-20.020
1688816614.003,3.906,-32.715,-39.551,-68.359,-176.270
1688816614.007,76.660,-38.574,-40.527,0.488,-33.691
1688816614.011,32.227,-36.621,-38.574,17.090,53.711
1688816614.015,-113.281,-30.762,-33.203,-6.836,-30.762
1688816614.017,-170.898,-26.367,-32.227,-64.941,-193.848
1688816614.021,-6.836,-29.785,-33.203,-71.777,-210.449
1688816614.025,85.449,-36.133,-30.273,0.488,160.156
1688816614.029,50.293,-41.016,-30.273,20.020,303.223
1688816614.033,-81.055,-38.574,-34.180,-19.043,-116.699
1688816614.037,-186.523,-38.086,-32.715,-74.219,-116.699
1688816614.041,-49.316,-39.551,-36.133,-77.637,163.574
1688816614.044,72.266,-40.527,-41.016,-16.602,-59.570
1688816614.048,49.316,-38.086,-42.480,-0.488,-254.883
1688816614.052,-72.266,-39.062,-43.457,-21.973,-12.695
1688816614.056,-184.570,-41.016,-41.016,-68.848,111.816
1688816614.060,-56.152,-31.738,-40.039,-97.656,-104.980
1688816614.064,68.359,-30.762,-34.180,-41.504,-145.996
1688816614.068,49.805,-38.086,-38.574,-6.348,-64.941
1688816614.072,-61.523,-39.551,-43.945,-21.973,-64.453
1688816614.076,-204.102,-33.691,-40.039,-63.477,-87.402
1688816614.080,-100.586,-26.367,-36.133,-101.074,-136.230
1688816614.084,71.777,-26.855,-32.715,-46.875,-36.621
1688816614.088,80.566,-32.227,-30.273,8.301,78.125
1688816614.091,-24.414,-32.227,-33.691,-14.648,-106.934
1688816614.095,-182.617,-30.273,-37.109,-71.289,-158.691
1688816614.099,-116.699,-22.949,-34.180,-103.516,65.918
1688816614.103,53.711,-18.555,-37.109,-49.805,80.078
1688816614.107,66.895,-21.973,-38.086,-4.395,-90.820
1688816614.123,-12.695,-25.879,-34.668,-12.695,-120.605
1688816614.127,-169.434,-30.762,-36.133,-45.410,17.090
1688816614.131,-127.930,-28.809,-33.203,-90.820,-30.273
1688816614.135,43.945,-24.414,-31.250,-62.500,-236.816
1688816614.139,73.242,-28.320,-35.156,-3.418,-143.066
1688816614.143,12.207,-26.855,-32.715,9.277,217.773
1688816614.147,-140.137,-20.508,-30.273,-24.902,157.227
1688816614.150,-136.719,-16.602,-28.809,-88.379,-169.434
1688816614.154,39.062,-18.066,-28.809,-63.965,-54.199
1688816614.158,94.727,-23.438,-29.785,-4.883,84.473
1688816614.162,39.551,-28.809,-31.250,-1.465,-79.102
1688816614.166,-122.070,-30.762,-33.203,-33.691,-126.465
1688816614.168,-156.250,-24.902,-29.297,-91.797,-70.312
1688816614.172,19.531,-25.391,-25.879,-65.430,-90.332
1688816614.176,87.402,-30.273,-25.879,8.789,-113.770
1688816614.180,49.316,-30.762,-23.438,8.301,-109.863
1688816614.184,-96.191,-31.738,-22.461,-26.855,-66.895
1688816614.188,-176.270,-29.297,-26.855,-90.332,-42.969
1688816614.192,-16.113,-28.809,-28.809,-93.262,-88.379
1688816614.195,82.031,-31.738,-26.367,-24.414,-102.051
1688816614.199,54.199,-33.203,-24.902,3.418,86.426
1688816614.203,-86.426,-34.668,-31.738,-19.043,240.723
1688816614.207,-183.105,-33.203,-36.621,-80.566,-49.805
1688816614.211,-38.086,-32.227,-33.691,-82.031,-157.715
1688816614.213,86.426,-32.715,-38.574,-20.508,-29.785
1688816614.217,71.777,-32.715,-39.062,-10.254,-27.832
1688816614.221,-72.266,-36.621,-36.621,-29.785,-102.051
1688816614.225,-189.453,-37.598,-37.598,-81.543,-81.055
1688816614.229,-53.711,-34.668,-39.062,-108.887,-78.613
1688816614.233,74.219,-35.156,-42.969,-42.480,-48.828
1688816614.237,66.895,-37.598,-41.016,-13.672,-60.547
1688816614.240,-44.434,-36.133,-36.621,-34.180,-16.113
1688816614.244,-196.777,-37.598,-40.039,-74.219,317.383
1688816614.248,-100.098,-35.645,-46.875,-113.281,181.641
1688816614.252,54.688,-33.691,-43.457,-56.152,-137.207
1688816614.256,55.664,-36.133,-37.598,-8.789,-100.098
1688816614.257,-44.922,-41.016,-40.039,-33.203,-81.543
1688816614.261,-196.777,-44.434,-38.086,-85.938,-111.328
1688816614.265,-118.652,-38.574,-40.039,-130.859,-156.250
1688816614.269,52.734,-31.250,-44.434,-74.707,-121.582
1688816614.273,67.871,-34.668,-41.504,-14.160,-100.098
1688816614.277,-21.484,-42.480,-40.527,-24.414,-39.062
1688816614.281,-175.781,-41.504,-38.574,-60.059,-16.602
1688816614.284,-138.184,-41.016,-33.691,-100.586,122.559
1688816614.288,33.691,-39.551,-32.227,-54.688,257.324
1688816614.292,72.754,-40.527,-38.086,-3.906,-18.066
1688816614.296,-7.812,-49.805,-34.668,-14.648,-165.527
1688816614.300,-175.781,-48.340,-25.391,-38.574,156.738
1688816614.302,-157.227,-39.551,-22.949,-91.309,156.738
1688816614.306,26.367,-34.180,-26.367,-68.359,-204.102
1688816614.310,72.266,-27.344,-29.297,0.488,-167.969
1688816614.314,5.371,-26.855,-31.250,-6.836,-83.008
1688816614.318,-163.574,-31.738,-36.621,-43.457,-132.324
1688816614.322,-177.246,-31.250,-40.527,-97.168,-160.156
1688816614.326,6.836,-34.668,-39.551,-77.148,17.090
1688816614.329,67.871,-37.109,-34.180,-3.906,218.262
1688816614.333,25.879,-36.133,-34.180,-3.906,0.488
1688816614.337,-129.883,-40.039,-38.086,-50.781,-164.062
1688816614.341,-194.336,-31.250,-36.133,-107.910,-93.750
1688816614.345,-18.555,-29.785,-37.598,-97.656,-38.574
1688816614.347,86.426,-35.156,-44.434,-32.227,-53.223
1688816614.351,48.828,-34.180,-47.852,-23.926,-175.293
1688816614.355,-87.891,-32.227,-42.480,-39.062,-75.195
1688816614.359,-177.734,-28.809,-35.645,-83.984,-23.926
1688816614.363,-36.621,-30.273,-37.109,-95.703,-181.641
1688816614.367,87.402,-28.320,-38.086,-19.043,-96.680
1688816614.371,73.242,-30.762,-33.203,17.090,257.812
1688816614.374,-56.641,-34.180,-34.180,0.977,265.625
1688816614.378,-174.805,-25.879,-37.109,-65.918,-128.418
1688816614.382,-45.410,-25.391,-39.062,-93.262,-206.543
1688816614.386,90.820,-28.320,-41.016,-21.973,-30.273
1688816614.390,63.477,-31.250,-41.992,0.977,-20.020
1688816614.394,-61.523,-34.180,-43.945,-26.367,-136.719
1688816614.398,-198.242,-32.715,-39.062,-74.707,-34.180
1688816614.402,-103.516,-36.621,-35.156,-105.957,124.512
1688816614.406,48.828,-40.527,-39.062,-57.617,-8.301
1688816614.410,42.480,-39.551,-35.156,-29.297,-195.312
1688816614.414,-70.312,-42.969,-30.273,-39.551,-36.133
1688816614.418,-209.961,-41.992,-33.203,-78.125,155.273
1688816614.421,-128.906,-33.203,-34.668,-123.047,-93.262
1688816614.425,40.527,-31.250,-35.645,-71.777,-218.262
1688816614.429,57.617,-34.668,-41.504,-20.996,15.137
1688816614.433,-28.809,-40.039,-44.922,-31.250,30.762
1688816614.437,-183.105,-40.039,-43.457,-72.266,-169.922
1688816614.452,-147.949,-35.156,-39.551,-111.328,-271.973
1688816614.456,21.484,-41.504,-39.062,-74.219,-160.645
1688816614.460,61.035,-45.410,-41.992,-30.273,-121.094
1688816614.464,-19.531,-47.363,-42.480,-29.297,-118.652
1688816614.468,-183.594,-44.922,-41.992,-62.500,-92.773
1688816614.472,-160.156,-37.598,-36.621,-113.770,139.648
1688816614.476,26.367,-36.621,-31.738,-87.402,271.973
1688816614.479,77.637,-33.203,-33.203,-23.926,-104.980
1688816614.483,14.160,-35.156,-36.133,-15.137,-155.762
1688816614.487,-141.113,-34.180,-34.180,-46.875,49.316
1688816614.491,-161.133,-24.414,-32.715,-100.098,74.707
1688816614.495,19.043,-21.973,-31.250,-76.660,-52.734
1688816614.497,97.656,-28.809,-29.297,-1.465,-130.859
1688816614.501,46.387,-34.668,-30.762,-4.395,14.160
1688816614.505,-114.746,-32.715,-37.109,-43.457,3.906
1688816614.509,-169.434,-27.832,-37.109,-86.914,-166.504
1688816614.513,4.883,-30.762,-37.109,-70.312,-124.512
1688816614.517,95.703,-35.645,-41.504,-4.883,0.977
1688816614.521,56.641,-37.598,-41.992,6.836,5.859
1688816614.524,-93.750,-34.668,-40.527,-21.973,29.297
1688816614.528,-189.941,-31.738,-38.574,-74.219,55.664
1688816614.532,-33.691,-29.785,-38.086,-65.918,207.520
1688816614.536,79.102,-27.832,-39.062,-1.465,71.777
1688816614.540,53.223,-31.738,-29.297,12.207,-186.035
1688816614.542,-83.008,-35.645,-22.949,-9.766,-147.949
1688816614.546,-197.754,-29.785,-27.832,-61.035,-111.816
1688816614.550,-71.777,-28.320,-33.691,-85.449,-237.305
1688816614.554,62.988,-34.668,-36.133,-30.273,-228.516
1688816614.558,63.965,-36.621,-36.621,-4.883,-132.812
1688816614.562,-61.523,-37.109,-43.945,-24.902,-40.527
1688816614.566,-207.520,-33.691,-46.875,-63.477,46.387
1688816614.569,-103.027,-30.762,-44.922,-91.797,-194.336
1688816614.573,56.641,-34.668,-41.992,-27.832,11.230
1688816614.577,66.895,-34.668,-41.016,30.762,269.043
1688816614.581,-55.176,-41.992,-40.039,4.883,-84.961
1688816614.585,-203.613,-45.410,-35.156,-47.363,-155.762
1688816614.587,-104.980,-37.598,-38.574,-85.938,-84.961
1688816614.591,62.500,-39.062,-40.039,-35.156,-99.121
1688816614.595,65.918,-41.016,-40.039,10.254,-187.988
1688816614.599,-25.391,-38.086,-38.086,-4.883,-104.980
1688816614.603,-174.805,-38.086,-35.645,-32.715,57.617
1688816614.607,-116.699,-30.762,-33.203,-74.707,-62.988
1688816614.611,65.430,-26.855,-32.227,-32.715,-99.121
1688816614.614,90.332,-33.691,-32.715,28.809,99.609
1688816614.618,4.883,-34.668,-31.738,26.367,204.590
1688816614.622,-158.691,-29.785,-31.738,-28.809,-44.434
1688816614.626,-135.254,-28.320,-33.691,-85.938,-170.898
1688816614.630,39.551,-39.551,-35.645,-51.270,0.488
1688816614.635,71.777,-41.992,-32.227,4.395,-31.250
1688816614.639,8.301,-36.133,-26.367,4.883,-193.359
1688816614.643,-148.438,-40.527,-27.344,-22.461,-134.766
1688816614.647,-155.762,-37.598,-29.785,-74.707,-98.633
1688816614.651,19.043,-34.180,-33.203,-57.617,-113.770
1688816614.655,71.777,-37.109,-33.691,11.230,-11.230
1688816614.659,30.273,-39.062,-36.621,21.484,34.180
1688816614.662,-120.605,-38.574,-38.574,-9.277,60.059
1688816614.666,-180.664,-30.273,-33.691,-67.383,-32.227
1688816614.670,-6.836,-30.273,-30.762,-49.316,-177.246
1688816614.674,77.637,-37.109,-30.273,20.996,-117.188
1688816614.678,34.668,-36.621,-27.832,19.043,112.305
1688816614.678,-105.469,-32.715,-23.926,-17.578,73.242
1688816614.682,-193.359,-29.297,-26.855,-74.707,-124.512
1688816614.686,-38.086,-28.809,-33.691,-78.125,-114.746
1688816614.690,78.613,-33.203,-30.273,-6.836,65.430
1688816614.694,60.547,-32.715,-28.809,19.043,50.781
1688816614.698,-77.637,-32.227,-31.738,-2.930,-0.488
1688816614.702,-189.941,-32.227,-32.227,-53.223,114.746
1688816614.705,-47.852,-29.785,-32.715,-59.570,295.898
1688816614.709,78.125,-29.785,-31.738,1.465,220.703
1688816614.713,71.289,-31.250,-31.738,23.926,-101.074
1688816614.717,-46.875,-32.715,-33.691,2.930,-137.207
1688816614.721,-181.641,-30.273,-34.180,-43.945,-80.078
1688816614.722,-58.594,-27.344,-32.227,-72.266,-130.859
1688816614.726,82.520,-33.203,-37.598,-21.973,-187.012
1688816614.730,65.918,-38.086,-41.504,13.672,-159.668
1688816614.734,-42.969,-33.203,-35.645,-3.906,-25.391
1688816614.738,-177.734,-28.320,-35.645,-60.059,-56.641
1688816614.742,-89.844,-31.250,-42.969,-103.027,-226.562
1688816614.746,64.941,-37.109,-36.621,-35.156,95.703
1688816614.749,70.312,-34.180,-23.926,12.207,321.289
1688816614.753,-42.969,-34.668,-21.484,-15.625,-42.480
1688816614.757,-194.824,-46.387,-16.113,-64.453,-148.926
1688816614.761,-134.277,-52.246,-9.277,-116.699,-89.844
1688816614.765,14.160,-52.246,-1.465,-69.336,-113.281
1688816614.768,41.016,-55.664,3.906,-18.066,-137.207
1688816614.772,-21.484,-63.477,2.930,-28.809,-90.820
1688816614.776,-198.730,-62.500,7.812,-65.430,9.277
1688816614.780,-199.219,-60.059,16.113,-114.258,-138.672
1688816614.784,-14.648,-62.988,19.531,-74.707,-243.164
1688816614.788,37.109,-68.848,19.043,-7.812,26.855
1688816614.792,-38.086,-77.148,19.043,-14.160,281.738
1688816614.795,-200.195,-71.289,18.066,-54.199,126.465
1688816614.799,-214.355,-68.359,20.508,-109.375,-128.906
1688816614.803,-41.016,-82.031,28.809,-81.055,-33.203
1688816614.807,34.180,-83.008,39.062,-4.395,125.000
1688816614.811,-24.414,-84.961,36.133,-10.254,-121.582
1688816614.827,-185.547,-88.867,30.273,-45.898,-190.918
1688816614.831,-233.887,-84.473,29.785,-90.332,-149.902
1688816614.835,-55.664,-87.402,25.879,-73.242,-176.758
1688816614.839,33.203,-85.938,22.461,-25.879,-129.395
1688816614.843,-2.930,-81.055,26.367,-14.648,-92.285
1688816614.847,-141.602,-75.195,29.297,-25.391,28.320
1688816614.851,-221.191,-71.777,30.273,-73.730,17.090
1688816614.854,-56.641,-68.848,34.668,-73.730,-51.758
1688816614.858,58.105,-65.430,35.156,-9.277,-49.805
1688816614.862,16.602,-69.824,32.227,20.996,130.371
1688816614.866,-123.535,-72.266,30.762,-1.465,309.082
1688816614.870,-219.238,-62.012,34.668,-63.965,-25.391
1688816614.872,-80.566,-62.988,31.738,-72.266,-266.602
1688816614.876,37.109,-66.406,23.926,0.488,-74.219
1688816614.880,22.461,-68.359,21.484,24.902,-8.789
1688816614.884,-107.910,-74.707,19.043,-3.906,-134.277
1688816614.888,-220.703,-63.965,22.949,-53.711,-67.871
1688816614.892,-80.078,-57.129,22.461,-67.383,90.332
1688816614.896,35.645,-65.918,21.484,-20.508,20.996
1688816614.899,29.297,-64.941,23.438,11.230,-187.988
1688816614.903,-66.895,-65.918,24.414,6.836,-51.758
1688816614.907,-214.355,-65.430,23.438,-37.109,179.199
1688816614.911,-120.117,-54.199,14.160,-79.102,-8.301
1688816614.915,54.199,-55.664,7.812,-40.527,-140.137
1688816614.932,51.758,-64.941,4.883,17.090,14.160
1688816614.936,-51.270,-62.500,1.465,5.371,41.504
1688816614.940,-201.172,-62.988,-2.441,-46.875,-112.793
1688816614.944,-143.066,-63.965,-5.371,-85.938,-185.059
1688816614.948,29.785,-60.547,-6.348,-49.316,-160.156
1688816614.952,53.711,-62.500,-4.883,10.742,16.113
1688816614.956,-21.973,-61.035,-5.371,9.766,78.613
1688816614.959,-184.570,-52.246,-10.742,-31.738,-54.688
1688816614.963,-162.109,-48.340,-6.836,-70.801,101.074
1688816614.967,17.578,-46.387,-1.953,-37.598,153.809
1688816614.971,62.988,-46.387,-2.441,21.484,-13.672
1688816614.975,-13.184,-54.688,1.465,19.531,-54.688
1688816614.962,-184.082,-53.711,-0.488,-25.879,94.238
1688816614.966,-190.430,-45.898,-3.906,-81.543,83.008
1688816614.970,-8.789,-45.410,-5.859,-55.176,-206.055
1688816614.974,66.406,-48.828,-6.348,12.695,-125.488
1688816614.978,25.879,-51.758,-6.348,17.578,-90.332
1688816614.982,-134.766,-53.711,-10.254,-14.160,-21.484
1688816614.986,-184.570,-49.316,-16.602,-64.941,-30.762
1688816614.989,-6.836,-43.457,-16.113,-53.223,-15.137
1688816614.993,83.984,-41.992,-10.742,6.836,64.453
1688816614.997,42.969,-39.062,-16.113,16.113,-74.219
1688816615.001,-105.469,-39.062,-24.902,-12.695,-88.379
1688816615.005,-178.223,-38.574,-25.879,-64.453,76.660
1688816615.008,-14.648,-33.203,-23.926,-59.570,144.043
1688816615.012,91.797,-28.809,-25.391,6.348,-62.988
1688816615.016,70.312,-32.227,-26.367,12.695,-106.445
1688816615.020,-68.359,-33.203,-32.227,-21.973,17.090
1688816615.024,-179.688,-33.691,-36.621,-65.430,-28.809
1688816615.028,-38.574,-32.227,-33.203,-66.406,-76.660
1688816615.032,96.680,-33.203,-29.297,-15.625,23.438
1688816615.035,77.637,-39.551,-32.715,5.859,124.023
1688816615.039,-55.176,-36.621,-33.691,-13.184,150.391
1688816615.043,-183.594,-32.715,-28.809,-66.895,-110.840
1688816615.047,-61.035,-33.203,-31.738,-83.008,-137.207
1688816615.051,79.102,-30.273,-34.180,-33.203,70.801
1688816615.052,71.289,-27.832,-34.668,4.883,-5.859
1688816615.056,-39.062,-33.203,-33.203,-16.602,-140.137
1688816615.060,-182.129,-32.715,-30.762,-62.988,-127.930
1688816615.064,-96.191,-31.250,-34.180,-86.914,-71.777
1688816615.068,58.105,-39.062,-38.574,-41.504,-61.035
1688816615.072,60.547,-40.039,-40.039,-0.977,-127.930
1688816615.076,-36.621,-37.598,-37.109,-8.301,-37.109
1688816615.079,-189.453,-41.016,-36.621,-31.250,312.500
1688816615.083,-127.930,-29.785,-37.109,-84.473,172.363
1688816615.087,57.129,-23.926,-34.180,-64.453,-171.875
1688816615.091,83.496,-33.203,-35.645,-9.766,-142.578
1688816615.095,-12.207,-36.621,-34.668,-17.578,-105.469
1688816615.143,-171.875,-37.109,-29.297,-49.805,-134.277
1688816615.147,-136.230,-31.250,-26.367,-90.820,-186.523
1688816615.151,47.363,-27.344,-24.414,-52.246,-158.691
1688816615.155,90.820,-25.391,-24.902,12.207,-89.844
1688816615.159,23.438,-24.414,-22.949,-1.465,-140.625
1688816615.163,-142.578,-27.344,-25.391,-37.598,-86.426
1688816615.167,-145.996,-32.227,-33.691,-72.266,207.520
1688816615.170,37.109,-33.203,-36.621,-55.664,195.801
1688816615.174,99.121,-32.715,-35.645,-1.465,-122.070
1688816615.178,48.340,-32.227,-34.668,0.488,-166.504
1688816615.182,-109.863,-32.715,-33.203,-36.133,33.691
1688816615.186,-159.180,-28.809,-27.832,-79.102,-29.297
1688816615.149,3.906,-32.227,-28.320,-72.266,-221.680
1688816615.153,88.379,-44.434,-30.273,-6.348,-129.883
1688816615.157,65.918,-39.062,-24.902,15.625,27.344
1688816615.161,-74.707,-19.043,-36.621,-9.766,-99.121
1688816615.165,-173.828,-11.719,-55.664,-77.148,-220.703
1688816615.169,-25.391,-13.184,-62.012,-91.309,-64.453
1688816615.173,92.773,-13.672,-67.383,-32.715,64.941
1688816615.176,65.430,-13.672,-79.102,-32.227,-76.660
1688816615.180,-83.984,-8.789,-86.914,-51.270,-172.363
1688816615.184,-187.012,-3.418,-93.262,-96.680,45.898
1688816615.188,-31.250,4.883,-100.586,-116.699,62.988
1688816615.192,105.957,9.766,-106.934,-60.059,-117.188
1688816615.202,93.262,14.648,-107.422,-36.621,-118.164
1688816615.206,-38.086,21.484,-106.934,-52.246,28.320
1688816615.210,-165.527,24.414,-110.352,-91.797,122.070
1688816615.214,-36.621,16.602,-112.305,-119.629,-145.508
1688816615.218,110.840,15.137,-117.188,-74.219,-207.031
1688816615.222,103.027,15.625,-126.953,-38.086,142.578
1688816615.226,-13.184,7.812,-128.418,-34.668,437.500
1688816615.229,-137.695,8.301,-125.977,-63.965,386.719
1688816615.233,-39.551,17.578,-128.906,-114.746,104.492
1688816615.237,112.793,14.160,-131.348,-71.289,-157.227
1688816615.241,135.254,12.695,-133.789,-20.508,-202.637
1688816615.245,23.926,12.695,-132.812,-26.855,-233.887
1688816615.247,-134.766,12.695,-120.605,-52.734,-251.953
1688816615.251,-62.500,5.371,-114.258,-94.238,8.789
1688816615.255,106.445,-5.371,-117.188,-65.430,98.145
1688816615.259,135.742,-5.859,-111.328,-16.113,-142.578
1688816615.263,43.945,-4.883,-100.586,-10.254,-107.910
1688816615.267,-123.047,-7.812,-97.656,-41.992,18.555
1688816615.271,-90.332,-8.301,-90.820,-96.680,-63.965
1688816615.274,88.867,-7.324,-88.867,-69.336,-172.363
1688816615.278,131.348,-15.137,-85.938,-9.277,-18.066
1688816615.282,47.363,-17.578,-85.449,-13.672,158.691
1688816615.286,-109.863,-10.254,-86.426,-45.410,-57.129
1688816615.290,-109.375,-5.371,-80.078,-89.844,-173.340
1688816615.294,52.734,-8.789,-79.590,-73.242,-106.445
1688816615.298,109.375,-10.742,-76.660,-12.695,-46.387
1688816615.302,58.105,-10.742,-73.242,-5.859,-83.496
1688816615.306,-100.098,-10.742,-73.242,-33.203,-147.461
1688816615.310,-140.137,-9.277,-63.477,-65.430,-103.027
1688816615.314,33.203,-10.742,-56.152,-55.176,-84.961
1688816615.318,98.145,-10.742,-65.430,-24.902,-108.887
1688816615.321,42.969,-11.719,-64.941,-33.691,-139.160
1688816615.325,-95.703,-11.230,-57.617,-43.945,9.277
1688816615.329,-169.434,-9.277,-54.199,-81.543,4.883
1688816615.333,-13.184,-12.695,-53.223,-84.961,-194.824
1688816615.337,93.262,-14.160,-55.176,-14.160,-224.609
1688816615.337,73.242,-14.160,-51.758,17.578,86.426
1688816615.341,-63.965,-16.602,-52.734,-1.465,140.137
1688816615.345,-174.316,-14.160,-49.805,-68.848,-205.078
1688816615.349,-23.926,-13.672,-44.434,-91.309,-198.242
1688816615.353,96.191,-20.020,-43.945,-25.391,-91.797
1688816615.357,66.895,-16.602,-41.992,3.418,-7.324
1688816615.361,-53.711,-14.160,-35.645,-7.812,22.461
1688816615.364,-169.922,-20.020,-36.621,-41.016,0.000
1688816615.368,-51.758,-22.461,-42.969,-67.383,176.758
1688816615.372,80.078,-25.391,-47.363,-20.020,121.582
1688816615.376,76.172,-33.203,-48.828,2.441,-182.129
1688816615.380,-37.598,-35.156,-48.340,-12.695,-70.801
1688816615.382,-180.176,-25.391,-47.363,-49.316,-12.207
1688816615.386,-86.426,-22.949,-42.480,-93.262,-240.234
1688816615.390,57.617,-26.367,-43.457,-45.410,-233.887
1688816615.394,65.430,-26.367,-41.992,11.719,-147.949
1688816615.398,-36.621,-29.297,-38.086,1.953,-124.512
1688816615.402,-198.242,-26.855,-37.109,-46.387,-20.996
1688816615.406,-128.906,-23.438,-34.668,-89.844,-50.781
1688816615.409,41.992,-29.785,-39.551,-41.992,139.648
1688816615.413,66.895,-31.738,-41.016,18.555,335.449
1688816615.417,-13.672,-30.762,-36.621,0.977,-10.742
1688816615.421,-169.434,-33.203,-37.598,-42.969,-104.980
1688816615.425,-131.348,-33.203,-43.945,-88.867,59.082
1688816615.427,37.598,-29.297,-42.969,-62.500,-56.152
1688816615.431,72.754,-29.785,-37.598,-6.348,-164.062
1688816615.435,6.836,-34.668,-39.551,-3.418,-71.289
1688816615.439,-152.344,-33.203,-41.504,-31.738,-41.504
1688816615.443,-144.043,-26.855,-40.527,-77.637,-121.582
1688816615.447,48.828,-24.902,-44.434,-52.246,-63.477
1688816615.451,95.215,-32.715,-43.457,7.812,143.066
1688816615.454,21.973,-35.156,-43.457,18.555,263.672
1688816615.458,-128.906,-31.738,-43.945,-16.113,33.691
1688816615.462,-157.227,-35.645,-34.180,-82.520,-92.773
1688816615.466,8.301,-38.574,-32.715,-66.406,29.785
1688816615.470,85.449,-35.645,-37.109,-1.953,6.836
1688816615.472,45.410,-30.762,-34.668,6.836,-104.980
1688816615.476,-101.562,-31.738,-37.598,-16.602,-115.723
1688816615.480,-163.086,-34.668,-38.574,-76.172,-73.730
1688816615.484,4.395,-36.621,-37.109,-68.359,-59.570
1688816615.488,105.469,-33.203,-37.109,-10.254,-130.859
1688816615.492,70.801,-27.344,-38.574,-12.695,-137.207
1688816615.496,-85.938,-31.738,-40.039,-19.043,114.746
1688816615.499,-189.941,-35.156,-39.551,-74.219,134.766
1688816615.503,-41.504,-34.668,-46.387,-109.863,-177.246
1688816615.507,77.148,-33.203,-47.363,-36.133,-127.930
1688816615.511,64.453,-28.320,-41.504,-9.766,74.219
1688816615.515,-67.383,-28.809,-40.527,-32.715,116.211
1688816615.518,-190.430,-30.762,-45.410,-70.801,-47.852
1688816615.522,-54.199,-38.574,-43.945,-87.402,-134.277
1688816615.526,80.078,-41.992,-39.551,-25.391,95.703
1688816615.530,67.383,-36.621,-39.062,5.371,43.945
1688816615.534,-49.316,-37.598,-40.039,-23.926,-153.809
1688816615.538,-191.895,-38.574,-39.062,-73.730,27.344
1688816615.542,-95.215,-34.180,-41.992,-103.516,111.816
1688816615.545,58.594,-37.109,-43.457,-44.434,-75.195
1688816615.549,70.312,-38.574,-39.551,3.906,-129.395
1688816615.553,-29.785,-32.715,-37.598,-2.930,-0.488
1688816615.557,-173.828,-31.250,-36.133,-42.969,48.340
1688816615.561,-94.238,-27.344,-38.574,-95.215,-146.484
1688816615.563,67.871,-25.391,-37.598,-50.293,-183.105
1688816615.567,79.102,-28.320,-33.203,4.395,35.645
1688816615.571,-8.301,-30.762,-33.203,-2.441,13.672
1688816615.575,-167.969,-29.785,-33.203,-39.062,-185.547
1688816615.579,-125.000,-28.809,-32.715,-91.797,-289.062
1688816615.583,48.340,-35.645,-38.574,-53.223,11.230
1688816615.587,93.750,-34.180,-42.480,12.207,173.340
1688816615.590,30.762,-30.273,-43.457,4.883,-138.184
1688816615.594,-155.273,-33.203,-43.945,-27.344,-182.617
1688816615.598,-160.645,-31.250,-40.039,-67.871,-100.586
1688816615.602,28.320,-29.785,-36.133,-46.387,-19.043
1688816615.606,84.961,-31.738,-36.133,-0.488,8.301
1688816615.637,19.531,-40.039,-36.621,-3.906,-36.621
1688816615.641,-138.184,-36.133,-36.621,-21.973,6.836
1688816615.645,-160.156,-24.414,-35.645,-77.148,-58.594
1688816615.649,12.207,-24.902,-40.039,-74.219,-260.254
1688816615.653,73.730,-28.809,-44.434,-3.906,-21.484
1688816615.657,25.391,-32.227,-46.875,10.742,255.859
1688816615.661,-124.023,-30.273,-47.852,-34.668,109.375
1688816615.664,-190.918,-26.855,-42.969,-100.098,-114.258
1688816615.668,-26.855,-29.785,-36.621,-85.938,-48.340
1688816615.672,71.289,-31.250,-37.109,-17.090,85.938
1688816615.676,39.062,-33.691,-44.434,-19.043,-113.281
1688816615.680,-96.680,-37.109,-43.457,-42.969,-120.117
1688816615.667,-192.871,-30.762,-41.016,-78.613,-51.270
1688816615.671,-44.434,-25.879,-40.527,-84.961,-85.449
1688816615.675,79.590,-29.297,-39.062,-21.484,-66.895
1688816615.679,54.688,-31.738,-38.086,-2.441,-68.359
1688816615.683,-81.543,-30.762,-35.645,-22.949,-78.613
1688816615.687,-189.941,-29.297,-32.227,-63.477,-23.438
1688816615.691,-57.617,-28.320,-36.133,-87.891,-89.844
1688816615.694,69.336,-30.273,-41.016,-33.203,-76.660
1688816615.698,59.570,-31.250,-41.016,-4.395,20.020
1688816615.702,-65.430,-37.598,-41.504,-20.020,-29.297
1688816615.706,-199.707,-32.715,-37.109,-55.176,-35.645
1688816615.710,-92.285,-24.414,-32.227,-89.355,-86.914
1688816615.713,56.641,-24.902,-29.785,-30.273,135.742
1688816615.717,55.664,-25.391,-26.855,14.648,344.238
1688816615.721,-40.039,-25.391,-27.832,-0.977,-60.059
1688816615.725,-175.293,-27.832,-30.762,-38.574,-171.387
1688816615.729,-87.891,-29.297,-30.273,-83.496,13.184
1688816615.733,74.219,-31.250,-31.250,-35.156,-20.020
1688816615.737,79.102,-39.551,-31.250,18.066,-100.586
1688816615.740,-13.184,-41.992,-31.250,9.277,-94.238
1688816615.744,-164.062,-36.621,-29.785,-21.484,167.480
1688816615.748,-113.281,-34.180,-29.785,-82.520,59.082
1688816615.752,62.988,-39.062,-38.574,-62.012,-222.168
1688816615.756,93.750,-40.039,-41.992,0.488,-70.312
1688816615.757,6.348,-40.527,-42.969,-0.977,9.277
1688816615.761,-157.715,-40.039,-45.410,-37.109,-132.324
1688816615.765,-149.902,-40.039,-40.039,-88.379,-189.453
1688816615.769,24.414,-42.480,-37.598,-65.918,-160.645
1688816615.773,79.102,-40.039,-40.039,1.465,-122.070
1688816615.777,11.230,-42.480,-42.969,3.418,-131.836
1688816615.781,-153.809,-42.480,-40.039,-35.645,-94.238
1688816615.784,-171.875,-36.133,-35.156,-80.078,63.965
1688816615.788,12.207,-34.668,-40.039,-62.012,33.691
1688816615.792,83.496,-35.645,-39.062,-7.324,-77.637
1688816615.796,33.691,-33.203,-35.645,6.348,0.488
1688816615.800,-118.652,-26.855,-40.527,-1.465,333.496
1688816615.819,-183.105,-26.367,-41.016,-54.199,396.973
1688816615.823,-16.602,-31.250,-42.969,-78.125,-83.008
1688816615.827,76.172,-33.203,-47.363,-20.020,-174.805
1688816615.831,53.223,-31.250,-46.387,-1.465,-105.469
1688816615.835,-82.520,-35.645,-44.434,-30.762,-178.711
1688816615.839,-180.176,-40.527,-39.062,-83.496,-99.121
1688816615.843,-36.133,-37.598,-31.250,-82.031,46.387
1688816615.846,69.824,-36.621,-31.738,-12.207,127.930
1688816615.850,43.945,-39.062,-37.109,0.000,-49.805
1688816615.854,-81.055,-41.016,-31.738,-27.832,-194.336
1688816615.858,-189.453,-40.039,-28.320,-64.941,-45.898
1688816615.862,-58.594,-36.133,-36.133,-79.590,73.730
1688816615.853,71.289,-34.668,-40.527,-27.832,-83.496
1688816615.857,63.965,-38.086,-43.945,2.930,-152.344
1688816615.861,-54.688,-39.062,-46.387,-12.207,-17.578
1688816615.865,-191.895,-35.645,-41.504,-50.781,-28.320
1688816615.869,-82.520,-33.691,-36.133,-78.613,-207.520
1688816615.873,66.406,-39.551,-38.086,-32.715,-126.953
1688816615.877,70.801,-43.945,-39.551,8.301,-23.926
1688816615.880,-31.738,-39.062,-35.156,6.348,-29.297
1688816615.884,-188.965,-41.016,-34.668,-37.109,-97.656
1688816615.888,-103.027,-41.992,-35.645,-65.918,-170.410
1688816615.892,71.289,-40.527,-34.668,-9.766,194.824
1688816615.896,75.684,-39.551,-33.691,20.508,310.059
1688816615.907,-22.949,-38.574,-35.645,0.977,-87.891
1688816615.911,-179.199,-42.480,-38.086,-35.645,-139.160
1688816615.915,-124.512,-41.504,-36.621,-79.102,-125.488
1688816615.919,54.199,-39.062,-36.621,-42.969,-113.281
1688816615.923,81.543,-38.086,-38.086,11.230,-86.426
1688816615.927,-1.953,-40.039,-33.691,7.324,28.809
1688816615.931,-170.898,-44.922,-32.227,-22.461,416.504
1688816615.934,-168.457,-44.922,-37.598,-69.336,429.688
1688816615.938,3.418,-41.992,-36.621,-53.223,80.566
1688816615.942,53.711,-40.039,-39.062,-3.906,-113.281
1688816615.946,2.441,-36.621,-39.551,-0.977,-139.160
1688816615.950,-159.180,-32.715,-33.691,-31.738,-152.832
1688816615.967,-186.035,-26.367,-31.738,-77.637,-189.453
1688816615.971,-2.441,-24.414,-36.133,-62.988,-165.527
1688816615.975,60.059,-27.832,-39.062,-18.555,-151.367
1688816615.979,5.859,-27.832,-34.180,-23.926,-132.324
1688816615.983,-137.695,-27.344,-35.156,-52.246,-70.801
1688816615.987,-186.523,-28.809,-34.668,-99.121,-32.715
1688816615.991,-24.902,-29.297,-30.762,-87.891,-94.727
1688816615.994,65.430,-31.738,-28.809,-17.578,-64.941
1688816615.998,35.156,-34.668,-32.715,-0.977,-57.129
1688816616.002,-95.215,-36.133,-34.668,-22.461,69.336
1688816616.006,-174.805,-31.738,-34.180,-69.336,169.922
1688816616.010,-34.668,-30.273,-32.715,-72.754,-117.676
1688816616.028,75.195,-35.156,-35.156,-12.207,-171.875
1688816616.032,49.316,-39.551,-36.621,7.324,-81.055
1688816616.036,-86.914,-36.621,-35.645,-11.230,-143.555
1688816616.040,-202.148,-32.227,-36.621,-68.359,-222.168
1688816616.044,-54.688,-34.180,-34.180,-85.449,-148.438
1688816616.048,81.055,-38.574,-30.273,-21.973,61.035
1688816616.052,53.711,-43.457,-37.109,-4.883,33.203
1688816616.055,-70.801,-42.969,-36.621,-18.066,-116.211
1688816616.059,-198.730,-41.016,-30.762,-55.176,-9.277
1688816616.063,-85.449,-37.598,-36.621,-90.332,-12.207
1688816616.067,67.871,-37.109,-35.156,-31.250,-129.395
1688816616.071,68.359,-37.109,-34.668,0.488,-154.785
1688816616.073,-41.016,-37.598,-39.062,-15.625,25.391
1688816616.077,-200.195,-40.527,-40.527,-54.688,130.371
1688816616.081,-120.117,-36.133,-38.574,-100.586,-125.488
1688816616.085,63.477,-37.109,-33.203,-38.086,-184.082
1688816616.089,63.477,-40.039,-32.227,24.414,33.203
1688816616.093,-45.898,-37.598,-28.320,20.996,179.688
1688816616.097,-189.941,-30.273,-24.414,-21.973,-43.457
1688816616.100,-131.836,-27.344,-28.320,-77.637,-162.109
1688816616.104,46.387,-28.809,-25.879,-37.109,-83.984
1688816616.108,70.801,-29.297,-28.320,23.438,-31.250
1688816616.112,-10.742,-33.691,-32.715,13.184,-76.172
1688816616.116,-160.645,-37.109,-32.227,-21.484,26.367
1688816616.177,-145.020,-34.180,-34.180,-74.219,91.309
1688816616.181,27.832,-35.645,-37.598,-53.223,-35.645
1688816616.185,66.895,-39.551,-40.039,8.301,-133.789
1688816616.189,0.488,-38.574,-38.086,17.578,-171.875
1688816616.193,-148.926,-34.668,-35.156,0.000,153.809
1688816616.197,-151.855,-25.879,-29.297,-52.734,358.398
1688816616.201,21.973,-26.855,-27.344,-44.434,-29.785
1688816616.204,75.195,-35.156,-32.227,20.020,-18.066
1688816616.208,30.762,-37.109,-32.227,26.855,79.102
1688816616.212,-113.770,-33.691,-29.297,-8.301,-188.477
1688816616.216,-166.016,-35.645,-22.949,-66.895,-261.719
1688816616.220,5.859,-38.086,-17.090,-46.875,-39.062
1688816616.374,89.844,-37.598,-23.438,21.973,88.379
1688816616.378,40.527,-38.574,-31.738,17.578,-50.781
1688816616.382,-104.980,-41.992,-31.738,-13.184,-159.668
1688816616.386,-185.059,-42.480,-33.691,-61.035,-22.461
1688816616.390,-31.250,-41.504,-34.180,-61.523,76.660
1688816616.394,74.219,-40.527,-34.668,0.488,-89.355
1688816616.398,47.852,-42.969,-40.039,12.695,-106.934
1688816616.401,-87.891,-43.945,-38.086,-1.953,76.660
1688816616.405,-191.406,-32.715,-29.297,-51.270,7.812
1688816616.409,-49.316,-29.297,-28.809,-82.031,-171.875
1688816616.413,80.566,-38.574,-33.203,-22.949,-75.684
1688816616.417,58.105,-43.945,-30.273,13.672,29.297
1688816616.377,-74.707,-43.945,-29.785,-3.906,-96.191
1688816616.381,-199.219,-41.504,-30.762,-52.246,-231.934
1688816616.385,-80.566,-41.504,-27.344,-78.125,-135.742
1688816616.389,67.871,-40.527,-31.738,-26.367,60.059
1688816616.393,68.359,-41.016,-35.645,2.441,-6.348
1688816616.397,-47.363,-44.922,-35.156,-19.043,-108.398
1688816616.401,-201.172,-41.992,-36.621,-48.828,77.637
1688816616.404,-100.098,-39.551,-30.762,-76.172,95.215
1688816616.408,62.988,-38.574,-21.973,-34.668,-122.070
1688816616.412,62.988,-40.527,-23.438,0.977,-147.461
1688816616.416,-30.762,-47.363,-22.461,-4.395,-16.113
1688816616.420,-182.129,-47.363,-12.207,-38.574,64.941
1688816616.389,-137.207,-50.293,-9.766,-92.773,-33.203
1688816616.393,29.785,-60.547,-11.230,-60.059,-157.715
1688816616.397,59.570,-67.871,-6.348,-4.883,-8.301
1688816616.401,-27.832,-71.289,0.000,1.953,187.012
1688816616.405,-188.965,-68.848,4.395,-37.598,-43.945
1688816616.409,-166.992,-69.824,10.254,-90.332,-82.031
1688816616.413,12.695,-74.219,16.602,-55.176,169.434
1688816616.416,58.105,-78.613,20.020,3.418,181.152
1688816616.420,-24.902,-83.496,20.996,-9.277,-86.914
1688816616.424,-186.035,-83.984,20.996,-43.457,-91.309
1688816616.428,-189.453,-83.008,21.973,-88.379,64.941
1688816616.432,-13.184,-80.078,28.320,-70.801,14.160
1688816616.419,50.781,-81.543,32.227,-10.254,-157.227
1688816616.423,-3.906,-87.891,38.574,0.488,-166.992
1688816616.427,-173.828,-88.867,45.410,-20.020,9.277
1688816616.431,-222.168,-82.031,49.316,-73.242,-71.289
1688816616.435,-44.922,-74.219,50.293,-71.777,-189.941
1688816616.439,62.988,-73.242,47.363,-2.930,30.273
1688816616.443,4.395,-79.590,47.363,6.836,184.570
1688816616.446,-172.852,-85.938,43.945,-13.184,-35.156
1688816616.450,-232.422,-81.543,38.574,-58.594,-179.199
1688816616.454,-73.242,-78.613,35.645,-69.336,-105.957
1688816616.458,50.293,-78.613,37.109,3.906,14.648
1688816616.462,31.250,-78.613,40.039,29.297,-132.812
1688816616.426,-121.094,-83.008,41.992,5.371,-185.059
1688816616.430,-219.238,-74.219,45.898,-43.945,-30.273
1688816616.434,-77.637,-69.336,41.016,-55.664,-33.691
1688816616.438,41.016,-75.195,31.250,1.465,-115.234
1688816616.442,38.574,-70.801,27.344,21.973,-163.574
1688816616.446,-75.195,-67.383,33.203,14.648,-7.324
1688816616.450,-220.215,-64.941,31.738,-28.809,88.867
1688816616.453,-105.469,-60.547,32.227,-51.270,-104.004
1688816616.457,49.316,-62.988,37.598,2.441,-165.039
1688816616.461,49.805,-63.477,29.297,18.555,-85.449
1688816616.465,-58.594,-65.430,21.973,12.695,37.109
1688816616.469,-214.355,-67.871,25.391,-24.902,53.223
1688816616.448,-114.258,-58.105,26.367,-57.129,-125.977
1688816616.452,49.316,-52.734,22.949,10.254,84.961
1688816616.456,43.457,-56.152,21.484,44.922,182.129
1688816616.460,-50.293,-52.734,19.043,14.648,-98.633
1688816616.464,-199.707,-46.875,17.578,-22.949,-19.043
1688816616.468,-138.672,-42.480,19.531,-62.012,84.961
1688816616.472,26.855,-42.480,14.648,-25.391,68.848
1688816616.475,55.664,-43.457,9.766,24.902,-83.008
1688816616.479,-7.324,-49.805,17.090,19.531,-76.660
1688816616.483,-169.922,-46.875,15.137,-25.391,84.473
1688816616.487,-161.133,-37.598,3.906,-88.867,-147.461
1688816616.491,13.672,-43.945,6.348,-46.387,-287.598
1688816616.492,70.801,-51.270,6.836,22.461,-38.086
1688816616.496,12.695,-43.945,4.883,22.949,-4.395
1688816616.500,-161.621,-40.527,1.953,-12.207,-156.738
1688816616.504,-166.016,-41.016,-2.930,-71.777,-112.793
1688816616.508,22.461,-39.551,-3.906,-53.223,23.926
1688816616.512,82.520,-36.621,-3.906,16.602,96.680
1688816616.516,29.785,-34.180,-6.836,27.832,-8.301
1688816616.519,-127.930,-31.738,-8.789,6.836,-40.527
1688816616.523,-164.551,-25.391,-7.324,-43.945,73.730
1688816616.527,4.395,-21.484,-6.348,-43.457,221.680
1688816616.531,78.125,-29.297,-12.207,20.996,343.262
1688816616.535,37.109,-31.250,-18.066,21.973,163.086
1688816616.509,-102.539,-30.273,-12.207,3.906,61.523
1688816616.513,-165.039,-32.715,-12.207,-44.922,77.148
1688816616.517,-9.277,-31.250,-12.695,-62.988,-196.777
1688816616.521,83.984,-27.832,-11.719,-2.441,-124.023
1688816616.525,64.453,-29.297,-16.602,14.648,-45.898
1688816616.529,-70.801,-32.227,-20.508,-8.301,-51.758
1688816616.533,-185.059,-29.785,-20.996,-66.895,-139.160
1688816616.536,-45.898,-25.879,-20.508,-75.195,-197.266
1688816616.540,75.684,-28.809,-21.484,-9.277,99.121
1688816616.544,51.758,-29.297,-25.391,3.906,323.730
1688816616.548,-65.918,-29.297,-28.320,-12.207,357.910
1688816616.552,-180.176,-26.855,-28.320,-65.430,115.234
1688816616.537,-63.965,-26.367,-34.180,-104.980,-277.832
1688816616.541,69.824,-34.668,-36.621,-45.898,-275.879
1688816616.545,70.801,-34.668,-35.645,-10.254,-250.488
1688816616.549,-35.645,-32.715,-39.062,-20.996,-172.852
1688816616.553,-173.340,-37.598,-36.133,-53.711,157.715
1688816616.557,-79.590,-35.645,-34.180,-99.121,236.816
1688816616.561,62.012,-34.668,-29.297,-61.035,-63.477
1688816616.564,62.500,-38.086,-25.879,-14.648,-84.961
1688816616.568,-28.809,-35.156,-27.832,-16.113,-69.336
1688816616.572,-183.105,-37.598,-29.785,-49.805,-234.375
1688816616.576,-122.070,-41.504,-32.715,-94.238,-227.051
1688816616.580,53.223,-37.109,-32.227,-52.246,-104.004
1688816616.552,82.520,-34.180,-32.227,-3.418,-135.742
1688816616.556,-10.254,-40.527,-33.691,-5.859,-240.234
1688816616.560,-170.898,-37.598,-30.273,-34.180,-128.906
1688816616.564,-134.766,-33.203,-30.273,-75.684,11.719
1688816616.568,37.109,-38.574,-37.109,-44.922,-72.266
1688816616.572,82.031,-37.598,-39.062,0.977,-98.145
1688816616.576,25.391,-35.156,-40.039,-3.906,-4.883
1688816616.579,-140.625,-36.621,-36.133,-17.090,280.273
1688816616.583,-150.391,-31.250,-33.691,-75.195,118.164
1688816616.587,29.297,-30.273,-40.527,-76.660,-282.715
1688816616.591,77.148,-35.156,-37.109,-7.324,-174.805
1688816616.595,14.648,-48.828,-31.250,6.348,162.598
1688816616.627,-145.996,-59.082,-36.621,-20.020,156.250
1688816616.631,-161.133,-44.434,-42.480,-76.172,-242.676
1688816616.635,22.461,-25.391,-53.223,-72.754,-181.641
1688816616.639,81.055,-22.461,-67.383,-17.578,150.391
1688816616.643,29.297,-25.391,-68.848,-17.578,-8.789
1688816616.647,-115.234,-22.949,-69.336,-46.387,-200.684
1688816616.651,-180.176,-17.090,-75.195,-101.562,66.406
1688816616.654,-10.742,-9.766,-78.613,-102.539,148.926
1688816616.658,93.750,-7.324,-82.520,-46.387,-188.965
1688816616.662,59.570,-5.859,-84.961,-36.621,-260.742
1688816616.666,-74.707,0.488,-93.750,-62.500,-73.242
1688816616.670,-171.875,3.906,-103.027,-115.234,-22.949
1688816616.642,-16.602,5.859,-105.957,-123.047,-216.797
1688816616.646,113.770,6.348,-107.910,-51.270,-199.219
1688816616.650,88.379,7.324,-108.398,-11.230,97.168
1688816616.654,-44.434,12.695,-110.352,-37.598,73.730
1688816616.658,-166.504,9.766,-114.746,-94.238,-191.895
1688816616.662,-25.879,9.277,-117.676,-106.934,-85.938
1688816616.666,120.117,13.184,-118.652,-51.758,69.336
1688816616.669,102.051,14.648,-123.535,-22.949,-105.957
1688816616.673,-24.414,13.672,-130.859,-42.969,-179.688
1688816616.677,-167.969,14.160,-128.418,-83.008,-52.734
1688816616.681,-61.035,18.066,-124.512,-107.422,-60.059
1688816616.685,89.844,17.090,-125.488,-53.223,-146.484
1688816616.688,84.961,14.648,-123.535,-23.926,-93.750
1688816616.692,-12.695,19.043,-123.535,-45.410,7.324
1688816616.696,-160.645,22.949,-116.699,-75.195,279.785
1688816616.700,-100.586,27.344,-109.863,-125.000,46.387
1688816616.704,52.734,26.855,-114.258,-95.703,-213.867
1688816616.708,58.105,21.973,-117.188,-58.105,-35.645
1688816616.712,-38.086,25.391,-105.957,-72.266,16.113
1688816616.715,-190.918,35.156,-103.027,-111.816,-11.719
1688816616.719,-166.504,30.762,-106.445,-168.945,-162.598
1688816616.723,-2.441,22.461,-104.004,-124.512,-15.625
1688816616.727,45.410,25.879,-103.516,-63.477,86.914
1688816616.731,-28.320,10.254,-102.539,-75.684,-163.086
1688816616.750,-186.035,3.418,-98.145,-103.027,-154.297
1688816616.754,-179.688,10.254,-93.262,-140.137,-39.062
1688816616.758,-6.836,5.859,-93.262,-113.281,-12.695
1688816616.762,59.570,1.953,-92.285,-44.922,-125.488
1688816616.766,13.184,1.953,-87.891,-38.574,-107.422
1688816616.770,-145.508,-3.906,-82.031,-71.777,161.133
1688816616.774,-173.828,-7.812,-75.195,-118.164,8.789
1688816616.777,9.766,-5.371,-74.219,-93.750,-191.406
1688816616.781,86.426,-9.766,-71.777,-21.484,-61.523
1688816616.785,40.527,-15.137,-67.871,-16.113,-33.203
1688816616.789,-110.352,-18.555,-65.430,-45.898,-112.793
1688816616.793,-166.016,-16.113,-62.500,-97.168,-131.836
1688816616.792,12.695,-17.090,-58.594,-80.078,0.977
1688816616.796,108.398,-24.414,-55.664,-1.953,72.266
1688816616.800,61.035,-28.320,-56.641,6.836,-154.785
1688816616.804,-75.684,-31.738,-49.805,-4.883,-187.500
1688816616.808,-166.504,-27.832,-45.410,-48.828,-49.316
1688816616.812,-15.137,-22.949,-49.805,-58.594,15.137
1688816616.816,113.770,-23.926,-41.504,23.438,15.137
1688816616.819,86.426,-30.762,-42.969,45.410,-66.406
1688816616.823,-46.875,-31.738,-49.316,18.555,-0.977
1688816616.827,-155.762,-26.367,-43.457,-17.090,296.875
1688816616.831,-33.691,-26.367,-42.480,-39.062,151.855
1688816616.835,103.027,-33.203,-44.434,12.207,-80.078
1688816616.837,103.516,-30.762,-42.480,51.758,63.965
1688816616.841,-26.367,-27.832,-40.527,32.715,104.492
1688816616.845,-168.457,-28.809,-37.598,-25.879,-163.574
1688816616.849,-52.734,-26.367,-37.109,-58.594,-194.824
1688816616.853,110.352,-26.855,-39.062,-2.930,-118.652
1688816616.857,107.910,-29.297,-40.039,34.668,-6.836
1688816616.861,-8.301,-36.621,-40.039,24.902,-16.113
1688816616.864,-151.855,-37.598,-42.480,-22.949,-42.480
1688816616.868,-75.684,-31.250,-42.480,-55.664,191.406
1688816616.872,79.102,-27.832,-40.039,-7.324,33.203
1688816616.876,99.609,-28.320,-39.551,29.785,-217.773
1688816616.880,12.695,-29.297,-38.574,17.578,-36.133
1688816616.882,-146.973,-28.809,-37.598,-22.949,-67.871
1688816616.886,-106.445,-28.809,-34.668,-70.312,-221.680
1688816616.890,62.012,-34.180,-34.180,-25.391,-155.273
1688816616.894,91.797,-38.086,-37.598,35.156,-125.977
1688816616.898,20.020,-31.738,-34.668,27.832,-140.625
1688816616.902,-134.766,-26.855,-31.738,-5.859,-16.113
1688816616.906,-116.211,-26.855,-33.691,-60.059,-31.250
1688816616.909,66.406,-27.344,-34.668,-30.273,-25.879
1688816616.913,100.586,-28.320,-33.691,42.969,-34.180
1688816616.917,24.414,-33.691,-39.062,38.086,-163.086
1688816616.921,-130.859,-36.621,-41.504,2.441,-53.711
1688816616.925,-153.809,-29.297,-35.645,-43.945,51.270
1688816616.942,16.113,-26.367,-39.551,-33.691,-66.895
1688816616.946,90.332,-36.621,-43.457,22.949,-139.160
1688816616.950,50.293,-39.062,-41.016,29.297,-151.855
1688816616.954,-101.074,-34.180,-40.527,14.648,119.629
1688816616.958,-177.246,-34.180,-41.504,-37.109,208.008
1688816616.962,-11.719,-30.762,-40.039,-46.387,-45.410
1688816616.966,96.191,-32.227,-37.598,24.414,19.043
1688816616.969,57.129,-31.250,-35.645,51.758,143.555
1688816616.973,-90.820,-24.902,-34.180,15.137,-39.551
1688816616.977,-175.781,-25.879,-35.156,-54.199,-258.301
1688816616.981,-31.250,-24.902,-31.250,-61.035,-119.141
1688816616.985,68.848,-28.320,-29.785,-0.488,60.059
1688816616.973,49.805,-34.180,-32.715,15.625,-22.949
1688816616.977,-76.172,-34.668,-33.203,-3.418,-121.094
1688816616.981,-190.918,-35.156,-29.785,-51.758,17.578
1688816616.985,-61.523,-35.645,-29.297,-79.590,-28.809
1688816616.989,62.500,-41.016,-32.715,-22.461,-179.199
1688816616.993,57.129,-43.457,-32.715,17.090,18.066
1688816616.997,-57.617,-39.551,-32.715,8.301,146.484
1688816617.000,-194.824,-32.227,-32.715,-41.992,70.801
1688816617.004,-85.938,-25.879,-33.691,-75.195,-87.402
1688816617.008,65.430,-29.785,-33.691,-11.719,-126.953
1688816617.012,79.102,-31.250,-35.156,40.527,288.086
1688816617.016,-21.484,-34.668,-34.668,30.273,415.039
1688816617.032,-177.246,-38.574,-30.273,-34.668,-33.691
1688816617.036,-103.516,-40.039,-29.297,-83.496,-96.191
1688816617.040,55.664,-46.875,-29.297,-23.438,0.488
1688816617.044,78.125,-45.898,-28.809,22.949,-105.469
1688816617.048,-16.602,-38.086,-24.414,8.789,-153.320
1688816617.052,-178.711,-33.691,-17.578,-31.738,-62.988
1688816617.056,-121.094,-35.156,-11.230,-64.453,264.648
1688816617.059,51.758,-37.598,-14.648,-22.461,225.586
1688816617.063,83.496,-38.574,-18.066,26.855,-173.340
1688816617.067,5.859,-42.480,-17.578,20.508,-175.293
1688816617.071,-154.297,-41.504,-21.484,-20.508,-89.355
1688816617.075,-129.883,-28.320,-18.066,-70.801,-164.551
1688816617.077,46.875,-30.273,-22.949,-49.316,-240.234
1688816617.081,97.168,-37.109,-28.320,10.742,-166.504
1688816617.085,33.203,-33.203,-28.809,7.812,-100.586
1688816617.089,-127.930,-32.715,-25.879,-20.996,-166.992
1688816617.093,-137.207,-33.691,-25.879,-68.359,-104.492
1688816617.097,27.832,-38.574,-26.855,-56.152,159.180
1688816617.101,83.008,-39.551,-22.949,1.465,207.031
1688816617.104,39.551,-36.621,-24.902,-3.906,-87.402
1688816617.108,-119.629,-38.086,-26.367,-33.203,-230.469
1688816617.112,-172.363,-36.621,-20.508,-75.684,6.836
1688816617.116,-3.906,-37.598,-21.484,-66.406,169.434
1688816617.120,86.914,-38.574,-24.902,-12.695,4.883
1688816617.137,55.176,-39.062,-20.996,0.000,-71.777
1688816617.141,-92.285,-34.668,-25.879,-12.207,40.527
1688816617.145,-175.781,-31.250,-30.762,-69.336,26.855
1688816617.149,-13.672,-33.203,-29.785,-84.473,-165.527
1688816617.153,89.355,-30.762,-31.250,-7.812,-88.379
1688816617.157,56.152,-33.203,-32.715,8.301,-6.348
1688816617.161,-77.148,-42.480,-33.203,-20.020,-37.109
1688816617.164,-199.219,-40.527,-37.598,-73.242,-51.758
1688816617.168,-66.406,-34.180,-39.551,-100.098,0.488
1688816617.172,71.777,-34.180,-36.133,-32.227,102.539
1688816617.176,51.758,-39.551,-37.109,-5.859,-49.316
1688816617.180,-69.336,-43.945,-31.250,-28.809,-190.918
1688816617.167,-194.336,-40.039,-22.949,-62.500,-52.734
1688816617.171,-79.590,-35.156,-24.414,-79.102,32.715
1688816617.175,72.266,-37.109,-32.715,-39.062,-123.535
1688816617.179,77.637,-33.691,-31.738,-5.859,-140.625
1688816617.183,-28.809,-33.691,-28.320,-10.254,40.039
1688816617.187,-182.129,-32.227,-34.180,-52.734,137.695
1688816617.191,-99.121,-26.855,-35.645,-97.168,-61.523
1688816617.194,63.477,-28.320,-33.691,-53.223,-177.246
1688816617.198,72.754,-33.691,-35.645,-2.441,125.977
1688816617.202,-20.020,-31.250,-35.156,-18.066,291.992
1688816617.206,-165.039,-22.461,-28.320,-62.500,41.016
1688816617.210,-117.676,-18.066,-28.320,-96.191,-129.883
1688816617.213,51.758,-14.648,-28.809,-51.758,-33.691
1688816617.217,79.590,-17.090,-23.926,5.859,231.445
1688816617.221,-11.230,-14.648,-25.391,-16.602,1.465
1688816617.225,-178.711,-10.742,-26.855,-80.566,-115.234
1688816617.229,-182.617,-8.301,-23.438,-154.785,-146.484
1688816617.233,-29.297,-6.348,-19.043,-136.719,-213.379
1688816617.237,-6.836,-4.883,-31.738,-90.820,-142.090
1688816617.240,-103.516,-1.953,-31.250,-125.977,-83.496
1688816617.244,-298.828,3.418,-29.785,-200.195,109.375
1688816617.248,-361.816,14.648,-39.062,-297.363,-69.336
1688816617.252,-227.051,19.043,-31.738,-314.941,-305.176
1688816617.256,-169.434,16.113,-24.902,-257.324,-6.348
1688816617.257,-219.727,20.996,-27.344,-254.395,165.039
1688816617.261,-371.094,25.879,-22.949,-288.574,-73.730
1688816617.265,-413.086,24.902,-16.113,-333.984,-138.672
1688816617.269,-235.840,19.043,-16.113,-310.059,-78.613
1688816617.273,-149.414,13.672,-22.461,-235.352,-62.500
1688816617.277,-189.453,5.859,-24.902,-226.074,-14.160
1688816617.281,-313.965,0.000,-25.879,-242.188,19.531
1688816617.284,-373.047,3.906,-27.832,-280.762,-5.371
1688816617.288,-204.102,3.906,-26.367,-268.555,-88.379
1688816617.292,-85.938,-11.719,-34.180,-203.125,-190.430
1688816617.296,-87.891,-22.461,-40.039,-167.969,-108.887
1688816617.300,-218.750,-23.438,-39.062,-154.297,210.449
1688816617.303,-322.754,-25.879,-47.852,-191.895,221.191
1688816617.307,-163.086,-29.785,-53.711,-211.914,-135.254
1688816617.311,-40.527,-38.086,-53.223,-149.902,-118.652
1688816617.315,-40.039,-47.363,-51.270,-113.281,-24.414
1688816617.319,-141.113,-52.734,-51.270,-109.863,-111.328
1688816617.323,-245.605,-51.758,-52.734,-127.930,-209.961
1688816617.327,-106.934,-55.664,-54.688,-141.602,-116.211
1688816617.330,40.039,-58.105,-50.781,-72.266,85.938
1688816617.334,46.387,-52.734,-46.875,-27.832,16.113
1688816617.338,-46.387,-53.711,-49.316,-46.387,-155.762
1688816617.342,-183.105,-55.176,-41.992,-74.219,-125.488
1688816617.346,-91.797,-52.734,-36.621,-101.074,-110.352
1688816617.362,77.637,-51.270,-39.551,-44.434,-155.273
1688816617.366,96.680,-53.223,-36.621,14.160,-154.785
1688816617.370,1.465,-52.246,-31.738,10.742,-16.113
1688816617.374,-152.832,-52.734,-27.832,-26.367,154.297
1688816617.378,-81.543,-52.246,-28.809,-64.941,-56.641
1688816617.382,94.727,-52.246,-32.715,-12.695,-169.922
1688816617.386,119.141,-57.617,-34.180,46.875,95.703
1688816617.389,41.992,-57.617,-34.668,42.969,163.574
1688816617.393,-113.281,-49.805,-32.227,8.301,-108.398
1688816617.397,-74.707,-45.410,-34.668,-39.062,-221.680
1688816617.401,110.840,-48.828,-36.621,3.418,69.336
1688816617.405,142.090,-49.316,-36.133,69.824,258.789
1688816617.392,67.871,-43.457,-39.062,62.988,-92.773
1688816617.396,-83.008,-46.875,-37.598,44.922,-169.922
1688816617.400,-76.172,-41.992,-36.621,9.277,-107.910
1688816617.404,109.375,-37.109,-37.598,23.438,-172.852
1688816617.408,173.340,-38.574,-39.551,78.613,-168.457
1688816617.412,112.793,-41.504,-36.133,86.426,-10.254
1688816617.416,-37.598,-42.480,-31.250,61.523,104.980
1688816617.419,-70.801,-36.621,-33.691,5.371,58.594
1688816617.423,98.633,-32.715,-33.691,7.812,-109.375
1688816617.427,185.059,-33.691,-36.621,83.984,-71.777
1688816617.431,135.742,-37.109,-36.621,113.281,240.723
1688816617.435,-11.230,-31.250,-30.273,68.359,117.676
1688816617.467,-83.496,-28.809,-27.832,-7.812,-188.477
1688816617.471,68.848,-33.691,-30.273,-6.348,-170.410
1688816617.475,173.340,-31.250,-32.227,66.406,-109.375
1688816617.479,152.344,-29.297,-30.273,87.891,-94.727
1688816617.483,14.160,-31.738,-28.320,60.547,-157.227
1688816617.487,-103.027,-33.203,-24.414,12.207,-84.473
1688816617.491,25.391,-35.156,-25.879,-0.488,29.297
1688816617.494,151.367,-34.668,-29.785,57.617,-100.098
1688816617.498,133.789,-41.016,-29.297,81.543,-130.859
1688816617.502,-2.930,-48.340,-29.297,67.383,182.129
1688816617.506,-143.066,-44.922,-31.738,10.254,259.766
1688816617.510,-22.461,-44.922,-30.273,-24.902,-52.734
1688816617.498,128.418,-50.293,-24.902,36.133,-132.324
1688816617.502,115.723,-48.828,-22.949,61.523,-45.898
1688816617.506,-3.906,-45.410,-22.461,38.086,-55.176
1688816617.510,-149.414,-48.340,-20.020,-9.766,-160.645
1688816617.514,-61.035,-47.852,-23.926,-49.316,-123.535
1688816617.518,103.027,-44.922,-22.949,8.301,9.766
1688816617.522,119.141,-43.945,-20.996,55.664,-40.527
1688816617.525,12.207,-39.551,-22.949,39.551,-151.367
1688816617.529,-142.578,-47.852,-22.949,1.953,-83.496
1688816617.533,-78.125,-49.316,-29.297,-48.828,-61.523
1688816617.537,88.867,-38.086,-29.297,-9.766,-82.520
1688816617.541,116.699,-34.668,-26.367,39.551,-51.758
1688816617.542,29.785,-37.598,-28.320,30.273,-41.504
1688816617.546,-132.812,-37.109,-25.879,7.324,277.832
1688816617.550,-102.051,-30.273,-30.273,-48.340,166.992
1688816617.554,75.684,-27.832,-37.109,-26.367,-93.262
1688816617.558,115.234,-33.203,-36.621,33.691,-2.930
1688816617.562,49.805,-29.297,-32.227,43.945,34.668
1688816617.566,-104.980,-21.973,-28.320,20.508,-34.180
1688816617.569,-110.352,-23.438,-35.156,-50.293,-199.219
1688816617.573,68.848,-24.414,-37.598,-35.156,-10.742
1688816617.577,116.211,-26.367,-41.016,31.250,210.449
1688816617.581,50.781,-28.809,-40.039,32.715,18.066
1688816617.585,-100.586,-27.832,-32.227,6.836,-46.387
1688816617.587,-140.625,-27.832,-36.133,-49.805,4.395
1688816617.591,35.645,-29.785,-35.156,-40.527,-32.715
1688816617.595,111.328,-31.250,-37.598,25.391,-155.273
1688816617.599,57.129,-35.645,-40.527,40.527,-149.414
1688816617.603,-80.566,-41.016,-32.227,10.254,-63.477
1688816617.607,-118.652,-42.969,-27.832,-41.992,-96.191
1688816617.611,31.738,-47.363,-29.297,-33.203,-113.281
1688816617.614,96.680,-50.781,-30.273,28.809,14.648
1688816617.618,58.594,-44.434,-28.320,44.434,84.961
1688816617.622,-81.543,-42.480,-28.320,24.414,-45.898
1688816617.626,-178.223,-49.316,-30.273,-30.762,-197.754
1688816617.630,-32.715,-51.758,-30.273,-53.711,-68.359
1688816617.632,85.938,-49.805,-28.809,9.277,62.012
1688816617.636,62.012,-52.246,-26.855,20.508,-132.324
1688816617.640,-69.336,-52.734,-26.855,2.930,-162.109
1688816617.644,-186.035,-50.781,-25.879,-33.203,97.168
1688816617.648,-58.594,-45.898,-26.367,-47.363,186.523
1688816617.652,81.055,-43.945,-27.344,16.602,-42.480
1688816617.656,73.730,-46.875,-29.785,31.738,-114.746
1688816617.659,-47.363,-48.828,-26.367,7.324,117.188
1688816617.663,-182.129,-43.457,-24.414,-26.855,201.660
1688816617.667,-73.242,-38.574,-29.297,-70.312,-146.973
1688816617.671,68.848,-46.875,-31.738,-20.996,-118.652
1688816617.675,64.453,-43.457,-37.109,30.762,99.121
1688816617.708,-32.227,-35.156,-37.109,20.996,8.789
1688816617.712,-174.805,-32.715,-34.180,-21.484,-186.523
1688816617.716,-102.539,-30.762,-39.062,-73.242,-226.562
1688816617.720,57.617,-32.227,-37.598,-35.645,-122.070
1688816617.724,77.148,-33.691,-38.574,14.648,-30.273
1688816617.728,-2.930,-33.691,-40.527,8.301,-43.457
1688816617.732,-162.598,-30.762,-38.086,-24.414,62.988
1688816617.735,-129.395,-27.832,-40.039,-74.219,97.168
1688816617.739,44.434,-27.344,-42.480,-48.340,-82.031
1688816617.743,74.219,-33.203,-44.922,5.371,-116.211
1688816617.747,0.977,-40.527,-42.480,8.789,-31.738
1688816617.751,-148.438,-38.574,-35.645,-15.625,-0.488
1688816617.783,-144.531,-33.691,-40.527,-68.359,-176.758
1688816617.787,29.297,-31.250,-45.898,-48.340,-272.461
1688816617.791,88.379,-33.203,-46.875,18.555,-72.266
1688816617.795,27.344,-29.785,-46.387,14.160,95.215
1688816617.799,-125.488,-23.438,-45.410,-26.367,-78.613
1688816617.803,-145.996,-29.785,-38.574,-61.035,-129.395
1688816617.807,8.301,-33.691,-23.438,-41.992,10.742
1688816617.810,62.012,-37.598,-15.137,4.395,33.203
1688816617.814,10.254,-47.852,-16.113,-5.371,-102.539
