timestamps,TP9,AF7,AF8,TP10,Right AUX
1688816660.382,-77.637,-31.738,-50.293,-103.027,-99.121
1688816660.386,66.895,-28.809,-50.293,-42.969,-141.113
1688816660.390,65.918,-35.156,-47.852,8.301,-162.109
1688816660.394,-37.598,-35.156,-46.875,-20.020,-130.859
1688816660.398,-181.152,-30.762,-49.316,-102.051,-92.285
1688816660.402,-113.770,-31.738,-50.781,-128.418,-100.586
1688816660.406,30.762,-32.715,-53.711,-58.105,-127.930
1688816660.409,54.688,-36.621,-55.664,-8.301,-39.551
1688816660.413,-23.438,-37.109,-53.223,-18.555,219.727
1688816660.417,-161.621,-35.645,-53.223,-67.383,150.879
1688816660.421,-117.188,-32.715,-53.223,-105.469,-121.582
1688816660.425,31.738,-33.691,-50.293,-52.734,-114.258
1688816660.425,31.738,-33.691,-50.293,-52.734,-114.258
1688816660.428,69.336,-40.039,-50.781,12.207,26.367
1688816660.432,4.395,-39.551,-46.387,0.000,-92.285
1688816660.436,-143.066,-34.668,-40.039,-48.340,-152.344
1688816660.440,-139.648,-35.645,-37.109,-94.238,-104.980
1688816660.444,15.625,-37.109,-40.527,-56.152,-121.094
1688816660.448,72.754,-36.133,-40.527,13.184,-2.930
1688816660.452,25.391,-36.133,-38.086,13.184,107.910
1688816660.455,-127.930,-32.715,-37.109,-23.926,72.266
1688816660.459,-165.527,-30.273,-34.180,-77.148,116.699
1688816660.463,-1.465,-28.320,-35.645,-52.734,-45.898
1688816660.467,65.430,-31.738,-40.039,8.789,-52.734
1688816660.471,16.113,-34.668,-33.691,17.578,38.086
1688816660.472,-108.887,-28.320,-26.855,-17.090,-11.719
1688816660.476,-162.109,-20.020,-26.855,-85.938,-71.289
1688816660.480,-15.137,-24.902,-29.785,-74.707,-110.840
1688816660.484,76.660,-29.297,-28.320,9.277,-100.586
1688816660.488,49.316,-23.926,-24.414,25.879,-129.883
1688816660.492,-87.891,-27.344,-21.973,-10.254,-22.949
1688816660.496,-178.223,-28.320,-20.020,-62.988,51.270
1688816660.499,-30.762,-23.438,-20.020,-60.059,139.648
1688816660.503,90.820,-17.090,-21.973,15.625,22.949
1688816660.507,71.777,-14.160,-22.461,37.598,-97.656
1688816660.511,-60.059,-20.508,-23.438,-1.465,25.391
1688816660.515,-164.551,-21.973,-24.414,-69.336,-43.945
1688816660.519,-48.340,-31.738,-22.461,-82.031,-142.090
1688816660.523,78.613,-35.156,-27.832,0.977,-140.625
1688816660.527,81.543,-26.367,-30.273,37.109,-62.500
1688816660.531,-31.738,-22.949,-32.715,-0.977,147.461
1688816660.535,-167.969,-24.414,-39.062,-68.848,-6.348
1688816660.539,-73.730,-26.367,-47.363,-86.914,-179.688
1688816660.543,69.336,-25.391,-54.688,-15.137,83.984
1688816660.546,65.918,-26.367,-50.293,20.996,208.008
1688816660.550,-30.273,-28.809,-50.293,-9.766,-97.168
1688816660.554,-160.156,-27.832,-49.805,-62.988,-150.391
1688816660.558,-98.633,-28.320,-45.898,-91.797,-105.957
1688816660.562,56.641,-30.762,-50.781,-27.832,-177.246
1688816660.578,68.359,-33.691,-52.246,20.020,-169.922
1688816660.582,-18.555,-32.227,-49.805,-2.930,-112.305
1688816660.586,-151.855,-34.180,-48.340,-48.828,-38.574
1688816660.590,-125.000,-33.203,-47.852,-88.379,11.230
1688816660.594,26.855,-29.785,-43.945,-41.504,-109.375
1688816660.598,66.406,-34.180,-40.039,22.949,-31.250
1688816660.602,2.930,-30.762,-39.551,25.391,391.113
1688816660.605,-141.602,-27.832,-38.574,-14.160,312.012
1688816660.609,-140.137,-34.180,-41.504,-67.383,-159.180
1688816660.613,20.508,-36.621,-40.039,-36.621,-145.508
1688816660.617,71.777,-38.086,-43.457,17.090,0.977
1688816660.621,25.879,-33.691,-45.898,13.672,-102.539
1688816660.609,-117.188,-29.785,-41.504,-24.902,-125.488
1688816660.613,-148.438,-29.297,-36.621,-65.430,-84.473
1688816660.617,20.508,-24.414,-36.133,-38.574,-125.000
1688816660.621,82.031,-22.461,-39.551,18.555,-143.066
1688816660.625,21.484,-28.320,-40.039,23.438,-104.492
1688816660.629,-110.840,-29.785,-41.992,-10.742,60.059
1688816660.633,-164.062,-26.855,-43.945,-70.312,244.141
1688816660.636,-13.184,-25.879,-44.434,-65.430,14.648
1688816660.640,82.520,-29.297,-42.480,2.441,-157.227
1688816660.644,45.410,-33.203,-43.945,22.949,53.223
1688816660.648,-98.145,-27.344,-45.410,-8.789,109.863
1688816660.652,-175.293,-25.391,-44.434,-76.660,-190.430
1688816660.682,-21.973,-28.320,-47.363,-69.336,-245.605
1688816660.686,77.637,-26.855,-46.387,11.230,9.277
1688816660.690,51.270,-30.273,-44.434,24.414,-2.930
1688816660.694,-63.965,-32.715,-42.480,-7.812,-111.816
1688816660.698,-170.410,-28.809,-39.551,-69.824,-83.984
1688816660.702,-53.711,-26.367,-39.062,-83.496,253.906
1688816660.706,67.871,-26.367,-42.480,-12.695,251.953
1688816660.709,48.828,-32.227,-40.039,8.301,-66.406
1688816660.713,-65.918,-33.203,-37.598,-6.836,-20.996
1688816660.717,-181.152,-33.691,-39.551,-49.316,208.984
1688816660.721,-89.355,-34.668,-42.480,-84.961,-12.695
1688816660.725,41.992,-36.621,-45.410,-33.691,-193.848
1688816660.713,46.387,-43.945,-41.504,12.207,-91.309
1688816660.717,-42.480,-40.527,-32.715,0.000,16.602
1688816660.721,-171.387,-37.598,-29.785,-64.453,-81.055
1688816660.725,-109.863,-39.062,-32.227,-94.238,-228.027
1688816660.729,46.875,-37.598,-32.227,-36.133,-120.605
1688816660.733,62.988,-36.621,-26.367,8.789,56.641
1688816660.737,-20.020,-30.762,-27.832,2.930,37.109
1688816660.740,-147.949,-24.902,-27.344,-38.574,-58.105
1688816660.744,-123.047,-29.785,-21.973,-70.801,-83.496
1688816660.748,29.297,-39.062,-27.344,-28.320,-98.145
1688816660.752,68.359,-35.645,-31.738,26.367,-79.102
1688816660.756,-3.418,-36.621,-29.785,8.789,-112.793
1688816660.773,-145.996,-41.016,-34.668,-40.039,17.578
1688816660.777,-151.367,-37.598,-37.109,-82.031,-24.902
1688816660.781,0.977,-35.645,-33.203,-42.480,-182.129
1688816660.785,61.035,-35.156,-35.156,17.090,-140.137
1688816660.789,8.789,-39.062,-32.715,22.461,102.051
1688816660.793,-140.625,-35.645,-26.855,-16.602,191.895
1688816660.797,-168.945,-30.762,-28.320,-80.566,-88.379
1688816660.800,-1.465,-32.227,-34.668,-60.059,-91.309
1688816660.804,75.195,-36.133,-34.668,12.695,172.852
1688816660.808,29.297,-34.180,-33.203,20.508,35.156
1688816660.812,-113.281,-31.738,-28.809,-21.973,-134.277
1688816660.816,-170.898,-26.367,-21.973,-74.707,-32.715
1688816660.802,-14.648,-24.414,-21.973,-55.176,233.887
1688816660.806,79.102,-27.832,-22.949,9.277,49.805
1688816660.810,48.340,-29.297,-22.461,11.230,-203.125
1688816660.814,-79.590,-31.250,-25.879,-25.879,-177.734
1688816660.818,-162.598,-29.297,-26.855,-78.613,-207.520
1688816660.822,-27.344,-23.438,-31.250,-83.496,-183.594
1688816660.826,78.613,-23.926,-34.180,-13.672,-114.258
1688816660.829,57.617,-30.762,-37.109,8.301,-64.453
1688816660.833,-66.895,-35.645,-38.086,-24.902,-59.570
1688816660.837,-173.828,-29.297,-38.086,-83.984,-87.402
1688816660.841,-52.734,-30.762,-40.039,-94.238,-194.824
1688816660.845,64.453,-35.645,-43.457,-18.066,-24.902
1688816660.848,39.551,-29.297,-44.922,3.906,137.207
1688816660.852,-69.336,-28.809,-41.992,-25.391,-80.078
1688816660.856,-168.945,-28.809,-40.039,-66.895,-117.676
1688816660.860,-76.660,-26.367,-38.086,-78.613,26.855
1688816660.864,54.199,-23.926,-34.180,-10.254,-9.277
1688816660.868,61.523,-24.902,-38.086,18.066,-41.992
1688816660.872,-38.574,-25.879,-39.551,-11.719,-13.672
1688816660.875,-174.805,-27.832,-34.180,-61.035,162.598
1688816660.879,-104.004,-27.832,-34.180,-96.680,-34.668
1688816660.883,38.086,-25.391,-35.645,-41.992,-225.098
1688816660.887,54.199,-30.762,-34.180,13.184,37.109
1688816660.891,-24.414,-34.668,-31.250,-3.906,110.352
1688816660.893,-167.480,-33.203,-28.809,-61.035,-137.207
1688816660.897,-137.695,-33.203,-26.855,-102.539,-201.660
1688816660.901,18.555,-33.203,-27.832,-48.828,-120.117
1688816660.905,59.082,-31.738,-32.227,1.465,-107.910
1688816660.909,-0.488,-33.203,-31.738,-14.648,-64.453
1688816660.913,-145.996,-34.180,-27.832,-62.012,-48.340
1688816660.917,-138.184,-32.715,-25.879,-101.074,3.906
1688816660.920,20.996,-29.297,-26.855,-55.176,287.598
1688816660.924,68.359,-30.762,-32.227,1.953,53.223
1688816660.928,14.160,-38.574,-34.668,4.883,-124.512
1688816660.932,-130.371,-35.645,-32.227,-34.180,-31.250
1688816660.936,-162.598,-32.227,-28.809,-92.773,-158.691
1688816660.937,-7.812,-37.109,-30.273,-72.266,-221.191
1688816660.941,63.477,-34.180,-33.691,-12.695,-120.605
1688816660.945,20.996,-32.715,-35.645,-13.184,-48.340
1688816660.949,-121.582,-37.598,-35.645,-46.387,-113.281
1688816660.953,-172.852,-37.598,-33.203,-92.285,-186.523
1688816660.957,-6.836,-33.691,-31.738,-75.195,-102.051
1688816660.961,75.684,-36.133,-31.250,-2.441,203.125
1688816660.964,21.484,-38.574,-38.086,3.906,198.730
1688816660.968,-105.957,-36.621,-34.180,-40.527,-61.523
1688816660.972,-174.316,-34.180,-26.855,-91.309,-72.754
1688816660.976,-37.109,-32.227,-30.273,-69.824,255.859
1688816660.980,59.570,-35.645,-32.715,-11.719,76.172
1688816660.983,31.250,-40.039,-31.250,3.418,-136.230
1688816660.987,-88.379,-42.480,-28.320,-22.461,-79.590
1688816660.991,-186.523,-39.062,-32.715,-94.238,-113.770
1688816660.995,-55.176,-41.016,-38.574,-106.445,-208.008
1688816660.999,67.871,-41.992,-27.344,-20.020,-210.449
1688816661.003,50.293,-43.457,-21.484,9.766,3.418
1688816661.007,-62.012,-47.363,-23.926,-22.461,32.227
1688816661.010,-187.012,-45.898,-20.996,-79.590,-122.070
1688816661.014,-88.867,-49.316,-15.625,-104.980,-163.086
1688816661.018,56.152,-55.176,-5.859,-23.438,58.594
1688816661.022,55.664,-60.547,-2.930,20.996,278.809
1688816661.026,-57.617,-64.941,-1.465,-12.207,10.254
1688816661.059,-196.289,-69.336,4.395,-65.918,-145.020
1688816661.063,-122.559,-70.801,7.324,-88.867,-147.461
1688816661.067,27.344,-67.871,12.207,-23.926,-142.578
1688816661.071,39.551,-67.871,17.090,20.996,-128.906
1688816661.075,-49.316,-71.289,23.926,-2.441,-55.664
1688816661.079,-187.012,-74.219,30.273,-46.387,132.324
1688816661.083,-139.160,-69.824,38.086,-86.914,28.320
1688816661.086,20.508,-71.289,39.551,-51.270,-98.633
1688816661.090,42.480,-73.242,34.668,1.465,-96.680
1688816661.094,-27.832,-70.801,39.551,2.441,-18.066
1688816661.098,-172.363,-80.078,44.434,-42.480,-19.043
1688816661.102,-174.316,-82.031,41.504,-92.285,-105.957
1688816661.087,-14.160,-79.102,42.480,-43.945,-71.289
1688816661.091,40.039,-80.566,47.852,18.066,162.598
1688816661.095,-8.301,-82.031,47.363,8.301,-15.137
1688816661.099,-152.832,-83.984,45.410,-29.785,-162.598
1688816661.103,-179.688,-76.660,42.480,-81.543,0.488
1688816661.107,-17.578,-74.219,43.945,-52.734,124.512
1688816661.111,55.664,-72.754,40.527,3.418,51.758
1688816661.114,8.789,-68.359,37.109,-1.953,-129.883
1688816661.118,-135.254,-67.383,40.527,-22.461,-34.668
1688816661.122,-195.312,-67.383,37.598,-77.637,-7.812
1688816661.126,-49.316,-68.359,35.156,-71.289,-184.570
1688816661.130,32.227,-68.359,32.715,0.977,-166.992
1688816661.163,0.488,-65.430,35.645,19.531,40.039
1688816661.167,-123.535,-61.035,40.039,-10.254,287.109
1688816661.171,-202.148,-59.082,34.180,-77.637,20.020
1688816661.175,-69.336,-61.035,30.273,-91.309,-226.074
1688816661.179,43.457,-64.453,31.250,-17.578,-36.621
1688816661.183,24.414,-61.035,24.902,9.766,-37.598
1688816661.187,-100.098,-63.965,20.020,-13.184,-133.789
1688816661.190,-196.289,-59.082,20.020,-67.383,-169.434
1688816661.194,-83.496,-53.711,17.578,-86.426,87.891
1688816661.198,33.203,-55.664,9.766,-22.949,97.656
1688816661.202,39.551,-56.641,8.301,17.090,-52.734
1688816661.206,-54.688,-52.734,11.719,-2.930,-54.199
1688816661.178,-181.641,-49.316,12.695,-65.918,-45.410
1688816661.182,-86.426,-53.223,9.277,-83.008,-112.305
1688816661.186,59.082,-56.641,4.883,-20.508,-251.953
1688816661.190,54.199,-53.711,4.883,20.996,-135.254
1688816661.194,-37.109,-53.711,5.371,25.879,199.707
1688816661.198,-167.969,-52.246,1.953,-44.922,-9.766
1688816661.202,-111.328,-48.340,0.488,-97.168,-225.098
1688816661.205,39.062,-49.316,2.930,-27.344,-116.211
1688816661.209,56.152,-50.293,4.395,15.137,-140.625
1688816661.213,-24.414,-50.293,-2.930,0.000,-176.758
1688816661.217,-170.410,-55.664,-1.953,-39.062,-123.047
1688816661.221,-137.695,-54.199,-0.488,-77.148,-51.270
1688816661.222,21.484,-43.945,-2.930,-38.574,-90.332
1688816661.226,53.711,-39.551,-6.348,24.414,-180.664
1688816661.230,-14.648,-43.457,-8.789,29.297,-141.602
1688816661.234,-158.691,-46.875,-8.789,-23.926,187.500
1688816661.238,-146.484,-41.016,-12.695,-83.008,206.543
1688816661.242,28.809,-41.504,-13.672,-50.293,-5.859
1688816661.246,77.148,-42.480,-14.648,11.230,9.766
1688816661.249,8.301,-40.527,-21.973,12.207,262.695
1688816661.253,-138.184,-40.039,-23.438,-26.367,226.074
1688816661.257,-152.344,-38.574,-20.020,-89.355,-110.352
1688816661.261,8.301,-41.504,-21.973,-64.453,-72.266
1688816661.265,86.426,-47.363,-31.250,8.789,95.215
1688816661.267,52.246,-46.387,-33.203,7.812,-106.445
1688816661.271,-85.449,-42.480,-27.832,-23.926,-187.500
1688816661.275,-146.973,-39.062,-23.926,-71.289,-154.297
1688816661.279,1.465,-41.016,-27.832,-49.805,-187.988
1688816661.283,104.492,-39.551,-22.949,29.785,-148.926
1688816661.287,61.523,-42.969,-20.996,25.391,-149.902
1688816661.291,-94.238,-46.387,-27.344,-13.672,97.168
1688816661.294,-166.504,-39.551,-27.832,-55.176,209.473
1688816661.298,-17.578,-39.551,-24.902,-61.035,-48.340
1688816661.302,84.473,-47.852,-23.438,8.789,-88.867
1688816661.306,50.781,-55.176,-26.855,37.109,32.227
1688816661.310,-65.430,-53.223,-36.133,3.418,-11.719
1688816661.313,-168.945,-49.805,-36.621,-61.523,-121.094
1688816661.317,-57.129,-48.340,-29.785,-82.031,-105.469
1688816661.321,69.824,-44.922,-28.320,-7.324,-21.484
1688816661.325,62.500,-41.016,-25.879,26.855,-87.402
1688816661.329,-45.410,-43.457,-25.879,-11.230,-142.578
1688816661.333,-152.832,-43.457,-28.809,-68.848,-33.203
1688816661.337,-56.641,-37.598,-30.762,-83.496,187.012
1688816661.340,57.129,-34.668,-32.227,-25.879,167.480
1688816661.344,55.176,-39.062,-34.180,10.254,-109.375
1688816661.348,-27.832,-45.898,-28.809,-1.465,-58.105
1688816661.352,-151.367,-45.410,-28.320,-58.594,157.227
1688816661.356,-86.426,-37.598,-37.109,-92.773,57.617
1688816661.359,62.500,-33.203,-36.621,-22.461,-145.508
1688816661.363,78.125,-35.156,-30.762,34.668,-21.484
1688816661.367,-14.648,-36.621,-30.273,21.973,174.805
1688816661.371,-155.273,-36.621,-31.250,-45.410,-4.883
1688816661.375,-125.000,-45.410,-30.762,-110.352,-187.988
1688816661.379,33.691,-57.617,-25.879,-51.270,-72.754
1688816661.383,88.867,-41.992,-29.785,24.902,96.680
1688816661.386,22.461,-20.020,-47.852,3.906,-69.824
1688816661.390,-128.906,-23.926,-59.082,-63.965,-196.289
1688816661.394,-117.676,-22.949,-64.453,-100.098,-33.691
1688816661.398,51.758,-12.695,-75.195,-49.805,84.473
1688816661.402,109.863,-14.160,-84.961,3.418,-103.027
1688816661.417,42.969,-7.324,-88.379,0.488,-155.273
1688816661.421,-104.004,-2.930,-102.051,-47.363,62.500
1688816661.425,-117.676,-5.859,-107.910,-93.750,-12.695
1688816661.429,38.574,-2.441,-110.352,-73.730,-191.895
1688816661.433,114.258,-1.465,-114.746,-9.277,-72.266
1688816661.437,74.219,-1.953,-117.188,3.906,264.160
1688816661.441,-66.406,0.977,-117.188,-34.668,171.875
1688816661.444,-113.281,10.254,-115.723,-97.656,-180.664
1688816661.448,35.645,13.184,-120.117,-83.008,-212.891
1688816661.452,112.305,7.812,-126.953,-7.812,21.973
1688816661.456,68.848,4.395,-132.324,-19.043,-26.367
1688816661.460,-59.570,9.766,-131.836,-62.500,-135.254
1688816661.462,-120.117,16.602,-123.535,-105.469,-52.734
1688816661.466,16.602,20.508,-119.629,-99.609,51.270
1688816661.470,102.051,15.137,-123.047,-34.180,-62.988
1688816661.474,80.566,8.301,-121.582,-12.695,-85.449
1688816661.478,-43.945,8.789,-122.070,-30.762,47.852
1688816661.482,-142.090,7.812,-116.699,-82.520,88.379
1688816661.486,-17.090,4.395,-112.305,-99.609,28.320
1688816661.489,104.004,0.977,-113.770,-29.785,-55.176
1688816661.493,84.961,-0.488,-112.793,-12.207,35.156
1688816661.497,-31.738,-4.883,-112.305,-37.598,131.348
1688816661.501,-142.578,-5.371,-108.887,-88.867,-109.375
1688816661.505,-45.898,0.977,-100.098,-104.980,-195.801
1688816661.507,86.914,-4.395,-91.797,-31.738,33.691
1688816661.511,82.520,-8.789,-86.914,1.465,-22.461
1688816661.515,-18.066,-10.742,-87.402,-24.902,-212.891
1688816661.519,-154.785,-10.742,-85.938,-83.496,-181.152
1688816661.523,-92.285,-2.930,-79.590,-118.164,-108.887
1688816661.527,57.617,-10.254,-73.730,-54.688,-76.660
1688816661.531,73.242,-14.648,-72.754,-5.859,-124.512
1688816661.534,-14.648,-8.301,-71.777,-8.301,-59.570
1688816661.538,-150.879,-7.812,-68.359,-46.387,223.633
1688816661.542,-103.516,-4.395,-66.895,-101.562,221.191
1688816661.546,41.504,-4.883,-63.965,-67.383,-57.617
1688816661.550,72.266,-12.207,-60.547,-6.836,-29.785
1688816661.552,10.254,-12.207,-60.547,-1.465,40.039
1688816661.556,-135.254,-8.301,-56.641,-44.434,-113.770
1688816661.560,-111.816,-5.859,-55.176,-86.914,-210.938
1688816661.564,53.223,-8.301,-57.617,-40.527,-148.438
1688816661.568,86.914,-17.090,-58.105,20.996,-82.520
1688816661.572,26.367,-24.414,-60.059,12.207,-64.453
1688816661.576,-116.211,-27.344,-59.082,-40.039,-84.961
1688816661.579,-139.648,-28.809,-53.711,-99.121,-57.617
1688816661.583,18.555,-27.832,-56.641,-64.941,162.598
1688816661.587,90.332,-25.391,-59.082,-6.836,16.113
1688816661.591,40.527,-23.926,-55.664,-4.395,-166.504
1688816661.595,-125.977,-26.855,-52.734,-29.297,-68.359
1688816661.597,-187.988,-27.832,-47.363,-91.797,-83.008
1688816661.601,-27.832,-28.320,-46.387,-85.449,-149.414
1688816661.605,66.895,-30.273,-43.945,-9.277,-111.328
1688816661.609,35.645,-32.227,-48.340,-0.977,-37.598
1688816661.613,-96.680,-36.621,-47.852,-24.902,-75.195
1688816661.617,-174.805,-36.133,-44.434,-88.379,-184.082
1688816661.621,-31.738,-36.133,-44.922,-100.098,-94.238
1688816661.624,80.078,-40.039,-45.898,-12.695,170.410
1688816661.628,49.805,-39.551,-47.852,5.859,44.434
1688816661.632,-77.637,-37.109,-44.922,-26.367,-66.406
1688816661.636,-176.270,-36.621,-48.828,-84.961,13.184
1688816661.640,-57.617,-36.621,-52.246,-86.914,256.836
1688816661.642,61.035,-34.668,-51.758,-9.766,326.172
1688816661.646,47.363,-35.156,-53.711,10.742,-31.250
1688816661.650,-60.547,-39.062,-51.758,4.395,-162.598
1688816661.654,-165.527,-32.715,-45.898,-40.527,-87.402
1688816661.658,-70.801,-25.879,-45.410,-79.590,-204.590
1688816661.662,59.082,-26.367,-45.410,-13.672,-168.945
1688816661.666,63.965,-30.273,-44.434,28.320,111.328
1688816661.669,-45.898,-31.738,-48.340,9.766,171.875
1688816661.673,-178.711,-25.879,-47.363,-51.270,-91.309
1688816661.677,-95.215,-21.973,-38.574,-83.008,-173.828
1688816661.681,69.824,-21.484,-34.180,-4.883,-83.496
1688816661.685,78.613,-17.090,-40.039,44.434,-99.609
1688816661.691,-33.691,-14.160,-44.922,6.348,-129.395
1688816661.695,-176.270,-16.602,-44.434,-57.129,-75.684
1688816661.699,-118.164,-19.043,-38.574,-86.914,-1.953
1688816661.703,40.527,-12.695,-37.598,-31.738,-85.449
1688816661.707,46.875,-9.277,-43.945,-6.348,-97.168
1688816661.711,-28.809,-13.672,-53.711,-24.902,-9.766
1688816661.715,-159.668,-13.672,-53.711,-43.945,162.598
1688816661.718,-155.762,-12.207,-53.223,-101.074,16.602
1688816661.722,-0.977,-16.113,-53.711,-70.312,-209.473
1688816661.726,48.828,-18.066,-50.293,2.441,-63.965
1688816661.730,-9.277,-20.508,-47.852,-3.906,170.898
1688816661.734,-149.414,-21.973,-45.898,-47.852,-15.625
1688816661.748,-168.945,-22.461,-39.062,-89.844,-202.148
1688816661.752,-11.230,-26.855,-38.086,-58.105,-169.922
1688816661.756,68.848,-29.297,-39.551,7.324,-100.098
1688816661.760,20.508,-31.250,-41.504,16.113,-25.879
1688816661.764,-124.023,-33.691,-43.945,-17.578,-146.484
1688816661.768,-166.504,-31.738,-39.551,-58.105,-91.309
1688816661.772,-20.508,-34.180,-37.109,-26.367,333.984
1688816661.775,63.965,-32.227,-41.016,30.273,224.121
1688816661.779,30.762,-26.855,-39.551,22.949,-157.715
1688816661.783,-97.656,-24.414,-31.738,-5.859,-124.023
1688816661.787,-165.527,-21.973,-27.344,-57.129,-130.859
1688816661.791,-22.461,-28.320,-30.762,-59.570,-176.270
1688816661.792,75.684,-32.715,-29.785,6.348,-153.320
1688816661.796,52.734,-29.297,-26.367,26.367,-59.082
1688816661.800,-77.637,-31.250,-29.297,4.395,-52.734
1688816661.804,-174.805,-30.273,-24.902,-56.641,-149.902
1688816661.808,-38.574,-27.344,-21.484,-60.547,-145.996
1688816661.812,66.895,-30.762,-27.832,26.855,66.895
1688816661.816,46.387,-29.785,-30.762,46.387,94.727
1688816661.819,-56.641,-27.832,-32.715,8.301,-29.785
1688816661.823,-166.504,-34.180,-32.715,-46.387,-52.734
1688816661.827,-74.219,-31.250,-31.250,-60.059,230.957
1688816661.831,46.387,-27.344,-37.598,0.488,329.590
1688816661.835,43.945,-21.973,-40.527,22.461,1.465
1688816661.837,-42.969,-22.461,-38.086,-5.859,-136.719
1688816661.841,-161.621,-27.832,-38.086,-62.012,-67.383
1688816661.845,-94.727,-21.973,-40.039,-98.633,-172.363
1688816661.849,41.504,-21.484,-41.504,-36.133,-227.539
1688816661.853,52.734,-27.832,-42.969,10.254,-118.164
1688816661.857,-31.250,-29.297,-40.039,-6.348,-2.441
1688816661.861,-170.410,-26.367,-39.551,-52.246,22.949
1688816661.864,-136.719,-21.484,-39.062,-102.539,-145.020
1688816661.868,16.602,-22.461,-35.156,-48.828,-23.438
1688816661.872,53.223,-23.926,-36.133,17.578,82.520
1688816661.876,-17.090,-26.367,-35.156,4.883,-129.883
1688816661.880,-172.363,-29.297,-29.297,-47.852,-182.129
1688816661.882,-160.156,-26.855,-24.902,-88.379,-96.680
1688816661.886,8.301,-29.297,-31.738,-49.316,-75.195
1688816661.890,61.523,-28.320,-36.133,12.207,-116.211
1688816661.894,1.953,-28.809,-31.250,9.277,-91.309
1688816661.898,-150.879,-35.156,-30.273,-35.156,102.539
1688816661.902,-166.992,-28.809,-35.645,-90.332,27.832
1688816661.906,2.930,-25.391,-37.109,-65.918,-83.984
1688816661.909,74.707,-30.762,-38.574,2.441,32.715
1688816661.913,30.762,-28.809,-36.133,20.508,220.215
1688816661.917,-114.746,-26.367,-34.180,-19.043,62.500
1688816661.921,-167.480,-28.320,-33.691,-84.961,-100.098
1688816661.925,-11.719,-28.809,-31.738,-67.871,2.930
1688816661.943,66.406,-29.297,-32.227,8.789,-26.367
1688816661.947,28.809,-34.180,-34.180,17.090,-112.305
1688816661.951,-102.539,-35.645,-38.574,-23.926,-128.418
1688816661.955,-170.410,-33.691,-38.574,-78.125,-79.590
1688816661.959,-23.438,-34.668,-40.527,-68.848,118.652
1688816661.963,67.871,-30.762,-45.898,-2.930,65.430
1688816661.967,40.039,-29.785,-43.457,8.789,-71.289
1688816661.970,-75.195,-29.785,-43.457,-10.254,41.016
1688816661.974,-176.758,-24.414,-46.387,-59.082,164.551
1688816661.978,-59.082,-26.367,-47.363,-84.473,-61.035
1688816661.982,57.129,-35.645,-42.480,-22.949,-137.695
1688816661.986,45.898,-37.109,-38.086,13.184,-13.672
1688816661.973,-63.477,-34.668,-34.180,-5.371,19.531
1688816661.977,-184.570,-35.156,-31.250,-69.824,-62.012
1688816661.981,-74.219,-31.738,-34.668,-89.844,-152.832
1688816661.985,55.176,-36.621,-37.109,-20.020,2.930
1688816661.989,46.875,-40.527,-34.180,8.789,-24.414
1688816661.993,-50.781,-41.016,-34.180,-6.836,-67.383
1688816661.997,-180.664,-44.434,-31.250,-53.223,-39.551
1688816662.000,-96.191,-44.434,-28.320,-90.332,-60.547
1688816662.004,53.223,-41.992,-35.156,-20.996,-133.789
1688816662.008,62.988,-40.527,-38.086,37.598,-125.488
1688816662.012,-19.043,-38.086,-36.621,18.066,-54.199
1688816662.016,-154.297,-36.621,-35.156,-27.344,165.527
1688816662.017,-115.723,-34.668,-39.551,-62.988,158.691
1688816662.021,39.062,-36.133,-42.480,-21.973,-193.359
1688816662.025,76.660,-35.645,-32.715,37.598,-166.504
1688816662.029,5.859,-34.180,-34.668,27.832,-11.719
1688816662.033,-141.113,-34.668,-38.086,-34.668,-65.430
1688816662.037,-131.348,-30.762,-33.203,-84.473,-183.594
1688816662.041,34.668,-27.344,-29.785,-32.227,-74.219
1688816662.044,84.961,-31.250,-31.738,34.180,210.938
1688816662.048,24.902,-32.715,-33.691,17.578,-42.480
1688816662.052,-113.281,-33.203,-33.691,-26.367,-220.703
1688816662.056,-135.254,-31.738,-29.297,-71.777,-95.215
1688816662.060,13.184,-33.691,-28.809,-40.527,-150.879
1688816662.063,72.266,-41.016,-37.598,12.207,-216.309
1688816662.067,23.926,-44.434,-39.062,3.906,-161.133
1688816662.071,-110.840,-42.969,-33.691,-24.902,-83.008
1688816662.075,-167.480,-34.668,-31.738,-83.984,-82.031
1688816662.079,-9.766,-30.273,-36.621,-69.824,-116.699
1688816662.083,74.219,-34.180,-32.227,14.648,20.996
1688816662.087,30.762,-36.133,-27.832,37.109,362.305
1688816662.090,-99.609,-31.738,-29.297,-3.418,241.699
1688816662.094,-173.828,-28.809,-27.832,-73.730,-180.664
1688816662.098,-25.391,-27.832,-24.902,-79.590,-178.711
1688816662.102,78.125,-28.320,-23.438,-3.418,201.660
1688816662.106,47.852,-31.250,-26.367,19.531,90.332
1688816662.108,-70.801,-35.156,-25.879,-5.371,-121.582
1688816662.112,-170.410,-33.203,-24.414,-56.152,-63.965
1688816662.116,-47.852,-25.879,-24.414,-62.500,0.000
1688816662.120,70.801,-23.926,-29.297,3.418,-101.562
1688816662.124,53.711,-25.879,-34.180,27.832,-165.527
1688816662.128,-56.641,-29.785,-30.273,-2.930,-41.016
1688816662.132,-164.551,-26.855,-26.367,-60.059,-23.926
1688816662.135,-64.453,-25.879,-26.367,-83.008,-161.621
1688816662.139,57.617,-31.250,-31.250,-16.602,-218.750
1688816662.143,63.477,-32.227,-31.250,30.273,-48.340
1688816662.147,-31.738,-30.762,-29.785,17.090,166.992
1688816662.151,-177.734,-34.180,-29.785,-41.016,-60.059
1688816662.170,-109.863,-41.016,-27.344,-71.289,-212.402
1688816662.174,40.039,-39.551,-26.855,-12.207,-57.617
1688816662.178,55.176,-37.109,-30.762,22.461,-62.988
1688816662.182,-27.344,-38.086,-35.645,9.277,-112.793
1688816662.186,-158.691,-36.133,-36.133,-39.551,-30.762
1688816662.190,-117.188,-33.203,-34.180,-86.914,-24.414
1688816662.194,27.832,-35.645,-32.715,-46.387,-71.777
1688816662.197,57.617,-38.086,-35.156,-3.906,-86.914
1688816662.201,-3.418,-40.527,-36.621,-12.207,-87.402
1688816662.205,-149.414,-43.945,-33.203,-43.457,124.023
1688816662.209,-149.414,-37.109,-34.668,-91.797,55.176
1688816662.213,17.090,-29.785,-33.691,-59.082,-129.883
1688816662.212,75.195,-33.203,-34.180,-6.348,-41.992
1688816662.216,3.906,-39.062,-40.527,-23.438,0.488
1688816662.220,-144.043,-36.133,-38.086,-66.895,-86.914
1688816662.224,-158.203,-35.156,-30.273,-110.352,-194.824
1688816662.228,1.953,-37.598,-30.273,-77.637,-93.262
1688816662.232,67.871,-38.574,-30.273,-10.254,168.457
1688816662.236,19.531,-37.598,-26.855,-6.836,124.512
1688816662.239,-112.305,-41.504,-29.785,-50.781,-30.273
1688816662.243,-156.250,-43.457,-31.250,-107.910,-12.695
1688816662.247,-21.973,-37.109,-29.785,-92.285,227.539
1688816662.251,51.270,-32.715,-34.668,-28.809,98.633
1688816662.255,20.508,-36.621,-31.250,-20.996,-130.371
1688816662.259,-107.910,-33.691,-27.832,-32.715,146.484
1688816662.263,-186.523,-27.832,-30.762,-84.473,67.383
1688816662.267,-41.992,-29.297,-26.855,-95.215,-329.590
1688816662.271,57.129,-30.273,-23.926,-15.137,-234.375
1688816662.275,31.250,-29.297,-29.785,12.207,-83.008
1688816662.279,-86.914,-27.832,-32.715,-28.320,-103.516
1688816662.283,-180.664,-25.391,-30.762,-86.426,-80.078
1688816662.286,-49.805,-24.902,-27.832,-91.309,-156.738
1688816662.290,75.684,-25.879,-27.344,-10.742,18.066
1688816662.294,52.734,-29.297,-24.414,21.484,-6.836
1688816662.298,-64.453,-30.762,-20.020,-9.766,-157.715
1688816662.302,-174.316,-32.227,-15.137,-57.617,-63.965
1688816662.333,-80.566,-33.691,-17.090,-79.102,-28.320
1688816662.337,54.688,-33.691,-28.809,-26.367,-132.324
1688816662.341,57.129,-36.621,-32.227,13.184,-77.637
1688816662.345,-43.945,-36.133,-26.367,0.000,13.672
1688816662.349,-173.340,-30.273,-26.367,-62.500,-62.500
1688816662.353,-94.238,-30.273,-29.785,-97.168,-65.430
1688816662.357,48.828,-31.738,-27.832,-39.551,0.977
1688816662.360,54.688,-32.715,-26.367,9.277,121.582
1688816662.364,-29.785,-34.180,-26.855,5.371,380.859
1688816662.368,-166.504,-28.809,-31.738,-55.664,69.336
1688816662.372,-113.770,-28.320,-37.109,-95.703,-216.309
1688816662.376,47.852,-36.621,-33.203,-37.598,-108.398
1688816662.349,70.801,-38.086,-30.273,4.395,-104.980
1688816662.353,-14.160,-36.133,-20.020,-10.254,-188.477
1688816662.357,-171.875,-38.574,-11.719,-50.781,-160.156
1688816662.361,-153.320,-43.457,-5.859,-89.355,-92.773
1688816662.365,7.324,-47.363,-4.883,-53.223,-129.883
1688816662.369,47.852,-55.664,-2.441,0.488,-141.113
1688816662.373,-11.719,-56.152,3.906,0.488,-66.895
1688816662.376,-167.480,-59.570,-1.465,-41.504,176.270
1688816662.380,-193.848,-60.059,4.395,-88.867,39.551
1688816662.384,-39.551,-62.012,15.137,-65.918,-106.445
1688816662.388,31.738,-66.895,19.531,-7.324,134.277
1688816662.392,-8.301,-65.918,23.926,1.953,183.594
1688816662.392,-153.809,-65.430,20.020,-38.574,-28.320
1688816662.396,-193.359,-60.059,18.066,-87.891,-176.758
1688816662.400,-40.527,-61.035,23.926,-55.176,-92.285
1688816662.404,23.438,-69.336,25.879,11.719,263.184
1688816662.408,-24.902,-70.801,25.391,6.836,63.965
1688816662.412,-157.227,-67.871,32.227,-24.414,-95.215
1688816662.416,-225.586,-71.777,33.203,-79.102,90.820
1688816662.419,-78.613,-73.730,30.762,-71.289,268.555
1688816662.423,23.926,-72.754,33.203,7.324,203.613
1688816662.427,4.883,-77.637,34.668,17.578,-63.965
1688816662.431,-109.863,-81.055,33.691,-13.184,-113.770
1688816662.435,-204.590,-77.637,32.227,-68.848,-131.348
1688816662.437,-81.543,-74.219,33.691,-77.148,-228.027
1688816662.441,23.438,-73.730,37.109,4.883,-202.637
1688816662.445,10.254,-70.312,40.039,32.227,-79.102
1688816662.449,-89.844,-64.941,39.551,2.441,-70.312
1688816662.453,-201.172,-63.965,37.598,-53.711,-124.023
1688816662.457,-98.633,-62.988,36.133,-71.777,-95.215
1688816662.461,37.109,-61.523,37.109,3.418,220.703
1688816662.464,38.086,-60.059,35.156,42.480,96.191
1688816662.468,-57.617,-61.035,34.180,16.602,-192.383
1688816662.472,-178.711,-63.965,31.250,-38.086,-33.691
1688816662.476,-131.836,-60.059,28.809,-71.777,130.371
1688816662.480,-12.207,-59.082,24.902,-18.066,54.199
1688816662.482,3.906,-60.059,24.414,28.320,-73.730
1688816662.486,-78.613,-61.035,22.949,12.207,-48.828
1688816662.490,-207.031,-59.570,22.949,-35.156,34.668
1688816662.494,-153.809,-56.641,24.902,-84.473,-182.129
1688816662.498,1.465,-55.664,20.508,-40.039,-182.129
1688816662.502,41.016,-57.129,11.230,30.762,116.211
1688816662.506,-39.062,-53.223,6.836,18.066,208.008
1688816662.509,-192.383,-49.316,9.766,-43.945,22.949
1688816662.513,-160.645,-46.875,9.766,-83.008,-106.934
1688816662.517,10.254,-47.852,7.812,-23.438,-39.551
1688816662.521,50.293,-47.852,2.441,34.180,-20.508
1688816662.525,-12.695,-48.340,1.465,19.043,-61.035
1688816662.542,-145.508,-49.316,1.465,-24.414,-4.883
1688816662.546,-145.020,-41.992,3.906,-70.801,-14.648
1688816662.550,0.488,-43.457,-0.488,-48.340,-128.418
1688816662.554,51.758,-45.410,-6.348,10.742,-218.262
1688816662.558,13.184,-45.898,0.000,16.602,-156.250
1688816662.562,-130.859,-44.922,1.953,-18.555,-19.043
1688816662.566,-173.340,-35.645,-3.906,-80.078,-4.395
1688816662.569,-14.648,-39.062,-10.742,-64.453,-138.672
1688816662.573,59.082,-43.945,-19.043,1.465,-150.879
1688816662.577,11.230,-41.504,-19.043,6.836,173.828
1688816662.581,-121.094,-38.086,-17.090,-19.531,125.488
1688816662.585,-184.082,-33.691,-20.996,-71.289,-139.648
1688816662.588,-35.645,-30.273,-19.043,-66.895,-97.656
1688816662.592,58.105,-32.227,-20.996,2.441,105.957
1688816662.596,24.902,-36.133,-24.414,3.418,-13.672
1688816662.600,-94.727,-34.668,-26.367,-37.109,-161.133
1688816662.604,-183.594,-33.203,-24.414,-97.656,-136.230
1688816662.608,-71.777,-32.227,-25.391,-105.469,-43.457
1688816662.612,41.504,-32.227,-31.738,-27.832,44.434
1688816662.615,32.227,-32.715,-26.855,-0.488,-74.219
1688816662.619,-78.125,-30.762,-18.555,-16.602,-44.922
1688816662.623,-188.965,-30.762,-21.484,-69.336,147.461
1688816662.627,-74.219,-29.297,-23.438,-98.633,-126.465
1688816662.631,57.129,-34.668,-21.484,-22.461,-197.754
1688816662.633,41.504,-39.062,-26.367,16.113,-87.891
1688816662.637,-56.152,-39.062,-28.809,-17.578,-146.484
1688816662.641,-176.758,-38.574,-26.367,-75.684,-133.789
1688816662.645,-96.680,-39.062,-25.391,-101.074,-102.539
1688816662.649,38.574,-40.527,-26.855,-40.039,-84.473
1688816662.653,37.109,-41.992,-30.762,-6.836,-33.691
1688816662.657,-57.129,-51.758,-31.738,-30.762,26.367
1688816662.660,-187.012,-61.035,-28.320,-68.359,-16.113
1688816662.664,-117.676,-50.781,-32.715,-83.496,114.258
1688816662.668,35.645,-32.715,-45.410,-27.344,87.891
1688816662.672,46.387,-29.297,-53.223,5.859,-102.051
1688816662.676,-17.090,-29.785,-54.688,-10.742,-47.852
1688816662.678,-149.902,-20.996,-59.082,-49.316,239.746
1688816662.682,-126.953,-13.672,-71.289,-104.004,23.926
1688816662.686,27.344,-14.160,-72.266,-63.965,-248.047
1688816662.690,61.035,-17.578,-74.707,0.488,-67.871
1688816662.694,15.137,-13.184,-81.055,-8.789,-26.367
1688816662.698,-121.582,-11.719,-76.660,-51.758,-63.965
1688816662.702,-134.766,-8.301,-73.730,-94.727,-48.340
1688816662.705,34.668,-7.812,-68.359,-38.574,36.133
1688816662.709,100.098,-9.766,-71.289,27.832,244.629
1688816662.713,51.270,-7.812,-76.172,5.859,63.477
1688816662.717,-86.426,-11.230,-74.219,-40.527,-138.184
1688816662.721,-134.277,-11.230,-74.219,-94.238,-83.496
1688816662.722,24.902,-9.277,-72.754,-73.730,-100.586
1688816662.726,101.074,-15.625,-69.336,-10.254,-98.633
1688816662.730,45.898,-20.020,-72.266,0.488,-34.180
1688816662.734,-87.891,-19.531,-75.684,-32.715,24.414
1688816662.738,-155.273,-22.949,-70.801,-106.934,-45.410
1688816662.742,-14.648,-24.414,-68.359,-104.492,-48.828
1688816662.746,83.496,-27.832,-70.312,-22.461,94.727
1688816662.749,57.129,-28.320,-71.289,10.742,311.035
1688816662.753,-66.895,-26.855,-70.312,-20.020,172.363
1688816662.757,-157.715,-22.461,-64.941,-90.332,-83.496
1688816662.761,-39.551,-18.066,-63.965,-94.238,-27.832
1688816662.765,59.082,-27.832,-69.336,-15.625,208.984
1688816662.767,41.504,-33.203,-67.871,-14.160,89.355
1688816662.771,-67.383,-34.180,-63.477,-48.340,-97.656
1688816662.775,-177.734,-32.715,-60.059,-90.332,-117.188
1688816662.779,-67.383,-28.809,-55.176,-116.699,-144.043
1688816662.783,52.734,-34.668,-57.617,-45.898,-122.559
1688816662.787,34.180,-35.645,-53.223,4.883,-65.918
1688816662.791,-63.477,-37.598,-50.781,-16.602,147.949
1688816662.794,-181.641,-44.434,-51.270,-60.059,235.352
1688816662.798,-84.473,-21.484,-52.734,-89.355,-64.453
1688816662.802,64.453,-5.859,-57.617,-45.898,-146.973
1688816662.806,61.035,-12.695,-65.918,-8.301,-121.582
1688816662.810,-27.344,-10.742,-73.242,-30.762,-120.605
1688816662.813,-156.250,-4.883,-79.102,-88.867,-186.035
1688816662.817,-115.723,-6.348,-83.984,-139.160,-253.418
1688816662.821,37.109,-10.742,-84.961,-81.055,-56.152
1688816662.825,76.660,-2.930,-93.750,-25.879,-28.320
1688816662.829,10.254,-2.930,-97.168,-36.133,-147.949
1688816662.833,-125.000,-0.488,-94.727,-71.777,-29.297
1688816662.837,-102.051,5.859,-96.680,-115.234,151.367
1688816662.840,40.039,5.859,-103.516,-80.078,62.500
1688816662.844,76.172,6.348,-104.004,-17.090,-122.070
1688816662.848,22.949,7.812,-99.609,-13.672,-83.496
1688816662.852,-117.188,10.742,-103.027,-59.082,102.539
1688816662.856,-110.840,15.137,-101.074,-112.305,-45.898
1688816662.858,49.805,16.113,-101.074,-81.055,-265.137
1688816662.862,91.309,7.324,-108.398,-5.859,-62.988
1688816662.866,39.062,1.953,-104.980,7.812,206.543
1688816662.870,-97.656,1.953,-103.027,-50.781,5.859
1688816662.874,-135.254,0.488,-98.633,-114.258,-201.172
1688816662.878,15.625,-2.930,-94.238,-88.379,-70.801
1688816662.882,101.074,-5.859,-90.820,-6.348,114.258
1688816662.885,65.430,-10.742,-87.402,11.230,-55.664
1688816662.889,-75.195,-15.137,-82.031,-24.902,-182.129
1688816662.893,-138.672,-12.695,-74.707,-78.125,-92.773
1688816662.897,8.789,-15.137,-73.242,-75.684,-95.215
1688816662.901,102.539,-14.648,-72.754,-1.953,-184.082
1688816662.917,74.707,-11.230,-68.359,27.832,-99.609
1688816662.921,-41.504,-16.602,-65.918,-7.812,-3.418
1688816662.925,-138.184,-18.555,-69.336,-75.195,-106.934
1688816662.929,-21.973,-14.648,-67.383,-82.520,-217.773
1688816662.933,90.332,-15.625,-65.430,-11.719,-56.152
1688816662.937,65.918,-20.020,-63.477,14.648,208.008
1688816662.941,-36.133,-18.555,-59.082,-23.926,161.621
1688816662.944,-142.090,-15.137,-60.059,-83.008,-30.273
1688816662.948,-44.922,-17.578,-65.918,-90.820,-43.457
1688816662.952,81.055,-21.973,-65.918,-17.578,89.355
1688816662.956,82.031,-20.996,-62.012,27.832,75.684
1688816662.960,-14.160,-24.414,-60.547,4.395,-77.637
1688816662.963,-135.254,-21.973,-59.570,-64.453,-109.375
1688816662.967,-55.176,-18.066,-55.176,-104.980,-42.480
1688816662.971,84.961,-25.391,-53.223,-41.992,-121.582
1688816662.975,92.773,-34.180,-53.223,15.625,-157.715
1688816662.979,-7.324,-29.785,-44.922,-7.812,-139.648
1688816662.983,-138.672,-22.461,-41.016,-72.266,-24.902
1688816662.987,-78.613,-21.484,-41.016,-103.516,-6.836
1688816662.990,65.430,-28.809,-45.410,-51.758,-54.199
1688816662.994,78.613,-35.156,-51.270,-8.789,-2.441
1688816662.998,-5.859,-34.668,-48.340,-13.184,235.352
1688816663.002,-153.809,-41.504,-49.316,-64.941,22.461
1688816663.006,-125.488,-41.504,-52.734,-111.816,-204.590
1688816663.008,46.387,-33.203,-47.363,-62.012,-20.508
1688816663.012,90.332,-29.297,-44.922,-9.277,-116.211
1688816663.016,5.371,-31.250,-49.805,-23.926,-258.301
1688816663.020,-140.137,-34.180,-45.410,-71.289,-144.043
1688816663.024,-135.254,-26.855,-45.410,-106.445,-57.129
1688816663.028,15.137,-27.344,-50.781,-57.617,-19.531
1688816663.032,83.496,-29.785,-47.852,-7.812,-4.883
1688816663.035,46.387,-28.809,-49.316,-16.602,-42.969
1688816663.039,-109.375,-30.273,-50.781,-36.621,231.445
1688816663.043,-162.109,-26.367,-47.363,-83.984,230.957
1688816663.047,12.695,-27.344,-46.387,-70.312,-43.945
1688816663.051,123.047,-32.227,-49.805,-0.488,-88.867
1688816663.052,64.941,-42.969,-35.645,25.391,140.625
1688816663.056,-110.840,-45.898,-27.344,-27.832,47.852
1688816663.060,-168.457,-40.527,-36.133,-104.980,-179.688
1688816663.064,-10.254,-41.992,-31.250,-88.867,-102.051
1688816663.068,77.637,-44.434,-26.367,-15.137,37.109
1688816663.072,27.832,-42.969,-29.297,-10.254,-7.324
1688816663.076,-80.078,-42.969,-28.809,-41.992,-50.293
1688816663.079,-159.180,-41.504,-26.367,-86.426,13.672
1688816663.083,-32.227,-35.645,-24.902,-84.961,120.117
1688816663.087,99.121,-34.668,-27.832,-27.344,-51.758
1688816663.091,93.262,-41.016,-30.273,-2.930,-123.535
1688816663.095,-23.926,-41.504,-27.344,-10.254,48.340
1688816663.097,-134.277,-35.645,-27.832,-59.570,16.113
1688816663.101,-20.508,-34.180,-28.320,-83.496,-181.641
1688816663.105,108.887,-37.598,-30.273,-14.160,-219.727
1688816663.109,95.703,-35.645,-32.715,20.020,-126.953
1688816663.113,2.930,-33.691,-29.297,4.395,-145.020
1688816663.117,-113.770,-33.203,-26.855,-50.293,-110.840
1688816663.121,-41.992,-28.320,-27.344,-81.055,6.348
1688816663.124,75.195,-31.738,-34.180,-12.207,226.074
1688816663.128,75.684,-33.691,-42.969,16.602,138.672
1688816663.132,-0.977,-26.855,-41.016,-9.277,-151.367
1688816663.136,-132.324,-23.438,-37.109,-54.688,-64.941
1688816663.140,-69.336,-19.531,-39.551,-89.844,13.184
1688816663.144,77.637,-21.484,-40.039,-37.109,-88.867
1688816663.148,85.449,-24.902,-39.062,16.113,-24.902
1688816663.152,5.859,-25.879,-37.109,14.160,14.160
1688816663.156,-134.766,-28.320,-40.527,-26.855,-15.137
1688816663.160,-102.051,-27.344,-34.180,-73.242,-204.590
1688816663.164,53.711,-24.902,-25.879,-28.809,-199.219
1688816663.168,87.891,-24.902,-31.250,27.832,94.727
1688816663.171,27.344,-28.320,-34.668,24.902,285.156
1688816663.175,-109.863,-27.344,-36.133,-20.508,13.184
1688816663.179,-114.258,-20.508,-39.551,-73.730,-171.387
1688816663.183,41.016,-21.973,-37.598,-35.156,-148.926
1688816663.187,101.562,-23.438,-37.598,28.809,-119.141
1688816663.187,40.039,-24.902,-40.527,24.414,-130.859
1688816663.191,-110.840,-25.879,-38.086,-19.531,-137.207
1688816663.195,-140.137,-19.043,-34.668,-83.984,-41.992
1688816663.199,12.207,-21.484,-29.785,-64.453,-26.855
1688816663.203,78.613,-24.902,-26.367,9.766,-104.492
1688816663.207,45.410,-24.902,-24.414,19.043,-20.996
1688816663.211,-75.684,-30.762,-25.391,-10.742,252.930
1688816663.214,-131.836,-30.273,-31.738,-69.336,192.383
1688816663.218,3.906,-27.344,-39.062,-64.941,-126.465
1688816663.222,78.125,-34.668,-38.086,12.207,-82.520
1688816663.226,41.016,-39.062,-35.645,27.832,41.504
1688816663.230,-93.750,-31.250,-35.156,-19.043,-80.078
1688816663.247,-178.711,-27.832,-30.273,-79.590,-242.188
1688816663.251,-38.574,-32.715,-28.320,-81.055,-217.285
1688816663.255,73.242,-36.133,-32.715,-7.812,-38.086
1688816663.259,47.363,-38.086,-33.691,16.602,-83.984
1688816663.263,-67.383,-40.039,-30.273,4.395,-161.133
1688816663.267,-172.363,-40.039,-26.367,-40.527,-75.195
1688816663.271,-63.965,-40.527,-25.879,-76.172,-50.781
1688816663.274,65.918,-41.504,-25.391,-12.695,-111.328
1688816663.278,53.223,-40.039,-27.344,16.113,-193.359
1688816663.282,-48.340,-41.016,-25.391,-7.812,-33.691
1688816663.286,-164.062,-40.039,-27.344,-47.852,260.742
1688816663.290,-88.867,-38.086,-28.320,-86.426,-54.688
1688816663.293,37.598,-37.109,-25.391,-34.668,-211.914
1688816663.297,41.992,-35.156,-25.879,13.184,-13.184
1688816663.301,-42.969,-32.715,-27.344,-5.371,-78.125
1688816663.305,-175.781,-29.785,-28.320,-55.664,-192.871
1688816663.309,-125.977,-34.180,-29.785,-94.238,-210.938
1688816663.313,30.762,-39.551,-29.297,-42.480,-37.109
1688816663.317,72.266,-35.645,-28.320,13.184,-84.473
1688816663.320,-9.277,-30.762,-24.414,6.836,-160.645
1688816663.324,-164.062,-39.062,-22.949,-47.852,-54.199
1688816663.328,-148.926,-41.992,-26.855,-94.238,226.562
1688816663.332,11.230,-36.621,-24.414,-43.457,436.035
1688816663.336,58.594,-31.250,-23.438,10.742,71.777
1688816663.339,-3.906,-33.691,-30.273,2.930,-125.000
1688816663.343,-150.391,-34.668,-26.855,-43.945,13.184
1688816663.347,-151.367,-31.738,-22.461,-101.074,-77.637
1688816663.351,5.859,-33.203,-27.832,-62.500,-143.066
1688816663.355,42.969,-31.250,-26.855,-9.766,-30.273
1688816663.359,-28.320,-34.180,-26.855,-22.949,57.129
1688816663.363,-148.926,-39.551,-28.809,-50.293,75.684
1688816663.366,-171.387,-41.016,-27.832,-99.121,-41.992
1688816663.370,-34.668,-45.410,-27.832,-72.754,32.227
1688816663.374,41.504,-42.969,-32.227,-0.488,177.734
1688816663.378,3.418,-40.527,-34.668,-1.465,5.371
1688816663.382,-135.254,-44.922,-32.227,-32.227,2.930
1688816663.384,-186.035,-43.945,-27.344,-82.031,46.875
1688816663.388,-48.340,-39.062,-30.273,-82.520,-40.039
1688816663.392,30.762,-40.527,-30.273,-17.090,-76.172
1688816663.396,-1.953,-45.898,-33.691,-5.859,-72.754
1688816663.400,-126.465,-47.363,-34.180,-36.133,-77.637
1688816663.404,-206.543,-48.340,-31.738,-88.379,-131.836
1688816663.408,-64.941,-38.574,-35.645,-86.426,-191.406
1688816663.411,41.504,-31.738,-32.227,-11.719,-75.195
1688816663.415,16.113,-37.109,-29.297,23.926,134.277
1688816663.419,-97.656,-36.133,-26.367,-1.953,12.207
1688816663.423,-200.195,-31.250,-23.438,-66.895,-143.555
1688816663.427,-89.844,-30.762,-28.809,-88.379,-63.477
1688816663.428,33.203,-37.109,-38.574,-16.113,116.211
1688816663.432,40.039,-37.598,-37.598,16.602,-5.859
1688816663.436,-58.105,-35.156,-30.273,-6.836,-140.137
1688816663.440,-182.129,-33.691,-31.738,-48.828,-69.336
1688816663.444,-98.633,-36.621,-35.645,-78.125,-65.430
1688816663.448,41.992,-42.480,-36.133,-33.691,-14.160
1688816663.452,49.316,-41.992,-35.156,6.348,14.160
1688816663.455,-42.969,-41.504,-33.691,-5.371,23.438
1688816663.459,-179.199,-37.598,-32.227,-52.734,272.461
1688816663.463,-124.512,-37.598,-36.133,-93.262,56.152
1688816663.467,31.250,-39.551,-40.039,-40.527,-202.637
1688816663.471,47.852,-39.551,-37.109,7.324,-41.992
1688816663.473,-32.715,-44.434,-35.645,0.000,-99.121
1688816663.477,-168.945,-41.504,-29.785,-39.551,-168.457
1688816663.481,-141.602,-37.109,-28.320,-100.098,-118.164
1688816663.485,14.160,-41.504,-29.785,-68.848,-50.293
1688816663.489,45.898,-44.922,-29.785,-12.695,2.441
1688816663.493,-17.090,-43.945,-28.809,-11.719,-5.371
1688816663.497,-157.715,-41.016,-26.855,-49.805,-2.441
1688816663.500,-162.598,-42.480,-27.832,-103.027,168.945
1688816663.504,-7.324,-39.551,-29.785,-66.406,110.840
1688816663.508,48.340,-37.109,-35.645,-0.977,-96.680
1688816663.512,-3.418,-36.133,-38.086,2.441,19.531
1688816663.516,-144.043,-33.691,-35.156,-40.527,56.152
1688816663.518,-177.246,-33.203,-33.203,-105.469,-171.875
1688816663.522,-23.926,-36.621,-37.598,-85.938,-218.262
1688816663.526,54.688,-32.227,-39.551,-15.137,-79.590
1688816663.530,24.414,-26.855,-38.086,-2.930,-50.293
1688816663.534,-118.652,-30.273,-37.109,-31.250,-67.871
1688816663.538,-184.082,-30.273,-38.574,-89.844,-108.887
1688816663.542,-27.832,-28.320,-39.551,-70.312,17.090
1688816663.545,58.105,-31.738,-35.156,17.090,345.703
1688816663.549,26.855,-36.621,-36.621,18.066,48.340
1688816663.553,-87.402,-37.109,-38.086,-24.902,-219.727
1688816663.557,-175.781,-35.645,-39.551,-77.148,-53.223
1688816663.561,-47.363,-41.992,-40.527,-74.707,-90.332
1688816663.577,70.801,-37.598,-47.852,-10.254,-146.484
1688816663.581,44.434,-35.156,-57.617,-12.207,-146.973
1688816663.585,-75.195,-43.945,-53.223,-33.691,-125.000
1688816663.589,-183.594,-41.504,-55.176,-83.984,-144.531
1688816663.593,-74.707,-37.598,-57.617,-103.027,-238.770
1688816663.597,54.688,-41.504,-56.641,-24.414,-21.484
1688816663.601,43.457,-40.527,-58.105,8.301,315.430
1688816663.604,-61.523,-40.527,-52.734,-24.414,170.898
1688816663.608,-176.270,-40.039,-51.758,-84.961,-242.188
1688816663.612,-85.449,-37.109,-55.176,-116.699,-215.332
1688816663.616,53.711,-34.668,-49.805,-43.945,193.848
1688816663.620,56.152,-34.668,-51.758,-3.418,16.602
1688816663.607,-39.062,-40.527,-56.641,-28.320,-235.840
1688816663.611,-175.781,-38.086,-50.293,-76.660,-145.996
1688816663.615,-118.652,-33.203,-45.410,-114.746,-124.023
1688816663.619,34.180,-34.180,-43.457,-55.176,-143.555
1688816663.623,61.035,-34.180,-42.969,-8.789,-149.414
1688816663.627,-8.301,-29.785,-44.922,-20.996,6.348
1688816663.631,-152.344,-29.297,-39.551,-58.105,95.703
1688816663.634,-125.488,-27.832,-32.227,-98.633,-74.707
1688816663.638,34.180,-26.855,-39.551,-53.711,-161.133
1688816663.642,62.988,-31.738,-41.992,7.324,-7.324
1688816663.646,-4.395,-35.156,-42.480,6.348,307.617
1688816663.650,-145.508,-28.320,-41.992,-40.039,24.902
1688816663.667,-152.832,-25.391,-40.527,-96.191,-227.051
1688816663.671,7.324,-30.273,-47.852,-66.406,-151.855
1688816663.675,71.777,-30.273,-49.316,-5.371,-119.141
1688816663.679,23.926,-33.691,-50.293,-2.441,-143.066
1688816663.683,-113.770,-34.180,-51.270,-39.551,-114.746
1688816663.687,-147.949,-30.273,-46.875,-87.402,-0.977
1688816663.691,-1.465,-35.156,-47.363,-69.824,33.691
1688816663.694,62.500,-41.992,-53.223,-17.578,-50.781
1688816663.698,13.672,-42.480,-53.223,-4.395,-121.094
1688816663.702,-118.164,-40.527,-48.340,-17.578,167.480
1688816663.706,-168.457,-35.156,-47.852,-81.055,144.531
1688816663.710,-16.602,-30.273,-47.363,-83.984,-116.211
1688816663.712,68.359,-33.203,-44.922,-3.418,15.137
1688816663.716,30.273,-35.645,-41.504,14.160,210.938
1688816663.720,-97.656,-33.691,-43.457,-28.320,49.805
1688816663.724,-187.012,-38.086,-48.828,-93.262,-104.492
1688816663.728,-55.664,-41.504,-48.340,-100.098,-100.098
1688816663.732,60.059,-38.086,-44.922,-30.762,-50.293
1688816663.736,41.504,-35.156,-46.387,-2.441,-55.176
1688816663.739,-71.777,-31.738,-48.340,-26.367,-108.887
1688816663.743,-172.363,-33.203,-43.945,-87.891,-23.438
1688816663.747,-62.988,-35.645,-41.992,-100.098,129.883
1688816663.751,47.852,-35.645,-45.898,-30.762,-21.973
1688816663.755,33.203,-38.086,-44.922,4.395,-91.797
1688816663.758,-62.988,-37.598,-37.109,-20.508,-4.395
1688816663.762,-185.547,-36.133,-39.062,-78.613,-46.875
1688816663.766,-101.562,-38.574,-43.945,-103.027,-116.699
1688816663.770,42.969,-40.039,-38.574,-39.062,-30.762
1688816663.774,51.270,-40.527,-34.180,2.441,177.246
1688816663.778,-39.551,-36.621,-31.250,-19.043,106.934
1688816663.782,-169.434,-34.180,-27.832,-69.824,-118.652
1688816663.785,-111.328,-35.645,-29.785,-97.656,-193.848
1688816663.789,41.992,-35.156,-28.320,-30.273,94.727
1688816663.793,63.477,-31.250,-26.367,18.066,117.188
1688816663.797,-23.438,-35.156,-27.344,-12.695,-76.660
1688816663.801,-174.805,-41.504,-29.785,-70.801,-66.406
1688816663.802,-138.184,-39.551,-35.156,-110.352,7.324
1688816663.806,20.020,-39.551,-42.480,-70.312,-119.141
1688816663.810,56.152,-45.898,-47.852,-18.555,-128.906
1688816663.814,-5.859,-43.945,-41.992,-23.926,-82.031
1688816663.818,-157.715,-41.992,-38.574,-61.035,-51.758
1688816663.822,-153.320,-41.016,-38.086,-102.051,21.973
1688816663.826,7.324,-46.387,-41.016,-63.477,-94.238
1688816663.829,41.016,-49.805,-41.992,-2.441,-1.953
1688816663.833,-18.066,-45.898,-39.551,0.000,258.789
1688816663.837,-145.508,-39.551,-39.551,-36.133,14.648
1688816663.841,-168.945,-34.180,-36.133,-95.703,-203.125
1688816663.845,-19.043,-41.992,-36.133,-76.172,-115.234
1688816663.847,58.105,-41.016,-39.062,-12.695,-90.820
1688816663.851,22.461,-33.203,-35.156,-8.789,-176.758
1688816663.855,-125.977,-35.645,-30.762,-41.016,-172.363
1688816663.859,-188.965,-32.227,-31.738,-103.516,-127.930
1688816663.863,-34.180,-34.668,-37.598,-99.609,-212.402
1688816663.867,49.316,-37.598,-37.109,-23.438,-217.285
1688816663.871,17.578,-31.250,-32.715,-0.488,-73.242
1688816663.874,-106.445,-34.180,-35.645,-23.926,162.598
1688816663.878,-183.105,-30.762,-36.133,-85.449,-23.926
1688816663.882,-43.457,-25.879,-38.574,-96.680,-236.328
1688816663.886,65.918,-31.738,-42.480,-21.973,-28.809
1688816663.890,55.664,-36.133,-32.715,14.648,83.496
1688816663.892,-65.430,-33.691,-19.531,-20.508,-53.223
1688816663.896,-182.129,-32.715,-12.695,-90.332,-169.922
1688816663.900,-64.941,-35.645,-6.836,-100.098,-161.621
1688816663.904,48.340,-45.410,-3.906,-17.090,186.523
1688816663.908,23.438,-51.758,-1.465,10.254,207.031
1688816663.912,-85.449,-52.246,3.418,-34.668,-75.684
1688816663.916,-197.266,-58.594,14.160,-83.008,69.824
1688816663.919,-111.816,-62.500,18.066,-104.492,216.309
1688816663.923,18.555,-67.383,18.066,-46.875,-51.758
1688816663.927,23.438,-77.148,23.438,-8.789,-96.680
1688816663.931,-70.312,-77.637,23.926,-30.762,52.246
1688816663.935,-202.148,-75.684,29.297,-73.242,-13.184
1688816663.937,-143.066,-79.590,33.203,-106.934,-134.277
1688816663.941,13.672,-84.473,30.273,-48.340,-83.496
1688816663.945,31.250,-83.008,37.109,12.207,27.344
1688816663.949,-55.664,-84.473,39.551,8.789,-75.684
1688816663.953,-208.496,-86.426,33.203,-50.293,-168.945
1688816663.957,-185.059,-82.520,33.203,-104.492,-96.680
1688816663.961,-17.578,-81.055,36.621,-37.598,224.121
1688816663.964,34.180,-78.613,35.156,13.184,136.719
1688816663.968,-31.738,-75.684,37.598,-12.207,-184.570
1688816663.972,-176.758,-79.102,41.504,-52.246,-136.230
1688816663.976,-165.039,-76.172,38.086,-95.703,-45.898
1688816663.980,-9.277,-72.754,36.621,-49.316,-93.750
1688816663.984,52.246,-73.730,38.086,24.414,-102.051
1688816663.988,6.348,-77.148,35.645,36.133,-50.781
1688816663.992,-144.531,-76.660,33.691,-10.742,141.602
1688816663.996,-168.457,-69.824,30.762,-88.867,-33.203
1688816664.000,-8.301,-72.754,30.273,-65.430,-181.641
1688816664.004,65.430,-82.031,26.367,5.371,40.527
1688816664.008,7.812,-74.707,20.020,14.160,172.852
1688816664.011,-149.414,-67.871,19.531,-20.996,-67.383
1688816664.015,-193.848,-69.336,24.902,-76.660,-249.023
1688816664.019,-38.086,-71.289,20.020,-57.129,-23.438
1688816664.023,45.898,-68.359,19.531,28.320,202.637
1688816664.027,21.973,-60.059,26.367,37.598,-78.613
1688816664.030,-97.656,-59.082,23.438,-14.648,-210.938
1688816664.034,-181.152,-60.547,15.625,-88.379,-148.438
1688816664.038,-48.340,-54.688,14.648,-79.590,-139.160
1688816664.042,57.617,-50.293,11.719,3.906,-95.215
1688816664.046,37.598,-56.641,6.348,22.949,-44.922
1688816664.050,-63.965,-61.035,8.789,3.906,236.328
1688816664.054,-157.227,-49.805,14.160,-44.922,229.980
1688816664.057,-54.688,-43.945,12.695,-82.520,-125.488
1688816664.061,61.523,-51.270,11.719,-18.555,-157.227
1688816664.065,46.387,-51.758,11.719,29.297,63.965
1688816664.069,-63.965,-49.805,20.020,2.441,22.461
1688816664.073,-171.387,-43.945,19.043,-51.758,-182.129
1688816664.087,-78.613,-38.574,11.230,-72.754,-217.773
1688816664.091,57.617,-43.945,12.695,-6.348,76.660
1688816664.095,72.754,-44.922,10.742,26.367,7.812
1688816664.099,-37.109,-45.898,7.324,-4.883,-143.066
1688816664.103,-163.086,-43.945,4.395,-49.316,2.441
1688816664.107,-86.426,-38.574,2.441,-66.895,201.660
1688816664.111,49.805,-38.574,0.000,-14.160,15.137
1688816664.114,68.848,-40.527,-5.859,24.414,-223.633
1688816664.118,-7.812,-42.480,-5.371,9.277,-77.148
1688816664.122,-143.555,-39.062,-0.977,-29.297,70.312
1688816664.126,-113.281,-33.203,2.441,-83.008,-118.652
1688816664.130,47.852,-40.527,0.977,-40.527,-167.480
1688816664.133,85.449,-47.363,-4.395,16.113,-40.527
1688816664.137,8.301,-47.852,-11.719,-2.441,-75.684
1688816664.141,-137.207,-50.293,-13.184,-40.527,-126.465
1688816664.145,-145.020,-48.828,-11.719,-81.055,-128.906
1688816664.149,16.113,-46.387,-20.508,-44.434,-42.480
1688816664.153,85.938,-47.363,-21.484,11.719,-47.852
1688816664.157,44.434,-42.969,-20.508,6.836,-87.402
1688816664.160,-105.469,-41.016,-23.926,-29.785,50.781
1688816664.164,-131.836,-42.969,-25.391,-66.895,213.379
1688816664.168,27.344,-41.504,-28.320,-45.898,254.883
1688816664.172,87.891,-42.969,-26.855,14.648,45.410
1688816664.176,47.363,-45.898,-24.414,32.227,-57.617
1688816664.178,-84.473,-43.945,-20.996,-3.418,150.879
1688816664.182,-134.766,-44.922,-21.484,-67.871,4.883
1688816664.186,26.367,-47.363,-26.367,-55.664,-212.402
1688816664.190,106.934,-43.457,-30.273,5.859,-115.723
1688816664.194,62.500,-40.527,-29.297,13.184,-81.055
1688816664.198,-60.547,-41.016,-29.785,-28.320,-41.016
1688816664.202,-145.996,-39.062,-29.297,-87.891,-55.176
1688816664.205,-14.160,-34.180,-26.367,-73.730,-86.914
1688816664.209,95.703,-30.273,-26.367,5.859,104.004
1688816664.213,83.984,-28.320,-32.715,17.578,0.488
1688816664.217,-20.508,-29.297,-35.156,-7.812,-173.828
1688816664.221,-140.625,-33.691,-30.762,-60.059,-73.242
1688816664.223,-35.156,-32.227,-29.297,-77.637,-39.551
1688816664.227,83.008,-37.598,-36.133,-13.184,-129.883
1688816664.231,73.242,-42.969,-39.062,6.348,-113.770
1688816664.235,-26.855,-41.992,-36.133,-11.719,-29.297
1688816664.239,-143.555,-43.457,-36.133,-62.500,-49.316
1688816664.243,-45.898,-40.527,-35.645,-86.426,-19.043
1688816664.247,91.797,-35.645,-33.691,-19.531,98.145
1688816664.250,77.637,-34.668,-28.809,20.020,274.902
1688816664.254,-9.277,-34.180,-20.996,3.418,122.070
1688816664.258,-134.766,-32.715,-21.484,-46.875,-100.586
1688816664.262,-82.031,-33.691,-18.555,-77.148,-9.766
1688816664.266,63.965,-42.480,-15.625,-9.277,116.211
1688816664.268,82.520,-54.688,-20.996,45.410,-41.016
1688816664.272,12.695,-49.316,-30.762,34.180,-229.492
1688816664.276,-106.445,-27.832,-48.340,-38.574,-196.777
1688816664.280,-83.984,-17.090,-58.594,-97.656,-97.168
1688816664.284,43.945,-24.414,-62.500,-44.922,-182.129
1688816664.288,95.215,-25.879,-69.336,10.254,-137.207
1688816664.292,39.062,-15.625,-77.148,8.301,72.754
1688816664.295,-111.816,-9.277,-78.125,-30.273,237.793
1688816664.299,-100.098,-6.348,-83.496,-80.078,-30.273
1688816664.303,65.430,-2.930,-92.285,-50.781,-202.148
1688816664.307,111.816,0.000,-94.727,-6.348,-56.152
1688816664.311,61.035,1.953,-103.516,-7.812,-84.473
1688816664.313,-72.754,-0.977,-101.562,-41.504,-164.062
1688816664.317,-89.355,1.953,-98.145,-97.656,-122.559
1688816664.321,69.824,3.906,-105.469,-72.754,12.207
1688816664.325,128.906,1.465,-108.887,-15.137,-17.578
1688816664.329,72.754,4.883,-110.352,-18.066,-69.824
1688816664.333,-74.219,8.301,-109.375,-39.551,9.277
1688816664.337,-122.070,5.371,-108.398,-77.148,257.324
1688816664.340,29.785,7.324,-111.328,-80.566,222.168
1688816664.344,122.559,14.648,-117.676,-24.902,-137.695
1688816664.348,83.496,14.648,-118.164,-6.836,-152.344
1688816664.352,-60.059,12.695,-115.723,-43.945,-23.926
1688816664.356,-135.254,19.043,-114.258,-107.422,-116.211
1688816664.357,4.395,17.578,-111.816,-114.258,-221.680
1688816664.361,104.004,9.766,-112.793,-41.504,-143.555
1688816664.365,83.984,10.742,-114.258,-7.324,26.855
1688816664.369,-35.645,15.137,-115.723,-41.504,-23.438
1688816664.373,-140.137,11.719,-115.723,-105.469,-138.184
1688816664.377,-22.461,2.930,-107.422,-113.281,-64.941
1688816664.381,91.309,-4.883,-103.516,-29.785,332.520
1688816664.384,65.430,-4.883,-104.492,0.000,116.699
1688816664.388,-47.852,-7.324,-96.191,-31.250,-180.664
1688816664.392,-161.133,-8.789,-93.750,-79.102,-87.891
1688816664.396,-56.641,-5.371,-94.238,-113.770,-56.641
1688816664.400,83.496,-7.324,-92.285,-52.734,-119.141
1688816664.417,79.590,-10.254,-84.961,-3.906,-136.719
1688816664.421,-22.949,-15.137,-83.496,-24.902,-79.102
1688816664.425,-157.227,-14.648,-80.566,-77.148,-91.309
1688816664.429,-87.402,-13.672,-78.125,-113.770,-189.453
1688816664.433,62.988,-15.137,-80.078,-55.664,-128.418
1688816664.437,89.844,-16.602,-77.148,0.488,141.602
1688816664.441,11.719,-19.043,-73.730,-9.277,143.066
1688816664.444,-150.391,-21.973,-66.895,-57.617,-20.020
1688816664.448,-126.953,-20.996,-62.988,-103.516,-154.297
1688816664.452,37.109,-24.902,-59.570,-49.805,120.117
1688816664.456,76.172,-23.926,-62.012,-1.953,248.047
1688816664.460,-6.836,-21.973,-65.430,-25.879,-74.707
1688816664.463,-144.531,-21.973,-56.152,-64.941,-125.000
1688816664.467,-121.094,-20.508,-48.828,-105.469,-49.316
1688816664.471,39.062,-22.461,-47.363,-62.988,-115.723
1688816664.475,85.938,-21.484,-45.898,5.859,-112.305
1688816664.479,10.254,-24.902,-46.875,-4.883,-42.480
1688816664.483,-140.137,-21.484,-38.574,-46.387,-7.324
1688816664.487,-155.762,-16.113,-36.133,-97.656,-57.129
1688816664.490,6.836,-27.832,-44.922,-75.195,-229.980
1688816664.494,76.172,-47.363,-44.434,-2.441,-103.516
1688816664.498,19.043,-52.734,-38.086,5.859,244.141
1688816664.502,-121.094,-47.363,-38.574,-41.992,-35.645
1688816664.506,-171.875,-45.410,-37.598,-101.074,-288.574
1688816664.508,-20.996,-47.852,-29.785,-87.402,-143.555
1688816664.512,67.871,-49.316,-29.785,-20.996,-128.418
1688816664.516,24.414,-51.758,-36.133,-14.648,-174.316
1688816664.520,-104.980,-53.223,-36.621,-47.852,-111.328
1688816664.524,-165.527,-49.805,-34.668,-89.844,-46.387
1688816664.528,-26.855,-47.363,-32.715,-94.238,-71.289
1688816664.532,81.543,-47.363,-32.227,-29.785,-95.215
1688816664.535,58.105,-43.457,-35.645,10.742,14.160
1688816664.539,-62.988,-41.992,-40.527,-6.836,173.340
1688816664.543,-165.527,-42.480,-42.480,-81.543,70.312
1688816664.547,-61.035,-44.922,-49.316,-104.004,-87.402
1688816664.551,65.430,-42.480,-51.758,-25.879,-24.414
1688816664.553,56.152,-43.457,-48.340,15.625,178.223
1688816664.557,-58.105,-46.875,-47.852,-21.484,66.895
1688816664.561,-166.504,-40.039,-42.969,-81.055,-152.344
1688816664.565,-63.477,-39.062,-40.527,-96.680,-158.691
1688816664.569,64.453,-46.387,-41.504,-28.320,-90.820
1688816664.573,43.945,-48.340,-42.480,15.137,32.715
1688816664.577,-50.293,-46.875,-41.504,-7.324,18.555
1688816664.580,-176.758,-42.969,-40.039,-71.289,9.277
1688816664.584,-109.863,-42.969,-40.527,-93.750,180.176
1688816664.588,46.875,-45.898,-38.086,-35.645,-31.738
1688816664.592,74.707,-47.363,-38.086,2.441,-130.371
1688816664.596,-5.859,-51.758,-35.156,-9.277,11.230
1688816664.614,-161.133,-50.781,-26.855,-60.059,-3.418
1688816664.618,-120.605,-44.434,-23.926,-98.145,-80.078
1688816664.622,35.645,-38.574,-34.180,-52.246,-81.055
1688816664.626,57.129,-36.621,-38.574,-2.930,100.098
1688816664.630,-19.043,-41.016,-38.086,-14.648,68.848
1688816664.634,-151.855,-39.551,-41.504,-64.941,-23.926
1688816664.638,-129.395,-33.203,-38.086,-110.840,0.488
1688816664.641,2.930,-36.621,-43.457,-66.406,200.684
1688816664.645,45.410,-40.039,-51.758,-12.207,201.172
1688816664.649,4.395,-36.133,-47.852,-22.461,-82.031
1688816664.653,-132.812,-40.527,-43.457,-56.152,-36.133
1688816664.657,-139.648,-40.527,-43.945,-98.633,76.172
1688816664.657,24.414,-40.039,-47.852,-74.219,-141.602
1688816664.661,85.449,-43.945,-47.852,1.953,-185.059
1688816664.665,10.254,-39.551,-44.922,14.160,-144.531
1688816664.669,-135.254,-39.551,-40.527,-26.855,-119.141
1688816664.673,-168.945,-32.715,-35.156,-83.984,-121.582
1688816664.677,-20.508,-30.273,-33.203,-74.707,-150.391
1688816664.681,59.570,-38.086,-31.250,-2.930,-15.625
1688816664.684,18.066,-47.852,-36.621,0.977,-29.785
1688816664.688,-115.723,-51.270,-39.062,-36.133,-158.203
1688816664.692,-182.129,-44.922,-36.133,-83.984,-205.566
1688816664.696,-36.621,-40.527,-34.180,-77.148,-71.289
1688816664.700,66.406,-40.039,-31.738,-9.277,77.148
1688816664.687,42.969,-36.133,-29.297,10.742,-111.816
1688816664.691,-94.727,-37.598,-34.668,-17.090,-147.461
1688816664.695,-188.477,-38.086,-37.598,-76.172,49.316
1688816664.699,-49.316,-32.715,-35.156,-90.332,3.906
1688816664.703,64.941,-34.668,-34.180,-20.996,-155.273
1688816664.707,47.852,-41.504,-32.715,9.277,-52.734
1688816664.711,-53.711,-47.363,-33.203,-12.207,4.395
1688816664.714,-159.180,-43.945,-32.715,-65.430,31.250
1688816664.718,-56.152,-40.039,-36.621,-91.797,-116.699
1688816664.722,62.500,-41.992,-39.551,-30.273,-123.047
1688816664.726,65.430,-42.480,-39.062,23.926,313.477
1688816664.730,-20.996,-40.039,-39.551,6.348,439.941
1688816664.747,-157.715,-34.668,-32.715,-56.152,1.465
1688816664.751,-95.703,-33.203,-30.762,-81.543,-197.754
1688816664.755,48.828,-36.133,-33.203,-28.320,-121.094
1688816664.759,72.266,-39.062,-36.133,7.324,-118.164
1688816664.763,-20.996,-37.598,-36.133,-15.137,-169.922
1688816664.767,-166.992,-40.527,-33.691,-59.082,28.809
1688816664.771,-118.652,-39.551,-36.621,-91.309,150.391
1688816664.774,20.020,-40.527,-41.992,-48.828,-72.266
1688816664.778,48.340,-43.945,-40.527,2.930,-123.535
1688816664.782,-10.254,-45.410,-38.574,-6.836,0.488
1688816664.786,-152.344,-45.410,-36.621,-52.734,-31.250
1688816664.790,-141.113,-43.457,-38.086,-103.027,-241.699
1688816664.792,18.555,-41.992,-41.992,-56.152,-251.465
1688816664.796,73.242,-45.898,-43.457,14.160,-39.062
1688816664.800,22.949,-45.410,-43.945,11.719,23.438
1688816664.804,-119.141,-43.457,-41.016,-27.344,-174.805
1688816664.808,-132.324,-41.992,-37.109,-77.637,-209.473
1688816664.812,20.508,-41.992,-33.691,-42.969,-7.812
1688816664.816,76.660,-41.016,-29.785,19.531,86.914
1688816664.819,31.250,-37.598,-28.320,16.113,-66.406
1688816664.823,-104.980,-40.039,-28.809,-21.484,-136.719
1688816664.827,-139.648,-39.551,-28.809,-69.336,217.285
1688816664.831,4.395,-40.039,-29.785,-61.035,230.957
1688816664.835,72.266,-41.016,-31.738,5.371,-8.789
1688816664.837,44.434,-41.016,-27.344,28.809,-13.184
1688816664.841,-92.773,-41.504,-26.855,1.465,196.777
1688816664.845,-174.316,-36.621,-30.273,-65.918,50.781
1688816664.849,-20.020,-34.668,-34.180,-75.684,-199.219
1688816664.853,87.402,-32.715,-33.203,-4.395,-30.273
1688816664.857,50.781,-35.645,-31.250,25.879,42.480
1688816664.861,-78.125,-45.898,-33.691,0.977,-78.613
1688816664.864,-169.434,-44.434,-33.691,-59.570,-121.094
1688816664.868,-42.969,-45.898,-37.598,-74.219,-53.711
1688816664.872,73.242,-51.270,-42.969,7.324,189.453
1688816664.876,54.199,-51.270,-41.016,34.668,-2.441
1688816664.880,-56.641,-49.805,-41.992,-7.324,-112.793
1688816664.883,-161.621,-47.363,-39.551,-72.266,-6.348
1688816664.887,-61.523,-44.922,-37.109,-91.309,-88.867
1688816664.891,75.195,-44.434,-41.504,-25.391,-129.883
1688816664.895,92.285,-43.945,-37.598,18.066,-118.164
1688816664.899,-20.020,-45.898,-32.715,12.695,18.555
1688816664.903,-169.922,-41.016,-33.691,-41.992,43.945
1688816664.907,-87.402,-36.621,-37.109,-75.684,-144.531
1688816664.910,57.617,-43.457,-39.551,-17.578,-101.074
1688816664.914,55.664,-48.340,-40.039,25.391,34.180
1688816664.918,-53.223,-48.340,-39.551,-5.859,-67.383
1688816664.922,-169.434,-45.410,-39.062,-56.641,-191.895
1688816664.926,-119.141,-41.504,-37.598,-82.520,-165.039
1688816664.928,26.367,-37.598,-33.203,-17.090,126.953
1688816664.932,66.406,-39.551,-34.180,37.598,52.734
1688816664.936,-6.348,-40.039,-36.133,18.555,-164.062
1688816664.940,-162.109,-36.621,-33.203,-33.203,-15.137
1688816664.944,-148.438,-32.715,-28.809,-71.777,257.324
1688816664.948,17.578,-31.250,-33.691,-28.809,204.102
1688816664.952,54.688,-35.645,-39.062,12.695,-43.457
1688816664.955,-8.301,-36.133,-35.645,9.766,-39.551
1688816664.959,-133.301,-32.227,-30.273,-16.602,174.316
1688816664.963,-135.742,-32.715,-34.180,-71.777,-73.730
1688816664.967,8.301,-41.992,-40.039,-46.875,-222.656
1688816664.971,51.758,-43.945,-37.109,11.719,-22.949
1688816664.974,0.977,-38.574,-37.109,12.207,-99.121
1688816664.978,-140.137,-39.551,-37.109,-27.832,-165.527
1688816664.982,-182.129,-40.527,-35.645,-83.008,-117.676
1688816664.986,-27.832,-41.504,-40.527,-59.082,-70.312
1688816664.990,58.594,-41.992,-39.551,3.906,-52.734
1688816664.994,34.180,-36.621,-34.668,3.418,-106.934
1688816664.998,-111.328,-40.039,-32.227,-23.926,0.488
1688816665.001,-189.941,-45.410,-30.762,-70.312,188.477
1688816665.005,-39.062,-43.945,-33.203,-74.707,-6.348
1688816665.009,58.105,-44.922,-36.621,-4.395,-125.977
1688816665.013,26.367,-46.875,-38.086,9.277,-26.367
1688816665.017,-86.426,-46.387,-37.598,-4.395,250.000
1688816665.018,-176.758,-37.598,-33.691,-57.129,182.129
1688816665.022,-50.781,-34.180,-34.180,-90.332,-142.090
1688816665.026,79.590,-34.668,-32.227,-14.160,-18.555
1688816665.030,64.453,-30.762,-28.320,22.949,41.992
1688816665.034,-59.570,-31.738,-25.879,0.000,-88.379
1688816665.038,-180.664,-34.668,-21.973,-61.035,-51.270
1688816665.042,-78.613,-30.273,-26.855,-89.844,35.645
1688816665.045,61.523,-30.762,-31.250,-19.043,241.211
1688816665.049,64.941,-36.621,-31.250,10.742,229.492
1688816665.053,-39.062,-33.203,-33.203,-18.066,-41.992
1688816665.057,-167.969,-29.785,-32.227,-69.824,-95.703
1688816665.061,-96.191,-32.227,-33.203,-96.680,-103.516
1688816665.077,43.457,-31.738,-38.574,-33.691,-117.188
1688816665.081,56.641,-33.203,-40.527,11.719,-92.773
1688816665.085,-21.484,-29.297,-38.086,-7.324,-105.957
1688816665.089,-145.020,-20.996,-39.551,-66.406,-141.113
1688816665.093,-104.492,-20.020,-38.574,-98.633,-219.238
1688816665.097,51.270,-26.367,-44.434,-38.574,-122.559
1688816665.101,89.844,-26.367,-45.898,14.648,197.266
1688816665.104,2.441,-21.973,-41.992,8.789,82.031
1688816665.108,-145.508,-20.508,-38.086,-36.621,-128.906
1688816665.112,-119.629,-22.461,-32.715,-83.984,-87.402
1688816665.116,36.133,-25.391,-29.785,-34.668,12.207
1688816665.120,76.660,-26.367,-26.367,28.809,-10.742
1688816665.107,18.555,-30.762,-26.367,15.137,-177.734
1688816665.111,-131.348,-35.645,-26.367,-19.531,-135.742
1688816665.115,-158.203,-31.250,-20.020,-56.641,116.211
1688816665.119,-0.488,-26.367,-24.414,-31.250,-59.570
1688816665.123,58.594,-32.227,-27.832,31.250,-154.297
1688816665.127,2.441,-37.598,-23.438,17.578,-7.324
1688816665.131,-126.953,-31.250,-20.508,-32.715,12.207
1688816665.134,-161.133,-25.391,-20.508,-85.938,-134.766
1688816665.138,-4.883,-26.855,-22.949,-68.848,-243.164
1688816665.142,77.637,-30.273,-23.438,0.488,-76.660
1688816665.146,33.691,-27.344,-28.320,6.836,102.051
1688816665.150,-97.656,-25.879,-33.203,-26.367,-97.656
1688816665.155,-154.785,-32.715,-30.273,-84.961,-190.430
1688816665.159,-7.812,-31.738,-29.785,-82.031,-103.516
1688816665.163,80.078,-31.250,-27.832,-16.602,-107.910
1688816665.167,48.828,-33.691,-23.438,-2.441,-173.828
1688816665.171,-74.219,-33.203,-24.902,-28.809,-163.086
1688816665.175,-165.039,-32.227,-26.855,-85.449,-37.598
1688816665.179,-38.086,-31.738,-29.785,-97.168,-60.547
1688816665.182,68.848,-30.273,-34.180,-32.227,-172.363
1688816665.186,56.641,-30.762,-31.738,0.488,-163.086
1688816665.190,-41.992,-30.273,-30.762,-13.184,98.633
1688816665.194,-163.086,-24.902,-32.227,-72.266,127.441
1688816665.198,-70.312,-30.762,-36.621,-96.680,-184.082
1688816665.214,62.500,-39.062,-40.039,-41.504,-153.320
1688816665.218,66.406,-35.645,-38.086,-14.160,50.293
1688816665.222,-43.457,-32.227,-41.016,-36.621,-14.648
1688816665.226,-176.758,-29.297,-41.992,-93.262,-122.559
1688816665.230,-98.633,-31.250,-43.457,-114.746,-57.129
1688816665.234,29.785,-30.762,-44.434,-47.363,336.426
1688816665.238,33.691,-32.715,-48.828,-19.531,201.172
1688816665.241,-45.898,-37.598,-51.758,-46.875,-127.930
1688816665.245,-176.758,-34.668,-45.898,-79.102,-71.289
1688816665.249,-124.023,-28.320,-45.410,-109.375,-90.820
1688816665.253,37.598,-30.762,-45.410,-75.195,-221.191
1688816665.257,71.289,-36.621,-43.945,-28.320,-139.160
1688816665.257,-12.695,-33.691,-43.457,-28.809,-37.109
1688816665.261,-160.156,-31.738,-41.504,-65.430,-67.383
1688816665.265,-135.254,-31.250,-39.551,-112.793,-185.059
1688816665.269,26.855,-33.203,-39.062,-72.754,-214.844
1688816665.273,71.777,-38.574,-38.086,-10.742,-101.074
1688816665.277,10.742,-41.016,-34.180,-15.137,-68.359
1688816665.281,-132.324,-36.133,-27.344,-58.594,-88.379
1688816665.284,-156.738,-31.250,-27.344,-115.723,-13.184
1688816665.288,-2.441,-31.738,-29.785,-77.148,195.801
1688816665.292,71.289,-30.273,-37.598,-6.836,186.035
1688816665.296,22.949,-35.156,-37.598,-11.230,-38.574
1688816665.300,-132.324,-41.016,-29.785,-48.828,-55.176
1688816665.302,-172.852,-39.551,-32.715,-103.516,29.297
1688816665.306,-9.766,-43.457,-37.109,-81.543,-85.938
1688816665.310,65.918,-51.270,-32.715,-6.348,-143.066
1688816665.314,18.555,-51.758,-24.414,-5.371,-6.348
1688816665.318,-112.305,-50.293,-24.414,-41.016,144.043
1688816665.322,-160.156,-53.711,-24.902,-86.914,143.555
1688816665.326,-21.973,-53.711,-20.020,-92.285,39.551
1688816665.329,66.406,-51.758,-20.020,-20.020,71.289
1688816665.333,42.480,-54.688,-18.555,9.277,302.246
1688816665.337,-89.844,-60.547,-16.602,-33.691,74.219
1688816665.341,-181.641,-63.965,-10.254,-96.680,-219.727
1688816665.345,-67.383,-61.523,-1.953,-101.074,-151.367
1688816665.363,16.602,-65.430,2.441,-22.461,-24.902
1688816665.367,2.441,-74.219,3.906,6.836,-9.766
1688816665.371,-97.656,-75.195,6.836,-19.043,-85.449
1688816665.375,-217.773,-66.406,15.137,-85.938,-88.867
1688816665.379,-125.977,-62.500,16.602,-116.699,-38.574
1688816665.383,3.418,-71.777,12.695,-54.199,-20.508
1688816665.387,0.977,-77.148,15.625,-20.020,-36.133
1688816665.390,-105.469,-77.637,19.043,-26.367,163.086
1688816665.394,-230.469,-75.684,19.531,-89.355,87.891
1688816665.398,-141.602,-76.660,22.949,-132.812,-104.492
1688816665.402,-1.953,-81.543,25.391,-62.988,24.414
1688816665.406,7.812,-85.449,25.879,-8.789,242.676
1688816665.392,-85.938,-86.426,27.832,-31.250,103.027
1688816665.396,-222.168,-82.031,34.668,-76.660,-125.488
1688816665.400,-152.344,-80.566,39.062,-111.328,-179.199
1688816665.404,-3.418,-83.008,34.668,-56.152,-188.477
1688816665.408,13.672,-86.426,28.809,7.812,-120.605
1688816665.412,-63.965,-93.750,29.297,-19.531,-87.402
1688816665.416,-207.031,-91.309,31.738,-70.312,36.621
1688816665.419,-178.223,-84.961,38.086,-104.980,30.762
1688816665.423,-20.996,-88.867,35.156,-60.547,-109.863
1688816665.427,26.855,-86.426,25.391,6.836,-199.219
1688816665.431,-16.602,-85.449,26.367,2.441,-68.848
1688816665.435,-159.668,-81.543,31.738,-38.086,150.879
1688816665.435,-159.668,-81.543,31.738,-38.086,150.879
1688816665.439,-169.922,-76.172,30.273,-85.938,-83.008
1688816665.443,-9.277,-78.125,30.273,-59.082,-220.703
1688816665.447,36.621,-79.102,29.785,2.930,21.973
1688816665.451,-19.531,-78.613,22.949,5.371,19.043
1688816665.455,-156.250,-77.148,23.438,-37.109,-187.500
1688816665.459,-188.965,-78.125,27.344,-92.285,-115.723
1688816665.463,-26.855,-78.613,23.438,-64.941,246.582
1688816665.466,54.688,-75.684,18.555,2.930,178.223
1688816665.470,14.160,-73.730,16.113,14.160,-146.973
1688816665.474,-106.934,-69.824,18.066,-1.465,-8.301
1688816665.478,-187.012,-66.406,18.555,-63.477,171.387
1688816665.482,-63.965,-63.477,15.137,-71.777,-27.344
1688816665.483,40.039,-67.383,15.625,4.395,-87.402
1688816665.487,26.367,-67.871,13.184,18.066,-33.691
1688816665.491,-104.980,-61.035,9.766,-6.348,-19.531
1688816665.495,-202.637,-56.641,7.812,-65.430,-171.875
1688816665.499,-68.848,-58.594,0.488,-76.660,-230.469
1688816665.503,49.316,-60.059,-1.465,0.488,76.660
1688816665.507,43.945,-52.734,-1.465,29.785,322.266
1688816665.510,-61.523,-49.805,-3.418,5.859,16.602
1688816665.514,-180.176,-50.781,0.977,-43.457,-169.434
1688816665.518,-70.801,-44.922,2.930,-61.523,-72.266
1688816665.522,55.176,-43.457,-0.977,-1.953,42.969
1688816665.526,46.875,-44.434,0.488,24.414,-118.164
1688816665.542,-35.156,-41.016,1.953,6.836,-143.555
1688816665.546,-159.180,-35.645,-2.441,-41.016,-42.969
1688816665.550,-92.285,-42.480,-5.371,-78.613,-136.230
1688816665.554,44.434,-46.875,-6.348,-18.066,-211.426
1688816665.558,53.223,-44.922,-9.766,29.785,-94.238
1688816665.562,-21.484,-46.875,-12.695,28.320,165.527
1688816665.566,-148.438,-42.969,-11.719,-32.227,120.117
1688816665.569,-91.309,-36.621,-14.648,-83.008,-75.195
1688816665.573,51.758,-44.434,-15.625,-18.555,-108.398
1688816665.577,63.477,-52.246,-17.090,33.203,178.711
1688816665.581,-20.508,-49.316,-20.020,5.371,167.480
1688816665.585,-156.250,-48.828,-23.438,-56.152,-130.859
1688816665.588,-111.816,-42.969,-27.344,-87.891,-155.273
1688816665.592,48.828,-36.621,-27.832,-25.391,7.812
1688816665.596,80.078,-39.551,-26.367,40.527,-90.820
1688816665.600,20.508,-37.598,-29.785,35.645,-195.312
1688816665.604,-114.746,-33.691,-28.809,-19.531,-125.977
1688816665.608,-125.488,-33.691,-26.855,-85.449,-136.719
1688816665.612,30.762,-31.738,-36.621,-63.965,-144.531
1688816665.615,94.238,-31.250,-40.039,6.348,-43.945
1688816665.619,48.828,-35.156,-35.645,12.695,23.926
1688816665.623,-101.562,-36.133,-35.156,-27.832,20.996
1688816665.627,-147.461,-33.691,-32.227,-88.379,-90.820
1688816665.631,12.207,-31.738,-25.391,-75.195,-194.824
1688816665.633,82.520,-33.203,-24.414,7.324,36.133
1688816665.637,37.109,-37.109,-29.297,18.555,264.648
1688816665.641,-80.566,-38.086,-30.762,-29.785,-78.613
1688816665.645,-137.207,-33.691,-29.785,-82.031,-202.637
1688816665.649,-1.953,-35.645,-33.691,-72.754,-120.117
1688816665.653,57.617,-41.504,-35.156,-10.254,-140.137
1688816665.657,16.113,-43.945,-31.250,8.789,-45.410
1688816665.660,-97.656,-46.387,-33.203,-13.672,-25.391
1688816665.664,-166.992,-46.387,-34.180,-68.359,84.473
1688816665.668,-34.668,-40.039,-35.645,-73.730,14.648
1688816665.672,62.500,-41.504,-37.598,-14.648,-96.680
1688816665.676,41.992,-42.969,-32.227,3.906,-63.477
1688816665.677,-68.848,-39.551,-27.344,-9.277,191.895
1688816665.681,-172.852,-40.039,-24.902,-53.711,49.805
1688816665.685,-63.965,-42.480,-29.785,-85.938,-271.973
1688816665.689,50.781,-46.875,-35.645,-29.297,-207.031
1688816665.693,46.387,-49.316,-37.109,3.906,-104.492
1688816665.697,-57.617,-44.922,-38.086,-20.508,-40.039
1688816665.701,-190.430,-43.945,-39.551,-85.938,-107.422
1688816665.704,-97.168,-44.922,-39.551,-112.305,-103.516
1688816665.708,33.691,-41.016,-40.527,-34.180,148.926
1688816665.712,25.391,-49.316,-46.387,-7.324,-69.824
1688816665.716,-56.152,-64.453,-47.852,-29.785,-221.191
1688816665.720,-168.457,-53.711,-43.945,-61.523,-8.789
1688816665.722,-93.750,-30.762,-50.781,-103.027,-104.980
1688816665.726,43.457,-23.438,-65.430,-70.801,-197.754
1688816665.730,58.105,-25.391,-68.848,-26.855,-93.262
1688816665.734,3.418,-20.020,-72.266,-20.508,-1.953
1688816665.738,-140.137,-8.789,-87.891,-62.500,-80.566
1688816665.742,-112.305,-5.371,-96.191,-109.375,-144.531
1688816665.746,71.289,-2.930,-103.516,-64.941,-36.621
1688816665.749,109.863,-0.488,-115.234,-7.324,248.535
1688816665.753,23.438,-1.465,-118.164,-19.531,162.109
1688816665.757,-120.117,-1.953,-120.605,-64.453,-98.145
1688816665.761,-118.652,2.930,-124.512,-99.121,37.598
1688816665.765,40.527,12.695,-126.953,-58.105,151.367
1688816665.769,97.168,11.719,-127.441,7.812,-57.617
1688816665.773,43.457,10.254,-129.395,-8.301,-191.406
1688816665.777,-95.703,16.113,-129.395,-70.801,-45.898
1688816665.781,-140.137,19.531,-127.930,-126.953,68.848
1688816665.785,20.020,12.207,-128.418,-92.773,-25.879
1688816665.789,81.543,11.230,-133.789,-34.180,-71.777
1688816665.793,22.461,8.301,-137.207,-41.016,36.621
1688816665.796,-104.004,3.906,-132.324,-62.500,253.906
1688816665.800,-152.832,6.348,-126.953,-125.000,3.906
1688816665.804,-2.441,0.488,-116.211,-121.094,-158.691
1688816665.808,77.148,-0.488,-112.305,-38.574,-63.477
1688816665.812,56.152,0.488,-106.934,-11.230,-77.637
1688816665.812,-58.594,-9.766,-103.516,-45.410,-49.316
1688816665.816,-142.578,-10.742,-101.074,-106.934,-100.098
1688816665.820,-6.836,-5.859,-94.238,-94.727,-106.445
1688816665.824,90.820,-11.230,-90.820,-26.855,-72.754
1688816665.828,67.871,-16.113,-84.961,3.418,-53.223
1688816665.832,-35.156,-16.602,-81.543,-14.648,85.449
1688816665.836,-136.719,-16.113,-81.055,-75.684,349.609
1688816665.839,-24.414,-15.625,-77.148,-77.148,245.605
1688816665.843,99.121,-17.090,-74.219,-13.672,-138.184
1688816665.847,74.707,-21.484,-70.312,-0.488,-111.816
1688816665.851,-31.250,-23.438,-63.477,-11.719,-26.855
1688816665.855,-139.160,-18.555,-55.664,-56.152,-112.305
1688816665.857,-43.457,-16.113,-57.129,-97.168,-203.125
1688816665.861,88.867,-23.438,-61.523,-34.180,-128.418
1688816665.865,79.102,-23.926,-56.152,28.809,23.438
1688816665.869,-21.973,-18.555,-54.688,5.371,-72.266
1688816665.873,-136.719,-15.625,-55.176,-65.430,-166.992
1688816665.877,-59.570,-16.113,-59.082,-106.445,-25.879
1688816665.881,62.988,-16.602,-61.035,-57.129,81.543
1688816665.884,80.566,-15.137,-59.082,-2.930,-9.277
1688816665.888,21.484,-17.578,-57.617,-10.742,-88.867
1688816665.892,-119.141,-17.578,-48.340,-50.293,-75.684
1688816665.896,-107.422,-14.648,-42.480,-88.867,-24.414
1688816665.900,40.527,-14.648,-46.387,-54.199,-114.746
1688816665.918,86.914,-19.531,-42.969,-0.977,-126.953
1688816665.922,18.555,-24.414,-39.062,-6.836,-48.828
1688816665.926,-131.348,-21.973,-39.062,-48.340,-20.508
1688816665.930,-123.535,-20.508,-38.086,-103.516,-115.234
1688816665.934,14.160,-21.973,-37.598,-76.660,-68.359
1688816665.938,47.363,-28.809,-33.691,-14.648,112.793
1688816665.942,0.977,-35.156,-34.668,-23.438,66.895
1688816665.945,-126.465,-33.691,-36.133,-57.617,-46.875
1688816665.949,-146.973,-32.715,-34.180,-110.352,-134.766
1688816665.953,0.488,-34.668,-33.203,-91.797,172.363
1688816665.957,59.570,-34.180,-39.062,-31.250,291.504
1688816665.961,19.531,-33.691,-44.922,-22.461,-87.402
1688816665.962,-108.398,-32.227,-39.062,-40.039,-114.746
1688816665.966,-162.598,-29.297,-32.715,-87.402,-6.348
1688816665.970,-13.184,-28.320,-34.668,-75.195,-141.113
1688816665.974,76.660,-27.344,-31.738,6.348,-168.457
1688816665.978,39.062,-35.645,-29.785,11.719,-131.836
1688816665.982,-75.195,-36.621,-35.156,-28.809,-88.867
1688816665.986,-153.320,-14.160,-37.598,-86.426,-23.926
1688816665.989,-28.809,-13.184,-38.086,-105.957,-93.750
1688816665.993,82.031,-20.020,-37.109,-26.367,-20.996
1688816665.997,52.734,-20.996,-42.480,5.371,233.398
1688816666.001,-60.547,-21.484,-44.922,-27.344,-3.906
1688816666.005,-148.438,-15.625,-46.875,-80.078,-140.625
1688816666.008,-23.926,-17.578,-47.363,-87.891,-4.395
1688816666.012,88.867,-24.414,-45.898,-20.508,-16.602
1688816666.016,66.406,-26.367,-46.875,12.695,-136.230
1688816666.020,-16.113,-29.785,-46.875,-8.789,-124.512
1688816666.024,-116.211,-26.855,-41.992,-58.105,-49.805
1688816666.028,-55.176,-19.531,-35.645,-90.332,-101.562
1688816666.032,68.848,-20.020,-33.691,-25.879,-50.293
1688816666.035,88.379,-27.832,-35.156,27.344,-40.527
1688816666.039,-11.230,-32.715,-36.133,10.742,90.332
1688816666.043,-140.137,-28.809,-37.598,-55.176,99.609
1688816666.047,-85.449,-32.227,-32.227,-98.633,-142.090
1688816666.051,54.199,-32.715,-34.180,-34.668,-138.184
1688816666.054,95.215,-32.715,-37.598,16.602,65.918
1688816666.058,18.066,-29.785,-39.062,-10.254,21.973
1688816666.062,-137.695,-26.367,-36.133,-54.199,-101.074
1688816666.066,-96.680,-29.785,-31.738,-84.473,-85.449
1688816666.070,53.711,-30.273,-37.109,-40.527,46.387
1688816666.074,66.406,-30.273,-37.109,2.930,-16.113
1688816666.078,8.301,-31.250,-36.621,-4.883,-82.031
1688816666.081,-123.535,-31.250,-38.574,-37.109,69.336
1688816666.085,-120.605,-29.785,-40.527,-83.496,214.355
1688816666.089,43.945,-31.738,-45.410,-67.871,-80.566
1688816666.093,87.891,-36.133,-44.922,-6.836,-172.363
1688816666.097,7.812,-37.598,-45.898,-7.324,-33.691
1688816666.097,-141.602,-34.668,-47.363,-47.852,-129.395
1688816666.101,-155.762,-26.367,-41.992,-85.938,-178.711
1688816666.105,5.859,-23.926,-39.551,-61.523,-177.246
1688816666.109,72.266,-30.273,-39.062,-5.859,-39.062
1688816666.113,24.414,-31.738,-39.062,-2.930,-30.273
1688816666.117,-95.215,-31.250,-35.645,-33.691,-95.215
1688816666.121,-145.508,-34.180,-31.738,-84.961,-34.668
1688816666.124,-23.926,-36.133,-33.691,-73.730,167.480
1688816666.128,62.988,-32.715,-39.062,-7.324,144.043
1688816666.132,43.945,-35.156,-40.527,-0.977,-158.691
1688816666.136,-89.355,-36.621,-37.598,-35.645,-74.707
1688816666.140,-169.434,-29.785,-38.086,-94.727,104.980
1688816666.142,-21.484,-25.391,-39.551,-102.051,-72.266
1688816666.146,79.102,-23.438,-40.527,-19.531,-121.582
1688816666.150,41.992,-25.391,-40.527,0.000,-108.398
1688816666.154,-68.359,-23.926,-37.109,-36.621,-106.934
1688816666.158,-162.109,-17.090,-33.691,-87.891,-132.324
1688816666.162,-61.035,-27.344,-27.832,-99.121,-194.336
1688816666.166,55.664,-39.551,-24.902,-10.742,73.242
1688816666.169,54.688,-36.621,-32.715,41.504,386.230
1688816666.173,-37.598,-29.785,-38.086,0.977,78.613
1688816666.177,-149.414,-27.832,-37.109,-74.707,-192.871
1688816666.181,-73.730,-24.902,-33.691,-90.332,-100.098
1688816666.185,43.457,-22.949,-33.203,-17.578,-36.621
1688816666.203,54.199,-29.785,-32.227,18.555,-145.996
1688816666.207,-29.297,-30.762,-28.320,7.324,-148.438
1688816666.211,-160.645,-29.297,-27.344,-50.781,-66.895
1688816666.215,-93.750,-29.297,-28.320,-89.355,-81.543
1688816666.219,45.898,-27.344,-29.297,-18.555,-145.996
1688816666.223,60.059,-31.250,-30.762,25.391,-116.211
1688816666.227,-16.602,-36.133,-28.809,8.789,227.539
1688816666.230,-154.785,-33.691,-33.203,-31.738,151.855
1688816666.234,-130.859,-33.203,-37.598,-78.125,-166.016
1688816666.238,20.996,-32.715,-38.086,-46.875,-129.883
1688816666.242,74.707,-33.203,-32.227,7.812,154.297
1688816666.246,10.254,-32.227,-36.621,-1.465,78.125
1688816666.232,-147.949,-30.273,-41.016,-49.805,-106.445
1688816666.236,-145.996,-24.414,-37.109,-91.797,-118.164
1688816666.240,20.020,-20.020,-34.668,-53.223,-86.914
1688816666.244,82.520,-20.996,-34.180,22.949,-76.172
1688816666.248,24.902,-25.391,-33.691,22.461,-118.652
1688816666.252,-122.070,-34.180,-33.203,-32.715,8.301
1688816666.256,-139.160,-27.344,-34.180,-83.008,20.508
1688816666.259,-2.441,-21.484,-35.645,-58.105,-97.168
1688816666.263,51.270,-30.762,-40.527,3.418,-147.949
1688816666.267,9.766,-35.156,-41.504,10.742,-7.324
1688816666.271,-120.117,-31.250,-32.227,-4.395,247.559
1688816666.275,-165.039,-32.227,-29.785,-64.941,-19.531
1688816666.292,-11.230,-37.109,-29.297,-67.871,-278.320
1688816666.296,83.984,-37.109,-27.832,14.160,-45.410
1688816666.300,45.410,-33.691,-30.762,30.273,24.414
1688816666.304,-82.031,-34.180,-35.645,-4.395,-123.535
1688816666.308,-163.086,-35.645,-33.203,-51.270,-165.039
1688816666.312,-21.484,-31.250,-23.438,-49.316,-23.438
1688816666.316,78.613,-32.227,-25.391,6.348,21.484
1688816666.319,35.156,-35.156,-28.809,21.973,-78.613
1688816666.323,-80.078,-33.203,-28.809,-5.371,-117.676
1688816666.327,-173.828,-29.785,-29.785,-46.875,191.406
1688816666.331,-59.082,-29.297,-31.250,-60.059,222.656
1688816666.335,61.523,-25.879,-34.180,-14.160,-46.875
1688816666.338,58.594,-25.879,-32.227,15.137,1.953
1688816666.342,-37.109,-36.621,-29.785,7.812,250.977
1688816666.346,-156.250,-38.574,-28.809,-56.641,41.504
1688816666.350,-71.289,-31.738,-24.902,-86.914,-245.605
1688816666.354,56.152,-33.203,-24.902,-20.020,-147.461
1688816666.358,57.129,-34.180,-28.809,11.719,-42.480
1688816666.362,-32.715,-33.203,-28.320,-2.930,-54.688
1688816666.365,-155.762,-33.691,-30.273,-54.199,-104.004
1688816666.369,-93.262,-34.668,-27.832,-92.285,-7.324
1688816666.373,51.270,-34.668,-24.902,-19.531,203.613
1688816666.377,75.684,-35.156,-25.879,20.996,7.812
1688816666.381,-16.602,-41.504,-26.367,-9.277,-145.508
1688816666.383,-167.969,-42.969,-29.297,-50.293,-78.125
1688816666.387,-127.441,-41.992,-26.367,-89.844,-137.207
1688816666.391,39.062,-44.434,-25.879,-48.828,-138.184
1688816666.395,74.219,-45.898,-29.785,6.348,3.906
1688816666.399,4.883,-43.945,-22.949,10.254,159.180
1688816666.403,-137.207,-44.434,-19.043,-31.738,64.941
1688816666.407,-126.953,-41.504,-23.438,-91.797,-85.449
1688816666.410,28.809,-42.969,-28.320,-48.828,-107.910
1688816666.414,71.289,-48.828,-29.297,20.020,90.332
1688816666.418,9.766,-49.805,-30.762,-3.906,107.422
1688816666.422,-125.977,-43.457,-30.273,-52.734,-75.195
1688816666.426,-147.949,-39.551,-27.344,-99.121,-106.934
1688816666.428,3.418,-38.086,-25.879,-65.918,8.789
1688816666.432,78.125,-33.691,-31.738,-3.906,-88.379
1688816666.436,31.738,-35.645,-33.691,-9.766,-167.480
1688816666.440,-104.980,-35.156,-30.273,-38.574,-86.914
1688816666.444,-151.855,-29.785,-26.855,-89.355,-117.188
1688816666.448,-8.789,-30.273,-30.762,-80.078,-128.418
1688816666.452,76.660,-32.227,-34.668,-14.160,-41.504
1688816666.455,36.133,-31.738,-31.738,0.488,37.598
1688816666.459,-95.703,-35.645,-26.367,-12.695,278.809
1688816666.463,-160.645,-32.715,-28.320,-75.684,47.852
1688816666.467,-23.438,-30.273,-27.344,-88.867,-281.250
1688816666.471,78.125,-31.250,-23.926,-16.602,-111.816
1688816666.472,51.270,-28.320,-28.320,8.301,-66.895
1688816666.476,-77.637,-33.691,-33.203,-29.297,-154.785
1688816666.480,-175.293,-32.227,-33.691,-81.055,-123.047
1688816666.484,-57.617,-29.785,-38.086,-81.543,-70.801
1688816666.488,53.711,-32.715,-37.109,-18.066,-140.137
1688816666.492,44.434,-30.273,-29.297,6.348,-89.844
1688816666.496,-54.688,-26.855,-23.926,-14.160,-4.395
1688816666.499,-161.133,-25.391,-21.484,-58.594,169.434
1688816666.503,-68.848,-23.438,-26.367,-84.473,56.641
1688816666.507,65.918,-26.855,-37.598,-23.438,-163.574
1688816666.511,61.523,-28.320,-46.387,21.973,-54.199
1688816666.515,-40.039,-27.344,-42.969,13.672,217.285
1688816666.517,-166.504,-22.949,-40.039,-41.504,220.703
1688816666.521,-100.098,-24.414,-49.316,-95.215,-142.578
1688816666.525,50.781,-30.762,-53.223,-38.086,-125.977
1688816666.529,59.570,-32.227,-52.734,5.859,42.480
1688816666.533,-29.297,-32.715,-49.316,-13.672,4.883
1688816666.537,-158.203,-30.273,-42.969,-61.035,-81.543
1688816666.541,-119.141,-32.227,-39.551,-92.773,14.160
1688816666.544,19.531,-34.668,-42.480,-34.668,234.375
1688816666.548,47.852,-37.109,-45.898,6.836,-0.977
1688816666.552,-11.230,-39.551,-41.992,-5.371,-119.629
1688816666.556,-150.879,-34.180,-37.109,-41.504,17.578
1688816666.560,-146.484,-29.297,-31.250,-91.309,-82.520
1688816666.577,5.859,-31.738,-35.645,-64.941,-220.703
1688816666.581,54.688,-35.156,-43.945,-14.648,-213.379
1688816666.585,-4.395,-35.645,-41.992,-16.602,-61.523
1688816666.589,-142.090,-32.715,-38.574,-44.434,-45.410
1688816666.593,-154.785,-30.762,-43.945,-95.215,-200.684
1688816666.597,2.930,-31.738,-41.504,-74.219,-103.516
1688816666.601,72.754,-33.691,-38.086,13.184,223.145
1688816666.604,16.113,-36.621,-48.828,17.090,186.035
1688816666.608,-119.141,-31.250,-45.410,-42.480,-59.570
1688816666.612,-157.715,-27.344,-36.133,-92.285,-141.602
1688816666.616,-17.090,-27.344,-43.457,-76.172,-34.668
1688816666.620,43.945,-25.879,-47.363,-15.137,-40.527
1688816666.609,8.789,-25.879,-42.480,3.418,-95.703
1688816666.613,-98.633,-23.926,-43.945,-25.391,-24.414
1688816666.617,-163.086,-25.391,-45.410,-75.684,176.270
1688816666.621,-28.809,-21.484,-40.527,-74.219,73.242
1688816666.625,76.660,-18.066,-40.527,-12.695,-122.070
1688816666.629,50.293,-20.996,-36.133,13.184,1.953
1688816666.633,-79.590,-22.461,-33.691,-10.742,89.355
1688816666.636,-156.250,-22.949,-41.016,-78.613,-42.480
1688816666.640,-48.828,-23.438,-47.852,-100.098,-231.934
1688816666.644,52.734,-25.879,-43.457,-27.832,-101.562
1688816666.648,72.266,-27.344,-41.504,12.695,216.309
1688816666.652,-47.852,-24.414,-43.945,-12.695,-14.160
1688816666.682,-187.012,-21.973,-42.480,-79.590,-157.227
1688816666.686,-82.520,-21.484,-47.363,-103.516,-113.281
1688816666.690,63.965,-28.320,-40.039,-20.508,-83.008
1688816666.694,46.387,-28.320,-23.926,23.926,0.488
1688816666.698,-66.895,-32.715,-16.602,0.000,-82.031
1688816666.702,-188.477,-39.062,-10.254,-49.805,59.082
1688816666.706,-128.418,-40.527,-15.625,-92.285,97.656
1688816666.709,0.977,-50.781,-15.137,-48.340,-144.531
1688816666.713,38.086,-58.594,-4.883,4.883,-142.090
1688816666.717,-41.016,-59.570,-3.906,-2.930,139.648
1688816666.721,-194.336,-58.105,-3.418,-62.012,103.516
1688816666.725,-143.555,-52.734,1.465,-106.445,-192.871
1688816666.712,10.742,-55.664,0.000,-57.617,-161.621
1688816666.716,40.527,-62.012,-0.488,5.371,97.168
1688816666.720,-26.367,-68.848,-0.488,-3.418,27.344
1688816666.724,-166.016,-70.801,1.953,-42.480,-81.055
1688816666.728,-158.203,-67.383,3.418,-91.309,-119.141
1688816666.732,-3.418,-71.777,6.836,-72.266,-26.855
1688816666.736,47.363,-74.707,11.719,-22.949,51.758
1688816666.739,5.859,-73.730,12.207,-25.391,-79.590
1688816666.743,-148.438,-76.172,17.090,-47.852,-47.852
1688816666.747,-189.453,-80.078,20.996,-83.008,35.156
1688816666.751,-13.184,-75.684,19.043,-71.289,-96.680
1688816666.755,53.711,-69.336,20.996,-11.719,-191.406
1688816666.758,-16.602,-70.312,24.902,1.953,6.836
1688816666.762,-150.879,-70.312,17.578,-25.879,237.305
1688816666.766,-189.453,-66.406,17.090,-99.121,-47.363
1688816666.770,-42.480,-63.477,17.090,-99.609,-207.520
1688816666.774,59.570,-69.824,16.113,-8.301,-18.555
1688816666.778,21.484,-77.637,17.578,-0.977,35.645
1688816666.782,-133.789,-79.102,11.230,-55.664,-10.254
1688816666.785,-219.727,-76.172,13.672,-110.352,-122.559
1688816666.789,-79.590,-72.754,27.344,-90.820,86.914
1688816666.793,18.066,-76.172,27.344,-5.859,259.766
1688816666.797,6.348,-75.684,24.902,8.789,-4.883
1688816666.801,-101.074,-66.895,30.273,-16.113,-78.125
1688816666.802,-208.984,-58.594,31.738,-65.918,-31.250
1688816666.806,-87.891,-59.082,25.391,-92.773,-121.582
1688816666.810,32.715,-66.406,23.926,-20.508,-98.145
1688816666.814,15.137,-69.824,25.879,10.254,-52.246
1688816666.818,-86.426,-66.406,25.391,-5.371,43.945
1688816666.822,-195.801,-60.547,26.855,-46.875,23.926
1688816666.826,-88.379,-57.617,24.414,-74.219,-78.125
1688816666.829,51.270,-56.152,16.602,-5.859,-20.020
1688816666.833,35.156,-55.664,10.742,36.133,153.320
1688816666.837,-58.594,-62.500,5.859,11.230,-17.578
1688816666.841,-175.781,-55.664,4.883,-39.062,-140.625
1688816666.845,-122.070,-56.152,5.371,-74.219,-77.148
1688816666.847,19.531,-63.965,0.488,-25.879,-69.336
1688816666.851,62.988,-62.988,-1.953,20.020,-173.828
1688816666.855,-12.695,-65.430,-2.441,4.395,-173.340
1688816666.859,-170.898,-62.012,0.488,-49.316,22.949
1688816666.863,-135.254,-54.688,-0.977,-87.891,-55.664
1688816666.867,16.113,-59.082,-2.930,-26.367,-125.000
1688816666.871,43.945,-62.988,-1.465,30.762,60.059
1688816666.874,-21.973,-60.547,-3.418,24.414,170.898
1688816666.878,-162.598,-49.316,-5.859,-30.273,83.496
1688816666.882,-142.090,-46.387,-3.906,-90.332,-138.672
1688816666.886,28.809,-45.898,-0.977,-42.480,-77.637
1688816666.890,63.477,-45.898,-5.371,6.836,121.094
1688816666.893,-0.977,-45.898,-12.207,1.465,15.625
1688816666.897,-133.789,-45.898,-12.695,-33.203,-111.328
1688816666.901,-147.461,-45.898,-8.789,-78.125,-108.887
1688816666.905,-4.883,-43.457,-14.160,-39.062,-58.105
1688816666.909,35.645,-45.410,-20.996,20.020,-79.590
1688816666.913,-11.719,-47.852,-22.461,12.695,-88.867
1688816666.917,-137.695,-50.293,-20.996,-13.184,37.598
1688816666.920,-176.758,-50.293,-20.996,-62.012,280.273
1688816666.924,-19.043,-47.363,-22.461,-73.730,-1.953
1688816666.928,61.523,-51.758,-25.391,-6.836,-196.777
1688816666.932,30.762,-54.199,-23.926,10.742,-50.293
1688816666.936,-78.125,-50.781,-23.926,-17.578,-85.938
1688816666.939,-148.926,-44.922,-25.391,-78.125,-205.078
1688816666.943,-27.344,-41.504,-23.926,-76.172,-241.699
1688816666.947,62.988,-43.457,-20.020,11.230,-56.641
1688816666.951,37.598,-41.016,-18.555,13.184,-18.555
1688816666.955,-65.918,-38.574,-21.973,-25.879,-82.031
1688816666.959,-160.645,-35.156,-21.484,-83.984,-56.152
1688816666.963,-55.176,-31.250,-23.438,-87.402,132.324
1688816666.966,59.082,-34.668,-30.273,-9.766,186.035
1688816666.970,46.875,-41.992,-32.227,2.930,-81.543
1688816666.974,-56.152,-44.922,-28.809,-24.902,-129.883
1688816666.978,-156.250,-44.434,-28.320,-75.195,-88.379
1688816666.982,-60.547,-40.527,-33.203,-103.027,-204.102
1688816666.998,61.523,-39.062,-36.133,-41.992,-203.125
1688816667.002,54.688,-39.062,-38.086,-3.418,-141.113
1688816667.006,-42.480,-42.480,-39.551,-20.996,-22.949
1688816667.010,-164.062,-45.898,-38.574,-58.594,-34.668
1688816667.014,-83.008,-44.434,-34.180,-76.172,-151.855
1688816667.018,63.477,-41.504,-31.250,-19.043,30.762
1688816667.022,83.496,-41.504,-29.297,26.855,399.414
1688816667.025,9.277,-46.875,-30.762,4.395,149.414
1688816667.029,-132.324,-48.828,-32.715,-41.504,-107.910
1688816667.033,-108.398,-40.039,-32.227,-80.078,-32.715
1688816667.037,39.551,-34.180,-35.156,-30.762,-19.531
1688816667.041,79.102,-36.133,-35.156,10.254,-77.637
1688816667.031,-2.930,-42.480,-37.598,-15.625,-124.512
1688816667.035,-147.461,-35.156,-34.668,-58.105,-39.551
1688816667.039,-122.559,-27.344,-28.809,-93.262,-109.863
1688816667.043,42.480,-27.344,-32.227,-53.223,-185.059
1688816667.047,97.168,-29.297,-29.785,5.371,-72.754
1688816667.051,18.066,-34.180,-31.738,9.766,72.266
1688816667.055,-136.230,-37.109,-35.156,-28.320,-7.324
1688816667.058,-148.438,-37.109,-33.691,-80.566,-78.613
1688816667.062,4.395,-39.551,-33.203,-45.410,-120.117
1688816667.066,70.801,-44.434,-33.691,25.391,82.031
1688816667.070,31.250,-39.551,-33.691,17.090,154.785
1688816667.074,-117.188,-38.574,-34.668,-24.902,-88.867
1688816667.087,-169.434,-39.551,-30.273,-58.105,-92.285
1688816667.091,-12.695,-33.691,-24.414,-33.691,-8.789
1688816667.095,75.195,-34.668,-25.879,12.207,-109.863
1688816667.099,39.062,-36.133,-29.297,13.184,-209.961
1688816667.103,-108.398,-38.574,-25.879,-12.695,-86.426
1688816667.107,-182.129,-41.016,-20.996,-48.340,339.355
1688816667.111,-25.879,-41.992,-23.926,-51.270,195.801
1688816667.114,75.684,-38.086,-28.320,6.836,-153.809
1688816667.118,49.805,-32.715,-27.344,30.273,-54.199
1688816667.122,-78.613,-34.180,-24.902,1.953,55.176
1688816667.126,-170.898,-35.156,-27.832,-51.270,-119.629
1688816667.130,-49.805,-37.109,-30.273,-55.176,-219.727
1688816667.132,65.430,-38.574,-31.250,19.531,-19.043
1688816667.136,52.734,-43.457,-33.203,32.227,42.480
1688816667.140,-58.594,-44.922,-37.109,-0.977,-105.957
1688816667.144,-163.574,-41.504,-34.668,-53.711,-166.992
1688816667.148,-65.430,-36.621,-29.785,-68.848,-118.652
1688816667.152,53.711,-37.109,-33.691,7.812,-77.148
1688816667.156,58.105,-38.086,-36.133,41.992,-54.199
1688816667.159,-29.785,-37.109,-32.715,24.902,-33.203
1688816667.163,-156.250,-39.062,-28.809,-12.207,148.926
1688816667.167,-87.891,-37.598,-32.715,-55.176,132.324
1688816667.171,49.805,-37.598,-36.621,-16.602,7.812
1688816667.175,59.570,-41.016,-39.062,26.367,26.855
1688816667.177,-30.273,-40.527,-35.156,20.020,228.516
1688816667.181,-150.879,-35.645,-29.297,-24.902,52.734
1688816667.185,-82.520,-34.668,-29.785,-66.406,-250.977
1688816667.189,45.898,-33.691,-30.762,-12.207,-193.359
1688816667.193,65.430,-31.738,-32.227,40.039,-127.930
1688816667.197,-2.930,-36.133,-29.785,27.344,-85.449
1688816667.201,-134.277,-30.273,-28.320,-8.301,-153.320
1688816667.204,-115.723,-21.973,-30.762,-49.805,-38.574
1688816667.208,29.297,-22.461,-34.180,-10.254,200.684
1688816667.212,84.473,-26.367,-35.156,28.809,-39.062
1688816667.216,39.062,-37.598,-35.645,19.531,-125.977
1688816667.220,-109.863,-42.480,-38.086,-13.672,-25.391
1688816667.224,-132.324,-35.156,-37.109,-72.266,-111.328
1688816667.228,19.043,-36.621,-31.250,-29.297,-160.156
1688816667.232,73.242,-56.641,-29.785,44.434,-57.617
1688816667.236,38.086,-53.223,-28.809,45.410,6.836
1688816667.240,-86.914,-19.043,-36.133,-2.930,-81.055
1688816667.244,-144.531,-8.789,-47.363,-73.730,-137.695
1688816667.248,3.906,-18.555,-48.828,-60.059,-35.645
1688816667.251,83.984,-17.578,-58.105,6.348,183.105
1688816667.255,33.691,-8.789,-70.312,9.766,105.469
1688816667.259,-92.285,-5.371,-75.684,-33.691,-130.371
1688816667.263,-155.273,1.465,-83.496,-82.520,-60.547
1688816667.267,-30.273,2.441,-94.238,-92.285,-85.938
1688816667.267,77.637,-1.465,-102.539,-28.320,-163.086
1688816667.271,64.453,-1.465,-107.910,-7.812,-169.434
1688816667.275,-71.289,1.953,-106.934,-48.828,-45.898
1688816667.279,-164.551,2.930,-108.887,-102.051,81.543
1688816667.283,-33.203,4.883,-114.746,-113.770,-77.148
1688816667.287,83.496,11.230,-115.723,-46.875,-75.195
1688816667.291,65.430,6.836,-113.770,-23.438,55.176
1688816667.294,-59.570,3.906,-108.887,-41.504,222.168
1688816667.298,-177.734,14.160,-113.770,-101.074,63.965
1688816667.302,-67.871,12.207,-116.699,-137.695,-183.105
1688816667.306,64.941,8.301,-113.770,-72.266,-121.094
1688816667.310,53.223,1.465,-110.840,-31.738,-112.793
1688816667.312,-33.203,-10.742,-107.910,-47.363,-109.863
1688816667.316,-143.066,-10.254,-99.121,-95.215,-104.004
1688816667.320,-65.918,-4.395,-93.750,-119.141,-131.836
1688816667.324,70.312,0.977,-89.355,-54.688,-196.777
1688816667.328,83.008,-1.953,-85.449,-9.277,-207.520
1688816667.332,2.441,-5.371,-83.008,-23.438,5.371
1688816667.336,-132.324,-5.859,-76.660,-64.941,307.617
1688816667.339,-78.125,-9.766,-75.684,-101.074,215.820
1688816667.343,67.871,-13.184,-78.125,-56.641,-180.176
1688816667.347,88.379,-15.137,-75.195,-4.395,-188.965
1688816667.351,29.297,-14.648,-69.824,-14.648,152.344
1688816667.355,-129.395,-13.184,-66.895,-68.359,27.832
1688816667.358,-130.371,-12.695,-64.453,-108.887,-254.883
1688816667.362,40.527,-13.184,-61.523,-60.547,-244.141
1688816667.366,82.031,-16.113,-62.500,-6.348,-137.695
1688816667.370,13.672,-18.066,-64.941,-17.090,-111.816
1688816667.374,-125.000,-18.555,-64.941,-61.035,-198.242
1688816667.378,-127.930,-16.113,-61.523,-105.957,-60.547
1688816667.382,31.250,-17.090,-63.965,-64.941,179.688
1688816667.385,85.938,-19.531,-63.965,-2.441,-24.414
1688816667.389,35.156,-22.949,-60.059,-0.977,-186.035
1688816667.393,-95.703,-25.879,-55.176,-23.926,27.344
1688816667.397,-125.488,-21.484,-55.176,-78.125,136.230
1688816667.401,21.484,-22.461,-61.523,-75.684,-101.562
1688816667.418,82.031,-26.855,-61.035,-11.719,-93.750
1688816667.422,29.785,-32.227,-56.152,-3.906,51.270
1688816667.426,-90.332,-34.668,-49.805,-33.203,19.043
1688816667.430,-154.785,-30.762,-46.387,-92.773,-98.145
1688816667.434,-19.531,-27.832,-50.781,-92.285,-144.531
1688816667.438,83.496,-30.273,-52.246,-31.738,-11.230
1688816667.442,52.246,-27.344,-46.875,-23.438,-15.137
1688816667.445,-91.309,-28.320,-42.969,-49.316,-122.559
1688816667.449,-178.223,-28.809,-42.480,-100.586,-147.949
1688816667.453,-41.016,-23.438,-41.016,-98.633,97.656
1688816667.457,66.895,-27.832,-41.504,-36.621,124.023
1688816667.461,41.016,-35.156,-44.922,-26.367,-67.871
1688816667.462,-59.082,-38.086,-46.387,-44.922,-51.758
1688816667.466,-158.691,-32.227,-41.992,-87.891,181.152
1688816667.470,-62.012,-22.949,-36.133,-113.770,32.715
1688816667.474,58.594,-26.367,-40.039,-57.129,-179.688
1688816667.478,58.105,-33.691,-39.551,-2.441,-92.285
1688816667.482,-43.945,-29.297,-33.691,-12.207,-22.461
1688816667.486,-174.316,-25.879,-32.227,-68.359,-4.395
1688816667.489,-90.820,-24.414,-32.715,-95.703,-59.570
1688816667.493,65.918,-27.344,-36.133,-31.738,5.859
1688816667.497,86.426,-30.273,-37.109,18.066,170.410
1688816667.501,-9.766,-30.762,-41.016,-5.859,-47.363
1688816667.505,-157.227,-38.574,-43.945,-57.617,-204.590
1688816667.508,-101.562,-40.527,-36.621,-83.984,-95.703
1688816667.512,52.734,-33.691,-38.086,-39.551,-44.922
1688816667.516,72.266,-26.855,-42.969,-6.836,-105.957
1688816667.520,-6.836,-28.320,-49.316,-22.949,-180.176
1688816667.524,-134.277,-36.621,-53.711,-52.734,-40.039
1688816667.528,-99.609,-33.203,-49.805,-82.031,19.043
1688816667.532,26.855,-26.855,-48.828,-47.852,-32.715
1688816667.535,61.523,-31.738,-49.316,0.977,-3.418
1688816667.539,18.066,-34.668,-50.781,0.977,163.574
1688816667.543,-130.859,-29.785,-46.875,-39.062,85.449
1688816667.547,-138.672,-25.391,-44.434,-86.426,-157.715
1688816667.551,41.016,-31.738,-50.293,-44.922,-67.383
1688816667.568,86.914,-39.551,-47.852,26.855,118.164
1688816667.572,14.648,-36.133,-47.852,19.531,-61.523
1688816667.576,-125.488,-33.203,-55.664,-24.902,-184.082
1688816667.580,-166.504,-30.762,-55.664,-77.148,-106.934
1688816667.584,-16.602,-28.809,-49.805,-53.223,-34.180
1688816667.588,65.430,-30.273,-47.852,13.184,6.836
1688816667.592,41.016,-30.273,-45.410,23.926,-45.410
1688816667.595,-86.914,-32.715,-44.922,-3.418,-58.105
1688816667.599,-161.133,-31.738,-42.480,-46.875,143.555
1688816667.603,-12.207,-29.785,-39.062,-40.039,-25.879
1688816667.607,80.078,-30.273,-37.598,31.250,-175.781
1688816667.611,48.340,-26.855,-35.156,55.664,-119.629
1688816667.612,-64.453,-21.484,-32.715,17.090,-92.773
1688816667.616,-137.207,-21.973,-31.250,-44.922,-98.145
1688816667.620,-13.672,-21.484,-27.832,-58.594,-165.039
1688816667.624,88.379,-22.461,-27.344,16.602,-128.418
1688816667.628,64.453,-23.438,-31.738,53.223,-105.469
1688816667.632,-55.176,-23.438,-31.738,23.926,-68.848
1688816667.636,-150.879,-21.484,-26.855,-32.227,15.625
1688816667.639,-46.387,-16.602,-25.391,-48.340,144.531
1688816667.643,81.055,-17.578,-27.832,15.625,17.090
1688816667.647,86.914,-22.461,-27.832,38.574,-14.648
1688816667.651,-15.625,-24.414,-26.855,14.160,74.707
1688816667.655,-140.625,-21.484,-28.320,-27.832,208.496
1688816667.642,-69.336,-21.973,-36.133,-58.105,293.457
1688816667.646,52.734,-29.297,-38.086,-12.207,-18.066
1688816667.650,64.941,-28.320,-33.203,35.645,-95.703
1688816667.654,-23.438,-26.855,-33.203,22.461,-8.301
1688816667.658,-170.410,-33.203,-29.297,-31.738,-81.543
1688816667.662,-118.652,-37.109,-28.809,-71.777,-108.887
1688816667.666,35.156,-35.645,-33.203,-24.414,-60.547
1688816667.669,60.059,-37.598,-28.809,15.137,-69.336
1688816667.673,-4.883,-36.621,-25.879,7.324,-86.426
1688816667.677,-140.137,-29.785,-28.320,-31.738,-113.281
1688816667.681,-127.441,-30.762,-24.902,-75.684,-41.016
1688816667.685,40.527,-31.738,-28.809,-30.273,105.469
1688816667.687,84.473,-27.832,-32.715,26.855,-26.855
1688816667.691,5.371,-30.273,-34.180,9.277,-166.504
1688816667.695,-134.766,-36.133,-38.574,-44.434,-16.113
1688816667.699,-145.508,-28.809,-32.227,-99.609,57.129
1688816667.703,6.836,-20.508,-29.785,-64.453,-125.000
1688816667.707,72.266,-32.227,-25.879,12.207,-39.551
1688816667.711,22.461,-41.016,-21.484,24.902,307.129
1688816667.714,-106.445,-35.156,-25.879,-12.695,191.406
1688816667.718,-124.023,-25.879,-25.391,-78.125,-149.902
1688816667.722,13.672,-25.391,-27.832,-64.453,-107.910
1688816667.726,81.055,-29.297,-34.668,9.766,82.520
1688816667.730,53.711,-30.762,-39.551,12.207,-3.906
1688816667.732,-94.727,-28.809,-37.109,-27.344,-117.188
1688816667.736,-166.504,-22.949,-30.273,-79.590,-112.793
1688816667.740,-17.090,-22.949,-30.273,-67.871,77.148
1688816667.744,82.520,-26.855,-35.645,-2.930,3.906
1688816667.748,50.293,-31.738,-37.109,3.418,-191.895
1688816667.752,-98.145,-35.645,-34.668,-22.461,3.418
1688816667.756,-179.199,-32.715,-31.250,-68.848,104.492
1688816667.759,-32.227,-30.762,-30.762,-77.148,-136.230
1688816667.763,63.965,-35.156,-38.086,-16.113,-195.312
1688816667.767,42.480,-36.621,-35.156,6.348,-79.102
1688816667.771,-61.523,-36.621,-36.133,-12.695,-80.566
1688816667.775,-165.039,-35.156,-37.598,-64.941,-172.363
1688816667.793,-55.664,-34.668,-33.203,-90.332,-151.855
1688816667.797,59.082,-33.691,-34.180,-32.715,4.395
1688816667.801,52.734,-29.785,-36.621,1.953,30.273
1688816667.805,-41.992,-30.273,-36.621,-12.207,-142.578
1688816667.809,-168.457,-33.691,-35.156,-55.176,-116.699
1688816667.813,-74.219,-35.645,-31.738,-73.730,75.195
1688816667.817,60.547,-39.551,-32.715,-30.273,-13.672
1688816667.820,60.059,-37.109,-32.227,2.930,-96.191
1688816667.824,-28.320,-38.086,-29.297,-11.230,-89.355
1688816667.828,-156.738,-44.434,-33.691,-53.711,113.281
1688816667.832,-104.980,-39.551,-39.062,-104.492,106.934
1688816667.836,39.551,-37.109,-41.016,-64.453,-169.434
1688816667.838,68.359,-41.992,-42.969,-4.395,-155.762
1688816667.842,-7.324,-41.016,-36.621,-9.766,127.441
1688816667.846,-155.762,-40.039,-34.180,-62.988,40.527
1688816667.850,-126.953,-41.016,-37.598,-99.609,-146.973
1688816667.854,35.156,-45.410,-33.203,-54.199,-20.020
1688816667.858,72.266,-48.340,-28.809,-5.859,42.969
1688816667.862,-1.465,-45.410,-31.738,-13.184,9.277
1688816667.865,-145.508,-44.922,-34.668,-59.082,-64.941
1688816667.869,-143.555,-44.922,-34.668,-100.098,-79.102
1688816667.873,20.020,-44.434,-34.668,-52.734,142.090
1688816667.877,68.848,-42.969,-36.621,2.441,-29.785
1688816667.881,10.742,-45.410,-35.156,0.488,-141.113
1688816667.883,-124.023,-44.922,-35.156,-40.039,-30.762
1688816667.887,-155.762,-43.457,-36.133,-108.398,-105.469
1688816667.891,11.230,-40.039,-39.062,-90.332,-215.820
1688816667.895,88.379,-38.086,-44.922,-14.160,-183.594
1688816667.899,32.227,-38.574,-42.480,-0.977,-21.973
1688816667.903,-106.934,-41.992,-39.551,-32.715,51.270
1688816667.907,-159.668,-42.969,-48.340,-83.496,5.859
1688816667.910,-7.324,-36.621,-52.246,-71.289,23.926
1688816667.914,78.613,-39.062,-46.875,11.719,254.883
1688816667.918,34.668,-42.480,-41.504,45.410,263.672
1688816667.922,-87.402,-40.039,-36.621,14.160,-59.082
1688816667.926,-169.434,-38.574,-32.227,-48.340,-46.875
1688816667.927,-32.715,-38.086,-31.738,-49.316,92.285
1688816667.931,87.891,-34.668,-34.668,14.648,-61.523
1688816667.935,48.340,-32.715,-36.133,39.062,-163.574
1688816667.939,-80.078,-34.668,-34.180,4.395,-179.688
1688816667.943,-181.152,-37.598,-35.645,-65.918,-197.754
1688816667.947,-75.684,-39.062,-39.551,-86.914,-124.023
1688816667.951,48.340,-38.086,-43.945,-18.555,-134.277
1688816667.954,50.781,-37.109,-44.434,9.766,-105.957
1688816667.958,-49.316,-41.992,-43.945,-10.742,251.465
1688816667.962,-172.852,-34.180,-44.434,-69.336,93.262
1688816667.966,-88.867,-28.809,-42.969,-106.934,-239.258
1688816667.970,50.781,-32.715,-42.480,-40.527,-152.344
1688816667.987,53.223,-32.227,-41.992,-0.488,-85.938
1688816667.991,-48.340,-33.691,-42.969,-23.438,-168.945
1688816667.995,-180.176,-31.738,-40.039,-57.617,-155.273
1688816667.999,-112.793,-31.250,-38.086,-94.727,-100.098
1688816668.003,35.645,-30.273,-38.086,-50.293,-90.820
1688816668.007,46.875,-31.738,-38.086,1.953,-43.945
1688816668.011,-28.809,-41.016,-41.504,-16.602,46.875
1688816668.014,-169.434,-41.992,-45.898,-58.594,138.672
1688816668.018,-148.926,-33.691,-48.340,-113.281,-61.035
1688816668.022,22.949,-34.668,-45.898,-71.289,-218.262
1688816668.026,75.684,-43.457,-36.133,-0.488,-57.617
1688816668.030,0.000,-41.016,-21.973,-3.418,224.121
1688816668.019,-152.344,-34.180,-18.555,-48.340,44.434
1688816668.023,-161.621,-41.016,-14.648,-97.656,-163.086
1688816668.027,-10.254,-53.711,-4.883,-67.871,-126.953
1688816668.031,41.992,-58.105,0.977,-15.137,150.391
1688816668.035,-18.555,-61.035,1.465,-18.555,93.750
1688816668.039,-174.316,-64.453,9.277,-58.105,-27.344
1688816668.043,-203.125,-68.848,12.695,-107.422,51.758
1688816668.046,-48.340,-70.801,15.625,-86.914,104.980
1688816668.050,9.277,-72.754,20.020,-30.273,-31.250
1688816668.054,-21.484,-76.172,20.020,-21.484,-122.559
1688816668.058,-153.320,-74.707,20.996,-55.664,23.438
1688816668.062,-214.844,-73.242,28.809,-101.562,139.160
1688816668.079,-64.453,-75.195,30.273,-97.168,-130.371
1688816668.083,26.367,-80.078,32.715,-26.367,-211.914
1688816668.087,2.930,-83.496,35.645,-11.719,-25.391
1688816668.091,-114.258,-86.426,37.598,-41.504,-9.277
1688816668.095,-201.172,-78.613,44.922,-90.820,-110.840
1688816668.099,-74.707,-76.172,45.898,-100.098,-119.629
1688816668.103,37.109,-78.613,41.504,-24.902,157.227
1688816668.106,23.438,-73.242,32.227,10.742,281.738
1688816668.110,-88.379,-72.266,32.227,-27.832,-48.340
1688816668.114,-190.918,-73.242,40.527,-78.125,-144.531
1688816668.118,-89.355,-70.312,41.504,-83.984,-152.832
1688816668.122,33.691,-67.383,42.969,-14.648,-137.695
1688816668.108,32.227,-70.312,44.922,23.926,-93.262
1688816668.112,-82.031,-75.195,43.457,1.953,-117.676
1688816668.116,-211.914,-70.801,37.109,-59.082,80.078
1688816668.120,-106.934,-68.848,34.668,-93.750,27.344
1688816668.124,32.715,-75.195,38.574,-22.949,-214.355
1688816668.128,28.320,-74.707,36.133,41.016,-79.590
1688816668.132,-65.918,-64.453,33.203,5.371,51.270
1688816668.135,-187.500,-62.012,29.297,-63.477,-124.023
1688816668.139,-126.465,-63.477,22.949,-92.285,-217.773
1688816668.143,0.000,-61.035,31.250,-35.156,-133.789
1688816668.147,21.973,-60.547,36.621,26.855,187.988
1688816668.151,-48.340,-58.594,34.180,14.648,45.898
1688816668.182,-184.570,-56.152,35.156,-37.598,-213.867
1688816668.186,-147.461,-51.270,33.203,-83.008,-117.188
1688816668.190,23.926,-54.199,26.855,-26.855,-149.414
1688816668.194,70.801,-58.105,25.391,33.691,-217.285
1688816668.198,-0.488,-56.152,21.484,10.254,-111.328
1688816668.202,-159.668,-56.641,21.484,-40.039,102.051
1688816668.206,-173.340,-56.641,14.160,-83.984,63.477
1688816668.209,-10.254,-57.617,8.301,-42.480,-28.809
1688816668.213,54.199,-56.152,4.883,12.207,-62.500
1688816668.217,18.555,-55.176,5.859,25.391,153.809
1688816668.221,-123.047,-51.758,8.301,-8.789,318.359
1688816668.225,-162.598,-50.781,7.324,-84.961,-84.473
1688816668.213,-4.883,-56.641,4.395,-61.523,-176.758
1688816668.217,50.781,-56.641,3.418,8.789,-1.953
1688816668.221,11.719,-48.828,0.977,19.043,-102.539
1688816668.225,-121.582,-44.434,-6.836,-12.207,-139.648
1688816668.229,-171.387,-43.457,-9.766,-68.848,-129.883
1688816668.233,-5.371,-40.039,-7.812,-46.387,-72.754
1688816668.237,64.453,-31.738,-9.766,25.391,-18.555
1688816668.240,26.367,-29.785,-11.719,24.414,-69.824
1688816668.244,-89.355,-33.691,-8.789,-12.207,-84.473
1688816668.248,-172.852,-30.762,-13.672,-60.547,-71.289
1688816668.252,-39.062,-33.203,-19.531,-59.082,-100.098
1688816668.256,70.312,-33.691,-15.625,14.648,-108.887
1688816668.258,61.035,-30.762,-14.648,34.668,63.477
1688816668.262,-56.641,-30.762,-17.578,7.812,298.340
1688816668.266,-168.457,-23.926,-23.438,-55.664,21.973
1688816668.270,-53.223,-23.438,-29.297,-73.730,-121.094
1688816668.274,76.660,-25.391,-27.832,-7.812,5.859
1688816668.278,77.637,-27.344,-32.715,19.043,-71.289
1688816668.282,-25.879,-29.785,-39.551,0.977,-46.387
1688816668.285,-145.020,-27.832,-32.715,-57.129,-27.832
1688816668.289,-52.246,-31.250,-28.320,-79.590,107.422
1688816668.293,70.312,-35.156,-32.715,-12.695,101.074
1688816668.297,66.895,-38.086,-41.016,22.461,-42.969
1688816668.301,-25.391,-41.504,-42.480,-4.883,-16.113
1688816668.302,-144.531,-40.039,-39.551,-59.570,-60.059
1688816668.306,-88.379,-38.086,-38.086,-93.262,-203.125
1688816668.310,58.105,-34.668,-39.062,-28.809,-145.996
1688816668.314,95.215,-32.715,-41.016,23.926,21.484
1688816668.318,2.441,-33.691,-36.621,0.488,215.820
1688816668.322,-158.691,-30.273,-32.715,-54.199,134.766
1688816668.326,-130.859,-25.879,-30.762,-83.984,-21.973
1688816668.329,26.367,-27.832,-32.715,-32.715,-3.418
1688816668.333,71.777,-29.785,-33.203,16.602,136.230
1688816668.337,21.484,-27.344,-33.203,0.977,-43.457
1688816668.341,-114.746,-25.391,-29.297,-38.574,-154.297
1688816668.345,-96.680,-26.367,-29.785,-70.312,-106.445
1688816668.349,37.598,-27.832,-34.180,-41.992,-101.074
1688816668.353,71.289,-28.320,-30.762,22.949,-104.004
1688816668.357,29.297,-27.832,-24.414,29.785,-139.160
1688816668.361,-112.305,-31.738,-22.949,-15.137,-41.992
1688816668.365,-158.691,-32.227,-26.855,-73.242,-17.578
1688816668.369,-12.207,-33.203,-27.344,-45.898,-90.820
1688816668.373,79.102,-39.551,-28.809,14.648,-37.109
1688816668.376,40.527,-36.621,-24.902,26.855,131.836
1688816668.380,-99.609,-36.133,-29.297,-14.648,104.004
1688816668.384,-134.766,-36.133,-30.273,-79.590,-113.281
1688816668.388,3.906,-38.574,-24.414,-63.965,-123.535
1688816668.392,87.402,-44.434,-27.344,18.066,179.688
1688816668.394,58.594,-40.527,-30.273,28.320,143.555
1688816668.398,-79.102,-36.133,-31.738,-26.367,-137.695
1688816668.402,-147.461,-31.738,-34.180,-76.172,-119.629
1688816668.406,-11.230,-31.250,-34.668,-76.172,-153.320
1688816668.410,89.355,-36.133,-32.715,-23.438,-165.527
1688816668.414,76.172,-39.062,-35.156,-1.465,-80.078
1688816668.418,-40.039,-41.016,-36.133,-14.160,50.293
1688816668.421,-152.344,-39.062,-35.156,-64.453,265.137
1688816668.425,-39.062,-33.203,-34.668,-95.703,33.691
1688816668.429,79.102,-34.180,-37.598,-32.715,-256.348
1688816668.433,57.617,-51.758,-37.598,13.672,-163.086
1688816668.437,-52.734,-62.012,-36.621,-5.859,-232.422
1688816668.438,-156.250,-40.039,-45.410,-55.664,-311.523
1688816668.442,-55.176,-15.137,-46.875,-86.426,-231.445
1688816668.446,64.941,-18.066,-47.852,-39.062,-172.852
1688816668.450,52.734,-29.785,-55.664,-0.488,-145.508
1688816668.454,-32.227,-24.902,-58.594,-9.277,-28.320
1688816668.458,-150.391,-19.531,-57.129,-52.246,-1.465
1688816668.462,-81.543,-20.020,-57.617,-85.938,94.727
1688816668.465,62.012,-14.648,-64.453,-28.809,237.305
1688816668.469,80.078,-13.672,-76.660,6.348,-37.109
1688816668.473,11.230,-13.184,-78.125,-14.648,-127.441
1688816668.477,-121.094,-5.371,-76.660,-55.176,16.113
1688816668.481,-87.402,1.953,-87.402,-100.586,-89.355
1688816668.482,58.594,-1.953,-96.680,-58.594,-133.301
1688816668.486,87.891,-6.348,-102.051,0.488,-9.277
1688816668.490,9.766,-6.348,-104.004,-11.719,71.289
1688816668.494,-132.324,-5.859,-104.004,-68.848,-54.199
1688816668.498,-121.582,-1.465,-103.516,-129.395,-169.434
1688816668.502,40.527,1.953,-104.980,-94.238,20.020
1688816668.506,86.914,3.906,-106.445,-28.809,182.617
1688816668.509,4.883,3.418,-107.910,-44.922,-25.391
1688816668.513,-138.184,2.441,-106.445,-89.844,-65.918
1688816668.517,-155.762,4.395,-98.145,-147.949,-30.273
1688816668.521,-27.832,4.395,-97.168,-120.605,53.223
1688816668.525,18.066,-1.465,-103.027,-60.547,-20.996
1688816668.542,-20.020,-15.625,-104.980,-83.008,-125.977
1688816668.546,-141.602,-7.812,-94.238,-125.488,-116.211
1688816668.550,-193.848,-4.395,-89.355,-175.293,-143.066
1688816668.554,-57.129,-7.324,-92.773,-162.598,-214.355
1688816668.558,24.414,-11.719,-89.355,-91.309,-131.348
1688816668.562,8.789,-18.066,-83.008,-75.195,100.586
1688816668.566,-91.797,-9.766,-86.914,-93.262,102.051
1688816668.569,-167.480,-6.348,-86.426,-135.742,-147.949
1688816668.573,-44.922,-13.672,-80.566,-144.531,-226.074
1688816668.577,68.848,-15.625,-84.473,-60.059,177.246
1688816668.581,45.898,-8.789,-81.543,-24.902,253.418
1688816668.585,-76.172,-9.766,-76.660,-65.430,-79.590
1688816668.588,-173.340,-10.742,-72.266,-112.793,-112.793
1688816668.592,-59.570,-7.324,-68.359,-99.609,7.812
1688816668.596,59.570,-8.789,-65.918,-27.344,-93.262
1688816668.600,47.852,-15.137,-60.547,-14.160,-170.410
1688816668.604,-46.387,-20.996,-61.523,-42.969,-138.184
1688816668.608,-137.695,-13.672,-58.105,-86.914,-24.902
1688816668.612,-58.105,-5.859,-61.523,-114.258,-22.461
1688816668.615,62.012,-14.160,-70.312,-55.664,-162.109
1688816668.619,74.707,-16.602,-64.941,-8.301,-45.898
1688816668.623,-17.090,-11.719,-64.941,-20.020,239.258
1688816668.627,-142.090,-3.906,-70.312,-76.660,29.785
1688816668.631,-81.055,0.977,-71.777,-119.141,-151.855
1688816668.633,66.406,-1.953,-78.125,-57.617,52.246
1688816668.637,88.867,1.465,-80.078,-11.230,84.961
1688816668.641,4.395,-4.395,-79.102,-30.762,-51.758
1688816668.645,-134.766,-12.207,-77.148,-84.473,-94.238
1688816668.649,-104.004,-13.184,-74.219,-126.953,-87.891
1688816668.653,42.969,-14.648,-74.707,-55.664,-55.176
1688816668.657,60.547,-14.160,-79.590,-7.324,-70.801
1688816668.660,-9.766,-12.695,-76.172,-23.926,-47.363
1688816668.664,-131.836,-8.789,-67.383,-48.340,176.270
1688816668.668,-123.535,-4.395,-64.941,-104.004,195.312
1688816668.672,21.484,-13.672,-69.824,-89.844,-58.105
1688816668.676,65.918,-19.531,-68.359,-24.414,-41.504
1688816668.679,21.973,-17.578,-65.430,-13.672,141.113
1688816668.683,-117.188,-14.648,-64.453,-56.641,57.617
1688816668.687,-151.367,-15.137,-60.059,-106.934,-72.266
1688816668.691,11.230,-12.695,-59.082,-74.707,-72.754
1688816668.695,87.402,-13.672,-57.129,-7.812,17.578
1688816668.699,31.738,-20.996,-49.316,3.418,21.973
1688816668.703,-108.398,-23.438,-46.387,-21.484,-36.621
1688816668.706,-146.484,-19.531,-46.387,-70.312,-2.930
1688816668.710,4.883,-16.113,-45.410,-55.176,212.891
1688816668.714,81.543,-15.137,-48.340,5.859,38.574
1688816668.718,64.941,-18.555,-46.875,15.625,-85.449
1688816668.722,-54.688,-17.090,-40.039,-6.836,-39.551
1688816668.722,-147.461,-11.230,-31.250,-61.035,-124.023
1688816668.726,-16.602,-14.648,-33.203,-63.965,-160.156
1688816668.730,86.914,-20.996,-39.551,12.207,-84.473
1688816668.734,57.617,-29.297,-42.969,32.227,3.418
1688816668.738,-57.617,-32.227,-47.852,-8.301,15.625
1688816668.742,-150.391,-28.809,-43.945,-71.777,-37.598
1688816668.746,-48.828,-23.438,-41.992,-87.402,-71.289
1688816668.749,64.453,-23.926,-48.828,-8.789,159.668
1688816668.753,58.105,-23.438,-50.781,26.855,141.602
1688816668.757,-43.945,-20.020,-49.805,-0.488,-65.918
1688816668.761,-168.945,-22.949,-47.852,-60.547,-10.254
1688816668.765,-84.961,-27.344,-45.898,-89.844,121.582
1688816668.767,51.270,-29.785,-49.316,-34.180,109.863
1688816668.771,61.035,-36.133,-51.270,-8.789,-72.754
1688816668.775,-19.531,-37.598,-46.875,-21.484,-115.723
1688816668.779,-156.250,-35.156,-42.480,-59.082,-108.887
1688816668.783,-100.586,-35.156,-42.480,-85.449,-120.117
1688816668.787,49.316,-36.133,-44.922,-26.367,-159.668
1688816668.791,65.918,-37.109,-43.457,28.320,-16.113
1688816668.794,-25.391,-36.133,-38.086,11.719,133.301
1688816668.798,-154.297,-29.785,-35.156,-46.875,-42.969
1688816668.802,-120.605,-24.414,-32.227,-97.168,-209.473
1688816668.806,20.996,-28.320,-32.227,-52.246,-165.039
1688816668.810,67.383,-32.715,-32.227,11.719,117.188
1688816668.828,5.859,-32.715,-32.227,-3.418,-17.578
1688816668.832,-151.367,-29.785,-31.250,-46.875,-166.504
1688816668.836,-143.066,-28.809,-25.879,-81.055,-137.695
1688816668.840,22.949,-31.250,-25.879,-43.945,-159.180
1688816668.844,71.777,-31.738,-31.738,6.836,-157.227
1688816668.848,16.602,-34.668,-38.086,-5.371,-104.004
1688816668.852,-123.047,-38.086,-36.621,-31.738,217.285
1688816668.855,-149.902,-35.156,-37.598,-83.008,157.227
1688816668.859,5.371,-45.410,-42.480,-60.547,-164.062
1688816668.863,93.262,-49.316,-39.062,26.367,-73.730
1688816668.867,20.996,-40.039,-41.504,11.719,172.852
1688816668.871,-137.207,-42.480,-45.898,-48.340,68.848
1688816668.857,-184.570,-44.922,-43.457,-101.562,-173.828
1688816668.861,-34.668,-37.109,-42.480,-79.590,-169.922
1688816668.865,56.152,-31.250,-46.875,-13.184,-79.590
1688816668.869,18.066,-33.203,-51.270,-8.301,-79.102
1688816668.873,-99.121,-28.809,-54.688,-39.062,-163.574
1688816668.877,-142.578,-23.438,-54.688,-89.355,-23.438
1688816668.881,-26.855,-24.902,-53.223,-84.473,70.801
1688816668.884,50.293,-31.250,-53.223,-12.695,8.789
1688816668.888,32.227,-33.203,-54.199,15.625,-63.965
1688816668.892,-83.008,-34.180,-50.293,0.000,22.461
1688816668.896,-176.758,-36.133,-51.758,-53.223,208.496
1688816668.900,-53.223,-32.227,-54.688,-83.984,-30.273
1688816668.932,67.871,-30.273,-48.340,-20.996,-170.898
1688816668.936,56.641,-29.297,-42.480,24.414,16.602
1688816668.940,-39.551,-32.715,-39.551,5.859,-27.832
1688816668.944,-152.344,-29.297,-35.645,-49.316,-154.297
1688816668.948,-67.871,-27.832,-30.762,-72.754,-137.695
1688816668.952,62.500,-31.250,-37.598,-12.695,12.695
1688816668.956,64.453,-28.809,-43.945,8.789,-10.742
1688816668.959,-31.250,-31.250,-44.922,-14.648,-112.305
1688816668.963,-159.180,-31.250,-44.434,-56.152,-99.609
1688816668.967,-100.586,-28.809,-44.434,-86.426,99.121
1688816668.971,52.734,-26.367,-45.410,-37.598,129.395
1688816668.975,80.566,-27.832,-44.922,7.324,-100.098
1688816668.962,-15.137,-36.133,-40.527,1.953,-96.191
1688816668.966,-163.574,-32.715,-40.039,-46.875,28.809
1688816668.970,-124.512,-28.320,-41.016,-95.215,-125.977
1688816668.974,37.109,-29.785,-39.062,-47.363,-272.949
1688816668.978,66.895,-32.227,-40.527,7.812,-157.227
1688816668.982,-14.648,-31.738,-39.551,-5.859,6.836
1688816668.986,-148.438,-27.344,-38.574,-46.875,-10.742
1688816668.989,-139.648,-23.438,-38.086,-92.773,-150.879
1688816668.993,22.949,-25.879,-38.086,-54.688,-182.617
