timestamps,TP9,AF7,AF8,TP10,Right AUX
1689255215.562,-68.848,-45.410,-21.973,-23.438,151.855
1689255215.566,-55.664,-51.270,-31.250,-68.848,141.602
1689255215.570,-36.133,-41.504,-32.227,-94.727,157.227
1689255215.574,-44.434,-38.086,-28.320,-64.941,145.996
1689255215.578,-75.195,-43.457,-29.297,-26.855,121.582
1689255215.582,-73.242,-38.574,-26.855,-33.691,157.227
1689255215.586,-46.387,-33.203,-27.344,-62.012,399.414
1689255215.589,-15.137,-40.039,-30.273,-87.402,353.027
1689255215.593,-23.438,-45.410,-31.738,-77.637,48.828
1689255215.597,-62.988,-41.992,-29.785,-35.156,130.371
1689255215.601,-73.730,-41.016,-25.391,-29.785,233.398
1689255215.605,-56.641,-41.016,-20.508,-60.547,74.219
1689255215.608,-68.848,-48.828,-30.273,-66.406,94.727
1689255215.612,-42.969,-48.340,-30.273,-96.680,209.473
1689255215.616,-35.156,-45.410,-28.809,-79.102,292.480
1689255215.619,-72.754,-46.875,-27.832,-42.480,177.734
1689255215.623,-91.797,-53.711,-25.391,-35.645,187.988
1689255215.627,-76.660,-46.875,-20.996,-51.758,277.344
1689255215.631,-53.711,-37.109,-20.020,-78.125,429.688
1689255215.635,-41.504,-39.062,-22.461,-83.496,206.543
1689255215.653,-65.430,-44.434,-21.484,-46.875,81.543
1689255215.657,-83.008,-40.039,-17.578,-26.367,168.457
1689255215.661,-67.383,-35.645,-19.531,-42.969,111.816
1689255215.665,-37.598,-37.598,-18.066,-69.336,39.062
1689255215.669,-29.297,-42.969,-16.113,-81.055,45.410
1689255215.673,-58.594,-48.828,-23.926,-46.875,240.723
1689255215.677,-77.637,-41.016,-25.879,-16.113,254.395
1689255215.680,-70.312,-30.762,-25.391,-42.480,130.859
1689255215.684,-54.199,-31.250,-24.902,-78.613,131.348
1689255215.688,-36.133,-33.203,-20.508,-85.938,377.441
1689255215.692,-66.406,-32.227,-24.414,-69.336,288.086
1689255215.696,-96.191,-35.156,-33.691,-46.387,82.031
1689255215.697,-87.402,-39.551,-34.180,-48.340,98.145
1689255215.701,-62.988,-36.621,-33.203,-79.590,149.414
1689255215.705,-40.527,-34.668,-28.809,-105.469,106.445
1689255215.709,-58.105,-42.969,-24.902,-75.684,81.055
1689255215.713,-84.473,-47.363,-29.785,-36.621,152.344
1689255215.717,-76.660,-37.598,-33.203,-42.480,204.102
1689255215.721,-59.082,-35.156,-25.879,-67.871,212.402
1689255215.724,-45.410,-39.062,-21.484,-88.867,143.066
1689255215.728,-62.988,-36.621,-20.508,-71.289,238.281
1689255215.732,-98.633,-38.086,-20.996,-28.320,509.277
1689255215.736,-93.750,-37.598,-20.020,-29.297,229.980
1689255215.740,-67.383,-31.250,-21.973,-67.383,41.992
1689255215.744,-50.781,-40.527,-29.785,-98.145,260.254
1689255215.748,-62.988,-49.805,-29.785,-78.613,154.785
1689255215.752,-95.703,-40.039,-24.414,-34.668,21.973
1689255215.756,-100.586,-34.668,-22.461,-36.621,77.148
1689255215.760,-73.730,-35.645,-26.367,-65.430,87.891
1689255215.764,-52.734,-36.621,-26.855,-82.520,139.648
1689255215.768,-62.988,-40.039,-24.902,-67.871,83.496
1689255215.771,-87.891,-37.109,-25.391,-25.391,43.457
1689255215.775,-94.238,-33.203,-26.855,-18.555,337.891
1689255215.779,-78.125,-39.551,-29.785,-62.012,272.461
1689255215.783,-51.270,-45.898,-25.879,-95.703,-14.160
1689255215.787,-49.805,-46.875,-27.344,-82.520,20.508
1689255215.803,-83.496,-51.270,-32.227,-48.340,142.090
1689255215.807,-90.332,-46.875,-29.785,-34.180,74.707
1689255215.811,-70.801,-37.109,-23.926,-55.176,4.395
1689255215.815,-45.410,-29.785,-18.066,-89.355,42.480
1689255215.819,-38.574,-29.297,-18.555,-83.008,145.996
1689255215.823,-71.777,-30.273,-25.391,-46.387,248.047
1689255215.827,-85.449,-34.180,-30.762,-33.691,248.535
1689255215.830,-71.777,-32.715,-27.344,-46.387,314.941
1689255215.834,-52.246,-28.320,-29.297,-73.242,504.883
1689255215.838,-41.504,-31.738,-30.762,-83.984,253.418
1689255215.842,-68.848,-37.109,-25.391,-52.246,73.730
1689255215.846,-94.238,-40.527,-25.391,-29.785,175.781
1689255215.834,-92.285,-39.062,-27.832,-48.828,98.145
1689255215.838,-61.523,-32.227,-24.414,-79.590,37.598
1689255215.842,-44.434,-31.738,-20.996,-92.773,62.012
1689255215.846,-79.590,-37.109,-30.273,-69.824,182.129
1689255215.850,-97.168,-34.668,-30.762,-43.945,206.055
1689255215.854,-91.309,-33.691,-22.461,-54.199,190.430
1689255215.858,-80.078,-44.434,-29.297,-97.168,247.559
1689255215.861,-56.152,-43.457,-35.645,-116.699,195.801
1689255215.865,-72.266,-41.992,-29.297,-82.031,111.816
1689255215.869,-87.402,-47.852,-24.902,-42.969,106.445
1689255215.873,-83.984,-42.969,-23.438,-47.852,112.305
1689255215.877,-69.824,-38.086,-23.438,-72.754,396.973
1689255215.877,-38.574,-39.062,-25.879,-90.820,323.242
1689255215.881,-56.641,-39.551,-22.461,-73.730,80.078
1689255215.885,-90.332,-41.016,-20.508,-42.969,156.250
1689255215.889,-86.426,-43.457,-19.531,-45.898,148.926
1689255215.893,-65.918,-42.480,-16.602,-80.566,102.539
1689255215.897,-35.156,-42.480,-21.484,-107.910,135.254
1689255215.901,-36.133,-43.457,-23.438,-77.637,289.551
1689255215.904,-70.312,-46.875,-20.996,-30.762,627.930
1689255215.908,-66.406,-47.363,-17.578,-39.062,423.340
1689255215.912,-36.133,-41.016,-15.625,-80.078,0.488
1689255215.916,-20.020,-41.016,-20.020,-104.980,96.191
1689255215.920,-30.273,-44.922,-19.531,-81.543,186.523
1689255215.937,-56.152,-42.480,-24.414,-39.062,52.246
1689255215.941,-76.172,-43.457,-31.738,-36.621,64.453
1689255215.945,-66.895,-43.945,-28.809,-64.453,161.133
1689255215.949,-32.715,-43.457,-21.484,-96.191,157.715
1689255215.953,-30.273,-43.457,-18.066,-81.055,110.840
1689255215.957,-69.336,-47.852,-19.531,-39.062,240.723
1689255215.961,-83.984,-45.898,-20.996,-34.180,442.383
1689255215.964,-69.336,-40.039,-23.438,-62.012,216.309
1689255215.968,-39.551,-42.480,-25.879,-87.402,-6.348
1689255215.972,-31.738,-43.945,-22.949,-71.777,174.805
1689255215.976,-73.242,-42.480,-25.879,-29.785,320.312
1689255215.980,-90.332,-38.574,-28.809,-18.555,141.602
1689255215.967,-67.871,-37.109,-29.297,-48.340,45.898
1689255215.971,-40.527,-38.574,-34.668,-83.008,122.559
1689255215.975,-41.016,-42.969,-32.715,-85.449,132.812
1689255215.979,-68.848,-41.992,-34.180,-50.293,143.555
1689255215.983,-74.219,-41.992,-39.551,-25.879,161.133
1689255215.987,-62.500,-46.875,-34.180,-40.039,326.172
1689255215.991,-36.621,-41.504,-32.227,-77.148,403.320
1689255215.994,-31.738,-38.086,-33.203,-82.031,273.438
1689255215.998,-62.012,-36.133,-34.668,-38.574,84.473
1689255216.002,-80.566,-31.738,-33.691,-15.137,158.203
1689255216.006,-73.730,-36.133,-31.250,-37.598,284.180
1689255216.010,-39.551,-34.668,-31.738,-68.359,67.383
1689255216.028,-22.461,-32.715,-35.156,-85.938,41.992
1689255216.032,-49.316,-38.574,-37.598,-57.129,151.367
1689255216.036,-62.012,-42.480,-40.039,-20.020,136.719
1689255216.040,-62.988,-38.574,-41.016,-44.922,19.531
1689255216.044,-58.105,-34.180,-43.457,-82.031,16.602
1689255216.048,-19.531,-37.598,-40.527,-93.750,165.039
1689255216.052,-40.039,-36.621,-34.668,-67.871,191.406
1689255216.055,-79.102,-27.344,-36.133,-32.227,67.871
1689255216.059,-76.172,-25.391,-37.598,-41.504,44.434
1689255216.063,-62.012,-36.133,-30.762,-70.801,325.684
1689255216.067,-28.320,-33.691,-31.250,-91.309,208.984
1689255216.071,-51.758,-27.344,-37.598,-83.008,101.562
1689255216.087,-71.777,-31.738,-38.574,-41.016,195.801
1689255216.091,-71.777,-31.250,-40.039,-43.945,224.609
1689255216.095,-58.594,-31.738,-39.551,-72.754,214.355
1689255216.099,-31.738,-41.016,-32.715,-90.332,87.402
1689255216.103,-37.109,-42.969,-32.227,-65.430,180.664
1689255216.107,-59.570,-41.992,-33.203,-28.809,425.293
1689255216.111,-61.035,-45.410,-32.227,-41.992,302.246
1689255216.114,-36.621,-48.340,-30.762,-65.430,122.070
1689255216.118,-34.180,-47.852,-30.762,-84.961,249.512
1689255216.122,-48.828,-46.875,-33.691,-111.328,454.102
1689255216.126,-42.969,-41.504,-41.992,-51.758,170.898
1689255216.130,-54.199,-42.969,-30.273,7.812,6.348
1689255216.119,-48.828,-44.434,-26.367,-40.039,115.723
1689255216.123,-11.719,-42.969,-20.996,-83.496,96.680
1689255216.127,-11.230,-39.062,-16.602,-88.379,23.438
1689255216.131,-43.945,-35.645,-25.879,-52.246,92.285
1689255216.135,-78.613,-41.992,-28.320,-62.012,276.855
1689255216.139,-15.625,-43.945,-26.367,-77.148,186.035
1689255216.143,41.992,-34.668,-25.879,-86.426,88.867
1689255216.146,37.598,-28.320,-29.785,-66.895,109.375
1689255216.150,-43.457,-30.762,-31.738,-47.852,182.617
1689255216.154,-86.914,-50.293,-15.137,-101.562,137.695
1689255216.158,-26.367,-41.504,-55.176,-46.387,29.297
1689255216.162,88.867,-25.879,-40.039,23.926,47.363
1689255216.162,38.574,-25.879,-20.508,-39.062,333.496
1689255216.166,-41.992,-34.668,-46.387,-12.207,233.887
1689255216.170,35.645,-22.949,-22.949,61.035,59.082
1689255216.174,-6.836,-17.090,-7.812,-15.625,93.262
1689255216.178,13.672,-32.227,-21.973,-22.461,103.027
1689255216.182,61.523,-22.949,-32.227,5.859,187.500
1689255216.186,-9.277,-25.879,-7.324,-29.297,202.148
1689255216.189,-134.766,-83.496,51.270,-117.188,402.344
1689255216.193,-251.953,-74.219,32.715,-205.078,727.539
1689255216.197,49.316,-4.395,-67.871,-13.184,408.203
1689255216.201,150.391,2.930,-99.121,32.227,52.734
1689255216.205,60.059,-39.551,-44.434,-43.945,154.785
1689255216.209,25.879,-59.570,-20.020,76.172,148.438
1689255216.213,-130.371,-44.434,18.066,-20.996,46.875
1689255216.217,-31.250,-33.203,-32.227,-91.797,77.637
1689255216.221,93.262,-42.969,-29.785,-117.188,152.344
1689255216.225,-74.707,4.395,38.574,-287.109,83.496
1689255216.229,-1.953,-14.648,-123.535,82.520,164.062
1689255216.233,144.531,-43.945,-92.285,156.738,276.855
1689255216.236,191.406,-43.945,-55.176,-0.977,403.320
1689255216.240,214.844,-15.625,-166.504,87.891,318.848
1689255216.244,41.992,6.836,-53.223,14.648,137.695
1689255216.248,8.301,28.320,-87.891,47.363,139.160
1689255216.252,142.090,-78.125,-111.328,135.254,190.918
1689255216.252,226.074,-130.859,-81.055,169.922,148.438
1689255216.256,220.215,-57.129,-123.535,105.957,68.848
1689255216.260,190.430,9.766,-105.469,133.789,136.230
1689255216.264,220.215,-61.035,16.602,142.090,189.453
1689255216.268,125.977,-85.938,-24.414,71.777,191.406
1689255216.272,21.484,-64.453,-44.434,-13.184,188.965
1689255216.276,223.145,-94.238,28.809,99.121,289.062
1689255216.279,280.762,-47.852,-59.570,184.570,604.980
1689255216.283,135.742,40.527,-123.535,194.824,397.461
1689255216.287,124.512,-6.348,-30.273,119.141,139.648
1689255216.291,20.996,26.855,0.488,-19.531,221.680
1689255216.295,95.215,-5.371,-81.543,104.492,134.766
1689255216.312,275.391,-72.754,-105.469,171.875,-32.715
1689255216.316,265.625,-77.148,-53.223,210.449,8.301
1689255216.320,104.004,-73.730,1.465,142.578,189.941
1689255216.324,173.340,-56.152,-62.012,143.066,141.113
1689255216.328,236.328,-41.016,-43.457,132.812,19.043
1689255216.332,130.859,-55.176,21.973,-17.578,137.207
1689255216.336,123.535,-60.059,0.000,80.078,419.922
1689255216.339,48.828,-40.527,-19.043,74.707,248.047
1689255216.343,155.273,36.621,-89.355,138.184,8.301
1689255216.347,236.816,83.496,-103.516,168.945,19.531
1689255216.351,195.312,-35.645,-57.617,70.801,73.242
1689255216.355,118.164,-67.871,-51.758,62.012,107.422
1689255216.343,117.188,-47.363,-29.297,78.613,22.461
1689255216.347,62.500,-33.203,-5.859,56.152,126.953
1689255216.351,50.781,-35.156,-29.297,-2.930,211.914
1689255216.355,129.883,-70.801,-22.461,-11.230,68.848
1689255216.359,124.023,-45.898,-24.414,46.387,37.598
1689255216.363,164.062,34.180,-93.750,135.742,249.512
1689255216.367,84.473,-32.227,-1.465,131.836,344.727
1689255216.370,37.598,-98.145,11.719,53.711,178.223
1689255216.374,145.020,17.578,-94.238,27.344,35.645
1689255216.378,114.258,-14.648,-57.617,35.156,203.613
1689255216.382,70.312,-69.824,-33.203,160.645,358.398
1689255216.386,64.453,-26.855,-18.555,60.059,86.426
1689255216.404,38.574,-41.504,-24.902,-81.543,57.617
1689255216.408,33.203,-24.902,-11.230,-16.602,139.160
1689255216.412,97.168,-39.062,14.648,61.035,154.297
1689255216.416,125.977,-43.945,-55.176,107.910,146.484
1689255216.420,15.625,-54.688,31.250,24.902,169.434
1689255216.424,7.324,-71.777,-2.930,-4.395,335.938
1689255216.428,-66.406,12.695,-90.820,13.672,254.395
1689255216.431,-34.180,-13.184,-0.977,-36.621,40.039
1689255216.435,86.426,-46.387,-39.062,69.824,89.844
1689255216.439,38.574,-14.648,-51.270,127.441,230.469
1689255216.443,72.266,-33.203,-18.066,40.039,64.453
1689255216.447,-28.809,-87.891,99.121,-149.902,-91.797
1689255216.447,-9.766,-14.648,54.199,-73.242,-9.766
1689255216.451,40.527,-33.691,-27.344,92.773,148.926
1689255216.455,-89.844,-79.590,-55.664,14.160,147.461
1689255216.459,78.613,-79.590,-50.781,74.219,48.828
1689255216.463,120.117,-32.715,14.160,26.367,161.621
1689255216.467,-51.270,3.906,-32.715,-24.414,251.953
1689255216.471,-24.902,-74.707,-42.480,109.375,231.934
1689255216.474,118.164,-103.516,-62.988,153.809,190.430
1689255216.478,12.695,-72.754,42.969,-24.902,177.246
1689255216.482,13.184,-53.711,47.363,-96.680,429.688
1689255216.486,142.090,-41.016,-121.094,99.121,401.855
1689255216.490,-4.883,-20.996,-63.965,36.133,128.906
1689255216.494,-125.000,-2.441,14.648,-106.934,201.172
1689255216.498,-95.703,-5.371,-61.035,-30.273,229.492
1689255216.502,-69.336,-28.320,-15.625,-33.203,151.367
1689255216.506,87.402,-27.832,-55.664,35.156,164.551
1689255216.510,55.176,-18.555,-41.992,85.449,187.012
1689255216.514,-101.562,-80.078,74.707,-29.297,160.645
1689255216.518,-17.090,-69.824,-40.039,0.000,127.441
1689255216.521,25.391,-36.621,-64.453,30.762,80.078
1689255216.525,39.551,-41.992,-65.430,-13.672,409.180
1689255216.529,18.066,23.926,-58.594,13.672,435.059
1689255216.533,-20.508,17.578,-35.156,-2.930,86.426
1689255216.537,-51.758,-73.730,-33.691,6.348,37.598
1689255216.537,-4.395,-42.969,-61.035,-15.625,86.914
1689255216.541,74.707,-64.941,18.066,-13.184,110.840
1689255216.545,-14.160,-20.020,53.223,-4.395,86.914
1689255216.549,-113.770,47.852,-118.652,-30.273,129.395
1689255216.553,-70.312,6.348,-112.793,-37.598,147.461
1689255216.557,64.453,-56.152,-9.766,48.340,128.906
1689255216.561,34.180,-54.688,-29.785,-28.320,136.230
1689255216.564,-31.250,2.930,0.000,-100.586,292.969
1689255216.568,13.184,24.414,-37.109,63.965,564.941
1689255216.572,8.301,-28.809,-112.793,96.191,274.902
1689255216.576,-94.727,-42.969,0.000,-84.473,17.090
1689255216.580,4.883,-22.461,42.480,-109.375,172.363
1689255216.584,102.051,-21.973,-80.566,3.418,212.891
1689255216.588,-48.828,-48.340,-46.875,15.625,123.535
1689255216.592,-27.832,15.625,-68.848,45.898,108.887
1689255216.596,100.586,9.277,-77.637,59.082,150.879
1689255216.600,45.410,-42.969,-11.719,-15.625,106.934
1689255216.604,-88.379,8.301,-57.617,-77.637,110.840
1689255216.608,-87.402,5.371,-21.484,-79.102,200.684
1689255216.611,-49.316,-39.062,0.000,-57.129,336.426
1689255216.615,-82.031,-39.062,77.148,-41.504,182.617
1689255216.619,14.160,-38.574,-5.371,47.852,57.129
1689255216.623,15.137,-54.688,12.695,10.254,97.656
1689255216.627,-55.176,-73.730,42.969,15.625,121.094
1689255216.628,-84.961,-16.602,-94.727,32.715,164.551
1689255216.632,-135.254,0.488,-59.570,-86.914,160.645
1689255216.636,19.531,-27.832,20.508,-123.535,145.508
1689255216.640,38.574,-28.320,-60.059,-52.246,202.148
1689255216.644,-89.355,-23.926,-67.383,40.039,167.969
1689255216.648,-109.863,-53.711,8.301,-33.691,149.414
1689255216.652,-25.879,-71.777,0.000,-12.695,204.102
1689255216.655,16.113,-33.203,-35.156,63.965,470.215
1689255216.659,-100.098,-65.918,-26.855,-59.570,272.949
1689255216.663,-94.238,-101.562,-9.277,-35.645,18.066
1689255216.667,-131.836,-54.688,7.812,-55.176,117.188
1689255216.671,-104.004,-44.922,-19.043,-81.055,84.961
1689255216.689,-38.086,-5.859,-46.387,-74.707,25.391
1689255216.693,-59.082,-31.250,-52.734,-110.352,78.125
1689255216.697,-38.574,-36.621,-47.363,-43.945,188.477
1689255216.701,-100.098,-78.613,21.484,43.457,258.789
1689255216.705,-80.078,-115.723,52.734,-33.203,203.613
1689255216.709,9.766,-32.227,-57.617,-34.180,187.500
1689255216.713,-19.043,-45.898,35.156,40.527,401.855
1689255216.716,-46.387,-27.832,-16.113,-16.602,393.555
1689255216.720,-68.848,33.691,-59.082,-36.621,108.398
1689255216.724,-45.410,-24.414,-39.551,79.102,99.121
1689255216.728,-46.875,-91.309,-32.227,-85.938,74.219
1689255216.732,-95.703,-56.152,-3.418,-183.105,9.277
1689255216.717,-71.289,-50.781,14.648,-38.086,91.309
1689255216.721,-87.402,-26.855,-37.109,-16.602,136.230
1689255216.725,-123.047,9.766,-100.586,-61.035,141.602
1689255216.729,-68.848,-39.551,-33.203,-0.488,88.379
1689255216.733,47.363,-73.730,46.387,-53.223,83.008
1689255216.737,26.367,-21.973,-11.230,-94.727,264.648
1689255216.741,-92.285,-46.387,-59.082,-20.996,372.070
1689255216.744,-72.754,-106.445,6.836,26.855,269.531
1689255216.748,-51.758,-64.941,-31.738,-20.508,156.250
1689255216.752,-86.914,8.301,-27.832,-98.145,132.812
1689255216.756,-80.566,-40.039,-41.992,-86.914,439.453
1689255216.760,24.902,-69.336,-31.738,-11.230,339.355
1689255216.778,31.250,-51.270,-22.461,1.953,38.574
1689255216.782,-90.820,-38.086,16.113,-135.254,104.980
1689255216.786,-58.594,-23.926,-13.672,-127.441,121.094
1689255216.790,-3.418,-45.410,-58.594,34.668,104.492
1689255216.794,-61.035,-39.551,-62.012,-87.891,93.750
1689255216.798,-84.473,-63.965,-7.324,-116.211,231.934
1689255216.802,-5.371,-27.832,-82.031,69.336,182.129
1689255216.805,23.926,20.020,-82.520,0.488,26.367
1689255216.809,-52.734,-65.918,58.594,-101.562,153.809
1689255216.813,-54.199,-62.500,29.785,39.551,403.320
1689255216.817,-0.977,-40.527,-31.250,90.332,249.023
1689255216.821,-49.316,-3.418,62.012,-89.844,14.648
1689255216.822,-26.367,9.766,24.414,-101.562,24.414
1689255216.826,7.324,-75.195,-12.695,5.371,54.688
1689255216.830,23.926,-80.566,-20.996,42.969,69.336
1689255216.834,-61.523,4.883,-51.758,-4.883,-24.414
1689255216.838,-49.316,15.137,-75.195,27.832,-19.531
1689255216.842,-103.516,-54.199,10.742,-73.242,123.535
1689255216.846,-162.109,-46.387,41.016,-208.496,254.883
1689255216.849,90.332,-1.465,-73.730,83.984,276.367
1689255216.853,-50.781,51.758,-9.277,50.781,295.898
1689255216.857,-147.949,-62.988,81.055,-41.504,478.027
1689255216.861,6.836,-78.125,19.043,-21.484,283.203
1689255216.865,52.246,-42.480,-62.988,-22.949,10.742
1689255216.869,-28.320,-61.523,-32.227,-22.461,189.453
1689255216.873,-177.246,-46.387,7.812,-115.234,173.340
1689255216.877,-108.398,-18.066,-7.324,-67.383,-7.812
1689255216.881,-44.434,8.789,-5.859,-76.172,24.902
1689255216.885,-63.477,-26.367,51.270,-145.508,66.895
1689255216.889,-50.293,-118.652,-27.344,10.254,218.262
1689255216.893,-40.039,-53.223,-42.969,-3.906,286.133
1689255216.896,21.973,-5.371,-83.008,14.648,179.199
1689255216.900,-28.809,-35.645,-15.625,24.902,319.824
1689255216.904,-74.219,-37.598,-29.297,-81.055,188.477
1689255216.908,-61.035,-32.227,-55.664,-70.312,-12.695
1689255216.912,-167.480,-26.367,134.766,-103.516,49.316
1689255216.912,-98.145,-80.566,-5.371,-57.617,155.762
1689255216.916,-22.461,-42.480,-96.191,-54.199,134.766
1689255216.920,38.086,-74.219,-22.949,-95.703,21.484
1689255216.924,78.125,-78.125,-33.691,42.969,94.727
1689255216.928,-67.383,-26.367,1.953,28.809,224.121
1689255216.932,-142.090,-39.551,24.902,-51.270,254.395
1689255216.936,-97.168,-34.180,-42.480,-58.594,208.008
1689255216.939,-54.688,-21.484,-76.660,-146.973,351.562
1689255216.943,-42.480,10.742,-67.383,-75.195,563.965
1689255216.947,-59.082,-24.414,-19.531,27.344,282.227
1689255216.951,-52.246,-58.594,-44.922,-12.207,92.285
1689255216.955,29.297,-26.855,-47.363,-26.367,146.484
1689255216.960,-35.645,-87.891,86.426,-118.164,63.477
1689255216.964,-116.699,-48.828,-5.859,-87.402,9.766
1689255216.968,-132.324,2.930,-63.965,-100.586,110.352
1689255216.972,-15.625,-18.066,-127.930,6.836,326.172
1689255216.976,12.695,-14.648,-63.477,53.711,167.969
1689255216.980,-63.477,-60.059,44.434,-87.891,9.277
1689255216.984,-97.656,-30.762,-45.410,-145.020,157.715
1689255216.987,-90.332,-25.879,-17.090,-21.973,398.438
1689255216.991,-41.992,-27.344,-27.344,127.441,316.406
1689255216.995,-22.461,-24.414,-58.594,-10.742,85.938
1689255216.999,-42.480,-30.762,-51.758,-142.578,119.629
1689255217.003,-74.707,12.207,-35.156,-77.637,177.246
1689255217.002,-107.422,-41.016,49.316,-108.398,169.922
1689255217.006,-61.523,-96.191,-1.465,-18.555,145.020
1689255217.010,8.301,-27.832,-100.098,115.723,131.348
1689255217.014,22.949,1.465,-77.148,21.973,110.352
1689255217.018,-26.855,-71.777,35.645,-29.297,125.977
1689255217.022,-123.535,-100.098,41.504,-68.359,161.621
1689255217.026,-107.422,31.250,-74.707,-78.125,234.863
1689255217.029,-23.438,-30.273,-54.688,-34.668,543.945
1689255217.033,-72.266,-77.637,1.465,-168.457,397.461
1689255217.037,-11.719,-70.801,-40.527,-67.871,81.055
1689255217.041,-27.344,-57.617,-83.496,50.293,193.359
1689255217.045,-96.680,-25.391,4.883,-34.668,185.547
1689255217.062,-73.242,-72.754,33.691,-88.379,84.961
1689255217.066,-54.688,-46.875,-56.152,-79.590,119.629
1689255217.070,34.180,-83.008,-52.734,-40.039,144.043
1689255217.074,-52.246,-40.527,-57.617,-72.266,163.086
1689255217.078,-148.438,-22.949,-68.848,-92.285,100.586
1689255217.082,-28.809,-66.406,-30.762,0.000,162.109
1689255217.086,-42.480,-53.711,-40.527,-55.176,428.711
1689255217.089,-105.469,-61.523,30.273,-192.383,312.012
1689255217.093,-60.059,33.203,-24.414,-61.035,104.492
1689255217.097,-31.738,-25.879,-58.594,-19.531,179.688
1689255217.101,-13.672,-58.594,-48.340,-15.137,219.727
1689255217.105,-85.449,-39.551,-59.082,-71.777,123.535
1689255217.092,-64.453,-45.410,-66.895,-58.594,94.727
1689255217.096,-0.488,-45.410,-32.715,-48.340,82.031
1689255217.100,-157.715,-50.293,55.176,-162.598,147.949
1689255217.104,-145.996,3.906,-104.004,-24.414,235.840
1689255217.108,-0.488,-64.453,-70.801,3.418,154.785
1689255217.112,-31.250,-91.797,111.328,-188.965,212.402
1689255217.116,-55.176,-0.977,-26.855,-114.746,337.891
1689255217.119,-97.656,28.809,-122.559,29.785,293.945
1689255217.123,-140.137,-43.945,4.883,-13.672,104.004
1689255217.127,-85.449,-58.594,-17.578,-85.938,231.445
1689255217.131,-39.062,-46.387,-68.848,-73.242,454.102
1689255217.135,-25.391,-77.637,50.293,-33.203,140.137
1689255217.153,-55.664,-51.758,-41.992,-24.414,44.922
1689255217.157,-117.676,-58.105,-71.777,-75.684,161.133
1689255217.161,-146.484,-52.734,101.562,-132.324,117.188
1689255217.165,-62.500,3.906,-47.852,-126.465,80.078
1689255217.169,-2.441,-34.668,-53.711,-12.207,117.188
1689255217.173,-35.645,-108.887,9.766,47.363,268.555
1689255217.177,-121.094,-29.785,-13.672,-8.789,329.590
1689255217.180,-89.355,-40.527,8.789,-60.059,172.852
1689255217.184,-13.672,-51.758,-36.133,-78.125,114.258
1689255217.188,-26.855,-18.066,-51.758,-44.434,298.340
1689255217.192,-15.625,-38.574,-66.406,33.203,206.543
1689255217.196,-165.527,10.254,11.230,-114.258,124.512
1689255217.197,-224.609,-52.246,47.852,-176.758,221.191
1689255217.201,-51.758,-49.316,-104.004,-46.875,224.609
1689255217.205,19.043,18.066,-84.961,5.371,67.871
1689255217.209,-11.719,-15.137,5.371,-68.848,-27.832
1689255217.213,-90.820,-57.129,15.625,-113.281,93.262
1689255217.217,-30.762,-51.758,-56.641,-3.906,279.785
1689255217.221,-34.668,12.207,-34.668,-53.223,219.238
1689255217.224,-51.758,-6.836,-14.160,-96.191,108.887
1689255217.228,40.527,-83.984,15.137,10.254,197.754
1689255217.232,-33.691,-55.664,16.113,-41.016,400.391
1689255217.236,-111.816,-16.602,-52.734,-106.445,184.570
1689255217.240,11.230,-27.832,-62.500,-36.133,-36.133
1689255217.245,-57.617,-34.668,-21.484,-81.055,105.957
1689255217.249,-105.957,-25.391,-61.523,-64.941,134.277
1689255217.253,-96.191,12.207,-55.664,-21.973,57.617
1689255217.257,-122.559,-78.613,31.738,-79.590,110.840
1689255217.261,-103.027,-82.520,-31.738,-49.805,184.082
1689255217.265,-47.852,4.883,-50.781,-91.797,98.145
1689255217.269,-25.879,16.113,-63.477,-141.113,75.684
1689255217.272,-23.926,-27.832,-58.105,-17.578,81.543
1689255217.276,-137.695,-37.598,-29.785,-4.395,274.902
1689255217.280,-103.027,-35.156,-27.832,-131.348,263.672
1689255217.284,-57.129,-6.348,-1.465,-76.172,46.875
1689255217.288,-82.520,-42.969,27.832,-40.527,100.586
1689255217.287,-23.438,-62.500,-52.734,-63.965,177.246
1689255217.291,-60.547,-15.625,-107.422,-44.922,161.133
1689255217.295,-116.699,-15.625,-33.203,-114.258,122.559
1689255217.299,-55.176,6.836,-25.391,-142.578,89.844
1689255217.303,16.602,-47.363,10.254,-31.250,154.785
1689255217.307,-24.414,-79.102,-15.625,-31.250,217.285
1689255217.311,-135.742,-18.555,-82.031,-62.500,173.340
1689255217.314,-90.820,-1.953,-96.191,29.297,270.020
1689255217.318,-34.668,-37.598,-9.277,-79.590,541.016
1689255217.322,-57.129,-63.477,20.996,-132.324,418.457
1689255217.326,-84.961,-64.941,31.250,-116.699,118.652
1689255217.330,-62.012,-37.109,-28.320,-116.699,122.559
1689255217.334,-27.832,48.828,-119.629,-36.133,85.449
1689255217.338,-38.574,35.156,-74.219,3.418,-24.902
1689255217.342,0.000,-11.230,-67.383,42.969,-5.371
1689255217.346,-61.523,-19.043,48.340,-54.688,127.441
1689255217.350,-83.984,-66.406,95.703,-124.512,131.348
1689255217.354,-4.883,-13.184,-76.660,-79.102,111.816
1689255217.358,-37.109,28.809,-40.039,-3.906,211.914
1689255217.361,-118.164,-39.062,77.637,-149.902,407.715
1689255217.365,-15.137,-67.871,0.488,-143.555,357.910
1689255217.369,46.875,-11.719,-81.543,40.039,125.488
1689255217.373,-42.969,-11.719,-65.430,27.832,70.801
1689255217.377,-110.840,-1.953,-61.523,-116.211,25.391
1689255217.377,-145.508,-41.992,28.809,-171.387,-29.785
1689255217.381,-46.875,-82.031,7.324,-97.656,33.691
1689255217.385,-24.414,-35.156,-39.062,-64.453,110.352
1689255217.389,-209.473,40.527,-4.395,-93.262,96.191
1689255217.393,-89.844,-0.488,-11.230,-43.457,29.297
1689255217.397,93.750,-29.297,-59.082,0.977,65.430
1689255217.401,1.953,-2.930,-64.941,-41.992,206.055
1689255217.404,-89.844,-62.988,11.719,-23.438,505.859
1689255217.408,-102.051,-1.465,-18.555,-37.598,325.195
1689255217.412,2.441,13.672,-83.496,-49.805,100.586
1689255217.416,-15.625,-50.781,-27.344,-105.469,180.664
1689255217.420,-68.848,-47.363,-39.551,-71.289,90.820
1689255217.437,-76.660,-25.391,-57.617,13.184,35.156
1689255217.441,-125.488,-26.855,75.195,-67.871,113.281
1689255217.445,-11.719,-63.477,-43.945,-44.922,166.504
1689255217.449,-32.715,-57.617,18.066,-153.809,95.703
1689255217.453,-127.441,43.945,17.090,-183.594,105.957
1689255217.457,-30.273,-24.902,-96.680,26.367,248.047
1689255217.461,-1.953,-41.992,-20.508,15.625,505.371
1689255217.464,-19.043,20.996,-13.184,-40.527,333.496
1689255217.468,-81.543,9.766,-76.172,-73.730,73.242
1689255217.472,-96.680,-79.590,0.000,-67.871,123.047
1689255217.476,-105.469,-83.496,83.008,-70.312,198.730
1689255217.480,-133.789,-60.547,-6.836,-56.152,186.523
1689255217.468,-27.344,-41.016,-81.543,-14.160,120.605
1689255217.472,-18.066,-18.555,-16.113,-69.824,127.441
1689255217.476,-69.336,-20.996,-16.602,-55.664,226.562
1689255217.480,0.488,-8.789,-41.992,-25.391,195.801
1689255217.484,-43.457,-0.488,-12.695,-136.719,124.023
1689255217.488,-155.273,23.926,-51.758,-72.266,214.844
1689255217.492,-63.477,-68.359,34.180,-113.770,287.109
1689255217.495,47.363,-110.352,19.043,-138.184,203.125
1689255217.499,-64.453,-26.855,-54.199,-7.324,104.004
1689255217.503,-201.172,-0.977,-16.602,-78.613,186.523
1689255217.507,-121.582,-35.645,20.020,-107.910,332.520
1689255217.511,-73.730,-71.289,31.250,-68.359,151.367
1689255217.529,9.277,-38.086,-56.641,-2.441,104.980
1689255217.533,-43.945,11.719,-77.637,-27.832,230.469
1689255217.537,-49.805,-57.129,-43.945,-40.039,219.727
1689255217.541,-71.777,-62.988,65.918,-145.996,75.195
1689255217.545,-112.793,-15.625,47.852,-129.395,-8.789
1689255217.549,-82.520,31.250,-69.336,-96.680,322.266
1689255217.553,-118.652,-11.230,-54.199,-78.613,428.223
1689255217.556,-114.746,-95.215,-30.762,11.719,156.250
1689255217.560,-70.312,-92.285,14.648,-62.988,137.207
1689255217.564,-16.602,-32.227,-30.273,-54.688,233.398
1689255217.568,-15.137,-7.324,-46.387,24.902,113.281
1689255217.572,-50.293,-16.602,13.672,-78.613,47.363
1689255217.572,-60.059,18.555,-67.383,-41.016,165.527
1689255217.576,-21.973,-1.465,-96.680,74.707,105.469
1689255217.580,-20.020,-41.504,-46.387,14.648,-1.953
1689255217.584,-75.684,-25.879,-46.875,-24.902,52.734
1689255217.588,-81.543,-26.855,-35.645,-110.352,198.242
1689255217.592,-51.270,-56.641,-39.062,-83.496,321.777
1689255217.596,-155.762,-72.266,95.703,-71.777,307.129
1689255217.599,-81.543,-38.086,-64.941,-47.363,145.996
1689255217.603,21.484,-56.152,-100.098,-35.156,188.477
1689255217.607,-168.945,9.766,-3.418,-139.160,435.547
1689255217.611,-123.047,42.969,-73.730,-73.730,310.547
1689255217.615,31.250,-25.879,-106.445,0.488,116.699
1689255217.619,-55.176,5.371,3.906,-64.453,145.020
1689255217.623,-123.047,-59.570,55.176,-152.832,82.520
1689255217.627,-93.750,-65.918,-55.176,-104.980,18.066
1689255217.631,-84.961,-27.344,-72.754,-24.902,123.047
1689255217.635,-87.402,5.371,-34.668,-84.961,214.355
1689255217.639,-70.801,0.977,-9.277,-145.020,213.379
1689255217.643,-143.555,-40.039,26.855,-134.766,146.484
1689255217.646,-81.543,-21.973,-40.527,-122.070,220.215
1689255217.650,-43.457,1.465,-100.098,-142.090,436.035
1689255217.654,-206.055,-17.090,-53.223,-62.500,319.824
1689255217.658,-98.633,-0.488,-12.207,4.883,-10.254
1689255217.662,3.418,-26.855,-49.316,-44.434,25.391
1689255217.662,-16.602,-65.430,-32.715,-87.891,125.000
1689255217.666,-32.227,-51.270,-24.902,-87.402,75.195
1689255217.670,-84.961,-17.090,5.859,-87.891,30.273
1689255217.674,-82.031,-34.668,-26.855,-119.629,34.180
1689255217.678,-31.738,-12.695,-90.820,-95.703,70.312
1689255217.682,4.395,-25.391,7.324,-44.922,116.211
1689255217.686,-67.871,-50.781,34.668,9.277,223.145
1689255217.689,-152.344,-44.922,-32.227,-94.238,322.266
1689255217.693,-171.875,5.371,0.000,-166.016,514.648
1689255217.697,-59.082,-30.273,-52.734,-98.145,479.980
1689255217.701,42.969,-67.871,-98.145,-5.859,115.234
1689255217.705,-40.039,-33.203,2.930,-50.293,95.215
1689255217.709,-137.695,2.441,-18.555,-107.910,115.723
1689255217.713,-50.293,-67.871,-16.113,-20.020,62.012
1689255217.717,5.859,-53.223,-31.738,-34.180,93.750
1689255217.721,-117.676,16.113,-56.152,-225.098,84.473
1689255217.725,-155.273,-44.922,-30.762,-197.754,90.820
1689255217.729,-22.461,-62.500,-64.941,65.430,165.039
1689255217.733,-36.621,-59.570,-22.461,56.641,170.898
1689255217.736,-54.199,-53.711,6.836,-142.090,336.426
1689255217.740,-79.590,-28.809,-20.020,-138.672,324.219
1689255217.744,-81.055,-46.875,-92.285,-11.719,99.609
1689255217.748,-156.738,-78.125,41.016,-137.207,131.348
1689255217.752,-107.910,-42.480,-35.156,-86.426,253.906
1689255217.752,4.395,-37.598,-132.812,-2.930,120.117
1689255217.756,-23.926,-65.430,-40.527,-72.754,29.785
1689255217.760,-38.086,-37.598,43.945,-47.852,177.734
1689255217.764,-65.918,-23.438,-10.742,-53.223,278.320
1689255217.768,-78.125,8.789,-80.566,-67.383,168.457
1689255217.772,-12.207,-17.578,-23.438,-36.621,81.543
1689255217.776,-42.969,-80.078,41.504,-87.402,249.023
1689255217.779,-87.891,-27.832,-82.031,-88.379,561.523
1689255217.783,-89.355,-6.836,-62.500,-96.680,329.102
1689255217.787,-139.160,-13.672,-58.594,-121.582,77.148
1689255217.791,-89.355,-31.738,-65.918,-37.598,113.281
1689255217.795,11.230,-56.152,-30.762,-53.223,98.633
1689255217.800,25.391,-35.156,-0.977,-37.109,83.984
1689255217.804,-102.051,7.812,-37.109,-54.688,161.133
1689255217.808,-76.172,-42.480,-31.738,-30.762,305.664
1689255217.812,16.113,-64.941,-1.953,-0.977,205.566
1689255217.816,-169.922,-21.973,-21.484,-275.391,14.648
1689255217.820,-107.422,-29.785,-67.383,-195.801,202.148
1689255217.824,81.543,-52.246,-53.223,51.270,518.066
1689255217.827,-41.992,25.391,-67.871,-13.672,327.148
1689255217.831,-96.680,-22.949,-58.594,-166.016,44.922
1689255217.835,46.875,-41.504,-72.266,-117.188,71.289
1689255217.839,-0.977,-23.926,41.016,-46.387,170.898
1689255217.843,-47.852,-59.570,-4.395,-57.617,118.164
1689255217.842,-62.500,-73.242,-37.598,-84.961,92.773
1689255217.846,-46.387,-61.035,-13.672,-62.500,136.230
1689255217.850,7.324,-41.992,-52.246,-49.805,126.465
1689255217.854,-63.477,-30.273,-64.453,-73.242,134.277
1689255217.858,-96.191,-6.836,-43.457,-89.355,127.930
1689255217.862,-115.234,-25.391,-25.391,-49.805,213.867
1689255217.866,-134.277,18.066,-80.566,-74.707,541.016
1689255217.869,-81.543,-35.156,76.660,-129.883,345.215
1689255217.873,14.160,-114.258,73.730,-80.078,108.398
1689255217.877,20.508,-44.434,-54.688,-10.742,180.664
1689255217.881,-115.723,-45.898,-38.574,-77.148,181.152
1689255217.885,-145.508,-38.574,-85.938,-132.812,65.918
1689255217.904,7.812,-11.719,-50.293,-23.926,41.992
1689255217.908,60.059,-11.719,-10.254,10.742,148.926
1689255217.912,-115.723,-12.207,-42.969,-101.562,129.883
1689255217.916,-136.230,-35.645,-60.059,-129.395,48.828
1689255217.920,-105.469,-45.898,16.602,-89.355,69.336
1689255217.924,-49.316,-57.617,-16.113,-78.125,192.871
1689255217.928,-54.199,-20.020,-38.086,-78.125,232.422
1689255217.931,-149.414,10.254,-80.078,-133.789,195.801
1689255217.935,-122.559,-40.039,-19.043,-81.055,136.230
1689255217.939,-105.957,-14.648,40.039,-17.578,349.609
1689255217.943,-98.145,-30.273,-67.383,-74.707,301.758
1689255217.947,-22.949,-80.566,-62.012,-82.031,-47.852
1689255217.947,-16.113,-39.551,7.324,-11.230,-17.090
1689255217.951,-90.820,-4.883,-16.113,-26.855,62.500
1689255217.955,-118.164,-35.645,-22.461,-59.082,71.289
1689255217.959,-64.941,-57.129,-13.672,-50.781,65.430
1689255217.963,-81.543,-9.766,-58.594,-97.168,78.125
1689255217.967,-85.938,5.371,-58.105,-149.414,178.711
1689255217.971,-103.516,-46.875,-7.324,-71.777,300.781
1689255217.974,-140.625,-11.230,-8.789,-26.855,269.043
1689255217.978,-164.062,39.551,-38.086,-135.742,246.094
1689255217.982,-69.336,-61.523,-45.410,-88.867,480.469
1689255217.986,-7.324,-92.285,-7.324,-69.824,370.605
1689255217.990,-149.414,-50.293,91.797,-189.453,108.887
1689255217.994,-152.344,-12.695,-91.797,-78.613,127.441
1689255217.998,-121.094,-20.996,-83.008,-19.531,106.445
1689255218.002,-44.434,-43.945,53.223,-113.770,55.664
1689255218.006,-34.180,27.344,-80.566,-73.730,112.305
1689255218.010,-93.750,-13.672,-35.645,-52.246,149.902
1689255218.014,-184.570,-99.121,104.980,-149.414,89.355
1689255218.018,-133.789,-13.672,-50.781,-66.895,107.422
1689255218.021,-77.637,35.645,-76.172,-50.781,181.641
1689255218.025,-86.426,-50.293,9.766,-130.371,354.980
1689255218.029,-93.750,-20.508,-47.363,-75.195,296.387
1689255218.033,-124.512,-17.578,-56.641,-81.055,141.113
1689255218.037,-83.008,-41.504,-47.852,-73.242,165.039
1689255218.037,-106.934,-56.641,0.488,-88.379,147.461
1689255218.041,-124.023,-73.242,-19.531,-109.863,76.660
1689255218.045,-41.016,-34.180,-48.340,-4.395,102.539
1689255218.049,-130.859,-61.523,22.949,-38.574,152.344
1689255218.053,-150.391,-49.316,-6.836,-99.121,153.809
1689255218.057,-6.836,-44.922,-76.172,-3.418,183.594
1689255218.061,-52.734,-28.320,-35.156,-96.680,122.070
1689255218.064,-112.793,-15.625,-4.883,-126.953,213.379
1689255218.068,-94.727,-32.227,-58.105,-19.043,427.734
1689255218.072,-134.766,-13.184,10.742,-90.820,262.207
1689255218.076,-101.562,-71.289,52.734,-87.402,59.082
1689255218.080,-76.660,-43.945,-55.664,-137.207,127.441
1689255218.085,-153.809,-35.156,-22.949,-191.406,168.945
1689255218.089,-96.191,-54.199,-24.902,-59.082,182.129
1689255218.093,-56.152,-7.324,-94.727,33.691,101.074
1689255218.097,-113.281,-41.016,-49.316,-53.711,167.480
1689255218.101,-182.617,-47.852,28.320,-201.172,114.746
1689255218.105,-176.758,-63.477,69.336,-164.062,36.133
1689255218.109,5.859,-45.898,-70.801,-10.742,190.918
1689255218.112,-62.012,-44.434,1.953,-77.637,386.230
1689255218.116,-186.523,-72.754,68.359,-130.859,296.875
1689255218.120,-44.922,-6.348,-100.586,-86.914,28.320
1689255218.124,44.922,-26.367,-46.875,25.391,22.949
1689255218.128,-83.008,-40.527,-12.207,-45.410,150.391
1689255218.127,-132.812,-71.777,-33.203,-65.918,178.223
1689255218.131,-79.102,-27.344,-21.973,-14.648,132.324
1689255218.135,-78.613,-18.555,-20.508,-89.355,115.234
1689255218.139,-104.980,-59.570,-46.875,-123.535,196.289
1689255218.143,-121.094,-13.672,-31.250,-120.605,183.594
1689255218.147,-132.324,-50.293,46.875,-137.695,166.016
1689255218.151,-88.867,-65.430,-5.859,-51.758,318.848
1689255218.154,-38.086,-9.766,-52.246,-104.980,536.621
1689255218.158,-110.840,-24.902,-37.598,-148.438,416.992
1689255218.162,-71.289,-43.945,-26.855,45.898,176.270
1689255218.166,-106.445,-18.066,-11.230,-26.855,176.758
1689255218.170,-88.867,-2.441,-57.617,-87.402,158.203
1689255218.174,-112.793,-34.180,-37.109,-104.980,69.336
1689255218.178,-185.547,-89.844,-4.395,-202.637,35.645
1689255218.182,-110.840,-33.203,-32.227,-49.316,160.645
1689255218.186,-15.137,1.465,-50.293,24.902,217.773
1689255218.190,-104.980,3.418,-34.180,-101.562,166.992
1689255218.194,-79.590,-8.789,-22.461,-101.562,206.543
1689255218.198,-63.965,0.977,-59.082,-94.238,436.523
1689255218.201,-97.656,-37.598,-40.527,-72.266,339.844
1689255218.205,-133.301,-47.363,-16.602,-62.012,28.809
1689255218.209,-171.387,0.000,-62.500,-104.004,82.031
1689255218.213,-77.148,-39.551,14.160,-121.094,261.719
1689255218.217,-28.809,-41.504,-9.766,-104.980,123.047
1689255218.217,-175.781,28.809,-35.156,-121.582,104.004
1689255218.221,-117.676,0.977,-57.617,-41.016,179.199
1689255218.225,-78.613,-18.555,-53.223,-80.078,119.141
1689255218.229,-113.281,-79.102,43.945,-234.375,68.848
1689255218.233,-32.715,-70.801,-20.508,-119.141,99.121
1689255218.237,-41.016,-49.316,-91.309,-39.062,263.184
1689255218.241,-118.164,-47.852,-79.102,-70.312,412.109
1689255218.244,-138.672,41.992,-21.484,-59.570,225.586
1689255218.248,-132.324,9.766,-27.832,-50.293,63.477
1689255218.252,-91.309,-21.973,-80.566,-111.328,246.582
1689255218.256,-76.660,0.488,-12.207,-104.492,432.129
1689255218.260,-95.703,-65.430,0.000,-29.297,179.688
1689255218.278,-144.043,-54.199,-27.832,-89.355,20.508
1689255218.282,-152.832,-60.059,-2.930,-157.715,69.824
1689255218.286,-79.590,-74.707,-70.312,-106.445,41.504
1689255218.290,-39.062,-18.555,-100.586,-34.180,84.473
1689255218.294,-68.359,11.719,-58.105,-34.180,172.852
1689255218.298,-63.965,-14.160,-48.828,-21.484,277.832
1689255218.302,-68.359,-18.555,-20.996,-87.402,255.371
1689255218.305,-54.688,-26.367,21.484,-135.742,164.551
1689255218.309,-11.719,-20.508,-98.145,-9.766,193.359
1689255218.313,-88.379,-23.438,-82.031,29.297,370.605
1689255218.317,-123.535,-72.266,14.648,-108.887,286.133
1689255218.321,-168.945,-0.977,-60.547,-179.688,48.340
1689255218.322,-123.535,19.531,-75.195,-146.484,39.062
1689255218.326,-26.855,-52.246,-74.219,-68.848,119.629
1689255218.330,-90.332,-93.262,-18.066,-93.750,59.570
1689255218.334,-83.984,-82.520,12.695,-56.152,49.805
1689255218.338,-71.289,-34.668,-20.508,-58.105,65.430
1689255218.342,-37.109,2.441,-81.055,-88.379,127.930
1689255218.346,-33.203,-48.828,-18.066,-78.613,166.016
1689255218.349,-175.293,-1.465,-3.906,-137.695,187.500
1689255218.353,-197.754,-33.203,-54.199,-86.914,349.609
1689255218.357,-85.449,-32.227,-9.277,-56.641,564.941
1689255218.361,-56.641,15.137,-30.762,-98.633,352.539
1689255218.365,-66.406,-5.859,-14.160,-123.535,63.477
1689255218.369,-145.996,-43.457,18.555,-42.969,126.465
1689255218.373,-59.570,-65.918,-38.086,11.230,120.605
1689255218.377,-96.191,-56.641,-3.906,-85.449,26.367
1689255218.381,-128.418,-74.707,-34.668,-123.047,73.242
1689255218.385,11.719,-83.496,-74.219,-38.086,241.211
1689255218.389,-66.895,-41.992,-25.879,-46.875,290.527
1689255218.393,-177.246,5.859,-20.996,-51.270,147.949
1689255218.396,-54.199,-15.137,-29.785,-50.293,172.852
1689255218.400,8.789,-29.785,-62.012,-55.176,388.672
1689255218.404,-20.508,-39.551,-62.988,-78.613,211.914
1689255218.408,-78.613,-28.320,18.066,-99.609,72.266
1689255218.412,-137.695,26.855,-22.461,-63.965,157.227
1689255218.413,-108.398,-39.551,-27.344,-78.125,157.715
1689255218.417,-82.031,-32.715,-32.715,-124.512,66.406
1689255218.421,-81.543,-21.484,37.109,-196.289,92.773
1689255218.425,-121.094,-68.359,-13.672,-105.957,256.836
1689255218.429,-24.902,-43.945,-134.766,72.754,229.004
1689255218.433,-31.738,-8.301,-66.406,-4.395,200.195
1689255218.437,-38.574,-12.207,-47.852,-96.680,158.203
1689255218.440,-38.574,-26.367,-0.977,-157.715,209.473
1689255218.444,-112.793,-36.133,26.367,-179.199,479.004
1689255218.448,-90.332,-16.602,-3.418,-69.824,228.516
1689255218.452,-145.996,-26.367,-60.059,-151.855,-28.320
1689255218.456,-109.375,4.395,-72.754,-151.855,62.012
1689255218.459,46.387,-52.246,-72.754,-44.434,82.031
1689255218.463,29.785,-95.215,-52.246,-22.949,110.840
1689255218.467,-63.965,-54.688,18.555,-54.199,200.195
1689255218.471,-136.230,-8.789,-46.387,-58.105,209.961
1689255218.475,-73.242,-11.719,-44.922,-50.781,129.395
1689255218.479,0.977,-63.477,10.254,-81.055,195.312
1689255218.483,-12.207,-79.590,26.855,-56.152,304.199
1689255218.486,-84.961,-41.504,-29.297,-41.016,523.926
1689255218.490,-168.457,-7.812,-30.762,-67.383,420.410
1689255218.494,-135.742,-55.664,10.742,-73.242,70.801
1689255218.498,-27.344,-87.891,-32.227,-109.375,99.609
1689255218.502,-18.555,-21.973,-54.688,-97.656,166.016
1689255218.502,-151.855,47.363,-61.523,-69.824,159.180
1689255218.506,-150.391,-71.289,25.391,-73.730,114.746
1689255218.510,-31.250,-123.047,16.113,-3.418,138.184
1689255218.514,-34.180,-59.082,20.508,-86.426,166.992
1689255218.518,-75.684,-16.113,-52.246,-66.895,108.398
1689255218.522,-150.391,-39.551,2.930,-106.934,109.375
1689255218.526,-103.027,-79.590,59.082,-64.941,224.121
1689255218.529,-8.789,-38.086,-70.312,11.230,511.230
1689255218.533,-129.883,18.066,-77.637,-190.430,276.367
1689255218.537,-90.820,-24.414,-12.207,-154.785,-32.715
1689255218.541,-63.477,-25.391,-14.648,3.418,147.461
1689255218.545,-91.309,-51.758,4.883,-48.340,250.000
1689255218.549,-65.918,-28.809,-83.008,-68.848,116.211
1689255218.553,-59.570,-50.293,-84.473,-71.777,69.336
1689255218.557,-38.086,-84.961,29.297,-99.121,144.043
1689255218.561,-126.465,-55.176,46.875,-99.609,81.543
1689255218.565,-97.656,-45.898,-62.500,2.930,14.160
1689255218.569,-80.566,-34.668,-95.703,-6.348,171.875
1689255218.573,-91.309,-25.391,-42.969,-77.148,374.512
1689255218.576,-102.051,-42.969,4.395,-95.703,248.535
1689255218.580,-66.895,-111.816,18.555,-75.195,105.469
1689255218.584,-66.406,-50.781,-70.312,-16.113,217.285
1689255218.588,-168.457,46.875,-24.414,-97.168,256.348
1689255218.592,-62.012,-62.500,6.348,-134.766,124.023
1689255218.592,25.391,-39.062,-57.129,-55.176,67.871
1689255218.596,-53.223,-6.836,-77.637,-2.930,88.379
1689255218.600,-150.391,-99.121,-10.254,-18.555,199.219
1689255218.604,-95.703,-61.523,-10.742,-8.789,235.840
1689255218.608,-89.355,-23.926,-85.938,-62.012,182.129
1689255218.612,-24.902,-98.633,-11.719,-147.461,253.418
1689255218.616,19.043,-67.383,-23.438,-77.637,431.152
1689255218.619,-120.117,-52.734,-51.758,0.977,287.598
1689255218.623,-238.770,-111.816,26.367,-145.996,102.051
1689255218.627,-97.168,-7.324,-11.719,-113.281,244.629
1689255218.631,8.789,-30.762,-16.113,-35.156,315.430
1689255218.635,-20.508,-54.199,-78.125,-29.785,131.348
1689255218.653,-137.695,27.344,-74.219,-48.828,149.414
1689255218.657,-180.176,-20.508,-4.883,-100.098,233.887
1689255218.661,-53.711,-97.168,-61.523,-90.820,183.105
1689255218.665,-6.348,-81.543,-91.797,-17.090,59.082
1689255218.669,-92.285,-79.590,-2.930,-44.922,95.703
1689255218.673,-74.707,-85.449,15.625,-67.383,225.586
1689255218.677,-106.934,-54.688,-7.812,-103.516,213.867
1689255218.680,-68.848,-57.617,-37.598,-85.449,78.125
1689255218.684,-46.875,0.488,-48.828,-89.355,67.871
1689255218.688,-88.379,-35.156,-62.988,-94.727,251.953
1689255218.692,-56.152,-72.754,-34.180,-25.391,142.090
1689255218.696,-111.328,4.395,-68.359,-23.438,50.781
1689255218.698,-121.094,-33.691,-51.758,-52.246,169.434
1689255218.702,-141.113,-41.992,21.973,-123.047,137.695
1689255218.706,-16.113,-63.477,-57.129,-69.336,137.207
1689255218.710,5.859,-50.781,-60.547,2.441,148.438
1689255218.714,-62.988,-36.621,-32.227,-43.945,234.863
1689255218.718,-67.871,-100.098,-19.531,-47.852,375.977
1689255218.722,-47.852,-35.645,-46.875,-97.656,195.312
1689255218.725,18.066,-35.645,-54.199,-85.449,107.910
1689255218.729,-12.695,-61.035,-22.461,-3.418,257.324
1689255218.733,-102.051,-24.414,-41.016,-42.480,461.914
1689255218.737,-100.098,-62.012,-20.508,-104.492,207.520
1689255218.741,-54.199,0.488,-62.500,-90.332,24.902
1689255218.744,-86.426,16.113,16.113,-162.109,126.465
1689255218.748,-94.238,-26.367,22.949,-139.160,115.723
1689255218.752,-77.148,-60.547,-64.941,35.156,124.023
1689255218.756,-80.566,-31.250,-18.066,-2.930,103.027
1689255218.760,-59.082,-4.883,-28.320,-83.008,198.242
1689255218.764,-34.180,-29.785,-36.133,-96.680,212.402
1689255218.768,-31.250,-65.918,-19.531,-125.977,125.488
1689255218.771,-35.645,-47.852,-71.777,1.953,203.125
1689255218.775,-109.375,10.742,-83.008,-83.984,430.664
1689255218.779,-96.680,-28.320,13.184,-95.215,408.691
1689255218.783,-127.930,-75.684,103.027,-165.039,110.352
1689255218.787,-132.324,-29.297,-2.930,-172.852,42.480
1689255218.787,-128.418,34.180,-121.582,3.906,113.770
1689255218.791,-91.309,-55.664,-34.668,66.895,69.336
1689255218.795,-9.277,-87.891,52.246,-49.316,-14.160
1689255218.799,-15.625,-31.250,-60.059,-116.699,20.508
1689255218.803,-80.078,-26.855,-64.453,-49.316,130.859
1689255218.807,-122.070,-5.859,-47.852,13.672,180.664
1689255218.811,-107.422,-14.160,-47.363,-93.262,82.520
1689255218.814,-126.953,-43.945,-41.016,-86.426,187.012
1689255218.818,-111.328,-57.617,0.977,-29.785,478.516
1689255218.822,-23.438,-51.758,15.137,-68.848,372.070
1689255218.826,-143.555,-16.602,-40.527,-42.480,95.215
1689255218.830,-143.555,-49.316,-59.082,1.465,58.594
1689255218.834,-49.316,-39.062,-29.297,-22.949,4.883
1689255218.838,-116.699,-75.195,87.402,-121.582,-91.309
1689255218.842,-176.758,11.719,-22.949,-165.527,-42.480
1689255218.846,-69.824,-6.348,-152.832,-24.902,87.891
1689255218.850,-5.371,-62.012,-66.406,69.824,125.977
1689255218.854,-156.250,40.039,-83.496,-25.391,137.207
1689255218.858,-118.652,-49.316,-26.367,-53.223,156.738
1689255218.861,-39.062,-99.609,25.879,-48.340,251.953
1689255218.865,-166.504,-65.918,0.000,-33.691,217.285
1689255218.869,-162.598,-47.852,-51.758,-7.812,108.887
1689255218.873,-140.137,-52.246,-3.906,-42.480,168.457
1689255218.877,-93.750,-22.949,-9.766,-124.512,267.578
1689255218.877,-57.617,21.484,-51.270,-161.621,119.629
1689255218.881,-39.551,-29.297,-36.133,2.930,59.082
1689255218.885,-108.887,-20.996,-43.945,73.730,137.207
1689255218.889,-128.906,-48.340,-26.367,-36.133,91.309
1689255218.893,-83.984,-45.410,-76.172,-68.359,40.039
1689255218.897,-142.090,-8.301,-21.973,-111.328,62.012
1689255218.901,-83.984,-62.988,8.301,-63.965,226.562
1689255218.904,-26.367,-73.242,-86.426,5.371,509.277
1689255218.908,-119.141,-84.473,-4.883,-118.164,318.359
1689255218.912,-105.957,-12.695,-46.875,-119.141,59.570
1689255218.916,-43.945,20.020,-98.145,-27.832,78.613
1689255218.920,-78.613,-47.363,-2.930,11.230,85.449
1689255218.924,-107.422,-40.527,-32.715,-12.695,34.180
1689255218.928,-127.930,-39.062,14.648,-101.074,22.461
1689255218.932,-130.859,-63.477,64.453,-109.375,211.914
1689255218.936,-112.793,-36.133,-7.324,-105.957,177.246
1689255218.940,-89.355,-56.641,-54.199,-94.727,14.648
1689255218.944,-112.305,-45.898,-41.992,-56.152,149.902
1689255218.948,-182.129,-47.852,-27.832,-87.402,461.426
1689255218.951,-109.863,-14.648,-52.734,-92.773,371.094
1689255218.955,-11.719,-36.621,-25.879,-51.270,139.160
1689255218.959,13.184,-37.109,-15.625,3.906,161.621
1689255218.963,-89.355,-20.508,-44.922,-7.324,164.062
1689255218.967,-87.891,-45.898,-34.180,-21.973,110.840
1689255218.968,-74.707,-47.363,-10.254,-60.547,38.086
1689255218.972,-69.336,-30.762,-52.246,-80.078,107.910
1689255218.976,-64.453,-35.156,-63.477,-112.305,203.613
1689255218.980,-159.668,-18.066,-41.016,-62.988,219.238
1689255218.984,-165.039,3.906,-30.762,-6.836,186.523
1689255218.988,-65.430,-50.781,-32.715,-50.293,274.902
1689255218.992,-62.012,-41.504,-65.918,-71.289,556.152
1689255218.995,-147.949,-71.777,70.312,-171.875,338.867
1689255218.999,-118.652,-77.637,-9.766,-65.918,30.273
1689255219.003,-77.637,-17.090,-139.648,91.797,123.047
1689255219.007,-179.688,-12.695,-40.527,-42.480,208.496
1689255219.011,-172.363,-43.457,13.184,-166.992,117.676
1689255219.028,-104.980,-37.598,-12.695,-133.301,161.621
1689255219.032,-156.738,-77.637,-24.414,-86.914,257.324
1689255219.036,-190.430,-32.227,-43.457,-101.562,238.281
1689255219.040,-129.395,-24.414,-77.148,-69.336,153.320
1689255219.044,-14.648,-74.219,-10.742,-51.758,112.305
1689255219.048,-29.297,-31.738,0.977,-118.652,387.207
1689255219.052,-77.637,-65.918,-20.996,-86.914,510.742
1689255219.055,-103.516,-18.066,-62.500,-76.172,163.086
1689255219.059,-103.516,-22.949,11.230,-201.660,99.121
1689255219.063,-31.250,-39.062,-24.902,-149.902,205.566
1689255219.067,-44.922,-33.203,-55.664,-125.000,66.406
1689255219.071,-86.426,-30.762,-23.438,-150.879,89.355
1689255219.072,-163.574,7.324,-31.738,-58.105,144.531
1689255219.076,-72.754,-20.020,-34.180,-2.441,110.352
1689255219.080,-18.066,-20.508,-75.684,-66.406,34.180
1689255219.084,-47.363,-54.688,-73.242,-121.094,28.809
1689255219.088,-130.371,-37.598,-17.090,-134.277,149.414
1689255219.092,-157.715,32.715,2.441,-103.516,212.402
1689255219.096,-36.133,-52.246,-44.434,-18.066,195.801
1689255219.099,-120.117,-62.988,12.207,-136.719,216.309
1689255219.103,-124.512,-60.059,17.090,-174.316,260.742
1689255219.107,-64.941,-68.359,-28.320,-55.664,548.828
1689255219.111,-142.090,-4.883,-98.145,-66.406,432.129
1689255219.115,-86.914,-38.574,-62.012,-31.250,119.629
1689255219.119,-46.387,-54.688,-6.836,-112.793,43.945
1689255219.123,-109.863,-3.418,46.875,-188.965,20.020
1689255219.127,-102.539,24.414,-58.105,-86.426,83.984
1689255219.131,-126.465,-51.758,-47.363,-83.496,102.051
1689255219.135,-187.012,-97.656,113.281,-190.918,138.672
1689255219.139,-50.781,-2.441,-54.199,-124.023,188.477
1689255219.143,-0.488,-14.648,-115.723,-60.547,191.895
1689255219.146,-168.945,-42.969,-11.230,-70.312,101.562
1689255219.150,-171.875,-23.926,-53.711,-57.129,344.238
1689255219.154,-113.281,-41.992,-27.832,-101.562,425.781
1689255219.158,7.812,-29.785,-61.523,-20.020,72.266
1689255219.162,-56.641,-58.105,12.207,-45.898,51.270
1689255219.162,-131.836,-84.473,93.750,-101.074,130.859
1689255219.166,-59.570,-9.277,-35.645,24.414,92.773
1689255219.170,-41.016,-23.438,-37.109,19.043,110.352
1689255219.174,-59.570,-39.062,-43.945,-69.824,132.812
1689255219.178,-57.617,-23.438,-34.180,-126.465,126.953
1689255219.182,-95.215,-47.363,42.969,-117.676,187.012
1689255219.186,-192.383,-18.555,-75.195,-78.125,152.832
1689255219.189,-100.586,18.066,-57.617,-14.160,272.461
1689255219.193,14.160,-57.129,-21.484,23.438,516.602
1689255219.197,11.230,-62.988,-53.223,-48.828,270.020
1689255219.201,-57.129,-20.508,-29.297,-100.586,-2.930
1689255219.205,-88.867,5.859,-56.641,-33.691,83.008
1689255219.209,-63.965,-51.270,-41.504,-14.648,90.332
1689255219.213,-42.480,-73.242,-12.207,-68.359,-15.625
1689255219.217,10.254,-38.086,-46.387,-35.645,8.301
1689255219.221,-23.926,3.418,-41.992,-63.477,104.492
1689255219.225,-96.191,-7.812,-20.020,-119.141,162.598
1689255219.229,-47.363,-55.664,-51.270,-15.137,156.738
1689255219.233,-67.871,-35.645,-38.086,-33.203,135.742
1689255219.236,-80.078,-5.859,-6.836,-129.395,329.102
1689255219.240,-13.672,-31.738,-51.270,-58.105,212.891
1689255219.244,-73.730,-54.688,-19.531,-37.109,5.859
1689255219.248,-85.938,-50.781,-18.555,-44.922,76.660
1689255219.252,-73.242,-34.180,-17.090,-47.363,172.363
1689255219.253,-83.008,-20.020,-55.664,-90.332,151.855
1689255219.257,-50.781,-24.902,-93.750,-108.398,88.379
1689255219.261,-98.145,41.504,-94.727,-93.262,176.270
1689255219.265,-110.840,-64.941,-18.066,-54.688,280.762
1689255219.269,-56.641,-84.961,-20.508,-24.902,140.625
1689255219.273,-7.812,-18.555,-45.898,-48.340,140.137
1689255219.277,-16.602,-82.031,20.020,-118.164,289.062
1689255219.280,-51.758,-43.457,-35.645,-70.801,535.156
1689255219.284,-107.422,29.785,-3.418,-36.133,365.234
1689255219.288,-122.070,-12.695,-73.242,-37.109,96.191
1689255219.292,-88.867,-48.340,-100.586,-50.781,198.242
1689255219.296,-50.293,-30.762,-38.086,-86.426,177.734
1689255219.312,-152.344,-57.129,0.977,-131.348,98.145
1689255219.316,-168.457,-34.668,-35.645,-74.707,153.809
1689255219.320,-86.914,-23.438,-54.199,14.648,209.961
1689255219.324,-86.426,-56.641,-34.180,-76.660,137.207
1689255219.328,-55.176,-46.875,-43.457,-105.957,87.402
1689255219.332,-2.930,-50.293,-56.152,13.184,171.387
1689255219.336,-90.820,-51.758,-47.363,-16.113,461.914
1689255219.339,-161.133,-64.453,-18.555,-83.008,455.078
1689255219.343,-127.930,-26.367,-55.664,-36.133,83.496
1689255219.347,-97.656,-40.039,31.250,-130.859,15.625
1689255219.351,-93.262,-29.785,-27.344,-76.172,129.883
1689255219.355,-128.418,-5.371,-48.828,-12.207,149.902
1689255219.342,-118.164,-79.590,-0.488,-34.668,81.543
1689255219.346,-84.961,-41.504,-81.055,-19.043,55.176
1689255219.350,-122.559,-44.922,24.414,-101.074,59.570
1689255219.354,-120.117,-52.246,113.770,-143.555,23.438
1689255219.358,-95.703,-46.387,-75.684,-45.898,121.582
1689255219.362,-174.316,-15.137,-93.750,-63.965,324.219
1689255219.366,-142.578,-7.812,-33.203,-12.207,356.934
1689255219.369,-12.695,-71.289,-14.160,14.160,286.133
1689255219.373,-104.492,-44.922,-13.184,-83.496,201.172
1689255219.377,-161.621,39.551,-76.172,-37.109,294.922
1689255219.381,-98.633,14.648,-58.105,-31.250,540.527
1689255219.385,-87.891,-77.148,-2.441,-115.723,233.887
1689255219.403,-116.211,-45.410,-27.832,-77.637,66.406
1689255219.407,-76.660,-38.574,20.020,-76.172,162.598
1689255219.411,-24.902,-20.508,-75.195,-8.301,95.215
1689255219.415,-117.676,-20.996,-9.277,-61.035,90.332
1689255219.419,-147.949,-84.961,129.883,-121.094,187.988
1689255219.423,-77.148,-29.297,-92.285,-31.250,295.898
1689255219.427,-20.020,-4.395,-122.070,19.531,219.727
1689255219.430,-71.289,-36.621,-3.418,16.602,166.992
1689255219.434,-180.664,-39.551,6.836,-92.285,256.348
1689255219.438,-155.762,0.977,-46.387,-49.316,483.398
1689255219.442,-104.980,-1.465,-1.953,-1.465,405.762
1689255219.446,-115.234,-29.785,-49.805,-70.312,155.273
1689255219.447,-142.090,-63.477,-68.848,-82.031,122.559
1689255219.451,-99.121,-75.195,18.066,-33.203,156.738
1689255219.455,-144.043,-34.180,-27.832,-0.977,138.184
1689255219.459,-220.215,-39.551,-38.086,-94.238,103.516
1689255219.463,-138.672,-14.648,8.301,-187.012,139.648
1689255219.467,-80.566,-48.340,-29.785,-17.578,203.613
1689255219.471,-125.000,-80.566,-17.090,25.391,200.195
1689255219.474,-142.578,-11.230,-68.848,-28.320,247.070
1689255219.478,-189.453,-33.203,-39.062,-100.586,261.719
1689255219.482,-220.703,-77.637,73.730,-122.559,442.871
1689255219.486,-141.113,-46.387,40.527,-53.223,272.949
1689255219.490,-93.750,-10.254,-93.262,20.508,113.281
1689255219.494,-207.031,0.488,-94.727,-17.578,191.406
1689255219.498,-211.426,-1.953,-72.754,-65.430,91.309
1689255219.502,-123.535,-47.363,-25.391,-101.562,-32.227
1689255219.506,-176.270,-48.340,-41.504,-119.629,49.805
1689255219.510,-139.160,-47.852,-64.453,0.000,217.773
1689255219.514,-122.559,-1.465,-64.453,-6.836,245.117
1689255219.518,-175.293,-52.734,-16.113,-87.891,161.133
1689255219.521,-141.113,-88.379,34.668,-107.422,67.383
1689255219.525,-118.164,2.930,-55.176,-51.758,250.488
1689255219.529,-171.387,51.758,-95.215,-29.785,310.547
1689255219.533,-153.809,-41.992,-70.801,-20.508,80.566
1689255219.537,-92.285,-82.031,-46.387,-46.875,25.879
1689255219.537,-75.684,-49.805,-31.250,-81.543,70.801
1689255219.541,-172.363,-6.348,-11.719,-144.531,122.559
1689255219.545,-201.172,-1.953,-9.277,-88.867,103.516
1689255219.549,-122.070,-49.805,-38.574,-26.855,151.367
1689255219.553,-64.941,-40.039,-50.293,-85.449,252.930
1689255219.557,-43.457,-66.895,5.371,-104.492,185.547
1689255219.561,-60.059,-41.992,9.766,-138.184,165.039
1689255219.564,-59.082,-31.738,-69.824,-46.387,284.180
1689255219.568,-58.105,-67.383,-56.641,-18.066,477.539
1689255219.572,-77.148,-26.367,42.480,-111.328,249.512
1689255219.576,-124.023,-14.160,42.480,-178.223,-7.812
1689255219.580,-26.855,-46.387,-74.219,-61.523,35.156
1689255219.584,-9.277,-27.344,-93.262,4.395,104.980
1689255219.588,-77.637,-10.742,-55.664,-30.762,58.105
1689255219.592,-85.449,-32.227,-23.438,-143.066,99.609
1689255219.596,-75.684,-54.688,-26.855,-167.480,312.500
1689255219.600,-80.078,-6.348,-82.520,-94.727,255.859
1689255219.604,-188.965,-12.207,-41.504,-136.719,178.711
1689255219.608,-244.141,-62.500,-32.227,-120.605,248.535
1689255219.611,-239.258,-29.297,-56.641,-67.383,352.539
1689255219.615,-250.488,-26.367,-9.766,-169.922,289.062
1689255219.619,-178.223,-39.062,-25.391,-183.594,70.312
1689255219.623,-176.270,-38.086,-56.152,-147.949,20.508
1689255219.627,-203.613,-24.414,-80.566,-79.590,60.547
1689255219.627,-215.820,-32.227,-27.832,-38.086,46.387
1689255219.631,-313.965,-57.617,65.918,-183.105,27.344
1689255219.635,-297.363,-12.207,-43.945,-147.949,39.551
1689255219.639,-334.473,18.555,-86.914,-76.660,68.848
1689255219.643,-441.406,-66.406,-16.113,-82.031,133.301
1689255219.647,-463.867,-79.590,-17.090,-73.242,203.125
1689255219.651,-361.328,-37.598,-26.855,-60.547,289.062
1689255219.654,-213.379,-26.855,-42.480,-62.500,541.504
1689255219.658,-242.676,-26.367,-17.090,-104.980,365.234
1689255219.662,-221.680,-39.062,-22.461,-68.359,96.680
1689255219.666,-150.879,-17.090,-68.359,-30.273,180.664
1689255219.670,-159.180,-20.996,10.742,-150.391,233.398
1689255219.687,-105.469,-12.207,2.441,-158.691,94.727
1689255219.691,-59.570,3.418,-90.820,-64.941,141.113
1689255219.695,-97.168,-32.227,-58.594,-84.961,185.547
1689255219.699,-97.168,-17.578,-34.180,-45.898,84.473
1689255219.703,-93.262,-19.531,-25.391,-80.078,91.797
1689255219.707,-52.734,-41.992,-19.531,-149.414,135.742
1689255219.711,-59.570,-25.879,-38.574,-123.047,384.766
1689255219.714,-57.617,-52.734,5.859,-35.156,372.559
1689255219.718,-26.855,-56.641,1.465,37.598,167.969
1689255219.722,-38.574,-23.926,-64.453,-19.043,150.391
1689255219.726,-17.578,-25.391,-31.738,-85.449,197.754
1689255219.730,-25.879,-32.227,-26.367,-62.012,147.461
1689255219.717,-32.715,-22.461,-55.176,-5.859,137.207
1689255219.721,-59.082,1.953,-56.641,-43.457,166.992
1689255219.725,-25.879,-28.809,-49.805,-45.898,190.918
1689255219.729,30.273,-37.598,-20.996,-40.039,179.688
1689255219.733,11.719,13.672,-29.785,-60.547,146.973
1689255219.737,-28.320,-23.438,-22.461,-24.902,325.195
1689255219.741,-15.137,-57.129,-8.301,8.789,422.852
1689255219.744,-22.461,-34.180,-9.766,-11.230,214.355
1689255219.748,-18.066,-42.480,-13.672,-59.570,58.105
1689255219.752,-0.977,-41.504,-28.320,-76.660,110.840
1689255219.756,-39.551,-34.668,-24.902,-43.945,436.523
1689255219.760,-79.102,-36.621,-25.879,-20.996,242.188
1689255219.778,-61.035,-36.133,-25.391,-29.297,44.922
1689255219.782,-28.320,-35.645,-21.484,-62.500,141.602
1689255219.786,-20.020,-37.109,-22.949,-100.098,59.570
1689255219.790,-42.969,-30.273,-24.902,-73.242,0.488
1689255219.794,-81.543,-25.391,-24.414,-41.992,118.164
1689255219.798,-93.750,-20.508,-17.090,-61.523,302.246
1689255219.802,-84.473,-22.461,-20.020,-88.867,284.180
1689255219.805,-64.941,-24.414,-21.973,-105.469,127.441
1689255219.809,-66.406,-24.414,-17.090,-74.707,112.305
1689255219.813,-110.840,-30.273,-14.648,-36.621,385.254
1689255219.817,-120.117,-32.715,-13.184,-51.270,287.598
1689255219.821,-90.820,-23.438,-16.113,-78.613,37.109
1689255219.822,-69.824,-19.531,-16.113,-98.633,50.293
1689255219.826,-88.379,-20.508,-16.113,-71.777,119.141
1689255219.830,-118.164,-19.043,-14.648,-27.344,94.238
1689255219.834,-123.047,-21.973,-12.207,-38.086,39.551
1689255219.838,-111.328,-23.438,-13.672,-71.289,106.445
1689255219.842,-84.961,-23.438,-16.602,-102.051,169.434
1689255219.846,-89.355,-23.438,-15.625,-96.191,197.754
1689255219.849,-135.742,-25.391,-17.090,-55.664,168.945
1689255219.853,-141.113,-29.297,-20.996,-62.012,190.918
1689255219.857,-116.699,-32.227,-23.438,-91.797,359.375
1689255219.861,-88.379,-35.645,-24.414,-118.164,157.715
1689255219.865,-98.633,-37.109,-23.926,-109.375,24.414
1689255219.869,-142.090,-43.457,-23.926,-55.664,124.512
1689255219.873,-155.273,-41.016,-22.949,-48.340,87.402
1689255219.877,-142.090,-31.250,-20.020,-78.125,91.797
1689255219.881,-118.652,-32.715,-20.508,-108.887,160.156
1689255219.885,-121.582,-34.180,-22.949,-100.586,270.996
1689255219.889,-155.762,-33.203,-23.438,-60.547,298.828
1689255219.893,-164.551,-31.250,-24.414,-51.270,208.984
1689255219.896,-140.137,-28.809,-26.367,-73.242,85.449
1689255219.900,-110.840,-29.297,-20.996,-92.285,265.625
1689255219.904,-100.586,-27.832,-18.555,-85.938,284.668
1689255219.908,-132.812,-29.297,-22.949,-59.082,54.688
1689255219.912,-156.250,-33.203,-25.879,-37.109,46.387
1689255219.912,-135.742,-32.227,-22.461,-63.477,128.418
1689255219.916,-107.422,-24.902,-20.996,-104.004,46.875
1689255219.920,-99.609,-32.227,-22.949,-97.656,12.207
1689255219.924,-109.375,-44.434,-22.949,-46.875,154.297
1689255219.928,-125.000,-32.227,-22.461,-13.184,246.582
1689255219.932,-132.812,-19.531,-25.391,-40.527,210.938
1689255219.936,-100.586,-19.531,-28.320,-82.520,166.992
1689255219.939,-67.383,-20.508,-25.879,-89.844,282.715
1689255219.943,-81.543,-20.996,-23.926,-35.645,667.480
1689255219.947,-101.562,-20.508,-21.484,1.953,537.109
1689255219.951,-98.633,-20.508,-23.926,-18.066,153.320
1689255219.955,-73.730,-20.996,-29.297,-60.059,151.367
1689255219.959,-51.758,-20.020,-30.273,-79.590,97.656
1689255219.963,-70.801,-27.344,-35.156,-47.852,116.211
1689255219.967,-104.980,-31.738,-38.574,-19.531,146.484
1689255219.971,-111.328,-34.180,-40.039,-27.832,139.160
1689255219.975,-84.473,-41.992,-39.062,-50.781,141.113
1689255219.979,-56.641,-43.457,-37.109,-83.984,181.641
1689255219.983,-59.570,-34.180,-36.133,-61.523,204.102
1689255219.986,-82.520,-31.250,-34.668,-12.695,333.984
1689255219.990,-67.383,-34.180,-36.621,-23.438,382.324
1689255219.994,-40.527,-35.645,-36.133,-64.941,137.207
1689255219.998,-24.902,-37.109,-39.551,-98.145,87.891
1689255220.002,-23.926,-40.039,-40.039,-76.660,148.438
1689255220.002,-51.270,-41.504,-34.668,-25.391,143.066
1689255220.006,-62.012,-38.574,-37.109,-20.020,104.980
1689255220.010,-46.387,-41.504,-34.668,-54.688,102.539
1689255220.014,-24.414,-45.410,-29.297,-84.961,117.188
1689255220.018,-29.785,-40.039,-31.250,-59.570,152.344
1689255220.022,-52.246,-44.922,-32.715,-29.785,190.430
1689255220.026,-48.340,-46.875,-28.809,-23.438,323.242
1689255220.029,-36.621,-38.086,-32.715,-42.480,525.391
1689255220.033,-16.602,-34.180,-37.598,-93.750,220.703
1689255220.037,-12.695,-30.273,-33.691,-86.914,13.184
1689255220.041,-52.734,-35.645,-36.133,-39.062,226.074
1689255220.045,-73.242,-40.039,-39.551,-37.109,238.281
1689255220.062,-56.152,-37.109,-39.062,-62.012,94.727
1689255220.066,-34.668,-37.598,-41.992,-92.773,26.367
1689255220.070,-38.574,-42.480,-39.062,-97.656,162.109
1689255220.074,-62.012,-39.551,-33.691,-49.805,215.332
1689255220.078,-86.426,-40.039,-34.668,-29.785,70.312
1689255220.082,-74.707,-49.316,-33.203,-49.316,112.793
1689255220.086,-44.922,-45.410,-33.203,-71.777,259.277
1689255220.089,-35.645,-41.992,-35.645,-82.520,165.039
1689255220.093,-73.242,-44.922,-37.598,-46.387,45.410
1689255220.097,-109.375,-45.410,-38.086,-20.508,84.473
1689255220.101,-107.910,-46.387,-39.062,-45.410,144.043
1689255220.105,-82.520,-46.875,-41.504,-84.473,74.707
1689255220.093,-59.082,-45.898,-38.574,-92.285,17.090
1689255220.097,-81.055,-48.828,-39.062,-59.570,118.652
1689255220.101,-111.816,-46.875,-38.086,-36.133,190.430
1689255220.105,-105.957,-42.480,-37.109,-50.781,145.020
1689255220.109,-87.891,-41.992,-32.715,-75.684,86.914
1689255220.113,-83.984,-39.062,-34.180,-91.797,140.625
1689255220.117,-122.559,-43.457,-38.086,-62.988,354.004
1689255220.120,-142.578,-41.504,-38.086,-28.809,317.871
1689255220.124,-133.301,-35.156,-37.109,-47.363,197.266
1689255220.128,-117.676,-37.109,-43.457,-81.055,228.027
1689255220.132,-81.543,-40.039,-53.223,-95.703,347.656
1689255220.136,-86.426,-35.156,-47.363,-75.684,209.473
1689255220.154,-110.352,-33.691,-39.062,-32.715,130.371
1689255220.158,-104.492,-32.715,-40.039,-31.250,215.332
1689255220.162,-88.379,-35.156,-38.086,-62.500,232.422
1689255220.166,-70.312,-39.551,-39.551,-84.473,114.258
1689255220.170,-86.914,-36.133,-42.969,-57.617,118.164
1689255220.174,-116.211,-37.598,-42.969,-14.160,456.543
1689255220.178,-122.070,-38.086,-48.340,-22.461,364.746
1689255220.181,-110.352,-30.762,-49.316,-58.594,82.031
1689255220.185,-106.445,-33.203,-44.434,-88.379,87.891
1689255220.189,-144.531,-34.668,-41.504,-72.266,244.629
1689255220.193,-166.992,-30.762,-41.992,-12.207,176.270
1689255220.197,-145.508,-27.344,-39.062,-9.766,93.750
1689255220.197,-108.398,-26.367,-39.062,-49.316,126.953
1689255220.201,-60.059,-28.809,-40.527,-84.473,85.449
1689255220.205,-62.012,-33.203,-43.945,-86.914,82.520
1689255220.209,-124.512,-33.691,-46.875,-50.781,69.824
1689255220.213,-152.344,-29.785,-46.387,-38.574,131.836
1689255220.217,-111.328,-37.109,-46.387,-63.477,207.031
1689255220.221,-65.430,-43.945,-47.852,-104.980,186.035
1689255220.224,-65.918,-38.086,-46.875,-105.957,126.953
1689255220.228,-90.332,-35.156,-45.898,-54.199,217.285
1689255220.232,-92.773,-40.527,-41.992,-41.016,546.875
1689255220.236,-72.754,-45.410,-40.527,-63.965,327.637
1689255220.240,-54.688,-44.922,-41.992,-100.586,18.555
1689255220.244,-52.734,-41.504,-41.992,-105.957,172.363
1689255220.248,-75.195,-39.062,-40.039,-64.453,177.246
1689255220.252,-93.262,-39.062,-41.016,-53.223,106.934
1689255220.256,-74.219,-41.016,-39.062,-76.172,151.855
1689255220.260,-41.992,-41.504,-41.504,-106.445,143.066
1689255220.264,-38.574,-29.297,-36.621,-110.352,121.094
1689255220.268,-66.895,-27.832,-36.133,-72.266,146.484
1689255220.271,-81.543,-35.156,-39.551,-51.758,167.480
1689255220.275,-76.660,-36.621,-38.086,-71.289,370.117
1689255220.279,-55.664,-35.156,-35.645,-104.004,407.227
1689255220.283,-25.879,-34.180,-33.691,-115.723,86.426
1689255220.287,-30.273,-35.156,-30.273,-76.660,27.344
1689255220.287,-48.340,-36.621,-28.320,-41.504,166.992
1689255220.291,-29.297,-39.551,-34.180,-64.941,83.008
1689255220.295,4.883,-37.109,-37.109,-104.980,8.301
1689255220.299,32.715,-39.062,-34.668,-125.488,81.543
1689255220.303,16.602,-42.969,-34.668,-96.680,96.191
1689255220.307,-34.668,-33.691,-37.598,-54.688,106.934
1689255220.311,-49.316,-29.297,-34.668,-54.688,180.176
1689255220.314,-38.086,-29.785,-33.203,-92.773,239.258
1689255220.318,-26.855,-36.133,-31.250,-104.980,436.523
1689255220.322,-45.898,-41.504,-29.297,-66.406,383.301
1689255220.326,-75.684,-35.645,-29.297,-29.785,94.238
1689255220.330,-69.824,-30.273,-29.785,-41.992,187.988
1689255220.334,-43.945,-33.203,-33.691,-79.590,266.602
1689255220.338,-17.090,-35.156,-39.062,-106.934,64.453
1689255220.342,-36.133,-47.363,-44.434,-86.426,71.777
1689255220.346,-61.523,-50.293,-39.551,-41.016,187.012
1689255220.350,-57.617,-35.156,-39.551,-42.969,129.395
1689255220.354,-37.598,-30.762,-41.016,-77.148,71.777
1689255220.358,-15.137,-40.039,-37.598,-110.840,136.230
1689255220.361,-25.391,-39.062,-33.691,-84.473,293.457
1689255220.365,-57.617,-38.574,-34.668,-26.367,235.840
1689255220.369,-62.012,-36.133,-38.574,-22.461,65.430
1689255220.373,-49.316,-35.156,-41.992,-54.199,19.043
1689255220.377,-27.344,-38.086,-43.457,-90.820,64.941
1689255220.377,-36.621,-42.969,-44.434,-81.055,94.238
1689255220.381,-90.820,-50.293,-46.387,-29.297,21.973
1689255220.385,-114.746,-48.828,-44.434,-18.555,102.539
1689255220.389,-103.027,-41.016,-42.480,-47.852,224.609
1689255220.393,-87.402,-41.016,-44.434,-88.867,179.199
1689255220.397,-85.938,-41.504,-47.852,-98.145,141.602
1689255220.401,-119.141,-36.621,-46.387,-52.734,258.789
1689255220.404,-145.508,-38.086,-50.293,-40.039,583.496
1689255220.408,-138.184,-39.062,-55.664,-74.219,424.805
1689255220.412,-115.234,-37.598,-53.711,-106.445,39.551
1689255220.416,-112.305,-40.039,-51.758,-106.445,82.520
1689255220.420,-137.207,-47.363,-47.852,-53.711,165.039
1689255220.425,-149.414,-43.945,-41.992,-20.996,75.684
1689255220.429,-131.836,-40.039,-36.621,-31.250,106.934
1689255220.433,-119.141,-40.527,-42.480,-64.941,170.898
1689255220.437,-125.977,-33.203,-41.992,-89.355,78.125
1689255220.441,-155.273,-32.227,-37.109,-58.105,41.992
1689255220.445,-185.547,-33.203,-40.527,-26.855,122.559
1689255220.449,-181.641,-32.227,-40.039,-32.227,422.363
1689255220.452,-154.785,-37.109,-38.574,-55.664,376.465
1689255220.456,-151.367,-39.062,-38.574,-81.543,83.008
1689255220.460,-177.734,-40.039,-39.062,-60.547,120.605
1689255220.464,-203.613,-38.086,-41.504,-36.133,193.359
1689255220.468,-203.125,-35.156,-42.969,-54.688,201.660
1689255220.467,-181.152,-43.945,-43.457,-98.145,101.562
1689255220.471,-153.809,-42.480,-48.340,-126.465,60.059
1689255220.475,-174.805,-34.180,-46.387,-94.727,135.254
1689255220.479,-207.520,-38.086,-47.852,-55.176,169.434
1689255220.483,-204.102,-32.715,-46.387,-59.082,183.594
1689255220.487,-181.641,-30.273,-41.016,-93.262,301.758
1689255220.491,-158.203,-33.691,-36.621,-109.863,493.652
1689255220.494,-168.945,-33.691,-32.715,-82.031,301.270
1689255220.498,-191.406,-37.598,-30.273,-35.645,120.117
1689255220.502,-192.383,-41.016,-25.391,-37.598,221.191
1689255220.506,-171.875,-39.551,-26.367,-71.777,315.918
1689255220.510,-143.066,-41.016,-29.297,-99.121,125.977
1689255220.528,-161.133,-51.758,-31.250,-85.938,87.402
1689255220.532,-200.195,-48.828,-33.691,-37.109,192.871
1689255220.536,-195.801,-33.691,-32.715,-27.344,153.809
1689255220.540,-167.480,-31.738,-30.273,-70.312,63.965
1689255220.544,-135.742,-33.203,-33.203,-107.910,67.871
1689255220.548,-148.438,-32.715,-38.086,-94.238,178.711
1689255220.552,-198.242,-33.691,-38.086,-62.500,200.684
1689255220.555,-204.102,-40.039,-43.457,-54.199,152.832
1689255220.559,-198.730,-45.410,-48.340,-75.195,90.820
1689255220.563,-173.828,-45.898,-46.875,-105.957,317.871
1689255220.567,-159.668,-46.387,-44.922,-103.516,301.270
1689255220.571,-206.543,-42.969,-39.062,-59.082,72.754
1689255220.572,-221.680,-36.621,-36.621,-38.086,81.055
1689255220.576,-196.777,-35.645,-32.227,-57.617,109.863
1689255220.580,-173.340,-41.016,-37.109,-93.750,28.320
1689255220.584,-159.668,-43.945,-46.875,-102.051,-16.602
1689255220.588,-187.988,-50.293,-46.387,-57.617,107.422
1689255220.592,-212.891,-53.711,-48.340,-38.086,177.734
1689255220.596,-183.594,-43.945,-42.969,-57.129,151.855
1689255220.599,-139.160,-43.945,-35.156,-84.961,110.352
1689255220.603,-129.883,-55.664,-41.504,-96.680,171.387
1689255220.607,-165.039,-47.363,-46.875,-58.594,443.359
1689255220.611,-179.199,-39.062,-43.945,-29.297,305.176
1689255220.615,-157.227,-40.527,-45.410,-58.594,53.711
1689255220.619,-124.512,-39.062,-45.898,-95.703,85.449
1689255220.623,-101.074,-40.039,-43.945,-106.934,66.895
1689255220.627,-117.188,-38.574,-44.922,-78.613,59.082
1689255220.631,-141.602,-39.551,-46.875,-51.270,124.512
1689255220.635,-137.695,-40.527,-43.457,-59.570,144.531
1689255220.639,-112.305,-41.992,-42.480,-88.379,139.648
1689255220.643,-81.055,-51.270,-41.992,-103.027,140.137
1689255220.646,-87.402,-51.758,-37.598,-51.758,147.949
1689255220.650,-120.605,-43.457,-33.691,-8.301,347.656
1689255220.654,-114.258,-41.992,-31.738,-32.715,270.996
1689255220.658,-86.914,-42.969,-30.762,-71.289,43.945
1689255220.662,-75.684,-50.781,-32.715,-89.355,157.715
1689255220.662,-90.332,-54.199,-32.715,-54.199,267.578
1689255220.666,-115.723,-50.781,-35.156,-17.578,141.602
1689255220.670,-117.188,-51.270,-36.621,-28.320,71.289
1689255220.674,-92.773,-53.711,-38.574,-69.336,57.617
1689255220.678,-68.359,-53.223,-37.109,-104.004,115.234
1689255220.682,-72.754,-49.316,-38.574,-72.266,154.785
1689255220.686,-100.586,-46.387,-38.574,-22.949,258.301
1689255220.689,-106.934,-40.039,-36.133,-31.250,409.180
1689255220.693,-96.680,-38.086,-38.086,-64.941,534.668
1689255220.697,-79.102,-35.645,-32.227,-93.262,303.711
1689255220.701,-101.074,-34.180,-30.762,-91.309,96.680
1689255220.705,-145.508,-36.133,-34.180,-67.871,209.961
1689255220.710,-157.227,-32.715,-35.645,-58.105,165.039
1689255220.714,-145.020,-30.762,-38.574,-86.914,99.609
1689255220.718,-126.465,-35.156,-37.598,-122.559,151.367
1689255220.722,-133.789,-41.504,-41.504,-94.727,249.023
1689255220.726,-174.805,-53.223,-46.875,-46.875,269.043
1689255220.730,-198.242,-50.781,-43.457,-45.898,186.035
1689255220.734,-193.848,-45.410,-44.434,-75.195,134.766
1689255220.737,-176.270,-50.293,-43.945,-97.656,377.930
1689255220.741,-158.691,-49.805,-39.062,-75.195,325.684
1689255220.745,-179.199,-45.898,-39.551,-32.227,71.777
1689255220.749,-206.543,-53.223,-43.457,-35.645,68.359
1689255220.753,-191.895,-52.246,-39.551,-62.012,76.660
1689255220.752,-151.855,-41.992,-36.133,-85.938,54.199
1689255220.756,-146.484,-37.598,-32.715,-85.938,18.555
1689255220.760,-177.246,-47.852,-35.156,-51.758,96.191
1689255220.764,-203.613,-52.734,-33.203,-36.133,168.945
1689255220.768,-203.613,-38.574,-35.156,-55.664,173.340
1689255220.772,-174.316,-32.227,-41.992,-85.449,149.902
1689255220.776,-147.461,-30.273,-37.598,-88.867,208.496
1689255220.779,-174.805,-34.180,-41.992,-47.363,624.023
1689255220.783,-203.613,-40.039,-44.434,-49.316,600.098
1689255220.787,-175.293,-33.691,-48.828,-72.754,191.895
1689255220.791,-150.391,-38.574,-43.457,-75.195,116.211
1689255220.795,-126.953,-40.039,-40.527,-97.168,113.281
1689255220.812,-148.926,-39.551,-44.922,-77.637,105.469
1689255220.816,-166.992,-33.203,-41.016,-44.922,145.020
1689255220.820,-152.344,-29.785,-26.367,-72.754,174.805
1689255220.824,-144.043,-31.250,-26.855,-123.535,105.469
1689255220.828,-100.098,-32.715,-49.316,-130.859,59.570
1689255220.832,-99.609,-39.062,-49.805,-68.848,175.293
1689255220.836,-156.738,-39.551,-34.180,-52.246,378.906
1689255220.839,-120.605,-22.949,-51.758,-49.805,332.520
1689255220.843,-90.820,-17.090,-55.664,-43.457,41.016
1689255220.847,-92.773,-46.875,-41.016,-79.590,28.320
1689255220.851,-64.453,-43.945,-36.621,-70.801,275.879
1689255220.855,-90.332,-41.016,-32.227,-15.137,218.750
1689255220.842,-120.605,-54.199,-17.578,-6.348,41.992
1689255220.846,-47.852,-56.641,-27.832,-40.527,65.918
1689255220.850,-23.438,-32.715,-55.664,-62.500,91.797
1689255220.854,-173.340,-20.020,-39.551,-105.957,27.832
1689255220.858,-115.234,-42.969,-23.438,-49.316,74.707
1689255220.862,16.602,-44.922,-61.523,7.324,308.594
1689255220.866,-55.664,-76.660,21.484,-130.859,435.059
1689255220.869,19.043,-32.715,-22.949,-152.832,217.285
1689255220.873,59.082,-10.254,-82.520,-95.215,103.027
1689255220.877,-13.672,-7.812,-48.340,-64.453,215.332
1689255220.881,-98.633,-33.203,11.230,-94.727,459.961
1689255220.885,93.750,-85.449,-2.441,-127.930,221.680
1689255220.918,146.484,-30.273,-55.664,-147.461,-25.391
1689255220.922,37.598,-40.527,-8.301,-167.480,91.797
1689255220.926,202.637,-80.566,-78.125,34.180,100.586
1689255220.930,144.531,-10.742,-120.605,53.223,67.871
1689255220.934,37.109,0.977,-49.805,-46.387,84.473
1689255220.938,-8.301,-83.496,112.305,-270.996,190.918
1689255220.942,41.992,-34.180,21.484,-246.094,212.402
1689255220.945,38.086,-63.477,-101.074,-119.629,111.328
1689255220.949,72.754,-68.359,-76.660,-24.414,118.652
1689255220.953,150.391,29.785,-90.332,-24.902,329.590
1689255220.957,233.398,-11.230,-174.316,13.672,221.191
1689255220.961,250.488,2.441,-145.996,100.098,67.383
1689255220.947,187.988,-32.715,-39.551,19.043,165.527
1689255220.951,234.375,-104.980,-46.387,75.195,300.293
1689255220.955,230.957,-96.191,9.277,5.371,215.820
1689255220.959,232.422,-73.730,-44.922,-76.172,41.016
1689255220.963,243.164,-20.020,-46.875,3.418,101.562
1689255220.967,219.238,-29.297,-19.043,20.020,204.590
1689255220.971,224.121,-36.621,-83.008,86.426,197.266
1689255220.974,220.703,-38.574,-12.695,99.121,172.852
1689255220.978,162.598,-30.762,-60.059,12.695,115.234
1689255220.982,182.129,-10.254,-104.492,20.996,164.551
1689255220.986,252.441,-75.684,-2.930,26.367,152.832
1689255220.990,140.625,-54.688,8.301,-24.902,91.797
1689255220.994,163.086,45.410,-122.070,116.211,219.238
1689255220.998,190.918,-21.484,-30.273,115.234,549.805
1689255221.002,138.672,-86.426,22.949,-33.691,276.855
1689255221.006,80.078,-4.395,-63.965,-87.891,12.695
1689255221.010,23.438,-20.020,10.254,-31.738,117.676
1689255221.014,167.969,-56.152,-32.715,122.559,160.156
1689255221.018,225.098,-1.465,-78.125,102.539,68.848
1689255221.021,167.969,-47.363,-5.371,-81.543,41.504
1689255221.025,105.957,-63.477,32.715,-115.723,338.867
1689255221.029,92.285,-2.930,-76.660,62.988,340.332
1689255221.033,121.582,16.113,-103.027,93.262,127.930
1689255221.037,179.199,-65.430,-18.066,-34.668,150.391
1689255221.037,138.184,-43.457,-43.945,-54.199,169.434
1689255221.041,109.863,-0.488,-41.504,38.086,113.770
1689255221.045,107.910,-5.371,51.270,49.316,93.262
1689255221.049,55.664,-55.176,88.867,-42.480,181.641
1689255221.053,128.418,-70.801,-27.832,39.062,192.871
1689255221.057,180.176,33.203,-114.746,32.227,88.867
1689255221.061,39.062,20.996,0.000,-68.848,109.863
1689255221.064,122.070,-57.129,-29.785,-2.441,184.570
1689255221.068,139.648,-38.086,-80.078,21.973,470.703
1689255221.072,166.016,-46.387,-51.270,62.500,369.141
1689255221.076,152.832,-29.785,-15.625,-59.570,22.949
1689255221.080,119.141,40.039,-49.316,-22.949,52.734
1689255221.084,85.449,5.859,-63.477,52.734,90.820
1689255221.088,-27.832,-39.551,78.125,-44.922,83.984
1689255221.092,63.965,-45.410,17.090,-87.891,79.590
1689255221.096,168.457,-39.551,-49.316,-76.172,102.539
1689255221.100,173.340,-53.711,-110.352,41.992,78.125
1689255221.104,85.938,-32.227,-110.352,44.922,120.605
1689255221.108,0.488,20.020,-33.203,-8.301,113.770
1689255221.111,103.027,-69.824,-11.719,19.531,327.148
1689255221.115,77.148,-28.320,-54.688,-92.773,475.586
1689255221.119,105.957,-1.953,-78.125,-83.984,129.883
1689255221.123,165.039,-66.895,10.254,140.137,53.223
1689255221.127,52.246,2.441,-12.207,73.730,110.840
1689255221.127,103.027,-43.457,-73.730,33.203,73.730
1689255221.131,20.020,-75.195,15.137,-6.348,91.797
1689255221.135,24.902,-2.930,-12.695,-59.570,146.973
1689255221.139,133.301,-50.781,-55.664,59.570,196.289
1689255221.143,72.266,-58.105,-74.219,68.359,172.852
1689255221.147,-0.977,-3.906,-74.707,-70.801,171.387
1689255221.151,4.395,-62.012,-20.996,-82.031,298.828
1689255221.154,11.230,-7.812,-26.855,-53.711,563.477
1689255221.158,203.125,-31.738,-67.383,96.191,431.152
1689255221.162,146.484,-70.312,-35.645,102.539,101.074
1689255221.166,-77.148,-22.949,-15.137,-7.324,140.625
1689255221.170,-17.578,-25.879,-17.090,-82.520,152.832
1689255221.187,53.711,-16.113,-60.059,-114.746,34.180
1689255221.191,74.219,-63.477,-22.949,11.230,63.965
1689255221.195,68.848,-71.289,-59.570,72.266,127.441
1689255221.199,-83.984,-53.223,-17.090,-31.738,143.555
1689255221.203,19.043,-40.039,0.977,-25.879,66.406
1689255221.207,116.699,-47.363,-71.289,-50.781,108.398
1689255221.211,79.102,-31.738,-103.027,27.344,432.617
1689255221.214,49.316,41.016,-70.312,86.426,440.430
1689255221.218,50.293,1.465,-5.859,30.273,90.820
1689255221.222,95.703,-57.617,-18.066,69.824,20.508
1689255221.226,81.543,-13.184,-71.777,53.711,118.164
1689255221.230,51.758,-60.547,-55.664,-18.555,123.047
1689255221.217,17.578,-66.895,-44.434,-17.090,104.492
1689255221.221,-1.953,15.137,-33.691,7.812,174.805
1689255221.225,-4.883,-37.109,71.777,-63.965,242.188
1689255221.229,41.504,-74.219,10.742,-25.879,112.793
1689255221.233,94.727,-42.480,-31.250,39.062,76.172
1689255221.237,12.695,-41.992,31.250,17.090,242.676
1689255221.241,-55.176,9.277,-85.449,18.066,284.668
1689255221.244,-6.348,33.203,-80.078,21.484,104.980
1689255221.248,56.641,-32.227,-47.363,-16.113,40.039
1689255221.252,69.336,-80.566,6.836,-18.555,156.738
1689255221.256,36.621,-45.410,-38.574,41.992,390.137
1689255221.260,-87.402,-79.590,-6.348,-33.691,188.965
1689255221.278,53.711,-30.273,-58.105,24.902,62.500
1689255221.282,47.363,46.875,-32.227,36.133,176.270
1689255221.286,-65.430,-77.637,50.293,-48.340,149.414
1689255221.290,5.859,-65.430,-21.484,20.508,73.730
1689255221.294,24.902,-2.930,-64.453,75.684,143.066
1689255221.298,-16.113,7.812,-77.148,33.691,257.324
1689255221.302,51.758,-29.297,-48.828,40.039,258.301
1689255221.305,125.977,-70.312,-21.484,1.465,181.641
1689255221.309,20.020,-56.152,-32.715,-21.973,141.113
1689255221.313,-53.223,-56.641,-6.348,16.602,328.125
1689255221.317,-4.395,1.465,-44.434,14.160,251.465
1689255221.321,37.598,-21.484,-44.922,-2.441,63.477
1689255221.322,42.480,-27.832,-63.477,14.648,131.348
1689255221.326,-11.719,-41.016,38.574,-33.691,187.500
1689255221.330,-81.543,-59.082,24.414,-54.688,149.414
1689255221.334,-106.934,-39.062,-20.508,-98.633,156.738
1689255221.338,-91.797,-53.711,37.598,-49.805,257.324
1689255221.342,41.992,-7.324,-61.523,16.113,367.676
1689255221.346,71.777,-48.340,-86.426,8.789,257.324
1689255221.349,-34.180,-37.598,-41.016,36.133,203.613
1689255221.353,-14.160,-48.828,-42.969,17.090,190.918
1689255221.357,-18.555,-38.574,-69.336,-17.090,412.598
1689255221.361,-57.617,-41.504,-66.406,-65.918,231.934
1689255221.365,-31.250,-13.672,-27.344,-57.129,18.555
1689255221.369,-133.789,-22.949,80.566,-63.477,231.445
1689255221.373,-56.152,-44.922,-53.711,2.930,208.984
1689255221.377,30.273,-3.418,-84.473,13.672,79.590
1689255221.381,69.336,-45.410,-36.133,-29.785,114.258
1689255221.385,104.492,-40.527,-46.387,7.812,184.570
1689255221.389,-3.906,11.230,-71.289,72.754,196.777
1689255221.393,-87.891,-12.207,-77.637,17.090,170.410
1689255221.396,-77.148,-61.035,-32.227,-64.453,175.781
1689255221.400,1.465,-67.383,-21.484,-22.949,406.738
1689255221.404,-46.387,-32.715,25.879,-64.453,483.887
1689255221.408,-52.734,-24.414,3.418,-61.523,157.715
1689255221.412,33.203,-46.387,-86.914,52.246,20.508
1689255221.412,17.578,-30.273,-53.711,43.945,75.195
1689255221.416,-101.562,-29.785,2.930,-40.527,42.969
1689255221.420,-4.395,-46.387,-66.406,-62.500,30.273
1689255221.424,-55.664,-14.648,-103.516,-35.156,100.586
1689255221.428,-73.730,-0.977,-33.203,12.207,153.809
1689255221.432,13.672,-85.938,31.250,18.066,191.406
1689255221.436,-13.672,-30.762,-12.695,-35.156,168.945
1689255221.439,-80.566,43.457,-32.227,-79.102,213.867
1689255221.443,-51.758,-56.641,-44.434,-40.527,521.484
1689255221.447,-47.852,-44.922,-60.059,28.320,540.527
1689255221.451,-68.359,-9.277,-13.672,-5.859,165.527
1689255221.455,-30.273,30.273,-61.523,-49.316,88.379
1689255221.459,-30.762,-40.039,-41.016,-59.082,89.355
1689255221.463,-104.980,-51.270,-4.395,-63.965,13.184
1689255221.467,-115.723,-69.824,51.758,-1.953,56.152
1689255221.471,-31.250,-36.133,-82.031,-16.602,104.492
1689255221.475,35.156,-9.766,-125.000,-52.734,90.820
1689255221.479,25.391,-30.273,-64.453,-16.113,133.789
1689255221.483,-72.754,-29.297,40.527,-135.254,136.719
1689255221.486,-84.961,-36.133,-0.488,-51.758,334.473
1689255221.490,-34.180,-33.691,-113.281,68.848,277.344
1689255221.494,-44.922,-81.055,-6.348,-38.574,20.996
1689255221.498,-21.973,-67.383,11.230,-105.469,45.898
1689255221.502,-112.305,-18.066,-72.266,-113.281,161.133
1689255221.502,-55.176,-8.789,-54.199,-42.480,83.984
1689255221.506,14.160,-38.574,-18.066,14.160,38.086
1689255221.510,-38.086,-41.992,-47.363,-38.086,41.016
1689255221.514,-19.531,-7.812,-57.617,-51.270,66.895
1689255221.518,-44.922,-44.922,3.418,-60.547,111.328
1689255221.522,-17.578,-68.359,-27.344,-7.324,169.434
1689255221.526,-11.230,-24.902,-74.707,33.203,247.070
1689255221.529,-97.656,-34.668,-46.875,-41.016,516.113
1689255221.533,-71.289,-59.082,22.949,-187.012,313.965
1689255221.537,8.301,-45.898,-16.602,-137.695,-5.859
1689255221.541,-15.625,-59.082,-88.379,63.965,73.242
1689255221.545,-61.035,-67.383,-67.871,53.711,92.773
1689255221.550,-22.949,6.836,-45.898,-42.480,146.973
1689255221.554,-26.855,39.551,-49.316,-73.242,128.906
1689255221.558,-101.562,-18.066,-48.828,-59.082,131.836
1689255221.562,-146.973,-82.520,91.797,-69.824,161.621
1689255221.566,-73.730,-16.113,-37.598,-22.461,129.395
1689255221.570,-44.434,-12.695,-110.352,-7.812,185.059
1689255221.574,-25.391,-69.824,-33.691,-60.547,404.785
1689255221.577,-19.043,-59.570,4.883,-95.703,353.027
1689255221.581,-137.695,-14.160,-26.855,-46.875,92.773
1689255221.585,-126.465,-9.277,-47.852,14.648,154.297
1689255221.589,-98.633,-16.602,-33.203,-16.113,243.164
1689255221.593,-129.883,40.527,-57.617,-111.816,106.934
1689255221.607,-66.895,-55.176,1.465,-135.742,98.633
1689255221.611,-74.219,-46.387,-9.766,-54.199,154.297
1689255221.615,-98.633,-18.555,-41.504,18.066,151.367
1689255221.619,-20.508,-68.359,-42.969,40.527,107.422
1689255221.623,-3.906,-48.828,-40.527,-58.594,4.883
1689255221.627,-45.410,9.766,-55.664,-81.543,110.352
1689255221.631,-100.586,-23.438,10.742,-21.484,452.148
1689255221.634,-74.707,-66.895,11.230,-29.785,353.027
1689255221.638,3.906,-3.906,-111.816,-51.758,104.980
1689255221.642,30.273,-7.324,-74.219,-32.227,128.418
1689255221.646,67.871,-55.176,-39.551,-30.273,179.199
1689255221.650,16.602,-41.992,-44.922,-90.332,59.082
1689255221.653,-38.574,-14.648,-18.555,-46.875,84.473
1689255221.657,15.137,-47.363,20.020,10.742,176.758
1689255221.661,-37.109,-25.391,47.363,-93.262,85.938
1689255221.665,-70.312,-2.930,17.578,-136.719,10.742
1689255221.669,-69.824,-28.320,-24.902,-81.543,92.285
1689255221.673,-61.523,6.348,-34.180,-3.906,308.105
1689255221.677,-17.090,-29.297,-42.480,74.707,286.621
1689255221.680,-37.598,-30.273,-51.270,6.836,170.410
1689255221.684,-0.977,-31.250,-43.457,-60.547,159.668
1689255221.688,35.645,-19.531,-50.781,6.836,395.508
1689255221.692,-60.547,-67.383,84.961,7.812,328.613
1689255221.696,-114.258,-85.938,56.152,-114.258,84.473
1689255221.697,-38.086,1.465,-62.988,-71.289,128.418
1689255221.701,-59.570,45.410,1.465,-122.070,159.180
1689255221.705,-87.891,12.207,-53.223,-120.605,118.652
1689255221.709,4.883,-61.523,-70.312,24.414,98.633
1689255221.713,16.113,-57.129,-9.766,85.938,134.277
1689255221.717,-14.648,-38.086,25.879,15.625,214.355
1689255221.721,-41.992,-22.461,-44.434,-46.875,183.105
1689255221.724,-57.129,-43.457,-5.371,-55.664,149.902
1689255221.728,-104.004,-0.488,-25.391,-83.984,302.246
1689255221.732,-85.449,-30.273,-77.148,18.066,478.027
1689255221.736,-39.062,-71.777,-18.555,35.156,308.105
1689255221.740,-42.969,-5.859,-36.133,-81.055,85.938
1689255221.744,-33.203,-13.184,0.000,-84.961,93.262
1689255221.748,17.578,-57.617,-41.016,41.992,143.066
1689255221.752,-66.406,-27.344,-58.105,20.996,99.609
1689255221.756,-62.988,1.953,-54.688,-34.668,67.871
1689255221.760,52.246,-41.504,-14.648,12.207,118.164
1689255221.764,-64.453,-29.297,98.145,-65.430,105.957
1689255221.768,-136.230,-12.695,4.883,-100.098,140.137
1689255221.771,-94.238,-9.766,-33.203,8.301,155.762
1689255221.775,-0.488,-49.805,-75.195,53.711,360.840
1689255221.779,-30.762,-41.504,-94.727,-63.965,345.703
1689255221.783,-104.492,-16.602,-25.391,-123.535,124.512
1689255221.787,-41.016,-77.637,-41.016,28.320,186.523
1689255221.787,-4.395,-36.133,-61.523,50.781,239.746
1689255221.791,-104.492,43.945,-49.805,-79.102,140.625
1689255221.795,-130.371,-42.480,-50.781,-107.910,128.418
1689255221.799,-29.785,-68.848,-15.625,-56.152,139.648
1689255221.803,-15.137,-50.293,-41.504,-31.250,134.766
1689255221.807,-61.035,-34.668,-29.785,33.203,237.305
1689255221.811,-51.270,-39.062,2.441,-70.801,231.445
1689255221.814,-47.363,-69.824,-57.129,-146.484,272.461
1689255221.818,-66.895,-55.664,-63.965,-48.340,524.902
1689255221.822,-78.613,-20.508,-4.883,-16.602,375.488
1689255221.826,-4.883,-63.965,-59.082,42.969,86.426
1689255221.830,23.438,-31.738,-112.793,32.227,178.711
1689255221.834,-33.203,-0.488,-33.203,-100.098,213.867
1689255221.838,-50.781,-17.090,-36.621,-132.812,75.684
1689255221.842,-53.223,27.344,-111.328,3.906,122.070
1689255221.846,-10.254,-55.176,-78.125,36.621,281.250
1689255221.850,-62.012,-55.176,21.484,-36.133,248.535
1689255221.854,-91.797,-58.594,112.793,-95.703,152.344
1689255221.858,-32.715,-73.730,-35.156,-125.977,208.984
1689255221.861,-60.547,-66.406,-91.797,-114.258,352.051
1689255221.865,-71.777,-38.086,-101.562,63.477,325.684
1689255221.869,-60.547,-32.227,-87.402,88.379,144.531
1689255221.873,-80.566,-21.484,-18.066,-28.320,96.191
1689255221.877,-57.617,-58.594,-56.152,-40.527,86.426
1689255221.878,-96.680,0.977,-77.148,-66.895,53.223
1689255221.882,-225.098,-9.277,-58.105,-0.488,87.891
1689255221.886,-170.898,-52.246,28.320,6.836,216.309
1689255221.890,-61.523,-64.941,15.625,-17.578,190.918
1689255221.894,-53.711,-42.480,-109.375,-29.297,26.855
1689255221.898,-63.477,-9.766,-103.027,-4.395,56.152
1689255221.902,-109.375,-0.488,-57.617,-21.484,186.523
1689255221.905,-121.094,-29.297,-32.715,-38.574,416.992
1689255221.909,-40.527,-67.383,-62.012,22.949,341.309
1689255221.913,-52.246,-50.781,-17.090,-97.656,28.320
1689255221.917,-71.289,-43.945,-43.945,-50.293,-39.062
1689255221.921,-34.180,-51.270,-92.773,76.660,110.840
1689255221.924,-124.512,-15.625,-10.742,-64.941,128.418
1689255221.928,-91.797,-43.457,-52.734,-1.953,47.363
1689255221.932,3.906,-43.457,-95.215,36.621,114.746
1689255221.936,-32.227,-16.602,13.672,-41.504,168.457
1689255221.940,-76.660,-55.176,-19.043,-7.812,205.566
1689255221.944,-62.012,-32.227,-71.289,23.438,202.148
1689255221.948,-44.922,-28.320,-29.297,-9.766,411.133
1689255221.951,-38.574,-35.156,-63.477,-79.590,450.195
1689255221.955,0.488,-20.508,-80.566,-6.836,62.500
1689255221.959,-67.383,-41.504,-41.992,-23.438,16.113
1689255221.963,-66.406,-69.336,-39.551,0.000,151.367
1689255221.967,-10.254,-35.645,-33.203,52.246,94.727
1689255221.967,-59.082,-5.371,-43.945,-22.461,30.273
1689255221.971,-38.086,-46.387,-27.344,-49.316,70.801
1689255221.975,-54.688,-53.711,28.809,-49.316,115.234
1689255221.979,-111.816,-11.719,-36.133,-45.898,113.281
1689255221.983,-23.926,-40.527,-23.926,-13.184,126.953
1689255221.987,25.391,-49.805,-34.180,-15.137,244.629
1689255221.991,-65.918,-53.711,-39.551,-137.207,447.266
1689255221.994,-71.777,-20.020,-83.984,-29.297,268.066
1689255221.998,-41.016,-23.926,-13.672,70.801,106.445
1689255222.002,-51.758,-56.152,-25.879,3.418,230.957
1689255222.006,-80.078,-29.297,-79.590,-19.531,317.871
1689255222.010,-97.656,19.531,-23.926,-110.840,54.688
1689255222.028,-30.273,-24.902,-57.617,-53.711,-4.395
1689255222.032,-26.367,-44.434,-83.008,46.387,183.105
1689255222.036,-130.371,34.180,-32.715,-70.312,144.531
1689255222.040,-70.801,-28.809,-33.203,-81.055,18.066
1689255222.044,30.762,-75.684,-61.035,-28.809,66.895
1689255222.048,11.719,-50.781,-30.273,11.230,300.781
1689255222.052,-48.828,-44.434,-30.762,4.395,311.523
1689255222.055,-127.930,-42.969,3.906,-83.008,165.039
1689255222.059,-46.875,-32.227,-35.156,-20.508,111.328
1689255222.063,-22.461,-50.781,-7.324,-58.105,357.910
1689255222.067,-115.234,-55.176,10.254,-131.836,282.715
1689255222.071,-181.152,33.691,-55.664,-104.980,81.055
1689255222.072,-70.801,-39.062,-66.895,-10.742,175.293
1689255222.076,43.457,-74.707,-54.199,12.695,157.715
1689255222.080,7.812,-44.434,-2.441,-116.699,78.613
1689255222.084,-16.602,-17.578,41.016,-86.426,61.523
1689255222.088,-40.527,16.113,-76.660,-12.207,134.277
1689255222.092,-11.230,-88.379,-83.008,53.711,184.570
1689255222.096,-40.527,-93.750,7.812,-34.668,121.094
1689255222.099,-3.418,-46.875,-37.109,-85.449,61.523
1689255222.103,52.734,-37.598,-106.934,-0.977,206.055
1689255222.107,-53.223,-23.926,-49.316,30.762,482.422
1689255222.111,-198.242,-12.695,-5.371,-71.777,257.324
1689255222.115,-93.750,-41.504,-17.090,-106.934,116.699
1689255222.119,18.555,-56.641,-28.320,-51.270,220.703
1689255222.123,23.926,-42.480,-63.477,25.391,153.320
1689255222.127,-24.902,-45.410,-58.105,-32.715,72.754
1689255222.131,-93.750,-71.777,-38.574,-62.500,104.492
1689255222.135,-61.523,-17.090,-92.285,3.418,171.875
1689255222.139,-91.309,-11.719,-12.207,-66.406,196.777
1689255222.143,20.508,-79.590,-8.789,-54.199,175.781
1689255222.146,14.648,-58.105,-85.938,-19.531,125.488
1689255222.150,-92.773,-32.715,-53.711,-47.363,359.863
1689255222.154,-78.613,-25.879,-21.484,-38.086,350.586
1689255222.158,-110.352,-9.277,-6.348,-113.281,32.715
1689255222.162,-56.641,-36.133,-38.086,-128.906,0.000
1689255222.163,0.977,-28.320,-104.004,-46.875,69.824
1689255222.167,-55.176,-24.414,-62.988,25.879,113.281
1689255222.171,-41.992,-68.848,65.430,-27.344,144.531
1689255222.175,-18.066,-54.199,-21.973,-89.844,123.047
1689255222.179,-60.059,-51.758,-57.129,-73.730,165.039
1689255222.183,-75.195,-80.566,19.531,-69.336,120.605
1689255222.187,-62.988,-82.031,-31.250,-22.461,144.043
1689255222.190,-29.785,-41.016,-101.562,60.059,209.473
1689255222.194,-103.516,-10.742,-27.344,-100.098,464.355
1689255222.198,-78.613,-65.918,-72.754,-166.992,327.148
1689255222.202,-45.410,-77.148,-47.852,-65.918,82.520
1689255222.206,-186.523,-9.766,-0.488,-100.586,125.488
1689255222.209,-140.625,-9.277,-92.285,-105.957,100.098
1689255222.213,-7.324,-76.172,58.594,-87.891,75.684
1689255222.217,-36.133,-71.289,76.172,-43.457,55.664
1689255222.221,15.137,-45.410,-108.398,36.621,90.820
1689255222.225,-36.133,-44.922,-68.848,-7.324,132.812
1689255222.229,-37.109,-44.922,-62.988,-15.625,212.402
1689255222.233,-75.195,-23.438,-52.246,-89.355,141.602
1689255222.236,-68.848,-14.160,-45.410,-107.910,319.824
1689255222.240,51.758,-31.250,-60.547,-66.895,500.977
1689255222.244,-67.871,-37.598,-8.301,-68.848,174.805
1689255222.248,-98.633,0.000,-98.633,-17.090,71.777
1689255222.252,14.648,-42.480,-87.402,10.742,137.207
1689255222.252,-5.371,-8.301,23.926,-44.434,32.715
1689255222.256,-122.559,-28.320,-64.941,-91.797,32.227
1689255222.260,-77.637,-96.191,8.301,-56.152,127.441
1689255222.264,24.902,-70.312,-9.277,-18.066,128.906
1689255222.268,7.812,-36.621,-84.961,-76.172,148.926
1689255222.272,-56.152,-27.344,-35.156,-125.488,79.102
1689255222.276,-2.441,-24.902,-55.176,-121.582,143.555
1689255222.279,77.148,-48.340,-76.172,1.953,595.215
1689255222.283,89.844,-37.598,-72.754,69.824,503.418
1689255222.287,41.016,7.324,-86.426,28.809,77.637
1689255222.291,-0.488,2.930,-75.684,-43.945,90.332
1689255222.295,8.789,-50.293,40.527,-104.004,144.043
1689255222.299,-28.809,-56.641,58.105,-74.707,108.887
1689255222.303,-39.062,-10.742,-99.609,46.875,134.766
1689255222.307,-39.551,-22.461,-65.430,1.465,189.453
1689255222.311,-23.438,-54.199,10.254,-116.699,66.406
1689255222.315,-50.293,41.504,-87.891,-79.590,0.977
1689255222.319,-74.219,21.484,-57.617,-32.715,184.570
1689255222.323,-31.738,-91.797,-14.160,10.254,485.352
1689255222.326,-91.797,-49.805,-20.508,-41.504,416.016
1689255222.330,-41.016,-64.453,-54.199,-57.617,117.188
1689255222.334,49.316,-46.387,-94.727,-77.637,151.855
1689255222.338,-49.805,-26.855,-61.523,-30.762,315.430
1689255222.342,-77.637,-35.156,-14.160,25.879,181.152
1689255222.342,-74.219,-28.809,-33.203,-20.996,11.230
1689255222.346,-64.941,-37.109,-51.758,-54.688,32.715
1689255222.350,-15.625,-61.523,-46.387,-89.844,83.496
1689255222.354,-28.809,-63.477,-16.113,-96.191,97.168
1689255222.358,-40.527,24.414,-66.406,-9.277,90.820
1689255222.362,-34.668,-39.062,-58.105,-41.504,258.301
1689255222.366,-59.082,-90.332,-49.805,-94.238,395.996
1689255222.369,-97.168,-25.879,-19.043,-159.180,192.383
1689255222.373,-81.543,-51.270,17.578,-156.250,46.875
1689255222.377,-88.379,-70.801,-76.660,-78.613,143.555
1689255222.381,-56.641,-29.785,-54.688,-57.617,284.180
1689255222.385,-55.664,-20.020,3.906,-54.199,182.129
1689255222.403,-48.828,-44.434,-70.801,-71.777,1.953
1689255222.407,-56.152,-47.852,-4.395,-89.355,91.797
1689255222.411,-53.711,-5.371,-40.527,-40.039,202.637
1689255222.415,-46.875,-12.695,-77.637,-18.066,78.125
1689255222.419,-48.828,-75.684,-14.160,-75.684,57.129
1689255222.423,-43.457,-62.012,-56.152,-142.578,245.117
1689255222.427,-13.672,-43.457,-75.684,-60.547,275.391
1689255222.430,-52.246,-46.387,-7.324,24.414,176.270
1689255222.434,-145.020,-57.129,84.961,-98.633,154.785
1689255222.438,-66.895,-8.301,-38.086,-87.402,305.176
1689255222.442,18.555,-31.250,-118.164,-68.848,197.266
1689255222.446,-61.523,-79.590,-38.574,-58.594,47.852
1689255222.447,-64.941,-20.996,0.000,-8.789,144.043
1689255222.451,-36.133,-57.129,-17.090,-49.805,193.848
1689255222.455,-18.555,-57.617,-48.340,3.906,146.484
1689255222.459,-22.949,-21.973,-49.805,-26.855,33.203
1689255222.463,-27.832,-21.973,-35.156,-66.895,123.535
1689255222.467,-27.344,-48.340,17.578,-48.340,276.855
1689255222.471,-64.453,-65.918,25.879,-68.359,141.113
1689255222.474,-110.840,-53.711,19.043,-72.266,54.688
1689255222.478,-51.758,-22.949,-65.918,-11.719,140.137
1689255222.482,11.719,-59.082,-64.941,-20.020,388.184
1689255222.486,-49.316,-43.457,-23.438,-63.477,207.031
1689255222.490,-102.539,-49.316,-39.062,-65.430,12.695
1689255222.494,-58.594,-74.219,-31.738,-76.660,77.637
1689255222.498,4.395,-42.480,17.578,-79.102,24.414
1689255222.502,-10.254,-8.789,-25.391,-57.129,15.137
1689255222.506,-22.461,-48.340,-50.781,1.953,155.273
1689255222.510,-84.473,-90.820,37.109,-57.129,271.973
1689255222.514,-115.234,-39.062,-26.367,-92.285,183.594
1689255222.518,-31.738,-38.086,-73.730,-55.176,104.980
1689255222.521,26.855,-44.434,-59.082,-31.738,127.441
1689255222.525,-103.027,38.574,-27.344,-119.141,380.859
1689255222.529,-58.594,-60.059,-0.977,-6.836,396.484
1689255222.533,-19.531,-92.773,-40.527,56.641,121.094
1689255222.537,-21.973,-48.828,-51.758,-21.973,115.723
1689255222.537,7.812,-52.246,-46.387,-35.156,152.832
1689255222.541,-48.340,-45.410,-9.766,-26.855,77.637
1689255222.545,-108.887,-58.594,61.035,-89.844,35.156
1689255222.549,-87.402,-34.180,-50.781,-24.902,57.617
1689255222.553,-62.988,-24.414,-80.078,22.461,89.355
1689255222.557,-22.461,-63.477,-14.648,-34.180,146.973
1689255222.561,-58.594,-48.340,-4.883,-90.820,150.879
1689255222.564,-104.004,-45.898,11.719,-52.246,188.965
1689255222.568,-79.590,-55.664,-16.113,5.371,558.105
1689255222.572,-68.359,-37.598,-46.387,-1.465,476.074
1689255222.576,-22.461,-34.180,-34.180,-25.391,82.031
1689255222.580,-41.504,-47.852,-20.020,-40.527,104.004
1689255222.584,-109.863,-41.504,-9.766,-30.762,113.281
1689255222.588,-110.840,-37.109,-14.160,-62.988,76.172
1689255222.592,-66.406,-47.363,-15.137,-63.477,52.246
1689255222.596,-18.555,-36.133,-20.508,-46.875,102.539
1689255222.600,-52.734,-35.645,11.719,-81.543,124.023
1689255222.604,-92.285,-55.176,-6.836,-56.641,231.445
1689255222.608,-102.539,-48.340,-48.340,-24.414,276.855
1689255222.611,-99.609,-25.391,-21.484,-32.715,362.793
1689255222.615,-62.012,-24.414,-19.531,-73.242,280.762
1689255222.619,-65.430,-23.926,-26.367,-77.148,38.574
1689255222.623,-89.355,-39.551,-17.090,-8.789,131.348
1689255222.627,-133.789,-46.387,-5.859,-23.926,264.648
1689255222.627,-170.898,-40.039,-23.926,-124.023,151.855
1689255222.631,-112.305,-44.922,-19.043,-87.891,45.410
1689255222.635,-72.266,-31.738,-19.043,-31.738,95.215
1689255222.639,-119.141,-23.926,-40.039,-14.648,185.547
1689255222.643,-164.062,-27.344,-22.461,-32.715,157.715
1689255222.647,-166.504,-30.273,-17.090,-81.055,144.043
1689255222.651,-126.953,-36.621,-35.645,-103.027,192.871
1689255222.654,-86.426,-32.715,-35.156,-92.285,505.371
1689255222.658,-92.285,-29.785,-27.344,-52.246,410.156
1689255222.662,-116.211,-24.414,-22.949,-39.062,84.473
1689255222.666,-126.953,-28.809,-12.695,-64.941,183.594
1689255222.670,-99.121,-39.062,-29.297,-87.891,205.566
1689255222.674,-74.219,-38.086,-27.344,-88.867,45.410
1689255222.678,-99.121,-37.598,-21.973,-72.266,62.988
1689255222.682,-132.812,-37.598,-21.484,-62.012,163.574
1689255222.686,-115.234,-37.598,-23.438,-93.262,133.789
1689255222.690,-99.609,-38.086,-31.250,-127.441,8.789
1689255222.694,-73.242,-38.086,-25.391,-128.906,24.902
1689255222.698,-65.430,-37.598,-25.391,-72.754,349.121
1689255222.701,-124.512,-31.738,-24.414,-35.156,327.148
1689255222.705,-156.738,-29.297,-19.531,-65.918,68.359
1689255222.709,-134.766,-33.203,-21.973,-94.238,56.152
1689255222.713,-104.004,-37.109,-22.949,-111.816,86.914
1689255222.717,-124.512,-34.668,-19.043,-106.934,23.438
1689255222.718,-189.453,-33.203,-21.484,-89.355,18.066
1689255222.722,-220.215,-38.086,-20.508,-71.777,245.605
1689255222.726,-205.566,-37.598,-13.184,-88.867,287.598
1689255222.730,-179.688,-29.785,-10.742,-128.906,137.695
1689255222.734,-206.543,-32.227,-14.160,-119.629,60.059
1689255222.738,-251.953,-36.133,-19.043,-83.496,264.648
1689255222.742,-249.512,-33.691,-13.184,-78.613,566.895
1689255222.745,-240.234,-29.785,-8.789,-103.027,286.133
1689255222.749,-215.820,-31.738,-10.254,-121.094,1.953
1689255222.753,-205.566,-41.016,-8.789,-98.145,81.543
1689255222.757,-226.562,-45.898,-12.695,-56.152,184.570
1689255222.761,-207.520,-41.016,-18.066,-55.176,109.863
1689255222.778,-163.574,-33.691,-11.719,-78.613,97.656
1689255222.782,-135.742,-41.016,-7.812,-120.605,105.469
1689255222.786,-131.348,-43.457,-17.578,-113.770,150.879
1689255222.790,-152.832,-42.969,-19.043,-42.480,218.750
1689255222.794,-145.996,-45.898,-10.742,-23.926,147.461
1689255222.798,-100.586,-41.992,-13.672,-45.898,354.980
1689255222.802,-72.266,-38.086,-22.461,-99.609,391.113
1689255222.805,-73.730,-34.180,-25.879,-123.047,39.062
1689255222.809,-107.910,-28.809,-29.785,-70.801,32.715
1689255222.813,-115.723,-30.762,-31.738,-48.828,215.332
1689255222.817,-90.820,-35.645,-31.250,-85.449,112.305
1689255222.821,-67.871,-40.527,-29.297,-130.859,-42.969
1689255222.837,-62.500,-37.598,-26.367,-133.789,-7.324
1689255222.841,-69.824,-25.391,-24.414,-85.449,132.812
1689255222.845,-88.867,-24.902,-30.762,-66.895,176.758
1689255222.849,-98.145,-37.109,-31.738,-78.125,79.102
1689255222.853,-55.664,-38.086,-30.273,-98.633,128.906
1689255222.857,-33.691,-34.180,-32.715,-98.633,229.004
1689255222.861,-62.500,-33.203,-28.320,-60.059,200.195
1689255222.864,-76.172,-37.109,-25.879,-35.645,189.453
1689255222.868,-64.453,-41.992,-25.879,-47.363,210.449
1689255222.872,-44.434,-34.668,-24.902,-82.031,453.125
1689255222.876,-28.809,-34.668,-26.367,-107.910,332.031
1689255222.880,-40.039,-39.062,-31.250,-87.402,121.094
1689255222.869,-68.848,-37.598,-33.203,-48.340,228.027
1689255222.873,-72.754,-36.621,-32.227,-44.922,160.156
1689255222.877,-47.852,-36.621,-32.715,-84.473,48.828
1689255222.881,-37.109,-41.992,-32.715,-128.906,100.098
1689255222.885,-67.383,-42.969,-33.691,-96.191,190.430
1689255222.889,-97.656,-45.410,-34.668,-55.664,226.562
1689255222.893,-98.633,-39.551,-36.133,-61.523,143.066
1689255222.896,-75.684,-30.762,-39.551,-92.285,151.367
1689255222.900,-59.570,-32.227,-45.898,-118.164,277.344
1689255222.904,-68.848,-31.738,-43.945,-90.820,160.645
1689255222.908,-106.445,-35.156,-39.551,-57.129,84.961
1689255222.912,-125.977,-41.992,-39.551,-69.824,96.191
1689255222.912,-103.516,-41.016,-39.062,-95.215,317.871
1689255222.916,-75.684,-38.574,-37.598,-114.258,362.305
1689255222.920,-76.172,-38.086,-43.457,-96.191,144.531
1689255222.924,-100.586,-42.480,-48.828,-52.734,130.859
1689255222.928,-103.516,-42.480,-47.363,-50.293,125.977
1689255222.932,-83.008,-32.227,-46.875,-75.195,95.703
1689255222.936,-60.547,-30.762,-50.293,-107.422,90.332
1689255222.939,-75.684,-29.297,-48.340,-89.355,207.520
1689255222.943,-111.816,-28.809,-41.992,-25.391,518.555
1689255222.947,-129.883,-35.156,-43.945,-29.297,310.547
1689255222.951,-119.141,-36.621,-45.898,-76.172,43.945
1689255222.955,-100.586,-36.133,-48.340,-102.539,130.859
1689255222.959,-112.793,-36.133,-51.270,-89.844,152.832
1689255222.963,-142.578,-42.969,-51.270,-55.664,125.000
1689255222.967,-155.273,-54.199,-47.852,-44.434,147.949
1689255222.971,-149.414,-52.246,-42.969,-73.242,210.449
1689255222.975,-125.977,-45.410,-45.898,-113.281,151.855
1689255222.979,-107.910,-40.527,-42.480,-104.980,162.109
1689255222.983,-133.789,-34.180,-42.480,-62.500,262.207
1689255222.986,-154.297,-35.645,-47.363,-41.016,383.789
1689255222.990,-137.207,-37.598,-46.875,-59.082,265.137
1689255222.994,-104.492,-36.621,-43.945,-99.609,26.855
1689255222.998,-76.172,-37.109,-38.574,-99.121,90.820
1689255223.002,-96.680,-41.504,-40.527,-54.199,164.062
1689255223.003,-116.699,-40.527,-44.922,-20.508,164.551
1689255223.007,-96.680,-35.156,-45.898,-34.180,89.355
1689255223.011,-61.035,-33.691,-47.363,-64.941,92.285
1689255223.015,-42.480,-34.668,-49.805,-81.543,196.777
1689255223.019,-62.500,-42.969,-51.270,-52.734,220.703
1689255223.023,-75.195,-46.387,-48.828,-23.926,200.684
1689255223.027,-67.383,-43.457,-43.457,-30.762,284.180
1689255223.030,-51.758,-47.852,-45.410,-60.059,555.176
1689255223.034,-34.180,-51.270,-46.387,-88.379,301.758
1689255223.038,-42.969,-49.316,-43.457,-58.105,55.664
1689255223.042,-68.359,-41.016,-45.898,-16.602,171.387
1689255223.046,-63.477,-35.645,-48.828,-27.832,130.371
1689255223.049,-27.344,-33.203,-53.711,-64.453,-6.348
1689255223.053,5.859,-34.668,-50.781,-85.938,-44.922
1689255223.057,-2.930,-34.180,-45.410,-57.129,166.504
1689255223.061,-27.344,-28.809,-46.387,-18.066,232.910
1689255223.065,-41.504,-27.832,-44.922,-20.996,131.836
1689255223.069,-34.180,-26.855,-42.969,-49.805,158.203
1689255223.073,-2.930,-27.832,-41.992,-83.496,407.227
1689255223.076,-22.461,-42.480,-45.410,-57.129,498.535
1689255223.080,-78.125,-44.922,-46.875,-8.301,144.531
1689255223.084,-88.379,-34.668,-49.316,-14.160,12.207
1689255223.088,-64.941,-34.180,-49.316,-45.410,59.570
1689255223.092,-26.855,-34.180,-46.387,-71.289,72.266
1689255223.092,-15.137,-28.320,-42.480,-49.805,99.609
1689255223.096,-43.457,-30.762,-38.574,-7.812,139.648
1689255223.100,-48.340,-37.598,-46.387,-11.719,185.059
1689255223.104,-33.203,-34.180,-48.828,-42.480,110.352
1689255223.108,-7.324,-32.227,-40.039,-69.824,16.113
1689255223.112,2.930,-32.715,-39.551,-61.035,174.805
1689255223.116,-31.738,-34.668,-41.504,-20.020,434.570
1689255223.119,-44.434,-32.227,-37.598,-10.742,344.727
1689255223.123,-20.996,-27.832,-40.039,-35.645,115.234
1689255223.127,7.324,-33.691,-42.480,-58.594,114.746
1689255223.131,13.184,-34.668,-40.039,-57.129,360.352
1689255223.135,-17.578,-30.762,-40.039,-24.414,228.516
1689255223.153,-43.457,-32.227,-39.551,-10.742,65.430
1689255223.157,-34.668,-30.273,-42.969,-37.109,156.250
1689255223.161,4.395,-34.668,-43.457,-66.406,117.188
1689255223.165,15.137,-42.480,-40.039,-73.242,-0.488
1689255223.169,-20.996,-36.133,-41.016,-34.180,48.340
1689255223.173,-36.621,-34.180,-39.062,-8.789,212.402
1689255223.177,-27.832,-36.133,-39.551,-34.180,222.168
1689255223.180,-12.207,-38.086,-40.527,-77.148,130.859
1689255223.184,0.488,-38.086,-38.086,-83.984,40.527
1689255223.188,-18.066,-40.039,-41.016,-47.363,256.836
1689255223.192,-41.016,-39.551,-41.992,-7.324,328.613
1689255223.196,-23.926,-38.574,-39.551,-19.531,97.656
1689255223.197,3.906,-44.922,-40.039,-60.059,83.984
1689255223.201,13.672,-37.109,-41.016,-81.543,114.746
1689255223.205,-6.836,-28.809,-41.504,-58.105,133.301
1689255223.209,-41.992,-29.785,-40.527,-21.484,95.215
1689255223.213,-41.992,-36.621,-42.480,-25.879,151.855
1689255223.217,-13.672,-39.551,-42.480,-59.570,252.930
1689255223.221,13.672,-39.062,-43.457,-87.402,253.418
1689255223.224,11.230,-36.621,-38.086,-59.082,200.684
1689255223.228,-22.461,-37.109,-30.762,-12.695,225.098
1689255223.232,-31.250,-36.621,-31.738,-6.836,508.789
1689255223.236,-3.418,-43.457,-30.762,-33.203,362.305
1689255223.240,26.855,-44.922,-25.879,-62.012,63.965
1689255223.244,8.301,-33.691,-26.367,-52.246,91.797
1689255223.248,-33.203,-33.691,-29.785,-10.254,118.652
1689255223.252,-31.738,-35.156,-35.156,-8.789,101.074
1689255223.256,-15.137,-36.133,-40.039,-58.105,33.691
1689255223.260,5.371,-41.504,-36.133,-89.844,101.074
1689255223.264,5.859,-42.969,-30.273,-64.453,250.977
1689255223.268,-21.973,-38.086,-32.227,-26.855,220.703
1689255223.271,-29.297,-30.273,-35.156,-27.344,149.414
1689255223.275,-20.996,-33.203,-33.691,-46.387,268.066
1689255223.279,16.113,-39.551,-34.668,-76.660,196.289
1689255223.283,27.832,-37.109,-33.203,-65.430,-9.277
1689255223.287,-8.301,-35.156,-32.715,-16.602,81.543
1689255223.287,-20.996,-32.227,-33.203,-1.465,204.590
1689255223.291,-0.488,-29.297,-30.273,-31.250,102.539
1689255223.295,19.043,-32.715,-32.715,-60.547,-4.395
1689255223.299,12.695,-35.156,-36.621,-52.734,60.547
1689255223.303,-29.297,-33.203,-34.668,-10.254,170.410
1689255223.307,-53.223,-34.180,-31.250,9.766,217.285
1689255223.311,-36.621,-37.109,-34.180,-23.926,151.855
1689255223.314,8.301,-41.504,-29.297,-51.758,217.285
1689255223.318,23.926,-49.316,-29.297,-51.270,483.398
1689255223.322,-17.578,-42.969,-36.621,-17.578,319.336
1689255223.326,-41.992,-38.086,-39.062,4.883,39.062
1689255223.330,-25.391,-47.852,-36.133,-10.254,107.422
1689255223.333,-5.859,-42.480,-28.320,-47.363,66.895
1689255223.337,-16.113,-39.551,-24.902,-83.984,16.113
1689255223.341,-22.461,-46.387,-30.762,-27.832,102.539
1689255223.345,-35.156,-47.363,-34.180,26.367,204.590
1689255223.349,-26.367,-47.852,-35.156,0.977,199.707
1689255223.353,13.184,-43.457,-30.273,-27.344,159.180
1689255223.357,24.902,-37.598,-24.414,-35.645,119.629
1689255223.360,-3.418,-42.480,-24.414,3.418,345.215
1689255223.364,-27.832,-45.898,-23.438,40.039,360.352
1689255223.368,-20.020,-35.645,-23.926,10.742,98.145
1689255223.372,-0.488,-32.227,-23.438,-36.133,74.219
1689255223.376,20.020,-35.156,-25.879,-47.363,143.066
1689255223.377,3.418,-32.715,-29.297,-17.090,176.758
1689255223.381,-26.367,-30.273,-24.902,16.113,150.879
1689255223.385,-24.902,-31.250,-22.949,4.395,149.414
1689255223.389,0.000,-38.086,-23.926,-26.855,183.105
1689255223.393,32.715,-38.574,-28.320,-54.688,165.039
1689255223.397,17.090,-44.434,-30.273,-37.109,236.816
1689255223.401,-25.391,-45.898,-20.996,7.324,363.770
1689255223.404,-38.574,-35.156,-25.879,10.254,590.332
1689255223.408,-8.301,-36.621,-26.855,-15.137,433.594
1689255223.412,44.922,-38.574,-22.461,-49.316,79.590
1689255223.416,19.043,-39.551,-28.320,-45.410,148.926
1689255223.420,-28.809,-42.969,-31.738,13.184,186.035
1689255223.424,-22.461,-48.828,-18.066,12.695,83.496
1689255223.428,-2.930,-47.363,-20.996,-40.039,20.020
1689255223.432,11.230,-44.922,-33.691,-62.500,92.285
1689255223.436,-15.137,-56.152,-15.137,-51.270,138.184
1689255223.440,-37.598,-54.199,-24.902,-30.273,108.398
1689255223.444,-22.461,-43.457,-35.156,-13.672,266.113
1689255223.448,13.672,-36.621,-31.250,-7.812,496.094
1689255223.451,30.762,-36.621,-34.180,-50.781,365.723
1689255223.455,-26.367,-55.176,-3.906,-75.195,39.062
1689255223.459,-62.500,-53.223,1.953,-34.180,86.426
1689255223.463,-28.320,-29.785,-51.758,4.883,272.949
1689255223.467,-18.066,-53.223,-49.316,-33.691,106.934
1689255223.467,1.465,-48.828,-29.785,-83.984,52.734
1689255223.471,-34.180,-66.895,12.207,-99.121,82.031
1689255223.475,-8.789,-54.199,-70.312,0.000,76.660
1689255223.479,48.340,-26.367,-70.312,53.711,93.750
1689255223.483,-42.480,-43.457,-8.301,-41.016,53.223
1689255223.487,-26.855,-38.574,-39.062,-47.363,145.508
1689255223.491,109.863,-26.855,-59.570,27.832,462.891
1689255223.494,108.398,-3.418,-97.168,86.426,377.441
1689255223.498,29.785,-26.855,-59.082,67.871,66.406
1689255223.502,-29.785,-22.461,-47.852,-29.297,148.926
1689255223.506,-205.566,-22.461,-25.391,-172.363,375.977
1689255223.510,-83.496,-48.828,41.992,-136.230,160.156
1689255223.528,159.668,-75.195,-49.805,20.996,-52.734
1689255223.532,130.859,-71.777,-69.336,106.934,53.223
1689255223.536,-71.777,-6.836,45.898,-106.445,125.488
1689255223.540,-204.102,-55.664,-21.973,-209.473,68.359
1689255223.544,59.082,-75.195,-126.465,24.414,86.914
1689255223.548,94.727,-28.809,-45.898,-34.668,256.836
1689255223.552,-8.301,-51.270,-32.715,-48.340,249.023
1689255223.555,208.984,-23.438,-178.223,196.777,77.637
1689255223.559,307.617,-22.949,-156.738,136.230,63.477
1689255223.563,210.938,-65.918,-9.766,9.766,193.359
1689255223.567,144.043,-65.430,-7.812,21.484,177.246
1689255223.571,83.984,-42.969,14.160,39.551,83.008
1689255223.572,78.125,-17.578,-12.207,96.191,139.160
1689255223.576,35.645,-6.836,-93.262,56.152,202.148
1689255223.580,181.641,-67.383,-85.449,39.062,79.590
1689255223.584,188.965,-22.949,-45.898,51.270,59.082
1689255223.588,87.891,-12.207,-26.367,90.332,217.773
1689255223.592,147.949,-73.242,-72.266,114.746,322.754
1689255223.596,144.531,-40.039,-57.617,64.453,284.668
1689255223.599,96.680,-20.996,-1.465,5.371,111.816
1689255223.603,109.375,-21.973,-66.895,50.293,160.645
1689255223.607,158.203,-43.945,-97.656,175.293,536.133
1689255223.611,129.883,-45.410,-24.414,103.027,331.543
1689255223.615,98.145,-48.340,-4.395,-29.785,10.254
1689255223.620,120.117,-65.918,-8.301,-20.020,62.012
1689255223.624,185.547,-56.641,-16.113,60.547,134.277
1689255223.628,131.836,-15.137,-67.871,75.684,176.270
1689255223.632,62.988,-13.184,-42.480,55.664,126.953
1689255223.636,52.246,-45.898,15.137,24.414,174.316
1689255223.640,34.668,-33.203,-22.461,-8.789,252.441
1689255223.644,63.965,-59.570,10.742,-40.527,175.293
1689255223.647,77.637,-28.809,-13.672,63.965,113.770
1689255223.651,52.734,-33.203,-69.824,141.113,262.695
1689255223.655,73.730,-49.316,-30.273,67.871,251.953
1689255223.659,100.098,-17.090,-43.945,14.648,59.082
1689255223.663,18.555,-37.109,-26.367,-37.109,62.500
1689255223.662,-1.953,-29.297,-35.156,-26.367,93.750
1689255223.666,26.367,-36.621,-47.363,49.805,90.332
1689255223.670,26.855,-32.715,-30.762,62.500,121.094
1689255223.674,20.508,-19.043,-20.996,-45.898,129.395
1689255223.678,-17.578,-18.066,3.906,-91.797,163.086
1689255223.682,-57.129,-42.480,32.715,-180.176,170.410
1689255223.686,-32.227,-57.129,-1.953,-185.547,125.977
1689255223.689,-23.926,-33.691,-45.410,-74.707,197.266
1689255223.693,-26.855,-34.668,-11.719,-114.746,504.883
1689255223.697,-59.570,1.953,-8.301,-218.262,445.801
1689255223.701,-36.133,-45.898,-34.180,-71.289,87.402
1689255223.705,-21.484,-36.621,-68.359,9.766,133.789
1689255223.709,-87.891,14.648,-70.801,-125.977,124.512
1689255223.713,-24.414,-36.621,-1.953,-79.590,58.105
1689255223.717,-4.395,-72.266,-41.016,-1.953,91.309
1689255223.721,-62.012,-63.965,-85.449,22.461,162.598
1689255223.725,-43.945,-72.754,50.781,23.438,211.426
1689255223.729,-55.664,-1.465,4.883,11.230,143.555
1689255223.733,-72.266,8.301,-86.914,8.301,140.137
1689255223.736,-46.875,-44.922,14.160,-102.051,393.555
1689255223.740,-75.195,-60.059,3.418,-39.551,499.023
1689255223.744,-56.641,-79.590,-4.395,46.875,171.387
1689255223.748,-127.441,13.672,-22.949,-88.867,65.430
1689255223.752,-42.480,-58.594,-37.109,-19.043,163.574
1689255223.752,88.867,-97.656,-77.148,78.125,83.008
1689255223.756,59.570,-9.277,-65.918,18.066,38.086
1689255223.760,-33.691,-30.273,-53.223,37.598,72.266
1689255223.764,-16.113,-79.102,-92.285,120.605,35.645
1689255223.768,-59.082,-103.027,28.809,-11.719,-3.418
1689255223.772,-35.156,-18.066,62.988,-75.195,80.566
1689255223.776,3.906,-35.156,-58.594,30.762,238.281
1689255223.779,-20.020,-75.684,-82.520,65.430,547.852
1689255223.783,-17.578,7.324,-41.992,25.391,395.020
1689255223.787,73.730,-38.574,-51.270,9.766,55.664
1689255223.791,21.973,-25.879,-7.324,-101.562,86.426
1689255223.795,-108.398,-5.371,24.902,-142.578,129.883
1689255223.799,44.922,-59.082,-87.402,45.898,97.168
1689255223.803,84.961,-14.160,-114.258,130.859,132.324
1689255223.807,37.598,-64.941,-8.789,60.059,197.266
1689255223.811,75.684,-79.590,24.902,-20.020,129.883
1689255223.815,119.629,-21.973,-85.449,38.574,-6.348
1689255223.819,104.004,-51.270,-75.684,109.375,158.691
1689255223.823,28.809,-78.125,-21.484,74.219,428.711
1689255223.826,14.160,-63.477,16.602,-10.254,259.277
1689255223.830,59.570,-11.230,22.949,-46.875,47.363
1689255223.834,118.652,28.809,-94.238,4.883,51.758
1689255223.838,64.453,-54.199,-23.926,-10.742,73.730
1689255223.842,-58.594,-83.008,73.730,-36.621,142.090
1689255223.842,26.367,-69.336,-50.781,73.242,40.527
1689255223.846,102.539,-20.508,-91.309,84.961,-20.508
1689255223.850,69.336,5.859,-101.562,-23.926,202.148
1689255223.854,15.137,-55.176,-46.875,-10.254,147.461
1689255223.858,-37.109,-85.938,40.527,13.672,105.469
1689255223.862,2.441,-32.227,-47.363,43.945,315.918
1689255223.866,-52.734,-2.930,-85.938,-31.250,541.992
1689255223.869,-47.852,-103.027,29.785,-75.195,337.891
1689255223.873,-95.215,-65.918,62.012,-96.680,67.871
1689255223.877,-86.426,-57.129,-64.941,111.328,220.215
1689255223.881,-22.461,-107.422,-55.664,186.523,387.695
1689255223.885,-65.430,-50.781,1.953,19.531,124.512
1689255223.902,-61.523,-58.594,-23.438,-4.883,-36.621
1689255223.906,-98.633,-61.523,-22.461,-13.184,121.094
1689255223.910,-143.066,-44.922,-27.344,-23.438,229.492
1689255223.914,-102.539,-37.598,-36.621,16.113,85.449
1689255223.918,-43.457,-30.273,-46.387,40.039,73.730
1689255223.922,-29.785,-73.730,-26.855,-44.434,223.633
1689255223.926,-36.133,-80.078,-57.617,-2.930,210.449
1689255223.929,-70.801,-72.266,-9.277,26.855,149.414
1689255223.933,-130.371,-72.754,61.523,-37.109,133.789
1689255223.937,-30.762,-82.031,-87.402,7.324,256.348
1689255223.941,-20.020,-9.277,-85.938,-28.320,185.059
1689255223.945,-67.383,-6.836,-19.531,-46.875,73.242
1689255223.947,8.789,-113.281,0.000,55.176,99.609
1689255223.951,34.668,-63.965,-30.762,20.996,105.469
1689255223.955,-82.031,-20.020,-28.809,-42.480,83.984
1689255223.959,-11.230,-45.410,-41.504,5.371,50.293
1689255223.963,51.270,-61.035,-3.418,9.766,211.914
1689255223.967,-52.246,-43.945,37.109,-62.012,478.516
1689255223.971,-83.984,-14.160,-32.227,-49.805,293.945
1689255223.974,-45.898,-70.312,-43.945,31.738,57.129
1689255223.978,-0.488,-71.289,37.598,1.465,212.402
1689255223.982,-40.039,-66.895,-4.395,-49.805,470.703
1689255223.986,-27.344,-50.293,-107.910,56.152,286.621
1689255223.990,-60.059,-15.137,-53.711,75.684,110.840
1689255223.994,-47.363,-74.219,2.930,0.977,120.117
1689255223.998,-51.758,-63.965,-28.809,-62.988,104.492
1689255224.002,-125.977,-43.945,-41.504,-30.273,83.008
1689255224.006,-60.547,-79.590,-1.953,66.406,100.586
1689255224.010,-95.215,-52.246,18.066,-15.625,187.500
1689255224.014,-132.324,-57.617,45.410,-66.406,205.078
1689255224.018,-43.945,-31.250,-51.758,40.527,204.102
1689255224.021,-16.602,-8.301,-116.211,50.293,180.664
1689255224.025,-7.812,-38.086,-16.113,-10.742,371.094
1689255224.029,-34.180,-20.996,1.953,14.160,465.820
1689255224.033,-90.820,-3.906,-32.227,30.273,147.461
1689255224.037,-99.609,-28.320,-58.105,-21.973,63.965
1689255224.037,-104.980,-78.613,10.742,-95.703,82.520
1689255224.041,-78.613,-46.387,-15.625,-60.547,57.129
1689255224.045,-161.621,-37.598,-35.645,-52.734,82.031
1689255224.049,-98.633,-58.594,14.648,24.902,73.730
1689255224.053,45.898,-28.809,-60.059,58.594,60.547
1689255224.057,-10.254,-78.613,86.914,-70.312,109.375
1689255224.061,-117.676,-58.105,102.539,-142.090,166.016
1689255224.064,-94.727,2.930,-93.750,0.977,202.148
1689255224.068,-97.168,-48.340,8.301,19.043,458.984
1689255224.072,-37.109,-3.418,4.883,11.230,410.156
1689255224.076,-18.066,-52.246,-29.785,-48.340,128.906
1689255224.080,-128.418,-51.758,-11.230,-126.953,119.629
1689255224.084,-80.078,-52.246,26.367,-19.531,145.020
1689255224.088,-59.082,-26.367,-17.090,8.301,102.539
1689255224.092,-74.707,-21.973,-50.293,-23.438,52.734
1689255224.096,-2.930,-90.820,32.715,-33.691,48.340
1689255224.100,-10.254,-72.266,70.312,-45.898,67.383
1689255224.104,-75.684,-15.137,-15.137,-7.324,180.664
1689255224.108,-75.195,-43.457,-0.977,-31.250,193.848
1689255224.111,-54.688,-33.691,-54.688,1.465,307.129
1689255224.115,-47.852,0.488,-32.715,-16.602,299.316
1689255224.119,-82.031,-51.270,4.883,-112.305,74.707
1689255224.123,-57.617,-108.398,32.227,-94.727,109.863
1689255224.127,-52.734,-33.203,-0.977,-28.320,251.465
1689255224.127,-54.199,-14.648,-27.344,16.113,151.367
1689255224.131,-11.719,-42.969,-23.438,-83.008,10.254
1689255224.135,-2.441,-62.988,37.598,-94.238,40.039
1689255224.139,-51.270,-74.707,-6.348,40.039,91.309
1689255224.143,-59.082,-58.105,-55.664,42.969,92.285
1689255224.147,-16.602,-58.594,-50.293,19.043,112.793
1689255224.151,-74.219,-16.113,18.555,-84.473,120.605
1689255224.154,-70.801,-3.418,-28.809,-65.430,386.719
1689255224.158,-21.484,-39.551,-87.891,30.762,436.035
1689255224.162,-10.742,-38.086,-41.992,6.836,154.297
1689255224.166,-53.223,-35.645,-7.812,-40.039,123.535
1689255224.170,-65.918,-20.020,-8.789,-123.047,91.797
1689255224.175,-36.133,-20.508,-26.367,-101.562,117.676
1689255224.179,-20.020,-99.121,0.977,21.484,173.340
1689255224.183,-57.129,-63.477,-63.965,63.965,184.082
1689255224.187,-109.863,-41.504,-21.973,-31.738,183.105
