timestamps,TP9,AF7,AF8,TP10,Right AUX
1689255257.189,-105.957,-87.891,-15.137,-112.305,124.512
1689255257.193,-114.746,-83.008,-20.020,-114.746,135.742
1689255257.197,-99.121,-78.613,-21.973,-128.906,133.301
1689255257.201,-88.379,-77.148,-21.484,-151.855,-9.766
1689255257.205,-101.074,-78.125,-22.461,-146.973,34.180
1689255257.209,-125.977,-77.148,-20.996,-110.352,207.520
1689255257.213,-133.789,-74.219,-14.648,-105.469,245.117
1689255257.216,-124.512,-77.148,-12.695,-120.605,144.531
1689255257.220,-97.656,-81.543,-16.113,-142.578,108.398
1689255257.224,-100.098,-81.055,-15.625,-137.207,415.527
1689255257.228,-129.395,-83.496,-13.672,-107.910,312.988
1689255257.232,-140.625,-80.078,-13.184,-95.215,35.645
1689255257.232,-127.441,-65.918,-14.160,-103.027,72.754
1689255257.236,-98.145,-62.500,-16.602,-130.859,73.242
1689255257.240,-85.449,-66.895,-12.207,-135.742,17.578
1689255257.244,-109.375,-64.941,-9.277,-96.191,42.480
1689255257.248,-136.719,-59.570,-13.184,-80.078,183.594
1689255257.252,-127.441,-58.594,-14.648,-96.680,258.789
1689255257.256,-95.215,-56.152,-11.230,-112.305,111.328
1689255257.259,-71.777,-57.617,-8.789,-114.746,22.949
1689255257.263,-104.980,-68.848,-11.230,-99.121,168.945
1689255257.267,-145.996,-69.336,-16.602,-75.195,444.336
1689255257.271,-143.066,-54.199,-18.555,-83.496,240.723
1689255257.275,-112.793,-53.223,-19.043,-130.371,46.387
1689255257.277,-82.031,-54.199,-14.160,-144.043,148.438
1689255257.281,-92.285,-53.223,-14.160,-98.633,60.059
1689255257.285,-122.070,-60.547,-18.555,-50.781,0.488
1689255257.289,-114.746,-59.082,-17.578,-55.664,50.781
1689255257.293,-82.031,-53.223,-14.160,-87.891,46.387
1689255257.297,-56.641,-59.082,-13.672,-108.887,112.305
1689255257.301,-68.848,-71.289,-10.254,-91.797,169.434
1689255257.304,-94.238,-65.918,-12.695,-44.922,120.117
1689255257.308,-81.543,-48.340,-16.113,-33.691,286.133
1689255257.312,-68.848,-42.969,-18.555,-76.660,154.785
1689255257.316,-47.852,-44.922,-20.020,-107.422,-33.691
1689255257.320,-56.641,-48.340,-21.484,-77.637,13.672
1689255257.323,-101.074,-55.664,-24.902,-32.715,50.781
1689255257.327,-98.633,-60.059,-23.926,-41.016,31.738
1689255257.331,-84.473,-61.035,-25.391,-80.566,3.906
1689255257.335,-65.918,-60.059,-20.020,-96.191,148.438
1689255257.339,-67.383,-58.105,-18.066,-66.895,399.902
1689255257.343,-99.121,-55.664,-16.602,-34.668,324.707
1689255257.347,-104.492,-55.664,-15.625,-44.434,166.992
1689255257.350,-84.961,-59.082,-14.160,-70.801,232.422
1689255257.354,-64.453,-61.035,-10.742,-93.750,299.805
1689255257.358,-76.660,-66.406,-16.602,-96.191,59.570
1689255257.362,-116.211,-70.312,-21.973,-69.824,43.457
1689255257.366,-127.930,-66.895,-20.996,-61.523,124.512
1689255257.368,-106.934,-60.547,-19.531,-83.984,68.848
1689255257.372,-77.637,-58.594,-18.555,-115.234,65.430
1689255257.376,-73.242,-66.406,-17.578,-119.141,77.637
1689255257.380,-99.121,-67.383,-21.484,-69.336,216.309
1689255257.384,-105.469,-54.199,-22.461,-51.270,246.094
1689255257.388,-91.797,-43.945,-19.531,-80.078,211.426
1689255257.392,-79.102,-42.480,-15.137,-94.238,255.859
1689255257.395,-83.008,-50.293,-11.719,-88.379,358.887
1689255257.399,-107.910,-48.340,-13.184,-66.406,318.848
1689255257.403,-125.000,-41.992,-23.438,-51.758,129.883
1689255257.407,-113.281,-45.410,-27.344,-70.801,109.375
1689255257.411,-93.262,-52.734,-22.949,-99.121,35.156
1689255257.412,-81.055,-58.105,-17.090,-101.074,-46.387
1689255257.416,-95.215,-52.734,-14.648,-73.730,-32.227
1689255257.420,-108.887,-46.387,-17.578,-52.734,57.129
1689255257.424,-93.262,-44.922,-19.043,-58.594,122.070
1689255257.428,-86.426,-48.828,-27.344,-83.008,71.777
1689255257.432,-73.242,-46.875,-33.691,-101.074,35.645
1689255257.436,-82.031,-41.992,-33.203,-70.312,118.652
1689255257.439,-102.051,-45.410,-30.273,-34.668,491.211
1689255257.443,-99.121,-50.293,-26.855,-48.828,320.801
1689255257.447,-76.660,-52.734,-25.879,-95.215,-18.555
1689255257.451,-45.410,-54.199,-23.438,-110.840,3.906
1689255257.455,-57.129,-57.617,-20.020,-83.984,14.648
1689255257.459,-94.727,-53.711,-18.555,-48.828,87.891
1689255257.463,-91.309,-44.434,-19.531,-45.410,109.375
1689255257.467,-73.730,-46.387,-23.926,-83.008,111.816
1689255257.471,-63.477,-44.922,-22.461,-115.723,104.492
1689255257.475,-70.801,-41.992,-19.531,-92.773,104.004
1689255257.479,-92.285,-44.434,-21.973,-49.316,225.586
1689255257.483,-103.516,-45.898,-28.320,-50.781,477.539
1689255257.486,-84.473,-43.457,-28.320,-89.355,277.832
1689255257.490,-49.316,-41.016,-24.414,-116.211,-27.832
1689255257.494,-58.105,-46.875,-27.832,-96.680,96.680
1689255257.498,-97.168,-50.293,-29.297,-60.059,324.219
1689255257.502,-98.633,-45.898,-25.391,-56.641,136.719
1689255257.517,-78.613,-36.621,-22.949,-83.496,-11.719
1689255257.521,-58.105,-32.715,-21.484,-110.352,58.594
1689255257.525,-63.477,-35.156,-21.484,-92.773,92.773
1689255257.529,-94.238,-38.086,-21.484,-42.969,145.508
1689255257.533,-103.516,-38.574,-21.973,-29.785,105.957
1689255257.537,-93.262,-38.086,-21.973,-57.129,153.809
1689255257.541,-71.777,-40.039,-15.625,-81.543,403.320
1689255257.544,-67.383,-40.527,-17.578,-75.195,205.566
1689255257.548,-87.891,-39.062,-23.926,-54.199,-4.395
1689255257.552,-104.980,-36.133,-19.531,-46.387,97.168
1689255257.556,-95.703,-38.574,-17.090,-66.406,85.449
1689255257.560,-71.777,-37.109,-21.484,-87.402,86.426
1689255257.550,-65.918,-33.203,-20.996,-83.496,93.262
1689255257.554,-97.656,-32.227,-26.367,-56.641,227.539
1689255257.558,-108.398,-35.645,-28.320,-39.551,195.801
1689255257.562,-89.844,-33.203,-20.508,-54.688,60.059
1689255257.566,-69.336,-28.809,-13.184,-81.055,124.512
1689255257.570,-64.941,-30.273,-9.277,-80.566,207.031
1689255257.574,-92.285,-30.762,-9.277,-44.922,182.617
1689255257.577,-112.305,-32.227,-15.137,-20.020,123.047
1689255257.581,-107.910,-37.598,-22.461,-29.785,179.688
1689255257.585,-101.562,-39.551,-24.414,-83.008,403.320
1689255257.589,-82.031,-43.945,-24.414,-103.027,246.582
1689255257.593,-73.242,-46.875,-28.809,-54.688,14.648
1689255257.608,-97.168,-46.875,-38.086,-57.617,21.484
1689255257.612,-93.750,-49.805,-33.691,-72.754,28.320
1689255257.616,-57.617,-42.969,-25.879,-91.797,94.727
1689255257.620,-33.691,-34.668,-36.621,-133.789,79.102
1689255257.624,-58.105,-40.527,-44.434,-118.652,101.074
1689255257.628,-75.195,-45.410,-40.039,-59.082,490.723
1689255257.632,-67.383,-40.527,-41.504,-65.430,387.695
1689255257.635,-64.453,-45.410,-38.086,-103.027,42.480
1689255257.639,-53.223,-47.852,-30.273,-108.398,126.953
1689255257.643,-88.379,-53.223,-27.344,-90.332,201.172
1689255257.647,-128.906,-50.781,-30.273,-74.707,98.145
1689255257.651,-100.098,-53.711,-36.621,-80.566,139.160
1689255257.652,-82.520,-58.105,-38.574,-111.328,149.414
1689255257.656,-57.617,-53.711,-28.809,-119.141,101.562
1689255257.660,-60.547,-63.477,-27.832,-91.797,65.918
1689255257.664,-84.473,-66.406,-30.762,-66.895,110.352
1689255257.668,-90.332,-60.059,-26.367,-67.383,275.879
1689255257.672,-86.426,-61.035,-24.902,-116.211,222.168
1689255257.676,-64.453,-54.688,-28.809,-173.340,121.094
1689255257.679,-74.707,-62.012,-27.344,-108.887,59.570
1689255257.683,-79.102,-57.617,-16.113,-21.484,290.527
1689255257.687,-70.312,-52.246,-15.625,-23.438,327.148
1689255257.691,-59.570,-54.688,-13.672,-55.176,42.480
1689255257.695,-53.711,-55.664,-9.277,-66.406,43.457
1689255257.697,-72.266,-61.035,-11.230,-61.035,73.242
1689255257.701,-104.980,-62.988,-13.672,-42.480,39.062
1689255257.705,-94.238,-66.895,-8.301,-14.648,17.578
1689255257.709,-78.125,-60.547,-1.953,-36.133,180.664
1689255257.713,-49.805,-72.754,-1.465,-67.871,282.227
1689255257.717,-35.156,-76.172,-5.859,-65.430,163.086
1689255257.721,-89.355,-63.965,-15.625,-49.316,104.980
1689255257.724,-87.891,-63.965,-16.602,-6.348,222.656
1689255257.728,-106.934,-56.152,-11.719,-57.617,399.902
1689255257.732,-89.844,-65.918,-9.277,-98.633,104.004
1689255257.736,-43.457,-69.336,-12.695,-41.504,-20.508
1689255257.740,-99.609,-67.383,-16.113,-26.367,133.789
1689255257.743,-133.789,-76.660,-17.578,-35.645,150.391
1689255257.747,-61.523,-72.754,-15.137,-33.691,44.434
1689255257.751,-9.766,-69.824,-11.719,-39.062,-8.789
1689255257.755,-29.297,-75.684,-10.742,-48.828,24.902
1689255257.759,-54.199,-68.848,-6.836,-8.301,24.902
1689255257.763,-68.848,-68.359,-7.812,4.883,41.016
1689255257.767,-113.770,-90.332,-12.207,-53.223,121.582
1689255257.770,-157.227,-96.191,-15.625,-78.613,299.316
1689255257.774,-77.637,-92.773,-8.301,-68.848,277.832
1689255257.778,-43.457,-82.031,-8.789,-36.133,171.875
1689255257.782,-125.488,-69.336,-12.695,-14.160,162.598
1689255257.786,-79.590,-80.566,-21.973,-45.898,217.285
1689255257.787,-12.207,-89.844,-22.461,-55.176,75.195
1689255257.791,-14.160,-80.566,-18.555,-33.691,-25.879
1689255257.795,-98.145,-111.816,10.742,-51.758,174.316
1689255257.799,-245.605,-141.602,32.227,-92.285,251.465
1689255257.803,-128.418,-96.191,-37.109,-27.832,53.223
1689255257.807,-28.809,-61.523,-36.133,-61.035,19.043
1689255257.811,-128.906,-51.270,20.508,-122.559,202.637
1689255257.814,-94.238,-49.805,-25.391,-28.809,397.461
1689255257.818,-70.801,-92.285,-40.039,11.230,221.680
1689255257.822,-129.395,-93.262,0.977,-40.039,30.762
1689255257.826,-170.898,-83.984,32.715,-115.723,123.047
1689255257.830,-85.938,-89.355,-11.230,-53.711,112.305
1689255257.834,-127.930,-85.938,-21.484,-54.688,21.484
1689255257.838,-162.598,-103.027,19.043,-66.895,25.879
1689255257.842,-68.848,-66.406,-80.078,51.270,167.969
1689255257.846,-53.711,-23.438,-101.562,18.555,172.363
1689255257.850,-55.176,-96.191,24.902,-48.828,30.762
1689255257.854,-72.266,-116.699,9.277,-38.574,108.398
1689255257.858,-43.457,-48.828,-36.133,13.672,448.242
1689255257.861,-69.824,-51.758,-39.551,-0.488,333.496
1689255257.865,-84.961,-46.875,-48.340,13.672,99.121
1689255257.869,-77.637,-70.801,49.805,-20.508,76.660
1689255257.873,76.172,-128.418,-22.949,60.059,120.117
1689255257.877,25.391,-85.449,-36.621,91.309,136.230
1689255257.878,-42.969,-108.398,10.742,47.363,86.426
1689255257.882,31.250,-126.465,-44.434,100.586,197.266
1689255257.886,58.594,-73.242,-107.422,131.348,180.664
1689255257.890,59.570,-88.379,-41.504,95.703,46.875
1689255257.894,-37.598,-75.195,-42.969,109.375,91.309
1689255257.898,83.496,-107.422,-92.773,219.238,246.582
1689255257.902,114.258,-116.211,-79.590,145.020,473.145
1689255257.905,86.426,-119.629,-13.184,87.891,214.844
1689255257.909,126.465,-113.770,-20.996,102.051,-76.172
1689255257.913,36.621,-57.129,-77.148,58.105,69.824
1689255257.917,-44.922,-78.613,-39.551,85.938,125.000
1689255257.921,-4.395,-113.770,-82.520,97.168,45.898
1689255257.924,34.668,-108.887,11.719,8.789,-4.883
1689255257.928,-97.168,-37.598,13.672,-82.031,9.766
1689255257.932,-14.648,-66.895,-108.398,69.336,58.105
1689255257.936,75.684,-77.637,-105.957,143.555,71.777
1689255257.940,20.508,-122.559,-81.543,115.723,191.895
1689255257.944,15.137,-81.543,-41.992,61.035,476.074
1689255257.948,35.645,-83.008,-8.789,22.949,340.332
1689255257.951,100.586,-87.891,-80.078,118.164,19.043
1689255257.955,14.648,-96.191,-21.973,85.449,60.059
1689255257.959,-60.547,-122.070,73.242,-4.883,168.457
1689255257.963,-39.062,-97.168,-51.758,29.785,43.945
1689255257.967,92.285,-80.566,-111.816,100.586,6.836
1689255257.982,72.754,-16.602,-111.328,76.660,45.410
1689255257.986,-2.441,-67.383,-97.168,101.562,11.719
1689255257.990,20.508,-100.586,-85.938,80.078,29.297
1689255257.994,-18.066,-127.441,-44.434,-2.930,122.070
1689255257.998,37.109,-132.812,-74.707,78.613,155.762
1689255258.002,36.133,-50.293,-80.078,122.070,322.754
1689255258.006,-92.773,-67.383,13.672,10.742,325.684
1689255258.009,-64.453,-58.594,-36.133,56.641,113.770
1689255258.013,-49.805,-41.992,-88.867,81.055,143.555
1689255258.017,-21.484,-114.258,-14.648,35.645,330.078
1689255258.021,25.391,-102.051,-65.918,112.305,110.352
1689255258.025,-58.105,-57.617,-70.312,119.141,3.906
1689255258.027,-112.793,-45.898,-53.711,66.895,131.836
1689255258.031,-47.363,-53.223,-71.289,18.066,64.453
1689255258.035,-10.254,-119.629,-55.176,31.250,58.594
1689255258.039,-29.297,-67.871,-87.402,44.434,77.148
1689255258.043,-67.871,-86.426,-53.711,85.938,76.660
1689255258.047,-92.773,-101.074,-50.293,106.445,147.949
1689255258.051,-98.145,-114.746,-72.754,15.137,138.184
1689255258.054,30.273,-117.676,-41.504,82.031,85.449
1689255258.058,71.777,-55.664,-83.496,114.746,349.121
1689255258.062,-59.082,-75.684,-87.402,76.660,343.750
1689255258.066,-127.930,-132.812,58.594,66.406,100.098
1689255258.070,-40.527,-161.133,96.680,19.531,91.797
1689255258.087,-3.418,-34.668,-60.059,8.789,92.773
1689255258.091,-30.762,-40.039,-87.402,5.371,80.078
1689255258.095,-88.867,-58.594,-35.156,61.035,105.957
1689255258.099,-109.863,-62.988,-31.250,154.297,247.559
1689255258.103,-49.805,-84.961,-82.031,120.117,247.559
1689255258.107,-109.863,-95.703,-36.133,-28.809,129.395
1689255258.111,-22.949,-90.332,-17.578,75.195,115.723
1689255258.114,-33.203,-51.270,-47.852,107.422,276.855
1689255258.118,-71.777,-90.820,-14.648,130.371,374.512
1689255258.122,-81.543,-39.062,-19.531,94.727,84.961
1689255258.126,-150.391,-88.379,142.578,-62.012,-14.648
1689255258.130,-96.680,-59.570,22.949,-43.945,122.559
1689255258.118,-53.711,-55.176,-97.656,60.059,135.254
1689255258.122,-41.016,-118.164,-91.797,131.836,114.258
1689255258.126,-85.449,-45.898,-89.355,96.680,146.484
1689255258.130,-28.809,-87.891,19.531,5.859,119.141
1689255258.134,-27.344,-95.703,-25.879,16.602,72.266
1689255258.138,-121.094,-48.340,-83.008,12.695,100.586
1689255258.142,-84.961,-86.426,-56.152,80.566,186.035
1689255258.145,-118.652,-93.262,10.254,56.641,246.094
1689255258.149,-10.254,-61.035,-45.410,-25.391,168.457
1689255258.153,17.578,-62.012,-77.637,8.301,17.090
1689255258.157,-140.137,-89.355,8.301,-35.156,46.387
1689255258.161,-185.059,-38.574,-50.293,-32.715,317.871
1689255258.163,-52.734,-84.961,-88.867,69.336,265.137
1689255258.167,-63.965,-118.652,-41.016,44.434,69.336
1689255258.171,-72.266,-108.887,-0.977,-55.664,69.824
1689255258.175,-26.367,-56.152,-102.051,-45.410,283.203
1689255258.179,-47.363,-40.039,-98.145,75.195,190.430
1689255258.183,-101.074,-86.426,12.695,22.461,76.660
1689255258.187,-144.043,-63.965,-0.977,-75.684,289.551
1689255258.190,-114.746,-47.363,-43.945,-65.430,423.340
1689255258.194,-66.406,-43.457,-28.809,-7.324,174.805
1689255258.198,-97.656,-17.090,15.137,-4.395,47.363
1689255258.202,-142.090,-85.938,-41.016,1.953,95.703
1689255258.206,-73.730,-35.156,-73.730,53.711,35.156
1689255258.209,10.254,-52.246,-20.508,-0.977,-33.203
1689255258.213,-136.719,-72.266,10.254,-81.055,15.625
1689255258.217,-139.648,-43.457,-60.059,0.977,181.152
1689255258.221,0.000,-76.172,-43.457,79.590,191.895
1689255258.225,-140.137,-93.750,79.590,-71.777,83.008
1689255258.229,-85.938,-87.891,-38.086,-53.711,143.555
1689255258.233,-46.875,-55.664,-52.734,-0.488,401.855
1689255258.236,-145.996,-30.273,-15.625,-63.477,395.996
1689255258.240,-85.449,-58.105,-78.613,-34.668,48.340
1689255258.244,-73.242,-61.523,-58.105,-11.719,1.465
1689255258.248,-52.734,-98.145,-26.367,-28.809,146.484
1689255258.252,-67.383,-50.293,-24.414,-41.504,67.383
1689255258.252,-159.668,-26.855,-40.527,-79.102,12.207
1689255258.256,-97.656,-100.586,-65.918,-38.086,76.172
1689255258.260,-145.020,-59.570,-0.488,-54.199,98.633
1689255258.264,-99.609,-83.984,36.133,-41.504,141.602
1689255258.268,-3.418,-90.332,-72.266,-23.438,90.332
1689255258.272,-92.285,-39.551,-77.637,-7.812,178.223
1689255258.276,-129.395,-86.426,0.488,63.965,544.434
1689255258.279,-143.066,-92.285,26.855,-38.574,387.207
1689255258.283,-82.031,-35.645,-55.664,-80.566,47.363
1689255258.287,-95.215,-47.363,-87.891,-37.109,96.680
1689255258.291,-137.695,-86.426,-23.438,-95.215,101.562
1689255258.295,-130.859,-78.613,22.461,-148.438,15.625
1689255258.312,-49.805,-57.617,-83.984,-12.695,62.500
1689255258.316,1.465,-67.383,-77.148,-18.066,149.902
1689255258.320,-14.160,-86.914,-24.902,-57.617,102.051
1689255258.324,-57.129,-57.129,5.371,-73.242,63.965
1689255258.328,-102.539,-31.738,-10.742,-63.477,114.258
1689255258.332,-136.719,-27.832,-59.082,-26.367,211.426
1689255258.336,-134.277,-53.711,-33.203,-78.613,167.969
1689255258.339,-57.617,-100.586,-46.387,-14.648,141.602
1689255258.343,-83.984,-61.035,-66.895,-51.270,219.238
1689255258.347,-166.992,-69.336,0.000,-89.355,359.863
1689255258.351,-145.996,-108.887,-2.930,-8.301,255.371
1689255258.355,-133.789,-52.734,-23.438,-8.789,-8.301
1689255258.357,-107.910,-19.531,36.621,-79.590,-16.602
1689255258.361,-91.309,-115.234,47.363,-103.027,64.453
1689255258.365,-143.066,-89.844,35.645,-44.434,92.285
1689255258.369,-131.836,-46.875,-38.574,-23.438,132.812
1689255258.373,-136.230,-70.801,-70.312,-51.758,129.395
1689255258.377,-135.742,-57.617,-62.012,-78.125,162.109
1689255258.381,-91.797,-114.258,-24.414,-117.188,145.508
1689255258.384,-160.645,-87.891,21.484,-101.562,72.754
1689255258.388,-215.332,-22.949,-43.945,-79.590,114.258
1689255258.392,-103.027,-85.449,-61.035,-53.223,306.152
1689255258.396,-110.840,-113.281,41.992,-140.625,208.008
1689255258.400,-152.832,-56.152,-9.766,-113.770,39.062
1689255258.402,-120.605,-55.176,-90.820,13.672,170.898
1689255258.406,-123.535,-47.852,-28.320,-58.594,160.645
1689255258.410,-109.863,-18.555,-44.922,-129.883,-13.672
1689255258.414,-70.312,-106.934,-44.922,-63.965,-30.762
1689255258.418,-115.234,-105.469,4.395,-94.727,70.801
1689255258.422,-128.906,-83.496,7.324,-130.859,218.750
1689255258.426,-117.188,-80.566,0.977,-64.941,220.703
1689255258.429,-149.414,-8.789,-109.375,-73.242,150.391
1689255258.433,-128.418,-93.262,-22.949,-148.438,264.648
1689255258.437,-114.258,-122.070,59.570,-179.199,184.082
1689255258.441,-133.301,-52.734,-54.688,-62.500,101.562
1689255258.445,-151.855,-75.195,-70.312,-1.953,160.645
1689255258.447,-129.395,-117.188,21.484,-75.195,172.363
1689255258.451,-93.262,-113.770,56.641,-186.523,82.520
1689255258.455,-116.211,-53.711,-39.551,-107.422,-65.430
1689255258.459,-163.086,-49.316,-15.137,-75.195,107.422
1689255258.463,-134.277,-57.617,-47.852,-105.469,410.156
1689255258.467,-136.230,-55.664,-49.316,-110.840,230.469
1689255258.471,-136.230,-76.172,-8.789,-109.375,52.246
1689255258.474,-142.090,-90.820,-15.137,-127.441,116.211
1689255258.478,-191.406,-90.820,-1.953,-120.605,275.879
1689255258.482,-207.031,-81.543,1.953,-128.418,143.555
1689255258.486,-121.582,-144.531,-4.395,-156.250,43.457
1689255258.490,-78.125,-136.719,-62.012,-113.770,108.398
1689255258.495,-106.445,-102.051,-78.613,-80.078,61.035
1689255258.499,-163.574,-80.566,-20.020,-160.645,57.129
1689255258.503,-230.957,-35.156,-59.570,-175.293,132.812
1689255258.507,-119.629,-105.957,-50.781,-69.824,254.883
1689255258.511,-79.590,-119.141,-68.359,-104.980,224.121
1689255258.515,-131.836,-83.008,-36.621,-207.031,184.570
1689255258.519,-173.828,-39.551,48.340,-208.496,162.598
1689255258.522,-162.598,-53.711,-55.664,-57.617,299.316
1689255258.526,-187.988,-121.582,-65.430,-77.637,249.023
1689255258.530,-117.188,-107.422,-40.527,-106.934,41.992
1689255258.534,-57.617,-83.008,-18.066,-127.441,34.668
1689255258.538,-169.922,-96.191,1.953,-197.754,135.254
1689255258.537,-191.406,-103.516,-48.828,-121.582,83.008
1689255258.541,-112.305,-47.363,-102.051,-9.766,6.836
1689255258.545,-128.418,-56.641,18.066,-147.949,135.254
1689255258.549,-84.961,-123.535,38.086,-203.613,208.496
1689255258.553,-67.383,-78.125,-91.309,-104.492,124.512
1689255258.557,-112.305,-68.848,-61.523,-33.691,147.949
1689255258.561,-174.805,-64.453,-8.789,-94.727,291.992
1689255258.564,-201.172,-30.762,-14.648,-154.785,556.641
1689255258.568,-134.766,-99.121,-2.441,-143.066,338.867
1689255258.572,-129.395,-150.879,4.883,-187.988,0.488
1689255258.576,-161.133,-103.516,-62.012,-145.020,83.984
1689255258.580,-160.645,-50.293,-51.758,-50.781,62.500
1689255258.584,-91.309,-36.621,-8.301,-128.906,-35.645
1689255258.588,-60.059,-66.895,-37.109,-110.352,-6.836
1689255258.592,-116.211,-72.754,-14.160,-88.867,73.242
1689255258.596,-180.664,-90.820,45.898,-121.094,133.301
1689255258.600,-151.855,-128.906,19.531,-92.773,85.449
1689255258.604,-168.457,-73.242,-10.254,-148.438,121.094
1689255258.608,-88.379,-25.879,-84.473,-100.098,370.605
1689255258.611,-114.258,-55.176,-53.711,-97.656,330.566
1689255258.615,-136.719,-98.145,-50.293,-87.891,83.008
1689255258.619,-84.961,-74.219,-54.199,-47.363,45.898
1689255258.623,-111.328,-62.500,-24.902,-111.328,189.941
1689255258.627,-65.918,-84.961,-35.156,-123.535,83.984
1689255258.627,-82.031,-128.418,51.270,-139.160,4.883
1689255258.631,-126.953,-101.562,-4.395,-110.840,39.551
1689255258.635,-128.906,-46.387,-75.195,-65.918,121.582
1689255258.639,-192.871,-46.387,-42.480,-101.562,157.227
1689255258.643,-167.969,-72.266,44.434,-128.418,30.762
1689255258.647,-93.750,-102.051,-16.602,-140.137,106.934
1689255258.651,-100.586,-54.688,-78.125,-84.473,420.898
1689255258.654,-186.523,-61.523,-32.715,-48.340,250.977
1689255258.658,-199.707,-63.965,-28.809,-92.285,-24.902
1689255258.662,-158.203,-83.496,-16.602,-172.363,125.488
1689255258.666,-155.273,-78.125,27.344,-193.359,84.473
1689255258.670,-140.137,-42.480,-17.090,-114.258,-29.785
1689255258.674,-93.750,-110.840,-60.547,10.254,98.145
1689255258.678,-130.859,-110.352,-4.395,-63.477,205.078
1689255258.682,-204.102,-56.152,-55.664,-168.945,78.125
1689255258.686,-132.324,-53.711,-82.031,-131.836,-24.414
1689255258.690,-141.113,-115.234,31.250,-111.816,33.691
1689255258.694,-194.824,-85.449,-45.898,-107.910,230.469
1689255258.698,-156.738,-106.445,-77.148,-59.082,303.223
1689255258.701,-128.906,-123.047,34.180,-135.742,166.016
1689255258.705,-105.469,-20.996,-25.391,-149.414,81.055
1689255258.709,-116.211,-74.707,-46.875,-105.957,269.531
1689255258.713,-189.453,-106.445,-43.457,-88.379,187.500
1689255258.717,-139.648,-89.844,-43.945,-59.570,62.012
1689255258.732,-132.812,-65.430,-48.828,-53.223,171.875
1689255258.736,-163.574,-92.285,-31.250,-116.211,152.832
1689255258.740,-129.883,-117.188,-53.711,-174.316,125.488
1689255258.744,-160.156,-116.211,-61.523,-105.957,212.891
1689255258.748,-223.145,-119.629,9.277,-111.816,176.758
1689255258.752,-178.711,-91.309,5.859,-125.000,243.164
1689255258.756,-177.246,-58.105,-57.129,-191.406,262.695
1689255258.759,-186.523,-60.547,-74.219,-249.512,158.203
1689255258.763,-154.785,-73.242,-30.273,-166.504,146.484
1689255258.767,-141.113,-99.609,-16.602,-100.586,255.859
1689255258.771,-136.719,-95.703,-17.578,-123.047,114.258
1689255258.775,-166.016,-89.844,-29.297,-120.605,54.688
1689255258.778,-211.914,-114.746,-21.973,-207.520,123.535
1689255258.782,-200.195,-93.262,-61.035,-187.012,102.539
1689255258.786,-198.730,-115.234,-28.320,-97.168,158.203
1689255258.790,-101.074,-121.094,-16.113,-104.004,121.094
1689255258.794,-111.328,-100.586,10.254,-203.125,246.582
1689255258.798,-140.625,-51.270,-63.965,-164.551,263.672
1689255258.802,-156.738,-58.594,-62.012,-106.445,118.652
1689255258.805,-163.574,-134.277,-19.531,-97.168,112.305
1689255258.809,-123.047,-77.637,-108.887,-100.098,305.176
1689255258.813,-121.582,-104.492,-20.020,-133.301,219.238
1689255258.817,-145.508,-88.379,22.949,-179.688,-10.254
1689255258.821,-137.207,-62.500,-18.555,-177.734,51.270
1689255258.822,-169.922,-61.035,22.461,-156.250,158.203
1689255258.826,-127.930,-79.102,-47.852,-72.266,127.930
1689255258.830,-105.469,-120.117,-61.523,-91.797,26.855
1689255258.834,-146.484,-60.547,14.648,-174.805,106.445
1689255258.838,-163.574,-33.691,-56.641,-138.672,239.258
1689255258.842,-153.320,-95.703,-59.570,-50.781,174.316
1689255258.846,-173.340,-123.535,31.250,-82.520,159.668
1689255258.849,-117.188,-72.754,-23.926,-158.691,212.891
1689255258.853,-148.438,-35.156,-28.809,-148.926,393.555
1689255258.857,-229.980,-118.164,20.020,-133.789,169.434
1689255258.861,-105.957,-115.723,-46.875,-62.988,-74.707
1689255258.865,-134.277,-46.875,-95.703,-90.332,13.184
1689255258.868,-166.016,-111.328,-51.270,-147.461,38.086
1689255258.872,-104.004,-66.895,-47.852,-136.719,7.812
1689255258.876,-98.145,-122.559,-21.973,-93.750,58.594
1689255258.880,-170.898,-139.160,31.250,-115.234,124.512
1689255258.884,-201.172,-62.012,-58.594,-157.715,127.441
1689255258.888,-151.855,-91.309,-76.660,-165.039,154.297
1689255258.892,-139.160,-83.496,-15.137,-204.102,119.141
1689255258.895,-156.738,-58.105,-50.781,-132.812,362.305
1689255258.899,-146.484,-104.492,6.348,-98.145,431.641
1689255258.903,-190.430,-81.055,-21.973,-171.387,65.430
1689255258.907,-181.152,-103.027,-96.680,-120.605,-63.477
1689255258.911,-153.320,-104.492,-24.902,-145.020,-20.020
1689255258.912,-193.359,-102.539,45.410,-271.973,-9.766
1689255258.916,-192.383,-83.008,-21.973,-178.223,8.789
1689255258.920,-183.594,-54.199,-53.711,-122.559,106.934
1689255258.924,-98.633,-65.430,-67.871,-106.445,191.406
1689255258.928,-145.996,-84.473,-62.500,-129.395,109.863
1689255258.932,-158.203,-77.148,-48.828,-152.832,88.379
1689255258.936,-166.992,-64.941,-9.277,-140.625,244.629
1689255258.939,-197.266,-76.172,60.547,-167.480,426.758
1689255258.943,-128.418,-85.938,-11.719,-91.309,236.328
1689255258.947,-153.320,-89.355,-8.789,-145.020,73.730
1689255258.951,-202.148,-61.523,-38.574,-183.105,127.930
1689255258.955,-188.477,-68.848,-16.113,-144.043,121.582
1689255258.959,-83.984,-64.453,-48.340,-150.391,55.176
1689255258.963,-62.988,-13.184,-77.637,-125.977,34.180
1689255258.967,-100.098,-66.406,8.301,-159.180,66.895
1689255258.971,-118.652,-130.859,18.066,-189.453,61.035
1689255258.975,-128.906,-58.594,-18.066,-167.480,122.070
1689255258.979,-184.570,-5.371,-3.906,-144.043,235.352
1689255258.983,-201.660,-116.211,-47.363,-134.766,354.492
1689255258.986,-305.176,-129.883,55.176,-268.066,224.121
1689255258.990,-126.465,-79.102,-8.789,-149.414,-18.066
1689255258.994,-69.824,-83.008,14.160,-92.773,49.316
1689255258.998,-198.730,-23.926,-59.082,-141.602,104.492
1689255259.002,-132.812,-63.477,-94.727,-62.012,157.715
1689255259.003,-138.672,-68.359,-26.855,-104.004,181.152
1689255259.007,-109.375,-45.898,-52.734,-124.512,129.883
1689255259.011,-70.801,-80.078,-85.938,-65.918,211.914
1689255259.015,-147.461,-92.773,-28.809,-55.664,231.445
1689255259.019,-181.641,-83.496,-4.395,-93.262,102.051
1689255259.023,-110.840,-73.730,-56.152,-106.934,129.883
1689255259.027,-143.066,-36.133,-82.031,-150.879,440.918
1689255259.030,-180.176,-98.633,17.090,-190.918,323.242
1689255259.034,-168.945,-88.867,2.441,-110.840,26.367
1689255259.038,-156.738,-41.016,-44.434,-85.938,76.660
1689255259.042,-136.230,-70.312,-44.922,-150.879,63.965
1689255259.046,-94.727,-95.215,-22.461,-156.250,-6.348
1689255259.050,-105.469,-85.938,-16.113,-172.852,44.922
1689255259.054,-158.691,-68.359,-80.566,-57.129,188.965
1689255259.058,-178.711,-35.645,-29.297,-74.219,152.344
1689255259.062,-173.340,-48.340,-4.395,-170.410,14.160
1689255259.066,-115.723,-87.402,-48.828,-119.629,24.414
1689255259.070,-117.676,-27.344,-62.012,-168.457,274.414
1689255259.074,-112.305,-63.477,-71.289,-149.414,337.891
1689255259.077,-160.156,-118.164,-20.996,-92.773,172.363
1689255259.081,-159.180,-88.379,19.531,-149.414,102.051
1689255259.085,-127.930,-86.914,-13.672,-185.547,239.258
1689255259.089,-93.262,-59.570,-31.250,-92.285,116.211
1689255259.093,-131.348,-75.684,8.301,-122.559,1.953
1689255259.107,-244.629,-28.809,-22.949,-190.430,67.871
1689255259.111,-144.043,-16.602,-52.734,-100.098,46.387
1689255259.115,-78.125,-70.801,-62.012,-118.164,-5.859
1689255259.119,-109.375,-79.590,-61.035,-157.227,-26.367
1689255259.123,-149.414,-78.125,-8.789,-127.441,71.289
1689255259.127,-160.156,-25.879,-58.105,-145.508,459.473
1689255259.131,-155.273,-59.082,-45.898,-229.492,404.785
1689255259.134,-209.961,-63.477,4.395,-188.477,49.805
1689255259.138,-133.301,-45.410,-23.926,-91.797,146.973
1689255259.142,-132.812,-106.445,24.414,-118.164,253.418
1689255259.146,-179.688,-63.477,42.480,-167.969,74.707
1689255259.150,-152.832,24.902,-67.383,-112.793,23.926
1689255259.152,-99.121,-62.500,-105.957,-77.637,72.266
1689255259.156,-93.750,-93.262,-39.062,-161.133,63.965
1689255259.160,-195.312,-58.105,10.254,-187.012,96.680
1689255259.164,-214.844,-60.059,-30.273,-142.578,94.238
1689255259.168,-156.250,-47.852,-60.059,-145.996,113.281
1689255259.172,-119.629,-72.266,-13.184,-165.039,210.449
1689255259.176,-117.676,-82.031,1.465,-180.664,199.219
1689255259.179,-159.668,-58.105,-60.059,-198.242,145.996
1689255259.183,-147.949,-11.719,-90.820,-124.023,446.289
1689255259.187,-141.602,-60.059,-14.160,-93.262,433.105
1689255259.191,-150.391,-105.469,-0.488,-165.527,21.973
1689255259.195,-80.078,-49.316,-55.176,-133.789,-67.383
1689255259.197,-142.578,-24.414,-47.852,-139.160,23.926
1689255259.201,-170.410,-67.871,-56.641,-128.906,33.691
1689255259.205,-132.324,-85.938,-58.105,-105.957,0.488
1689255259.209,-117.676,-52.246,-38.086,-148.926,133.301
1689255259.213,-160.645,-84.961,-14.648,-174.316,242.188
1689255259.217,-168.457,-91.309,-19.043,-174.805,180.664
1689255259.221,-176.758,15.137,-49.805,-147.949,167.480
1689255259.224,-199.707,-62.012,-48.828,-125.977,218.262
1689255259.228,-239.258,-111.816,12.695,-224.121,365.723
1689255259.232,-197.754,-47.363,20.996,-227.051,136.719
1689255259.236,-96.680,-45.898,-77.637,-123.535,1.465
1689255259.240,-166.504,-59.082,-45.898,-84.473,207.520
1689255259.243,-249.023,-84.473,8.789,-153.809,171.387
1689255259.247,-129.883,-90.820,-38.574,-152.344,-5.371
1689255259.251,-99.121,-52.246,-110.352,-125.000,-13.672
1689255259.255,-115.723,-103.516,-83.984,-139.648,29.297
1689255259.259,-169.922,-53.711,-53.711,-146.484,83.008
1689255259.263,-229.004,-31.250,-11.719,-172.852,123.535
1689255259.267,-174.805,-98.633,-71.777,-165.527,160.156
1689255259.270,-183.105,-76.172,-62.012,-142.090,382.324
1689255259.274,-174.316,-4.883,-44.434,-143.066,300.293
1689255259.278,-96.680,-61.523,-54.199,-118.652,63.965
1689255259.282,-209.473,-51.758,-18.555,-154.297,158.691
1689255259.286,-204.102,-67.383,-41.016,-85.938,190.918
1689255259.287,-52.246,-132.324,-52.734,-45.410,80.566
1689255259.291,-136.719,-80.566,-38.574,-140.625,25.879
1689255259.295,-193.848,-77.637,-33.203,-146.973,133.301
1689255259.299,-124.512,-102.051,-39.551,-67.383,277.832
1689255259.303,-198.242,-61.523,-71.777,-116.699,119.141
1689255259.307,-214.844,-76.172,-37.598,-217.773,8.301
1689255259.311,-147.949,-116.211,-47.363,-224.609,155.273
1689255259.314,-157.715,-85.449,-7.324,-122.559,422.363
1689255259.318,-195.801,-44.922,-41.992,-80.566,205.566
1689255259.322,-152.344,-118.652,10.742,-149.902,-14.160
1689255259.326,-127.441,-92.773,14.648,-145.996,6.348
1689255259.330,-138.672,-74.219,-63.477,-167.480,3.906
1689255259.335,-140.625,-84.473,-42.969,-138.672,33.203
1689255259.339,-166.016,-112.305,-52.734,-97.168,104.492
1689255259.343,-168.457,-128.906,-60.059,-123.047,213.379
1689255259.347,-134.766,-86.914,-79.590,-123.535,154.785
1689255259.351,-136.230,-76.172,-55.176,-148.926,69.824
1689255259.355,-173.828,-65.430,-24.902,-193.359,109.375
1689255259.359,-145.996,-97.168,-48.340,-118.164,277.832
1689255259.362,-146.973,-61.035,-54.688,-93.750,230.469
1689255259.366,-155.273,-50.781,-81.055,-114.258,-23.926
1689255259.370,-155.273,-132.324,-16.113,-137.207,-20.020
1689255259.374,-216.797,-45.898,-56.641,-214.355,52.246
1689255259.378,-175.293,-56.152,-76.172,-173.340,28.809
1689255259.377,-141.602,-122.559,42.969,-152.344,37.109
1689255259.381,-125.000,-60.547,-50.293,-142.578,5.859
1689255259.385,-119.629,-59.570,-91.309,-154.297,72.266
1689255259.389,-201.172,-50.781,-37.598,-191.895,161.621
1689255259.393,-245.117,-46.387,-26.855,-204.590,141.602
1689255259.397,-134.277,-126.465,-33.203,-104.004,176.758
1689255259.401,-155.273,-99.609,-19.043,-136.719,492.188
1689255259.404,-212.402,-84.961,-69.336,-201.660,464.355
1689255259.408,-153.809,-133.789,-2.930,-165.527,73.730
1689255259.412,-138.672,-91.309,-33.203,-125.000,85.449
1689255259.416,-212.402,-50.781,-60.547,-178.711,149.902
1689255259.420,-231.445,-75.195,3.906,-249.023,0.488
1689255259.437,-148.926,-64.941,-58.594,-225.098,8.789
1689255259.441,-177.246,-124.023,-27.344,-245.117,101.562
1689255259.445,-201.172,-122.559,62.988,-219.727,65.430
1689255259.449,-106.445,-69.336,-62.012,-88.867,93.262
1689255259.453,-166.992,-69.824,-122.070,-117.676,126.953
1689255259.457,-198.730,-87.402,-32.227,-248.535,173.828
1689255259.461,-108.398,-101.074,0.000,-194.336,196.289
1689255259.464,-122.070,-103.027,-27.344,-107.910,218.750
1689255259.468,-200.684,-97.168,-7.812,-106.934,189.453
1689255259.472,-204.590,-52.734,-39.551,-167.969,385.742
1689255259.476,-135.254,-63.477,-43.457,-194.336,297.852
1689255259.480,-83.984,-95.703,-55.664,-99.121,28.809
1689255259.482,-127.930,-81.055,-61.035,-98.145,43.945
1689255259.486,-123.535,-85.938,-29.297,-89.844,48.340
1689255259.490,-121.582,-113.281,-16.113,-90.332,16.602
1689255259.494,-140.625,-74.707,-33.203,-121.582,16.602
1689255259.498,-116.699,-58.105,-72.266,-113.281,43.945
1689255259.502,-151.367,-124.512,-20.508,-132.324,218.750
1689255259.506,-195.312,-106.445,5.859,-140.625,225.098
1689255259.509,-150.391,-76.660,-26.855,-116.699,123.535
1689255259.513,-140.625,-102.539,-22.949,-129.395,208.008
1689255259.517,-155.762,-72.754,-38.574,-112.305,369.141
1689255259.521,-135.742,-79.590,-11.230,-85.449,175.781
1689255259.525,-120.605,-106.934,9.277,-67.383,33.691
1689255259.527,-177.246,-71.289,-24.414,-94.238,111.816
1689255259.531,-169.434,-83.984,-39.551,-150.879,31.738
1689255259.535,-109.375,-84.961,6.348,-181.152,-64.941
1689255259.539,-187.500,-69.336,-12.207,-194.336,35.645
1689255259.543,-178.711,-112.305,-57.129,-87.891,131.348
1689255259.547,-123.047,-101.074,-65.430,-73.242,190.918
1689255259.551,-158.203,-62.988,-46.875,-216.309,186.035
1689255259.554,-189.453,-92.773,32.227,-251.953,105.957
1689255259.558,-130.859,-86.426,-57.617,-152.344,302.246
1689255259.562,-205.078,-120.605,-20.996,-168.457,329.102
1689255259.566,-166.016,-93.262,-42.480,-77.148,89.355
1689255259.570,-91.797,-88.867,-46.387,-83.008,127.441
1689255259.572,-92.773,-120.117,-37.109,-180.664,203.613
1689255259.576,-139.160,-59.570,-53.223,-132.812,95.703
1689255259.580,-164.062,-101.562,-27.344,-105.469,9.766
1689255259.584,-163.574,-96.680,-85.938,-116.211,153.809
1689255259.588,-214.844,-46.387,-51.270,-180.664,232.910
1689255259.592,-132.812,-81.543,-45.898,-155.762,116.699
1689255259.596,-107.422,-125.977,-13.184,-137.695,85.938
1689255259.599,-146.973,-118.164,0.000,-170.410,231.934
1689255259.603,-191.895,-67.871,-69.824,-167.969,434.570
1689255259.607,-171.387,-48.828,-108.887,-148.926,174.805
1689255259.611,-170.410,-55.176,-16.113,-218.750,-18.555
1689255259.615,-156.738,-46.875,-83.496,-189.453,61.523
1689255259.620,-151.367,-54.199,-104.004,-134.277,77.637
1689255259.624,-136.719,-84.473,-57.129,-83.984,102.539
1689255259.628,-99.121,-91.797,-89.844,-52.734,120.117
1689255259.632,-163.574,-88.867,-31.250,-157.715,184.082
1689255259.636,-151.855,-118.652,-19.531,-148.438,126.953
1689255259.640,-173.340,-81.543,-19.531,-149.414,64.453
1689255259.644,-264.648,-6.836,-90.332,-132.812,120.605
1689255259.647,-260.742,-77.148,-67.383,-129.395,249.023
1689255259.651,-160.156,-117.188,-14.160,-180.176,176.270
1689255259.655,-133.789,-97.656,-77.148,-148.926,4.395
1689255259.659,-181.152,-66.406,-83.984,-42.969,48.828
1689255259.663,-210.938,-55.664,-72.754,-32.715,144.043
1689255259.662,-210.449,-63.477,-67.383,-127.441,130.859
1689255259.666,-150.391,-92.773,-33.691,-87.891,35.156
1689255259.670,-157.227,-89.355,-50.293,-116.211,39.062
1689255259.674,-176.270,-72.754,-99.609,-83.496,158.691
1689255259.678,-214.355,-70.801,-30.762,-64.941,194.824
1689255259.682,-192.383,-81.543,-69.336,-105.469,157.227
1689255259.686,-178.223,-83.008,-85.938,-131.348,179.199
1689255259.689,-184.570,-49.316,-68.848,-116.211,438.477
1689255259.693,-210.449,-69.336,-71.289,-134.277,264.648
1689255259.697,-251.953,-87.402,-51.270,-94.238,-35.645
1689255259.701,-244.629,-79.102,17.578,-72.754,61.035
1689255259.705,-197.266,-117.188,-19.043,-110.352,57.617
1689255259.709,-163.086,-115.723,-44.434,-138.672,-39.551
1689255259.713,-150.879,-51.270,-112.305,-119.629,-2.441
1689255259.717,-187.012,-86.426,-139.160,-83.496,79.102
1689255259.721,-195.801,-109.375,-12.695,-99.121,17.090
1689255259.725,-190.918,-81.543,-1.953,-157.715,7.812
1689255259.729,-171.875,-100.586,-102.051,-194.336,92.773
1689255259.733,-174.316,-119.629,-52.246,-175.293,363.281
1689255259.736,-177.734,-98.633,-57.617,-87.402,368.652
1689255259.740,-172.852,-35.645,-89.355,-56.152,102.539
1689255259.744,-240.723,-74.707,-74.707,-141.602,29.297
1689255259.748,-206.055,-134.277,-61.035,-219.727,184.082
1689255259.752,-153.320,-84.961,-8.789,-199.219,122.559
1689255259.752,-152.832,-63.965,-36.133,-65.918,82.520
1689255259.756,-159.668,-96.191,-109.375,-27.832,109.375
1689255259.760,-191.406,-80.566,-25.879,-184.082,122.070
1689255259.764,-174.316,-51.758,12.695,-235.352,197.266
1689255259.768,-162.109,-79.102,-53.223,-147.461,106.934
1689255259.772,-217.285,-62.988,-61.523,-125.000,147.949
1689255259.776,-183.594,-60.547,-95.215,-104.004,522.461
1689255259.779,-152.344,-92.773,-13.672,-170.410,351.562
1689255259.783,-166.504,-41.992,-12.695,-204.590,47.363
1689255259.787,-127.441,-55.664,-104.004,-150.879,111.816
1689255259.791,-124.512,-81.055,-82.520,-89.355,140.625
1689255259.795,-175.781,-84.473,5.371,-118.652,33.203
1689255259.799,-182.617,-115.723,36.621,-179.199,49.316
1689255259.803,-127.930,-72.266,-36.621,-155.762,149.902
1689255259.807,-98.145,-82.520,-70.801,-102.539,104.492
1689255259.811,-129.883,-95.703,-52.734,-64.453,-20.020
1689255259.815,-165.039,-56.152,-40.039,-69.824,30.762
1689255259.819,-167.480,-70.312,-57.129,-97.656,206.055
1689255259.823,-130.371,-61.035,-57.129,-131.836,200.195
1689255259.826,-143.555,-13.184,29.785,-213.379,119.141
1689255259.830,-184.570,-85.938,62.988,-222.168,77.148
1689255259.834,-170.898,-26.855,-78.125,-95.215,285.645
1689255259.838,-149.902,-77.148,-71.777,-111.816,281.738
1689255259.842,-151.367,-108.398,-82.520,-212.891,24.414
1689255259.857,-113.770,-61.035,-67.871,-113.770,-1.953
1689255259.861,-120.117,-80.078,-82.031,-74.707,130.859
1689255259.865,-166.504,-88.379,-49.316,-84.961,141.602
1689255259.869,-185.547,-83.496,1.953,-127.930,95.703
1689255259.873,-165.039,-73.730,-46.387,-142.578,164.551
1689255259.877,-143.555,-57.129,-6.348,-98.145,377.441
1689255259.881,-149.414,-89.355,-18.066,-90.820,194.824
1689255259.884,-183.594,-40.039,-63.477,-117.188,14.160
1689255259.888,-245.117,-48.828,-52.734,-113.281,126.953
1689255259.892,-187.988,-108.887,-28.320,-97.168,237.305
1689255259.896,-86.914,-78.125,-53.711,-107.910,62.988
1689255259.900,-152.344,-89.844,-46.387,-122.559,44.434
1689255259.902,-184.570,-123.047,-16.602,-125.000,187.988
1689255259.906,-156.250,-46.875,-73.242,-65.918,98.145
1689255259.910,-221.680,13.184,-26.855,-121.582,-31.250
1689255259.914,-156.250,-75.684,-41.992,-92.773,8.301
1689255259.918,-146.973,-88.867,-52.246,-57.617,143.555
1689255259.922,-266.602,-62.988,-8.789,-126.465,209.473
1689255259.926,-218.262,-115.234,-34.180,-106.445,163.574
1689255259.929,-148.926,-79.590,-89.844,-21.973,102.539
1689255259.933,-177.734,-42.969,-64.453,-83.984,313.477
1689255259.937,-164.062,-103.516,52.734,-200.195,241.699
1689255259.941,-117.188,-95.703,-30.273,-16.113,46.387
1689255259.945,-134.277,-64.941,-102.051,34.668,83.496
1689255259.948,-154.785,-51.270,-80.078,-81.543,72.266
1689255259.952,-99.121,-58.594,-85.449,-118.652,99.609
1689255259.956,-98.633,-104.980,-41.992,-120.117,103.516
1689255259.960,-160.156,-106.934,-52.246,-54.688,192.383
1689255259.964,-155.273,-53.223,-85.938,-31.250,534.668
1689255259.968,-154.785,-29.297,-46.875,-83.496,415.039
1689255259.972,-102.051,-56.641,-58.594,-125.000,72.266
1689255259.975,-116.699,-104.980,-53.223,-131.348,133.301
1689255259.979,-159.668,-117.676,8.301,-83.496,334.473
1689255259.983,-170.410,-64.941,-26.367,-83.496,110.352
1689255259.987,-149.902,-51.270,-95.215,-102.539,-31.738
1689255259.991,-125.000,-52.246,-41.504,-116.699,7.324
1689255259.993,-135.254,-72.266,-48.828,-113.281,-30.762
1689255259.997,-91.797,-78.613,-78.613,-74.707,-18.066
1689255260.001,-121.094,-88.379,-41.992,-60.547,18.555
1689255260.005,-184.082,-84.473,-37.598,-83.496,89.844
1689255260.009,-164.062,-61.035,-43.457,-122.559,81.055
1689255260.013,-142.090,-72.266,-53.223,-167.969,37.109
1689255260.017,-150.391,-61.035,-106.445,-120.605,84.473
1689255260.020,-140.625,-73.242,-61.035,-63.477,437.012
1689255260.024,-144.531,-76.660,-27.832,-70.312,433.594
1689255260.028,-99.609,-77.637,-87.891,-86.914,16.113
1689255260.032,-103.027,-75.684,-90.820,-121.582,-11.230
1689255260.036,-131.836,-86.426,-73.242,-115.234,72.754
1689255260.037,-143.555,-74.707,-36.621,-96.680,32.715
1689255260.041,-217.285,-34.180,6.348,-143.555,-16.602
1689255260.045,-135.254,-71.777,-76.172,-82.520,73.242
1689255260.049,-82.031,-66.895,-73.242,-87.402,164.062
1689255260.053,-104.492,-74.219,-73.242,-100.586,58.594
1689255260.057,-177.246,-108.887,-40.527,-43.945,52.246
1689255260.061,-244.141,-91.309,8.301,-135.254,212.891
1689255260.064,-162.598,-72.266,-56.641,-78.125,525.391
1689255260.068,-140.625,-89.355,-18.555,-95.215,365.234
1689255260.072,-187.500,-89.844,-25.879,-142.578,27.344
1689255260.076,-171.387,-73.730,-63.965,-33.691,107.422
1689255260.080,-143.555,-83.008,-49.316,-37.109,125.000
1689255260.084,-178.711,-45.410,-81.543,-96.680,71.289
1689255260.088,-147.949,-56.641,-81.055,-118.164,31.250
1689255260.092,-92.285,-79.102,-68.359,-136.230,32.227
1689255260.096,-186.523,-122.070,-3.418,-159.668,84.473
1689255260.100,-218.262,-63.477,-59.082,-86.426,76.172
1689255260.104,-241.699,-72.754,-34.180,-107.910,80.566
1689255260.108,-159.180,-126.465,-68.848,-104.492,271.484
1689255260.111,-133.789,-104.492,-106.445,-105.469,210.938
1689255260.115,-234.375,-90.332,-29.297,-141.113,34.668
1689255260.119,-185.547,-83.984,-59.082,-66.895,210.938
1689255260.123,-163.086,-73.730,-32.227,-107.910,205.078
1689255260.127,-183.105,-64.453,-36.621,-131.348,25.879
1689255260.127,-165.039,-90.820,-51.270,-95.215,11.719
1689255260.131,-208.008,-58.105,-42.969,-198.242,5.371
1689255260.135,-174.805,-14.648,-107.422,-103.027,54.199
1689255260.139,-122.070,-125.977,-11.719,-2.441,133.789
1689255260.143,-113.770,-92.285,-18.066,-63.477,60.059
1689255260.147,-106.934,-42.969,-80.078,-75.684,134.277
1689255260.151,-147.461,-104.004,-95.215,-50.781,521.484
1689255260.154,-136.230,-105.469,-75.195,-23.438,389.648
1689255260.158,-135.254,-85.449,-25.391,-83.496,59.082
1689255260.162,-139.648,-58.594,-58.594,-121.582,67.871
1689255260.166,-105.469,-60.059,-23.926,-128.906,66.895
1689255260.170,-110.840,-63.477,-62.500,-131.348,-8.301
1689255260.175,-110.352,-120.605,-94.727,-129.883,74.219
1689255260.179,-121.582,-102.539,-87.402,-97.656,199.219
1689255260.183,-161.133,-50.293,-71.777,-124.023,102.051
1689255260.187,-131.836,-97.168,-69.824,-162.109,-29.297
1689255260.191,-131.836,-102.539,-54.688,-136.719,2.441
1689255260.195,-166.504,-90.332,-59.082,-72.754,167.969
1689255260.199,-162.598,-105.957,-29.785,-115.234,178.711
1689255260.202,-88.379,-65.430,-87.891,-142.090,77.637
1689255260.206,-97.656,-63.965,-41.504,-148.926,107.910
1689255260.210,-109.375,-74.219,39.551,-119.141,323.730
1689255260.214,-100.586,-82.031,-116.211,-118.164,232.422
1689255260.218,-98.633,-63.965,-121.094,-36.621,135.742
1689255260.233,-147.949,-36.621,-78.125,-79.590,143.555
1689255260.237,-95.703,-91.797,-67.383,-193.359,141.113
1689255260.241,-63.477,-90.332,-41.504,-151.855,239.746
1689255260.245,-153.320,-91.797,-23.438,-156.250,189.453
1689255260.249,-106.934,-78.613,-77.148,-54.199,190.918
1689255260.253,-38.086,-24.414,-134.277,-60.059,561.035
1689255260.257,-7.812,-103.027,-66.895,-177.246,464.844
1689255260.260,-71.289,-103.027,-14.648,-183.105,101.074
1689255260.264,-138.184,-3.906,-114.746,-102.051,156.250
1689255260.268,-103.516,-102.539,-50.293,-75.195,199.219
1689255260.272,-100.098,-95.703,-21.973,-134.766,55.664
1689255260.276,-157.715,-39.551,-104.004,-155.762,37.598
1689255260.277,-167.480,-115.234,-28.809,-161.621,147.949
1689255260.281,-130.371,-133.301,-37.109,-114.258,112.793
1689255260.285,-107.422,-89.355,-117.188,-51.270,35.156
1689255260.289,-106.445,-75.684,-83.496,-131.836,54.688
1689255260.293,-91.309,-73.730,-101.562,-182.129,144.531
1689255260.297,-82.520,-61.035,-47.363,-119.629,157.715
1689255260.301,-120.117,-57.617,-21.973,-54.688,199.219
1689255260.304,-123.047,-82.520,-46.875,-50.293,214.844
1689255260.308,-109.863,-76.660,-56.152,-123.535,320.312
1689255260.312,-127.441,4.395,-98.145,-154.785,302.246
1689255260.316,-65.918,-59.570,-54.199,-75.195,0.977
1689255260.320,-74.219,-94.238,-57.617,-69.336,-31.738
1689255260.322,-207.520,-57.617,-45.410,-159.180,78.613
1689255260.326,-160.156,-83.984,-82.031,-136.719,43.945
1689255260.330,3.418,-105.957,-103.027,-71.777,-41.504
1689255260.334,-38.086,-80.078,-70.801,-102.539,71.289
1689255260.338,-159.668,-76.172,-51.758,-134.277,210.938
1689255260.342,-126.465,-43.457,-46.387,-117.188,128.418
1689255260.346,-147.949,-80.078,-20.020,-189.453,125.977
1689255260.349,-99.121,-106.445,-109.863,-151.367,213.867
1689255260.353,-99.609,-24.414,-123.535,-157.715,424.316
1689255260.357,-200.684,-25.879,-77.148,-206.543,293.457
1689255260.361,-165.039,-103.516,-59.082,-114.258,-4.883
1689255260.365,-104.004,-109.863,5.859,-103.516,40.039
1689255260.368,-71.777,-86.914,-55.664,-129.883,49.316
1689255260.372,-29.297,-90.332,-134.766,-152.344,-32.227
1689255260.376,-96.680,-91.797,-45.898,-136.719,26.367
1689255260.380,-193.359,-57.617,-69.824,-153.320,163.574
1689255260.384,-141.113,-57.129,-136.719,-110.840,142.578
1689255260.388,-102.539,-95.215,-78.125,-167.480,129.395
1689255260.392,-120.605,-107.422,-96.191,-226.562,255.371
1689255260.395,-189.941,-89.844,-49.805,-195.312,340.820
1689255260.399,-173.828,-104.492,-22.461,-148.438,234.863
1689255260.403,-97.656,-104.492,-109.375,-121.094,92.285
1689255260.407,-80.566,-79.102,-133.301,-186.035,59.570
1689255260.411,-70.312,-125.488,-92.285,-213.867,129.395
1689255260.412,-111.816,-150.879,-33.203,-187.988,104.492
1689255260.416,-164.062,-133.301,-65.918,-143.555,42.480
1689255260.420,-135.742,-85.449,-108.887,-124.512,70.312
1689255260.424,-98.145,-125.977,-75.195,-143.555,86.914
1689255260.428,-147.949,-102.051,-79.102,-181.641,17.578
1689255260.432,-119.629,-116.211,-62.988,-189.941,60.547
1689255260.436,-117.188,-148.438,-48.828,-129.395,265.137
1689255260.439,-188.965,-101.562,-65.430,-105.469,553.223
1689255260.443,-144.531,-69.336,-126.953,-132.812,242.188
1689255260.447,-119.629,-126.953,-32.715,-195.312,-65.918
1689255260.451,-130.859,-179.199,47.852,-217.285,40.527
1689255260.455,-130.371,-124.023,-109.863,-104.004,103.516
1689255260.460,-200.195,-73.730,-108.398,-111.328,63.965
1689255260.464,-192.383,-81.543,-74.219,-182.617,6.836
1689255260.468,-180.176,-130.859,-35.645,-274.902,152.832
1689255260.472,-158.203,-123.535,-78.613,-254.395,163.086
1689255260.476,-151.855,-115.234,-118.164,-92.285,81.055
1689255260.480,-176.270,-90.820,-68.359,-94.727,229.492
1689255260.484,-177.246,-107.422,-54.688,-141.602,384.766
1689255260.487,-110.352,-100.586,-120.117,-141.113,218.262
1689255260.491,-78.125,-96.680,-109.375,-137.695,8.301
1689255260.495,-128.418,-137.207,-52.246,-119.629,118.164
1689255260.499,-188.965,-137.695,-63.477,-141.113,166.016
1689255260.503,-210.938,-72.754,-92.773,-191.895,136.230
1689255260.503,-163.574,-103.027,-40.039,-266.113,68.359
1689255260.507,-184.082,-101.074,-83.008,-253.906,23.438
1689255260.511,-183.594,-87.891,-155.273,-104.004,146.973
1689255260.515,-158.203,-127.930,-87.891,-66.895,170.410
1689255260.519,-213.867,-113.281,10.742,-205.078,106.445
1689255260.523,-138.672,-74.219,-94.238,-190.918,104.980
1689255260.527,-90.820,-106.934,-106.445,-145.996,436.035
1689255260.530,-146.484,-119.629,-39.551,-214.355,384.766
1689255260.534,-162.598,-121.094,-89.355,-200.195,55.664
1689255260.538,-168.945,-97.656,-134.766,-116.699,84.473
1689255260.542,-169.922,-64.453,-105.469,-187.500,36.133
1689255260.546,-184.082,-114.258,-79.102,-256.348,-35.156
1689255260.549,-199.219,-122.559,-60.059,-248.047,24.902
1689255260.553,-159.668,-72.266,-114.746,-177.246,94.727
1689255260.557,-139.648,-109.375,-108.887,-167.480,77.148
1689255260.561,-100.586,-90.332,-97.168,-194.824,37.109
1689255260.565,-88.379,-81.543,-85.449,-201.172,112.793
1689255260.569,-140.625,-107.422,-64.941,-153.320,387.207
1689255260.573,-196.289,-69.336,-90.332,-132.324,332.031
1689255260.576,-166.992,-101.074,-79.590,-139.160,-34.180
1689255260.580,-164.062,-77.637,-83.496,-192.383,6.836
1689255260.584,-208.984,-64.453,-70.312,-262.695,200.684
1689255260.588,-234.375,-102.051,-34.180,-252.930,108.887
1689255260.592,-198.242,-121.094,-45.898,-162.109,-23.926
1689255260.607,-177.734,-109.863,-51.270,-159.180,46.875
1689255260.611,-235.840,-55.664,-16.113,-199.707,90.332
1689255260.615,-245.605,-83.008,-72.266,-149.414,100.586
1689255260.619,-177.734,-113.770,-84.961,-139.648,111.328
1689255260.623,-162.109,-91.797,-93.750,-131.836,139.648
1689255260.627,-218.262,-88.379,-129.883,-132.324,318.359
1689255260.631,-210.449,-127.930,-38.574,-150.879,172.363
1689255260.634,-138.672,-98.145,-57.129,-168.457,91.309
1689255260.638,-108.398,-73.730,-122.559,-138.672,219.727
1689255260.642,-187.500,-105.957,-75.195,-145.508,430.176
1689255260.646,-221.191,-81.543,-57.617,-113.281,233.398
1689255260.650,-184.082,-54.199,-40.039,-124.023,30.762
1689255260.652,-205.566,-103.516,-24.414,-222.168,73.730
1689255260.656,-177.734,-97.656,-55.664,-206.543,73.730
1689255260.660,-164.551,-70.312,-36.133,-135.742,80.078
1689255260.664,-176.758,-41.992,-90.820,-61.035,109.863
1689255260.668,-204.102,-79.590,-65.918,-117.188,108.887
1689255260.672,-211.426,-119.141,9.277,-218.262,62.988
1689255260.676,-127.441,-120.117,-54.688,-126.465,134.766
1689255260.679,-151.367,-106.445,-83.496,-93.750,126.953
1689255260.683,-219.727,-79.590,-110.840,-100.586,287.109
1689255260.687,-226.074,-86.426,-95.703,-174.316,302.734
1689255260.691,-217.285,-118.164,-14.160,-279.297,24.414
1689255260.695,-172.852,-88.379,-80.078,-254.883,56.152
1689255260.697,-139.648,-55.664,-105.469,-134.277,138.672
1689255260.701,-167.969,-49.316,-67.871,-62.012,51.758
1689255260.705,-191.406,-91.309,-48.828,-111.816,14.160
1689255260.709,-122.070,-98.145,-16.113,-156.250,101.562
1689255260.713,-71.777,-96.191,-56.641,-151.855,219.238
1689255260.717,-157.715,-60.059,-86.426,-149.414,154.785
1689255260.721,-227.051,-40.039,-87.402,-104.980,82.520
1689255260.724,-204.590,-104.980,-78.613,-110.352,143.555
1689255260.728,-165.039,-103.027,-38.574,-168.457,276.367
1689255260.732,-194.336,-23.926,-17.578,-270.996,91.797
1689255260.736,-183.594,-78.125,-82.031,-127.441,13.672
1689255260.740,-206.055,-106.934,-78.613,-39.062,135.254
1689255260.743,-227.539,-47.363,-76.172,-144.043,69.824
1689255260.747,-261.230,-28.809,-31.250,-229.980,32.715
1689255260.751,-190.918,-103.027,-2.441,-233.887,31.250
1689255260.755,-125.000,-98.145,-56.641,-147.949,76.172
1689255260.759,-211.426,-80.078,-62.012,-123.047,67.383
1689255260.763,-235.352,-87.402,-55.176,-134.766,86.914
1689255260.767,-193.359,-85.449,-59.570,-145.996,205.566
1689255260.770,-154.785,-85.938,-84.961,-187.988,353.516
1689255260.774,-154.785,-85.449,-57.617,-204.102,257.812
1689255260.778,-195.312,-87.402,-26.855,-128.418,93.262
1689255260.782,-193.359,-108.887,-10.742,-112.305,123.047
1689255260.786,-234.375,-48.828,-26.367,-223.633,104.004
1689255260.788,-210.449,-30.273,-48.340,-235.840,48.828
1689255260.792,-126.953,-93.750,-11.230,-160.645,34.180
1689255260.796,-180.664,-79.590,-61.523,-120.605,203.125
1689255260.800,-173.340,-77.148,-93.750,-94.727,398.926
1689255260.804,-125.000,-98.633,-17.578,-139.160,156.250
1689255260.808,-119.141,-90.332,-29.785,-214.844,-22.949
1689255260.812,-211.914,-99.609,-0.488,-267.578,166.504
1689255260.815,-239.746,-94.727,-4.395,-168.945,453.125
1689255260.819,-142.578,-62.500,-88.379,-74.219,245.605
1689255260.823,-145.996,-70.801,-85.938,-140.137,11.230
1689255260.827,-171.387,-89.355,-22.461,-192.871,43.457
1689255260.831,-149.414,-78.125,-14.648,-188.477,50.293
1689255260.834,-165.039,-99.609,-53.711,-126.465,106.934
1689255260.838,-222.168,-103.516,-6.836,-149.414,121.582
1689255260.842,-210.449,-70.801,-61.523,-200.195,109.863
1689255260.846,-173.828,-74.219,-88.379,-198.242,108.887
1689255260.850,-114.258,-101.074,-48.828,-121.582,93.262
1689255260.854,-116.211,-87.891,-24.902,-98.145,80.078
1689255260.858,-161.621,-112.305,-26.855,-122.559,337.891
1689255260.861,-172.852,-107.422,-45.410,-166.992,414.551
1689255260.865,-150.879,-98.633,-57.129,-229.004,71.777
1689255260.869,-79.102,-102.051,-104.980,-200.195,-14.160
1689255260.873,-94.238,-94.238,-76.172,-165.039,56.641
1689255260.877,-171.875,-40.039,-59.570,-170.410,96.680
1689255260.877,-182.617,-91.797,-69.824,-182.129,88.867
1689255260.881,-153.320,-135.742,-28.809,-217.285,71.289
1689255260.885,-162.598,-103.027,-82.520,-196.777,62.500
1689255260.889,-195.801,-133.789,-51.758,-203.125,124.512
1689255260.893,-230.957,-87.402,-68.359,-148.438,117.676
1689255260.897,-199.219,-35.645,-137.207,-118.652,135.742
1689255260.901,-214.355,-86.914,-73.242,-209.473,494.141
1689255260.904,-248.047,-146.484,-1.465,-273.926,436.035
1689255260.908,-175.781,-115.723,-36.133,-181.641,30.762
1689255260.912,-187.988,-98.633,-73.730,-133.789,111.328
1689255260.916,-185.059,-101.562,-142.090,-135.254,230.957
1689255260.920,-189.453,-61.035,-108.398,-172.852,41.504
1689255260.924,-143.555,-90.820,-88.379,-226.074,-24.414
1689255260.928,-135.254,-115.723,-123.047,-234.863,45.410
1689255260.932,-169.434,-108.398,-100.098,-168.457,58.594
1689255260.936,-197.754,-89.844,-64.453,-174.805,1.465
1689255260.940,-250.977,-100.098,-53.223,-269.531,28.809
1689255260.944,-266.602,-108.398,14.648,-346.191,145.996
1689255260.948,-171.387,-98.145,-116.699,-292.480,209.473
1689255260.951,-140.137,-61.523,-191.406,-190.918,147.461
1689255260.955,-186.035,-66.406,-75.195,-193.848,149.414
1689255260.959,-210.938,-111.328,-102.539,-219.727,408.203
1689255260.963,-188.477,-107.910,-74.707,-225.098,328.613
1689255260.967,-192.383,-55.176,-89.355,-243.652,53.223
1689255260.982,-213.867,-78.125,-98.145,-203.125,20.020
1689255260.986,-277.832,-114.746,21.484,-266.113,45.410
1689255260.990,-178.711,-130.371,-6.348,-261.719,56.641
1689255260.994,-107.422,-93.262,-156.250,-182.129,63.477
1689255260.998,-183.105,-66.895,-114.258,-203.125,116.699
1689255261.002,-157.715,-85.938,-95.703,-127.930,446.289
1689255261.006,-194.824,-90.820,-115.234,-139.160,333.008
1689255261.009,-185.059,-114.258,-90.820,-186.035,34.180
1689255261.013,-173.828,-105.469,-85.938,-216.797,107.910
1689255261.017,-161.621,-102.539,-93.750,-207.520,222.168
1689255261.021,-180.664,-122.559,-71.777,-162.109,104.004
1689255261.025,-242.676,-53.711,-102.051,-176.758,51.270
1689255261.027,-226.562,-74.707,-83.984,-229.980,132.812
1689255261.031,-185.547,-134.766,-13.184,-264.160,83.008
1689255261.035,-154.785,-131.348,-12.207,-249.023,-10.254
1689255261.039,-202.148,-104.980,-41.016,-254.395,70.801
1689255261.043,-187.988,-100.586,-93.750,-155.273,151.855
1689255261.047,-146.973,-138.184,-70.312,-118.652,164.062
1689255261.051,-173.340,-88.867,-47.852,-196.777,121.582
1689255261.054,-164.062,-45.898,-143.555,-206.543,26.367
1689255261.058,-169.434,-126.953,-97.168,-169.434,232.422
1689255261.062,-173.828,-108.887,-14.160,-165.527,205.078
1689255261.066,-176.758,-80.566,-69.336,-189.941,-11.230
1689255261.070,-226.562,-61.523,-96.191,-250.977,21.484
1689255261.073,-153.320,-122.070,-34.668,-220.703,42.969
1689255261.077,-113.281,-118.652,-44.922,-172.852,52.246
1689255261.081,-142.090,-90.332,-103.516,-160.156,92.285
1689255261.085,-164.062,-110.352,-49.805,-155.762,245.605
1689255261.089,-155.273,-117.676,9.766,-218.750,413.574
1689255261.093,-125.977,-104.492,-40.527,-209.473,238.770
1689255261.097,-215.332,-87.402,-20.996,-225.098,70.801
1689255261.100,-245.605,-70.312,-47.852,-196.289,129.883
1689255261.104,-187.988,-113.770,-53.223,-207.031,324.219
1689255261.108,-161.133,-62.988,-81.543,-206.543,99.609
1689255261.112,-139.648,-91.797,-119.629,-170.898,-66.895
1689255261.116,-166.016,-121.094,-125.488,-157.227,38.086
1689255261.118,-203.613,-87.402,-64.941,-145.020,43.945
1689255261.122,-225.586,-82.520,-26.855,-177.734,-19.531
1689255261.126,-202.637,-70.801,-62.988,-188.965,33.203
1689255261.130,-150.391,-109.863,-37.109,-208.008,189.941
1689255261.134,-155.762,-138.184,-74.219,-229.980,104.004
1689255261.138,-195.312,-85.938,-98.145,-205.078,137.695
1689255261.142,-200.195,-95.215,-73.242,-127.930,147.949
1689255261.145,-150.879,-74.707,-97.168,-117.676,336.426
1689255261.149,-153.809,-59.082,-96.191,-204.102,345.703
1689255261.153,-212.891,-131.348,40.039,-253.906,37.109
1689255261.157,-229.980,-138.184,2.441,-215.820,56.152
1689255261.161,-220.215,-78.613,-142.578,-179.688,82.520
1689255261.162,-157.715,-52.734,-122.559,-178.223,16.113
1689255261.166,-192.871,-81.055,-70.312,-205.078,-17.090
1689255261.170,-235.352,-115.234,-26.367,-263.672,54.688
1689255261.174,-169.434,-77.637,-93.262,-160.645,230.469
1689255261.178,-189.941,-80.078,-65.918,-138.672,155.762
1689255261.182,-194.824,-135.254,-24.414,-214.355,91.797
1689255261.186,-147.461,-103.027,-80.566,-184.082,250.488
1689255261.189,-183.594,-102.539,-34.668,-187.988,502.441
1689255261.193,-215.332,-124.512,-20.020,-192.383,361.328
1689255261.197,-234.375,-104.980,-70.312,-136.719,80.566
1689255261.201,-216.797,-111.328,-2.930,-165.039,134.277
1689255261.205,-187.012,-83.496,-38.086,-226.562,110.840
1689255261.209,-174.316,-64.453,-105.469,-230.469,19.043
1689255261.213,-187.988,-72.754,-80.566,-191.406,55.664
1689255261.217,-217.773,-106.445,-72.266,-174.805,150.391
1689255261.221,-198.242,-89.844,-78.613,-158.203,68.359
1689255261.225,-176.270,-89.844,-41.504,-184.570,-18.555
1689255261.229,-235.840,-72.754,-60.059,-228.027,20.508
1689255261.233,-234.863,-74.219,-67.383,-184.570,326.660
1689255261.236,-306.152,-120.605,16.602,-258.301,340.820
1689255261.240,-247.559,-71.777,-128.418,-212.891,163.086
1689255261.244,-163.574,-27.344,-145.020,-149.902,86.914
1689255261.248,-187.988,-62.988,-69.336,-211.426,74.219
1689255261.252,-194.824,-91.309,-84.473,-208.008,41.016
1689255261.252,-270.508,-75.195,-88.379,-141.602,14.160
1689255261.256,-248.535,-123.047,-20.020,-155.273,3.906
1689255261.260,-238.281,-115.723,34.180,-261.230,90.332
1689255261.264,-231.445,-57.129,-40.039,-248.535,153.320
1689255261.268,-243.164,-92.773,-70.312,-196.289,73.242
1689255261.272,-257.812,-109.375,-40.527,-169.434,207.031
1689255261.276,-201.172,-83.008,-101.562,-84.473,604.492
1689255261.279,-191.895,-72.754,-137.207,-111.816,424.316
1689255261.283,-185.547,-122.559,-65.430,-198.242,49.805
1689255261.287,-213.867,-119.629,-6.348,-230.957,80.078
1689255261.291,-283.691,-48.340,-74.219,-227.051,148.926
1689255261.295,-244.141,-91.797,-91.797,-149.902,133.301
1689255261.300,-182.129,-143.066,-10.742,-178.223,72.754
1689255261.304,-187.012,-95.703,-46.387,-217.773,152.344
1689255261.308,-208.008,-88.379,-82.520,-202.637,60.059
1689255261.312,-219.727,-98.633,-44.922,-167.969,-18.066
1689255261.316,-265.625,-116.211,-28.809,-179.688,82.520
1689255261.320,-262.207,-48.828,-121.094,-206.055,156.250
1689255261.324,-216.309,3.906,-126.465,-223.633,60.547
1689255261.327,-199.219,-89.355,-71.289,-203.125,-23.438
1689255261.331,-271.973,-106.445,-4.883,-175.293,58.105
1689255261.335,-223.633,-112.305,-57.129,-151.855,301.758
1689255261.339,-224.121,-73.242,-99.121,-186.523,233.887
1689255261.343,-260.254,-84.961,-62.500,-251.465,-40.527
1689255261.357,-178.223,-95.215,-93.750,-148.926,-6.348
1689255261.361,-199.219,-112.793,-34.180,-112.305,138.184
1689255261.365,-299.316,-75.684,-79.102,-193.848,170.898
1689255261.369,-282.715,-70.312,-76.660,-187.988,71.289
1689255261.373,-211.426,-82.520,-60.059,-191.895,78.125
1689255261.377,-191.406,-95.215,-108.398,-177.734,364.258
1689255261.381,-208.984,-104.980,-60.059,-144.043,300.781
1689255261.384,-236.328,-72.754,-67.383,-118.164,62.012
1689255261.388,-258.301,-101.562,-13.184,-178.711,91.797
1689255261.392,-207.520,-98.145,-37.598,-228.027,173.828
1689255261.396,-207.031,-71.777,-117.676,-237.793,46.875
1689255261.400,-246.094,-96.191,-60.547,-226.074,20.020
1689255261.402,-234.375,-92.773,-64.453,-129.883,101.562
1689255261.406,-262.207,-103.027,-20.996,-190.430,55.664
1689255261.410,-276.367,-77.148,18.555,-283.691,87.402
1689255261.414,-203.125,-42.480,-53.223,-226.074,131.836
1689255261.418,-187.988,-84.473,-88.379,-163.086,217.773
1689255261.422,-236.328,-94.727,-59.570,-176.270,222.168
1689255261.426,-261.719,-72.266,-30.762,-187.988,121.582
1689255261.429,-246.094,-100.098,16.602,-251.953,127.930
1689255261.433,-228.027,-91.309,-52.246,-225.586,242.676
1689255261.437,-254.883,-102.051,-38.086,-174.805,167.969
1689255261.441,-256.348,-102.539,-41.016,-138.672,38.086
1689255261.445,-254.395,-38.086,-105.957,-133.301,55.176
1689255261.447,-232.422,-50.293,-54.199,-184.570,74.219
1689255261.451,-208.496,-69.336,-34.180,-210.449,26.855
1689255261.455,-272.949,-68.359,-33.203,-210.449,18.066
1689255261.459,-268.555,-110.840,-37.598,-182.129,210.449
1689255261.463,-245.605,-87.402,-63.477,-159.180,310.547
1689255261.467,-295.410,-55.176,-24.414,-216.797,258.301
1689255261.471,-247.559,-107.910,-66.895,-193.848,195.801
1689255261.474,-238.281,-125.977,-65.430,-167.969,194.824
1689255261.478,-260.254,-83.496,1.465,-191.895,429.199
1689255261.482,-234.375,-72.266,-60.547,-135.254,269.531
1689255261.486,-243.652,-65.918,-99.121,-195.801,33.691
1689255261.490,-267.578,-88.379,-16.602,-303.223,114.746
1689255261.493,-251.953,-109.375,-29.297,-236.816,140.137
1689255261.497,-313.965,-70.801,-45.898,-246.582,63.965
1689255261.501,-306.152,-56.152,-43.457,-211.426,83.984
1689255261.505,-249.512,-95.215,-62.012,-182.617,124.023
1689255261.509,-221.680,-117.188,-60.547,-235.840,52.734
1689255261.513,-216.797,-136.230,-1.465,-196.777,65.918
1689255261.517,-240.234,-105.469,-58.105,-154.785,159.180
1689255261.520,-251.465,-72.754,-66.406,-117.188,407.227
1689255261.524,-274.902,-86.914,27.832,-181.641,418.945
1689255261.528,-274.902,-50.781,-45.898,-252.441,75.684
1689255261.532,-260.742,-106.934,-41.992,-225.098,-35.156
1689255261.536,-253.418,-129.883,-4.395,-176.758,115.234
1689255261.537,-240.234,-65.918,-113.770,-145.508,136.230
1689255261.541,-301.758,-92.285,-41.504,-233.887,0.488
1689255261.545,-249.023,-91.309,-35.156,-293.457,20.020
1689255261.549,-198.242,-53.711,-134.766,-195.801,114.746
1689255261.553,-291.016,-77.637,-28.809,-192.383,77.637
1689255261.557,-288.086,-121.582,34.180,-189.941,63.477
1689255261.561,-243.164,-92.285,-59.082,-182.617,124.512
1689255261.564,-253.418,-30.273,-64.453,-216.797,415.527
1689255261.568,-271.484,-70.801,-58.105,-210.938,245.117
1689255261.572,-246.582,-111.328,-89.844,-172.852,-6.348
1689255261.576,-243.164,-96.680,-43.457,-156.738,222.168
1689255261.580,-288.574,-82.520,-38.086,-198.730,176.758
1689255261.584,-283.203,-89.844,-51.758,-232.910,-35.645
1689255261.588,-237.793,-69.824,-37.109,-235.352,-22.949
1689255261.592,-260.742,-83.984,-21.973,-179.688,76.172
1689255261.596,-281.250,-80.078,-41.016,-167.480,57.129
1689255261.600,-258.301,-56.641,-101.562,-187.500,50.781
1689255261.604,-255.859,-109.375,-4.883,-174.316,100.586
1689255261.608,-218.262,-70.801,-48.340,-114.258,307.129
1689255261.611,-239.746,-76.172,-57.617,-138.184,298.340
1689255261.615,-292.480,-57.129,-55.664,-162.598,95.215
1689255261.619,-280.762,-54.199,-83.984,-154.297,79.102
1689255261.623,-287.109,-91.309,-5.859,-224.121,60.547
1689255261.627,-238.281,-78.125,25.879,-227.051,-5.371
1689255261.628,-205.078,-69.336,-35.645,-179.688,92.773
1689255261.632,-245.605,-70.312,-70.801,-150.391,178.711
1689255261.636,-256.348,-82.031,-26.367,-154.297,211.914
1689255261.640,-249.023,-98.145,12.695,-231.934,182.129
1689255261.644,-207.520,-79.102,-10.254,-220.703,50.781
1689255261.648,-215.820,0.977,-58.105,-150.879,122.070
1689255261.652,-289.551,6.836,-65.918,-184.082,487.305
1689255261.655,-304.688,-70.801,-18.066,-221.680,341.797
1689255261.659,-227.539,-81.055,-81.543,-223.633,-15.625
1689255261.663,-178.711,-100.586,-7.812,-271.484,19.531
1689255261.667,-201.660,-114.746,98.145,-292.480,64.453
1689255261.671,-214.844,-61.035,-80.078,-170.410,83.008
1689255261.675,-200.195,-58.594,-99.609,-131.836,58.105
1689255261.679,-161.621,-34.180,-39.551,-150.391,72.266
1689255261.683,-185.059,-37.109,5.859,-265.137,84.473
1689255261.687,-139.160,-68.848,-33.203,-171.875,-25.879
1689255261.691,-136.230,-60.547,-56.641,-60.059,-46.387
1689255261.695,-135.742,-48.340,-37.598,-90.820,313.477
1689255261.699,-141.602,-37.109,-22.461,-146.484,375.000
1689255261.702,-136.719,-83.984,22.949,-205.566,22.949
1689255261.706,-61.523,-80.078,-83.984,-162.109,55.176
1689255261.710,-95.703,-85.938,-61.523,-131.348,205.566
1689255261.714,-178.223,-109.863,27.344,-213.867,104.980
1689255261.718,-125.488,-62.012,-61.523,-225.586,34.180
1689255261.732,-87.891,-26.855,-92.285,-160.645,87.891
1689255261.736,-126.465,-41.016,-58.594,-210.938,98.633
1689255261.740,-165.527,-68.848,-35.156,-215.332,128.418
1689255261.744,-120.117,-57.617,-67.383,-153.809,158.691
1689255261.748,-133.301,-41.504,-54.688,-142.578,218.262
1689255261.752,-135.742,-83.984,-32.227,-190.918,447.266
1689255261.756,-57.617,-73.242,-72.754,-217.285,321.289
1689255261.759,-117.188,-72.266,-74.219,-180.664,78.125
1689255261.763,-204.590,-75.684,-29.785,-162.109,190.918
1689255261.767,-194.336,-42.969,-41.992,-166.992,278.320
1689255261.771,-125.977,-80.078,-53.711,-186.523,72.754
1689255261.775,-113.281,-109.375,-0.488,-222.656,21.484
1689255261.777,-163.574,-76.660,-20.996,-200.684,104.004
1689255261.781,-179.688,-96.191,-41.504,-181.152,105.957
1689255261.785,-154.297,-92.773,-21.973,-138.672,47.363
1689255261.789,-143.555,-69.824,-28.809,-170.410,13.672
1689255261.793,-138.184,-35.156,-59.082,-210.449,81.055
1689255261.797,-108.887,-40.039,-74.707,-111.328,184.082
1689255261.801,-119.141,-62.988,-59.570,-48.828,223.633
1689255261.804,-184.570,-73.242,-18.066,-100.098,255.859
1689255261.808,-233.398,-103.027,34.180,-215.332,372.559
1689255261.812,-197.266,-94.727,22.949,-256.836,326.172
1689255261.816,-192.383,-84.473,-12.207,-225.586,104.980
1689255261.820,-196.289,-67.871,-57.617,-97.656,117.676
1689255261.822,-168.457,-38.574,-45.410,-96.191,166.992
1689255261.826,-146.484,-31.250,-50.293,-163.086,125.488
1689255261.830,-129.883,-85.938,3.906,-224.121,49.805
1689255261.834,-165.527,-84.473,-34.180,-184.570,163.574
1689255261.838,-240.234,-37.598,-48.340,-178.711,229.004
1689255261.842,-188.477,-43.457,-46.387,-162.598,129.395
1689255261.846,-121.582,-72.754,-63.965,-102.539,89.355
1689255261.849,-133.789,-95.215,8.789,-182.129,115.723
1689255261.853,-133.789,-64.453,-9.766,-195.312,312.500
1689255261.857,-182.617,-60.059,-18.555,-173.340,212.891
1689255261.861,-166.016,-80.078,-1.953,-200.684,32.715
1689255261.865,-105.469,-47.852,-78.613,-138.672,96.680
1689255261.868,-126.465,-67.871,-62.988,-155.273,100.586
1689255261.872,-199.707,-52.734,-20.020,-241.211,-34.668
1689255261.876,-221.191,-77.148,-1.465,-223.633,-34.180
1689255261.880,-173.340,-110.840,27.344,-134.277,109.863
1689255261.884,-148.926,-76.660,-38.086,-148.926,105.957
1689255261.888,-140.625,-59.082,-58.105,-204.102,53.223
1689255261.892,-151.367,-45.898,-20.996,-187.500,61.035
1689255261.895,-184.570,-73.730,27.344,-149.902,297.363
1689255261.899,-176.758,-87.402,-26.855,-102.539,280.273
1689255261.903,-171.875,-78.125,-47.363,-141.602,55.664
1689255261.907,-141.602,-84.473,-43.945,-170.410,46.387
1689255261.911,-153.809,-77.148,6.836,-229.980,124.512
1689255261.913,-240.723,-32.715,-10.254,-237.793,165.527
1689255261.917,-204.102,-59.570,-58.105,-118.164,-2.441
1689255261.921,-184.082,-104.004,-5.371,-104.980,41.016
1689255261.925,-137.207,-83.496,-78.125,-112.793,345.215
1689255261.929,-129.395,-32.227,-105.469,-123.047,201.660
1689255261.933,-194.824,-68.359,-29.297,-122.559,88.867
1689255261.937,-198.242,-100.586,-7.812,-95.703,225.586
1689255261.940,-190.430,-56.152,-62.988,-138.184,421.387
1689255261.944,-164.062,-70.801,-73.242,-167.969,177.246
1689255261.948,-145.508,-106.934,-0.977,-198.730,-13.184
1689255261.952,-217.773,-104.980,7.812,-234.375,84.473
1689255261.956,-198.730,-70.312,-72.754,-115.234,45.898
1689255261.960,-167.480,-68.359,-77.148,-102.539,-24.414
1689255261.964,-204.590,-82.520,-41.992,-212.402,8.301
1689255261.968,-145.020,-72.266,-69.336,-218.750,229.004
1689255261.972,-166.992,-95.703,-13.184,-184.570,183.594
1689255261.976,-216.309,-104.004,6.348,-180.664,140.137
1689255261.980,-217.285,-81.543,7.812,-155.762,244.629
1689255261.984,-197.754,-56.152,-53.711,-139.160,374.512
1689255261.987,-185.059,-39.062,-73.730,-209.473,333.984
1689255261.991,-193.359,-20.020,-34.668,-202.637,107.910
1689255261.995,-169.922,-36.621,-68.359,-58.594,144.531
1689255261.999,-141.602,-79.590,-52.734,-26.367,194.824
1689255262.003,-121.094,-78.125,-56.641,-93.262,104.980
1689255262.002,-132.324,-61.035,-66.895,-120.117,-1.465
1689255262.006,-168.945,-52.734,-56.641,-167.480,-30.762
1689255262.010,-168.945,-94.238,-11.230,-128.418,44.922
1689255262.014,-167.969,-107.422,7.812,-127.441,191.406
1689255262.018,-144.043,-78.125,-49.316,-110.840,215.332
1689255262.022,-177.734,-68.359,-26.367,-122.070,161.133
1689255262.026,-157.715,-43.945,-30.273,-176.270,459.473
1689255262.029,-196.777,-65.430,12.695,-216.797,553.223
1689255262.033,-203.613,-39.551,-27.832,-123.535,146.973
1689255262.037,-144.043,-83.496,-80.078,-38.574,34.668
1689255262.041,-128.418,-115.234,-49.805,-95.215,74.707
1689255262.045,-149.902,-52.734,-15.137,-153.320,2.930
1689255262.049,-138.184,-82.520,-56.152,-107.422,-2.930
1689255262.053,-152.344,-100.586,-35.645,-68.359,164.062
1689255262.057,-197.754,-54.199,-41.016,-104.492,108.398
1689255262.061,-105.957,-69.336,-49.316,-78.125,-82.520
1689255262.065,-95.215,-44.922,-22.461,-145.020,-83.984
1689255262.069,-198.242,9.766,-52.734,-192.383,168.945
1689255262.073,-164.551,-80.566,-0.977,-98.633,237.305
1689255262.076,-107.910,-86.914,-6.836,-78.613,84.473
1689255262.080,-154.785,-73.730,-18.555,-155.273,55.664
1689255262.084,-173.340,-54.688,-34.668,-194.824,275.879
1689255262.088,-195.312,-78.613,5.859,-188.965,274.414
1689255262.092,-155.762,-135.742,-20.996,-149.414,0.000
1689255262.107,-111.816,-54.688,-104.004,-100.098,54.199
1689255262.111,-137.207,-67.383,-44.922,-148.438,104.980
1689255262.115,-104.004,-62.500,-61.035,-160.645,91.797
1689255262.119,-106.934,-1.465,-81.055,-127.930,135.742
1689255262.123,-109.863,-67.871,-59.570,-110.352,233.887
1689255262.127,-138.184,-81.055,-63.965,-150.879,397.461
1689255262.131,-141.113,-96.680,-30.273,-196.777,229.004
1689255262.134,-93.262,-50.781,-31.250,-231.445,20.508
1689255262.138,-95.703,-52.734,-22.949,-203.613,125.488
1689255262.142,-104.980,-90.820,-30.273,-154.297,402.344
1689255262.146,-94.727,-65.918,-95.215,-164.551,140.625
1689255262.150,-82.031,-87.402,-24.414,-200.195,-1.465
1689255262.152,-88.867,-92.773,0.977,-217.285,109.375
1689255262.156,-137.695,-77.637,-31.250,-275.391,65.918
1689255262.160,-186.035,-79.590,-17.578,-245.117,96.191
1689255262.164,-117.676,-85.449,-65.430,-104.980,119.141
1689255262.168,-87.891,-53.223,-81.543,-110.352,106.445
1689255262.172,-105.469,-75.684,-57.129,-148.926,87.402
1689255262.176,-170.898,-60.059,-57.617,-181.152,101.074
1689255262.179,-179.199,-82.031,-30.273,-151.367,137.695
1689255262.183,-126.465,-105.957,-22.461,-88.867,266.602
1689255262.187,-174.316,-78.125,7.812,-220.703,207.031
1689255262.191,-162.109,-36.621,-51.270,-252.441,-16.602
1689255262.195,-135.254,-84.961,-84.961,-196.289,138.184
1689255262.197,-177.734,-91.309,-84.473,-192.871,263.672
1689255262.201,-142.090,-102.051,-31.738,-121.582,74.219
1689255262.205,-101.562,-114.746,-37.109,-99.121,0.977
1689255262.209,-97.656,-77.637,-82.031,-174.316,92.773
1689255262.213,-135.254,-50.293,-62.500,-208.984,223.145
1689255262.217,-161.621,-97.656,3.906,-209.961,186.035
1689255262.221,-159.668,-99.609,-7.324,-170.898,146.973
1689255262.224,-139.648,-76.660,-40.039,-161.133,124.512
1689255262.228,-98.145,-81.055,-57.129,-230.469,251.465
1689255262.232,-123.535,-74.219,-2.930,-312.012,130.859
1689255262.236,-186.035,-81.055,-52.734,-251.953,63.477
1689255262.240,-101.562,-95.703,-129.395,-81.055,149.902
1689255262.245,-90.820,-88.867,-83.008,-123.047,126.953
1689255262.249,-100.098,-91.797,-52.246,-192.871,82.520
1689255262.253,-82.031,-60.059,-51.270,-187.012,93.262
1689255262.257,-186.035,-30.273,-9.277,-235.352,208.496
1689255262.261,-174.805,-72.266,-43.945,-137.695,202.148
1689255262.265,-129.883,-83.984,-40.527,-104.492,128.906
1689255262.269,-124.023,-50.293,-62.988,-168.945,136.230
1689255262.272,-80.078,-90.820,-70.312,-184.082,293.945
1689255262.276,-89.355,-100.098,-88.379,-179.199,338.867
1689255262.280,-144.531,-60.547,-84.961,-130.859,111.816
1689255262.284,-167.969,-60.059,-32.715,-155.762,64.941
1689255262.288,-94.727,-67.871,-47.363,-178.223,75.684
1689255262.287,-107.422,-61.523,-20.996,-221.191,-8.789
1689255262.291,-156.738,-97.168,-16.113,-231.934,53.223
1689255262.295,-172.363,-59.570,-22.949,-214.844,130.859
1689255262.299,-175.781,-64.941,3.906,-241.211,187.500
1689255262.303,-90.332,-68.848,-100.586,-159.668,123.535
1689255262.307,-59.570,-61.523,-87.402,-180.176,68.848
1689255262.311,-85.938,-102.051,-11.230,-154.785,208.984
1689255262.314,-124.512,-63.477,-62.988,-109.375,501.465
1689255262.318,-156.738,-28.320,-105.469,-184.570,357.422
1689255262.322,-94.727,-93.750,-40.039,-196.289,6.348
1689255262.326,-106.934,-94.727,4.883,-231.445,21.973
1689255262.330,-113.281,-38.086,-45.898,-192.871,62.012
1689255262.334,-124.512,-66.406,-55.176,-127.930,53.223
1689255262.338,-138.672,-89.844,-51.270,-125.977,69.824
1689255262.342,-95.703,-82.520,-45.898,-160.156,67.871
1689255262.346,-65.430,-104.004,-45.898,-216.797,19.531
1689255262.350,-75.684,-96.191,-59.082,-232.422,23.438
1689255262.354,-117.676,-74.707,-40.527,-132.324,76.660
1689255262.358,-166.016,-83.496,20.996,-145.508,282.227
1689255262.361,-172.363,-84.473,-24.414,-226.074,397.949
1689255262.365,-114.258,-87.891,-41.016,-204.102,90.820
1689255262.369,-112.305,-78.613,-29.785,-176.758,7.812
1689255262.373,-138.184,-63.477,-38.574,-145.020,229.492
1689255262.377,-126.465,-75.195,-66.406,-113.281,138.672
1689255262.377,-121.094,-85.449,-37.598,-153.320,10.254
1689255262.381,-140.625,-101.074,-23.438,-199.219,99.121
1689255262.385,-154.785,-117.676,-54.688,-223.633,135.254
1689255262.389,-179.688,-89.844,-48.340,-164.062,150.391
1689255262.393,-205.078,-61.035,-20.020,-98.145,59.082
1689255262.397,-198.730,-64.453,-13.184,-139.160,83.496
1689255262.401,-179.199,-109.375,-33.691,-168.945,446.289
1689255262.404,-162.598,-75.195,-10.254,-136.230,306.641
1689255262.408,-168.945,-50.781,-15.625,-125.000,31.738
1689255262.412,-197.266,-41.016,-64.941,-120.117,123.535
1689255262.416,-208.496,-82.031,-7.324,-98.145,104.004
1689255262.420,-178.711,-85.449,-9.277,-140.137,-41.504
1689255262.424,-176.758,-73.242,11.719,-214.844,-57.617
1689255262.428,-186.523,-65.430,-43.945,-163.574,61.523
1689255262.432,-229.980,-35.156,-60.547,-99.609,102.539
1689255262.436,-269.531,-35.156,-3.418,-155.762,28.320
1689255262.440,-229.980,-44.922,-36.621,-179.199,23.438
1689255262.444,-177.246,-77.148,-36.621,-148.438,170.898
1689255262.448,-250.977,-56.641,-66.406,-170.410,184.570
1689255262.451,-248.047,-74.219,-15.137,-155.762,88.379
1689255262.455,-185.547,-27.344,-30.273,-63.965,81.543
1689255262.459,-218.750,-26.367,-47.363,-67.871,283.691
1689255262.463,-240.234,-81.055,-9.277,-143.555,217.285
1689255262.467,-285.645,-89.844,17.578,-189.941,89.844
1689255262.482,-328.125,-82.520,12.207,-146.973,150.879
1689255262.486,-300.781,-39.062,-40.527,-90.820,237.305
1689255262.490,-289.062,-9.766,-38.574,-133.301,169.434
1689255262.494,-268.555,-54.688,-20.996,-159.668,83.984
1689255262.498,-225.098,-63.477,-11.230,-125.000,174.805
1689255262.502,-243.652,-91.309,-12.695,-95.215,426.270
1689255262.506,-278.809,-95.703,-1.465,-128.418,263.672
1689255262.509,-257.324,-37.598,-51.270,-150.879,16.113
1689255262.513,-200.684,-53.223,-40.527,-145.508,115.723
1689255262.517,-148.926,-82.031,4.395,-92.285,164.551
1689255262.521,-203.613,-70.801,-26.367,-92.773,19.043
1689255262.525,-202.148,-65.430,-22.949,-127.441,13.184
1689255262.528,-169.434,-22.949,-9.766,-164.551,35.645
1689255262.532,-144.531,-33.203,-39.551,-188.965,56.641
1689255262.536,-116.211,-91.797,0.977,-185.059,61.035
1689255262.540,-158.691,-74.707,2.930,-124.023,64.453
1689255262.544,-178.711,-79.590,-20.020,-104.004,222.168
1689255262.548,-135.254,-40.039,-41.992,-115.234,283.691
1689255262.552,-161.621,-7.324,-22.949,-186.035,97.168
1689255262.555,-163.086,-97.656,60.059,-265.625,83.984
1689255262.559,-100.586,-78.125,-18.066,-125.488,307.129
1689255262.563,-107.910,14.160,-68.848,-53.223,307.617
1689255262.567,-134.766,-42.480,-21.484,-123.047,68.848
1689255262.571,-111.816,-63.965,-15.137,-133.301,-12.207
1689255262.572,-106.445,-18.066,-5.371,-140.625,56.641
1689255262.576,-156.250,-79.102,8.789,-152.832,71.777
1689255262.580,-178.223,-98.633,7.324,-98.145,60.059
1689255262.584,-134.766,-56.152,-32.715,-61.035,233.398
1689255262.588,-67.383,-59.082,-32.715,-98.633,419.434
1689255262.592,-48.828,-61.035,-29.785,-81.055,296.387
1689255262.596,-161.133,-44.922,-13.184,-110.840,188.477
1689255262.599,-180.176,-69.336,33.691,-151.855,210.449
1689255262.603,-82.520,-83.984,-27.832,-56.152,355.469
1689255262.607,-99.121,-11.719,-72.266,-106.934,166.992
1689255262.611,-114.258,-18.066,-43.945,-176.758,-31.738
1689255262.615,-87.402,-82.031,8.789,-115.234,47.363
1689255262.618,-100.098,-93.262,54.199,-93.262,37.109
1689255262.622,-141.602,-50.781,-40.527,-89.355,34.180
1689255262.626,-153.320,-75.195,-15.137,-139.648,47.852
1689255262.630,-88.379,-78.613,9.766,-139.160,116.699
1689255262.634,-67.383,-30.273,-60.547,-94.238,185.059
1689255262.638,-98.633,-59.082,-44.922,-105.469,160.645
1689255262.642,-156.250,-72.754,15.137,-166.992,209.961
1689255262.645,-109.863,-63.965,-58.105,-136.719,428.711
1689255262.649,-102.051,-18.555,-72.266,-112.305,385.254
1689255262.653,-156.738,-2.441,-36.133,-145.996,83.984
1689255262.657,-134.277,-81.543,-16.113,-122.070,56.152
1689255262.661,-190.918,-95.215,7.324,-184.570,90.820
1689255262.677,-165.527,-62.500,-34.180,-187.012,16.602
1689255262.681,-109.375,-35.156,-37.598,-171.387,-52.734
1689255262.685,-120.605,-33.203,-25.879,-156.738,23.438
1689255262.689,-167.480,-89.844,-17.578,-104.004,219.727
1689255262.693,-232.910,-69.336,-27.344,-130.859,150.391
1689255262.697,-174.805,-30.762,-27.832,-175.293,74.219
1689255262.701,-124.023,-22.461,-42.480,-213.867,169.922
1689255262.704,-132.324,-20.996,-63.477,-194.336,389.160
1689255262.708,-161.133,-73.730,-1.953,-142.090,383.301
1689255262.712,-98.145,-60.547,-32.227,-124.512,97.168
1689255262.716,-109.375,-41.992,-25.879,-134.766,115.723
1689255262.720,-126.953,-46.875,25.391,-172.852,129.883
1689255262.709,-92.285,-53.711,-52.246,-134.277,53.711
1689255262.713,-125.488,-57.129,-64.453,-104.492,117.188
1689255262.717,-184.570,-69.336,0.000,-180.176,132.324
1689255262.721,-121.094,-66.895,-23.438,-140.625,98.145
1689255262.725,-90.332,-34.180,-34.668,-157.227,18.066
1689255262.729,-124.023,-41.016,-60.059,-209.961,52.734
1689255262.733,-204.102,-76.660,3.418,-200.195,227.539
1689255262.736,-162.598,-25.391,-24.902,-106.934,152.344
1689255262.740,-139.160,-54.688,-42.969,-138.184,22.461
1689255262.744,-164.062,-80.566,-2.930,-191.895,-9.766
1689255262.748,-155.762,-63.477,-7.812,-151.367,313.477
1689255262.752,-190.918,-95.703,-1.953,-121.582,405.273
1689255262.752,-198.730,-57.617,-45.410,-122.559,102.051
1689255262.756,-178.223,5.859,-102.539,-145.508,-18.555
1689255262.760,-88.379,-47.852,-76.172,-84.961,76.660
1689255262.764,-114.746,-69.824,-8.789,-132.324,142.578
1689255262.768,-210.938,-46.875,-31.738,-173.340,41.504
1689255262.772,-239.258,-36.621,-40.039,-128.418,169.922
1689255262.776,-191.406,-59.082,-67.383,-106.445,513.672
1689255262.779,-150.391,-57.129,-77.637,-171.387,329.102
1689255262.783,-139.648,-29.297,-24.414,-172.852,51.758
1689255262.787,-138.672,-45.898,-18.066,-147.461,179.688
1689255262.791,-166.992,-45.898,-47.363,-102.051,168.945
1689255262.795,-186.523,-47.852,-55.664,-69.824,8.789
1689255262.800,-159.180,-48.828,-65.430,-91.797,30.273
1689255262.804,-134.277,-47.852,-26.367,-114.258,188.965
1689255262.808,-148.926,-40.527,-33.203,-125.977,155.273
1689255262.812,-191.895,-7.324,-67.383,-41.504,72.754
1689255262.816,-237.305,-44.434,-19.531,-73.242,84.961
1689255262.820,-223.633,-96.191,1.953,-160.156,175.781
1689255262.824,-161.621,-43.457,-65.918,-125.488,110.352
1689255262.827,-171.875,-30.762,-90.820,-105.957,-25.391
1689255262.831,-188.965,-71.289,-20.996,-69.336,57.129
1689255262.835,-181.152,-67.383,-12.207,-72.754,305.664
1689255262.839,-173.828,-54.199,-41.016,-75.684,223.145
1689255262.843,-90.820,-41.504,-39.062,-77.637,68.848
1689255262.857,-123.047,-28.320,-44.434,-150.391,100.586
1689255262.861,-232.910,-21.484,-45.410,-137.695,133.301
1689255262.865,-192.383,-69.824,-49.316,-86.914,159.180
1689255262.869,-197.754,-82.031,3.906,-149.414,186.523
1689255262.873,-191.895,-58.105,2.441,-212.402,205.566
1689255262.877,-126.465,-50.293,-69.336,-120.605,508.301
1689255262.881,-159.668,-58.594,-62.988,-41.016,650.391
1689255262.884,-187.012,-53.711,-74.219,-101.562,194.824
1689255262.888,-151.367,-38.086,-103.027,-137.695,17.090
1689255262.892,-93.750,-62.012,-54.688,-145.508,57.617
1689255262.896,-92.773,-67.383,-3.418,-207.520,-13.184
1689255262.900,-130.859,8.301,-28.809,-182.617,43.457
1689255262.902,-172.363,-37.109,-41.016,-104.492,67.871
1689255262.906,-105.469,-67.383,-50.781,-108.887,24.414
1689255262.910,-51.758,-42.480,-55.664,-183.105,14.648
1689255262.914,-99.609,-63.965,-17.090,-216.309,41.992
1689255262.918,-98.633,-87.402,16.602,-118.652,73.242
1689255262.922,-91.309,-77.148,-39.551,-73.242,87.402
1689255262.926,-75.684,-74.219,-81.055,-110.352,187.012
1689255262.929,-55.176,-51.758,-51.758,-130.859,205.566
1689255262.933,-99.121,-47.363,-22.461,-138.672,364.746
1689255262.937,-117.188,-74.219,-2.930,-123.535,450.684
1689255262.941,-74.219,-48.340,-36.621,-94.727,150.879
1689255262.945,-81.543,-42.480,-47.363,-85.938,-6.348
1689255262.947,-53.711,-76.660,-32.227,-129.395,50.781
1689255262.951,-33.691,-63.477,-20.996,-149.902,65.430
1689255262.955,-77.148,-17.578,-8.301,-119.629,32.715
1689255262.959,-65.430,-42.969,-51.758,-78.125,136.719
1689255262.963,-48.340,-70.801,-34.668,-98.633,264.160
1689255262.967,-20.508,-72.754,-25.391,-143.555,207.031
1689255262.971,-18.066,-41.016,-52.734,-179.688,175.781
1689255262.974,-85.449,-15.137,-68.359,-172.363,231.934
1689255262.978,-104.004,-70.801,-54.199,-53.223,402.832
1689255262.982,-120.605,-62.500,-35.156,-88.867,167.480
1689255262.986,-88.867,-82.520,57.129,-252.930,-34.180
1689255262.990,18.555,-83.984,-8.789,-136.719,19.531
1689255262.993,12.207,-35.156,-63.965,-11.719,8.301
1689255262.997,-84.961,-68.848,-11.719,-47.363,52.246
1689255263.001,-50.781,-87.891,-36.133,-83.984,77.148
1689255263.005,-28.809,-24.414,-58.594,-105.957,88.379
1689255263.009,-47.852,-72.266,28.809,-144.531,94.727
1689255263.013,-73.730,-44.922,-62.012,-177.246,80.078
1689255263.017,-105.469,0.977,-137.695,-114.746,116.699
1689255263.020,-76.172,-69.824,-44.922,-46.875,319.336
1689255263.024,0.488,-72.754,-29.297,-84.473,273.926
1689255263.028,-33.203,-84.473,-21.973,-238.770,24.902
1689255263.032,-84.473,-63.965,-32.715,-253.906,123.047
1689255263.036,-39.551,-53.223,-41.504,-82.520,250.977
1689255263.037,-87.402,-36.133,-32.227,-81.543,139.648
1689255263.041,-66.406,-23.926,-27.832,-140.137,23.926
1689255263.045,-54.199,-63.477,-44.922,-210.938,67.383
1689255263.049,-40.527,-100.586,-92.773,-183.594,221.191
1689255263.053,-6.348,-98.145,-45.410,-68.359,167.480
1689255263.057,-60.547,-68.359,34.668,-138.672,124.023
1689255263.061,-50.293,-85.938,-30.762,-137.695,249.023
1689255263.064,-36.621,-66.406,-64.941,-131.348,372.070
1689255263.068,-30.762,-43.945,-25.391,-161.621,258.789
1689255263.072,-40.527,-65.430,5.859,-127.930,51.758
1689255263.076,-62.012,-68.359,-45.410,-43.945,110.352
1689255263.080,-22.461,-63.965,-37.109,-55.176,136.719
1689255263.085,-1.465,-27.832,-18.066,-119.141,34.180
1689255263.089,1.953,-53.223,-55.176,-103.027,25.879
1689255263.093,-13.672,-58.105,-15.625,-103.516,153.809
1689255263.097,-102.539,10.742,19.043,-115.723,104.492
1689255263.101,-36.133,-61.523,5.371,-105.469,10.742
1689255263.105,26.367,-80.078,-62.988,-93.750,114.746
1689255263.109,15.625,-35.645,-56.641,-92.285,359.375
1689255263.112,-16.602,-57.129,0.488,-122.559,315.430
1689255263.116,-11.230,-51.758,-45.410,-67.871,22.461
1689255263.120,-49.805,-7.812,-70.801,-62.500,19.043
1689255263.124,-13.184,-41.992,-6.348,-114.746,33.691
1689255263.128,52.734,-54.688,0.977,-139.160,-16.113
1689255263.142,48.828,-29.297,-50.293,-48.340,33.203
1689255263.146,-15.625,-8.789,-52.246,-49.805,113.281
1689255263.150,-57.617,-60.059,-12.207,-123.047,137.207
1689255263.154,-26.367,-64.453,-14.160,-124.023,158.691
1689255263.158,-51.270,-20.508,-0.977,-182.129,175.293
1689255263.162,-59.570,-70.312,-6.836,-194.824,115.234
1689255263.166,-18.555,-53.223,-63.477,-49.316,470.215
1689255263.169,-50.781,-29.785,-50.781,-67.383,539.551
1689255263.173,-113.770,-68.359,-57.129,-141.113,45.410
1689255263.177,-57.129,-87.891,-42.969,-145.020,-38.574
1689255263.181,-21.484,-67.383,-40.527,-108.398,75.195
1689255263.185,-82.031,-9.766,-50.781,-62.012,55.664
1689255263.174,-165.527,-20.508,3.418,-185.059,20.996
1689255263.178,-38.574,-82.031,-63.965,-112.305,39.062
1689255263.182,3.418,-71.777,-55.664,-99.609,23.926
1689255263.186,-34.668,-50.293,-6.348,-160.645,33.203
1689255263.190,-23.438,-21.973,-64.453,-71.777,69.336
1689255263.194,-102.051,-12.207,-20.508,-74.219,344.727
1689255263.198,-89.844,-41.504,10.742,-125.000,279.785
1689255263.201,-54.199,-35.645,-44.922,-145.996,55.176
1689255263.205,-77.148,-79.102,-13.672,-107.422,75.195
1689255263.209,-101.074,-86.426,19.531,-93.750,310.059
1689255263.213,-109.863,-33.203,-29.785,-78.125,302.246
1689255263.217,-107.910,-8.789,-83.984,-82.520,8.301
1689255263.232,-81.055,-19.043,-81.543,-153.320,-15.625
1689255263.236,-53.711,-62.012,-64.453,-144.043,52.246
1689255263.240,-103.516,-90.820,-15.625,-118.164,89.844
1689255263.244,-134.277,-82.520,33.691,-129.395,133.301
1689255263.248,-68.848,-46.875,-56.641,-40.039,163.574
1689255263.252,-77.148,-49.316,-71.289,-111.816,400.879
1689255263.256,-81.055,-64.941,-58.105,-210.938,283.691
1689255263.259,-122.070,-5.371,-32.715,-114.746,81.055
1689255263.263,-105.957,-29.297,-20.508,-44.434,190.918
1689255263.267,-113.281,-72.266,-1.465,-112.305,394.043
1689255263.271,-148.438,-39.551,90.820,-216.797,129.395
1689255263.275,-79.590,-34.180,-63.965,-119.629,-33.203
1689255263.277,-60.059,-15.625,-105.957,-41.992,55.664
1689255263.281,-74.707,-41.992,-45.898,-58.594,56.641
1689255263.285,-88.867,-49.316,-63.477,-85.449,43.457
1689255263.289,-105.957,-23.438,-27.832,-115.723,62.500
1689255263.293,-104.004,-42.480,3.418,-138.184,115.234
1689255263.297,-106.934,-58.105,-39.551,-89.355,196.777
1689255263.301,-111.816,-66.895,-20.996,-60.547,197.266
1689255263.304,-141.113,-42.480,-4.395,-129.395,63.477
1689255263.308,-148.438,-50.781,-7.812,-159.668,243.652
1689255263.312,-139.160,-71.777,-16.602,-170.898,285.156
1689255263.316,-141.113,-57.129,-20.020,-119.141,24.414
1689255263.320,-130.371,-69.336,-21.484,-60.059,73.242
1689255263.322,-111.328,-50.293,-76.172,-63.477,279.297
1689255263.326,-119.629,-26.855,-27.832,-139.160,143.066
1689255263.330,-91.797,-61.523,-4.395,-164.062,-21.484
1689255263.334,-129.395,-64.453,-1.953,-160.156,147.949
1689255263.338,-183.594,-10.254,-18.066,-135.254,233.887
1689255263.342,-122.559,-38.086,-55.176,-60.547,166.992
1689255263.346,-111.328,-65.918,-5.859,-110.840,124.023
1689255263.349,-107.422,-67.871,-10.742,-165.039,95.703
1689255263.353,-116.211,-64.941,-37.598,-111.816,286.621
1689255263.357,-160.156,-96.680,24.414,-97.656,134.277
1689255263.361,-132.324,-70.801,1.465,-125.488,28.320
1689255263.365,-141.602,-40.527,-8.301,-174.805,130.371
1689255263.370,-145.996,-23.926,-24.414,-179.688,79.102
1689255263.374,-132.812,-16.113,-12.695,-165.527,61.523
1689255263.378,-103.516,-65.430,-21.484,-86.426,66.895
1689255263.382,-103.516,-60.547,-48.340,-63.477,210.449
1689255263.386,-123.535,-51.270,28.320,-165.527,212.402
1689255263.390,-70.312,-49.805,-53.711,-147.461,90.820
1689255263.394,-76.660,-72.266,-92.285,-114.746,130.371
1689255263.397,-131.348,-60.059,-19.531,-119.629,368.164
1689255263.401,-124.023,-43.945,-18.066,-110.352,328.125
1689255263.405,-109.863,-64.453,-9.766,-104.980,66.406
1689255263.409,-74.219,-63.477,-36.621,-145.996,59.570
1689255263.413,-109.375,-52.734,-41.992,-200.195,108.398
1689255263.413,-125.000,-71.777,-63.477,-127.930,109.863
1689255263.417,-101.562,-35.645,-110.840,-55.664,71.289
1689255263.421,-84.473,-70.801,-58.594,-41.016,133.301
1689255263.425,-86.426,-116.699,-37.598,-78.613,179.199
1689255263.429,-124.512,-85.449,-37.598,-163.574,55.176
1689255263.433,-153.809,-31.250,-57.129,-135.254,50.781
1689255263.437,-172.363,-28.320,-66.895,-127.930,138.672
1689255263.440,-134.277,-53.223,-58.594,-129.883,435.059
1689255263.444,-92.285,-72.754,-11.719,-157.227,453.125
1689255263.448,-110.352,-59.082,12.207,-171.875,67.871
1689255263.452,-107.910,-57.617,-94.238,-99.609,4.883
1689255263.456,-104.980,-71.777,-89.355,-87.891,44.922
1689255263.459,-65.918,-49.316,-52.246,-115.234,38.086
1689255263.463,-12.695,-50.781,-79.590,-119.629,29.297
1689255263.467,-17.578,-45.898,-37.109,-143.066,53.223
1689255263.471,-157.715,14.648,-5.859,-197.266,114.746
1689255263.475,-184.082,-45.898,-30.273,-122.070,98.145
1689255263.479,-83.496,-109.375,-49.805,-69.336,65.430
1689255263.483,-84.961,-63.477,-96.191,-111.816,325.195
1689255263.486,-111.328,-82.031,-48.828,-146.973,453.125
1689255263.490,-90.820,-87.891,-32.227,-91.309,191.895
1689255263.494,-118.164,-34.180,-87.402,-56.152,128.906
1689255263.498,-182.617,-47.852,-63.477,-96.680,125.977
1689255263.502,-157.715,-23.438,-92.285,-127.930,24.902
1689255263.502,-99.121,-49.316,-71.289,-141.113,-29.785
1689255263.506,-139.160,-98.145,-14.160,-110.840,30.273
1689255263.510,-173.828,-84.961,-41.016,-58.105,163.574
1689255263.514,-172.852,-74.219,-70.312,-89.355,187.988
1689255263.518,-175.781,-96.191,-18.555,-131.836,45.898
1689255263.522,-125.977,-42.969,-50.293,-137.207,130.859
1689255263.526,-143.555,-24.902,-48.340,-149.414,511.230
1689255263.529,-110.352,-111.816,-7.812,-59.570,426.270
1689255263.533,-126.465,-96.191,-22.949,-78.125,83.008
1689255263.537,-137.207,-57.129,-76.660,-129.883,59.570
1689255263.541,-44.434,-37.598,-101.074,-132.812,41.992
1689255263.545,-50.293,-47.852,-71.289,-144.531,11.719
1689255263.549,-123.047,-77.637,-58.105,-84.961,62.988
1689255263.553,-130.859,-27.344,-59.082,-74.707,87.402
1689255263.557,-156.738,-13.672,-44.434,-166.992,55.664
1689255263.561,-90.820,-92.285,-24.414,-189.453,-4.395
1689255263.565,-71.777,-96.680,-0.977,-126.465,-0.488
1689255263.569,-112.305,-69.824,-21.484,-76.172,156.738
1689255263.573,-143.555,-29.785,-65.918,-90.332,208.008
1689255263.576,-131.836,-15.137,-72.754,-97.656,3.906
1689255263.580,-82.031,-62.500,-42.480,-146.973,-9.277
1689255263.584,-53.223,-71.289,-80.078,-113.281,308.105
1689255263.588,-104.980,-52.734,-82.031,-61.035,339.844
1689255263.592,-174.316,-20.996,-62.012,-117.188,95.215
1689255263.607,-126.953,-33.691,-59.082,-113.281,36.133
1689255263.611,-83.496,-34.668,-71.289,-121.094,28.320
1689255263.615,-109.375,-33.203,-72.754,-166.992,64.941
1689255263.619,-59.570,-61.035,-37.109,-83.984,108.398
1689255263.623,-85.938,-47.852,-26.855,-49.805,120.605
1689255263.627,-146.973,-53.711,-40.527,-114.258,413.574
1689255263.631,-62.988,-43.457,-31.250,-115.234,309.570
1689255263.634,-53.711,-47.363,20.508,-141.113,6.836
1689255263.638,-104.980,-49.805,29.785,-141.113,40.527
1689255263.642,-106.934,31.738,-78.613,-67.383,161.621
1689255263.646,-119.141,-9.766,-45.410,-63.965,40.527
1689255263.650,-88.379,-65.918,-30.273,-140.625,-57.617
1689255263.652,-67.871,-44.922,-87.402,-167.480,71.289
1689255263.656,-89.844,-27.832,-66.406,-106.934,158.203
1689255263.660,-55.176,-28.320,-45.410,-38.574,95.703
1689255263.664,-85.938,-49.316,-0.977,-108.398,62.988
1689255263.668,-111.328,-50.293,-20.020,-149.902,62.012
1689255263.672,-44.434,-55.176,-37.598,-117.676,90.820
1689255263.676,-66.406,-25.879,-35.156,-136.719,213.379
1689255263.679,-158.691,46.875,-56.152,-117.676,155.273
1689255263.683,-122.559,-71.289,-24.414,-69.336,252.930
1689255263.687,-77.148,-81.543,-61.035,-67.383,262.695
1689255263.691,-102.539,27.832,-81.055,-130.859,45.410
1689255263.695,-81.543,-49.316,-49.316,-122.070,82.031
1689255263.700,-125.977,-52.246,-18.555,-99.609,117.188
1689255263.704,-102.539,-46.875,-22.461,-76.660,94.238
1689255263.708,-96.680,-65.918,-62.988,-101.074,125.488
1689255263.712,-147.949,-37.598,-13.672,-161.621,152.344
1689255263.716,-130.859,-22.461,-33.203,-137.207,380.371
1689255263.720,-145.020,-48.340,-47.363,-125.000,337.402
1689255263.724,-119.629,-82.031,-0.977,-126.953,174.316
1689255263.727,-86.426,-65.430,-23.926,-152.344,172.363
1689255263.731,-74.707,-26.367,-58.594,-123.047,329.102
1689255263.735,-44.922,-50.293,-40.039,-40.527,204.590
1689255263.739,-54.199,-37.109,-80.566,-44.922,39.062
1689255263.743,-78.125,-17.578,-25.879,-49.316,146.484
1689255263.743,-76.660,6.348,-22.461,-101.562,142.090
1689255263.747,-91.309,-8.301,-56.152,-136.719,42.480
1689255263.751,-91.309,-48.340,18.066,-112.793,46.875
1689255263.755,-91.309,-44.922,18.066,-90.332,104.004
1689255263.759,-84.473,-34.668,-49.316,-49.805,135.254
1689255263.763,-105.957,9.766,-22.461,-91.797,169.434
1689255263.767,-85.938,-19.531,6.836,-131.348,105.469
1689255263.770,-38.086,-42.480,-18.066,-106.445,211.426
1689255263.774,-67.871,6.836,-31.738,-94.238,480.957
1689255263.778,-100.098,-32.715,-17.578,-57.617,241.211
1689255263.782,-76.172,-57.617,14.648,-69.336,1.465
1689255263.786,-55.176,-11.719,-8.789,-116.699,94.727
1689255263.787,-32.715,16.113,-63.477,-118.164,151.367
1689255263.791,-46.875,-30.762,-12.695,-62.988,71.777
1689255263.795,-103.027,-3.418,-25.879,-63.477,73.242
1689255263.799,-70.312,6.348,-51.270,-47.363,108.398
1689255263.803,-3.418,-38.086,12.695,-66.406,55.664
1689255263.807,-55.176,29.785,-44.434,-154.297,103.516
1689255263.811,-68.848,35.645,-72.754,-117.676,243.652
1689255263.814,-46.387,-52.246,10.742,-35.156,576.172
1689255263.818,-48.340,-40.039,-22.949,-33.203,446.777
1689255263.822,-62.500,-34.668,-19.531,-95.703,52.734
1689255263.826,-140.625,-33.203,49.805,-222.168,101.074
1689255263.830,-121.582,-0.977,-17.090,-146.973,97.656
1689255263.834,-80.566,2.930,-50.781,-66.895,49.316
1689255263.838,-129.395,-20.508,8.789,-93.750,45.898
1689255263.842,-56.641,-28.320,-24.414,-74.219,41.016
1689255263.846,-41.016,-6.836,-57.129,-115.723,11.719
1689255263.850,-83.008,-28.320,-52.734,-141.602,6.348
1689255263.854,-75.195,1.465,-90.820,-63.965,181.152
1689255263.858,-111.816,-31.250,-23.438,-67.383,356.445
1689255263.861,-91.797,-58.594,45.898,-125.488,227.539
1689255263.865,-52.734,-23.926,-23.926,-130.371,67.383
1689255263.869,-51.758,-13.672,-55.664,-68.359,160.645
1689255263.873,-106.934,-28.809,-0.977,-81.055,265.137
1689255263.877,-68.359,-46.875,0.000,-52.246,134.766
1689255263.877,-15.625,-26.367,-73.242,-57.129,17.090
1689255263.881,-54.199,-29.297,-65.918,-146.973,20.508
1689255263.885,-87.891,2.930,-45.898,-113.281,36.621
1689255263.889,-94.238,-2.441,-69.336,-49.805,117.188
1689255263.893,-86.426,-34.180,-50.781,-56.152,81.543
1689255263.897,-103.516,-51.270,43.457,-143.066,127.930
1689255263.901,-28.809,-41.016,-56.152,-92.285,444.824
1689255263.904,-4.883,-18.555,-83.008,-44.922,352.539
1689255263.908,-72.266,-4.395,-53.223,-55.176,93.750
1689255263.912,-119.629,-15.137,-72.266,-50.293,71.289
1689255263.916,-146.973,-67.871,1.953,-130.371,75.195
1689255263.920,-109.375,-44.922,0.488,-171.875,70.801
1689255263.925,-82.031,1.953,-41.504,-118.164,41.992
1689255263.929,-79.590,-3.418,-83.008,-59.570,151.855
1689255263.933,-96.191,-46.387,-39.551,-59.082,164.062
1689255263.937,-91.309,-38.086,-46.875,-93.262,49.805
1689255263.941,-96.191,-8.789,-34.180,-146.484,51.270
1689255263.945,-99.121,-53.711,0.000,-142.578,187.500
1689255263.949,-109.863,-20.508,-54.688,-91.309,193.359
1689255263.952,-172.363,-34.180,49.316,-104.004,80.078
1689255263.956,-180.176,-18.066,-25.391,-155.762,41.992
1689255263.960,-124.512,-7.812,-65.430,-113.281,226.562
1689255263.964,-56.152,-47.852,-19.043,-60.059,215.332
1689255263.968,-112.793,-10.254,-73.242,-94.238,84.961
1689255263.983,-179.688,0.000,-56.152,-111.328,106.934
1689255263.987,-131.348,-46.387,-13.184,-88.379,115.723
1689255263.991,-106.934,-49.805,-8.301,-143.555,83.496
1689255263.995,-151.855,-43.457,-45.898,-180.176,36.133
1689255263.999,-214.844,-12.207,-40.527,-200.195,98.145
1689255264.003,-150.879,-14.160,-83.496,-101.562,416.504
1689255264.007,-92.285,-59.570,-57.129,-71.777,396.484
1689255264.010,-89.844,-18.555,-53.711,-108.887,83.496
1689255264.014,-80.078,8.789,-66.406,-130.371,45.898
1689255264.018,-130.859,-19.043,-36.621,-136.230,137.207
1689255264.022,-156.738,-44.434,-35.156,-84.473,70.801
1689255264.026,-126.465,-47.363,-55.176,-75.195,60.547
1689255264.027,-101.562,-37.598,-54.199,-105.469,113.770
1689255264.031,-79.102,-46.875,-35.156,-175.781,80.078
1689255264.035,-95.215,-42.480,-47.363,-130.859,50.781
1689255264.039,-105.469,-44.922,-87.891,-57.129,153.320
1689255264.043,-179.199,-49.316,-26.855,-155.273,235.352
1689255264.047,-111.816,-56.641,-48.340,-155.273,226.074
1689255264.051,-62.500,-24.902,-90.820,-144.043,163.574
1689255264.054,-140.625,8.789,-75.195,-184.570,-9.766
1689255264.058,-200.684,-69.336,12.695,-142.578,278.809
1689255264.062,-176.758,-95.215,-40.039,-113.770,410.156
1689255264.066,-109.375,-41.504,-113.770,-134.277,80.566
1689255264.070,-50.293,-31.738,-93.750,-117.188,42.969
1689255264.072,-11.719,-62.988,-69.336,-63.965,87.402
1689255264.076,-100.098,-70.801,-2.441,-85.938,87.402
1689255264.080,-168.945,-63.965,-23.926,-121.094,55.664
1689255264.084,-150.879,16.113,-94.238,-142.090,102.051
1689255264.088,-68.848,-30.273,-81.055,-89.355,197.266
1689255264.092,-91.797,-63.477,-68.848,-92.285,160.156
1689255264.096,-120.117,-37.598,-77.637,-85.449,208.008
1689255264.099,-82.520,-58.105,-47.363,-43.945,227.539
1689255264.103,-120.117,-39.551,-41.016,-88.867,375.000
1689255264.107,-173.340,-12.207,-65.430,-190.918,228.027
1689255264.111,-148.438,-35.645,-41.992,-194.824,10.254
1689255264.115,-134.766,-70.312,-64.941,-51.758,47.363
1689255264.118,-144.043,-77.637,-36.621,-47.363,68.848
1689255264.122,-144.043,-50.293,13.184,-119.141,22.461
1689255264.126,-102.051,-39.062,-61.035,-110.352,-23.438
1689255264.130,-66.895,-41.504,-52.734,-129.395,121.094
1689255264.134,-120.605,-25.879,-14.648,-118.652,135.254
1689255264.138,-137.207,-34.668,-49.316,-49.316,90.332
1689255264.142,-122.559,-31.738,-64.941,-100.098,124.512
1689255264.145,-87.891,3.906,-55.176,-128.418,283.203
1689255264.149,-14.160,6.348,-53.711,-98.633,311.035
1689255264.153,-48.828,-50.781,-44.922,-122.070,58.105
1689255264.157,-119.629,-58.594,-27.832,-107.910,30.762
1689255264.161,-70.312,-30.762,-55.176,-93.750,197.266
1689255264.162,-84.961,-54.688,-12.207,-159.180,67.383
1689255264.166,-104.492,-36.621,-38.086,-161.133,-71.289
1689255264.170,-99.609,17.090,-103.027,-104.004,109.375
1689255264.174,-133.301,14.160,-77.637,-26.367,281.250
1689255264.178,-86.426,-45.410,-58.105,-27.832,185.547
1689255264.182,-63.965,-45.410,-58.105,-90.332,107.422
1689255264.186,-116.211,-50.781,10.254,-183.105,203.125
1689255264.189,-104.492,-58.105,-7.324,-152.344,392.090
1689255264.193,-106.445,-41.992,-48.340,-53.711,226.562
1689255264.197,-146.484,-31.250,0.000,-106.934,30.273
1689255264.201,-130.371,8.301,-64.941,-136.230,138.184
1689255264.205,-90.820,-32.227,-98.633,-128.906,139.648
1689255264.209,-68.359,-83.008,-70.312,-76.660,-18.555
1689255264.213,-62.500,-72.754,-35.645,-43.457,39.062
1689255264.217,-130.371,-52.734,4.395,-131.836,169.434
1689255264.221,-136.719,-47.363,-34.180,-151.855,82.520
1689255264.225,-54.688,-62.012,-50.781,-144.043,1.465
1689255264.229,-59.082,-38.574,-53.223,-146.973,95.703
1689255264.233,-175.293,-8.789,-45.410,-167.480,300.781
1689255264.236,-134.766,-40.527,-16.602,-132.812,303.223
1689255264.240,-104.980,-59.570,-47.852,-125.488,83.496
1689255264.244,-116.699,-11.719,-77.637,-170.410,54.199
1689255264.248,-40.039,-44.922,-61.523,-145.996,110.840
1689255264.252,-91.309,-94.727,-34.180,-113.770,78.613
1689255264.253,-155.273,-88.379,-15.625,-161.133,70.801
1689255264.257,-119.141,-95.703,38.574,-166.504,152.832
1689255264.261,-12.207,-40.039,-68.848,-125.488,188.477
1689255264.265,-42.969,0.977,-120.605,-115.723,131.348
1689255264.269,-158.691,-42.480,-22.949,-134.277,42.480
1689255264.273,-138.672,-72.754,-35.645,-139.160,104.004
1689255264.277,-81.543,-77.637,-24.414,-78.125,483.887
1689255264.280,-71.289,-68.848,-20.996,-106.445,342.285
1689255264.284,-51.758,-32.715,-43.457,-156.250,-55.664
1689255264.288,-74.219,-57.617,-44.434,-102.051,-59.570
1689255264.292,-94.238,-71.777,-72.754,-26.367,-9.766
1689255264.296,-115.723,-46.387,-65.430,-58.594,-4.883
1689255264.299,-125.000,-97.656,40.527,-156.738,11.230
1689255264.303,-80.566,-75.684,-19.531,-141.113,87.402
1689255264.307,-53.711,-25.879,-123.535,-46.387,113.770
1689255264.311,-75.195,-28.809,-73.242,-12.207,109.863
1689255264.315,-124.512,-42.969,-30.273,-75.684,64.453
1689255264.319,-68.848,-19.043,-69.824,-50.781,278.809
1689255264.323,-30.273,1.465,-38.574,-75.684,418.457
1689255264.326,-78.125,-63.965,-43.945,-136.719,122.559
1689255264.330,-103.516,-62.500,-101.074,-70.312,69.336
1689255264.334,-92.773,-64.453,-52.734,-51.270,223.633
1689255264.338,-126.465,-62.500,-16.602,-155.762,114.746
1689255264.342,-108.887,-31.738,-9.277,-139.160,40.527
1689255264.357,-53.711,-72.266,-10.254,-75.195,96.680
1689255264.361,-131.348,-104.492,15.625,-104.004,127.441
1689255264.365,-124.512,-15.137,-95.215,-65.430,161.621
1689255264.369,-37.109,-1.465,-83.008,-56.641,116.699
1689255264.373,-18.555,-47.363,-53.711,-92.773,50.293
1689255264.377,-70.801,-48.340,-57.129,-98.145,422.852
1689255264.381,-96.680,-58.105,-11.230,-55.664,485.840
1689255264.384,-111.816,-42.480,-40.527,-57.129,191.406
1689255264.388,-101.074,-60.547,-5.859,-96.191,133.789
1689255264.392,-3.418,-39.062,-58.594,-61.523,360.352
1689255264.396,-45.410,-4.395,-100.098,-114.746,199.219
1689255264.400,-131.836,-27.832,-24.902,-158.691,-2.930
1689255264.402,-142.090,-39.062,17.578,-127.930,58.105
1689255264.406,-106.934,-16.113,-42.969,-116.699,22.949
1689255264.410,-92.773,-20.508,-89.844,-145.020,18.555
1689255264.414,-80.566,-38.086,-49.316,-127.441,104.492
1689255264.418,-134.277,-16.113,-23.926,-84.473,120.117
1689255264.422,-165.527,-33.203,-37.109,-62.988,157.227
1689255264.426,-137.207,-36.133,-52.246,-45.898,172.363
1689255264.429,-145.020,-35.645,10.742,-95.215,66.895
1689255264.433,-116.699,-61.035,13.672,-86.426,261.230
1689255264.437,-108.398,-37.598,-35.645,-29.297,340.332
1689255264.441,-131.836,-15.625,-25.879,-66.406,72.754
1689255264.445,-116.699,-33.691,-45.410,-83.496,44.434
1689255264.447,-122.070,-27.832,-25.879,-128.418,69.336
1689255264.451,-133.789,17.090,-64.941,-146.484,78.125
1689255264.455,-107.422,-40.039,-6.836,-59.570,37.598
1689255264.459,-103.516,-42.480,-28.809,-13.184,91.797
1689255264.463,-149.414,-31.738,-50.781,-49.805,230.469
1689255264.467,-175.293,-38.086,-17.578,-156.250,179.199
1689255264.471,-114.258,-33.691,-57.617,-103.027,149.414
1689255264.474,-92.285,-59.570,-54.199,-37.109,220.215
1689255264.478,-145.996,-55.176,-31.250,-104.004,355.957
1689255264.482,-138.184,-33.691,-67.871,-93.750,115.723
1689255264.486,-91.797,-30.762,-24.414,-104.980,-8.301
1689255264.490,-78.125,-25.879,-27.344,-139.160,126.953
1689255264.493,-144.043,-40.039,-13.184,-147.461,102.539
1689255264.497,-146.973,-78.125,4.883,-142.578,63.965
1689255264.501,-101.074,-25.879,-57.617,-143.555,43.945
1689255264.505,-80.078,33.203,-103.516,-147.949,97.168
1689255264.509,-72.266,-55.664,-72.266,-133.789,109.375
1689255264.513,-75.684,-84.473,-74.219,-96.680,103.027
1689255264.517,-138.184,-21.973,-73.730,-124.023,137.695
1689255264.520,-152.832,-38.574,-42.480,-125.000,307.617
1689255264.524,-48.340,-58.594,-55.664,-109.375,254.883
1689255264.528,-70.801,-47.852,-48.828,-145.996,-0.488
1689255264.532,-145.508,-62.012,-53.711,-147.461,74.707
1689255264.536,-145.996,-56.641,-68.848,-104.980,125.488
1689255264.538,-105.957,-73.730,-44.922,-95.215,112.305
1689255264.542,-135.742,-80.566,7.812,-203.125,52.246
1689255264.546,-63.477,-73.730,-54.688,-181.641,63.965
1689255264.550,-88.379,-95.215,-42.969,-150.391,235.840
1689255264.554,-96.680,-73.730,-83.008,-110.352,162.109
1689255264.558,-58.105,-57.617,-96.191,-52.246,108.398
1689255264.562,-135.742,-94.727,11.230,-157.227,167.969
1689255264.565,-84.473,-67.871,-38.086,-189.941,363.770
1689255264.569,-66.406,-14.648,-96.191,-119.629,235.352
1689255264.573,-145.020,-58.105,18.555,-168.945,25.879
1689255264.577,-169.434,-49.316,-40.039,-186.035,86.914
1689255264.581,-80.566,-56.152,-88.379,-64.453,75.195
1689255264.585,-51.270,-64.453,-17.090,-112.793,-38.086
1689255264.589,-143.555,-39.551,-60.547,-176.270,-97.656
1689255264.593,-121.582,-52.246,-86.914,-110.352,41.992
1689255264.597,-87.402,-84.473,-64.941,-64.453,89.844
1689255264.601,-77.148,-50.781,-36.621,-96.191,8.789
1689255264.605,-62.012,-24.902,-38.086,-149.414,59.082
1689255264.609,-62.988,-71.289,-55.176,-100.586,367.676
1689255264.612,-112.793,-86.426,-9.766,-70.801,435.547
1689255264.616,-130.371,-53.223,-23.926,-91.309,78.613
1689255264.620,-94.727,-33.691,-46.875,-104.492,-6.348
1689255264.624,-92.285,-33.203,-10.742,-146.973,36.621
1689255264.628,-83.496,-1.953,-65.430,-169.922,-23.926
1689255264.627,-109.863,-48.828,-49.316,-172.852,-17.578
1689255264.631,-133.301,-62.012,-82.031,-104.492,34.180
1689255264.635,-86.914,-49.316,-73.242,-36.133,100.586
1689255264.639,-142.090,-71.289,-5.371,-157.715,113.770
1689255264.643,-103.516,-50.781,-52.246,-152.832,59.082
1689255264.647,-61.523,-39.062,-56.152,-60.059,114.258
1689255264.651,-128.906,-54.199,-32.715,-79.102,537.109
1689255264.654,-132.324,-61.523,-50.781,-123.535,556.152
1689255264.658,-140.625,-45.410,-45.410,-182.129,123.047
1689255264.662,-104.492,-42.969,-57.129,-110.352,92.773
1689255264.666,-87.402,-62.500,-40.039,-92.773,145.508
1689255264.670,-119.629,-55.176,-31.250,-104.980,72.754
1689255264.674,-132.812,-54.199,-30.273,-74.219,31.250
1689255264.678,-135.742,-36.133,-66.406,-126.465,112.793
1689255264.682,-76.660,-83.984,-42.969,-141.113,129.395
1689255264.686,-133.301,-103.516,76.660,-187.500,89.355
1689255264.690,-178.223,-22.461,-29.297,-131.348,151.367
1689255264.694,-126.465,-47.363,-101.074,-65.918,271.973
1689255264.698,-128.906,-80.566,-32.227,-116.699,260.254
1689255264.701,-131.348,-10.254,-25.879,-163.574,132.324
1689255264.705,-131.348,4.395,-68.848,-122.070,73.730
1689255264.709,-141.602,-62.988,-59.570,-43.945,278.809
1689255264.713,-145.996,-73.242,-27.832,-99.609,341.797
1689255264.717,-143.555,-42.969,-50.293,-158.691,112.793
1689255264.732,-126.465,20.996,-94.238,-142.090,54.688
1689255264.736,-116.211,-35.156,-31.738,-122.070,3.906
1689255264.740,-143.066,-66.406,16.113,-110.352,53.711
1689255264.744,-124.512,-63.477,-49.316,-84.961,140.137
1689255264.748,-114.258,-85.938,-24.902,-142.578,139.648
1689255264.752,-92.773,-53.223,-28.809,-135.254,382.324
1689255264.756,-110.840,-4.395,-53.711,-83.984,283.203
1689255264.759,-150.391,-30.762,-58.105,-67.871,79.102
1689255264.763,-180.176,-73.730,14.160,-90.332,55.176
1689255264.767,-150.391,-59.570,-18.555,-122.070,178.711
1689255264.771,-111.816,-57.617,-76.660,-160.645,125.488
1689255264.775,-72.754,-35.645,-39.551,-114.258,-26.855
1689255264.777,-101.562,-38.086,-48.828,-73.730,102.539
1689255264.781,-213.867,-27.832,-2.930,-143.066,105.957
1689255264.785,-199.707,24.414,-21.484,-160.645,-25.879
1689255264.789,-86.914,-73.730,-32.227,-135.742,-30.273
1689255264.793,-84.473,-75.684,-31.738,-123.535,43.945
1689255264.797,-130.859,0.000,-62.500,-89.355,195.801
1689255264.801,-123.535,-47.852,-69.824,-47.852,217.285
1689255264.804,-112.793,-29.297,-82.031,-57.129,87.891
1689255264.808,-110.840,-40.039,-16.602,-146.484,209.961
1689255264.812,-114.258,-75.195,-12.695,-208.008,235.840
1689255264.816,-76.660,-43.457,-48.828,-108.398,70.312
1689255264.820,-106.445,-18.066,-19.531,-85.449,89.355
1689255264.822,-200.684,11.719,6.836,-203.613,107.910
1689255264.826,-62.988,-13.672,-104.492,-156.738,28.320
1689255264.830,68.359,-33.203,-122.070,-59.082,0.488
1689255264.834,-23.926,-66.406,-49.316,-62.988,93.750
1689255264.838,-84.473,-60.059,-50.781,-57.129,320.312
1689255264.842,-119.629,-31.738,-37.598,-81.543,232.422
1689255264.846,-50.293,-46.387,-30.762,-94.727,71.777
1689255264.849,-40.039,-30.762,-31.738,-105.957,139.648
1689255264.853,-167.480,1.465,-8.789,-136.230,392.578
1689255264.857,-113.281,-48.340,-31.250,-90.820,195.801
1689255264.861,-46.875,-44.922,-62.012,-26.367,27.344
1689255264.865,-74.219,0.977,-97.656,-59.082,153.809
1689255264.870,-90.332,-47.852,-68.848,-105.469,99.609
1689255264.874,-113.770,-69.824,-18.066,-96.191,23.926
1689255264.878,-83.008,-20.508,-97.656,-35.156,82.031
1689255264.882,-86.426,17.578,-83.496,-58.105,218.262
1689255264.886,-72.754,-17.090,-51.758,-97.168,181.641
1689255264.890,-35.645,-41.016,-60.059,-80.078,97.168
1689255264.894,-80.078,-22.461,-38.574,-93.750,99.609
1689255264.897,-160.645,0.488,-48.828,-62.500,307.617
1689255264.901,-95.215,-42.969,-32.227,-28.320,301.758
1689255264.905,-40.527,1.465,-108.887,-88.867,9.277
1689255264.909,-66.406,10.254,-113.770,-165.039,12.207
1689255264.913,-57.617,-46.387,-26.367,-90.820,174.805
1689255264.912,-75.195,-37.109,-51.270,-14.648,137.695
1689255264.916,-155.762,-18.555,-97.656,-29.785,-13.672
1689255264.920,-161.621,-45.898,-90.820,-106.934,32.715
1689255264.924,-21.484,-84.473,-33.203,-124.512,140.625
1689255264.928,-4.883,-64.453,-18.555,-91.309,126.953
1689255264.932,-89.355,-42.480,-68.848,-72.754,127.930
1689255264.936,-83.496,-65.918,-5.371,-77.148,201.660
1689255264.939,-85.938,-28.320,-47.852,-108.398,433.594
1689255264.943,-88.867,36.621,-105.469,-116.211,368.652
1689255264.947,-62.012,-24.902,-94.727,-111.816,60.059
1689255264.951,-131.348,-50.293,-63.965,-96.680,51.270
1689255264.955,-147.949,-64.941,1.465,-93.262,59.082
1689255264.959,-78.125,-65.430,-51.270,-77.637,6.348
1689255264.963,-98.145,-20.020,-57.129,-139.160,-19.043
1689255264.967,-92.285,-26.367,7.812,-153.320,32.227
1689255264.971,-47.852,-33.691,-53.223,-87.891,50.781
1689255264.975,-61.035,-37.598,-45.898,-59.570,31.738
1689255264.979,-128.418,-21.484,-46.875,-109.863,183.594
1689255264.983,-116.211,9.277,-73.242,-162.598,401.367
1689255264.986,-39.062,-53.223,-20.508,-110.352,363.770
1689255264.990,-84.961,-55.664,-42.480,-75.195,170.410
1689255264.994,-158.691,-61.523,-8.301,-125.977,137.695
1689255264.998,-166.992,-83.984,18.066,-122.559,184.570
1689255265.002,-78.613,-16.113,-83.008,-110.352,39.551
1689255265.003,-52.246,15.137,-117.188,-120.117,-1.953
1689255265.007,-65.430,-56.152,-66.406,-95.703,84.473
1689255265.011,-137.207,-51.758,20.996,-146.484,119.141
1689255265.015,-143.066,-44.922,-50.781,-122.559,145.508
1689255265.019,-81.543,-35.645,-120.605,-109.375,43.945
1689255265.023,-98.633,39.062,-53.711,-174.316,51.270
1689255265.027,-108.398,-84.473,18.066,-134.277,481.934
1689255265.030,-140.625,-80.566,-19.043,-105.957,401.367
1689255265.034,-137.207,2.441,-92.773,-123.047,-10.254
1689255265.038,-138.672,-59.082,-22.461,-191.895,4.883
1689255265.042,-141.602,-60.059,74.219,-229.980,78.613
1689255265.046,-73.730,-28.809,-64.453,-103.516,48.340
1689255265.049,-52.734,-14.160,-136.230,-19.531,61.035
1689255265.053,-113.281,-4.883,-83.008,-82.031,109.375
1689255265.057,-119.629,3.418,-85.449,-121.582,84.961
1689255265.061,-48.828,-27.832,-52.734,-77.148,-52.246
1689255265.065,-105.469,-44.434,1.953,-121.582,-24.902
1689255265.069,-154.785,-72.754,-40.039,-149.414,215.820
1689255265.073,-102.051,-55.176,-94.727,-111.328,274.902
1689255265.076,-94.727,-26.855,-60.547,-92.285,138.184
1689255265.080,-128.906,-25.391,-32.227,-141.113,83.008
1689255265.084,-143.555,-59.570,-40.527,-183.105,253.906
1689255265.088,-153.320,-77.637,-102.051,-148.926,250.977
1689255265.092,-137.695,-60.059,-70.312,-93.750,126.953
1689255265.107,-100.098,-56.641,-50.781,-79.590,133.301
1689255265.111,-102.539,-39.551,-96.680,-130.859,178.223
1689255265.115,-121.582,-22.949,-92.285,-177.246,116.699
1689255265.119,-161.133,-84.473,-6.836,-156.738,30.273
1689255265.123,-197.754,-102.051,7.812,-119.629,133.789
1689255265.127,-180.664,-3.418,-118.652,-138.672,399.414
1689255265.131,-126.953,-45.410,-97.656,-159.180,271.973
1689255265.134,-71.289,-87.402,-46.387,-140.625,41.016
1689255265.138,-117.188,-49.805,-87.402,-110.840,110.840
1689255265.142,-145.508,-58.594,-134.766,-70.801,266.113
1689255265.146,-156.738,-27.344,-95.215,-109.863,93.262
1689255265.150,-207.031,1.465,-49.316,-166.016,-14.648
1689255265.152,-121.582,-76.172,-54.199,-135.742,98.145
1689255265.156,-116.699,-102.051,-25.391,-99.609,175.293
1689255265.160,-170.898,-60.547,16.602,-113.281,212.402
1689255265.164,-151.367,-25.879,-86.426,-104.980,111.328
1689255265.168,-115.234,-58.594,-86.914,-122.559,180.664
1689255265.172,-118.652,-74.219,-11.230,-154.785,221.680
1689255265.176,-138.184,-56.641,-20.020,-121.094,158.691
1689255265.179,-133.789,-41.992,-82.520,-81.543,195.312
1689255265.183,-148.926,-38.574,-134.277,-95.703,359.375
1689255265.187,-165.527,-41.992,-87.891,-167.480,255.371
1689255265.191,-115.234,-32.715,-36.133,-128.418,-37.598
1689255265.195,-117.188,-54.688,-37.109,-37.598,19.531
1689255265.197,-205.566,-90.332,21.973,-97.656,117.676
1689255265.201,-138.672,-37.598,-43.945,-85.938,90.332
1689255265.205,-123.047,-28.809,-45.898,-96.191,6.348
1689255265.209,-115.723,-52.246,-65.918,-154.785,102.539
1689255265.213,-93.750,-13.672,-57.129,-121.094,366.211
1689255265.217,-120.117,-56.152,-4.395,-95.703,245.605
1689255265.221,-125.977,-43.457,-58.594,-90.332,40.527
1689255265.224,-153.809,-37.598,-52.734,-126.953,75.684
1689255265.228,-116.699,-45.410,-19.043,-149.414,303.711
1689255265.232,-111.816,-47.852,-45.410,-103.027,149.902
1689255265.236,-140.625,-35.156,-24.902,-90.332,-40.527
1689255265.240,-137.207,-53.223,20.996,-108.398,29.297
1689255265.243,-97.168,-42.969,-54.688,-100.098,72.266
1689255265.247,-66.895,-36.621,-12.695,-114.746,37.598
1689255265.251,-105.957,-49.805,47.363,-124.023,21.484
1689255265.255,-116.699,7.324,-57.129,-73.730,157.227
1689255265.259,-147.949,26.367,-38.574,-107.422,187.500
1689255265.263,-117.188,-57.617,-25.391,-110.352,90.820
1689255265.267,-90.820,-65.918,-38.574,-90.332,119.141
1689255265.270,-121.582,-20.996,-17.090,-99.609,324.219
1689255265.274,-145.996,-42.969,-20.996,-108.887,469.238
1689255265.278,-96.191,-44.434,-48.340,-75.195,116.699
1689255265.282,-93.262,-29.785,-19.531,-89.844,-13.184
1689255265.286,-94.238,-61.523,31.250,-159.668,70.801
1689255265.287,-49.316,-60.059,10.254,-135.742,-1.953
1689255265.291,-85.449,-41.504,-8.301,-92.285,29.297
1689255265.295,-155.762,11.230,-64.941,-115.723,93.750
1689255265.299,-83.984,42.480,-133.301,-73.730,194.824
1689255265.303,-15.625,-89.844,14.648,-62.500,163.574
1689255265.307,-18.555,-94.727,18.066,-107.422,151.367
1689255265.311,-50.293,-36.621,-69.824,-85.449,264.648
1689255265.314,-90.332,-56.152,-60.547,-64.941,414.062
1689255265.318,-158.203,-35.156,-43.457,-154.297,257.324
1689255265.322,-56.152,-40.527,-51.758,-125.488,88.379
1689255265.326,-15.625,-41.992,-50.293,-76.172,160.156
1689255265.330,-118.164,-54.688,12.207,-126.953,164.062
1689255265.334,-71.289,-32.715,-40.039,-37.598,32.715
1689255265.338,-52.246,-35.645,-44.434,-41.504,-2.441
1689255265.342,-70.801,-44.922,-23.926,-114.746,68.359
1689255265.346,-64.941,-27.344,8.301,-157.715,75.195
1689255265.350,-80.566,-46.875,9.766,-151.367,43.457
1689255265.354,-54.688,-53.223,-55.176,-68.848,182.617
1689255265.358,-70.801,1.465,-113.281,-57.617,356.445
1689255265.361,-58.594,20.020,-107.422,-90.332,261.230
1689255265.365,1.465,-46.387,-17.090,-113.281,22.461
1689255265.369,-43.945,-57.617,-39.551,-81.055,28.809
1689255265.373,-83.496,-45.410,-3.418,-59.570,153.809
1689255265.377,-78.613,-41.992,39.062,-83.984,137.695
1689255265.378,-22.949,-38.574,-55.176,-69.824,90.820
1689255265.382,-3.418,-38.086,-62.012,-110.352,88.867
1689255265.386,-37.598,-43.945,-58.594,-65.430,220.215
1689255265.390,-62.500,-34.180,-21.973,-73.242,237.793
1689255265.394,-75.684,15.625,-23.926,-120.117,115.723
1689255265.398,-19.531,-27.344,-60.059,-92.773,156.738
1689255265.402,17.578,-33.203,-62.500,-68.848,408.203
1689255265.405,-28.809,-40.527,-40.527,-96.191,306.641
1689255265.409,-94.238,-24.902,-66.406,-115.723,41.992
1689255265.413,-64.453,-31.738,-63.477,-56.641,33.691
1689255265.417,-3.418,-55.176,-11.719,-51.758,-43.945
1689255265.421,-17.090,-11.230,-26.367,-101.074,-106.445
1689255265.425,-65.918,-35.156,-25.391,-124.023,-56.152
1689255265.429,-93.262,-60.059,15.625,-122.559,62.500
1689255265.433,-61.523,-40.527,-47.363,-39.551,87.402
1689255265.437,-95.703,2.930,-50.293,-98.633,-2.441
1689255265.441,-113.281,4.395,-38.086,-115.723,10.254
1689255265.445,-35.156,-65.918,-33.691,-18.555,224.121
1689255265.449,-56.641,-58.594,-2.441,-38.574,281.738
1689255265.452,-110.352,5.371,-55.664,-62.500,113.281
1689255265.456,-120.117,34.668,-57.129,-104.492,78.613
1689255265.460,-47.852,-42.480,-51.758,-87.891,235.840
1689255265.464,-46.875,-57.617,-40.039,-74.707,122.559
1689255265.468,-93.750,-39.062,-20.020,-51.758,-62.500
1689255265.482,-123.535,-27.832,-34.668,-38.574,6.836
1689255265.486,-97.656,1.953,-49.805,-36.133,39.551
1689255265.490,-55.664,-18.555,-37.109,-67.871,2.441
1689255265.494,-67.383,-38.574,-20.508,-91.309,94.238
1689255265.498,-128.418,-33.203,25.391,-125.977,244.141
1689255265.502,-133.789,-13.184,-18.066,-126.465,457.031
1689255265.506,-71.289,-28.809,-36.133,-60.059,427.734
1689255265.509,-61.523,-31.250,-8.301,-119.141,146.484
1689255265.513,-18.555,-11.230,-81.055,-112.793,20.508
1689255265.517,-73.242,-20.508,-53.223,-85.938,65.430
1689255265.521,-97.168,-31.250,-49.316,-35.645,76.660
1689255265.525,-97.168,-36.133,-32.715,-50.293,38.574
1689255265.527,-128.418,-35.156,-27.832,-148.926,80.566
1689255265.531,-84.961,-30.273,-91.797,-131.348,92.773
1689255265.535,-103.516,-29.297,-68.359,-57.129,67.871
1689255265.539,-128.418,-10.742,-53.711,-36.621,132.812
1689255265.543,-118.164,-45.898,-52.734,-29.785,195.312
1689255265.547,-139.160,-51.758,13.672,-83.008,217.285
1689255265.551,-103.027,-17.090,-41.992,-131.348,165.039
1689255265.554,-99.121,-24.902,-75.195,-101.562,93.262
1689255265.558,-143.066,-40.039,-68.359,-52.734,273.926
1689255265.562,-149.902,-33.203,-81.543,-57.129,428.711
1689255265.566,-113.770,-53.711,54.688,-109.375,154.297
1689255265.570,-39.062,-37.598,-34.668,-60.547,41.016
1689255265.572,-54.199,-1.953,-113.770,-36.621,158.203
1689255265.576,-118.652,-5.859,-27.344,-61.035,120.605
1689255265.580,-100.098,-36.621,-70.312,-50.293,66.895
