timestamps,TP9,AF7,AF8,TP10,Right AUX
1678021447.396,-102.051,-31.738,-2.441,-80.566,-58.105
1678021447.400,-82.520,-46.387,-7.324,-59.570,6.836
1678021447.404,-75.195,-45.898,-13.672,-70.801,-234.863
1678021447.408,-61.523,-47.363,-15.137,-58.105,-283.203
1678021447.412,-47.363,-59.570,-15.625,-36.621,-257.324
1678021447.416,-41.992,-71.289,-21.973,-29.785,-181.641
1678021447.420,-37.109,-64.453,-39.551,-17.090,-167.969
1678021447.423,-28.320,-54.199,-46.875,-6.836,-118.164
1678021447.427,-12.695,-59.570,-48.340,-2.930,139.160
1678021447.431,5.371,-80.078,-55.664,14.648,-67.383
1678021447.435,17.090,-86.426,-62.500,37.109,-200.684
1678021447.439,46.875,-63.477,-70.312,48.340,-19.531
1678021521.137,-20.508,-43.945,-41.504,-37.598,-83.984
1678021521.141,-34.180,-44.922,-36.621,-33.691,69.336
1678021521.145,-46.387,-49.316,-26.855,-55.664,-34.180
1678021521.149,-53.711,-46.875,-28.320,-93.750,-342.773
1678021521.153,-44.434,-36.133,-28.809,-48.340,-132.324
1678021521.157,-11.719,-33.203,-18.555,-9.277,204.102
1678021521.161,-4.395,-37.109,-21.484,-30.762,148.926
1678021521.164,-33.203,-43.457,-29.785,-66.895,-147.949
1678021521.168,-59.570,-36.133,-30.762,-84.961,-285.156
1678021521.172,-27.344,-32.227,-32.227,-39.551,75.684
1678021521.176,-27.832,-41.016,-34.180,-29.785,106.934
1678021521.180,-34.668,-43.457,-31.738,-47.363,-32.227
1678021521.181,-42.480,-40.039,-31.250,-64.941,-4.883
1678021521.185,-59.082,-34.668,-33.691,-80.566,-109.375
1678021521.189,-48.340,-54.199,-36.133,-61.035,-166.016
1678021521.193,-33.203,-58.105,-32.715,-40.039,-33.203
1678021521.197,-27.832,-34.668,-30.273,-45.410,96.191
1678021521.201,-35.645,-17.090,-28.320,-65.918,105.469
1678021521.205,-44.922,-5.859,-21.484,-84.473,-62.012
1678021521.208,-38.574,-13.672,-23.438,-75.195,-182.617
1678021521.212,-27.832,-12.695,-20.508,-37.598,58.105
1678021521.216,-59.082,-11.719,-19.531,-30.273,304.688
1678021521.220,-77.148,-16.113,-16.113,-75.195,-50.293
1678021521.224,-85.449,-7.812,-6.836,-144.531,-304.199
1678021521.251,-91.797,5.371,9.277,-113.770,-18.066
1678021521.255,-76.660,19.531,21.484,-62.988,148.926
1678021521.259,-69.336,46.875,6.836,-95.703,72.266
1678021521.263,-125.977,67.871,6.348,-161.621,-17.090
1678021521.267,-194.336,77.637,36.133,-227.539,-97.656
1678021521.271,-230.957,79.102,63.965,-248.047,-102.051
1678021521.275,-229.980,87.402,71.777,-239.746,-14.160
1678021521.278,-264.648,76.172,51.758,-289.062,50.781
1678021521.282,-311.035,73.242,43.457,-341.309,250.488
1678021521.286,-327.148,83.008,46.875,-384.766,2.441
1678021521.290,-323.730,78.613,57.617,-373.535,-270.996
1678021521.294,-315.918,89.844,64.941,-316.895,-51.758
1678021521.272,-315.918,93.750,57.129,-329.102,50.293
1678021521.276,-290.039,70.312,53.223,-353.516,-61.035
1678021521.280,-305.176,63.477,50.781,-380.371,-252.441
1678021521.284,-315.430,102.539,44.434,-391.602,-277.832
1678021521.288,-288.574,126.465,30.273,-332.520,1.953
1678021521.292,-270.508,112.305,38.574,-303.223,212.402
1678021521.296,-270.996,87.891,52.246,-312.012,59.570
1678021521.299,-268.066,85.938,38.574,-321.777,-150.879
1678021521.303,-262.695,83.496,26.367,-334.473,74.707
1678021521.307,-245.117,62.500,23.926,-296.875,79.102
1678021521.311,-211.914,52.246,29.297,-255.859,0.977
1678021521.315,-218.262,42.480,27.344,-272.461,23.438
1678021521.317,-228.516,42.969,14.160,-312.500,-110.352
1678021521.321,-219.727,55.176,8.301,-329.102,-273.926
1678021521.325,-205.566,50.781,-7.324,-274.902,-172.363
1678021521.329,-175.781,38.086,-5.371,-219.727,125.488
1678021521.333,-149.414,14.160,8.301,-211.914,133.789
1678021521.337,-172.852,-3.906,5.859,-242.188,-28.809
1678021521.341,-158.203,15.625,-2.930,-246.094,-136.719
1678021521.344,-115.723,-1.465,-15.625,-159.180,191.406
1678021521.348,-113.281,-12.695,-22.949,-132.812,385.254
1678021521.352,-113.770,-26.855,-20.996,-146.973,25.879
1678021521.356,-120.605,-28.809,-22.461,-153.320,-158.203
1678021521.360,-110.352,-13.672,-30.762,-169.922,-250.977
1678021521.361,-61.523,-40.039,-39.062,-89.844,-265.625
1678021521.365,-44.434,-61.523,-34.668,-34.668,-86.914
1678021521.369,-42.969,-48.340,-34.668,-52.246,43.457
1678021521.373,-11.230,-75.195,-41.504,-72.754,-10.254
1678021521.377,-6.348,-82.031,-45.898,-76.172,-205.566
1678021521.381,-6.836,-59.082,-57.129,-20.020,-182.617
1678021521.385,19.531,-89.355,-60.059,34.180,56.641
1678021521.388,36.621,-124.023,-58.594,38.086,279.785
1678021521.392,39.062,-106.934,-58.105,2.441,23.926
1678021521.396,47.363,-92.773,-62.500,-10.254,-198.242
1678021521.400,49.805,-94.727,-65.430,36.621,-104.004
1678021521.404,60.059,-92.285,-70.312,69.336,40.527
1678021521.406,62.012,-98.633,-77.637,71.289,65.430
1678021521.410,88.867,-108.398,-79.102,68.848,-41.992
1678021521.414,87.891,-116.699,-76.660,34.668,-119.141
1678021521.418,63.477,-123.535,-76.172,49.805,-166.992
1678021521.422,71.777,-122.559,-75.195,96.680,-79.102
1678021521.426,77.637,-113.770,-74.707,114.746,150.879
1678021521.430,98.633,-110.352,-74.219,102.539,295.898
1678021521.433,91.797,-106.445,-77.637,50.293,-56.152
1678021521.437,74.707,-106.934,-82.031,54.688,-356.934
1678021521.441,103.027,-107.422,-87.891,104.980,-129.395
1678021521.445,105.469,-105.957,-85.449,107.422,65.430
1678021521.449,99.121,-126.465,-80.566,82.520,-16.602
1678021522.275,88.379,-119.629,-81.055,51.758,-225.586
1678021522.279,72.754,-84.473,-83.008,42.480,-241.699
1678021522.283,80.078,-79.102,-82.520,82.031,16.602
1678021522.287,76.172,-97.168,-77.148,79.590,42.969
1678021522.291,71.289,-99.609,-77.637,56.641,-81.055
1678021522.295,57.617,-90.332,-83.008,31.738,9.766
1678021522.299,64.453,-91.797,-82.520,16.113,72.266
1678021522.302,87.402,-97.168,-77.148,49.805,-60.547
1678021522.306,51.270,-88.379,-76.172,64.941,-24.902
1678021522.310,39.062,-95.215,-72.266,55.176,95.215
1678021522.314,34.668,-110.840,-70.312,18.555,-24.902
1678021522.318,18.066,-89.844,-69.336,4.395,-269.531
1678021522.276,33.203,-79.590,-63.477,39.551,-166.016
1678021522.280,43.945,-83.496,-58.105,56.641,230.957
1678021522.284,44.434,-83.008,-57.129,41.504,288.086
1678021522.288,41.504,-83.496,-56.641,5.859,-118.652
1678021522.292,10.742,-86.914,-59.570,-10.254,-333.496
1678021522.296,4.883,-81.055,-62.988,14.160,27.832
1678021522.300,14.160,-68.359,-58.105,29.785,209.473
1678021522.303,15.625,-70.801,-59.082,7.324,-24.414
1678021522.307,16.602,-78.613,-59.082,-17.090,-148.926
1678021522.311,-5.859,-63.965,-57.617,-35.645,-44.922
1678021522.315,-9.277,-60.547,-56.152,-5.859,-84.961
1678021522.319,7.324,-81.543,-57.617,12.207,-64.941
1678021522.283,-0.488,-70.801,-57.617,-4.883,61.035
1678021522.287,-17.090,-47.363,-54.199,-14.648,-2.930
1678021522.291,-27.344,-57.617,-49.316,-53.223,-216.797
1678021522.295,-21.484,-61.035,-47.852,-47.852,-193.848
1678021522.299,-16.602,-47.363,-50.781,-14.160,125.977
1678021522.303,-15.625,-53.223,-53.711,-9.277,223.633
1678021522.307,-12.695,-64.453,-52.734,-18.555,13.184
1678021522.310,-17.090,-62.988,-45.898,-55.176,-277.344
1678021522.314,-13.672,-50.293,-47.852,-44.434,-157.715
1678021522.318,0.977,-41.504,-55.664,0.488,231.934
1678021522.322,14.160,-43.457,-50.293,0.977,26.367
1678021522.326,-30.762,-58.105,-41.016,-44.434,-132.324
1678021522.287,-52.734,-62.500,-33.691,-91.309,-39.551
1678021522.291,-22.949,-50.293,-29.785,-54.199,-112.793
1678021522.295,-5.859,-47.852,-33.691,0.000,-81.055
1678021522.299,2.441,-46.387,-32.715,-4.883,53.223
1678021522.303,-2.441,-44.434,-38.086,-33.691,109.375
1678021522.307,-27.832,-50.293,-44.922,-70.801,-21.484
1678021522.311,-27.344,-54.199,-43.457,-58.105,-94.238
1678021522.314,0.488,-47.363,-41.504,-10.254,48.340
1678021522.318,-13.672,-51.758,-40.039,2.441,299.316
1678021522.322,-28.809,-51.270,-39.062,-15.137,244.141
1678021522.326,-27.344,-50.781,-42.480,-76.172,-201.172
1678021522.330,-30.762,-52.734,-39.062,-78.125,-313.965
1678021522.364,-36.133,-52.246,-33.691,-14.160,-135.254
1678021522.368,-36.621,-52.734,-34.180,-20.020,-20.996
1678021522.372,-24.902,-51.758,-32.715,-39.551,22.949
1678021522.376,-35.156,-55.664,-30.762,-68.848,-93.262
1678021522.380,-40.527,-59.082,-27.832,-79.102,-282.715
1678021522.384,-35.156,-44.434,-29.297,-42.969,-132.324
1678021522.388,-37.598,-39.062,-36.133,-22.461,91.309
1678021522.391,-25.391,-38.574,-34.668,-27.832,115.234
1678021522.395,-27.832,-39.551,-34.668,-50.781,-10.742
1678021522.399,-56.641,-44.434,-28.809,-70.801,-264.648
1678021522.403,-52.734,-33.691,-29.785,-41.504,-223.633
1678021522.407,-35.645,-34.668,-35.156,-17.578,114.258
1678021522.368,-37.598,-39.062,-31.738,-19.043,478.027
1678021522.372,-52.734,-44.922,-30.273,-48.340,119.629
1678021522.376,-51.270,-53.223,-27.832,-72.266,-305.664
1678021522.380,-38.086,-54.688,-31.738,-44.434,-159.668
1678021522.384,-39.551,-44.922,-37.598,-29.297,-21.484
1678021522.388,-42.480,-51.270,-30.762,-27.832,6.836
1678021522.392,-40.039,-49.805,-24.414,-46.875,26.855
1678021522.395,-45.898,-37.598,-26.367,-84.961,53.711
1678021522.399,-62.500,-40.527,-24.414,-62.988,-32.715
1678021522.403,-49.805,-38.086,-21.973,-36.133,-101.562
1678021522.407,-40.527,-38.086,-25.879,-37.109,-19.531
1678021522.411,-60.547,-54.199,-31.738,-49.805,-26.855
1678021522.372,-65.430,-54.688,-30.762,-71.777,-244.141
1678021522.376,-62.500,-47.363,-28.320,-58.105,-265.137
1678021522.380,-57.617,-51.758,-29.785,-38.574,-25.391
1678021522.384,-47.363,-59.082,-30.273,-31.738,92.773
1678021522.388,-50.781,-54.199,-30.762,-55.176,-63.965
1678021522.392,-76.660,-48.828,-33.203,-104.492,-220.215
1678021522.396,-74.707,-56.641,-33.691,-91.309,-44.922
1678021522.399,-57.129,-55.176,-41.504,-45.410,285.156
1678021522.403,-53.223,-46.387,-35.156,-37.598,134.277
1678021522.407,-66.895,-36.133,-28.320,-58.594,-68.359
1678021522.411,-72.754,-25.391,-20.996,-81.055,-165.039
1678021522.415,-67.383,-29.785,-13.672,-78.613,-226.562
1678021522.386,-66.406,-37.598,-22.461,-61.523,-27.344
1678021522.390,-72.266,-36.621,-27.344,-66.406,144.043
1678021522.394,-76.660,-27.832,-4.395,-85.938,205.566
1678021522.398,-69.336,-4.883,22.949,-129.883,0.000
1678021522.402,-121.094,11.719,12.695,-185.059,-306.152
1678021522.406,-151.367,7.324,34.668,-164.062,-102.051
1678021522.410,-183.105,-1.465,72.754,-160.156,241.699
1678021522.413,-226.074,-7.812,85.938,-203.125,63.965
1678021522.417,-225.098,20.020,86.426,-266.602,-245.117
1678021522.421,-266.602,52.246,87.891,-308.105,-270.996
1678021522.425,-303.711,35.645,99.121,-297.363,-18.066
1678021522.429,-311.035,21.484,108.887,-302.246,92.773
1678021522.393,-318.359,45.410,102.051,-327.148,-50.293
1678021522.397,-344.727,70.312,87.891,-350.098,-142.090
1678021522.401,-352.539,85.938,80.078,-359.863,-209.473
1678021522.405,-313.965,78.125,76.660,-303.711,-75.684
1678021522.409,-312.012,64.941,69.336,-270.508,17.578
1678021522.413,-305.176,65.430,55.664,-287.598,158.203
1678021522.417,-264.160,44.434,48.340,-295.898,306.152
1678021522.420,-252.441,24.414,40.527,-295.898,-137.695
1678021522.424,-262.207,56.152,33.203,-264.648,-292.480
1678021522.428,-257.812,65.430,26.855,-218.750,14.160
1678021522.432,-228.027,49.805,22.949,-216.797,34.180
1678021522.436,-204.102,27.344,21.973,-229.980,-138.184
1678021522.397,-200.684,21.973,18.066,-219.238,-196.289
1678021522.401,-179.688,12.695,-0.488,-183.594,-19.531
1678021522.405,-132.812,-23.926,-10.254,-129.395,89.355
1678021522.409,-125.977,-9.277,-9.277,-120.117,-59.570
1678021522.413,-121.582,-2.930,-20.996,-131.348,-128.906
1678021522.417,-107.422,-6.348,-32.227,-134.277,-127.441
1678021522.421,-106.934,-6.836,-36.621,-99.121,-105.957
1678021522.424,-90.332,-21.484,-40.039,-46.387,62.012
1678021522.428,-68.359,-29.785,-47.852,-46.875,78.125
1678021522.432,-69.824,-39.551,-51.270,-47.363,162.109
1678021522.436,-66.895,-49.805,-56.641,-61.035,-32.715
1678021522.440,-46.875,-65.918,-65.430,-47.363,-270.996
1678021522.403,-15.137,-63.477,-67.871,-4.883,-107.422
1678021522.407,-5.371,-59.570,-76.172,-0.977,2.441
1678021522.411,-10.254,-76.660,-81.543,-7.324,-50.781
1678021522.415,-7.324,-70.801,-78.125,-27.344,-270.020
1678021522.419,8.301,-57.617,-71.777,-15.625,-277.832
1678021522.423,18.066,-60.547,-75.684,27.832,-20.508
1678021522.427,22.949,-70.801,-79.102,36.621,115.723
1678021522.430,30.273,-82.031,-75.195,9.766,23.926
1678021522.434,20.508,-88.867,-78.613,-7.812,-20.508
1678021522.438,11.230,-83.984,-86.426,29.297,182.129
1678021522.442,19.531,-81.055,-80.078,63.965,67.871
1678021522.446,32.715,-85.449,-75.684,47.852,-65.430
1678021522.408,32.227,-86.914,-83.008,30.273,95.215
1678021522.412,29.785,-83.984,-84.961,9.766,-94.238
1678021522.416,25.391,-86.426,-81.055,-1.953,-308.105
1678021522.420,37.598,-89.844,-80.566,30.762,-142.090
1678021522.424,44.434,-79.102,-79.590,44.922,24.902
1678021522.428,30.273,-82.031,-77.148,27.832,89.355
1678021522.432,27.832,-84.961,-77.637,2.441,-36.133
1678021522.435,20.020,-68.848,-77.148,-1.953,-232.910
1678021522.439,31.738,-74.219,-75.195,40.527,132.812
1678021522.443,30.273,-80.078,-71.777,55.176,208.984
1678021522.447,16.602,-75.195,-68.359,44.434,-9.766
1678021522.451,12.207,-74.707,-68.848,-0.977,-62.988
1678021522.415,6.836,-70.801,-65.918,-18.066,-153.809
1678021522.419,20.508,-69.824,-67.871,20.996,-127.930
1678021522.423,35.645,-67.871,-74.707,19.531,-41.016
1678021522.427,19.043,-71.777,-75.195,9.766,8.789
1678021522.431,-2.930,-91.797,-67.383,-16.113,-119.629
1678021522.435,-8.789,-80.566,-62.500,-32.715,-239.258
1678021522.439,-0.977,-61.035,-60.059,5.371,-100.586
1678021522.442,16.602,-59.082,-57.129,22.461,107.910
1678021522.446,7.812,-57.129,-59.082,24.414,255.371
1678021522.450,-13.672,-69.824,-65.430,-6.836,-25.391
1678021522.454,-23.926,-54.688,-62.012,-31.250,-302.734
1678021522.458,-11.719,-42.480,-52.246,-4.883,-165.039
1678021522.418,1.953,-62.012,-53.711,12.695,-10.254
1678021522.422,-4.883,-68.848,-53.711,0.000,59.570
1678021522.426,-11.719,-63.477,-54.199,-25.879,-27.344
1678021522.430,-14.648,-62.500,-51.758,-42.969,41.016
1678021522.434,-35.645,-59.570,-46.875,-26.855,36.133
1678021522.438,-32.715,-66.895,-48.828,-8.301,-40.039
1678021522.442,-5.371,-72.754,-51.270,-5.371,80.078
1678021522.445,-24.414,-72.754,-46.875,-26.367,172.363
1678021522.449,-37.598,-67.383,-40.527,-60.059,-81.055
1678021522.453,-13.184,-59.570,-39.062,-35.645,-288.086
1678021522.457,-18.555,-62.500,-41.016,-13.184,-145.508
1678021522.461,-28.809,-63.965,-41.992,-25.391,-33.691
1678021522.424,-18.555,-58.594,-43.945,-38.086,-82.520
1678021522.428,-42.969,-58.105,-46.387,-80.566,-283.691
1678021522.432,-62.988,-59.570,-41.992,-62.012,-210.938
1678021522.436,-43.457,-56.152,-39.551,-12.695,125.977
1678021522.440,-21.973,-51.758,-38.086,-12.695,84.961
1678021522.444,-40.039,-54.688,-39.551,-38.086,-46.387
1678021522.448,-59.082,-56.641,-44.434,-73.242,-21.973
1678021522.451,-52.734,-54.688,-37.598,-64.453,147.461
1678021522.455,-49.805,-57.617,-31.250,-33.203,65.918
1678021522.459,-33.203,-57.129,-33.691,-30.273,-25.879
1678021522.463,-32.227,-51.270,-37.109,-38.086,13.672
1678021522.467,-58.594,-52.734,-28.809,-67.871,-191.895
1678021522.429,-67.871,-52.246,-19.531,-76.660,-277.344
1678021522.433,-52.734,-50.781,-25.879,-53.223,-103.516
1678021522.437,-37.109,-51.758,-32.227,-29.785,145.508
1678021522.441,-41.504,-52.246,-30.762,-27.344,75.195
1678021522.445,-52.734,-49.805,-29.785,-57.617,-208.008
1678021522.449,-48.340,-48.340,-30.762,-59.570,-265.137
1678021522.453,-46.387,-51.758,-38.574,-28.809,95.215
1678021522.456,-33.203,-48.340,-40.527,-15.137,238.770
1678021522.460,-30.273,-50.293,-34.668,-39.062,-56.152
1678021522.464,-66.895,-56.152,-36.621,-61.523,-186.523
1678021522.468,-64.941,-50.293,-37.109,-57.129,-137.207
1678021522.472,-43.457,-42.480,-35.156,-44.434,-152.344
1678021522.432,-39.062,-43.945,-40.527,-31.250,-136.230
1678021522.436,-46.387,-44.922,-43.457,-31.738,-45.410
1678021522.440,-58.105,-43.945,-43.945,-63.477,-102.051
1678021522.444,-53.711,-42.480,-38.574,-84.473,-284.668
1678021522.448,-41.504,-39.062,-34.668,-59.570,-249.023
1678021522.452,-43.457,-43.457,-43.457,-30.762,93.750
1678021522.456,-44.434,-48.828,-41.992,-36.133,291.992
1678021522.459,-54.688,-48.340,-35.645,-77.148,12.207
1678021522.463,-64.453,-49.805,-35.156,-103.516,-264.648
1678021522.467,-51.758,-46.387,-29.785,-51.758,-88.379
1678021522.471,-60.059,-42.969,-31.250,-29.297,208.496
1678021522.475,-58.594,-44.434,-37.598,-65.430,48.828
1678021522.453,-52.734,-47.363,-40.039,-77.637,-94.238
1678021522.457,-70.312,-47.363,-36.133,-93.262,-94.727
1678021522.461,-56.152,-35.156,-35.645,-76.660,-115.234
1678021522.465,-24.902,-26.855,-38.574,-47.852,-77.148
1678021522.469,-44.922,-37.598,-37.598,-41.016,21.484
1678021522.473,-67.871,-46.387,-39.062,-40.039,89.844
1678021522.477,-61.035,-51.270,-35.156,-82.520,-99.121
1678021522.480,-76.172,-52.734,-27.832,-89.355,-231.934
1678021522.484,-70.312,-46.875,-30.273,-39.551,-84.473
1678021522.488,-50.293,-59.570,-29.785,-39.551,219.238
1678021522.492,-41.504,-50.781,-27.832,-68.848,202.637
1678021522.496,-58.594,-29.785,-31.250,-111.328,-247.070
1678021522.457,-75.195,-26.367,-34.668,-85.938,-313.965
1678021522.461,-46.387,-34.668,-37.598,-46.875,-18.066
1678021522.465,-51.270,-50.293,-39.551,-60.547,21.484
1678021522.469,-78.125,-44.434,-39.062,-74.707,-43.945
1678021522.473,-67.383,-35.645,-33.691,-110.840,-193.359
1678021522.477,-64.453,-39.551,-30.762,-104.492,-215.820
1678021522.481,-62.500,-36.621,-22.461,-42.969,-43.457
1678021522.484,-57.129,-36.621,-20.020,-33.203,-24.414
1678021522.488,-58.594,-37.109,-21.484,-54.688,15.137
1678021522.492,-89.844,-33.691,-20.020,-104.492,107.910
1678021522.496,-103.027,-27.344,-7.324,-131.348,-170.410
1678021522.500,-88.379,-17.090,11.230,-100.098,-213.867
1678021522.460,-123.535,-1.465,10.254,-112.793,164.551
1678021522.464,-168.945,3.418,22.461,-162.109,305.664
1678021522.468,-205.078,7.324,54.199,-225.586,-62.988
1678021522.472,-231.445,9.277,78.613,-250.977,-326.660
1678021522.476,-248.535,-4.395,104.492,-227.051,11.719
1678021522.480,-237.305,15.137,119.629,-219.238,289.062
1678021522.484,-254.883,44.434,92.285,-261.719,132.812
1678021522.487,-300.293,32.227,83.008,-330.566,-130.371
1678021522.491,-307.617,28.320,90.332,-345.215,-55.176
1678021522.495,-296.387,37.109,91.309,-288.086,-49.805
1678021522.499,-285.645,49.316,89.844,-276.855,-101.562
1678021522.503,-286.621,42.480,72.754,-306.641,1.465
1678021522.463,-298.828,33.691,64.941,-315.918,-41.504
1678021522.467,-305.176,25.391,62.988,-350.098,-273.438
1678021522.471,-287.109,19.043,51.758,-339.844,-245.117
1678021522.475,-283.203,50.293,38.574,-267.578,63.477
1678021522.479,-266.113,63.477,32.715,-258.789,162.598
1678021522.483,-253.418,54.199,35.156,-290.527,96.191
1678021522.487,-262.695,39.551,41.016,-295.410,-108.398
1678021522.490,-228.027,26.855,30.762,-241.699,-57.129
1678021522.494,-194.336,26.367,13.184,-180.176,260.254
1678021522.498,-204.590,18.066,16.113,-192.383,61.035
1678021522.502,-195.801,17.578,2.930,-204.102,-164.062
1678021522.506,-161.621,20.996,-3.418,-209.473,-275.879
1678021522.467,-147.461,7.812,0.977,-173.340,-209.961
1678021522.471,-138.184,-2.930,-13.672,-126.465,-23.926
1678021522.475,-105.957,-13.184,-27.344,-105.469,22.461
1678021522.479,-83.984,-31.738,-34.668,-88.379,145.020
1678021522.483,-72.266,-38.574,-41.504,-99.121,-56.641
1678021522.487,-58.105,-51.270,-49.805,-78.125,-198.242
1678021522.491,-38.574,-62.988,-53.711,-23.438,72.266
1678021522.494,-23.438,-73.730,-57.617,-10.254,396.973
1678021522.498,-25.391,-79.590,-60.059,-12.207,311.523
1678021522.502,-29.785,-83.984,-61.035,-41.504,-163.086
1678021522.506,-7.812,-101.562,-69.824,-35.156,-285.645
1678021522.510,21.973,-90.820,-76.172,35.156,-108.398
1678021522.486,33.691,-75.195,-80.078,55.664,-58.594
1678021522.490,39.551,-81.055,-84.961,31.250,-118.164
1678021522.494,45.898,-82.520,-87.402,20.996,-242.676
1678021522.498,44.434,-78.125,-84.961,38.086,-301.758
1678021522.502,59.570,-70.312,-81.543,74.707,-138.672
1678021522.506,69.336,-79.590,-89.355,80.566,54.688
1678021522.510,55.176,-84.473,-94.238,70.801,169.434
1678021522.513,44.434,-84.473,-91.309,42.969,217.773
1678021522.517,54.199,-84.961,-88.867,31.738,-123.047
1678021522.521,64.941,-77.148,-84.473,74.219,-152.344
1678021522.525,58.594,-75.684,-81.543,91.797,116.699
1678021522.529,56.152,-71.289,-83.984,80.078,73.730
1678021522.532,56.641,-61.035,-77.148,59.570,-46.387
1678021522.536,46.875,-59.082,-77.148,26.367,-214.844
1678021522.540,61.035,-60.059,-84.961,64.941,-43.945
1678021522.544,71.777,-56.152,-82.520,92.285,97.656
1678021522.548,59.570,-51.270,-72.754,63.477,-62.012
1678021522.552,38.574,-58.105,-75.684,39.062,-113.770
1678021522.556,40.039,-56.641,-80.566,15.625,19.531
1678021522.559,50.781,-55.664,-72.754,37.109,43.945
1678021522.563,44.922,-59.570,-70.312,54.688,-72.754
1678021522.567,45.898,-61.035,-68.359,52.734,69.336
1678021522.571,31.738,-65.430,-72.266,19.531,85.938
1678021522.575,-2.930,-67.383,-74.219,-21.484,-258.789
1678021522.576,13.672,-62.012,-68.359,22.949,-267.090
1678021522.580,34.668,-54.688,-67.871,49.316,-51.270
1678021522.584,17.090,-54.199,-66.406,12.695,106.934
1678021522.588,5.859,-54.688,-65.918,-25.879,41.504
1678021522.592,2.930,-47.852,-63.965,-32.227,-234.375
1678021522.596,4.395,-55.664,-64.453,10.254,-86.426
1678021522.600,19.043,-63.477,-64.453,26.855,206.543
1678021522.603,12.695,-53.711,-64.453,34.180,95.215
1678021522.607,8.301,-49.805,-65.918,15.137,-80.566
1678021522.611,-1.953,-60.547,-62.988,-57.617,-138.672
1678021522.615,-21.484,-57.129,-61.035,-45.898,-121.582
1678021522.619,-0.488,-49.805,-58.105,12.207,-3.906
1678021522.637,10.254,-53.223,-55.664,6.348,136.719
1678021522.641,1.953,-55.664,-58.594,-21.973,260.254
1678021522.645,-16.113,-45.898,-56.641,-31.250,41.016
1678021522.649,-3.906,-32.227,-53.711,-36.133,-290.039
1678021522.653,14.160,-31.738,-53.711,-1.953,-120.117
1678021522.657,-5.371,-39.062,-49.805,10.742,194.336
1678021522.661,-27.344,-48.828,-45.410,-36.133,55.664
1678021522.664,-35.156,-59.570,-42.480,-63.477,-271.973
1678021522.668,-31.250,-62.012,-40.527,-65.430,-325.684
1678021522.672,-19.043,-43.945,-42.480,-20.996,35.156
1678021522.676,-15.137,-42.480,-50.293,0.000,136.719
1678021522.680,-20.508,-47.852,-49.805,-21.484,-67.383
1678021522.683,-35.156,-48.828,-45.410,-55.176,-198.242
1678021522.687,-35.645,-53.711,-47.852,-66.895,-226.562
1678021522.691,-13.184,-50.293,-49.805,-39.062,-106.445
1678021522.695,-21.484,-45.898,-50.781,-43.945,-94.238
1678021522.699,-47.363,-52.734,-53.711,-55.176,26.367
1678021522.703,-45.898,-52.734,-47.852,-66.895,51.758
1678021522.707,-49.316,-47.363,-41.016,-75.684,-130.371
1678021522.710,-36.621,-48.340,-42.480,-50.293,-90.820
1678021522.714,-22.461,-51.270,-42.480,-22.949,129.883
1678021522.718,-22.461,-43.457,-42.969,-20.508,369.141
1678021522.722,-30.273,-38.086,-44.434,-63.477,13.672
1678021522.726,-33.203,-43.457,-42.480,-91.309,-225.586
1678021522.727,-26.855,-44.922,-40.039,-49.316,181.152
1678021522.731,-28.320,-41.504,-39.551,-19.531,225.098
1678021522.735,-24.414,-38.574,-36.133,-47.363,12.695
1678021522.739,-31.250,-38.574,-34.180,-75.684,-53.223
1678021522.743,-27.832,-45.410,-33.691,-53.223,-151.367
1678021522.747,4.395,-38.574,-41.016,-21.484,-92.773
1678021522.751,12.695,-22.949,-52.246,-20.020,62.012
1678021522.754,-15.137,-27.832,-43.945,-35.156,70.312
1678021522.758,-46.875,-35.645,-32.715,-54.199,219.238
1678021522.762,-32.227,-34.180,-33.203,-73.242,100.098
1678021522.766,-27.832,-29.785,-33.691,-53.223,-219.727
1678021522.770,-44.922,-32.227,-34.668,-25.391,-112.305
1678021522.771,-40.527,-30.762,-36.621,-29.785,32.227
1678021522.775,-39.551,-30.762,-37.598,-69.824,-79.590
1678021522.779,-35.156,-29.785,-38.086,-86.914,-282.227
1678021522.783,-32.227,-28.320,-42.480,-61.523,-281.738
1678021522.787,-32.227,-33.691,-41.016,-33.203,-43.945
1678021522.791,-14.160,-34.180,-38.574,-32.715,84.473
1678021522.795,-26.855,-36.133,-35.156,-59.082,-49.805
1678021522.798,-55.176,-41.992,-33.203,-85.449,-163.086
1678021522.802,-50.293,-35.156,-35.645,-50.781,111.816
1678021522.806,-31.250,-26.367,-34.668,-25.879,80.566
1678021522.810,-29.785,-32.715,-35.156,-48.340,-88.867
1678021522.814,-40.527,-36.621,-37.598,-65.918,-47.363
1678021522.818,-42.969,-31.738,-38.574,-95.703,-169.922
1678021522.822,-35.645,-33.203,-40.039,-86.426,-236.816
1678021522.826,-29.785,-32.227,-44.434,-34.180,-86.426
1678021522.830,-36.133,-28.320,-43.457,-35.156,165.527
1678021522.834,-39.062,-30.762,-35.645,-56.641,74.219
1678021522.838,-45.898,-30.762,-34.180,-83.984,-151.367
1678021522.842,-48.828,-30.762,-32.715,-81.055,-113.770
1678021522.845,-36.133,-35.156,-28.809,-32.715,164.551
1678021522.849,-38.574,-39.062,-30.762,-33.203,211.914
1678021522.853,-28.809,-34.180,-27.832,-46.387,15.137
1678021522.857,-38.086,-29.785,-24.414,-70.312,-138.672
1678021522.861,-49.805,-30.273,-26.367,-84.961,-159.180
1678021522.862,-32.715,-31.250,-23.926,-39.062,-109.375
1678021522.866,-31.250,-28.809,-21.973,-21.973,-72.266
1678021522.870,-34.180,-25.879,-19.531,-37.109,-49.805
1678021522.874,-48.340,-30.273,-22.949,-70.312,-158.203
1678021522.878,-59.082,-36.621,-29.297,-98.145,-255.859
1678021522.882,-41.504,-41.504,-31.250,-66.895,-109.375
1678021522.886,-39.062,-41.016,-31.250,-35.645,148.438
1678021522.889,-43.457,-36.621,-27.832,-37.109,358.398
1678021522.893,-55.664,-32.715,-24.414,-75.684,-3.906
1678021522.897,-60.547,-31.738,-20.020,-94.238,-279.297
1678021522.901,-48.340,-37.109,-22.949,-59.082,-72.266
1678021522.905,-47.363,-36.133,-30.273,-41.992,150.391
1678021522.907,-42.969,-28.809,-27.832,-44.434,202.637
1678021522.911,-41.504,-31.738,-27.344,-77.637,4.395
1678021522.915,-57.129,-28.320,-30.762,-101.562,-127.930
1678021522.919,-63.965,-30.273,-30.273,-56.152,-2.441
1678021522.923,-50.293,-43.457,-34.668,-49.805,-43.457
1678021522.927,-43.945,-38.086,-40.039,-70.312,-68.848
1678021522.931,-55.664,-35.156,-39.551,-81.055,124.023
1678021522.934,-58.594,-43.457,-41.016,-97.656,-127.930
1678021522.938,-63.477,-45.898,-42.480,-79.590,-326.660
1678021522.942,-56.641,-45.410,-40.527,-51.758,-80.566
1678021522.946,-46.875,-41.016,-36.621,-38.086,0.000
1678021522.950,-51.270,-36.133,-29.297,-60.547,-100.586
1678021522.953,-63.477,-62.012,-30.762,-100.586,-318.848
1678021522.957,-64.453,-62.988,-32.227,-82.031,-236.816
1678021522.961,-56.641,-32.227,-35.156,-33.203,58.105
1678021522.965,-52.246,-31.250,-37.598,-39.551,12.695
1678021522.969,-57.129,-43.457,-33.691,-74.707,-145.996
1678021522.973,-70.801,-43.945,-34.180,-109.375,-119.141
1678021522.977,-62.500,-40.039,-36.621,-92.285,132.812
1678021522.980,-45.898,-39.062,-35.156,-57.129,32.227
1678021522.984,-41.504,-38.086,-33.203,-61.035,-38.086
1678021522.988,-42.480,-37.109,-31.738,-54.199,21.973
1678021522.992,-54.688,-33.691,-34.668,-78.125,-176.758
1678021522.996,-73.730,-34.668,-36.621,-102.539,-228.027
1678021523.012,-60.059,-39.062,-30.762,-59.082,22.461
1678021523.016,-38.086,-37.109,-30.273,-31.250,213.867
1678021523.020,-38.086,-36.133,-35.645,-48.828,93.262
1678021523.024,-57.617,-40.039,-36.621,-97.656,-210.449
1678021523.028,-64.453,-38.574,-38.086,-111.328,-209.961
1678021523.032,-53.223,-39.062,-37.109,-54.688,247.559
1678021523.036,-45.410,-40.527,-35.156,-41.504,373.535
1678021523.039,-55.664,-39.062,-36.621,-50.781,-38.574
1678021523.043,-58.594,-37.109,-35.645,-87.891,-222.656
1678021523.047,-55.176,-34.668,-33.203,-113.770,-157.715
1678021523.051,-56.152,-35.156,-29.785,-62.500,-128.906
1678021523.055,-44.434,-37.109,-25.391,-34.668,-4.395
1678021523.056,-40.527,-38.086,-29.297,-48.828,-10.742
1678021523.060,-53.223,-35.156,-37.109,-76.172,-166.504
1678021523.064,-67.383,-35.645,-35.645,-93.750,-330.078
1678021523.068,-53.711,-32.227,-26.367,-61.035,-247.559
1678021523.072,-43.945,-17.578,-19.531,-34.180,-26.367
1678021523.076,-49.805,-6.348,-18.555,-54.199,116.699
1678021523.080,-57.129,-11.230,-15.625,-103.027,15.137
1678021523.083,-71.289,-17.578,-19.531,-116.699,-246.094
1678021523.087,-82.520,-7.812,-7.324,-90.820,-114.258
1678021523.091,-93.262,0.488,13.184,-82.031,360.352
1678021523.095,-109.863,4.395,12.207,-106.934,209.473
1678021523.099,-138.184,24.414,15.625,-157.227,-166.504
1678021523.101,-178.223,33.691,30.762,-203.613,-147.949
1678021523.105,-192.383,26.367,44.434,-197.266,-73.242
1678021523.109,-209.473,24.414,59.570,-191.406,-20.020
1678021523.113,-216.309,18.066,73.730,-204.590,15.137
1678021523.117,-224.121,23.926,80.078,-242.188,-59.082
1678021523.121,-258.301,33.691,74.707,-293.457,-200.684
1678021523.125,-263.184,39.551,83.496,-286.133,-109.375
1678021523.128,-247.559,36.621,92.773,-249.023,13.672
1678021523.132,-267.578,26.367,98.633,-246.582,275.391
1678021523.136,-288.574,27.344,88.379,-294.434,269.043
1678021523.140,-287.598,32.227,77.637,-329.102,-236.328
1678021523.144,-270.020,31.250,73.730,-298.828,-318.848
1678021523.146,-239.258,36.133,76.172,-250.977,-54.688
1678021523.150,-238.281,37.109,80.566,-234.375,65.430
1678021523.154,-252.930,27.832,77.148,-249.512,-30.273
1678021523.158,-232.910,28.809,70.801,-279.785,-214.844
1678021523.162,-199.219,29.785,64.941,-246.094,-247.559
1678021523.166,-187.500,19.043,58.594,-187.988,14.160
1678021523.170,-187.500,8.301,46.875,-166.992,80.566
1678021523.173,-168.457,2.441,29.785,-160.645,119.141
1678021523.177,-148.438,-3.906,18.066,-161.621,157.715
1678021523.181,-143.555,-10.742,15.137,-163.574,-201.660
1678021523.185,-133.789,-20.020,6.836,-128.906,-163.574
1678021523.189,-109.375,-26.367,-5.859,-86.914,180.176
1678021523.191,-87.891,-35.156,-9.277,-76.172,153.320
1678021523.195,-94.727,-41.016,-12.207,-108.398,-153.809
1678021523.199,-84.473,-39.062,-18.555,-109.863,-267.090
1678021523.203,-62.012,-49.805,-20.996,-60.059,21.973
1678021523.207,-41.992,-56.152,-28.809,-28.320,110.352
1678021523.211,-30.762,-51.758,-34.180,-17.578,8.301
1678021523.215,-30.273,-54.688,-32.227,-41.504,-51.758
1678021523.218,-29.785,-55.664,-40.527,-49.805,-23.926
1678021523.222,-9.277,-57.129,-47.852,-9.277,83.984
1678021523.226,9.277,-59.570,-50.293,9.766,14.160
1678021523.230,16.113,-58.105,-55.664,5.859,-37.598
1678021523.234,10.254,-54.199,-60.547,-14.160,-41.992
1678021523.238,2.441,-53.223,-65.430,-29.785,-182.617
1678021523.242,7.324,-56.152,-66.895,0.000,-123.535
1678021523.246,10.254,-57.129,-67.871,32.715,23.438
1678021523.250,20.508,-58.105,-72.266,41.504,54.199
1678021523.254,25.391,-55.664,-73.242,0.488,-96.191
1678021523.258,22.461,-51.270,-69.336,-23.926,-289.551
1678021523.262,31.250,-58.105,-71.289,18.066,-46.387
1678021523.265,38.574,-63.965,-76.172,45.898,315.918
1678021523.269,33.691,-64.453,-82.031,28.320,95.215
1678021523.273,26.367,-66.406,-83.984,15.625,-164.062
1678021523.277,25.879,-64.941,-75.684,0.977,-212.402
1678021523.281,33.203,-54.688,-72.754,21.484,-84.473
1678021523.282,39.062,-59.082,-76.660,59.082,56.152
1678021523.286,36.621,-64.941,-75.684,38.574,54.688
1678021523.290,44.434,-58.105,-68.848,0.000,115.723
1678021523.294,31.250,-56.152,-71.289,-22.461,-10.254
1678021523.298,24.414,-60.547,-77.637,1.953,-122.559
1678021523.302,35.645,-58.594,-73.242,35.156,-6.836
1678021523.306,37.598,-56.152,-71.777,39.062,314.941
1678021523.309,30.273,-50.293,-75.195,10.254,327.637
1678021523.313,29.785,-44.434,-69.336,-32.227,-160.156
1678021523.317,36.133,-47.363,-67.383,-16.113,-251.465
1678021523.321,21.484,-52.734,-66.895,18.066,-83.008
1678021523.325,31.738,-56.152,-64.941,30.273,-28.809
1678021523.326,38.086,-51.758,-67.871,17.578,-91.309
1678021523.330,21.973,-46.875,-67.383,-14.160,-268.066
1678021523.334,12.207,-48.828,-60.547,4.395,-286.621
1678021523.338,22.949,-54.199,-54.688,29.297,-125.000
1678021523.342,27.344,-50.781,-57.617,19.043,-23.926
1678021523.346,16.113,-48.828,-62.012,5.371,98.633
1678021523.350,2.441,-50.293,-61.523,-14.160,135.742
1678021523.353,-6.348,-55.664,-61.035,-24.414,-153.320
1678021523.357,-0.488,-55.176,-59.570,6.348,-175.293
1678021523.361,15.137,-46.875,-54.199,18.555,105.957
1678021523.365,12.695,-41.016,-53.711,-16.602,215.332
1678021523.369,0.000,-42.969,-52.734,-61.035,-144.043
1678021523.387,-1.465,-46.875,-52.734,-56.641,-248.535
1678021523.391,3.418,-49.316,-52.246,-8.301,43.457
1678021523.395,20.508,-45.410,-47.363,10.742,146.484
1678021523.399,20.020,-43.457,-45.898,-5.859,20.020
1678021523.403,-1.465,-45.898,-52.246,-35.645,-107.910
1678021523.407,-6.836,-44.434,-51.758,-45.898,-138.672
1678021523.411,-7.812,-37.598,-47.363,-19.043,-64.453
1678021523.414,-2.441,-38.574,-48.340,3.418,2.441
1678021523.418,13.184,-37.598,-46.387,2.930,-1.953
1678021523.422,6.348,-37.109,-46.387,-22.461,105.469
1678021523.426,-5.859,-44.434,-47.852,-48.340,-18.555
1678021523.430,2.441,-44.922,-40.039,-21.484,-153.320
1678021523.431,9.277,-40.039,-37.109,15.137,-58.594
1678021523.435,-9.766,-43.457,-38.574,-6.836,42.480
1678021523.439,-26.855,-47.363,-39.062,-50.293,-33.203
1678021523.443,-33.203,-43.457,-36.133,-67.383,-270.996
1678021523.447,-42.969,-45.898,-35.645,-30.273,-248.047
1678021523.451,-28.320,-50.293,-37.598,-5.371,7.812
1678021523.455,-5.859,-41.016,-34.668,-33.203,53.223
1678021523.458,-21.484,-32.715,-30.273,-57.617,-160.156
1678021523.462,-40.039,-30.762,-28.809,-65.918,-206.543
1678021523.466,-28.320,-33.203,-31.738,-22.949,43.457
1678021523.470,-9.277,-39.551,-33.691,-4.883,110.352
1678021523.474,-14.160,-41.992,-30.762,-34.180,35.645
1678021523.476,-38.086,-41.016,-34.180,-54.199,96.680
1678021523.480,-39.062,-41.504,-35.645,-68.848,47.852
1678021523.484,-6.836,-39.062,-34.180,-50.293,-196.777
1678021523.488,-12.695,-41.504,-37.598,-7.324,-97.656
1678021523.492,-28.809,-41.016,-37.598,-26.855,72.266
1678021523.496,-47.852,-38.574,-36.133,-53.223,108.887
1678021523.500,-71.289,-40.527,-35.645,-76.172,-82.520
1678021523.503,-57.617,-55.664,-37.598,-68.848,-234.375
1678021523.507,-42.969,-62.988,-31.250,-14.648,114.746
1678021523.511,-41.992,-38.086,-27.832,-15.137,224.121
1678021523.515,-51.758,-34.180,-33.203,-53.711,-48.828
1678021523.519,-60.059,-42.969,-37.598,-73.242,-236.328
1678021523.521,-50.781,-44.434,-38.086,-63.965,-191.406
1678021523.525,-17.578,-40.527,-37.598,-34.180,28.809
1678021523.529,-26.855,-37.109,-40.527,-28.320,-11.719
1678021523.533,-50.781,-37.598,-37.109,-46.875,-17.090
1678021523.537,-36.621,-31.250,-30.273,-62.988,-61.035
1678021523.541,-24.414,-32.227,-32.227,-58.105,-149.902
1678021523.545,-25.879,-32.715,-29.785,-17.090,-6.348
1678021523.548,-33.691,-33.203,-26.855,-8.301,154.297
1678021523.552,-49.316,-31.250,-31.738,-29.297,303.711
1678021523.556,-49.805,-31.250,-38.086,-45.410,-47.852
1678021523.560,-40.527,-42.480,-31.738,-54.199,-310.547
1678021523.564,-25.391,-37.109,-20.508,-28.320,-64.941
1678021523.566,-24.414,-29.297,-24.414,-8.789,116.211
1678021523.570,-25.879,-34.668,-31.738,-19.531,11.719
1678021523.574,-21.484,-31.738,-29.297,-54.199,-156.738
1678021523.578,-32.715,-29.297,-28.320,-73.242,-43.457
1678021523.582,-44.434,-34.180,-28.320,-41.016,95.215
1678021523.586,-46.387,-41.504,-33.691,-25.391,-8.789
1678021523.590,-38.086,-40.527,-35.156,-32.227,70.312
1678021523.593,-37.598,-35.645,-31.738,-72.754,170.898
1678021523.597,-46.875,-47.363,-32.715,-110.840,-55.176
1678021523.601,-45.898,-46.387,-27.344,-80.078,-209.473
1678021523.605,-40.039,-33.203,-19.531,-39.062,-26.855
1678021523.609,-40.527,-36.621,-23.438,-49.805,-7.324
1678021523.612,-42.480,-33.691,-33.691,-75.684,-173.828
1678021523.616,-48.828,-34.180,-36.621,-93.750,-338.379
1678021523.620,-44.922,-36.133,-38.574,-63.965,-287.598
1678021523.624,-35.156,-33.203,-39.551,-45.410,-54.199
1678021523.628,-29.785,-33.691,-34.180,-54.688,5.371
1678021523.632,-40.039,-34.180,-31.738,-79.102,-126.953
1678021523.636,-50.781,-31.738,-34.668,-110.352,-124.023
1678021523.639,-40.527,-32.227,-34.668,-80.078,223.633
1678021523.643,-30.762,-35.156,-38.574,-50.293,199.707
1678021523.647,-32.227,-34.180,-43.457,-63.477,32.715
1678021523.651,-47.852,-28.809,-40.527,-72.754,50.781
1678021523.655,-61.035,-25.879,-38.574,-95.703,-135.742
1678021523.656,-53.711,-21.973,-31.250,-80.078,-157.715
1678021523.660,-40.527,-19.531,-25.391,-40.527,-48.828
1678021523.664,-39.551,-16.602,-22.949,-35.645,61.523
1678021523.668,-56.152,-19.531,-19.043,-64.453,46.387
1678021523.672,-73.730,-19.043,-10.742,-103.516,-199.219
1678021523.676,-76.172,-4.395,-1.953,-100.586,-166.992
1678021523.680,-92.285,3.418,-0.488,-90.820,284.668
1678021523.683,-121.582,6.348,2.930,-102.539,313.965
1678021523.687,-140.625,20.020,25.391,-141.602,8.301
1678021523.691,-179.688,26.367,39.551,-206.543,-222.168
1678021523.695,-204.102,31.738,51.758,-215.332,-151.855
1678021523.699,-197.266,35.645,77.637,-195.801,-81.543
1678021523.701,-225.586,21.973,94.727,-206.543,-103.516
1678021523.705,-234.375,20.996,93.750,-218.750,-99.121
1678021523.709,-237.305,41.016,79.590,-254.395,-179.199
1678021523.713,-250.977,52.246,81.055,-276.367,-284.668
1678021523.717,-254.395,42.480,92.285,-245.117,-167.969
1678021523.721,-259.277,44.922,87.891,-250.488,117.188
1678021523.725,-269.043,56.641,79.102,-271.973,216.309
1678021523.728,-281.250,64.941,76.172,-310.547,-105.469
1678021523.732,-289.551,75.684,70.801,-342.285,-328.613
1678021523.736,-279.297,74.707,57.129,-303.711,-76.172
1678021523.740,-265.625,68.359,42.969,-257.324,188.965
1678021523.744,-250.488,74.707,30.762,-267.578,92.773
1678021523.762,-240.723,83.008,12.207,-294.434,-67.871
1678021523.766,-216.309,69.824,0.977,-273.926,-94.238
1678021523.770,-178.711,55.176,3.906,-220.215,80.078
1678021523.774,-180.176,50.293,-0.488,-183.594,-18.555
1678021523.778,-172.852,36.621,-19.531,-168.457,-45.898
1678021523.782,-150.879,13.184,-27.344,-170.410,65.918
1678021523.786,-143.555,10.254,-30.762,-185.059,-102.539
1678021523.789,-123.047,6.836,-36.621,-126.465,-196.289
1678021523.793,-104.492,-10.254,-39.062,-78.125,-4.883
1678021523.797,-85.938,-21.973,-49.316,-93.262,300.781
1678021523.801,-69.824,-35.645,-56.641,-95.703,88.379
1678021523.805,-64.941,-47.363,-61.523,-83.984,-241.699
1678021523.806,-39.062,-55.664,-65.430,-49.316,-108.398
1678021523.810,-11.230,-68.848,-67.871,-18.066,66.895
1678021523.814,-2.441,-73.730,-72.754,-12.695,21.973
1678021523.818,-1.953,-81.055,-71.777,-16.113,-90.820
1678021523.822,-8.301,-82.520,-70.312,-17.090,-265.625
1678021523.826,13.184,-76.660,-76.660,18.066,-179.199
1678021523.830,33.691,-83.496,-79.102,53.711,128.906
1678021523.833,37.598,-84.961,-77.148,50.293,94.727
1678021523.837,51.270,-79.590,-83.496,51.270,52.246
1678021523.841,46.387,-76.660,-86.914,32.227,81.543
1678021523.845,45.410,-77.148,-85.938,24.902,-204.590
1678021523.849,66.406,-81.055,-88.379,68.848,-163.574
1678021523.853,66.406,-84.473,-85.938,68.848,159.180
1678021523.857,67.871,-79.102,-80.078,46.387,81.055
1678021523.861,72.266,-72.754,-80.078,28.320,-208.008
1678021523.865,65.918,-78.613,-84.961,42.480,-173.828
1678021523.869,60.547,-76.172,-84.961,83.984,138.184
1678021523.873,68.848,-72.754,-85.938,76.172,233.398
1678021523.877,63.477,-76.660,-89.355,46.387,21.973
1678021523.880,38.086,-73.730,-86.914,25.391,-199.219
1678021523.884,39.062,-72.754,-84.961,38.086,-93.262
1678021523.888,56.641,-72.754,-83.984,63.477,51.270
1678021523.892,64.453,-71.289,-81.055,55.664,-20.508
1678021523.896,60.547,-68.359,-78.613,55.176,-47.852
1678021523.896,49.805,-63.965,-79.102,19.043,-219.727
1678021523.900,34.180,-62.988,-74.219,10.254,-358.398
1678021523.904,43.457,-64.941,-74.219,50.781,-179.199
1678021523.908,56.641,-69.336,-77.148,49.805,0.977
1678021523.912,45.410,-74.707,-78.613,40.039,31.738
1678021523.916,38.086,-68.359,-74.219,7.812,-46.875
1678021523.920,42.480,-61.035,-64.941,-16.113,-119.141
1678021523.923,41.016,-60.547,-64.941,24.902,2.930
1678021523.927,43.457,-61.523,-61.523,55.664,377.930
1678021523.931,41.504,-57.617,-55.176,44.434,240.234
1678021523.935,21.484,-60.059,-59.082,-0.977,-195.801
1678021523.939,12.695,-62.988,-62.988,-19.043,-299.316
1678021523.942,8.301,-60.059,-56.152,5.859,-106.445
1678021523.946,14.648,-61.523,-54.199,23.926,22.949
1678021523.950,27.344,-62.012,-57.617,20.020,21.484
1678021523.954,13.184,-61.523,-56.641,-5.371,61.523
1678021523.958,14.160,-68.359,-56.152,0.488,-62.500
1678021523.962,72.754,-57.617,-60.059,64.941,-84.473
1678021523.966,64.941,-29.297,-66.895,67.383,51.270
1678021523.969,-0.488,-21.484,-62.988,1.953,335.449
1678021523.973,-31.250,-27.344,-62.988,-59.570,293.945
1678021523.977,-57.129,-17.578,-63.965,-110.352,-237.793
1678021523.981,-75.195,-12.207,-67.383,-116.699,-248.047
1678021523.985,-64.453,-17.090,-69.336,-88.379,-3.906
1678021523.986,-89.844,-4.395,-65.430,-119.141,-8.789
1678021523.990,-98.633,10.742,-62.988,-153.809,-128.418
1678021523.994,-99.609,17.090,-65.430,-178.223,-262.695
1678021523.998,-122.070,11.230,-70.312,-161.133,-203.125
1678021524.002,-115.234,21.973,-72.266,-117.676,-29.785
1678021524.006,-104.492,26.855,-68.848,-117.676,51.270
1678021524.010,-91.309,21.484,-66.406,-134.277,137.207
1678021524.013,-97.656,22.461,-64.941,-181.641,69.336
1678021524.017,-98.633,12.695,-68.359,-181.152,-243.164
1678021524.021,-88.379,-3.906,-69.336,-125.000,-120.605
1678021524.025,-75.195,-13.184,-69.336,-109.375,135.742
1678021524.029,-65.430,-16.113,-73.730,-108.887,25.391
1678021524.031,-68.359,-20.508,-66.895,-118.652,-208.984
1678021524.035,-56.152,-24.414,-60.059,-112.793,-349.121
1678021524.039,-37.598,-25.879,-61.035,-72.266,-54.688
1678021524.043,-33.691,-26.855,-60.547,-46.875,83.984
1678021524.047,-17.090,-24.414,-57.129,-63.965,-143.555
1678021524.051,-22.461,-20.996,-59.570,-106.445,-231.934
1678021524.055,-44.434,-21.484,-62.500,-99.121,-39.062
1678021524.058,-22.461,-22.949,-61.523,-40.039,48.828
1678021524.062,-6.348,-19.531,-56.641,-37.598,-65.918
1678021524.066,-5.371,-21.973,-55.664,-49.805,-62.012
1678021524.070,-15.625,-19.531,-60.547,-70.312,-128.418
1678021524.074,-22.949,-20.508,-57.617,-89.844,-299.316
1678021524.078,-12.695,-22.949,-51.270,-51.270,-144.043
1678021524.082,-4.395,-23.438,-45.410,-28.809,104.492
1678021524.086,-3.418,-28.320,-42.480,-35.156,163.574
1678021524.090,-14.160,-28.809,-42.480,-68.359,-49.316
1678021524.094,-25.879,-31.250,-42.480,-87.891,-288.086
1678021524.098,-27.344,-34.668,-35.156,-45.898,-26.367
1678021524.102,-16.602,-35.645,-37.109,-32.227,282.227
1678021524.105,-14.648,-37.598,-42.969,-41.992,60.547
1678021524.109,-16.602,-34.180,-42.480,-65.430,-182.617
1678021524.113,-27.344,-31.738,-41.016,-83.496,-166.504
1678021524.117,-28.320,-34.668,-40.039,-58.594,-22.949
1678021524.121,-19.531,-41.016,-41.016,-33.691,8.789
1678021524.138,-25.879,-39.062,-42.969,-36.621,48.340
1678021524.142,-28.320,-36.133,-41.016,-63.477,84.961
1678021524.146,-33.691,-37.598,-36.621,-93.750,-20.020
1678021524.150,-24.902,-34.180,-37.109,-56.152,-181.641
1678021524.154,-22.949,-30.762,-45.410,-15.625,-79.590
1678021524.158,-25.879,-35.645,-41.504,-23.438,242.676
1678021524.162,-30.273,-37.598,-31.250,-42.969,175.293
1678021524.165,-39.551,-34.180,-33.691,-72.266,-279.297
1678021524.169,-35.156,-41.504,-34.180,-55.176,-250.488
1678021524.173,-20.996,-40.039,-32.227,-22.949,37.109
1678021524.177,-27.344,-36.133,-34.180,-28.320,25.879
1678021524.181,-43.457,-40.527,-37.598,-50.781,-68.848
1678021524.181,-49.805,-38.086,-38.574,-80.566,-244.141
1678021524.185,-44.434,-35.645,-37.109,-61.035,-226.074
1678021524.189,-24.414,-35.645,-33.203,-21.973,-18.555
1678021524.193,-21.973,-36.621,-33.203,-28.320,27.832
1678021524.197,-26.367,-31.250,-35.645,-44.922,21.973
1678021524.201,-48.340,-31.738,-36.621,-82.520,-81.543
1678021524.205,-45.898,-39.551,-38.574,-70.312,-70.312
1678021524.208,-16.113,-37.109,-40.039,-21.484,49.805
1678021524.212,-20.020,-36.133,-38.574,-24.414,112.793
1678021524.216,-24.414,-33.691,-30.762,-41.504,369.141
1678021524.220,-24.414,-34.180,-29.785,-72.266,38.574
1678021524.224,-48.828,-37.598,-34.180,-76.660,-308.105
1678021524.227,-39.062,-35.645,-36.621,-30.273,83.008
1678021524.231,-24.414,-35.645,-36.133,-17.090,226.562
1678021524.235,-50.293,-35.156,-34.668,-37.598,-52.246
1678021524.239,-57.129,-27.832,-35.645,-67.871,-246.582
1678021524.243,-46.387,-30.273,-30.762,-74.707,-193.359
1678021524.247,-30.762,-36.133,-29.297,-35.156,-15.625
1678021524.251,-19.043,-35.156,-31.738,-29.297,77.637
1678021524.254,-41.504,-33.203,-30.273,-46.875,138.184
1678021524.258,-59.570,-32.715,-28.809,-66.895,207.520
1678021524.262,-46.387,-32.227,-24.414,-81.543,14.648
1678021524.266,-33.203,-30.762,-25.879,-55.176,-123.047
1678021524.270,-35.645,-31.250,-29.785,-27.344,4.395
1678021524.271,-36.621,-29.785,-30.273,-42.969,4.395
1678021524.275,-41.992,-27.344,-35.156,-64.941,-228.027
1678021524.279,-53.223,-29.785,-35.645,-77.148,-344.238
1678021524.283,-53.711,-29.785,-28.809,-70.312,-148.926
1678021524.287,-51.270,-25.879,-28.809,-52.246,21.484
1678021524.291,-48.828,-28.809,-31.738,-60.059,134.766
1678021524.295,-68.848,-31.738,-29.785,-94.238,-2.441
1678021524.298,-63.965,-29.297,-32.715,-106.445,-210.449
1678021524.302,-47.852,-32.227,-36.133,-65.918,89.355
1678021524.306,-61.523,-33.691,-39.551,-46.387,125.488
1678021524.310,-47.363,-31.738,-39.551,-58.105,-1.465
1678021524.314,-42.480,-31.738,-36.133,-52.246,18.066
1678021524.332,-62.012,-33.691,-35.156,-77.148,-174.316
1678021524.336,-53.223,-36.133,-36.133,-62.988,-279.297
1678021524.340,-40.527,-33.203,-33.691,-29.785,-121.582
1678021524.344,-46.875,-31.250,-33.203,-15.625,108.398
1678021524.348,-53.223,-28.809,-31.738,-47.852,95.703
1678021524.352,-53.223,-26.367,-23.926,-75.684,-195.312
1678021524.356,-46.387,-27.832,-23.438,-52.734,-147.949
1678021524.359,-50.781,-28.320,-27.832,-25.879,212.891
1678021524.363,-59.570,-31.250,-33.203,-47.852,130.859
1678021524.367,-55.664,-31.738,-34.180,-70.801,-200.684
1678021524.371,-53.223,-27.344,-26.855,-85.449,-292.480
1678021524.375,-41.992,-32.227,-21.973,-68.359,-220.215
1678021524.361,-43.457,-36.621,-25.879,-39.062,-92.773
1678021524.365,-43.457,-30.273,-22.461,-39.062,-102.051
1678021524.369,-41.992,-28.809,-21.484,-56.641,-104.492
1678021524.373,-61.035,-18.066,-17.578,-83.984,-123.047
1678021524.377,-79.102,-15.625,-18.555,-91.309,-238.770
1678021524.381,-64.453,-11.230,-16.602,-67.871,-97.168
1678021524.385,-71.289,-0.977,-6.836,-67.383,104.980
1678021524.388,-110.840,4.883,-3.906,-113.770,24.902
1678021524.392,-139.648,22.949,10.254,-156.738,-251.465
1678021524.396,-166.504,29.785,28.320,-181.152,-395.996
1678021524.400,-202.637,35.156,41.504,-180.176,-59.570
1678021524.404,-217.285,43.457,57.129,-184.570,301.270
1678021524.408,-229.980,51.758,68.848,-246.094,75.684
1678021524.412,-283.691,62.988,79.590,-317.383,-211.914
1678021524.416,-326.660,68.848,96.191,-336.914,-97.656
1678021524.420,-315.918,73.730,93.262,-308.105,118.164
1678021524.424,-303.223,80.078,88.379,-287.598,27.344
1678021524.428,-311.035,78.125,84.961,-290.039,24.414
1678021524.432,-325.195,74.219,74.219,-312.988,195.312
1678021524.435,-310.547,74.707,74.219,-326.172,0.488
1678021524.439,-267.578,73.730,65.918,-287.109,-224.609
1678021524.443,-236.816,68.359,54.199,-235.840,-118.164
1678021524.447,-238.770,58.105,49.805,-213.379,-78.613
1678021524.451,-231.934,40.039,41.992,-233.398,-259.277
1678021524.451,-215.820,24.414,31.738,-228.516,-383.301
1678021524.455,-167.969,34.180,19.043,-154.297,-206.055
1678021524.459,-109.375,35.645,4.395,-119.629,44.922
1678021524.463,-94.238,20.996,-13.672,-124.023,37.109
1678021524.467,-112.305,3.418,-25.391,-118.652,-90.820
1678021524.471,-109.375,-13.184,-32.227,-106.934,-167.969
1678021524.475,-70.801,-24.902,-35.645,-30.762,226.074
1678021524.478,-43.945,-30.762,-43.945,2.441,239.258
1678021524.482,-29.785,-36.621,-58.105,-5.859,-6.348
1678021524.486,-7.812,-45.410,-58.594,5.371,-31.738
1678021524.490,-9.277,-52.246,-62.012,-15.625,-234.863
1678021524.494,2.441,-54.688,-75.195,1.465,-193.359
1678021524.511,38.086,-58.594,-79.590,45.410,103.516
1678021524.515,46.875,-62.012,-80.078,70.801,229.492
1678021524.519,48.828,-62.012,-80.566,44.434,128.418
1678021524.523,29.297,-64.941,-78.613,7.812,-258.789
1678021524.527,37.109,-74.219,-82.520,35.645,-243.164
1678021524.531,63.965,-78.125,-81.055,76.660,146.973
1678021524.535,80.078,-78.613,-78.613,80.078,182.617
1678021524.538,75.684,-83.496,-84.473,61.035,46.387
1678021524.542,47.363,-86.914,-82.031,29.785,-193.848
1678021524.546,50.781,-84.473,-81.543,68.848,-50.293
1678021524.550,69.336,-79.102,-83.984,101.562,176.758
1678021524.554,75.684,-80.078,-80.566,81.543,3.906
1678021524.569,61.523,-83.984,-83.984,63.477,-90.332
1678021524.573,34.668,-81.055,-85.449,32.715,-239.258
1678021524.577,28.320,-94.238,-77.637,26.855,-292.969
1678021524.581,40.039,-105.469,-74.219,61.523,-112.305
1678021524.585,32.715,-87.402,-78.613,67.871,14.648
1678021524.589,23.438,-80.566,-77.148,42.969,103.516
1678021524.593,20.508,-86.426,-69.824,9.766,-52.246
1678021524.596,-0.977,-85.938,-69.336,-6.836,-296.387
1678021524.600,3.906,-85.449,-73.242,22.461,-54.688
1678021524.604,9.766,-77.148,-67.871,48.340,480.469
1678021524.608,-4.395,-77.148,-62.988,54.199,208.496
1678021524.612,-19.531,-83.984,-59.570,-0.488,-216.797
1678021524.601,-14.160,-79.102,-58.105,-20.020,-41.992
1678021524.605,-4.395,-72.266,-62.500,25.391,68.848
1678021524.609,5.371,-70.312,-59.570,31.738,-54.688
1678021524.613,0.488,-65.918,-54.199,22.461,-57.129
1678021524.617,-8.301,-67.383,-51.270,-19.043,-68.359
1678021524.621,-8.301,-67.871,-48.340,-38.086,-176.758
1678021524.625,-4.883,-57.129,-47.363,3.906,-117.676
1678021524.628,7.324,-53.223,-43.945,29.297,-32.227
1678021524.632,6.348,-52.246,-38.086,29.297,193.359
1678021524.636,-3.906,-52.246,-37.109,-1.465,80.566
1678021524.640,-19.043,-51.270,-42.480,-48.828,-345.703
1678021524.644,3.418,-51.270,-41.016,-24.414,-159.668
1678021524.646,6.348,-54.199,-41.016,8.789,120.605
1678021524.650,-21.973,-52.246,-42.969,6.348,-16.113
1678021524.654,-9.766,-52.734,-39.062,-21.484,-145.508
1678021524.658,-11.719,-58.594,-42.480,-52.734,-260.254
1678021524.662,-23.438,-62.012,-52.246,-39.062,-218.262
1678021524.666,-9.766,-67.871,-47.852,-22.949,7.324
1678021524.670,-10.742,-58.594,-44.434,-31.250,143.555
1678021524.673,-26.367,-47.363,-45.410,-34.668,80.078
1678021524.677,-34.180,-45.898,-40.039,-57.129,46.387
1678021524.681,-19.531,-41.016,-41.016,-30.762,-70.312
1678021524.685,5.859,-42.969,-41.992,15.625,-32.227
1678021524.689,1.953,-48.340,-41.016,7.324,98.633
1678021524.693,-26.367,-53.223,-43.457,-32.227,56.641
1678021524.697,-43.945,-57.129,-39.551,-83.008,-136.719
1678021524.701,-29.297,-52.734,-40.527,-72.754,-186.035
1678021524.705,-28.809,-51.758,-42.480,-11.719,181.641
1678021524.709,-24.414,-59.082,-44.434,7.324,331.543
1678021524.713,-20.020,-63.965,-45.410,-28.809,58.594
1678021524.717,-43.457,-55.664,-43.457,-82.520,-133.301
1678021524.720,-39.062,-46.875,-43.945,-63.965,15.625
1678021524.724,-17.090,-41.504,-40.039,-35.645,94.238
1678021524.728,-20.508,-45.410,-37.598,-44.922,-25.391
1678021524.732,-29.785,-44.922,-39.062,-35.156,1.953
1678021524.736,-40.527,-37.109,-34.668,-62.988,-195.801
1678021524.736,-42.480,-37.598,-39.062,-61.523,-298.828
1678021524.740,-19.043,-39.551,-41.992,-16.113,-89.355
1678021524.744,-10.742,-39.062,-39.551,-1.953,-6.348
1678021524.748,-17.090,-37.109,-36.621,-14.648,-45.898
1678021524.752,-33.691,-40.039,-31.738,-58.105,-120.117
1678021524.756,-27.344,-41.016,-35.156,-63.477,-159.668
1678021524.760,-23.438,-42.480,-36.133,-20.508,61.523
1678021524.763,-8.789,-42.480,-40.527,-0.488,353.027
1678021524.767,6.836,-33.203,-44.922,6.348,131.348
1678021524.771,-11.719,-38.574,-26.855,-19.531,-267.578
1678021524.775,-35.156,-45.410,-11.719,-45.410,-315.918
1678021524.779,-21.973,-33.203,-30.273,-25.879,-148.926
1678021524.782,-0.977,-32.227,-37.598,-1.953,9.766
1678021524.786,11.719,-29.297,-15.625,11.230,4.883
1678021524.790,-18.555,-28.809,0.000,-38.574,-3.418
1678021524.794,-60.547,-32.715,-6.836,-83.984,-106.445
1678021524.798,-60.059,-27.344,-5.859,-27.344,-130.371
1678021524.802,-43.945,-16.602,0.977,-26.367,41.016
1678021524.806,-70.801,-8.301,7.812,-77.637,272.461
1678021524.809,-126.465,2.930,29.297,-118.652,166.016
1678021524.813,-148.926,11.230,58.594,-163.086,-285.156
1678021524.817,-148.926,13.672,68.359,-150.879,-166.992
1678021524.821,-176.758,20.996,75.195,-165.527,145.020
1678021524.825,-220.215,29.785,92.285,-208.496,27.344
1678021524.858,-236.816,46.875,105.957,-239.746,-104.980
1678021524.862,-268.066,44.434,116.699,-275.391,-223.145
1678021524.866,-292.969,40.527,116.211,-289.062,-188.477
1678021524.870,-290.039,50.293,116.211,-267.578,-48.340
1678021524.874,-294.922,50.781,116.699,-275.879,-9.277
1678021524.878,-299.316,49.805,118.164,-298.828,109.375
1678021524.882,-313.965,41.992,104.980,-326.172,52.246
1678021524.885,-303.223,31.738,96.191,-303.711,-127.441
1678021524.889,-282.227,30.273,97.168,-245.605,-18.066
1678021524.893,-268.555,28.809,89.355,-230.469,134.277
1678021524.897,-246.094,29.785,84.961,-235.840,145.508
1678021524.901,-232.422,26.855,83.984,-229.980,-187.012
1678021524.901,-213.379,22.949,71.777,-211.914,-171.875
1678021524.905,-192.383,2.930,59.082,-173.828,118.652
1678021524.909,-175.293,-13.184,49.805,-141.113,92.773
1678021524.913,-152.832,-12.207,35.156,-141.602,-96.680
1678021524.917,-138.184,-25.391,21.484,-147.461,-216.309
1678021524.921,-94.238,-43.457,7.324,-88.867,-81.543
1678021524.925,-41.992,-52.246,-4.395,-21.484,33.691
1678021524.928,-41.992,-62.988,-9.277,-3.906,-19.043
1678021524.932,-15.137,-73.242,-22.461,1.953,-29.297
1678021524.936,9.277,-81.543,-33.203,-9.277,-93.750
1678021524.940,17.090,-91.797,-44.922,11.719,-242.676
1678021524.944,54.688,-95.215,-59.570,72.754,-125.488
1678021524.932,65.430,-88.867,-71.289,91.797,-34.180
1678021524.936,68.848,-91.797,-74.707,86.426,233.887
1678021524.940,74.707,-91.797,-83.008,71.777,285.645
1678021524.944,79.590,-86.914,-84.473,71.289,-218.262
1678021524.948,103.027,-92.773,-85.938,108.887,-187.500
1678021524.952,114.746,-96.680,-92.285,113.770,172.363
1678021524.956,118.164,-92.773,-96.680,100.098,115.723
1678021524.959,116.699,-90.332,-96.191,78.125,-137.207
1678021524.963,96.680,-88.379,-85.938,84.961,-207.520
1678021524.967,96.191,-88.379,-83.984,125.977,-60.059
1678021524.971,103.027,-92.773,-96.680,138.184,7.812
1678021524.975,108.398,-83.984,-101.074,111.816,-62.012
1678021524.976,105.469,-79.102,-98.633,78.125,15.625
1678021524.980,87.891,-83.984,-94.727,80.566,220.215
1678021524.984,102.539,-80.078,-92.773,93.750,61.035
1678021524.988,112.305,-74.219,-92.285,105.469,-90.820
1678021524.992,85.938,-75.684,-91.309,96.191,54.688
1678021524.996,78.613,-75.195,-88.867,58.105,12.695
1678021525.000,62.012,-72.754,-85.449,25.879,-187.500
1678021525.003,55.664,-76.172,-87.891,52.734,-150.879
1678021525.007,69.824,-80.078,-86.426,82.031,203.125
1678021525.011,82.520,-70.801,-80.566,74.219,219.727
1678021525.015,79.590,-65.918,-78.125,49.316,-90.332
1678021525.019,57.129,-63.965,-74.219,15.625,-251.465
1678021525.036,49.805,-62.500,-66.895,32.227,-129.395
1678021525.040,49.805,-50.293,-58.105,86.914,-9.277
1678021525.044,44.434,-46.875,-47.852,60.059,33.691
1678021525.048,26.367,-52.734,-42.480,2.441,78.613
1678021525.052,10.742,-39.062,-35.645,-0.488,-96.191
1678021525.056,-13.184,-24.902,-26.855,-18.555,-206.055
1678021525.060,-37.598,-20.508,-26.855,-34.180,-24.414
1678021525.063,-57.129,-11.230,-6.836,-33.203,98.633
1678021525.067,-112.793,-14.648,21.484,-95.215,83.496
1678021525.071,-159.668,-11.719,44.434,-205.078,-270.996
1678021525.075,-191.895,-3.418,65.918,-227.051,-372.070
1678021525.079,-215.820,4.395,81.055,-190.918,-67.871
1678021525.081,-233.398,14.160,88.379,-210.449,196.777
1678021525.085,-257.812,16.113,87.402,-242.676,34.668
1678021525.089,-268.555,17.578,81.055,-270.020,-224.609
1678021525.093,-246.094,19.043,74.219,-262.695,-168.945
1678021525.097,-236.816,20.508,70.801,-230.957,-33.203
1678021525.101,-247.559,21.973,62.012,-234.863,-54.199
1678021525.105,-233.398,24.902,57.129,-236.328,61.523
1678021525.108,-236.816,23.438,56.641,-243.164,86.914
1678021525.112,-244.141,21.484,57.617,-231.934,-211.426
1678021525.116,-224.121,19.043,56.641,-189.941,-149.414
1678021525.120,-205.078,10.254,40.039,-159.668,-4.395
1678021525.124,-172.363,5.371,20.996,-153.320,207.031
1678021525.111,-152.832,-0.488,15.137,-153.809,74.707
1678021525.115,-126.953,-8.301,3.418,-128.418,-334.961
1678021525.119,-83.496,-26.855,-12.207,-65.918,-167.480
1678021525.123,-61.035,-27.344,-27.344,-46.387,9.277
1678021525.127,-35.156,-20.020,-39.551,-37.109,-84.473
1678021525.131,-29.297,-42.480,-47.852,-45.898,-106.934
1678021525.135,-43.945,-47.852,-54.688,-57.129,-49.805
1678021525.138,-24.902,-39.551,-63.477,-12.695,-12.207
1678021525.142,12.207,-48.340,-66.406,34.180,97.168
1678021525.146,35.156,-48.340,-74.707,44.922,20.996
1678021525.150,27.832,-49.805,-85.449,27.344,-71.777
1678021525.154,12.695,-61.523,-85.449,10.742,-103.516
1678021525.156,39.062,-59.082,-85.449,47.363,-68.359
1678021525.160,65.918,-65.918,-86.914,90.332,-18.066
1678021525.164,68.359,-73.730,-92.773,88.379,145.508
1678021525.168,69.824,-72.754,-97.168,61.523,338.379
1678021525.172,78.613,-68.359,-98.633,51.758,-130.371
1678021525.176,84.961,-71.289,-101.562,73.730,-171.387
1678021525.180,83.496,-77.637,-104.004,103.027,235.352
1678021525.183,92.285,-71.289,-104.004,104.004,101.074
1678021525.187,90.820,-70.312,-104.492,72.754,-166.504
1678021525.191,77.637,-71.777,-104.980,48.828,-283.691
1678021525.195,68.848,-75.195,-105.957,74.219,10.254
1678021525.199,73.730,-82.031,-105.957,105.469,115.234
1678021525.201,83.984,-78.613,-102.051,99.609,-14.648
1678021525.205,83.496,-78.613,-97.168,77.148,-23.438
1678021525.209,69.824,-78.125,-92.773,42.480,-166.016
1678021525.213,65.918,-73.730,-94.727,46.875,-224.609
1678021525.217,88.379,-74.219,-97.656,80.566,-78.125
1678021525.221,84.961,-68.848,-100.586,83.008,169.434
1678021525.225,63.965,-67.871,-99.121,72.754,271.484
1678021525.228,61.035,-69.336,-94.238,37.109,-82.031
1678021525.232,78.613,-69.824,-88.379,48.340,-291.016
1678021525.236,73.242,-67.383,-81.543,74.707,-46.387
1678021525.240,58.594,-64.941,-87.402,54.199,92.773
1678021525.244,54.199,-65.430,-89.355,33.691,-31.250
1678021525.262,41.992,-65.430,-86.426,8.301,-116.211
1678021525.266,33.691,-63.965,-86.426,20.020,42.969
1678021525.270,41.016,-64.453,-86.914,69.824,229.980
1678021525.274,60.547,-60.059,-83.984,62.500,82.031
1678021525.278,65.430,-60.059,-78.125,48.828,-33.203
1678021525.282,46.875,-63.965,-76.660,22.949,5.371
1678021525.286,39.551,-61.523,-75.195,17.578,-83.008
1678021525.289,55.664,-58.105,-69.336,53.223,-43.457
1678021525.293,41.504,-55.176,-66.895,48.340,83.984
1678021525.297,23.438,-60.547,-68.359,41.504,61.035
1678021525.301,22.949,-64.941,-65.430,19.043,-152.344
1678021525.305,24.414,-62.500,-63.965,5.371,-333.984
1678021525.306,32.715,-57.617,-66.895,41.016,-121.582
1678021525.310,35.645,-51.270,-69.336,53.711,217.285
1678021525.314,25.879,-47.852,-65.430,35.156,121.094
1678021525.318,4.883,-51.270,-58.594,-7.812,-104.004
1678021525.322,7.324,-56.152,-64.453,-14.648,-228.516
1678021525.326,24.414,-55.176,-67.871,16.113,32.715
1678021525.330,20.020,-49.316,-64.941,32.227,126.465
1678021525.333,20.020,-46.387,-62.988,23.926,-76.172
1678021525.337,-6.348,-43.457,-59.082,-24.414,-139.160
1678021525.341,-11.230,-44.434,-58.105,-31.250,-46.875
1678021525.345,4.395,-46.875,-56.641,4.883,-159.180
1678021525.349,13.672,-45.898,-51.758,31.250,-91.309
1678021525.351,14.648,-43.945,-52.246,20.020,254.883
1678021525.355,4.883,-44.434,-51.270,3.906,78.613
1678021525.359,-2.930,-44.922,-52.246,-24.902,-323.242
1678021525.363,-0.488,-43.457,-56.152,-29.297,-235.352
1678021525.367,13.672,-46.387,-55.176,-3.418,48.828
1678021525.371,4.883,-46.387,-56.152,-16.602,19.043
1678021525.375,-3.418,-43.457,-58.105,-28.809,-65.918
1678021525.378,-3.906,-42.480,-54.688,-35.645,-123.047
1678021525.382,-6.348,-44.434,-51.758,-23.438,-99.609
1678021525.386,-2.930,-46.875,-54.199,-7.812,-33.691
1678021525.390,-13.184,-49.805,-57.617,0.977,-30.273
1678021525.394,-17.090,-45.898,-57.129,0.977,-84.961
1678021525.396,-16.602,-43.457,-53.711,-30.273,61.035
1678021525.400,-15.625,-47.363,-50.293,-29.297,25.879
1678021525.404,1.953,-45.898,-44.922,0.977,-74.219
1678021525.408,3.418,-45.410,-48.828,-2.441,21.484
1678021525.412,3.906,-46.387,-54.199,-16.113,-23.438
1678021525.416,0.977,-38.574,-49.805,-40.527,-106.934
1678021525.420,-15.625,-34.180,-45.898,-23.438,-160.645
1678021525.423,-15.137,-35.645,-47.852,14.648,58.105
1678021525.427,-11.719,-35.645,-52.734,16.602,416.992
1678021525.431,1.465,-35.156,-56.152,-3.418,149.902
1678021525.435,-20.020,-38.086,-58.594,-46.875,-239.746
1678021525.439,-36.621,-36.133,-57.129,-37.109,-167.969
1678021525.457,-22.461,-35.156,-58.594,6.348,11.719
1678021525.461,-3.906,-41.016,-61.523,6.348,11.719
1678021525.465,-0.488,-38.574,-63.477,-8.301,-35.645
1678021525.469,-19.531,-35.156,-59.082,-33.203,-30.762
1678021525.473,-15.137,-40.039,-58.105,-33.691,-147.949
1678021525.477,-6.348,-42.480,-62.988,-3.906,-99.121
1678021525.481,-13.672,-45.410,-64.941,-7.324,100.098
1678021525.484,-6.836,-41.992,-62.988,-15.625,264.160
1678021525.488,-9.766,-28.809,-63.477,-19.531,56.641
1678021525.492,-20.020,-30.762,-61.523,-32.715,-294.434
1678021525.496,-15.137,-38.574,-60.547,0.000,-125.488
1678021525.500,-17.090,-39.062,-62.500,17.090,130.859
1678021525.487,-15.625,-39.062,-65.918,-17.578,25.391
1678021525.491,-16.113,-37.109,-71.289,-46.875,-205.078
1678021525.495,-4.883,-36.621,-71.289,-48.828,-282.227
1678021525.499,1.465,-40.527,-69.336,-15.625,-170.898
1678021525.503,-15.137,-41.992,-68.359,13.184,-57.617
1678021525.507,-8.789,-41.504,-69.824,8.789,73.242
1678021525.511,-13.672,-42.969,-71.777,-21.973,23.926
1678021525.514,-25.391,-41.992,-68.848,-53.223,-189.453
1678021525.518,-16.113,-40.039,-67.871,-15.137,-152.344
1678021525.522,-11.719,-42.480,-69.824,16.113,-36.133
1678021525.526,-16.113,-42.969,-68.848,-5.859,73.730
1678021525.530,-13.672,-41.016,-70.312,-24.414,230.469
1678021525.562,-31.738,-41.992,-71.777,-62.500,-109.863
1678021525.566,-34.180,-46.875,-74.219,-47.852,-199.219
1678021525.570,-6.348,-43.945,-76.172,-3.906,153.320
1678021525.574,-12.207,-39.551,-73.242,-11.719,249.023
1678021525.578,-23.438,-37.598,-72.754,-31.738,-84.961
1678021525.582,-19.043,-41.504,-71.289,-44.922,-343.262
1678021525.586,-10.254,-34.180,-64.941,-33.203,-86.914
1678021525.589,-8.789,-22.949,-63.965,-13.672,61.035
1678021525.593,-4.395,-24.902,-60.059,-3.418,-54.688
1678021525.597,-32.715,-24.902,-50.781,-36.133,-30.273
1678021525.601,-75.684,-20.996,-49.316,-94.238,-105.469
1678021525.605,-84.961,-6.348,-43.457,-102.539,-169.434
1678021525.625,-95.215,7.812,-30.273,-97.168,-118.652
1678021525.629,-127.930,3.418,-18.555,-116.699,10.254
1678021525.633,-169.434,5.859,-1.953,-173.828,187.988
1678021525.637,-199.707,11.230,26.855,-240.234,-82.520
1678021525.641,-214.844,19.043,60.059,-240.723,-269.531
1678021525.645,-229.980,0.977,59.570,-221.680,34.180
1678021525.649,-207.520,11.230,45.410,-192.871,204.102
1678021525.652,-213.867,42.480,47.852,-217.285,-17.090
1678021525.656,-272.461,33.691,54.688,-287.109,-288.086
1678021525.660,-266.602,26.855,47.852,-275.391,-272.949
1678021525.664,-252.930,30.762,38.574,-235.352,-17.090
1678021525.668,-259.766,28.320,36.133,-218.262,56.152
1678021525.629,-256.348,23.926,36.621,-237.793,57.617
1678021525.633,-245.605,20.996,25.879,-257.812,-0.488
1678021525.637,-214.355,24.414,10.254,-233.887,-103.516
1678021525.641,-193.359,19.043,3.906,-182.129,-123.047
1678021525.645,-176.270,16.113,-2.441,-145.996,-17.090
1678021525.649,-158.203,13.184,-21.484,-143.066,188.965
1678021525.653,-141.602,5.859,-39.551,-164.062,-12.695
1678021525.656,-121.094,-1.953,-51.758,-144.531,-314.941
1678021525.660,-105.469,-10.254,-69.824,-90.332,-134.277
1678021525.664,-84.961,-15.137,-74.219,-74.707,123.047
1678021525.668,-59.082,-27.344,-77.148,-45.410,68.359
1678021525.672,-51.758,-43.945,-87.402,-47.852,-120.605
1678021525.682,-39.062,-33.691,-97.168,-61.523,-209.961
1678021525.686,-6.836,-28.320,-102.051,-13.672,-58.105
1678021525.690,14.160,-34.180,-110.840,16.602,9.277
1678021525.694,16.113,-40.039,-121.094,2.441,-30.273
1678021525.698,21.973,-49.805,-123.535,-6.348,-48.340
1678021525.702,29.785,-47.852,-134.766,-6.836,164.551
1678021525.706,62.500,-49.316,-142.578,49.805,445.312
1678021525.709,74.219,-50.781,-144.043,88.379,429.199
1678021525.713,58.105,-53.223,-146.973,73.242,88.379
1678021525.717,56.641,-59.082,-149.902,45.410,-124.512
1678021525.721,58.594,-52.246,-148.438,23.438,-295.898
1678021525.725,72.266,-49.805,-150.391,73.730,-282.227
1678021525.727,92.773,-53.711,-153.809,111.816,53.223
1678021525.731,102.051,-50.781,-154.785,100.586,191.895
1678021525.735,96.191,-56.152,-156.738,83.984,-109.375
1678021525.739,88.379,-60.547,-152.344,59.082,-326.660
1678021525.743,105.469,-62.500,-151.855,80.566,-193.359
1678021525.747,107.422,-68.359,-165.039,135.254,0.000
1678021525.751,93.750,-71.777,-169.922,109.375,21.973
1678021525.754,92.773,-66.406,-163.574,71.289,-73.242
1678021525.758,84.961,-66.895,-164.062,68.359,-10.254
1678021525.762,88.867,-69.336,-166.992,74.219,8.789
1678021525.766,92.285,-67.383,-166.016,97.656,-143.555
1678021525.770,96.680,-68.359,-157.715,121.582,-36.133
1678021525.771,113.281,-61.035,-159.668,95.703,130.371
1678021525.775,94.727,-57.129,-164.062,51.758,-142.090
1678021525.779,79.102,-56.641,-163.086,71.289,-309.082
1678021525.783,96.680,-58.105,-165.527,106.934,-112.793
1678021525.787,98.145,-58.105,-164.551,101.074,11.719
1678021525.791,96.680,-54.199,-162.109,82.031,2.930
1678021525.795,84.473,-49.316,-160.156,63.965,-117.676
1678021525.798,87.891,-49.316,-156.738,58.105,-164.062
1678021525.802,88.867,-44.922,-149.902,96.680,-45.898
1678021525.806,82.520,-41.504,-148.438,95.703,-12.207
1678021525.810,84.961,-45.898,-147.949,72.754,-69.336
1678021525.814,64.941,-47.363,-146.973,56.641,-61.523
1678021525.816,62.012,-44.434,-146.973,49.805,9.277
1678021525.820,70.801,-46.387,-144.531,80.566,-36.133
1678021525.824,72.266,-45.410,-140.137,95.703,-112.305
1678021525.828,78.613,-43.457,-141.113,84.961,96.191
1678021525.832,69.824,-48.340,-141.113,46.875,218.750
1678021525.836,72.266,-44.922,-136.719,17.578,-86.914
1678021525.840,80.078,-41.504,-132.324,56.152,-47.852
1678021525.843,71.289,-44.434,-129.883,95.215,233.398
1678021525.847,72.266,-41.504,-128.418,87.891,238.770
1678021525.851,66.406,-38.086,-123.047,44.922,-83.496
1678021525.855,54.199,-38.086,-119.629,19.531,-256.836
1678021525.859,48.340,-34.668,-117.676,63.477,-76.660
1678021525.863,50.293,-32.227,-119.629,84.473,26.367
1678021525.867,53.223,-36.621,-120.117,64.453,-39.551
1678021525.871,57.617,-34.180,-110.352,42.969,-48.340
1678021525.875,46.875,-30.762,-105.469,20.508,-100.098
1678021525.879,44.434,-36.133,-112.305,36.621,-192.383
1678021525.883,41.504,-41.992,-114.258,53.711,-26.855
1678021525.887,39.062,-45.410,-116.699,37.598,230.469
1678021525.890,42.969,-46.387,-120.605,22.949,331.055
1678021525.894,27.832,-48.828,-116.211,-2.441,-100.098
1678021525.898,32.227,-45.898,-113.281,17.090,-278.320
1678021525.902,28.809,-41.992,-108.398,58.105,19.043
1678021525.906,16.602,-42.969,-106.934,56.641,117.676
1678021525.922,28.809,-41.504,-109.863,50.781,-7.812
1678021525.926,26.855,-39.062,-107.422,6.836,-218.750
1678021525.930,33.203,-37.598,-107.422,-4.883,-155.762
1678021525.934,44.434,-40.527,-108.887,39.551,48.828
1678021525.938,40.527,-42.969,-106.445,49.316,44.434
1678021525.942,22.461,-36.621,-104.004,30.273,-22.949
1678021525.946,16.602,-31.738,-100.586,-7.812,114.746
1678021525.949,25.391,-34.668,-97.168,5.859,198.730
1678021525.953,34.180,-39.551,-93.262,55.176,-105.469
1678021525.957,38.574,-39.551,-88.379,60.547,-109.375
1678021525.961,37.109,-37.598,-89.355,21.973,-29.297
1678021525.965,21.973,-32.715,-95.703,-16.113,-268.555
1678021525.957,20.508,-29.297,-91.797,-5.859,-327.148
1678021525.961,32.715,-29.785,-87.891,46.387,-70.312
1678021525.965,32.227,-30.273,-89.355,59.082,72.266
1678021525.969,29.785,-31.738,-89.844,29.785,-45.898
1678021525.973,23.926,-31.738,-95.703,6.348,-210.449
1678021525.977,12.207,-30.762,-93.262,14.648,-129.395
1678021525.981,28.320,-29.785,-85.449,39.551,81.543
1678021525.984,51.758,-26.367,-86.914,42.480,87.402
1678021525.988,34.668,-28.320,-85.938,29.297,-53.711
1678021525.992,27.832,-30.762,-82.031,8.301,-126.953
1678021525.996,31.738,-30.273,-81.543,-1.465,-115.723
1678021526.000,25.391,-31.250,-87.891,32.227,-86.426
1678021526.011,30.762,-23.438,-87.891,61.523,62.500
1678021526.015,26.855,-15.625,-86.426,33.691,82.520
1678021526.019,17.090,-15.625,-86.914,-15.625,-88.379
1678021526.023,14.160,-14.160,-87.402,-28.809,-364.746
1678021526.027,20.020,-12.695,-89.355,11.719,-258.301
1678021526.031,30.762,-14.160,-87.891,43.457,152.832
1678021526.035,27.344,-10.254,-80.566,50.293,531.738
1678021526.038,-1.465,-10.254,-82.031,13.184,287.109
1678021526.042,-3.906,-13.672,-84.473,-11.719,-195.801
1678021526.046,16.113,-8.789,-80.078,16.602,-74.707
1678021526.050,18.066,-9.277,-83.984,31.738,-1.465
1678021526.054,24.902,-13.672,-87.402,15.625,-33.691
1678021526.056,20.996,-11.719,-82.031,-3.906,-63.965
1678021526.060,-3.906,-11.230,-74.219,-9.766,-188.965
1678021526.064,-2.930,-13.184,-76.172,7.812,-175.293
1678021526.068,24.414,-14.648,-78.613,29.297,-70.312
1678021526.072,16.602,-12.695,-76.660,20.508,32.227
1678021526.076,8.301,-11.230,-76.172,-2.441,101.074
1678021526.080,-3.418,-7.812,-80.078,-23.926,-93.750
1678021526.083,-2.441,-5.371,-81.055,-13.184,-202.148
1678021526.087,18.066,-6.836,-81.543,33.203,9.766
1678021526.091,21.973,-7.324,-83.496,32.715,258.301
1678021526.095,7.812,-9.277,-83.984,-4.883,29.785
1678021526.099,6.836,-8.301,-83.984,-40.039,-314.941
1678021526.117,13.184,-7.812,-88.867,-22.949,-90.332
1678021526.121,7.324,-7.812,-89.355,23.438,245.117
1678021526.125,-2.930,-8.789,-85.449,20.996,52.246
1678021526.129,-0.977,-9.766,-82.520,8.301,-99.609
1678021526.133,-7.324,-5.371,-81.055,-11.719,-217.773
1678021526.137,-11.230,-2.930,-79.590,-7.324,-246.094
1678021526.141,17.090,-0.488,-74.707,34.180,-9.766
1678021526.144,23.438,4.395,-71.777,41.504,52.246
1678021526.148,4.883,3.906,-80.566,23.926,185.547
1678021526.152,-5.371,2.930,-83.496,-7.812,75.684
1678021526.156,-5.371,-0.977,-83.008,-14.648,-257.812
1678021526.160,5.371,-3.906,-88.867,22.461,-74.707
1678021526.167,11.719,1.465,-91.797,35.156,162.109
1678021526.171,8.301,0.977,-87.891,22.461,55.664
1678021526.175,-4.883,1.465,-85.938,-2.930,-128.906
1678021526.179,-4.883,3.906,-87.891,-16.113,-213.379
1678021526.183,0.488,3.906,-83.496,24.414,3.906
1678021526.187,11.719,2.441,-73.242,45.898,94.727
1678021526.191,21.484,5.371,-72.754,24.902,88.867
1678021526.194,-8.789,15.137,-75.195,-16.602,27.344
1678021526.198,-21.973,15.137,-61.523,-32.227,-145.020
1678021526.202,1.465,20.020,-55.176,-0.488,-94.727
1678021526.206,-1.953,29.297,-50.293,11.230,-33.203
1678021526.210,-17.090,32.715,-32.715,7.324,84.961
