timestamps,TP9,AF7,AF8,TP10,Right AUX
1678021049.668,-29.785,-20.508,-18.066,-32.227,-41.504
1678021049.672,-32.715,-20.996,-12.695,-24.902,-99.121
1678021049.676,-34.668,-20.508,-11.230,-21.973,-112.793
1678021049.680,-26.855,-19.043,-12.207,-38.086,-108.887
1678021049.684,-23.926,-23.926,-13.184,-34.180,17.578
1678021049.688,-20.508,-25.879,-12.207,-20.508,59.570
1678021049.692,-20.020,-22.461,-8.789,-12.695,-41.992
1678021049.695,-23.438,-21.484,-13.184,-15.137,-8.301
1678021049.699,-17.578,-29.297,-18.066,-20.996,196.289
1678021049.703,-19.531,-23.926,-13.184,-16.113,111.328
1678021049.707,-29.297,-21.484,-14.648,-29.297,-122.559
1678021049.711,-29.297,-34.668,-9.277,-29.297,-56.641
1678021049.713,-30.762,-40.039,-3.418,-22.461,131.836
1678021049.717,-33.203,-28.320,-11.719,-27.832,-20.996
1678021049.721,-44.922,-30.762,-12.695,-31.250,-114.746
1678021049.725,-54.199,-32.715,-17.578,-33.691,25.391
1678021049.729,-37.598,-27.344,-20.996,-21.484,22.461
1678021049.733,-27.832,-28.809,-17.090,-20.508,1.465
1678021049.737,-31.250,-25.391,-12.695,-28.320,-38.574
1678021049.740,-33.203,-22.949,-11.230,-34.180,-35.156
1678021049.744,-38.574,-28.320,-15.137,-30.762,210.449
1678021049.748,-39.551,-34.668,-11.719,-31.250,50.781
1678021049.752,-40.039,-29.297,-6.348,-39.062,-164.551
1678021049.756,-45.410,-24.902,-8.301,-43.945,-141.113
1678021049.758,-43.945,-28.320,-12.207,-45.410,-140.625
1678021049.762,-43.457,-36.133,-12.207,-35.645,-146.484
1678021049.766,-37.598,-32.715,-13.672,-23.438,-116.211
1678021049.770,-31.250,-28.320,-16.113,-28.320,-69.336
1678021049.774,-29.785,-28.809,-15.137,-49.316,-103.516
1678021049.778,-29.785,-28.809,-14.160,-50.293,-90.332
1678021049.782,-29.297,-30.762,-16.113,-48.828,-24.414
1678021049.785,-21.973,-33.203,-12.207,-34.180,253.418
1678021049.789,-28.809,-33.691,-7.812,-21.973,279.785
1678021049.793,-37.598,-29.297,-13.184,-37.598,-101.074
1678021049.797,-37.598,-30.273,-15.625,-36.621,-123.047
1678021049.801,-39.062,-31.250,-16.602,-24.902,69.824
1678021049.803,-35.156,-30.762,-16.113,-31.738,-85.938
1678021049.807,-29.785,-34.668,-14.648,-35.156,-207.031
1678021049.811,-22.461,-30.762,-13.184,-19.043,-118.164
1678021049.815,-30.762,-28.809,-10.254,-17.578,-150.879
1678021049.819,-36.621,-33.691,-9.277,-31.738,-196.289
1678021049.823,-33.691,-29.297,-9.277,-28.809,-120.117
1678021049.827,-35.645,-27.344,-14.160,-20.996,-17.578
1678021049.830,-30.273,-25.391,-16.113,-15.137,210.938
1678021049.834,-29.785,-25.391,-11.230,-35.645,66.406
1678021049.838,-31.738,-27.832,-14.160,-52.246,-122.070
1678021049.842,-31.738,-25.879,-16.113,-38.086,-77.148
1678021049.846,-30.273,-25.879,-20.508,-30.273,-20.508
1678021049.849,-33.203,-23.926,-22.461,-38.086,-73.242
1678021049.853,-44.434,-28.809,-19.043,-43.457,-136.719
1678021049.857,-37.109,-28.809,-18.555,-38.574,-83.496
1678021049.861,-36.621,-30.762,-28.809,-42.480,-81.543
1678021049.865,-44.922,-36.621,-30.273,-52.246,-117.188
1678021049.869,-42.969,-34.668,-24.902,-38.086,-33.203
1678021049.873,-38.086,-25.879,-33.203,-34.668,240.723
1678021049.876,-40.039,-27.832,-35.645,-58.105,148.926
1678021049.880,-38.574,-32.227,-32.227,-57.617,-103.027
1678021049.884,-27.344,-27.344,-22.949,-41.992,27.344
1678021049.888,-26.367,-29.297,-19.043,-37.109,116.699
1678021049.892,-30.762,-35.645,-22.461,-41.016,13.184
1678021049.893,-36.621,-33.203,-24.902,-48.828,-107.422
1678021049.897,-42.480,-31.738,-21.484,-34.180,-98.633
1678021049.901,-37.598,-36.133,-18.066,-19.043,40.039
1678021049.905,-25.391,-38.086,-24.902,-26.367,-71.777
1678021049.909,-31.250,-41.504,-29.297,-42.969,-185.059
1678021049.913,-41.992,-45.898,-28.320,-46.387,-23.926
1678021049.917,-39.062,-44.434,-29.297,-21.484,373.047
1678021049.920,-43.945,-42.969,-29.785,-17.578,223.633
1678021049.924,-39.551,-45.898,-24.414,-29.785,-173.828
1678021049.928,-31.250,-43.945,-18.555,-19.531,-121.094
1678021049.932,-36.621,-41.016,-23.438,-22.949,-151.367
1678021049.936,-38.086,-41.992,-24.902,-38.574,-201.172
1678021049.954,-35.645,-38.574,-15.625,-26.367,-114.258
1678021049.958,-35.645,-34.668,-23.926,-17.578,4.883
1678021049.962,-38.574,-39.551,-27.832,-33.691,-18.555
1678021049.966,-45.410,-47.363,-20.508,-41.504,-139.648
1678021049.970,-53.711,-46.387,-22.949,-44.922,-58.105
1678021049.974,-50.293,-39.062,-18.555,-39.062,79.590
1678021049.978,-38.086,-37.598,-15.625,-28.320,10.742
1678021049.981,-41.992,-40.527,-19.043,-41.992,-155.762
1678021049.985,-48.340,-41.504,-20.508,-54.199,-156.738
1678021049.989,-47.363,-44.922,-20.020,-48.340,120.117
1678021049.993,-45.410,-48.828,-17.578,-42.480,125.000
1678021049.997,-36.133,-44.922,-22.949,-43.457,-95.703
1678021050.013,-36.133,-41.016,-22.949,-46.875,-109.863
1678021050.017,-42.969,-48.340,-21.484,-41.016,-10.254
1678021050.021,-47.852,-46.387,-27.344,-54.199,-96.191
1678021050.025,-40.527,-40.039,-28.320,-53.711,-108.887
1678021050.029,-36.621,-41.992,-24.902,-33.691,-14.160
1678021050.033,-42.480,-44.922,-20.996,-30.762,121.582
1678021050.037,-48.828,-44.434,-19.043,-40.039,-38.574
1678021050.040,-43.945,-42.969,-20.020,-45.898,-191.895
1678021050.044,-37.109,-45.410,-22.949,-43.945,-84.961
1678021050.048,-34.180,-44.922,-20.020,-33.203,248.535
1678021050.052,-20.996,-40.039,-20.020,-27.344,118.652
1678021050.056,-26.367,-47.852,-26.855,-36.133,-139.160
1678021050.043,-39.062,-47.852,-25.391,-35.645,-88.379
1678021050.047,-39.551,-42.969,-22.949,-36.133,-128.418
1678021050.051,-32.227,-45.410,-22.949,-35.156,-195.801
1678021050.055,-26.367,-43.945,-23.438,-33.203,-158.203
1678021050.059,-34.668,-44.434,-26.367,-29.785,-66.406
1678021050.063,-51.758,-43.945,-33.691,-41.504,-41.504
1678021050.067,-52.734,-45.898,-30.273,-53.223,-104.492
1678021050.070,-45.410,-46.875,-27.344,-42.969,-23.926
1678021050.074,-42.480,-41.016,-27.344,-31.738,83.008
1678021050.078,-36.621,-41.504,-31.250,-41.504,-60.059
1678021050.082,-40.527,-43.945,-36.133,-39.551,-99.609
1678021050.086,-45.898,-43.945,-37.109,-32.715,-122.070
1678021050.088,-35.156,-42.480,-34.668,-32.715,128.418
1678021050.092,-31.250,-40.527,-30.273,-21.973,337.891
1678021050.096,-39.551,-41.992,-30.273,-29.785,8.301
1678021050.100,-39.551,-42.480,-32.227,-37.109,-122.070
1678021050.104,-38.086,-51.270,-37.109,-31.738,-114.258
1678021050.108,-42.969,-60.059,-39.062,-38.574,-62.988
1678021050.112,-38.574,-50.293,-27.832,-35.645,-82.520
1678021050.115,-32.715,-45.898,-22.949,-21.973,-57.129
1678021050.119,-35.645,-50.781,-37.598,-17.090,254.883
1678021050.123,-36.133,-44.434,-38.574,-33.203,78.125
1678021050.127,-34.668,-39.062,-32.715,-42.480,-180.176
1678021050.131,-34.668,-48.340,-31.738,-33.203,-117.188
1678021050.134,-41.504,-54.688,-37.109,-26.855,-57.129
1678021050.138,-37.109,-54.688,-42.480,-37.109,-107.422
1678021050.142,-37.598,-59.570,-34.668,-34.668,-187.012
1678021050.146,-31.250,-51.758,-36.621,-11.719,-111.328
1678021050.150,-29.785,-37.109,-41.992,-25.879,-85.938
1678021050.154,-47.852,-35.645,-41.504,-62.500,-98.145
1678021050.158,-51.758,-39.551,-41.992,-65.430,16.113
1678021050.161,-50.781,-43.945,-39.062,-52.734,199.219
1678021050.165,-58.594,-44.434,-39.551,-51.270,164.551
1678021050.169,-52.246,-45.410,-37.598,-49.316,-37.598
1678021050.173,-42.480,-40.527,-31.250,-43.945,28.809
1678021050.177,-46.875,-41.504,-30.762,-37.109,214.844
1678021050.178,-52.734,-46.875,-34.180,-30.762,9.277
1678021050.182,-50.781,-42.480,-35.156,-41.504,-185.547
1678021050.186,-36.621,-43.945,-40.039,-46.875,-76.660
1678021050.190,-34.180,-45.410,-41.504,-40.039,-60.059
1678021050.194,-39.062,-39.062,-39.062,-50.293,-138.672
1678021050.198,-41.016,-42.969,-36.133,-47.852,-70.801
1678021050.202,-40.039,-48.340,-34.668,-35.156,73.730
1678021050.205,-31.738,-41.504,-38.574,-27.832,212.402
1678021050.209,-29.785,-41.016,-36.621,-26.855,12.207
1678021050.213,-36.133,-46.387,-30.273,-38.086,-160.156
1678021050.217,-41.016,-44.922,-28.320,-34.668,-0.488
1678021050.221,-41.504,-46.387,-31.250,-28.320,145.508
1678021050.224,-41.016,-56.152,-39.551,-37.598,-7.812
1678021050.228,-35.645,-51.758,-37.109,-39.551,-143.555
1678021050.232,-37.109,-48.340,-29.785,-25.879,-33.691
1678021050.236,-46.387,-49.805,-35.645,-29.785,-41.992
1678021050.240,-43.945,-45.410,-38.574,-42.969,-199.219
1678021050.244,-37.109,-46.387,-35.645,-36.621,-142.578
1678021050.248,-27.344,-50.293,-36.133,-27.344,200.684
1678021050.251,-23.926,-42.969,-34.668,-32.227,199.707
1678021050.255,-30.273,-41.992,-32.715,-42.969,-98.145
1678021050.259,-38.086,-57.617,-33.691,-44.434,-104.980
1678021050.263,-30.762,-52.246,-33.691,-38.574,15.137
1678021050.267,-21.484,-44.922,-34.668,-37.598,-31.250
1678021050.283,-28.809,-49.805,-38.574,-50.293,-112.793
1678021050.287,-34.180,-48.340,-39.551,-56.152,-83.984
1678021050.291,-31.250,-51.758,-44.922,-39.551,180.664
1678021050.295,-32.227,-52.734,-44.434,-34.180,-2.930
1678021050.299,-36.621,-49.805,-38.574,-39.062,-207.520
1678021050.303,-44.922,-55.176,-38.574,-42.480,6.836
1678021050.307,-50.781,-62.500,-37.109,-30.273,300.293
1678021050.310,-52.246,-58.105,-38.574,-25.879,65.918
1678021050.314,-47.852,-51.270,-33.691,-39.062,-187.988
1678021050.318,-44.434,-47.852,-31.250,-44.922,-124.512
1678021050.322,-44.434,-53.223,-41.992,-45.898,-133.301
1678021050.326,-43.457,-54.688,-45.898,-50.293,-189.453
1678021050.328,-47.363,-56.152,-47.363,-58.594,-182.129
1678021050.332,-43.457,-60.547,-51.758,-57.129,-98.633
1678021050.336,-49.316,-67.383,-48.340,-53.711,-114.258
1678021050.340,-51.270,-67.871,-41.016,-48.828,-146.973
1678021050.344,-47.363,-56.152,-41.016,-48.828,-131.348
1678021050.348,-54.688,-53.711,-43.945,-55.664,81.055
1678021050.352,-53.711,-55.664,-42.480,-53.711,92.285
1678021050.355,-47.852,-53.711,-40.039,-45.410,-76.660
1678021050.359,-53.711,-45.898,-42.969,-41.992,-100.098
1678021050.363,-55.176,-48.828,-41.504,-35.156,153.320
1678021050.367,-51.758,-61.523,-37.598,-41.504,251.953
1678021050.371,-51.758,-62.012,-40.527,-53.711,-94.238
1678021050.373,-48.828,-62.500,-42.480,-47.363,-152.832
1678021050.377,-41.504,-59.082,-40.039,-41.992,-53.711
1678021050.381,-41.504,-58.594,-39.062,-52.246,-167.480
1678021050.385,-57.129,-60.059,-39.062,-62.988,-206.055
1678021050.389,-61.035,-52.246,-37.109,-66.895,-158.691
1678021050.393,-45.898,-54.199,-31.250,-53.711,-51.758
1678021050.397,-47.852,-52.734,-39.062,-40.039,41.504
1678021050.400,-47.363,-50.293,-41.992,-48.340,-25.391
1678021050.404,-42.480,-57.617,-40.527,-52.246,-41.016
1678021050.408,-56.152,-62.500,-35.645,-37.109,231.445
1678021050.412,-56.152,-55.664,-37.109,-43.457,48.340
1678021050.416,-42.480,-49.805,-39.062,-48.828,-229.980
1678021050.418,-45.410,-51.270,-32.715,-43.945,-131.348
1678021050.422,-52.734,-53.223,-35.645,-49.805,-110.840
1678021050.426,-49.316,-54.688,-30.273,-49.805,-159.180
1678021050.430,-48.340,-56.152,-34.668,-42.480,-128.418
1678021050.434,-51.758,-54.688,-41.016,-46.387,-64.941
1678021050.438,-53.223,-57.617,-38.086,-51.758,-20.508
1678021050.442,-52.734,-63.965,-39.062,-55.176,-48.340
1678021050.445,-49.805,-53.223,-36.133,-55.176,-63.965
1678021050.449,-44.434,-55.664,-35.645,-42.480,105.957
1678021050.453,-46.387,-62.500,-38.086,-42.480,144.531
1678021050.457,-46.387,-57.617,-38.086,-55.176,31.738
1678021050.461,-45.898,-51.758,-34.668,-51.270,-21.973
1678021050.463,-48.828,-49.316,-35.645,-39.062,120.117
1678021050.467,-44.434,-45.410,-42.480,-38.574,18.066
1678021050.471,-34.668,-56.152,-43.457,-48.340,-120.605
1678021050.475,-21.973,-62.500,-40.527,-38.086,-84.961
1678021050.479,-29.297,-53.223,-33.691,-22.461,-105.957
1678021050.483,-44.434,-49.805,-24.414,-35.156,-33.203
1678021050.487,-44.434,-53.223,-18.066,-49.316,-99.121
1678021050.490,-45.898,-53.711,-21.484,-39.551,-24.902
1678021050.494,-49.805,-57.129,-23.926,-33.203,247.070
1678021050.498,-54.688,-58.594,-23.438,-42.969,23.438
1678021050.502,-59.570,-58.594,-28.809,-57.129,-167.480
1678021050.506,-44.434,-53.223,-28.320,-52.246,-23.926
1678021050.510,-31.250,-48.828,-24.414,-28.809,5.371
1678021050.514,-36.621,-52.734,-21.973,-16.602,-122.070
1678021050.518,-34.668,-54.199,-29.297,-22.949,-149.414
1678021050.522,-35.156,-56.152,-30.762,-20.508,19.531
1678021050.526,-33.203,-49.316,-29.297,-23.926,60.059
1678021050.530,-25.879,-48.828,-26.367,-14.160,29.785
1678021050.534,-21.484,-53.711,-20.996,-5.859,70.312
1678021050.537,-28.809,-53.223,-28.809,-16.113,205.566
1678021050.541,-38.574,-57.129,-36.133,-27.832,155.273
1678021050.545,-39.551,-52.734,-30.273,-37.598,-162.109
1678021050.549,-31.250,-46.387,-25.879,-19.531,-105.957
1678021050.553,-33.203,-59.082,-25.879,-17.090,-20.996
1678021050.554,-34.668,-64.941,-29.785,-30.762,-75.195
1678021050.558,-36.133,-56.641,-37.109,-30.762,-62.988
1678021050.562,-44.922,-52.734,-33.203,-35.156,-37.109
1678021050.566,-50.293,-58.105,-32.715,-44.434,26.367
1678021050.570,-49.316,-60.547,-34.668,-46.387,-80.078
1678021050.574,-47.363,-52.734,-37.109,-36.133,-107.910
1678021050.578,-46.875,-51.758,-41.992,-36.621,-32.715
1678021050.581,-47.852,-59.570,-44.922,-41.504,227.539
1678021050.585,-45.898,-60.059,-47.852,-31.738,195.801
1678021050.589,-42.969,-62.500,-43.457,-27.344,-103.027
1678021050.593,-37.109,-61.523,-36.621,-28.809,-115.234
1678021050.597,-30.273,-52.734,-34.180,-40.039,-104.004
1678021050.598,-41.504,-52.246,-38.086,-52.734,-166.992
1678021050.602,-45.410,-57.617,-42.969,-46.387,-125.488
1678021050.606,-38.086,-55.176,-38.574,-37.598,-57.129
1678021050.610,-43.457,-54.199,-32.715,-34.180,-110.840
1678021050.614,-46.875,-56.152,-34.180,-33.203,-121.582
1678021050.618,-55.176,-58.594,-37.109,-38.086,-158.203
1678021050.622,-58.594,-61.523,-27.344,-31.738,148.926
1678021050.625,-49.805,-59.082,-29.785,-22.949,295.898
1678021050.629,-48.340,-56.152,-42.480,-33.203,-104.492
1678021050.633,-52.734,-58.594,-39.551,-43.945,-106.934
1678021050.637,-46.387,-57.129,-44.434,-54.688,110.840
1678021050.641,-41.016,-55.176,-46.875,-50.293,-39.062
1678021050.643,-39.551,-60.547,-42.480,-40.039,-166.016
1678021050.647,-41.504,-58.594,-37.109,-44.434,-81.543
1678021050.651,-45.410,-50.293,-32.227,-41.016,7.324
1678021050.655,-42.480,-49.316,-32.715,-45.898,-92.285
1678021050.659,-46.387,-59.082,-32.715,-50.781,-162.598
1678021050.663,-47.363,-58.594,-35.645,-47.363,-11.719
1678021050.667,-34.180,-47.363,-34.180,-31.738,143.066
1678021050.670,-24.902,-47.363,-33.691,-37.109,-35.156
1678021050.674,-28.809,-53.711,-33.203,-39.551,-241.211
1678021050.678,-44.434,-56.152,-29.785,-32.715,-93.262
1678021050.682,-51.270,-57.617,-32.715,-41.992,136.230
1678021050.686,-45.898,-57.129,-34.180,-45.410,-14.160
1678021050.703,-47.852,-54.688,-32.227,-53.223,-123.535
1678021050.707,-53.223,-54.199,-32.227,-57.617,-47.852
1678021050.711,-53.711,-49.805,-34.668,-44.922,-25.391
1678021050.715,-47.852,-48.340,-34.180,-42.480,-70.312
1678021050.719,-45.898,-61.035,-29.785,-41.992,-69.824
1678021050.723,-52.246,-67.383,-31.738,-41.016,87.891
1678021050.727,-51.270,-60.547,-38.086,-41.504,62.988
1678021050.730,-42.480,-55.664,-43.457,-35.156,-154.785
1678021050.734,-34.180,-50.293,-41.016,-29.297,-146.484
1678021050.738,-42.480,-51.270,-38.086,-26.855,176.270
1678021050.742,-47.852,-57.129,-35.645,-29.297,81.055
1678021050.746,-45.410,-56.641,-35.156,-43.457,-185.547
1678021050.748,-47.363,-53.223,-40.039,-47.852,-174.316
1678021050.752,-48.828,-51.758,-40.039,-27.344,152.344
1678021050.756,-48.340,-56.641,-40.527,-21.484,221.680
1678021050.760,-45.410,-60.059,-34.668,-32.227,-87.402
1678021050.764,-40.527,-53.223,-29.297,-39.062,-105.469
1678021050.768,-43.945,-53.223,-41.992,-48.340,-24.414
1678021050.772,-47.363,-57.129,-42.480,-42.480,-37.109
1678021050.775,-36.621,-48.340,-40.039,-36.621,-151.855
1678021050.779,-25.879,-45.410,-46.387,-32.715,-97.168
1678021050.783,-39.062,-47.363,-44.922,-34.668,145.508
1678021050.787,-41.016,-45.898,-35.156,-43.457,-79.102
1678021050.791,-32.715,-43.945,-31.250,-31.250,-103.027
1678021050.793,-26.855,-42.969,-32.715,-24.902,57.617
1678021050.797,-33.691,-45.410,-28.809,-27.832,-25.391
1678021050.801,-37.109,-51.270,-30.273,-34.668,-113.281
1678021050.805,-35.645,-55.664,-33.691,-44.922,-109.375
1678021050.809,-35.645,-54.688,-33.691,-42.480,-73.730
1678021050.813,-31.250,-52.734,-29.785,-38.086,-26.855
1678021050.817,-32.715,-53.223,-35.156,-32.715,-28.809
1678021050.820,-41.504,-54.688,-41.016,-34.668,-99.121
1678021050.824,-49.316,-52.246,-33.691,-37.109,78.125
1678021050.828,-49.316,-49.805,-37.109,-38.086,201.660
1678021050.832,-51.270,-54.199,-41.504,-48.340,37.109
1678021050.836,-59.570,-58.594,-37.109,-41.504,-93.262
1678021050.839,-59.082,-53.711,-33.691,-33.691,34.668
1678021050.843,-60.547,-48.828,-43.945,-44.922,-42.480
1678021050.847,-56.641,-45.898,-44.434,-53.223,-147.461
1678021050.851,-41.992,-51.758,-37.109,-40.039,-68.359
1678021050.855,-49.316,-53.711,-41.992,-31.250,-15.137
1678021050.859,-51.270,-43.457,-44.434,-46.387,-97.168
1678021050.863,-41.992,-43.945,-41.504,-57.129,-188.477
1678021050.866,-52.246,-55.176,-39.062,-44.922,-76.660
1678021050.870,-57.129,-54.199,-41.504,-34.180,70.801
1678021050.874,-45.898,-51.758,-44.434,-46.875,-115.234
1678021050.878,-43.945,-56.152,-42.969,-64.453,-169.434
1678021050.882,-55.664,-57.129,-41.504,-62.500,-103.516
1678021050.883,-55.176,-63.965,-44.434,-66.895,-139.160
1678021050.887,-47.852,-62.012,-46.387,-64.453,-115.234
1678021050.891,-43.945,-55.664,-45.898,-52.734,-90.820
1678021050.895,-48.828,-56.641,-44.434,-55.176,-53.711
1678021050.899,-54.199,-60.059,-40.039,-56.152,30.273
1678021050.903,-48.340,-48.340,-37.598,-53.223,-22.949
1678021050.907,-43.945,-40.039,-36.133,-37.109,-17.090
1678021050.910,-43.457,-49.805,-39.062,-31.738,208.984
1678021050.914,-40.527,-49.805,-38.574,-32.227,212.402
1678021050.918,-38.574,-42.969,-39.062,-48.828,-121.094
1678021050.922,-37.109,-46.387,-41.016,-58.594,-77.637
1678021050.926,-43.457,-52.246,-44.434,-39.551,141.113
1678021050.928,-44.922,-56.152,-47.363,-33.203,-17.090
1678021050.932,-26.367,-54.199,-46.387,-31.738,-128.418
1678021050.936,-30.273,-49.805,-43.945,-31.738,-126.953
1678021050.940,-53.223,-47.363,-39.551,-49.316,-183.105
1678021050.944,-50.293,-44.922,-35.156,-53.711,-132.812
1678021050.948,-37.598,-40.039,-31.738,-50.781,-15.625
1678021050.952,-37.109,-44.434,-32.715,-47.363,133.789
1678021050.955,-40.039,-48.340,-34.668,-39.551,359.863
1678021050.959,-48.340,-47.363,-36.133,-42.480,42.969
1678021050.963,-45.410,-47.852,-35.156,-28.809,-213.379
1678021050.967,-42.480,-46.387,-31.738,-27.832,-36.621
1678021050.971,-45.410,-57.617,-38.574,-35.156,75.684
1678021050.973,-45.410,-57.129,-40.527,-37.109,-39.062
1678021050.977,-51.758,-53.711,-41.016,-45.410,-122.070
1678021050.981,-43.457,-60.059,-35.645,-40.527,-99.609
1678021050.985,-40.527,-56.152,-32.715,-33.691,-131.836
1678021050.989,-45.898,-52.246,-37.598,-37.109,-193.848
1678021050.993,-46.387,-54.688,-38.086,-43.457,-67.383
1678021050.997,-46.387,-54.688,-38.574,-52.246,117.676
1678021051.000,-47.852,-53.711,-36.133,-53.711,25.879
1678021051.004,-46.387,-47.852,-35.645,-46.387,-67.383
1678021051.008,-41.016,-43.457,-39.551,-37.109,0.488
1678021051.012,-42.969,-60.059,-35.645,-36.133,295.410
1678021051.016,-56.152,-57.129,-35.156,-40.039,335.938
1678021051.018,-53.711,-32.227,-28.320,-39.551,-74.707
1678021051.022,-50.293,-29.785,-19.043,-58.105,-116.211
1678021051.026,-67.383,-37.598,-19.043,-69.824,-26.855
1678021051.030,-83.984,-30.273,-14.160,-87.891,-116.211
1678021051.034,-110.840,-16.602,-3.906,-124.512,-212.402
1678021051.038,-149.414,-9.766,20.508,-149.414,-74.219
1678021051.042,-170.410,1.465,42.969,-166.992,125.000
1678021051.045,-198.730,2.930,49.316,-201.660,-57.129
1678021051.049,-235.840,1.465,63.965,-235.352,-208.008
1678021051.053,-253.906,10.742,77.148,-242.676,-125.000
1678021051.057,-258.301,20.996,83.984,-247.070,-8.301
1678021051.061,-258.789,22.949,85.938,-261.719,-120.117
1678021051.078,-268.555,22.461,90.332,-270.996,-166.504
1678021051.082,-280.273,24.414,93.750,-275.391,-0.488
1678021051.086,-285.156,23.438,85.938,-283.203,-23.438
1678021051.090,-277.832,28.320,79.590,-288.574,-164.062
1678021051.094,-266.113,32.227,77.148,-265.625,-158.691
1678021051.098,-248.535,25.391,68.848,-243.652,31.738
1678021051.102,-240.723,26.855,54.199,-233.887,58.105
1678021051.105,-231.934,22.461,44.922,-228.027,-64.453
1678021051.109,-210.938,9.766,39.551,-215.820,-89.844
1678021051.113,-196.777,-4.395,25.391,-188.477,118.164
1678021051.117,-178.711,-17.578,11.230,-165.527,143.555
1678021051.121,-153.320,-21.973,3.418,-146.973,-71.289
1678021051.123,-128.418,-23.438,-11.230,-126.465,-35.156
1678021051.127,-108.398,-34.668,-23.926,-104.980,130.859
1678021051.131,-83.496,-43.457,-31.250,-81.055,-14.648
1678021051.135,-57.617,-40.527,-30.762,-60.059,-129.883
1678021051.139,-46.387,-41.016,-38.086,-51.270,-72.754
1678021051.143,-36.133,-50.293,-50.293,-39.551,-31.738
1678021051.147,-31.250,-52.246,-58.594,-21.484,-62.012
1678021051.150,-23.438,-59.082,-65.430,-14.160,-131.836
1678021051.154,3.418,-70.312,-69.824,-7.324,-16.602
1678021051.158,18.066,-74.707,-72.754,13.672,244.629
1678021051.162,16.113,-78.125,-73.242,15.625,8.789
1678021051.166,12.695,-82.031,-76.172,24.414,-104.492
1678021051.168,15.137,-84.473,-83.984,37.109,-5.859
1678021051.172,26.367,-78.613,-90.332,32.227,-51.758
1678021051.176,46.875,-69.824,-90.820,37.598,-114.258
1678021051.180,54.199,-68.848,-92.285,43.457,-85.938
1678021051.184,47.852,-72.266,-94.238,48.340,50.293
1678021051.188,60.059,-70.801,-83.984,60.059,35.645
1678021051.192,62.988,-70.801,-82.520,66.406,-59.082
1678021051.195,49.805,-77.637,-89.355,63.477,-92.285
1678021051.199,52.734,-77.637,-88.379,66.406,152.344
1678021051.203,51.270,-76.660,-84.473,48.340,129.883
1678021051.207,46.875,-80.078,-78.613,53.711,-93.750
1678021051.211,47.363,-79.590,-85.938,56.641,-41.992
1678021051.213,49.805,-75.684,-88.867,47.852,72.266
1678021051.217,46.387,-75.684,-83.496,38.086,-64.453
1678021051.221,36.621,-76.172,-85.449,29.785,-188.965
1678021051.225,49.805,-73.242,-83.984,28.809,-171.387
1678021051.229,50.781,-66.406,-73.730,37.109,-98.145
1678021051.233,50.293,-69.824,-74.219,41.016,-72.266
1678021051.237,58.105,-73.242,-81.055,34.180,-25.391
1678021051.240,43.945,-71.289,-78.125,32.715,66.895
1678021051.244,39.062,-74.219,-74.707,31.738,92.285
1678021051.248,35.156,-76.172,-77.148,27.832,-75.195
1678021051.252,24.414,-76.172,-74.707,19.531,-155.762
1678021051.256,29.297,-70.312,-73.242,17.578,26.367
1678021051.258,34.668,-65.918,-75.684,20.996,174.316
1678021051.262,22.461,-64.941,-74.707,21.484,-15.625
1678021051.266,20.020,-68.848,-71.289,21.484,-79.590
1678021051.270,28.809,-62.500,-63.965,26.855,6.836
1678021051.274,26.855,-53.223,-63.477,26.367,-30.762
1678021051.278,20.020,-56.641,-62.012,15.137,-116.211
1678021051.282,10.254,-60.547,-61.035,13.672,-100.098
1678021051.285,18.066,-58.594,-65.918,19.043,113.770
1678021051.289,23.926,-54.199,-65.918,18.066,172.363
1678021051.293,14.648,-51.270,-60.547,17.578,-91.309
1678021051.297,15.137,-51.270,-62.988,15.137,-130.859
1678021051.301,8.789,-53.711,-61.035,16.113,86.426
1678021051.303,-0.977,-57.129,-55.664,16.602,38.086
1678021051.307,4.395,-54.688,-49.805,9.277,-180.176
1678021051.311,6.836,-47.363,-48.340,3.906,-152.344
1678021051.315,-1.465,-55.664,-61.035,-9.277,-71.289
1678021051.319,-10.742,-66.406,-62.012,-10.254,-99.121
1678021051.323,-6.836,-62.012,-56.641,-10.254,-64.453
1678021051.327,0.000,-58.105,-55.176,-8.789,61.035
1678021051.330,-6.348,-56.641,-54.688,-2.930,198.242
1678021051.334,-15.625,-51.758,-49.316,-12.695,-3.418
1678021051.338,-19.531,-46.387,-46.875,-22.461,-179.199
1678021051.342,-19.531,-51.758,-50.293,-19.043,-74.219
1678021051.346,-15.137,-54.688,-41.992,-9.766,-94.727
1678021051.348,-12.695,-49.805,-40.039,-13.184,-153.809
1678021051.352,-13.672,-52.734,-47.852,-23.926,-152.832
1678021051.356,-13.672,-55.664,-50.293,-26.855,-46.387
1678021051.360,-28.320,-55.664,-46.387,-25.391,-91.797
1678021051.364,-25.391,-54.199,-47.852,-20.996,-161.621
1678021051.368,-11.719,-47.852,-49.316,-16.602,-48.828
1678021051.372,-13.672,-55.664,-50.293,-11.719,173.340
1678021051.375,-23.438,-64.453,-53.223,-20.020,150.879
1678021051.379,-25.391,-59.082,-52.246,-37.109,-136.719
1678021051.383,-21.484,-52.246,-44.922,-29.297,-126.465
1678021051.387,-25.879,-56.641,-43.457,-29.785,49.805
1678021051.391,-28.809,-58.105,-51.270,-36.621,-36.133
1678021051.394,-25.879,-47.363,-51.758,-51.270,-136.230
1678021051.398,-24.902,-44.434,-50.293,-57.129,-15.625
1678021051.402,-24.902,-49.805,-42.969,-30.762,193.848
1678021051.406,-28.809,-49.316,-39.062,-30.762,84.961
1678021051.410,-27.344,-45.410,-38.574,-44.434,-113.281
1678021051.414,-34.180,-47.363,-41.992,-44.922,14.160
1678021051.418,-38.574,-51.758,-43.945,-42.969,166.016
1678021051.421,-24.414,-46.875,-39.551,-41.504,-41.992
1678021051.425,-13.184,-44.922,-39.062,-36.133,-146.973
1678021051.429,-26.855,-51.758,-40.039,-28.320,-23.926
1678021051.433,-32.227,-52.734,-43.457,-33.203,22.949
1678021051.437,-31.250,-46.875,-40.527,-30.762,-163.574
1678021051.453,-29.785,-41.504,-37.109,-20.020,-181.152
1678021051.457,-25.879,-40.039,-40.039,-27.344,-76.172
1678021051.461,-26.367,-41.016,-45.898,-31.738,-104.004
1678021051.465,-32.227,-41.016,-39.551,-37.109,-114.746
1678021051.469,-38.574,-42.480,-33.203,-38.574,-160.156
1678021051.473,-36.621,-42.480,-34.180,-23.926,141.602
1678021051.477,-39.551,-50.293,-39.062,-12.207,241.211
1678021051.480,-43.457,-58.594,-34.668,-24.414,-118.652
1678021051.484,-40.527,-56.152,-32.227,-41.992,-159.180
1678021051.488,-42.969,-51.270,-34.180,-36.621,12.695
1678021051.492,-47.363,-50.781,-31.250,-27.832,-34.180
1678021051.496,-44.434,-47.852,-33.203,-37.598,-99.609
1678021051.498,-45.898,-45.410,-35.156,-43.457,-31.250
1678021051.502,-48.340,-44.922,-28.809,-30.762,73.242
1678021051.506,-48.828,-51.270,-34.180,-36.621,-61.523
1678021051.510,-50.293,-52.246,-47.852,-47.852,-155.762
1678021051.514,-40.039,-50.293,-40.039,-41.992,-75.684
1678021051.518,-30.273,-51.270,-33.691,-32.715,-5.859
1678021051.522,-41.504,-49.805,-36.621,-23.926,36.621
1678021051.525,-48.340,-46.387,-35.156,-27.832,26.367
1678021051.529,-39.062,-42.969,-34.180,-29.297,-20.996
1678021051.533,-29.297,-39.551,-32.715,-15.625,225.098
1678021051.537,-30.762,-36.621,-26.855,-16.113,85.938
1678021051.541,-30.762,-38.574,-27.344,-13.672,-209.473
1678021051.543,-29.297,-42.480,-32.227,-15.625,-125.000
1678021051.547,-37.109,-38.086,-29.297,-29.785,-121.582
1678021051.551,-39.551,-40.039,-34.180,-37.109,-187.500
1678021051.555,-31.738,-41.016,-34.180,-32.715,-166.992
1678021051.559,-31.250,-46.875,-29.785,-26.855,-112.793
1678021051.563,-37.598,-42.480,-29.297,-34.180,-104.980
1678021051.567,-33.203,-33.691,-28.320,-31.250,-50.293
1678021051.570,-34.668,-41.504,-32.227,-21.484,-36.133
1678021051.574,-37.109,-44.922,-28.809,-22.461,153.809
1678021051.578,-32.227,-41.992,-28.809,-20.996,291.504
1678021051.582,-37.109,-40.527,-39.062,-33.691,29.785
1678021051.586,-41.016,-36.621,-36.621,-44.434,-144.043
1678021051.588,-36.621,-35.156,-32.715,-36.621,65.918
1678021051.592,-33.203,-32.715,-29.297,-29.785,11.719
1678021051.596,-39.551,-31.738,-27.344,-28.809,-152.344
1678021051.600,-47.363,-33.691,-34.180,-42.480,-167.969
1678021051.604,-51.758,-32.715,-40.039,-48.340,-176.758
1678021051.608,-44.434,-34.668,-36.133,-43.945,-52.734
1678021051.612,-37.109,-37.598,-37.598,-43.945,-115.723
1678021051.615,-39.062,-41.504,-37.109,-41.504,-85.938
1678021051.619,-49.316,-38.086,-29.297,-38.574,93.262
1678021051.623,-53.223,-31.250,-38.086,-43.457,-86.426
1678021051.627,-51.270,-34.668,-43.457,-43.457,-97.168
1678021051.631,-43.945,-38.086,-38.574,-29.785,3.906
1678021051.633,-34.180,-40.527,-41.504,-24.902,-26.367
1678021051.637,-29.785,-41.504,-44.434,-24.902,-160.645
1678021051.641,-38.086,-28.809,-43.945,-30.273,-191.406
1678021051.645,-60.547,-20.996,-45.898,-58.105,-108.887
1678021051.649,-71.777,-23.438,-44.434,-73.730,-71.289
1678021051.653,-61.523,-18.555,-40.039,-63.965,11.230
1678021051.657,-54.688,-18.066,-39.551,-66.406,-18.555
1678021051.660,-61.523,-30.273,-41.992,-71.289,115.234
1678021051.664,-68.848,-37.598,-47.363,-67.383,98.145
1678021051.668,-62.988,-39.551,-55.176,-75.195,-96.680
1678021051.672,-53.223,-33.203,-52.734,-76.660,24.414
1678021051.676,-63.965,-32.227,-46.875,-74.219,170.410
1678021051.679,-76.660,-37.109,-44.434,-70.801,11.719
1678021051.683,-63.965,-36.621,-44.922,-62.988,-192.383
1678021051.687,-52.734,-33.203,-41.504,-57.129,-145.020
1678021051.691,-50.781,-37.109,-45.898,-54.199,0.977
1678021051.695,-61.035,-43.457,-52.734,-60.547,-81.055
1678021051.699,-62.988,-45.410,-45.898,-68.359,-190.918
1678021051.703,-55.176,-45.410,-41.992,-58.594,-36.621
1678021051.706,-53.711,-44.922,-43.945,-40.039,247.559
1678021051.710,-43.457,-47.363,-43.945,-41.016,-13.672
1678021051.714,-46.875,-48.828,-44.434,-50.781,-220.215
1678021051.718,-61.523,-50.781,-39.062,-50.781,-67.871
1678021051.722,-48.828,-44.922,-34.180,-42.480,-76.660
1678021051.724,-42.969,-37.109,-40.039,-36.133,-138.184
1678021051.728,-47.852,-43.945,-46.387,-35.156,-82.520
1678021051.732,-47.852,-48.828,-47.852,-38.086,38.086
1678021051.736,-50.293,-43.457,-42.969,-45.410,-32.715
1678021051.740,-45.898,-38.086,-37.109,-52.246,-103.516
1678021051.744,-43.945,-42.480,-29.785,-41.016,-75.684
1678021051.748,-42.969,-50.293,-34.668,-36.621,167.969
1678021051.751,-41.504,-51.758,-44.434,-35.645,306.641
1678021051.755,-48.340,-46.387,-41.992,-42.480,-75.195
1678021051.759,-55.176,-44.922,-51.270,-52.246,-115.234
1678021051.763,-48.340,-53.223,-54.688,-48.828,-5.859
1678021051.767,-41.016,-45.410,-46.875,-38.574,-120.117
1678021051.767,-44.434,-40.039,-42.480,-42.480,-167.480
1678021051.771,-46.387,-40.039,-41.016,-41.992,-159.180
1678021051.775,-47.363,-36.133,-45.898,-33.203,-42.480
1678021051.779,-43.945,-39.062,-44.434,-38.086,-72.754
1678021051.783,-38.086,-42.969,-34.668,-40.527,-133.301
1678021051.787,-34.180,-36.133,-37.109,-37.598,-1.465
1678021051.791,-38.086,-32.227,-39.551,-28.809,188.477
1678021051.794,-50.781,-41.992,-45.410,-50.781,-10.254
1678021051.798,-51.270,-46.875,-45.898,-59.082,-197.754
1678021051.802,-41.016,-44.434,-42.480,-39.062,-59.570
1678021051.806,-37.109,-39.551,-37.598,-35.645,64.941
1678021051.810,-39.062,-45.898,-35.645,-41.016,-80.078
1678021051.828,-41.504,-52.246,-42.480,-40.527,-164.062
1678021051.832,-44.922,-49.805,-43.457,-41.992,-64.941
1678021051.836,-38.574,-42.480,-34.668,-41.504,-7.324
1678021051.840,-34.668,-40.527,-27.832,-40.527,-81.055
1678021051.844,-41.016,-45.898,-40.039,-50.293,-87.402
1678021051.848,-43.945,-44.922,-44.434,-58.594,106.445
1678021051.852,-42.969,-40.039,-34.668,-58.105,68.359
1678021051.855,-50.293,-40.039,-36.621,-44.434,46.387
1678021051.859,-56.152,-46.875,-42.480,-38.574,-5.859
1678021051.863,-51.270,-54.688,-40.527,-34.668,153.809
1678021051.867,-41.504,-50.293,-38.086,-30.273,293.945
1678021051.871,-42.969,-44.922,-36.621,-33.203,-38.574
1678021051.873,-50.293,-42.969,-34.180,-42.969,-44.434
1678021051.877,-41.016,-42.969,-32.715,-45.410,64.453
1678021051.881,-25.879,-46.875,-36.621,-33.203,-110.352
1678021051.885,-21.484,-37.598,-37.598,-29.785,-174.805
1678021051.889,-38.086,-28.320,-38.086,-47.363,-126.465
1678021051.893,-52.246,-34.668,-41.016,-55.176,-18.066
1678021051.897,-49.805,-41.016,-37.598,-52.246,38.086
1678021051.900,-51.270,-37.598,-34.180,-49.805,-47.852
1678021051.904,-53.223,-39.551,-29.297,-45.410,-47.852
1678021051.908,-52.734,-41.504,-25.879,-38.574,239.746
1678021051.912,-44.922,-31.738,-29.297,-41.016,85.938
1678021051.916,-38.086,-26.367,-33.691,-36.133,-179.688
1678021051.923,-41.992,-24.414,-32.227,-37.598,-37.598
1678021051.927,-43.457,-30.273,-30.762,-53.223,9.766
1678021051.931,-44.922,-36.621,-35.645,-57.617,-125.488
1678021051.935,-45.898,-33.203,-36.133,-49.316,-143.555
1678021051.939,-44.434,-36.621,-37.109,-40.527,-58.594
1678021051.943,-45.898,-36.621,-40.039,-36.621,19.043
1678021051.947,-41.992,-29.785,-31.738,-47.363,-14.648
1678021051.950,-32.227,-29.785,-24.902,-47.363,-77.637
1678021051.954,-28.320,-30.273,-34.668,-26.367,104.004
1678021051.958,-33.691,-37.109,-42.480,-33.691,106.445
1678021051.962,-39.551,-39.551,-41.016,-44.922,-40.039
1678021051.966,-41.504,-33.203,-37.109,-42.480,-34.180
1678021051.964,-40.039,-30.762,-32.715,-35.156,34.180
1678021051.968,-42.480,-34.180,-36.621,-28.320,-87.402
1678021051.972,-36.621,-36.133,-36.133,-39.551,-235.352
1678021051.976,-29.297,-40.527,-35.645,-35.156,-183.594
1678021051.980,-28.809,-40.039,-40.039,-28.809,-20.508
1678021051.984,-32.227,-36.621,-34.180,-37.598,-64.941
1678021051.988,-30.762,-37.598,-26.855,-34.668,-161.133
1678021051.991,-27.832,-38.574,-26.855,-23.438,-112.793
1678021051.995,-22.461,-35.645,-31.250,-17.578,240.234
1678021051.999,-25.879,-32.715,-34.668,-14.648,351.074
1678021052.003,-35.645,-32.227,-39.062,-28.809,-14.160
1678021052.007,-39.062,-32.227,-35.645,-44.922,-86.426
1678021052.009,-36.621,-31.738,-31.250,-39.551,-81.543
1678021052.013,-36.621,-34.668,-31.250,-30.762,-141.602
1678021052.017,-34.668,-37.598,-33.203,-43.945,-73.242
1678021052.021,-32.227,-31.250,-32.227,-48.340,-74.707
1678021052.025,-35.156,-31.250,-32.715,-42.480,-128.906
1678021052.029,-37.109,-34.668,-34.180,-44.434,-104.492
1678021052.033,-30.762,-34.668,-27.344,-45.410,-107.910
1678021052.036,-30.273,-32.227,-32.227,-30.762,83.984
1678021052.040,-44.434,-29.785,-38.574,-26.855,247.559
1678021052.044,-50.781,-38.086,-32.715,-43.457,-39.551
1678021052.048,-48.828,-40.527,-38.086,-46.875,-131.348
1678021052.052,-40.527,-35.645,-42.969,-35.645,72.266
1678021052.053,-42.480,-34.180,-39.062,-38.574,-37.598
1678021052.057,-47.852,-36.133,-39.551,-45.410,-204.590
1678021052.061,-44.434,-40.039,-36.621,-41.016,-143.066
1678021052.065,-35.156,-35.156,-28.320,-42.480,-153.320
1678021052.069,-29.297,-33.203,-26.367,-33.691,-118.652
1678021052.073,-31.738,-36.621,-32.227,-30.762,-21.484
1678021052.077,-37.109,-41.016,-33.203,-37.109,59.570
1678021052.080,-46.387,-41.992,-30.762,-30.273,271.973
1678021052.084,-44.434,-37.598,-40.039,-36.133,54.199
1678021052.088,-37.598,-40.039,-41.992,-40.039,-200.195
1678021052.092,-40.527,-37.598,-36.621,-40.039,-145.996
1678021052.096,-45.410,-35.156,-33.691,-51.758,-145.996
1678021052.098,-47.852,-42.480,-34.668,-54.199,-185.547
1678021052.102,-49.805,-39.551,-39.062,-45.410,-135.254
1678021052.106,-41.992,-34.668,-38.574,-39.062,-102.539
1678021052.110,-32.227,-40.039,-41.016,-44.434,-122.070
1678021052.114,-49.316,-44.434,-41.992,-53.711,-114.258
1678021052.118,-50.293,-36.621,-33.691,-53.223,-77.637
1678021052.122,-31.250,-26.855,-39.062,-34.180,221.191
1678021052.125,-28.809,-23.438,-45.410,-25.879,255.859
1678021052.129,-38.086,-25.879,-25.391,-40.527,-94.727
1678021052.133,-45.898,-23.438,-21.484,-43.945,-87.402
1678021052.137,-58.594,-16.113,-27.344,-46.387,218.750
1678021052.141,-80.078,-12.207,-25.879,-68.359,43.457
1678021052.143,-99.609,-0.488,-19.043,-89.355,-186.035
1678021052.147,-117.676,18.555,-8.789,-109.375,-108.398
1678021052.151,-155.273,22.949,9.766,-150.879,-36.621
1678021052.155,-200.195,13.672,29.297,-197.266,-114.258
1678021052.159,-235.840,18.555,44.434,-228.516,-191.406
1678021052.163,-248.535,33.203,65.918,-248.047,-16.602
1678021052.167,-272.461,41.992,72.754,-273.926,129.395
1678021052.170,-301.270,49.805,76.172,-300.293,-66.895
1678021052.174,-324.219,57.129,86.426,-310.059,-170.410
1678021052.178,-328.125,62.012,87.891,-306.641,-9.277
1678021052.182,-323.730,55.176,81.055,-304.688,75.195
1678021052.186,-319.336,50.293,72.754,-300.781,-72.266
1678021052.203,-302.734,52.734,67.871,-292.969,-164.062
1678021052.207,-289.551,55.176,64.941,-294.434,-54.199
1678021052.211,-273.438,54.199,61.035,-273.926,-4.883
1678021052.215,-250.000,51.758,56.641,-244.629,-143.066
1678021052.219,-237.305,45.898,48.340,-227.051,-191.895
1678021052.223,-217.773,40.039,32.715,-206.543,12.207
1678021052.227,-196.777,30.273,18.555,-198.730,30.762
1678021052.230,-181.152,22.949,13.184,-185.059,-163.574
1678021052.234,-158.691,21.973,2.930,-164.062,-89.844
1678021052.238,-135.742,13.184,-7.324,-140.625,206.543
1678021052.242,-112.793,-5.859,-13.184,-127.930,204.590
1678021052.246,-98.145,-16.602,-25.879,-122.070,-81.055
1678021052.248,-85.449,-17.578,-32.227,-85.938,-140.137
1678021052.252,-65.918,-23.438,-41.016,-53.711,51.758
1678021052.256,-50.293,-34.180,-46.875,-47.363,27.344
1678021052.260,-35.156,-40.527,-48.340,-37.598,-79.102
1678021052.264,-26.367,-39.551,-56.152,-26.367,-92.285
1678021052.268,-24.902,-52.734,-63.965,-13.672,-48.828
1678021052.272,-9.277,-61.523,-64.941,1.465,-30.273
1678021052.275,10.742,-47.852,-60.059,9.766,-124.023
1678021052.279,20.020,-53.223,-63.965,25.879,-53.223
1678021052.283,25.879,-66.406,-76.660,42.969,173.828
1678021052.287,35.645,-69.336,-79.102,42.969,-25.879
1678021052.291,45.410,-71.289,-79.590,53.711,-161.133
1678021052.294,56.641,-68.359,-85.938,63.965,-64.453
1678021052.298,56.641,-66.895,-86.914,67.383,-4.395
1678021052.302,53.223,-65.430,-85.449,74.219,-8.301
1678021052.306,56.152,-68.848,-85.449,69.336,-105.957
1678021052.310,65.918,-67.383,-83.984,76.172,-16.113
1678021052.314,64.453,-69.336,-86.914,76.172,50.293
1678021052.318,60.547,-77.148,-85.938,68.359,-24.902
1678021052.321,56.641,-77.637,-91.309,63.477,-98.633
1678021052.325,50.781,-74.707,-93.262,59.570,31.738
1678021052.329,58.105,-69.824,-83.984,73.242,73.242
1678021052.333,63.965,-71.289,-91.309,73.242,15.625
1678021052.337,65.918,-71.289,-97.168,59.570,37.598
1678021052.338,55.664,-73.730,-92.773,58.594,123.047
1678021052.342,52.246,-78.613,-88.867,53.223,-29.297
1678021052.346,53.711,-76.172,-85.449,44.434,-158.691
1678021052.350,50.293,-64.941,-84.473,52.734,-40.039
1678021052.354,52.246,-63.965,-79.102,65.430,104.004
1678021052.358,54.199,-64.941,-74.219,65.430,68.848
1678021052.362,57.129,-58.105,-73.730,55.664,-28.809
1678021052.365,62.988,-59.082,-71.777,50.781,-61.523
1678021052.369,61.035,-62.988,-73.730,63.965,192.383
1678021052.373,48.340,-56.152,-75.684,63.477,23.438
1678021052.377,41.016,-50.781,-72.754,43.457,-235.840
1678021052.381,37.598,-57.617,-67.871,33.203,-116.211
1678021052.383,38.574,-54.199,-62.988,41.992,-91.797
1678021052.387,42.969,-43.945,-65.918,53.711,-161.133
1678021052.391,46.875,-43.945,-63.965,47.852,-145.508
1678021052.395,40.039,-46.387,-61.523,46.387,-99.121
1678021052.399,36.133,-44.922,-59.570,42.480,-120.605
1678021052.403,30.762,-42.969,-57.129,41.992,-75.195
1678021052.407,33.203,-38.574,-53.223,52.734,-48.340
1678021052.410,45.410,-35.156,-49.805,57.129,199.707
1678021052.414,34.180,-41.016,-47.852,57.617,319.336
1678021052.418,17.578,-48.828,-48.340,37.109,-18.066
1678021052.422,13.672,-41.504,-49.316,19.043,-21.484
1678021052.426,15.625,-37.109,-45.898,22.949,136.719
1678021052.428,14.160,-32.715,-42.969,22.461,-20.020
1678021052.432,10.742,-28.809,-49.805,28.320,-136.719
1678021052.436,7.324,-32.715,-54.688,19.043,-74.707
1678021052.440,2.441,-35.645,-53.223,8.301,-100.586
1678021052.444,3.906,-37.109,-48.828,10.254,-134.277
1678021052.448,4.883,-41.016,-41.504,13.672,-25.879
1678021052.452,6.348,-44.922,-37.598,19.043,4.883
1678021052.455,-0.977,-38.574,-40.527,13.184,139.160
1678021052.459,-3.418,-35.156,-45.410,-6.836,22.949
1678021052.463,0.000,-33.203,-45.898,-7.324,-57.617
1678021052.467,0.977,-34.668,-45.410,4.395,-3.418
1678021052.471,0.000,-36.621,-43.457,3.906,-45.410
1678021052.488,-4.883,-30.273,-44.434,0.488,-112.305
1678021052.492,-4.883,-29.297,-46.387,-3.906,-122.070
1678021052.496,-9.766,-37.109,-43.457,-11.230,-93.262
1678021052.500,-15.625,-40.039,-38.086,-4.395,-115.723
1678021052.504,-3.418,-37.109,-39.551,10.254,-148.926
1678021052.508,0.488,-32.715,-42.969,-1.465,-81.055
1678021052.512,-6.348,-28.320,-42.480,-2.441,178.223
1678021052.515,-16.113,-22.949,-41.016,-6.836,71.289
1678021052.519,-22.461,-19.043,-39.551,-24.902,-201.660
1678021052.523,-20.020,-29.785,-40.039,-20.996,-99.609
1678021052.527,-20.508,-37.598,-43.457,-8.301,137.695
1678021052.531,-19.531,-36.621,-45.410,-18.066,66.895
1678021052.518,-10.254,-35.156,-43.945,-18.066,-60.059
1678021052.522,-10.254,-33.203,-38.574,-6.348,-109.863
1678021052.526,-11.230,-30.273,-33.691,1.953,132.324
1678021052.530,-11.719,-30.273,-34.180,-11.719,69.336
1678021052.534,-15.625,-24.902,-34.180,-14.648,-186.035
1678021052.538,-13.672,-22.461,-39.062,-6.348,-4.395
1678021052.542,-7.324,-19.531,-37.109,-7.324,110.352
1678021052.545,-10.254,-19.531,-34.180,-2.441,-33.691
1678021052.549,-23.438,-26.855,-40.527,-13.184,-157.227
1678021052.553,-27.344,-25.391,-45.898,-31.250,-48.828
1678021052.557,-29.297,-22.949,-37.598,-9.766,195.312
1678021052.561,-31.738,-28.809,-37.109,-19.043,-19.531
1678021052.579,-30.273,-31.250,-41.016,-36.133,-152.344
1678021052.583,-23.438,-25.391,-36.133,-19.043,31.250
1678021052.587,-19.043,-18.066,-37.109,-20.508,-2.441
1678021052.591,-22.461,-18.066,-37.598,-29.297,-148.438
1678021052.595,-26.855,-19.043,-35.156,-25.391,-83.008
1678021052.599,-20.996,-16.602,-35.156,-17.578,169.922
1678021052.603,-25.391,-20.020,-37.598,-20.020,208.496
1678021052.606,-31.738,-19.531,-39.062,-40.527,-95.215
1678021052.610,-26.367,-17.090,-38.086,-35.645,-219.727
1678021052.614,-29.785,-19.531,-41.992,-19.531,99.121
1678021052.618,-40.527,-20.508,-43.457,-29.785,123.047
1678021052.622,-34.668,-19.043,-40.527,-33.203,-140.625
1678021052.638,-24.414,-9.766,-39.551,-40.039,-104.492
1678021052.642,-24.902,-10.254,-34.668,-36.133,110.840
1678021052.646,-31.738,-21.484,-35.645,-26.367,-4.395
1678021052.650,-30.273,-20.020,-34.668,-31.738,-97.656
1678021052.654,-24.414,-20.996,-27.344,-29.297,8.789
1678021052.658,-38.574,-23.926,-28.320,-22.949,83.496
1678021052.662,-48.828,-21.973,-31.250,-30.762,17.578
1678021052.665,-39.551,-26.367,-32.715,-44.922,-193.359
1678021052.669,-36.621,-22.949,-29.297,-31.738,-177.246
1678021052.673,-34.668,-19.531,-26.367,-16.113,110.352
1678021052.677,-32.715,-20.020,-32.227,-36.133,-23.926
1678021052.681,-33.203,-18.555,-36.621,-48.340,-177.246
1678021052.668,-29.297,-18.555,-34.180,-42.969,-153.320
1678021052.672,-31.738,-18.555,-38.086,-43.945,-163.086
1678021052.676,-30.273,-19.531,-41.016,-43.945,-156.250
1678021052.680,-31.250,-16.602,-35.645,-47.852,-162.109
1678021052.684,-35.156,-20.996,-35.156,-53.711,-63.965
1678021052.688,-37.598,-28.809,-32.715,-41.016,56.152
1678021052.692,-28.809,-21.484,-33.691,-31.738,-41.504
1678021052.695,-13.672,-15.137,-35.156,-20.508,-18.555
1678021052.699,-19.043,-21.484,-25.391,-20.508,95.703
1678021052.703,-38.086,-29.785,-21.484,-41.504,11.719
1678021052.707,-45.898,-29.297,-23.926,-45.410,-65.918
1678021052.711,-39.062,-26.367,-18.555,-33.203,-145.020
1678021052.713,-37.598,-27.832,-17.090,-28.320,187.012
1678021052.717,-41.016,-27.344,-28.320,-24.902,384.277
1678021052.721,-34.180,-26.855,-31.250,-31.738,-42.969
1678021052.725,-43.457,-34.668,-32.715,-38.086,-226.562
1678021052.729,-46.875,-34.180,-34.180,-35.156,-141.602
1678021052.733,-31.738,-25.879,-30.273,-26.855,-76.660
1678021052.737,-29.297,-22.461,-32.227,-33.691,-74.707
1678021052.740,-29.785,-18.066,-35.645,-39.062,-48.828
1678021052.744,-28.809,-17.090,-34.668,-25.391,300.781
1678021052.748,-30.762,-18.066,-32.227,-28.320,143.066
1678021052.752,-24.902,-14.648,-30.273,-32.715,-125.977
1678021052.756,-20.508,-15.137,-25.391,-23.438,-61.035
1678021052.758,-18.066,-14.648,-20.996,-27.344,-110.352
1678021052.762,-14.648,-13.672,-24.414,-28.320,-246.582
1678021052.766,-19.043,-17.090,-27.832,-18.066,-239.746
1678021052.770,-18.555,-16.113,-29.785,-17.090,-81.055
1678021052.774,-22.949,-14.648,-31.738,-22.461,-80.078
1678021052.778,-35.645,-17.578,-33.691,-27.344,-120.605
1678021052.782,-36.133,-20.508,-36.621,-30.762,-39.062
1678021052.785,-36.621,-23.926,-39.551,-21.973,143.066
1678021052.789,-29.297,-20.996,-26.367,-18.066,129.883
1678021052.793,-28.320,-20.508,-16.602,-19.043,-45.410
1678021052.797,-29.297,-25.391,-20.508,-25.391,47.852
1678021052.801,-25.879,-28.809,-18.555,-31.738,85.449
1678021052.803,-28.809,-24.902,-20.020,-25.391,-118.164
1678021052.807,-35.645,-25.879,-26.367,-21.484,-159.668
1678021052.811,-37.109,-27.344,-24.902,-21.973,-9.766
1678021052.815,-37.598,-26.855,-23.438,-15.137,249.512
1678021052.819,-40.527,-29.785,-25.391,-26.367,109.863
1678021052.823,-43.457,-26.367,-34.668,-40.527,-63.965
1678021052.827,-41.992,-20.508,-38.086,-30.273,108.398
1678021052.830,-31.738,-23.438,-37.598,-19.043,240.723
1678021052.834,-34.180,-24.902,-38.574,-26.367,4.883
1678021052.838,-46.387,-14.160,-35.645,-35.645,-205.566
1678021052.842,-46.875,-17.578,-33.691,-29.785,-159.668
1678021052.846,-39.062,-24.414,-33.203,-25.391,-110.352
1678021052.850,-42.480,-24.902,-34.668,-36.621,-174.316
1678021052.854,-45.410,-30.273,-39.062,-38.574,-150.879
1678021052.858,-38.574,-29.297,-38.086,-24.414,-31.738
1678021052.862,-40.527,-23.438,-35.645,-23.926,-39.062
1678021052.866,-36.621,-21.484,-34.180,-28.809,-170.898
1678021052.870,-33.203,-15.625,-36.133,-29.297,-88.379
1678021052.874,-39.551,-7.812,-34.180,-16.113,145.508
1678021052.877,-44.434,-9.277,-30.273,-22.461,129.883
1678021052.881,-47.363,-22.461,-34.180,-43.457,-153.809
1678021052.885,-48.828,-26.367,-39.551,-37.598,-181.641
1678021052.889,-45.410,-20.996,-38.574,-38.086,-13.184
1678021052.893,-48.828,-20.996,-39.062,-38.086,-26.855
1678021052.893,-53.223,-21.973,-37.598,-30.273,-122.070
1678021052.897,-52.246,-24.414,-36.621,-37.598,-51.270
1678021052.901,-51.270,-21.973,-29.785,-36.621,19.043
1678021052.905,-40.527,-14.160,-23.438,-25.879,-33.691
1678021052.909,-38.086,-20.508,-38.086,-31.250,-106.445
1678021052.913,-39.062,-24.902,-45.410,-43.457,-62.500
1678021052.917,-32.227,-20.996,-36.621,-30.273,386.719
1678021052.920,-33.691,-22.949,-36.621,-22.949,341.309
1678021052.924,-35.156,-24.902,-36.133,-32.227,-104.980
1678021052.928,-33.203,-31.250,-36.621,-37.109,-145.508
1678021052.932,-30.762,-27.344,-34.668,-27.832,-108.887
1678021052.936,-36.621,-18.066,-32.715,-29.785,-134.277
1678021052.953,-39.551,-21.973,-30.762,-38.086,-165.527
1678021052.957,-33.203,-20.508,-28.809,-30.273,-113.281
1678021052.961,-32.715,-17.578,-32.715,-25.391,-62.500
1678021052.965,-36.621,-25.391,-37.109,-37.109,-95.703
1678021052.969,-37.598,-27.832,-42.480,-41.992,-80.078
1678021052.973,-37.109,-24.414,-41.992,-36.621,62.988
1678021052.977,-32.227,-20.508,-40.039,-40.039,108.887
1678021052.980,-22.949,-23.926,-39.062,-38.086,65.430
1678021052.984,-22.949,-25.391,-37.109,-30.273,-66.895
1678021052.988,-25.879,-16.113,-31.738,-19.043,107.422
1678021052.992,-21.973,-15.625,-35.645,-17.578,298.828
1678021052.996,-16.602,-25.391,-38.574,-29.297,-67.871
1678021052.998,-20.996,-28.320,-33.203,-25.879,-152.832
1678021053.002,-28.320,-20.996,-32.227,-18.555,-26.855
1678021053.006,-25.879,-20.020,-33.203,-24.902,-131.836
1678021053.010,-20.996,-20.020,-37.598,-31.738,-218.750
1678021053.014,-11.719,-16.602,-38.574,-31.738,-127.930
1678021053.018,-6.836,-17.090,-32.227,-24.902,-37.598
1678021053.022,-9.766,-17.578,-33.691,-23.438,-78.125
1678021053.025,-16.602,-15.625,-30.762,-35.645,-145.996
1678021053.029,-15.625,-14.160,-30.273,-25.879,-140.137
1678021053.033,-9.766,-16.602,-29.297,-6.836,147.461
1678021053.037,-26.855,-29.785,-22.949,-24.414,17.578
1678021053.041,-50.293,-35.645,-18.066,-43.945,-192.383
1678021053.057,-45.898,-23.926,-19.043,-38.086,-107.422
1678021053.061,-44.434,-20.508,-21.973,-33.203,-149.414
1678021053.065,-39.062,-29.785,-18.555,-28.320,-205.566
1678021053.069,-38.574,-35.156,-18.555,-20.996,-146.484
1678021053.073,-39.062,-29.297,-13.672,-26.855,-83.496
1678021053.077,-32.715,-27.344,-4.883,-27.832,-49.316
1678021053.081,-54.199,-42.969,-25.391,-32.715,-37.109
1678021053.084,-57.129,-45.410,-35.645,-41.992,-77.148
1678021053.088,-36.133,-31.738,-24.414,-33.203,51.270
1678021053.092,-38.574,-22.949,-26.367,-30.273,80.078
1678021053.096,-31.738,-28.320,-20.996,-30.762,-33.691
1678021053.100,-34.668,-30.762,-18.066,-31.738,-11.230
1678021053.087,-48.340,-31.738,-30.762,-31.250,144.043
1678021053.091,-39.062,-33.691,-15.137,-26.367,25.391
1678021053.095,-25.879,2.441,14.160,-18.555,-165.527
1678021053.099,-33.203,23.926,0.977,-35.645,-145.020
1678021053.103,-57.129,20.996,-12.207,-61.523,-100.098
1678021053.107,-107.422,2.441,-7.324,-108.398,-36.133
1678021053.111,-125.977,39.062,37.598,-125.488,-13.672
1678021053.114,-146.973,92.285,56.152,-145.020,-18.555
1678021053.118,-209.473,50.781,35.645,-215.820,-46.387
1678021053.122,-242.676,21.484,49.805,-251.953,-113.770
1678021053.126,-272.461,34.668,79.590,-273.438,-168.945
1678021053.130,-309.570,36.621,76.660,-298.828,-66.406
1678021053.133,-320.312,40.039,100.586,-293.457,184.082
1678021053.137,-312.500,62.012,115.234,-305.176,25.391
1678021053.141,-312.012,69.336,83.984,-322.754,-168.945
1678021053.145,-309.570,65.918,82.520,-312.012,17.578
1678021053.149,-293.945,67.871,84.473,-305.176,34.668
1678021053.153,-295.898,57.617,75.684,-291.504,-92.773
1678021053.157,-291.504,53.711,67.383,-274.414,-30.273
1678021053.160,-258.789,59.570,60.547,-250.488,83.984
1678021053.164,-245.117,52.734,47.363,-239.258,14.160
1678021053.168,-230.469,42.480,33.691,-221.680,-183.594
1678021053.172,-196.777,43.457,21.484,-195.801,-48.828
1678021053.176,-169.434,41.016,1.465,-180.176,123.047
1678021053.179,-157.227,18.555,-13.184,-165.527,-73.242
1678021053.183,-138.184,-0.977,-23.926,-147.949,-199.707
1678021053.187,-119.629,-0.977,-31.250,-128.418,-74.219
1678021053.191,-112.305,-11.719,-41.016,-115.723,-78.125
1678021053.195,-90.332,-27.832,-55.664,-102.051,-158.203
1678021053.199,-68.848,-34.668,-62.988,-85.449,-76.660
1678021053.203,-52.734,-37.109,-68.359,-57.617,16.113
1678021053.206,-40.039,-48.340,-67.871,-37.109,249.023
1678021053.210,-29.785,-53.711,-65.918,-36.133,111.816
1678021053.214,-4.883,-49.805,-73.242,-13.672,-186.523
1678021053.218,12.695,-50.781,-74.707,-1.465,-85.449
1678021053.222,10.254,-57.617,-69.824,3.906,-28.320
1678021053.223,31.250,-56.641,-71.289,31.250,-135.254
1678021053.227,44.434,-55.176,-75.195,38.574,-179.688
1678021053.231,43.457,-57.129,-76.660,40.039,-84.473
1678021053.235,48.828,-61.523,-78.125,46.387,-109.375
1678021053.239,50.293,-73.730,-80.566,45.898,-144.043
1678021053.243,51.270,-76.660,-85.938,44.922,-42.480
1678021053.247,59.082,-69.336,-85.938,56.152,203.125
1678021053.250,61.523,-64.453,-84.473,72.266,215.332
1678021053.254,62.012,-61.523,-89.355,62.988,-63.965
1678021053.258,61.035,-64.453,-88.867,56.152,-157.715
1678021053.262,62.500,-67.383,-85.449,76.660,113.281
1678021053.266,65.430,-61.035,-83.984,80.566,94.727
1678021053.268,60.059,-62.012,-83.496,51.270,-147.949
1678021053.272,58.594,-72.754,-80.078,39.062,-184.082
1678021053.276,57.129,-75.195,-78.125,49.805,-147.949
1678021053.280,57.129,-68.359,-76.172,60.059,-72.266
1678021053.284,60.547,-65.430,-78.125,58.594,-63.477
1678021053.288,59.570,-67.383,-76.172,63.477,43.945
1678021053.292,48.828,-61.523,-66.895,73.730,229.492
1678021053.295,45.410,-61.523,-62.988,56.152,130.371
1678021053.299,46.875,-66.895,-69.336,36.133,-86.914
1678021053.303,43.457,-64.453,-63.477,42.969,-126.465
1678021053.307,39.062,-62.500,-54.688,51.270,74.219
1678021053.311,28.320,-62.500,-52.734,53.223,-54.688
1678021053.315,29.785,-60.547,-43.457,59.570,-198.242
1678021053.319,28.809,-60.059,-42.480,46.387,-74.707
1678021053.323,31.250,-57.617,-44.922,44.434,-39.551
1678021053.327,39.062,-62.012,-38.574,48.828,-94.238
1678021053.331,37.109,-53.711,-36.621,40.527,-84.473
1678021053.335,30.762,-45.410,-36.621,43.457,84.473
1678021053.339,22.461,-50.781,-36.133,40.039,-5.859
1678021053.342,17.090,-50.781,-35.645,32.715,-111.328
1678021053.346,25.879,-47.363,-38.086,31.738,-51.758
1678021053.350,34.180,-45.898,-39.551,34.180,129.883
1678021053.354,22.949,-50.293,-41.504,22.949,198.730
1678021053.358,15.625,-48.828,-34.180,16.602,-50.293
1678021053.373,21.484,-41.504,-33.203,24.902,-149.902
1678021053.377,22.949,-42.480,-37.598,18.555,-31.250
1678021053.381,17.578,-49.805,-29.785,12.207,-61.035
1678021053.385,14.648,-47.363,-36.133,12.695,-157.715
1678021053.389,13.672,-42.480,-48.828,8.301,-168.945
1678021053.393,7.324,-47.363,-44.922,17.578,178.223
1678021053.397,1.953,-45.410,-36.133,18.555,181.152
1678021053.400,5.371,-39.551,-35.156,14.160,-145.020
1678021053.404,6.348,-38.086,-31.250,17.090,-129.395
1678021053.408,-0.977,-42.969,-29.297,10.742,-63.965
1678021053.412,-1.465,-44.922,-34.180,0.000,-62.012
1678021053.416,-2.441,-41.504,-30.762,8.301,-108.398
1678021053.418,-1.465,-41.992,-26.855,16.602,-52.246
1678021053.422,-11.230,-36.621,-29.297,-0.488,-38.086
1678021053.426,-25.879,-33.691,-33.203,-8.789,-149.414
1678021053.430,-19.043,-38.086,-33.203,-6.836,-122.559
1678021053.434,-7.812,-41.992,-28.809,-2.930,-59.570
1678021053.438,-0.488,-35.156,-24.414,8.301,52.734
1678021053.442,-4.395,-30.273,-29.297,1.465,99.121
1678021053.445,-6.348,-31.250,-36.133,-5.371,-46.875
1678021053.449,-3.418,-29.297,-28.320,4.395,53.711
1678021053.453,-6.836,-29.297,-29.297,-2.930,53.711
1678021053.457,-13.184,-28.320,-40.527,-10.254,-47.852
1678021053.461,-17.090,-31.250,-33.203,-8.301,16.113
1678021053.464,-18.555,-32.715,-24.414,-6.348,154.297
1678021053.468,-13.672,-32.227,-24.414,-8.301,84.961
1678021053.472,-1.465,-31.738,-21.973,-3.418,-121.094
1678021053.476,-11.230,-34.180,-25.391,2.441,-26.367
1678021053.480,-25.391,-36.133,-28.809,-9.277,19.531
1678021053.484,-34.180,-30.762,-25.391,-17.090,-5.371
1678021053.488,-34.668,-30.273,-27.344,-12.695,-32.227
1678021053.491,-25.879,-38.086,-28.809,-6.348,39.551
1678021053.495,-16.113,-40.527,-29.297,-8.301,209.961
1678021053.499,-22.949,-35.645,-31.738,-25.391,-7.812
1678021053.503,-31.738,-34.180,-31.738,-33.691,-160.645
1678021053.507,-24.414,-34.668,-26.855,-29.785,-83.496
1678021053.508,-16.113,-37.598,-28.809,-26.367,-168.945
1678021053.512,-17.090,-38.574,-38.574,-30.273,-201.660
1678021053.516,-15.625,-34.668,-34.180,-22.461,-190.918
1678021053.520,-12.695,-38.574,-28.320,-17.578,-154.785
1678021053.524,-24.902,-34.668,-29.297,-19.531,-53.711
1678021053.528,-30.762,-32.227,-27.344,-13.672,15.625
1678021053.532,-27.344,-38.086,-28.320,-19.043,-4.883
1678021053.535,-23.926,-41.016,-28.809,-11.719,209.961
1678021053.539,-31.738,-41.992,-29.785,-5.371,273.926
1678021053.543,-25.391,-37.598,-35.156,-21.973,-75.195
1678021053.547,-18.555,-37.109,-39.551,-34.180,-64.453
1678021053.551,-27.344,-38.574,-39.551,-29.785,29.297
1678021053.553,-15.625,-36.621,-36.621,-30.762,-117.188
1678021053.557,-16.602,-34.668,-30.273,-38.086,-264.160
1678021053.561,-25.879,-34.668,-29.297,-39.551,-190.918
1678021053.565,-25.391,-37.598,-34.668,-18.066,88.379
1678021053.569,-21.973,-41.016,-39.551,-10.742,37.109
1678021053.573,-37.109,-41.016,-42.969,-32.227,-17.090
1678021053.577,-49.805,-45.898,-40.527,-50.293,40.527
1678021053.580,-46.875,-45.898,-28.320,-34.180,227.051
1678021053.584,-27.344,-36.133,-27.344,-21.484,90.332
1678021053.588,-21.973,-37.598,-33.691,-15.625,-167.969
1678021053.592,-27.832,-39.062,-27.344,-10.742,-86.914
1678021053.596,-26.367,-35.156,-26.855,-25.391,-97.168
1678021053.597,-25.879,-34.668,-32.227,-28.809,-166.016
1678021053.601,-20.020,-32.227,-26.855,-27.832,-125.488
1678021053.605,-10.254,-35.156,-23.926,-37.109,-48.828
1678021053.609,-19.531,-36.621,-26.855,-41.016,-59.570
1678021053.613,-31.738,-31.738,-27.344,-36.621,-161.621
1678021053.617,-41.992,-37.109,-28.809,-31.738,-141.113
1678021053.621,-40.527,-43.457,-35.156,-18.555,133.301
1678021053.624,-37.109,-40.527,-34.180,-22.461,143.555
1678021053.628,-31.250,-38.086,-30.762,-41.016,-175.293
1678021053.632,-22.949,-39.551,-36.133,-43.945,-172.363
1678021053.636,-18.066,-35.156,-35.645,-35.156,130.371
1678021053.640,-27.832,-36.621,-36.133,-41.504,34.668
1678021053.643,-36.133,-41.016,-35.645,-49.805,-153.809
1678021053.647,-29.297,-38.086,-33.691,-35.645,-92.773
1678021053.651,-31.250,-32.227,-31.250,-26.855,81.543
1678021053.655,-31.738,-33.203,-30.273,-42.969,8.789
1678021053.659,-28.809,-37.598,-28.320,-50.293,-183.105
1678021053.663,-28.320,-36.133,-24.902,-32.227,33.203
1678021053.667,-20.996,-32.715,-31.738,-20.020,287.598
1678021053.670,-29.785,-28.320,-38.574,-36.621,24.414
1678021053.674,-50.781,-28.320,-34.180,-43.945,-158.691
1678021053.678,-55.664,-29.297,-30.762,-38.086,-100.098
1678021053.682,-38.086,-30.762,-35.156,-41.504,-67.871
1678021053.686,-17.578,-33.203,-35.156,-45.898,-97.656
1678021053.689,-35.156,-37.109,-36.133,-57.129,-122.070
1678021053.693,-45.410,-35.645,-36.133,-55.664,-33.691
1678021053.697,-36.621,-35.645,-32.227,-50.293,-20.996
1678021053.701,-32.715,-37.598,-30.762,-54.199,-154.785
1678021053.705,-27.344,-35.156,-35.645,-47.363,-123.535
1678021053.709,-22.949,-36.621,-35.156,-37.109,-13.184
1678021053.713,-26.367,-42.969,-30.762,-41.016,-24.414
1678021053.716,-34.668,-47.852,-37.109,-57.129,-119.141
1678021053.720,-40.527,-41.992,-35.645,-56.641,-97.656
1678021053.724,-25.879,-37.598,-30.762,-28.809,115.723
1678021053.728,-23.438,-39.551,-33.203,-33.691,90.820
1678021053.732,-46.875,-46.387,-33.691,-42.969,-116.211
1678021053.748,-53.223,-48.828,-37.109,-35.156,-129.395
1678021053.752,-40.527,-50.781,-46.875,-40.039,13.184
1678021053.756,-25.879,-52.246,-40.527,-38.574,29.785
1678021053.760,-19.531,-51.758,-33.691,-25.391,-130.859
1678021053.764,-32.227,-43.945,-40.527,-27.832,-104.980
1678021053.768,-31.738,-34.180,-40.039,-34.180,77.148
1678021053.772,-26.855,-38.574,-37.109,-24.902,0.000
1678021053.775,-21.484,-39.062,-39.062,-15.625,-138.672
1678021053.779,-11.719,-38.574,-37.109,-19.043,-38.574
1678021053.783,-16.602,-41.504,-35.156,-20.508,112.793
1678021053.787,-42.480,-40.527,-36.621,-36.133,-60.547
1678021053.791,-39.551,-40.039,-36.133,-30.273,-158.203
1678021053.793,-21.973,-40.527,-33.691,-30.762,-115.234
1678021053.797,-23.926,-38.086,-31.738,-38.574,-126.465
1678021053.801,-32.715,-37.109,-30.762,-32.715,-112.305
1678021053.805,-43.457,-39.062,-28.809,-35.645,-73.730
1678021053.809,-48.340,-44.434,-34.668,-47.363,47.852
1678021053.813,-49.805,-45.410,-35.645,-34.668,0.977
1678021053.817,-34.668,-51.270,-38.086,-39.062,-44.922
1678021053.820,-20.996,-47.363,-44.434,-50.293,-19.531
1678021053.824,-45.898,-42.480,-36.133,-34.180,157.227
1678021053.828,-66.406,-41.992,-34.668,-38.574,220.215
1678021053.832,-47.363,-41.504,-38.574,-52.246,-51.270
1678021053.836,-27.832,-42.969,-39.062,-51.758,-115.723
1678021053.838,-43.945,-45.410,-41.016,-35.156,90.820
1678021053.842,-60.547,-47.852,-43.945,-61.035,-0.977
1678021053.846,-75.684,-49.805,-40.039,-76.660,-168.945
1678021053.850,-79.102,-53.711,-36.621,-54.688,-144.043
1678021053.854,-62.500,-50.293,-44.434,-47.363,-102.051
1678021053.858,-54.199,-48.340,-42.969,-41.992,-125.000
1678021053.862,-56.641,-47.363,-40.527,-65.918,-128.906
1678021053.865,-60.547,-51.270,-46.875,-83.984,-48.828
1678021053.869,-60.547,-53.711,-45.898,-58.105,204.102
1678021053.873,-49.316,-50.781,-41.992,-45.410,90.820
1678021053.877,-42.480,-52.246,-41.992,-52.734,-107.422
1678021053.881,-54.199,-50.781,-42.969,-66.895,-42.969
1678021053.883,-55.664,-40.039,-42.480,-63.965,-105.469
1678021053.887,-54.688,-33.203,-39.551,-39.551,-166.016
1678021053.891,-46.387,-33.691,-35.645,-31.250,-103.027
1678021053.895,-49.316,-38.574,-36.621,-41.992,-5.859
1678021053.899,-49.805,-37.109,-34.668,-49.805,-60.547
1678021053.903,-34.668,-37.109,-29.785,-54.199,-100.586
1678021053.907,-32.227,-36.621,-28.320,-48.340,-56.641
1678021053.910,-33.203,-38.086,-34.180,-16.602,92.285
1678021053.914,-33.691,-45.898,-33.691,-22.949,149.414
1678021053.918,-36.133,-49.316,-33.203,-42.480,28.320
1678021053.922,-39.062,-41.504,-40.527,-55.176,-26.367
1678021053.926,-46.387,-37.109,-41.016,-52.734,130.371
1678021053.928,-46.875,-48.340,-38.574,-33.203,110.352
1678021053.932,-48.828,-49.316,-38.086,-46.387,-96.680
1678021053.936,-50.293,-39.062,-34.180,-44.922,-68.848
1678021053.940,-46.387,-38.086,-34.668,-31.738,-25.879
1678021053.944,-51.270,-41.992,-38.574,-37.109,-69.824
1678021053.948,-57.129,-46.387,-39.551,-42.480,-108.887
1678021053.952,-45.410,-39.062,-40.527,-25.879,34.668
1678021053.955,-44.922,-34.180,-39.062,-8.789,248.047
1678021053.959,-49.805,-33.203,-38.086,-20.996,-30.762
1678021053.963,-32.227,-36.133,-40.527,-33.691,-276.855
1678021053.967,-12.207,-41.504,-43.945,-29.785,-133.301
1678021053.971,-31.250,-42.480,-41.504,-22.461,-56.641
1678021053.973,-28.320,-39.062,-38.574,-5.371,-146.973
1678021053.977,-6.348,-32.227,-36.621,-20.508,-186.035
1678021053.981,-20.996,-31.250,-33.691,-40.039,-91.797
1678021053.985,-29.297,-31.250,-37.598,-33.691,-83.496
1678021053.989,-9.766,-21.484,-28.320,-16.602,-218.262
1678021053.993,-4.883,-9.277,-13.672,-8.301,-137.207
1678021053.997,-23.926,-17.578,-9.277,-21.484,127.930
1678021054.000,-46.387,-19.043,-15.625,-36.621,96.680
1678021054.004,-64.941,-10.742,-25.879,-50.293,-168.945
1678021054.008,-70.801,0.000,-6.836,-67.383,-111.816
1678021054.012,-102.051,7.324,18.555,-104.492,98.633
1678021054.016,-156.738,6.348,25.391,-159.180,-16.113
1678021054.019,-197.754,13.672,36.621,-205.566,-145.508
1678021054.023,-218.750,16.602,60.059,-223.145,5.859
1678021054.027,-224.121,26.367,80.566,-232.422,116.211
1678021054.031,-252.441,35.645,89.355,-271.484,-90.332
1678021054.035,-274.902,38.574,91.309,-295.898,-200.195
1678021054.039,-292.480,41.016,92.773,-288.574,-27.832
1678021054.043,-307.617,41.016,88.379,-295.410,179.199
1678021054.046,-308.105,41.016,84.961,-307.129,26.855
1678021054.050,-309.082,46.875,83.008,-310.059,-109.375
1678021054.054,-310.547,35.645,87.402,-296.387,-76.172
1678021054.058,-307.129,34.668,87.891,-286.133,-64.453
1678021054.062,-294.434,47.363,78.613,-281.738,-174.316
1678021054.078,-271.484,45.410,78.613,-274.414,-164.062
1678021054.082,-258.301,39.062,73.730,-263.184,-80.078
1678021054.086,-256.836,37.598,52.246,-262.207,-99.609
1678021054.090,-260.254,31.738,43.457,-253.906,-169.434
1678021054.094,-239.746,28.320,51.758,-229.980,-187.500
1678021054.098,-221.680,27.344,51.758,-214.844,172.363
1678021054.102,-222.656,30.273,42.969,-206.543,336.426
1678021054.105,-211.426,28.320,31.738,-206.055,11.230
1678021054.109,-202.148,23.438,36.133,-191.406,-77.148
1678021054.113,-181.641,20.020,41.504,-162.109,93.262
1678021054.117,-154.785,22.461,31.250,-138.672,37.109
1678021054.121,-139.648,17.090,21.973,-132.324,-105.469
1678021054.123,-147.949,5.859,9.766,-142.090,-88.379
1678021054.127,-139.160,1.465,0.000,-135.742,33.691
1678021054.131,-112.305,-5.859,-6.836,-121.582,-30.273
1678021054.135,-95.215,-13.184,-13.672,-97.168,-128.906
1678021054.139,-67.383,-17.090,-16.113,-66.406,-32.227
1678021054.143,-46.875,-25.391,-26.367,-46.387,69.824
1678021054.147,-39.062,-32.715,-43.457,-35.645,6.348
1678021054.150,-37.109,-41.504,-51.758,-28.320,-90.820
1678021054.154,-16.602,-51.758,-60.547,-3.418,-38.574
1678021054.158,16.602,-58.594,-70.801,27.344,112.793
1678021054.162,22.461,-64.941,-72.754,29.297,3.418
1678021054.166,23.438,-64.941,-75.195,33.203,-147.461
1678021054.168,35.156,-65.430,-79.102,36.621,-51.758
1678021054.172,45.898,-72.754,-73.730,43.945,113.770
1678021054.176,65.430,-74.707,-75.684,56.152,-59.570
1678021054.180,76.172,-73.730,-88.379,61.523,-105.957
1678021054.184,75.684,-75.195,-90.332,60.547,-46.387
1678021054.188,89.355,-77.637,-89.844,70.312,-41.992
1678021054.192,103.516,-81.055,-94.238,87.891,8.789
1678021054.195,117.188,-86.426,-92.773,96.680,-84.473
1678021054.199,105.957,-92.285,-94.238,108.398,135.254
1678021054.203,91.797,-85.938,-100.586,118.164,289.551
1678021054.207,100.098,-79.102,-101.074,98.633,-32.227
1678021054.211,113.770,-82.520,-100.586,110.840,-118.164
1678021054.213,119.629,-85.449,-98.633,133.301,73.730
1678021054.217,99.121,-83.008,-97.656,114.746,-46.875
1678021054.221,83.008,-86.426,-95.215,101.074,-150.879
1678021054.225,83.008,-92.773,-91.797,94.727,-147.461
1678021054.229,98.145,-91.797,-97.168,96.191,-119.629
1678021054.233,100.586,-86.426,-98.633,100.586,-17.090
1678021054.237,103.027,-87.402,-92.773,96.680,-16.113
1678021054.240,103.027,-82.520,-83.984,107.422,-71.289
1678021054.244,83.496,-78.125,-85.938,104.492,147.461
1678021054.248,77.637,-78.613,-92.773,91.797,3.418
1678021054.252,89.844,-74.707,-92.773,101.074,-188.477
1678021054.256,79.102,-72.754,-82.031,108.398,-41.504
1678021054.258,62.012,-76.660,-83.984,91.309,-24.902
1678021054.262,56.152,-76.660,-89.844,77.637,-127.930
1678021054.266,53.223,-74.219,-82.520,79.102,-113.281
1678021054.270,69.336,-71.289,-81.055,79.102,-21.484
1678021054.274,80.566,-69.336,-83.008,67.383,-65.918
1678021054.278,68.359,-65.430,-75.684,65.918,-108.398
1678021054.282,59.082,-62.012,-77.637,63.965,-18.555
1678021054.285,67.871,-64.453,-83.984,58.105,103.027
1678021054.289,71.289,-62.012,-75.684,61.035,-8.301
1678021054.293,70.801,-62.988,-65.430,77.637,-106.934
1678021054.297,72.266,-64.941,-62.500,63.965,-50.293
1678021054.301,66.406,-58.105,-59.570,76.172,129.395
1678021054.304,50.781,-59.570,-62.500,71.289,69.336
1678021054.308,46.875,-61.523,-62.988,53.223,-110.352
1678021054.312,71.289,-48.340,-55.664,71.289,-65.918
1678021054.316,67.383,-53.711,-55.176,61.035,208.496
1678021054.320,48.340,-66.406,-62.988,29.785,113.281
1678021054.324,32.715,-63.965,-55.664,31.738,-121.582
1678021054.328,24.902,-62.988,-47.852,56.152,-1.953
1678021054.331,21.973,-65.430,-57.617,51.270,262.695
1678021054.335,17.090,-60.059,-61.523,29.785,59.082
1678021054.339,21.973,-53.711,-59.082,22.949,-173.340
1678021054.343,28.809,-52.246,-59.082,20.996,-134.277
1678021054.347,40.039,-47.852,-54.688,17.578,-98.145
1678021054.348,16.602,-53.223,-53.223,13.672,-116.211
1678021054.352,-0.977,-58.594,-53.223,1.953,-135.742
1678021054.356,0.000,-56.641,-57.129,-23.926,-40.039
1678021054.360,-24.414,-67.383,-57.617,-28.320,-35.645
1678021054.364,-20.996,-68.848,-53.711,-12.695,-159.180
1678021054.368,13.184,-55.176,-46.387,3.418,-178.223
1678021054.372,-1.465,-60.059,-47.363,-1.465,104.980
1678021054.375,-28.320,-63.477,-55.176,-15.137,286.133
1678021054.379,-24.902,-40.039,-49.316,-21.973,-86.914
1678021054.383,-21.973,-34.668,-46.387,-18.555,-221.191
1678021054.387,-11.230,-52.246,-47.363,0.977,-24.414
1678021054.391,-5.859,-54.688,-50.781,-12.695,-84.473
1678021054.392,-11.230,-50.781,-51.270,-24.902,-203.125
1678021054.396,-17.090,-51.270,-45.898,-20.996,-153.320
1678021054.400,-16.602,-48.340,-43.945,-18.066,-30.273
1678021054.404,-12.695,-47.363,-41.992,-17.578,-74.219
1678021054.408,-11.230,-48.828,-42.480,-26.855,-116.699
1678021054.412,-24.902,-51.758,-54.199,-29.297,-75.684
1678021054.416,-33.691,-53.223,-57.129,-36.621,5.371
1678021054.419,-16.113,-52.246,-49.805,-37.598,23.926
1678021054.423,-13.184,-54.199,-51.758,-23.926,-88.379
1678021054.427,-26.367,-60.059,-56.152,-20.996,-32.227
1678021054.431,-26.855,-61.523,-45.898,-7.812,216.309
1678021054.435,-29.785,-54.688,-46.387,-23.926,-2.930
1678021054.453,-20.996,-50.781,-51.270,-32.227,-135.742
1678021054.457,-6.348,-47.363,-42.969,-12.207,-31.738
1678021054.461,-5.859,-46.387,-37.598,-10.742,-19.043
1678021054.465,-20.020,-45.410,-45.898,-20.020,-108.398
1678021054.469,-30.762,-40.527,-47.363,-15.625,-121.582
1678021054.473,-27.832,-37.109,-35.156,-9.277,162.109
1678021054.477,-22.461,-39.062,-31.738,-0.977,138.184
1678021054.480,-19.043,-42.969,-41.504,-9.277,-50.293
1678021054.484,-17.090,-40.039,-43.945,-15.625,-55.176
1678021054.488,-18.066,-36.621,-40.527,-20.996,202.637
1678021054.492,-26.855,-39.551,-37.598,-14.160,410.156
1678021054.496,-26.367,-43.457,-40.527,-19.531,12.207
1678021054.500,-20.020,-39.062,-43.945,-36.621,-135.742
1678021054.504,-24.414,-32.715,-38.086,-14.160,-18.066
1678021054.508,-26.855,-34.668,-44.434,-16.602,-126.465
1678021054.512,-29.297,-32.715,-46.875,-35.156,-176.758
1678021054.516,-26.855,-30.762,-38.574,-20.996,-86.914
1678021054.520,-18.066,-36.133,-36.621,-20.020,9.277
1678021054.524,-14.648,-32.227,-36.621,-26.855,5.371
1678021054.527,-17.578,-28.809,-38.574,-33.691,-140.137
1678021054.531,-18.066,-29.297,-41.016,-29.785,-139.160
1678021054.535,-12.695,-24.414,-41.504,-10.742,128.418
1678021054.539,-11.719,-30.273,-40.039,-21.973,45.898
1678021054.543,-10.742,-30.762,-34.668,-24.902,-132.812
1678021054.558,-14.160,-22.461,-39.551,-20.996,-120.117
1678021054.562,-21.484,-24.414,-44.922,-33.691,-56.152
1678021054.566,-20.020,-32.715,-40.039,-27.832,-138.672
1678021054.570,-25.879,-40.527,-39.551,-12.695,-168.457
1678021054.574,-30.273,-43.457,-37.598,-28.320,-83.984
1678021054.578,-27.832,-38.574,-36.133,-37.109,-63.477
1678021054.582,-39.551,-35.156,-37.598,-40.039,-83.496
1678021054.585,-43.945,-36.133,-41.016,-41.016,-153.809
1678021054.589,-34.668,-34.180,-39.062,-25.391,-3.906
1678021054.593,-34.180,-31.250,-35.156,-27.344,115.234
1678021054.597,-31.250,-25.879,-34.668,-41.016,-77.148
1678021054.601,-29.785,-30.273,-35.156,-46.387,-139.648
1678021054.587,-24.414,-31.250,-32.715,-33.203,95.215
1678021054.591,-27.832,-21.484,-31.250,-23.438,27.832
1678021054.595,-32.227,-13.184,-32.715,-26.367,-163.086
1678021054.599,-23.926,-12.207,-27.832,-29.785,-65.918
1678021054.603,-23.926,-15.625,-23.438,-35.156,2.930
1678021054.607,-32.227,-14.160,-20.996,-29.297,-28.320
1678021054.611,-21.973,-13.672,-21.973,-27.344,-38.574
1678021054.614,-19.043,-17.578,-26.855,-24.414,-10.254
1678021054.618,-24.414,-17.578,-27.344,-23.438,9.766
1678021054.622,-29.785,-26.367,-29.297,-30.273,-74.707
1678021054.626,-36.621,-28.320,-33.203,-21.973,-171.875
1678021054.630,-30.273,-13.184,-29.785,-16.113,-46.875
1678021054.633,-18.555,-8.789,-27.344,-7.324,163.574
1678021054.637,-18.555,-7.324,-25.391,-12.695,-35.156
1678021054.641,-20.508,1.465,-24.902,-26.367,-124.512
1678021054.645,-26.367,0.488,-30.273,-23.926,1.953
1678021054.649,-24.414,-0.488,-32.715,-13.184,0.977
1678021054.653,-19.531,0.977,-26.367,-13.672,64.941
1678021054.657,-19.531,-5.371,-27.832,-16.602,62.988
1678021054.660,-20.020,-3.906,-27.344,-16.113,114.746
1678021054.664,-26.855,-8.301,-31.738,-20.020,106.934
1678021054.668,-19.043,-11.719,-40.039,-16.113,-150.879
1678021054.672,-15.137,-1.465,-37.598,-12.207,-41.504
1678021054.676,-37.109,-5.371,-33.203,-20.996,155.762
1678021054.678,-40.527,-7.812,-36.621,-25.391,-28.809
1678021054.682,-33.691,-0.488,-31.250,-39.551,-165.527
1678021054.686,-28.320,4.395,-22.949,-41.992,-111.328
1678021054.690,-13.184,2.930,-22.949,-30.273,-47.852
1678021054.694,-14.160,0.977,-23.438,-23.438,-78.125
1678021054.698,-29.297,4.883,-20.020,-15.137,-116.699
1678021054.702,-26.855,9.277,-15.137,-12.207,-24.414
1678021054.705,-13.672,4.883,-8.789,-4.395,242.188
1678021054.709,-8.301,0.977,-9.766,-3.418,98.145
1678021054.713,-2.930,2.930,-16.602,-2.441,-174.316
1678021054.717,1.465,9.277,-18.066,-2.441,-141.113
1678021054.721,-5.859,17.090,-20.996,-5.371,-170.410
