timestamps,TP9,AF7,AF8,TP10,Right AUX
1678021266.468,-34.180,-31.250,-32.715,-24.414,-31.250
1678021266.472,-45.898,-40.527,-36.621,-40.039,-114.258
1678021266.476,-41.504,-33.203,-37.109,-48.340,-45.410
1678021266.480,-35.645,-31.250,-29.785,-26.855,77.148
1678021266.484,-38.086,-39.551,-32.227,-32.227,-77.148
1678021266.488,-31.738,-39.062,-32.715,-42.969,-71.289
1678021266.492,-31.738,-38.086,-30.762,-47.852,167.969
1678021266.495,-33.691,-34.668,-41.992,-47.363,222.168
1678021266.499,-22.949,-32.227,-41.016,-37.598,-47.852
1678021266.503,-16.602,-36.621,-25.391,-32.715,-101.562
1678021266.507,-20.508,-22.461,-23.926,-26.855,-67.871
1678021266.511,-26.855,-19.043,-28.809,-32.715,-103.516
1678021291.306,-14.648,-32.715,-30.273,-50.781,-176.758
1678021291.310,-41.504,-33.691,-22.949,-51.270,-203.613
1678021291.314,-51.758,-35.156,-24.414,-39.062,-137.207
1678021291.318,-32.715,-33.203,-29.297,-29.785,-26.367
1678021291.322,-29.785,-32.227,-32.715,-39.551,-53.223
1678021291.326,-37.109,-32.227,-36.133,-51.270,-143.066
1678021291.330,-28.809,-25.879,-33.691,-35.156,136.230
1678021291.333,-22.461,-25.391,-26.367,-29.297,157.227
1678021291.337,-21.484,-31.738,-27.344,-51.758,-126.465
1678021291.341,-19.043,-36.621,-32.227,-47.852,-64.941
1678021291.345,-27.344,-38.086,-31.250,-46.875,124.512
1678021291.349,-37.109,-36.133,-32.715,-57.129,28.809
1678021291.349,-30.273,-28.320,-35.156,-42.969,-133.301
1678021291.353,-13.184,-25.391,-35.156,-25.391,-75.195
1678021291.357,-21.484,-32.715,-33.691,-28.809,-45.410
1678021291.361,-44.922,-39.062,-30.273,-31.738,-25.879
1678021291.365,-39.551,-36.133,-32.227,-38.574,-56.152
1678021291.369,-35.645,-37.598,-33.691,-37.598,-58.594
1678021291.373,-32.715,-38.574,-30.273,-11.230,283.691
1678021291.376,-24.902,-36.133,-35.156,-5.371,236.328
1678021291.380,-18.555,-39.551,-39.551,-31.738,-129.883
1678021291.384,-30.762,-33.691,-41.016,-44.434,-190.918
1678021291.388,-25.879,-35.645,-42.969,-36.621,-204.102
1678021291.392,10.742,-34.180,-43.457,-26.855,-143.066
1678021291.398,15.137,-27.832,-42.480,-30.762,-91.309
1678021291.402,-48.340,-30.762,-37.598,-46.875,-37.598
1678021291.406,-70.801,-33.691,-39.551,-52.734,-77.637
1678021291.410,-46.875,-35.645,-40.527,-41.992,-175.781
1678021291.414,-46.387,-39.551,-29.785,-34.668,-119.629
1678021291.418,-43.945,-45.410,-24.414,-34.668,26.367
1678021291.422,-41.016,-40.527,-34.180,-32.715,84.473
1678021291.425,-38.086,-32.715,-37.598,-31.250,-58.105
1678021291.429,-36.133,-27.344,-33.203,-22.949,-191.406
1678021291.433,-51.270,-19.043,-34.668,-19.531,67.871
1678021291.437,-44.922,-20.996,-30.273,-30.273,87.402
1678021291.441,-28.320,-26.855,-30.762,-36.133,-179.688
1678021291.456,-37.598,-26.855,-40.527,-35.156,-129.395
1678021291.460,-41.992,-27.832,-41.016,-38.574,-49.316
1678021291.464,-37.598,-34.180,-40.527,-52.246,-84.473
1678021291.468,-41.504,-38.574,-39.551,-52.246,-22.949
1678021291.472,-34.180,-33.203,-40.527,-50.781,53.223
1678021291.476,-24.414,-23.926,-43.457,-58.105,301.270
1678021291.480,-31.738,-26.855,-40.039,-48.828,256.348
1678021291.483,-34.180,-29.297,-38.086,-44.434,-114.258
1678021291.487,-25.391,-28.809,-33.203,-39.062,-32.715
1678021291.491,-15.137,-26.855,-25.391,-34.668,47.363
1678021291.495,-6.836,-23.438,-29.297,-50.781,-152.832
1678021291.499,-41.504,-28.320,-31.738,-45.898,-232.910
1678021291.500,-71.777,-41.504,-31.250,-37.598,-132.324
1678021291.504,-35.645,-41.016,-33.691,-38.574,-65.430
1678021291.508,-19.043,-30.273,-33.691,-31.738,-139.648
1678021291.512,-74.219,-29.297,-29.785,-39.551,-189.453
1678021291.516,-87.891,-33.203,-28.809,-39.062,-169.922
1678021291.520,-64.453,-35.645,-33.691,-31.738,-91.309
1678021291.524,-70.312,-37.598,-36.133,-39.062,30.762
1678021291.527,-62.988,-40.527,-35.645,-29.785,24.902
1678021291.531,-56.152,-37.109,-31.738,-20.996,151.367
1678021291.535,-46.875,-33.203,-30.273,-32.715,259.277
1678021291.539,-29.785,-36.133,-30.273,-43.945,-74.219
1678021291.543,-46.387,-33.691,-28.809,-47.852,-108.887
1678021291.545,-53.223,-30.762,-34.180,-35.156,-28.809
1678021291.549,-33.691,-33.203,-31.250,-38.086,-119.629
1678021291.553,-29.297,-36.133,-28.809,-63.965,-145.996
1678021291.557,-34.668,-33.203,-36.133,-62.988,-20.996
1678021291.561,-47.852,-35.156,-33.691,-40.039,86.914
1678021291.565,-60.059,-36.621,-33.203,-51.270,45.410
1678021291.569,-49.316,-34.180,-34.180,-54.199,40.527
1678021291.572,-52.246,-41.016,-39.062,-46.387,17.090
1678021291.576,-63.477,-42.969,-40.527,-37.598,280.762
1678021291.580,-49.316,-42.480,-38.086,-34.180,200.195
1678021291.584,-53.711,-41.992,-37.109,-40.039,-132.812
1678021291.588,-76.660,-34.180,-34.668,-51.758,-163.574
1678021291.591,-66.895,-32.715,-30.762,-60.059,-138.184
1678021291.595,-53.711,-37.109,-28.320,-50.781,-155.273
1678021291.599,-55.664,-35.645,-29.297,-48.340,-133.789
1678021291.603,-62.500,-38.574,-31.738,-38.086,-20.508
1678021291.607,-59.082,-44.434,-34.668,-42.969,-37.109
1678021291.611,-57.129,-36.133,-33.691,-46.875,-34.180
1678021291.615,-52.734,-37.598,-34.668,-41.504,3.906
1678021291.618,-54.688,-44.434,-34.180,-47.852,200.195
1678021291.622,-41.504,-50.293,-35.156,-48.828,284.180
1678021291.626,-41.016,-49.316,-38.574,-51.758,4.883
1678021291.630,-57.129,-36.133,-36.621,-57.617,-88.867
1678021291.634,-49.805,-35.156,-34.668,-49.805,-75.195
1678021291.634,-41.992,-39.062,-35.156,-51.758,-128.906
1678021291.638,-22.949,-40.039,-33.691,-50.781,-153.320
1678021291.642,-9.277,-30.762,-33.203,-45.898,-64.941
1678021291.646,-31.738,-42.969,-27.832,-44.922,-3.418
1678021291.650,-52.734,-50.781,-26.855,-40.527,-69.336
1678021291.654,-52.734,-30.273,-36.621,-35.156,-101.562
1678021291.658,-52.246,-34.180,-41.504,-42.480,1.953
1678021291.661,-51.270,-37.598,-36.621,-28.809,339.355
1678021291.665,-51.758,-32.715,-40.039,-34.668,245.117
1678021291.669,-42.480,-34.668,-37.598,-52.734,-124.512
1678021291.673,-33.203,-36.621,-34.180,-29.297,-78.125
1678021291.677,-22.461,-35.156,-41.016,-18.555,-9.277
1678021291.683,-17.578,-27.832,-46.387,-31.738,-48.828
1678021291.687,-36.133,-30.762,-44.434,-57.617,-208.008
1678021291.691,-56.152,-36.621,-32.715,-62.012,-192.871
1678021291.695,-64.453,-37.598,-33.203,-51.270,-35.645
1678021291.699,-48.340,-33.691,-32.715,-53.711,-52.246
1678021291.703,-35.156,-30.273,-33.691,-52.246,-122.070
1678021291.707,-35.156,-41.016,-45.410,-55.176,115.723
1678021291.710,-33.203,-44.922,-44.922,-54.688,104.492
1678021291.714,-50.781,-43.945,-41.992,-60.547,-187.012
1678021291.718,-56.641,-41.504,-42.969,-57.617,-106.445
1678021291.722,-42.969,-35.645,-41.016,-47.852,-60.547
1678021291.726,-51.758,-29.785,-41.504,-57.617,-116.699
1678021291.726,-43.457,-25.391,-40.039,-55.176,-200.195
1678021291.730,-38.574,-35.156,-41.016,-32.227,-122.070
1678021291.734,-49.316,-37.109,-38.574,-36.133,-28.809
1678021291.738,-44.434,-38.574,-38.086,-37.109,24.414
1678021291.742,-34.180,-35.156,-40.039,-38.086,-20.996
1678021291.746,-44.922,-28.809,-36.133,-41.016,-95.703
1678021291.750,-51.270,-37.598,-36.133,-26.367,329.590
1678021291.753,-49.805,-39.062,-41.016,-25.879,333.496
1678021291.757,-41.992,-26.367,-41.016,-21.484,-68.359
1678021291.761,-28.320,-17.090,-34.668,-11.230,-88.867
1678021291.765,-43.945,-24.414,-32.715,-26.855,-101.562
1678021291.769,-57.617,-34.180,-32.227,-32.227,-176.758
1678021291.771,-37.598,-33.203,-33.203,-30.273,-137.695
1678021291.775,-25.879,-30.762,-35.645,-26.367,-81.543
1678021291.779,-33.203,-29.785,-37.109,-30.273,-153.320
1678021291.783,-32.715,-32.227,-31.250,-38.574,-241.699
1678021291.787,-28.320,-32.715,-33.691,-32.227,-186.035
1678021291.791,-27.832,-27.832,-41.504,-25.391,156.738
1678021291.795,-36.133,-26.855,-40.527,-19.043,212.402
1678021291.798,-42.480,-26.855,-40.039,-36.621,-97.656
1678021291.802,-30.273,-26.367,-31.738,-42.480,-188.965
1678021291.806,-29.785,-30.762,-28.809,-32.715,-53.711
1678021291.810,-32.227,-37.109,-35.156,-35.645,-60.059
1678021291.814,-16.602,-32.715,-30.273,-36.621,-120.605
1678021291.831,-23.926,-28.809,-29.785,-36.133,-64.453
1678021291.835,-40.039,-24.902,-34.180,-35.645,-37.598
1678021291.839,-47.852,-26.855,-31.738,-31.250,-79.102
1678021291.843,-44.922,-29.297,-28.809,-23.926,-54.199
1678021291.847,-41.504,-28.320,-32.715,-21.484,82.520
1678021291.851,-40.527,-28.320,-35.156,-23.926,255.859
1678021291.855,-28.809,-30.762,-31.738,-42.969,164.062
1678021291.858,-38.086,-27.832,-26.367,-66.895,-48.828
1678021291.862,-51.758,-27.832,-32.715,-41.504,75.684
1678021291.866,-34.668,-36.621,-41.016,-24.902,198.242
1678021291.870,-38.086,-37.598,-35.156,-49.316,-73.730
1678021291.874,-30.762,-34.180,-26.367,-55.664,-204.102
1678021291.875,-17.090,-32.715,-25.391,-39.551,-132.324
1678021291.879,-31.738,-36.133,-33.203,-29.297,-114.746
1678021291.883,-41.504,-34.180,-33.691,-29.297,-110.840
1678021291.887,-59.082,-37.109,-29.785,-39.551,-155.273
1678021291.891,-60.547,-39.062,-29.785,-43.457,-171.387
1678021291.895,-39.062,-42.480,-33.203,-44.922,-124.023
1678021291.899,-27.832,-45.898,-31.250,-29.785,-100.586
1678021291.902,-23.926,-43.945,-28.320,-26.855,-177.246
1678021291.906,-31.250,-40.039,-30.762,-30.273,81.543
1678021291.910,-40.527,-35.156,-32.227,-23.438,162.598
1678021291.914,-38.086,-38.574,-36.621,-38.574,-196.777
1678021291.918,-20.020,-38.086,-35.645,-45.898,-142.090
1678021291.920,-15.625,-29.785,-29.297,-30.762,-0.488
1678021291.924,-25.391,-34.180,-28.809,-24.902,-68.848
1678021291.928,-24.414,-39.062,-33.691,-43.945,-68.359
1678021291.932,-30.762,-32.715,-33.203,-52.246,28.320
1678021291.936,-34.668,-30.273,-30.762,-42.480,78.125
1678021291.940,-34.180,-35.156,-36.621,-36.133,65.918
1678021291.944,-34.180,-34.180,-37.109,-38.574,70.312
1678021291.947,-38.086,-33.203,-36.133,-43.945,83.008
1678021291.951,-32.715,-34.180,-38.574,-36.133,109.863
1678021291.955,-28.809,-30.273,-39.551,-35.645,-103.027
1678021291.959,-32.715,-30.273,-41.504,-37.598,-240.723
1678021291.963,-33.691,-31.738,-38.086,-43.457,-59.082
1678021291.966,-33.691,-32.227,-28.809,-38.086,4.395
1678021291.970,-46.875,-43.945,-30.762,-45.898,-157.715
1678021291.974,-44.922,-47.852,-33.691,-49.805,-160.645
1678021291.978,-30.762,-34.180,-27.344,-43.457,-102.051
1678021291.982,-38.574,-31.250,-29.297,-45.410,-71.777
1678021291.986,-37.598,-34.180,-28.809,-32.227,-26.367
1678021291.990,-30.762,-37.109,-21.973,-43.945,-16.602
1678021291.993,-29.297,-37.109,-23.438,-30.273,151.855
1678021291.997,-38.086,-40.039,-24.414,-19.043,140.137
1678021292.001,-46.875,-36.133,-28.320,-48.340,-138.672
1678021292.005,-44.922,-35.645,-32.715,-47.363,-104.492
1678021292.009,-31.738,-32.227,-30.762,-57.617,-34.180
1678021292.011,-30.762,-30.273,-31.250,-51.270,-85.449
1678021292.015,-49.316,-39.551,-31.738,-33.691,-90.332
1678021292.019,-55.176,-42.480,-29.785,-42.969,-7.812
1678021292.023,-49.805,-39.062,-27.344,-41.504,107.422
1678021292.027,-60.547,-34.668,-30.273,-45.898,-12.695
1678021292.031,-45.898,-28.809,-31.250,-46.875,-95.703
1678021292.035,-30.273,-28.809,-30.762,-45.410,71.777
1678021292.038,-42.969,-36.133,-34.180,-38.574,315.918
1678021292.042,-41.992,-29.785,-33.203,-37.598,215.332
1678021292.046,-47.852,-23.438,-35.156,-62.500,-49.316
1678021292.050,-56.641,-25.879,-28.809,-53.223,-58.105
1678021292.054,-57.617,-31.250,-29.297,-31.738,-47.852
1678021292.056,-58.594,-35.645,-33.203,-37.598,-74.707
1678021292.060,-44.434,-35.645,-23.438,-38.574,-85.938
1678021292.064,-38.574,-24.414,-21.973,-41.504,-15.137
1678021292.068,-41.504,-21.484,-30.273,-44.922,-38.086
1678021292.072,-40.527,-26.367,-24.414,-25.391,-70.801
1678021292.076,-32.227,-19.531,-22.461,-19.043,-15.137
1678021292.080,-36.621,-20.996,-30.762,-29.785,139.648
1678021292.083,-31.250,-23.926,-32.715,-29.785,190.918
1678021292.087,-11.719,-26.367,-31.738,-35.645,-119.141
1678021292.091,-30.273,-32.227,-37.598,-41.504,-167.969
1678021292.095,-50.781,-31.250,-35.156,-38.574,-41.992
1678021292.099,-43.945,-36.621,-34.180,-28.809,-114.746
1678021292.099,-40.039,-40.039,-34.180,-35.645,-123.535
1678021292.103,-45.410,-44.434,-32.227,-60.547,-100.098
1678021292.107,-50.293,-46.387,-39.551,-48.828,-92.285
1678021292.111,-38.574,-42.480,-41.992,-24.414,-43.945
1678021292.115,-24.414,-38.574,-38.086,-29.785,0.977
1678021292.119,-24.902,-37.109,-35.645,-37.109,29.785
1678021292.123,-38.086,-38.086,-36.621,-20.508,306.152
1678021292.126,-61.035,-42.480,-34.180,-32.227,324.219
1678021292.130,-64.941,-42.969,-32.227,-42.969,-93.262
1678021292.134,-55.664,-41.992,-30.273,-20.508,-70.801
1678021292.138,-45.898,-45.898,-24.414,-20.508,28.320
1678021292.142,-33.203,-39.551,-25.879,-43.457,-182.617
1678021292.147,-39.551,-34.180,-28.320,-45.410,-217.285
1678021292.151,-50.293,-36.621,-35.156,-32.715,-82.031
1678021292.155,-48.828,-41.992,-31.738,-19.531,-100.098
1678021292.159,-40.039,-30.273,-31.250,-36.621,-170.898
1678021292.163,-28.320,-17.090,-42.480,-61.035,-205.566
1678021292.167,-27.344,-34.668,-44.434,-51.758,-98.633
1678021292.171,-45.898,-52.734,-42.480,-34.668,-64.453
1678021292.174,-62.988,-31.738,-43.945,-39.062,-126.953
1678021292.178,-46.875,-25.391,-45.898,-37.109,-102.539
1678021292.182,-39.551,-42.480,-43.945,-36.133,186.523
1678021292.186,-45.898,-42.969,-41.016,-51.270,216.797
1678021292.190,-50.293,-36.133,-39.551,-54.688,-131.836
1678021292.205,-29.785,-35.156,-34.180,-42.480,-64.453
1678021292.209,-30.273,-35.645,-32.715,-44.922,0.000
1678021292.213,-51.758,-36.621,-36.621,-56.641,-144.043
1678021292.217,-41.504,-37.109,-33.203,-42.969,-189.453
1678021292.221,-32.715,-41.016,-31.738,-27.832,-13.672
1678021292.225,-38.086,-49.805,-32.715,-31.738,198.730
1678021292.229,-45.410,-47.363,-32.227,-31.738,73.242
1678021292.232,-40.039,-29.297,-27.832,-38.086,-193.359
1678021292.236,-39.062,-26.855,-25.879,-41.992,-133.789
1678021292.240,-40.039,-35.156,-28.809,-26.855,57.129
1678021292.244,-29.785,-33.203,-29.297,-20.996,-55.664
1678021292.248,-22.949,-29.785,-24.414,-28.320,-62.012
1678021292.458,-10.742,-30.273,-24.414,-31.738,44.922
1678021292.462,-14.160,-33.691,-31.738,-38.086,-10.742
1678021292.466,-14.160,-28.320,-33.203,-39.062,-154.785
1678021292.470,-23.926,-28.320,-32.715,-36.621,-124.512
1678021292.474,-40.527,-32.227,-28.809,-49.805,-95.215
1678021292.478,-32.227,-32.227,-31.738,-49.805,-104.492
1678021292.482,-30.273,-41.992,-37.598,-48.828,-35.156
1678021292.485,-24.414,-47.852,-37.598,-52.246,-96.680
1678021292.489,-8.301,-42.969,-41.016,-37.109,57.617
1678021292.493,-8.789,-35.156,-39.551,-29.785,186.523
1678021292.497,-43.457,-34.180,-34.668,-47.852,-133.301
1678021292.501,-42.969,-28.320,-30.762,-57.617,-199.219
1678021292.504,-38.574,-26.367,-36.621,-52.734,-92.285
1678021292.508,-29.785,-34.668,-39.062,-31.250,6.348
1678021292.512,-16.113,-39.062,-32.715,-39.551,-94.727
1678021292.516,-35.156,-39.551,-30.762,-51.270,-45.410
1678021292.520,-53.223,-37.109,-31.738,-54.688,177.246
1678021292.524,-50.293,-36.621,-34.180,-47.363,33.691
1678021292.528,-48.828,-37.598,-36.133,-34.668,-98.633
1678021292.531,-37.598,-36.133,-30.762,-25.391,1.953
1678021292.535,-29.785,-36.621,-34.180,-38.574,130.859
1678021292.539,-45.410,-41.992,-41.504,-51.758,-90.332
1678021292.543,-34.180,-46.875,-33.691,-43.457,-207.520
1678021292.547,-50.781,-46.875,-35.156,-49.316,-107.422
1678021292.509,-71.777,-46.875,-32.715,-45.410,-54.688
1678021292.513,-59.570,-37.598,-29.297,-36.621,-112.793
1678021292.517,-56.152,-31.250,-31.250,-39.062,-180.664
1678021292.521,-50.781,-33.691,-32.715,-35.645,-103.516
1678021292.525,-28.320,-33.203,-32.715,-27.832,14.160
1678021292.529,-29.297,-38.086,-32.715,-28.809,8.789
1678021292.533,-39.062,-35.645,-30.762,-49.316,-49.805
1678021292.536,-37.109,-32.227,-27.832,-56.152,134.277
1678021292.540,-40.527,-37.598,-30.273,-46.387,223.145
1678021292.544,-40.527,-40.039,-30.762,-47.852,-11.719
1678021292.548,-33.203,-34.668,-28.320,-35.156,-66.406
1678021292.552,-26.855,-35.645,-29.785,-31.738,-78.613
1678021292.511,-26.855,-42.480,-29.297,-53.711,-153.320
1678021292.515,-38.574,-31.738,-33.691,-50.293,-178.711
1678021292.519,-46.387,-24.902,-35.156,-30.273,-115.723
1678021292.523,-42.969,-29.297,-31.738,-38.086,-28.320
1678021292.527,-38.574,-30.762,-32.227,-50.293,-64.453
1678021292.531,-46.875,-28.809,-31.738,-51.758,-44.922
1678021292.535,-58.594,-36.621,-37.598,-53.711,76.660
1678021292.538,-47.363,-39.551,-38.574,-29.297,320.801
1678021292.542,-49.316,-26.855,-28.320,-21.484,320.801
1678021292.546,-53.711,-26.855,-28.809,-36.621,-13.672
1678021292.550,-45.410,-27.832,-32.227,-36.621,-114.746
1678021292.554,-51.270,-24.414,-36.133,-45.410,-154.785
1678021292.517,-47.852,-23.438,-37.109,-44.434,-192.871
1678021292.521,-42.969,-20.020,-35.156,-37.109,-141.602
1678021292.525,-40.039,-23.438,-36.621,-42.480,-61.523
1678021292.529,-28.320,-29.785,-37.109,-54.688,-47.363
1678021292.533,-27.344,-27.344,-38.574,-58.105,-139.160
1678021292.537,-60.547,-31.250,-41.992,-57.617,-104.980
1678021292.541,-63.965,-36.133,-40.527,-46.875,202.148
1678021292.544,-47.363,-30.273,-41.016,-22.949,237.793
1678021292.548,-62.500,-32.227,-41.016,-40.039,-21.973
1678021292.552,-61.523,-27.832,-36.621,-59.082,-40.039
1678021292.556,-42.480,-15.137,-29.297,-38.574,-59.570
1678021292.560,-44.434,-19.531,-26.367,-32.227,-49.805
1678021292.518,-40.527,-30.762,-26.367,-33.203,-66.406
1678021292.522,-60.547,-30.762,-22.949,-52.246,-85.449
1678021292.526,-72.266,5.371,-14.648,-74.219,-120.605
1678021292.530,-69.336,34.180,-5.371,-78.125,-158.691
1678021292.534,-127.441,12.695,-5.371,-122.559,-73.242
1678021292.538,-162.598,6.348,15.137,-151.855,32.227
1678021292.542,-171.875,8.789,43.945,-153.809,324.707
1678021292.545,-190.430,4.883,60.059,-183.105,168.945
1678021292.549,-212.891,23.438,71.777,-216.797,-191.895
1678021292.553,-233.887,20.996,87.891,-245.117,-159.180
1678021292.557,-246.582,15.625,85.449,-276.855,-50.781
1678021292.561,-265.137,27.344,80.566,-287.598,-54.199
1678021292.536,-274.902,33.203,81.543,-289.551,-183.594
1678021292.540,-293.457,31.738,80.078,-292.480,-104.004
1678021292.544,-309.570,26.855,83.496,-296.387,-44.434
1678021292.548,-284.668,26.367,78.125,-283.691,-138.672
1678021292.552,-289.062,25.391,62.012,-270.996,-74.219
1678021292.556,-277.832,30.273,60.547,-267.090,-22.461
1678021292.560,-241.699,34.180,59.082,-258.301,-49.805
1678021292.563,-221.191,35.645,52.246,-229.492,-125.000
1678021292.567,-208.496,31.738,46.387,-204.102,-218.262
1678021292.571,-197.266,19.043,35.156,-196.777,-44.922
1678021292.575,-192.383,16.113,13.672,-187.012,0.488
1678021292.579,-169.434,13.184,-5.371,-171.875,-176.270
1678021292.580,-124.023,-15.625,-13.184,-151.855,-49.805
1678021292.584,-107.422,-17.090,-17.090,-127.930,104.492
1678021292.588,-91.309,4.395,-28.320,-113.770,-34.180
1678021292.592,-80.078,-1.465,-40.527,-107.910,-93.262
1678021292.596,-87.891,-16.602,-44.922,-93.750,-29.297
1678021292.600,-73.730,-27.344,-51.758,-61.523,89.844
1678021292.604,-57.129,-34.668,-60.059,-33.203,108.398
1678021292.607,-30.273,-41.016,-65.918,-30.273,-49.316
1678021292.611,-4.395,-40.527,-71.289,-24.902,-55.176
1678021292.615,6.836,-44.922,-70.801,-3.906,278.809
1678021292.619,4.883,-49.805,-76.172,12.695,211.426
1678021292.623,16.602,-46.387,-85.938,22.949,-98.633
1678021292.626,39.062,-50.293,-81.543,33.203,-77.637
1678021292.630,38.086,-55.664,-80.078,33.691,-55.176
1678021292.634,45.898,-54.199,-90.332,25.879,-68.359
1678021292.638,66.406,-62.012,-91.797,38.086,2.441
1678021292.642,72.266,-64.941,-90.820,62.500,141.113
1678021292.646,64.941,-61.035,-88.379,67.871,112.793
1678021292.650,63.965,-61.523,-83.008,71.777,4.395
1678021292.653,65.430,-61.523,-85.449,67.383,-143.555
1678021292.657,55.664,-66.895,-90.332,70.312,50.781
1678021292.661,45.410,-73.730,-92.285,78.613,183.594
1678021292.665,62.988,-70.312,-93.750,67.871,-89.844
1678021292.669,70.312,-65.918,-89.844,71.289,-177.246
1678021292.670,57.129,-68.359,-83.984,60.059,-142.578
1678021292.674,58.105,-67.871,-83.008,48.828,-154.297
1678021292.678,61.035,-55.176,-81.543,60.547,-143.555
1678021292.682,58.105,-52.734,-79.590,58.105,-23.926
1678021292.686,62.500,-52.734,-82.520,55.664,42.480
1678021292.690,60.547,-44.922,-86.426,60.059,-73.730
1678021292.694,43.457,-53.711,-82.031,59.570,-92.285
1678021292.697,39.062,-63.965,-80.566,55.176,12.695
1678021292.701,45.898,-55.176,-79.590,68.359,284.668
1678021292.705,42.480,-52.246,-73.730,55.664,214.844
1678021292.709,45.898,-54.688,-67.871,19.531,-134.277
1678021292.713,46.387,-54.199,-67.383,27.832,-168.945
1678021292.717,26.367,-54.199,-67.383,53.223,-177.734
1678021292.721,23.438,-51.270,-64.453,37.109,-151.367
1678021292.725,33.691,-61.035,-66.895,20.020,-128.906
1678021292.729,38.086,-60.059,-66.895,17.090,-124.512
1678021292.733,45.410,-47.363,-66.406,11.230,-95.703
1678021292.737,32.715,-51.758,-66.895,16.602,-43.945
1678021292.741,11.230,-49.805,-61.523,30.273,-66.406
1678021292.744,22.949,-41.504,-52.734,40.527,147.949
1678021292.748,30.273,-45.898,-51.270,33.203,233.398
1678021292.752,15.625,-51.270,-55.664,19.531,-150.879
1678021292.756,11.230,-45.898,-55.664,27.344,-141.602
1678021292.760,-0.488,-41.016,-53.223,20.996,18.066
1678021292.760,0.000,-43.945,-51.270,13.672,-16.602
1678021292.764,20.020,-41.504,-48.828,15.137,-94.238
1678021292.768,6.836,-40.039,-55.176,7.324,-78.613
1678021292.772,-5.859,-40.527,-52.734,19.531,16.113
1678021292.776,13.672,-38.086,-47.852,14.648,49.316
1678021292.780,22.461,-43.945,-50.293,1.953,10.254
1678021292.784,14.648,-42.969,-49.805,2.930,36.133
1678021292.787,3.906,-36.133,-50.293,13.672,198.730
1678021292.791,2.930,-38.086,-52.246,7.324,115.723
1678021292.795,-2.441,-36.621,-46.387,7.812,-166.504
1678021292.799,2.930,-34.668,-43.945,19.043,-72.754
1678021292.803,30.273,-31.250,-44.434,-9.277,-51.758
1678021292.806,14.160,-32.715,-41.016,-16.113,-202.637
1678021292.810,5.859,-36.621,-41.504,8.789,-209.961
1678021292.814,11.719,-27.344,-40.039,8.789,-173.828
1678021292.818,8.301,-21.973,-38.086,5.371,-107.422
1678021292.822,1.465,-22.949,-36.621,5.371,-134.277
1678021292.826,-15.625,-33.203,-40.039,-3.906,-161.133
1678021292.830,-16.113,-41.992,-41.504,16.113,135.742
1678021292.833,-8.789,-29.785,-35.156,24.902,217.285
1678021292.837,-6.836,-22.949,-28.320,2.930,-54.688
1678021292.841,-13.672,-30.762,-32.227,-2.930,-53.711
1678021292.845,-32.715,-39.062,-34.668,-10.742,-81.055
1678021292.849,-29.785,-33.691,-31.738,-22.461,-167.969
1678021292.851,-2.441,-20.996,-31.250,-20.020,-145.508
1678021292.855,-16.113,-24.414,-28.320,-11.719,-21.973
1678021292.859,-29.785,-27.344,-30.273,-13.184,73.730
1678021292.863,-18.066,-25.879,-24.902,-20.508,-2.441
1678021292.867,-16.113,-24.902,-23.438,-20.020,-103.027
1678021292.871,-16.113,-28.320,-36.621,-21.484,-14.160
1678021292.875,-28.809,-32.715,-41.504,-21.973,359.863
1678021292.878,-36.133,-30.273,-42.480,-21.484,248.535
1678021292.882,-26.367,-34.180,-43.945,-21.484,-152.832
1678021292.886,-15.137,-32.715,-40.039,-17.578,-144.531
1678021292.890,-26.855,-33.203,-32.227,-24.414,-72.266
1678021292.894,-42.969,-33.691,-33.691,-46.387,-120.605
1678021292.910,-23.438,-29.297,-40.527,-42.480,-92.285
1678021292.914,-12.207,-27.344,-37.598,-31.250,-82.520
1678021292.918,-22.949,-31.738,-40.527,-37.109,-137.207
1678021292.922,-18.555,-35.156,-43.945,-28.809,-89.355
1678021292.926,-31.738,-32.715,-36.621,-35.156,-38.086
1678021292.930,-41.992,-34.180,-31.250,-32.227,242.676
1678021292.934,-22.461,-35.645,-29.785,-24.414,329.590
1678021292.937,-36.133,-39.551,-33.203,-41.016,-44.922
1678021292.941,-48.828,-39.062,-32.227,-34.180,-155.762
1678021292.945,-40.039,-34.668,-32.715,-27.832,19.531
1678021292.949,-34.668,-34.668,-36.621,-33.691,8.789
1678021292.953,-28.809,-27.832,-37.109,-41.504,-149.414
1678021292.956,-27.832,-21.484,-36.621,-44.434,-186.035
1678021292.960,-34.668,-30.273,-31.738,-27.832,-68.359
1678021292.964,-38.086,-35.156,-30.273,-18.066,-64.453
1678021292.968,-35.645,-33.203,-33.203,-20.996,-37.598
1678021292.972,-14.648,-29.785,-31.738,-32.227,71.777
1678021292.976,-12.695,-25.879,-32.227,-37.109,190.918
1678021292.980,-44.434,-27.344,-33.203,-39.551,108.887
1678021292.983,-53.223,-32.715,-36.621,-37.109,-26.855
1678021292.987,-46.387,-34.180,-35.156,-29.297,79.102
1678021292.991,-22.461,-31.250,-29.297,-22.461,121.582
1678021292.995,-10.254,-26.855,-26.855,-38.086,-165.039
1678021292.999,-26.367,-24.902,-29.785,-41.016,-247.559
1678021293.000,-44.922,-27.832,-33.203,-29.785,-43.457
1678021293.004,-39.551,-34.180,-35.156,-35.156,15.625
1678021293.008,-36.621,-35.156,-39.551,-41.992,-100.586
1678021293.012,-42.969,-27.832,-37.109,-43.457,-185.059
1678021293.016,-29.785,-30.273,-31.738,-40.527,-108.398
1678021293.020,-27.344,-33.691,-35.645,-41.504,44.434
1678021293.024,-33.203,-36.621,-37.109,-37.109,93.262
1678021293.027,-29.785,-29.297,-28.809,-38.086,-68.359
1678021293.031,-25.391,-20.996,-29.785,-40.039,71.777
1678021293.035,-26.855,-31.738,-31.738,-29.297,211.914
1678021293.039,-26.855,-32.715,-33.203,-34.180,-67.871
1678021293.043,-30.762,-30.273,-35.156,-37.598,-122.070
1678021293.045,-36.621,-39.551,-33.691,-41.016,-93.262
1678021293.049,-25.879,-37.109,-36.621,-52.734,-119.141
1678021293.053,-19.043,-30.762,-37.598,-44.434,-181.152
1678021293.057,-26.855,-29.297,-40.039,-30.762,-94.727
1678021293.061,-33.203,-26.855,-39.551,-29.785,95.703
1678021293.065,-39.062,-28.809,-35.156,-43.945,48.340
1678021293.069,-28.320,-32.715,-38.086,-57.617,-109.863
1678021293.072,-22.949,-25.391,-33.691,-38.574,-36.133
1678021293.076,-28.809,-18.555,-28.809,-7.324,161.621
1678021293.080,-25.879,-21.484,-32.227,-17.090,69.336
1678021293.084,-29.785,-20.508,-33.203,-43.945,-72.266
1678021293.088,-42.969,-17.578,-28.809,-41.504,-63.965
1678021293.091,-50.781,-9.277,-20.996,-35.645,-62.012
1678021293.095,-46.875,-12.695,-18.555,-38.086,-167.969
1678021293.099,-56.152,-19.043,-24.414,-57.129,-94.727
1678021293.103,-86.426,-5.371,-27.344,-84.473,15.137
1678021293.107,-98.633,19.043,-11.230,-94.727,-99.121
1678021293.111,-128.418,20.508,3.418,-140.625,-152.832
1678021293.115,-169.434,14.648,17.578,-171.875,-94.238
1678021293.118,-173.828,15.137,35.156,-180.664,86.426
1678021293.122,-209.961,10.254,50.781,-208.984,60.059
1678021293.126,-235.840,17.090,72.754,-223.633,-211.426
1678021293.130,-238.281,30.273,69.824,-249.512,-179.199
1678021293.134,-258.301,38.086,67.383,-270.020,-100.586
1678021293.135,-277.832,38.086,78.125,-270.020,-54.688
1678021293.139,-293.457,31.738,75.195,-275.879,-99.121
1678021293.143,-286.621,31.250,63.477,-281.738,-116.211
1678021293.147,-283.203,39.551,62.500,-293.457,-30.273
1678021293.151,-302.246,47.363,63.965,-283.203,-45.410
1678021293.155,-290.039,44.434,62.988,-262.695,11.719
1678021293.159,-261.230,37.598,61.523,-269.043,41.504
1678021293.162,-247.070,36.621,58.594,-256.836,227.051
1678021293.166,-244.629,35.156,57.617,-236.816,201.172
1678021293.170,-232.422,31.738,52.734,-233.887,-105.469
1678021293.174,-213.867,28.320,40.039,-233.887,-50.781
1678021293.178,-208.008,27.832,36.133,-223.633,-33.691
1678021293.183,-201.172,34.180,36.133,-215.820,-142.090
1678021293.187,-186.035,35.645,31.738,-214.844,-147.949
1678021293.191,-174.316,25.391,27.344,-179.688,-79.102
1678021293.195,-179.688,12.695,24.902,-146.973,-78.125
1678021293.199,-155.273,10.254,20.020,-133.301,-169.922
1678021293.203,-114.746,4.395,8.789,-120.117,-158.691
1678021293.207,-102.539,-5.371,-4.883,-112.305,144.043
1678021293.210,-98.145,-3.418,-14.160,-80.078,224.121
1678021293.214,-91.309,-14.648,-17.578,-54.688,-73.242
1678021293.218,-68.848,-30.273,-23.926,-60.547,-116.699
1678021293.222,-36.621,-33.203,-39.551,-50.293,-69.824
1678021293.226,-31.738,-39.551,-46.387,-34.180,-124.023
1678021293.224,-28.320,-44.922,-44.434,-30.762,-145.996
1678021293.228,-7.324,-39.551,-49.805,-8.301,-44.434
1678021293.232,-2.930,-44.922,-54.199,10.742,15.625
1678021293.236,5.371,-50.293,-60.059,19.531,24.414
1678021293.240,18.066,-50.781,-66.406,19.043,-49.316
1678021293.244,23.926,-54.688,-65.918,25.879,-45.898
1678021293.248,38.574,-63.477,-73.242,61.523,370.605
1678021293.251,44.434,-69.336,-76.660,71.289,384.277
1678021293.255,44.434,-66.406,-71.289,55.664,-11.719
1678021293.259,45.898,-64.941,-78.125,59.082,-175.293
1678021293.263,52.246,-71.289,-82.031,56.641,-165.039
1678021293.267,59.570,-67.871,-83.496,63.477,-117.676
1678021293.272,65.918,-63.965,-87.402,72.754,-99.609
1678021293.276,55.176,-64.453,-86.914,77.637,-89.355
1678021293.280,41.992,-62.500,-85.938,68.359,-150.391
1678021293.284,61.523,-60.059,-86.426,66.895,-231.934
1678021293.288,65.918,-60.547,-82.520,90.820,-180.664
1678021293.292,61.523,-64.453,-76.660,91.309,-1.465
1678021293.296,70.312,-62.988,-78.125,92.285,42.969
1678021293.299,71.289,-63.965,-82.031,86.914,-41.992
1678021293.303,64.453,-65.430,-84.961,80.566,-148.926
1678021293.307,60.547,-61.035,-81.543,92.773,45.410
1678021293.311,65.430,-66.406,-84.961,86.914,148.926
1678021293.315,76.660,-69.336,-83.984,70.312,-107.910
1678021293.330,72.266,-62.500,-77.148,73.242,-158.203
1678021293.334,63.477,-57.129,-81.543,51.270,-147.461
1678021293.338,62.500,-53.711,-79.102,50.293,-152.344
1678021293.342,55.664,-53.223,-71.777,73.242,-39.551
1678021293.346,56.152,-52.246,-75.684,66.895,16.113
1678021293.350,49.316,-54.199,-74.219,49.316,208.008
1678021293.354,36.133,-56.641,-73.242,43.945,168.457
1678021293.357,35.156,-55.176,-74.707,49.316,-120.117
1678021293.361,53.223,-52.246,-67.383,57.129,-45.410
1678021293.365,62.500,-52.734,-64.941,61.523,97.168
1678021293.369,41.504,-55.664,-64.941,49.805,-76.660
1678021293.373,32.715,-54.688,-62.500,30.273,-192.383
1678021293.375,23.438,-49.805,-62.012,34.180,-80.566
1678021293.379,10.742,-50.293,-66.406,41.504,-18.066
1678021293.383,6.836,-52.246,-66.406,32.715,-143.066
1678021293.387,16.602,-49.805,-62.988,16.113,-166.992
1678021293.391,18.066,-50.781,-66.895,-0.977,-127.441
1678021293.395,3.906,-59.082,-70.801,7.812,-15.625
1678021293.399,24.902,-54.199,-64.453,12.695,28.320
1678021293.402,39.551,-47.363,-53.711,9.277,-117.676
1678021293.406,9.766,-53.223,-56.641,18.555,46.387
1678021293.410,0.488,-48.828,-55.664,25.879,114.258
1678021293.414,23.438,-39.062,-45.410,29.297,-140.137
1678021293.418,21.973,-44.922,-51.270,27.344,-76.172
1678021293.419,-1.465,-52.246,-59.570,3.418,80.078
1678021293.423,-7.812,-54.688,-60.059,5.371,-1.465
1678021293.427,-2.441,-53.711,-57.129,1.465,-112.793
1678021293.431,-16.113,-50.293,-53.711,-15.137,-72.266
1678021293.435,-20.020,-48.828,-49.805,-4.395,119.629
1678021293.439,-12.207,-42.480,-50.781,1.953,89.844
1678021293.443,-5.859,-41.504,-51.270,-5.859,-76.660
1678021293.446,-8.789,-49.805,-47.363,-8.789,-36.621
1678021293.450,-19.531,-46.875,-49.805,-9.766,112.793
1678021293.454,-25.879,-40.527,-45.410,6.348,-41.016
1678021293.458,-20.020,-43.945,-42.969,4.883,-185.547
1678021293.462,-6.348,-42.480,-48.340,-12.207,-118.164
1678021293.468,-15.137,-37.598,-45.898,-15.625,-126.465
1678021293.472,-26.855,-36.621,-43.457,-21.484,-140.625
1678021293.476,-10.254,-42.969,-41.504,-23.926,-87.891
1678021293.480,-23.926,-47.852,-44.922,-28.809,-4.883
1678021293.484,-30.762,-39.551,-43.945,-29.297,4.395
1678021293.488,-22.949,-35.156,-47.852,-36.621,0.488
1678021293.492,-21.484,-40.039,-50.781,-51.270,-75.684
1678021293.495,-27.344,-45.898,-41.016,-20.020,61.035
1678021293.499,-40.527,-47.363,-41.992,-2.441,163.086
1678021293.503,-37.109,-48.340,-49.316,-29.297,-116.211
1678021293.507,-26.367,-47.852,-48.340,-43.457,-140.137
1678021293.511,-23.926,-40.527,-44.434,-49.316,-163.574
1678021293.510,-33.691,-37.109,-44.922,-33.203,-211.426
1678021293.514,-19.531,-40.039,-49.316,-12.695,-196.777
1678021293.518,-16.113,-45.898,-38.086,-7.812,-106.445
1678021293.522,-36.133,-48.340,-32.715,-28.320,38.574
1678021293.526,-32.715,-41.016,-37.598,-52.246,-20.996
1678021293.530,-25.391,-35.156,-40.039,-52.734,-49.805
1678021293.534,-20.020,-33.203,-43.457,-45.410,108.398
1678021293.537,-10.742,-37.598,-43.945,-25.391,347.168
1678021293.541,-17.090,-41.992,-32.715,-18.066,263.184
1678021293.545,-26.855,-37.109,-31.250,-38.574,-123.535
1678021293.549,-23.438,-35.645,-40.527,-26.367,-154.297
1678021293.553,-40.039,-41.016,-38.086,-11.230,-74.219
1678021293.557,-51.758,-44.922,-33.203,-19.531,-128.906
1678021293.561,-32.227,-43.457,-34.180,-33.691,-166.504
1678021293.565,-33.691,-41.016,-36.621,-46.875,-136.230
1678021293.569,-48.828,-45.898,-42.480,-43.457,-114.258
1678021293.573,-44.922,-41.992,-43.457,-23.438,-135.254
1678021293.577,-22.949,-32.227,-39.062,-15.625,-59.570
1678021293.581,-24.414,-38.086,-41.504,-15.625,168.457
1678021293.584,-32.715,-39.062,-36.621,-24.902,195.801
1678021293.588,-35.156,-38.574,-36.133,-27.832,-124.512
1678021293.592,-34.668,-46.387,-41.016,-15.625,-158.203
1678021293.596,-30.762,-45.898,-35.645,-18.555,51.270
1678021293.600,-39.551,-43.457,-37.598,-30.273,49.316
1678021293.599,-20.020,-41.016,-39.062,-57.129,-98.633
1678021293.603,-6.348,-34.180,-30.273,-50.293,-83.496
1678021293.607,-28.809,-35.156,-27.344,-25.391,-56.152
1678021293.611,-28.809,-36.621,-34.668,-26.367,-47.363
1678021293.615,-16.113,-33.691,-38.086,-29.785,-52.246
1678021293.619,-15.137,-25.391,-37.598,-31.250,9.277
1678021293.623,-23.926,-24.414,-34.180,-25.391,337.402
1678021293.626,-39.062,-28.809,-36.133,-22.461,238.281
1678021293.630,-46.875,-33.203,-33.203,-31.738,-74.707
1678021293.634,-45.898,-31.250,-34.180,-24.414,-6.836
1678021293.638,-30.762,-30.762,-36.621,-35.156,-57.617
1678021293.642,-33.203,-36.621,-35.645,-55.664,-242.676
1678021293.661,-39.062,-29.785,-39.551,-47.852,-207.520
1678021293.665,-43.457,-33.203,-41.992,-33.203,-68.359
1678021293.669,-46.387,-41.992,-40.039,-35.645,-96.191
1678021293.673,-40.039,-34.180,-29.297,-36.133,-175.293
1678021293.677,-35.645,-29.297,-26.367,-35.156,-173.828
1678021293.681,-25.879,-31.250,-33.691,-38.574,-78.613
1678021293.685,-39.062,-27.344,-35.156,-43.457,20.996
1678021293.688,-51.758,-32.227,-38.574,-49.316,-55.664
1678021293.692,-37.109,-34.668,-39.062,-52.246,-183.105
1678021293.696,-20.996,-32.715,-39.062,-45.410,48.828
1678021293.700,-11.230,-33.203,-42.480,-34.668,110.352
1678021293.704,-11.230,-31.250,-38.086,-25.879,-82.031
1678021293.704,-21.973,-26.367,-36.621,-18.555,-43.945
1678021293.708,-29.785,-32.227,-30.762,-34.180,21.484
1678021293.712,-39.062,-40.527,-27.344,-46.387,-102.051
1678021293.716,-34.180,-37.598,-32.227,-41.992,-178.711
1678021293.720,-36.621,-30.273,-30.273,-35.156,8.301
1678021293.724,-33.203,-23.926,-35.156,-33.691,165.527
1678021293.728,-28.809,-25.391,-44.922,-31.250,3.906
1678021293.731,-40.527,-34.180,-40.527,-43.457,-98.633
1678021293.735,-43.945,-34.668,-34.668,-50.293,-34.180
1678021293.739,-39.062,-35.156,-34.668,-9.766,237.793
1678021293.743,-24.902,-32.715,-33.691,-2.930,196.289
1678021293.747,-36.621,-32.227,-32.227,-49.316,-128.418
1678021293.751,-52.734,-30.273,-36.621,-53.711,-167.480
1678021293.755,-43.457,-22.949,-31.738,-47.363,-104.980
1678021293.759,-47.852,-13.184,-27.832,-43.457,-117.188
1678021293.763,-43.457,-7.324,-32.227,-41.016,-171.387
1678021293.767,-48.828,-9.766,-26.367,-56.152,15.625
1678021293.771,-59.082,-5.371,-16.113,-83.984,95.703
1678021293.775,-80.078,5.371,-22.949,-112.305,-47.363
1678021293.778,-117.188,20.996,-16.602,-104.004,-72.754
1678021293.782,-130.859,28.320,-7.812,-103.027,151.855
1678021293.786,-150.879,13.672,3.418,-159.180,198.242
1678021293.790,-183.105,36.133,26.367,-204.102,-68.359
1678021293.794,-202.637,71.289,48.828,-209.961,-104.004
1678021293.795,-212.891,39.062,64.941,-241.699,-60.547
1678021293.799,-232.910,19.043,81.543,-254.395,-58.105
1678021293.803,-280.762,20.996,99.609,-256.348,-139.648
1678021293.807,-331.055,28.809,92.773,-292.969,-63.965
1678021293.811,-317.871,16.113,86.914,-278.809,141.113
1678021293.815,-283.203,7.324,90.332,-250.488,3.418
1678021293.819,-285.156,20.996,85.449,-254.395,-105.469
1678021293.822,-281.738,15.137,79.590,-273.926,-2.930
1678021293.826,-261.230,11.719,78.125,-267.090,190.430
1678021293.830,-268.066,17.578,71.289,-265.137,55.664
1678021293.834,-255.371,20.020,66.895,-253.906,-102.539
1678021293.838,-239.258,26.855,56.152,-234.375,14.648
1678021293.842,-202.637,33.691,49.316,-218.750,-31.250
1678021293.846,-193.848,26.367,42.480,-223.633,-152.832
1678021293.850,-217.285,19.043,30.273,-217.285,-218.262
1678021293.854,-199.219,4.883,20.996,-190.430,-111.816
1678021293.858,-166.016,-6.348,10.254,-163.574,-41.504
1678021293.862,-154.297,0.488,-4.395,-141.602,-34.180
1678021293.866,-143.555,-5.859,-11.230,-141.602,-54.199
1678021293.869,-112.305,-28.320,-20.020,-127.441,165.039
1678021293.873,-72.754,-49.316,-30.273,-87.891,205.566
1678021293.877,-68.359,-41.992,-39.062,-76.172,-93.262
1678021293.881,-77.637,-27.832,-49.805,-65.430,-99.609
1678021293.885,-79.590,-40.039,-57.617,-59.082,-79.102
1678021293.901,-50.781,-51.270,-63.965,-49.316,-153.809
1678021293.905,-31.250,-54.688,-65.430,-27.344,-168.945
1678021293.909,-18.555,-62.012,-67.871,0.000,-49.316
1678021293.913,-6.836,-67.383,-74.707,13.672,79.102
1678021293.917,-5.371,-63.965,-80.566,14.648,41.504
1678021293.921,10.254,-65.430,-82.520,8.789,-5.371
1678021293.925,14.648,-66.895,-76.172,17.090,25.879
1678021293.928,33.203,-60.547,-73.730,62.988,247.559
1678021293.932,42.480,-60.059,-73.242,65.918,217.773
1678021293.936,46.387,-66.895,-73.242,48.828,-131.836
1678021293.940,54.199,-66.895,-78.613,51.758,-54.199
1678021293.944,49.805,-61.035,-79.102,55.664,0.488
1678021293.931,57.129,-60.547,-81.543,64.941,-160.645
1678021293.935,71.289,-59.570,-83.008,60.547,-123.047
1678021293.939,58.105,-62.988,-80.566,63.965,-52.246
1678021293.943,27.832,-64.941,-84.473,67.871,-102.051
1678021293.947,34.668,-65.430,-84.961,69.336,-163.086
1678021293.951,61.523,-62.500,-81.055,60.547,-131.836
1678021293.955,61.523,-72.266,-84.473,65.918,145.020
1678021293.958,47.363,-77.148,-87.891,60.059,186.523
1678021293.962,56.152,-57.617,-83.984,41.992,-188.477
1678021293.966,57.129,-52.734,-80.566,50.293,-278.320
1678021293.970,39.551,-58.105,-79.102,49.316,-131.836
1678021293.974,35.156,-60.547,-81.543,59.570,-66.406
1678021293.975,37.109,-57.129,-81.055,63.477,-161.133
1678021293.979,39.062,-60.547,-79.102,34.180,-127.930
1678021293.983,44.922,-62.012,-77.637,31.250,-80.566
1678021293.987,32.227,-57.129,-75.195,43.457,-52.246
1678021293.991,37.598,-58.105,-68.359,42.969,-37.598
1678021293.995,41.992,-56.641,-65.430,31.738,4.395
1678021293.999,45.898,-53.711,-63.965,41.504,290.039
1678021294.002,45.898,-56.641,-60.059,55.664,200.195
1678021294.006,34.180,-54.688,-59.082,48.828,-111.328
1678021294.010,28.809,-51.270,-58.105,37.109,-69.824
1678021294.014,11.230,-53.711,-59.570,28.320,-60.059
1678021294.018,15.137,-55.664,-61.035,21.973,-125.000
1678021294.023,28.809,-56.641,-59.570,17.090,-139.160
1678021294.027,30.762,-49.316,-58.594,32.715,20.996
1678021294.031,22.461,-47.363,-56.641,38.086,36.133
1678021294.035,20.020,-51.270,-55.664,29.785,-164.551
1678021294.039,19.531,-48.340,-52.734,18.066,-213.379
1678021294.043,31.250,-41.992,-47.852,11.230,-77.637
1678021294.047,28.320,-41.504,-48.828,15.137,-14.648
1678021294.050,11.230,-45.410,-50.781,16.602,-163.574
1678021294.054,24.414,-52.734,-51.758,11.230,-205.078
1678021294.058,28.809,-60.547,-54.688,10.742,-28.320
1678021294.062,10.254,-50.781,-53.223,-0.488,-55.664
1678021294.066,-6.836,-42.480,-54.688,-6.348,-204.102
1678021294.079,-4.883,-38.086,-53.223,7.324,-126.465
1678021294.083,4.395,-42.480,-50.781,7.324,-74.707
1678021294.087,-0.488,-43.945,-52.734,-11.719,-125.977
1678021294.091,-8.789,-37.109,-53.223,-19.531,-109.863
1678021294.095,-4.395,-32.715,-48.828,-12.695,-46.387
1678021294.099,8.789,-34.180,-47.363,3.906,244.629
1678021294.103,7.324,-37.598,-47.852,10.742,309.570
1678021294.106,1.465,-41.016,-43.457,-6.836,-122.559
1678021294.110,-3.418,-44.434,-43.457,-4.395,-117.676
1678021294.114,-14.160,-39.551,-48.340,0.488,65.918
1678021294.118,-7.324,-37.598,-46.387,-8.301,-83.984
1678021294.122,3.418,-41.504,-45.898,-11.719,-175.781
1678021294.124,-12.695,-39.551,-45.410,-13.184,-83.984
1678021294.128,-23.438,-42.969,-40.527,-22.949,-61.523
1678021294.132,-17.578,-48.340,-41.504,-29.785,-136.719
1678021294.136,-10.742,-45.898,-47.852,-12.695,-124.023
1678021294.140,-7.812,-38.086,-43.457,-15.137,-84.473
1678021294.144,-22.949,-31.738,-41.016,-28.809,-25.879
1678021294.148,-30.762,-34.180,-47.852,-30.273,2.441
1678021294.151,-20.508,-37.598,-54.199,-33.203,-100.098
1678021294.155,-11.230,-31.250,-47.363,-16.602,125.000
1678021294.159,-17.578,-28.809,-44.922,-12.207,260.254
1678021294.163,-33.691,-39.062,-48.828,-31.738,-37.109
1678021294.167,-31.250,-43.457,-47.852,-37.598,-99.121
1678021294.170,-20.020,-41.504,-45.898,-40.039,-110.352
1678021294.174,-19.043,-41.992,-46.387,-35.156,-117.188
1678021294.178,-28.320,-37.109,-41.992,-23.926,-132.812
1678021294.182,-34.180,-34.668,-38.086,-28.809,-52.734
1678021294.186,-33.691,-41.992,-46.387,-39.062,120.117
1678021294.190,-32.227,-40.039,-44.434,-42.480,-40.039
1678021294.194,-46.875,-37.598,-40.039,-28.809,-102.051
1678021294.197,-49.805,-40.039,-42.480,-17.578,-0.488
1678021294.201,-42.969,-33.691,-38.574,-18.066,257.324
1678021294.205,-36.621,-35.645,-38.086,-35.156,127.930
1678021294.209,-40.039,-36.621,-41.504,-41.016,-207.031
1678021294.213,-47.363,-34.180,-38.574,-35.645,-81.543
1678021294.217,-39.062,-37.598,-41.016,-40.527,-92.285
1678021294.221,-28.809,-36.133,-39.551,-41.016,-152.344
1678021294.225,-32.715,-31.250,-30.273,-44.434,-136.719
1678021294.229,-35.645,-33.691,-33.203,-41.992,-153.320
1678021294.233,-33.203,-34.668,-43.457,-34.180,-119.629
1678021294.237,-25.879,-34.180,-42.969,-32.227,-70.801
1678021294.241,-34.180,-40.039,-41.016,-30.762,-9.277
1678021294.244,-37.598,-37.109,-41.016,-25.879,217.773
1678021294.248,-31.250,-37.109,-40.039,-40.527,161.133
1678021294.252,-35.645,-38.086,-42.969,-49.805,-145.020
1678021294.256,-26.855,-35.645,-46.387,-29.297,-70.312
1678021294.260,-29.785,-35.156,-43.457,-29.785,47.852
1678021294.259,-40.039,-36.133,-35.645,-32.227,-8.789
1678021294.263,-34.180,-35.156,-37.109,-30.273,-132.324
1678021294.267,-27.832,-31.738,-38.574,-39.062,-67.383
1678021294.271,-31.738,-34.668,-30.762,-37.109,94.727
1678021294.275,-30.273,-33.203,-38.574,-40.527,74.219
1678021294.279,-21.973,-23.438,-44.922,-45.410,114.258
1678021294.283,-35.156,-28.809,-41.504,-41.504,96.191
1678021294.286,-52.734,-34.180,-36.133,-40.527,207.031
1678021294.290,-56.152,-31.250,-37.109,-38.574,189.941
1678021294.294,-44.434,-36.133,-36.133,-36.133,-142.578
1678021294.298,-39.062,-48.340,-36.133,-48.340,-148.438
1678021294.302,-47.852,-43.457,-39.551,-62.500,-61.035
1678021294.308,-41.992,-28.320,-37.598,-54.688,-49.316
1678021294.312,-51.270,-28.320,-30.762,-46.387,-49.805
1678021294.316,-59.570,-29.785,-31.250,-45.410,16.113
1678021294.320,-54.688,-33.691,-41.992,-56.152,-32.715
1678021294.324,-40.039,-29.297,-26.855,-57.129,-215.332
1678021294.328,-30.762,-19.043,-19.043,-60.547,-205.078
1678021294.332,-55.176,-17.090,-29.785,-56.641,163.086
1678021294.335,-69.336,-11.230,-13.184,-48.828,243.652
1678021294.339,-64.453,-6.348,-4.883,-70.801,-140.625
1678021294.343,-100.586,6.348,-19.531,-103.516,-171.875
1678021294.347,-149.414,21.973,-5.371,-152.344,-129.395
1678021294.351,-159.668,23.926,16.602,-165.527,-132.812
1678021294.350,-166.992,16.602,24.902,-171.387,-135.742
1678021294.354,-208.984,20.020,44.434,-208.008,-120.605
1678021294.358,-242.676,33.691,71.289,-250.488,-102.539
1678021294.362,-266.602,35.156,81.543,-267.578,-97.656
1678021294.366,-277.344,32.227,93.262,-247.559,-75.684
1678021294.370,-265.625,34.180,91.797,-254.395,-28.320
1678021294.374,-271.973,27.832,82.031,-278.809,276.855
1678021294.377,-279.297,26.855,84.473,-297.363,301.758
1678021294.381,-281.738,28.809,91.797,-301.270,-105.469
1678021294.385,-277.832,33.203,82.520,-272.461,-178.223
1678021294.389,-262.695,31.250,70.312,-264.648,-60.059
1678021294.393,-272.461,26.855,69.336,-267.578,-105.957
1678021294.396,-292.969,33.691,67.383,-278.809,-104.492
1678021294.400,-274.414,31.250,62.988,-275.879,-70.801
1678021294.404,-246.582,25.879,52.734,-268.555,-132.812
1678021294.408,-239.746,9.277,51.270,-254.395,-102.539
1678021294.412,-232.910,11.719,44.922,-230.957,-57.617
1678021294.416,-190.430,27.344,39.062,-229.980,-52.246
1678021294.420,-183.594,32.715,33.203,-237.305,31.250
1678021294.423,-192.871,23.926,28.809,-210.449,62.988
1678021294.427,-163.574,5.859,26.367,-168.945,-65.918
1678021294.431,-158.691,5.371,15.137,-158.691,116.699
1678021294.435,-149.902,7.812,3.418,-144.043,211.426
1678021294.439,-116.211,-2.441,-8.301,-127.441,-131.348
1678021294.455,-86.914,-0.488,-17.578,-109.863,-184.570
1678021294.459,-70.801,5.371,-25.391,-77.148,-91.309
1678021294.463,-71.289,-3.418,-37.598,-51.270,-105.469
1678021294.467,-47.852,-33.691,-50.293,-38.086,-72.754
1678021294.471,-19.531,-43.945,-51.758,-33.203,1.953
1678021294.475,0.000,-35.156,-57.617,-15.137,239.258
1678021294.479,-1.465,-40.527,-69.824,3.906,214.355
1678021294.482,2.930,-52.246,-75.195,24.414,2.441
1678021294.486,33.203,-59.082,-80.566,32.715,37.598
1678021294.490,34.180,-62.988,-88.379,41.016,166.016
1678021294.494,50.781,-65.918,-86.914,47.363,-54.199
1678021294.498,69.336,-64.453,-84.473,65.918,-189.941
1678021294.500,58.594,-63.965,-87.891,89.355,-47.363
1678021294.504,59.082,-65.918,-89.355,65.918,-83.008
1678021294.508,85.449,-67.383,-90.332,59.082,-129.395
1678021294.512,109.375,-77.148,-94.238,73.730,-149.414
1678021294.516,98.145,-71.289,-94.238,90.332,-123.047
1678021294.520,89.355,-69.336,-94.727,96.680,52.734
1678021294.524,97.168,-74.707,-93.262,104.004,125.000
1678021294.527,93.262,-69.824,-91.797,105.957,-58.105
1678021294.531,101.074,-71.289,-88.867,110.840,8.301
1678021294.535,111.816,-68.848,-84.961,121.094,148.926
1678021294.539,108.398,-61.523,-83.984,118.164,0.977
1678021294.543,106.445,-62.012,-83.008,119.629,-80.078
1678021294.544,99.121,-77.148,-84.961,104.980,-50.781
1678021294.548,91.309,-79.102,-86.426,88.867,-72.266
1678021294.552,88.379,-72.754,-85.938,87.891,-156.738
1678021294.556,87.891,-71.777,-84.961,99.121,-38.086
1678021294.560,82.520,-69.336,-79.590,95.703,66.406
1678021294.564,78.613,-65.430,-78.125,71.289,-82.520
1678021294.568,85.938,-70.312,-82.520,76.660,-183.105
1678021294.571,85.449,-66.895,-81.543,77.637,-65.430
1678021294.575,70.312,-60.059,-80.566,79.102,219.727
1678021294.579,62.500,-63.477,-82.031,68.848,61.035
1678021294.583,58.105,-61.035,-77.637,50.293,-151.367
1678021294.587,57.617,-58.594,-73.242,53.711,-56.152
1678021294.591,52.734,-56.641,-72.754,60.059,-50.293
1678021294.595,43.457,-55.664,-75.684,63.477,-91.797
1678021294.599,40.039,-60.059,-78.613,45.898,-131.836
1678021294.603,40.039,-60.547,-69.824,41.016,-84.473
1678021294.607,44.434,-60.547,-64.453,44.434,-78.613
1678021294.611,33.691,-56.152,-64.941,42.969,-128.418
1678021294.615,41.016,-52.246,-59.082,49.805,-20.996
1678021294.618,53.711,-49.805,-57.617,62.988,185.547
1678021294.622,41.504,-49.805,-63.965,55.664,199.707
1678021294.626,39.551,-52.734,-63.477,29.785,-116.211
1678021294.630,49.805,-50.293,-62.988,26.855,-226.074
1678021294.634,56.641,-41.992,-55.664,45.410,-150.391
1678021294.636,41.992,-32.715,-54.688,53.711,-122.070
1678021294.640,24.902,-38.086,-59.082,37.598,-176.270
1678021294.644,22.461,-45.898,-54.199,12.695,-83.984
1678021294.648,7.324,-47.852,-52.246,15.625,92.773
1678021294.652,3.418,-48.340,-53.223,27.344,17.578
1678021294.656,5.371,-46.387,-50.781,19.531,-30.273
1678021294.660,10.742,-46.387,-47.363,17.090,-29.785
1678021294.663,15.625,-46.875,-45.898,10.742,210.938
1678021294.667,-4.395,-38.574,-45.410,10.254,177.246
1678021294.671,-5.371,-32.227,-42.480,12.695,-125.977
1678021294.675,9.277,-29.785,-40.527,13.184,-110.840
1678021294.679,-1.953,-30.273,-39.551,12.207,-149.414
1678021294.681,-0.977,-36.621,-35.156,2.930,-240.234
1678021294.685,-1.953,-33.691,-35.645,-12.207,-248.047
1678021294.689,-5.371,-32.227,-40.039,-1.953,-127.930
1678021294.693,-3.418,-35.156,-39.062,-1.953,-55.664
1678021294.697,-9.277,-37.598,-39.551,-21.484,-62.500
1678021294.701,-15.625,-41.992,-42.480,-25.391,16.602
1678021294.705,-16.113,-35.156,-41.504,-24.414,191.895
1678021294.708,-22.461,-30.273,-38.574,-15.625,208.496
1678021294.712,-33.203,-29.785,-39.062,-20.508,-29.785
1678021294.716,-27.344,-32.715,-36.621,-27.344,-123.535
1678021294.720,-18.555,-39.062,-36.621,-29.785,-123.047
1678021294.724,-30.273,-36.621,-42.969,-41.016,-118.652
1678021294.725,-41.992,-30.762,-40.527,-37.109,-144.531
1678021294.729,-32.227,-32.227,-42.480,-18.066,-82.031
1678021294.733,-22.949,-32.715,-44.922,-21.484,-68.359
1678021294.737,-28.320,-31.738,-40.527,-42.480,-54.199
1678021294.741,-40.039,-38.574,-42.480,-40.527,-52.246
1678021294.745,-46.387,-40.527,-49.316,-25.879,-74.219
1678021294.749,-48.340,-41.016,-47.852,-13.672,362.793
1678021294.752,-48.828,-36.621,-42.969,-16.602,388.184
1678021294.756,-38.086,-27.344,-45.410,-28.320,-8.301
1678021294.760,-27.344,-26.367,-39.062,-35.156,-38.086
1678021294.764,-23.438,-28.320,-32.227,-39.551,10.254
1678021294.768,-26.855,-26.855,-41.504,-22.461,-41.016
1678021294.771,-27.344,-32.227,-40.527,-1.953,-79.102
1678021294.775,-38.574,-37.109,-30.762,-21.484,-64.941
1678021294.779,-63.965,-33.203,-30.273,-40.039,-95.215
1678021294.783,-62.500,-28.320,-37.598,-35.156,-135.254
1678021294.787,-51.270,-27.832,-38.574,-29.785,-108.398
1678021294.791,-37.598,-29.297,-33.691,-33.691,54.688
1678021294.795,-34.668,-25.391,-31.738,-40.527,35.645
1678021294.798,-47.363,-28.320,-33.691,-44.434,-190.430
1678021294.802,-32.227,-30.762,-31.250,-36.133,-256.348
1678021294.806,-20.508,-32.715,-30.762,-19.531,83.496
1678021294.810,-42.969,-32.227,-32.227,-22.949,228.027
1678021294.814,-42.480,-31.738,-31.738,-29.297,-69.336
1678021294.830,-29.785,-41.992,-32.715,-27.344,-133.301
1678021294.834,-33.691,-47.852,-29.785,-30.273,-109.375
1678021294.838,-34.180,-39.062,-29.297,-22.949,-134.277
1678021294.842,-24.902,-36.621,-32.715,-24.902,-97.656
1678021294.846,-12.695,-36.621,-33.203,-28.809,17.090
1678021294.850,-16.602,-31.738,-32.227,-21.484,198.730
1678021294.854,-20.508,-33.691,-29.297,-29.297,98.145
1678021294.857,-15.137,-34.668,-24.902,-21.484,-166.992
1678021294.861,-12.695,-30.762,-25.879,-18.555,-91.797
1678021294.865,-27.832,-22.461,-28.320,-25.879,21.484
1678021294.869,-39.062,-18.066,-17.578,-38.574,-158.203
1678021294.873,-46.875,-12.207,-10.742,-48.340,-229.492
1678021294.874,-56.641,-9.766,-16.602,-45.898,-29.297
1678021294.878,-80.566,-7.324,-14.160,-52.734,-21.973
1678021294.882,-104.492,1.465,-22.461,-78.125,-182.617
1678021294.886,-105.957,7.324,-5.859,-94.238,-184.570
1678021294.890,-119.141,20.508,9.766,-111.328,-146.484
1678021294.894,-148.926,26.855,13.184,-141.602,-63.965
1678021294.898,-181.641,35.156,40.527,-173.828,-44.922
1678021294.901,-203.613,36.133,55.664,-204.590,-107.422
1678021294.905,-220.215,41.504,65.918,-229.004,83.008
1678021294.909,-259.766,37.109,89.844,-263.184,175.293
1678021294.913,-273.926,19.043,105.469,-265.625,-123.535
1678021294.917,-273.926,24.414,100.586,-256.348,-104.004
1678021294.921,-278.320,43.457,92.773,-271.484,1.953
1678021294.925,-290.039,41.016,88.379,-298.340,-104.492
1678021294.929,-289.062,32.227,84.473,-299.316,-151.367
1678021294.933,-254.883,29.297,83.008,-274.414,-21.973
1678021294.937,-236.816,34.180,79.590,-270.508,215.820
1678021294.941,-250.977,38.086,73.242,-267.578,173.340
1678021294.945,-269.043,37.109,75.684,-257.324,-17.578
1678021294.948,-256.836,35.645,67.383,-257.324,-21.973
1678021294.952,-241.211,17.578,54.688,-233.398,94.238
1678021294.956,-218.262,19.043,52.734,-205.566,-19.043
1678021294.960,-189.941,40.527,43.457,-208.496,-109.375
1678021294.964,-193.848,37.109,36.621,-199.219,-92.773
1678021294.966,-177.734,29.785,33.203,-187.500,-172.363
1678021294.970,-148.438,22.461,20.508,-170.898,-152.832
1678021294.974,-141.602,7.812,11.230,-143.066,-100.098
1678021294.978,-130.371,-0.488,1.465,-129.883,-71.777
1678021294.982,-104.492,-3.418,-11.719,-117.188,-14.648
1678021294.986,-64.941,-22.461,-18.555,-91.797,-3.906
1678021294.990,-51.270,-58.594,-26.367,-60.547,-49.805
1678021294.993,-60.547,-41.016,-31.738,-37.109,89.355
1678021294.997,-39.062,-20.020,-39.062,-12.207,270.508
1678021295.001,0.000,-36.621,-50.781,4.395,-19.531
1678021295.005,25.391,-50.293,-56.641,7.324,-174.316
1678021295.009,29.785,-59.082,-62.500,24.902,-104.980
1678021295.010,27.832,-66.895,-73.242,40.039,-74.219
1678021295.014,37.109,-71.289,-84.961,43.457,-101.562
1678021295.018,69.336,-76.660,-85.449,65.918,-124.512
1678021295.022,81.055,-77.148,-85.449,72.266,-53.223
1678021295.026,75.195,-73.242,-94.727,68.848,-108.887
1678021295.030,83.008,-70.312,-90.332,89.844,-158.691
1678021295.034,99.609,-73.242,-86.426,96.680,30.762
1678021295.037,95.703,-75.195,-93.262,103.516,434.082
1678021295.041,82.520,-73.242,-95.215,113.770,311.523
1678021295.045,82.520,-74.707,-97.168,101.562,-159.668
1678021295.049,70.312,-77.148,-100.098,104.980,-124.512
1678021295.053,78.125,-76.172,-96.191,115.234,-21.973
1678021295.057,97.656,-76.660,-95.703,117.188,-126.465
1678021295.061,92.773,-80.078,-97.656,103.027,-174.316
1678021295.065,92.773,-77.148,-94.727,92.285,-138.672
1678021295.069,94.238,-71.777,-91.797,101.074,-80.566
1678021295.073,90.820,-72.754,-89.844,106.934,-101.074
1678021295.077,86.426,-71.289,-88.867,101.562,-60.547
1678021295.081,95.703,-65.430,-90.332,96.680,161.621
1678021295.084,86.426,-63.965,-88.379,100.586,146.973
1678021295.088,64.941,-62.988,-83.984,95.703,-44.922
1678021295.092,70.801,-67.383,-84.473,89.355,-18.555
1678021295.096,69.336,-64.941,-81.543,81.543,-1.465
1678021295.100,55.176,-57.617,-79.590,71.289,-96.680
1678021295.099,57.129,-58.105,-76.660,56.152,-182.129
1678021295.103,66.406,-56.641,-71.289,59.082,-143.066
1678021295.107,59.570,-53.711,-73.730,69.824,-60.547
1678021295.111,53.223,-52.246,-78.125,61.523,-40.039
1678021295.115,45.898,-55.664,-74.707,43.457,-104.980
1678021295.119,34.668,-55.664,-71.777,35.156,-36.133
1678021295.123,33.691,-49.316,-66.406,64.941,309.082
1678021295.126,40.527,-47.363,-63.477,70.312,228.516
1678021295.130,47.852,-53.711,-65.918,46.387,-69.336
1678021295.134,54.199,-53.711,-64.941,41.016,-54.199
1678021295.138,56.152,-41.016,-62.988,33.203,-108.398
1678021295.142,56.152,-39.062,-61.523,29.785,-76.660
1678021295.148,54.199,-39.062,-62.012,32.227,-102.051
1678021295.152,36.133,-39.062,-63.477,34.668,-48.340
1678021295.156,24.902,-41.016,-62.012,32.715,28.809
1678021295.160,28.320,-44.922,-61.523,22.949,-144.043
1678021295.164,28.809,-46.875,-58.594,24.902,-152.344
1678021295.168,32.715,-43.457,-54.199,41.992,49.805
1678021295.172,38.086,-34.668,-59.570,34.180,145.996
1678021295.175,36.133,-38.086,-62.500,13.672,1.953
1678021295.179,10.254,-41.992,-52.734,-2.441,-112.305
1678021295.183,1.953,-33.691,-50.781,4.395,87.402
1678021295.187,21.973,-32.715,-56.641,20.508,147.949
1678021295.191,14.648,-35.156,-56.152,15.137,-72.266
1678021295.205,-1.465,-41.016,-57.617,-0.977,-132.812
1678021295.209,3.906,-44.434,-54.688,-8.789,-43.457
1678021295.213,7.324,-34.180,-47.852,-0.977,-9.277
1678021295.217,-0.488,-29.785,-46.387,-1.465,-77.148
1678021295.221,1.465,-30.273,-48.340,-8.301,-48.340
1678021295.225,9.766,-28.809,-48.828,1.465,254.883
1678021295.229,0.000,-35.645,-50.293,-8.789,258.789
1678021295.232,3.906,-36.133,-49.316,-18.066,-141.602
1678021295.236,12.695,-30.273,-43.457,-1.465,-100.586
1678021295.240,5.371,-31.250,-40.039,-2.441,4.395
1678021295.244,-8.301,-31.250,-39.062,-13.184,-99.609
1678021295.248,-19.043,-35.156,-36.133,-19.531,-174.316
1678021295.249,-17.090,-35.645,-33.691,-15.625,-171.387
1678021295.253,-2.441,-31.738,-37.109,-17.578,-109.863
1678021295.257,-4.883,-39.062,-36.133,-16.113,-102.051
1678021295.261,-25.391,-40.527,-33.691,-15.137,-90.820
1678021295.265,-17.578,-33.203,-36.621,-21.484,-20.996
1678021295.269,-13.184,-28.320,-38.574,-22.949,-38.086
1678021295.273,-19.531,-26.367,-31.738,-18.066,-60.547
1678021295.276,-15.625,-33.691,-35.156,-22.949,-132.812
1678021295.280,-16.113,-38.574,-42.969,-19.531,71.777
1678021295.284,-22.461,-31.250,-38.086,-16.113,182.129
1678021295.288,-14.160,-28.809,-36.621,-40.039,-130.859
1678021295.292,-13.184,-32.715,-35.156,-42.969,-138.184
1678021295.295,-12.207,-35.645,-34.180,-8.789,-35.645
1678021295.299,-20.996,-33.203,-39.062,-15.137,15.137
1678021295.303,-31.250,-34.180,-39.062,-42.480,-79.590
1678021295.307,-31.250,-42.480,-39.062,-33.203,-10.254
1678021295.311,-26.855,-41.504,-43.945,-7.812,176.270
1678021295.315,-25.879,-31.250,-45.410,-6.348,32.715
1678021295.319,-32.227,-24.414,-44.434,-23.438,-22.461
1678021295.322,-34.668,-29.785,-36.133,-32.227,106.445
1678021295.326,-32.715,-35.156,-30.273,-26.367,212.891
1678021295.330,-27.344,-32.715,-30.273,-14.648,34.668
1678021295.334,-38.086,-31.250,-31.250,-16.113,-155.762
1678021295.338,-35.156,-24.414,-32.227,-25.879,-108.398
1678021295.341,-22.461,-26.367,-31.250,-21.973,-123.047
1678021295.345,-24.902,-38.086,-31.250,-17.578,-230.469
1678021295.349,-32.227,-41.016,-35.156,-32.227,-211.426
1678021295.353,-36.133,-35.156,-34.180,-34.180,-122.559
1678021295.357,-45.410,-36.133,-34.668,-28.809,-113.770
1678021295.361,-46.387,-39.551,-39.062,-40.039,-70.312
1678021295.365,-27.832,-37.109,-41.504,-54.688,-44.922
1678021295.368,-41.504,-32.715,-33.691,-36.621,102.539
1678021295.372,-61.523,-41.016,-31.250,-15.137,238.770
1678021295.376,-39.551,-44.922,-34.180,-30.273,31.738
1678021295.380,-35.645,-29.785,-30.762,-41.504,-116.211
1678021295.384,-29.785,-24.414,-35.645,-49.316,-102.051
1678021295.384,-23.438,-25.391,-40.527,-47.852,-128.906
1678021295.388,-48.828,-29.785,-40.039,-31.738,-138.672
1678021295.392,-60.547,-32.227,-37.109,-38.086,-48.828
1678021295.396,-53.223,-30.273,-35.645,-45.410,-14.160
1678021295.400,-57.617,-24.902,-36.133,-42.480,-38.574
1678021295.404,-59.082,-23.926,-41.016,-55.176,-32.715
1678021295.408,-39.062,-29.297,-36.621,-33.203,36.133
1678021295.411,-38.574,-28.809,-29.297,-17.090,314.941
1678021295.415,-45.410,-25.391,-29.785,-32.227,238.770
1678021295.419,-44.434,-32.715,-29.785,-43.945,-210.449
1678021295.423,-52.734,-40.039,-31.738,-42.969,-223.145
1678021295.427,-41.016,-29.785,-34.668,-38.086,-119.141
1678021295.432,-34.180,-33.203,-39.551,-46.387,-150.391
1678021295.436,-35.645,-38.574,-40.039,-45.898,-159.668
1678021295.440,-43.945,-31.738,-34.180,-43.945,-89.355
1678021295.444,-58.105,-31.250,-40.527,-41.504,-69.824
1678021295.448,-40.527,-29.785,-42.480,-37.598,-111.816
1678021295.452,-29.297,-31.250,-30.273,-30.762,-103.516
1678021295.456,-49.316,-31.738,-32.715,-29.785,136.230
1678021295.459,-60.059,-27.832,-34.668,-33.203,203.125
1678021295.463,-55.176,-28.809,-34.668,-47.363,-90.820
1678021295.467,-61.035,-25.879,-34.180,-46.875,-148.438
1678021295.471,-77.637,-23.926,-36.133,-48.828,-64.453
1678021295.475,-71.289,-16.602,-32.227,-71.289,-121.582
1678021295.501,-66.406,-2.930,-14.648,-78.125,-181.152
1678021295.505,-69.336,10.254,-8.789,-88.867,-83.008
1678021295.509,-89.844,3.906,-4.395,-93.262,58.105
1678021295.513,-123.047,9.766,4.883,-96.680,37.109
1678021295.517,-134.277,25.391,5.859,-127.930,-30.273
1678021295.521,-144.531,31.738,19.043,-157.227,-81.543
1678021295.525,-168.457,35.156,37.109,-183.105,189.453
1678021295.528,-203.613,30.273,55.176,-209.473,233.398
1678021295.532,-233.887,18.555,77.148,-228.516,-116.699
1678021295.536,-242.676,16.113,89.844,-244.141,-75.684
1678021295.540,-259.277,24.414,102.051,-272.949,-56.641
1678021295.544,-292.969,11.719,101.074,-293.945,-104.004
1678021295.521,-283.691,16.602,99.609,-265.625,-125.000
1678021295.525,-287.598,29.297,96.680,-278.320,-39.551
1678021295.529,-286.621,24.902,87.891,-296.387,5.859
1678021295.533,-270.508,27.344,87.402,-277.344,15.137
1678021295.537,-275.879,21.973,74.219,-294.922,-114.258
1678021295.541,-270.508,22.461,69.336,-288.086,46.875
1678021295.545,-250.488,30.273,68.848,-261.230,304.688
1678021295.548,-249.023,20.996,61.523,-271.484,23.926
1678021295.552,-257.324,15.625,60.059,-259.277,-27.832
1678021295.556,-264.648,24.414,49.316,-249.512,-14.160
1678021295.560,-270.020,23.926,40.039,-259.277,-141.113
1678021295.564,-246.094,15.625,39.062,-257.812,-233.398
1678021295.580,-220.703,17.578,28.320,-250.000,-177.246
1678021295.584,-225.586,16.113,20.996,-233.887,-73.730
1678021295.588,-221.680,11.719,27.832,-206.543,-160.156
1678021295.592,-188.477,12.207,31.250,-190.918,-203.125
1678021295.596,-169.922,20.020,20.020,-186.035,-79.102
1678021295.600,-184.082,22.461,11.719,-194.824,132.812
1678021295.604,-169.434,16.602,14.160,-185.547,84.473
1678021295.607,-138.672,11.230,15.625,-171.387,-31.250
1678021295.611,-123.535,3.418,12.207,-154.785,17.578
1678021295.615,-119.629,4.883,-0.488,-116.211,108.398
1678021295.619,-116.699,7.812,-13.672,-105.957,-0.488
1678021295.623,-95.215,-1.953,-15.625,-98.633,-157.715
1678021295.625,-58.594,-5.859,-28.809,-93.262,-121.094
1678021295.629,-49.316,-11.230,-41.016,-74.219,-175.293
1678021295.633,-50.781,-16.113,-43.945,-46.875,-127.930
1678021295.637,-27.344,-10.742,-52.734,-37.109,-59.570
1678021295.641,-1.465,-34.180,-61.523,-22.949,-72.754
1678021295.645,-6.836,-54.688,-66.895,-20.508,-84.473
1678021295.649,-11.719,-41.504,-70.801,-10.742,-8.789
1678021295.652,-8.789,-47.852,-71.289,5.859,-35.645
1678021295.656,6.348,-51.270,-71.289,23.926,120.605
1678021295.660,30.762,-56.152,-73.730,28.809,264.648
1678021295.664,35.645,-64.453,-79.102,26.855,-95.703
1678021295.668,32.227,-62.988,-83.496,33.691,-217.773
1678021295.669,44.434,-69.336,-88.379,38.086,-140.625
1678021295.673,58.594,-76.172,-94.727,48.340,-101.074
1678021295.677,65.430,-77.637,-98.633,56.641,-125.977
1678021295.681,69.824,-76.172,-94.238,61.035,-18.066
1678021295.685,67.871,-71.777,-88.379,70.801,107.422
1678021295.689,87.891,-64.453,-92.773,76.660,17.090
1678021295.693,72.754,-71.777,-94.238,95.703,-37.109
1678021295.696,52.246,-80.078,-95.215,107.422,19.531
1678021295.700,75.684,-76.172,-92.285,105.957,128.418
1678021295.704,77.148,-75.195,-87.891,104.492,-73.242
1678021295.708,77.637,-68.359,-91.797,85.449,-180.176
1678021295.712,91.309,-62.988,-90.332,91.309,59.082
1678021295.716,92.773,-65.430,-90.332,111.328,71.777
1678021295.720,84.961,-65.430,-92.285,96.191,-47.852
1678021295.724,92.773,-71.289,-92.773,81.055,-81.055
1678021295.728,97.168,-83.008,-90.820,75.195,-106.445
1678021295.732,94.238,-75.195,-91.309,80.078,-114.258
1678021295.736,75.684,-71.289,-88.867,90.820,-62.988
1678021295.740,63.477,-71.289,-82.520,91.309,-2.930
1678021295.743,79.590,-68.359,-80.566,78.613,98.145
1678021295.747,89.844,-70.312,-85.938,64.941,117.188
1678021295.751,68.848,-68.848,-81.543,77.148,-147.949
1678021295.755,56.641,-64.941,-77.148,85.449,-132.812
1678021295.759,68.848,-61.523,-78.125,72.754,-56.641
1678021295.761,69.336,-58.594,-74.219,69.336,-68.359
1678021295.765,78.125,-53.223,-75.684,63.965,-46.875
1678021295.769,85.938,-57.617,-77.637,71.777,13.184
1678021295.773,61.035,-66.406,-83.008,63.965,158.691
1678021295.777,41.504,-59.570,-85.449,47.363,66.406
1678021295.781,47.363,-51.758,-78.613,49.805,-119.629
1678021295.785,60.059,-50.293,-72.754,50.781,-67.871
1678021295.788,49.316,-48.828,-70.801,67.871,213.379
1678021295.792,24.902,-54.199,-67.383,68.359,137.695
1678021295.796,46.875,-58.105,-66.895,43.457,-149.902
1678021295.800,54.199,-54.199,-71.777,37.109,-99.121
1678021295.804,41.992,-49.316,-70.801,38.574,-137.695
1678021295.806,35.156,-48.340,-63.477,35.156,-182.617
1678021295.810,29.297,-50.781,-62.988,38.574,-165.039
1678021295.814,37.109,-47.852,-64.941,33.203,-53.711
1678021295.818,39.062,-44.922,-64.941,17.578,12.695
1678021295.822,37.109,-43.945,-62.012,17.090,-108.398
1678021295.826,33.203,-40.527,-63.477,41.504,-89.355
1678021295.830,21.973,-45.898,-61.523,51.270,126.953
1678021295.833,11.230,-45.410,-56.152,42.969,258.789
1678021295.837,17.578,-39.062,-55.664,18.555,-0.977
1678021295.841,25.391,-42.969,-51.270,8.789,-172.852
1678021295.845,24.902,-44.922,-54.199,21.973,-94.238
1678021295.849,28.320,-43.457,-57.129,20.508,-113.770
1678021295.849,19.043,-39.062,-53.711,9.277,-208.984
1678021295.853,10.742,-32.227,-50.781,2.441,-151.855
1678021295.857,7.812,-30.762,-49.316,-1.465,-74.219
1678021295.861,-4.395,-38.086,-46.875,2.441,-40.527
1678021295.865,-6.836,-41.016,-49.316,4.395,-26.855
1678021295.869,5.371,-40.527,-51.270,-1.953,1.953
1678021295.873,-1.953,-44.434,-47.363,11.230,378.906
1678021295.876,-10.742,-41.016,-46.875,5.371,371.582
1678021295.880,1.465,-40.039,-46.387,-11.719,-136.719
1678021295.884,-3.418,-43.457,-46.875,4.883,-128.418
1678021295.888,-6.836,-40.039,-43.945,4.395,-42.480
1678021295.892,-9.766,-32.715,-40.039,-19.531,-180.176
1678021295.905,-6.348,-33.203,-35.645,-25.391,-194.336
1678021295.909,-10.254,-41.504,-37.109,-24.414,-163.574
1678021295.913,-23.438,-44.434,-44.434,-16.602,-198.242
1678021295.917,-14.160,-40.527,-44.922,-5.859,-201.172
1678021295.921,-20.996,-37.109,-42.969,-16.113,-148.438
1678021295.925,-27.344,-41.016,-41.992,-23.926,-57.129
1678021295.929,-11.719,-41.504,-39.062,-15.625,-13.672
1678021295.932,-16.602,-37.598,-40.527,-7.812,-37.598
1678021295.936,-37.598,-36.621,-41.504,-11.230,-66.406
1678021295.940,-20.996,-37.109,-35.156,-11.719,116.211
1678021295.944,-13.184,-33.691,-38.574,-16.602,168.457
1678021295.948,-22.461,-33.203,-42.480,-23.438,-136.719
1678021296.109,-17.578,-39.551,-42.480,-19.043,-120.605
1678021296.113,-23.926,-39.062,-41.016,-22.461,-18.555
1678021296.117,-35.156,-36.133,-38.574,-15.137,-66.406
1678021296.121,-23.438,-40.527,-41.504,-21.484,-134.766
1678021296.125,-13.672,-38.574,-46.875,-33.203,-92.285
1678021296.129,-11.230,-30.762,-46.875,-13.672,212.891
1678021296.133,-19.043,-32.715,-44.434,-7.812,175.781
1678021296.136,-34.668,-36.621,-42.969,-26.367,-182.129
1678021296.140,-34.668,-35.156,-38.574,-41.504,-129.883
1678021296.144,-43.457,-40.527,-46.875,-45.410,30.273
1678021296.148,-48.828,-50.293,-57.129,-46.387,-28.809
1678021296.152,-39.551,-57.617,-60.547,-58.594,-94.238
1678021296.112,-53.223,-62.012,-61.523,-57.129,-17.578
1678021296.116,-58.105,-57.617,-62.500,-58.594,12.207
1678021296.120,-46.875,-54.199,-64.453,-73.242,-145.996
1678021296.124,-46.387,-55.664,-64.453,-58.594,-160.156
1678021296.128,-49.316,-55.664,-65.430,-48.340,-75.195
1678021296.132,-54.199,-56.152,-65.430,-55.664,-24.414
1678021296.136,-65.430,-57.129,-63.965,-65.430,-21.973
1678021296.139,-61.523,-52.246,-62.500,-71.777,-168.457
1678021296.143,-53.711,-46.387,-63.477,-56.152,-3.906
1678021296.147,-47.363,-49.316,-64.453,-46.875,214.355
1678021296.151,-36.133,-53.711,-63.477,-48.828,-41.016
1678021296.155,-29.297,-52.734,-58.594,-36.133,-160.156
1678021296.116,-34.180,-48.828,-50.293,-38.574,-67.871
1678021296.120,-44.434,-48.340,-47.363,-52.246,-77.637
1678021296.124,-59.570,-45.410,-44.434,-55.176,-175.293
1678021296.128,-59.082,-41.504,-35.645,-44.922,-63.477
1678021296.132,-40.039,-46.875,-34.668,-37.109,143.066
1678021296.136,-34.668,-49.805,-40.039,-57.617,23.438
1678021296.140,-60.547,-52.246,-43.945,-60.059,-110.352
1678021296.143,-81.055,-57.129,-38.574,-43.945,18.555
1678021296.147,-55.176,-55.176,-34.180,-35.645,167.969
1678021296.151,-43.457,-51.270,-34.180,-47.852,18.066
1678021296.155,-54.688,-49.805,-36.133,-59.082,-166.016
1678021296.159,-58.105,-49.805,-35.156,-41.016,-87.891
1678021296.120,-50.781,-47.363,-28.809,-33.203,3.418
1678021296.124,-41.992,-45.898,-25.879,-37.109,-53.223
1678021296.128,-50.293,-43.457,-27.344,-36.621,-77.637
1678021296.132,-55.664,-39.062,-32.715,-34.180,7.324
1678021296.136,-57.129,-44.434,-36.621,-28.809,-3.418
1678021296.140,-60.547,-41.992,-40.039,-35.156,-30.762
1678021296.144,-48.828,-44.434,-38.574,-34.668,-39.551
1678021296.147,-42.480,-47.363,-37.109,-32.227,127.441
1678021296.151,-41.992,-33.691,-39.551,-43.945,158.691
1678021296.155,-56.152,-32.227,-34.180,-44.922,-153.809
1678021296.159,-63.965,-35.156,-30.762,-40.527,-157.715
1678021296.163,-40.527,-29.297,-34.668,-35.156,-32.227
1678021296.137,-30.762,-32.227,-38.086,-28.809,-69.336
1678021296.141,-23.438,-41.016,-34.668,-33.203,-166.016
1678021296.145,-38.086,-44.434,-36.133,-41.992,-131.348
1678021296.149,-56.641,-40.039,-40.039,-31.738,43.945
1678021296.153,-47.852,-39.062,-40.527,-25.391,25.391
1678021296.157,-53.711,-41.016,-43.457,-35.645,-91.309
1678021296.161,-51.270,-39.551,-39.551,-48.828,-1.953
1678021296.164,-39.062,-36.621,-35.156,-36.133,262.207
1678021296.168,-41.016,-37.109,-41.016,-21.973,295.898
1678021296.172,-47.852,-38.086,-39.062,-22.461,-60.547
1678021296.176,-50.781,-41.504,-35.156,-26.855,-96.680
1678021296.180,-55.664,-42.480,-35.645,-46.875,-83.496
1678021296.181,-56.152,-35.156,-33.203,-45.410,-229.980
1678021296.185,-49.316,-35.645,-33.691,-37.109,-164.062
1678021296.189,-46.387,-45.898,-36.621,-42.969,-18.555
1678021296.193,-42.969,-41.992,-40.039,-50.293,-18.066
1678021296.197,-34.668,-29.297,-41.992,-52.246,-121.094
1678021296.201,-39.551,-32.715,-41.016,-55.176,-149.414
1678021296.205,-53.711,-31.250,-41.992,-38.574,124.512
1678021296.208,-48.340,-32.227,-40.039,-23.438,210.938
1678021296.212,-41.992,-40.039,-41.992,-34.668,-42.480
1678021296.216,-48.828,-35.645,-42.969,-46.875,-71.289
1678021296.220,-38.574,-34.668,-38.574,-57.129,-47.852
1678021296.224,-36.133,-33.203,-38.574,-54.199,-108.887
1678021296.225,-43.945,-36.621,-37.598,-43.945,-207.520
1678021296.229,-43.945,-46.875,-34.668,-37.109,-127.441
1678021296.233,-37.109,-41.016,-40.527,-53.711,-113.281
1678021296.237,-16.602,-28.809,-47.852,-65.430,-159.668
1678021296.241,-41.016,-27.344,-45.410,-62.500,-85.938
1678021296.245,-74.707,-39.551,-42.480,-59.570,23.926
1678021296.249,-49.316,-40.039,-41.992,-41.992,355.957
1678021296.252,-36.621,-34.180,-46.387,-42.969,347.168
1678021296.256,-53.711,-37.109,-47.852,-56.152,-76.172
1678021296.260,-59.570,-45.410,-40.527,-48.340,66.895
1678021296.264,-44.434,-43.457,-36.621,-39.062,159.668
1678021296.268,-42.969,-39.062,-32.227,-38.086,-98.145
1678021296.271,-44.434,-42.480,-39.062,-41.016,-127.930
1678021296.275,-35.645,-37.109,-43.457,-52.734,-107.422
1678021296.279,-37.109,-24.902,-30.762,-42.480,-108.398
1678021296.283,-53.223,-18.555,-29.297,-38.574,-88.867
1678021296.287,-43.457,-18.555,-36.133,-38.086,-70.312
1678021296.291,-37.109,-22.461,-18.555,-34.668,-12.695
1678021296.295,-55.176,-15.137,-1.465,-57.617,-20.508
1678021296.298,-75.684,-5.371,-11.719,-73.242,-98.633
1678021296.302,-89.355,-10.254,-12.207,-87.891,-123.535
1678021296.306,-91.797,-0.488,5.859,-85.449,74.219
1678021296.310,-126.465,3.418,35.645,-111.328,106.934
1678021296.314,-181.152,-1.953,42.480,-186.035,-162.109
1678021296.329,-202.637,10.742,47.363,-219.238,-172.363
1678021296.333,-216.309,6.348,74.707,-216.797,-75.195
1678021296.337,-216.797,13.184,117.188,-212.891,-113.770
1678021296.341,-238.281,26.855,134.766,-223.145,-178.711
1678021296.345,-276.855,20.508,84.961,-261.230,-92.773
1678021296.349,-270.508,25.391,69.824,-291.016,221.191
1678021296.353,-276.855,29.785,78.125,-283.691,134.766
1678021296.356,-284.180,29.785,85.449,-288.574,-159.180
1678021296.360,-293.945,21.484,83.008,-298.340,9.766
1678021296.364,-282.715,38.086,68.848,-279.297,83.008
1678021296.368,-267.578,48.340,78.613,-289.062,-180.664
1678021296.372,-280.762,27.344,78.613,-292.969,-202.637
