timestamps,TP9,AF7,AF8,TP10,Right AUX
1678021363.492,64.453,-37.109,-100.586,48.340,458.496
1678021363.496,66.895,-49.316,-91.797,40.039,190.918
1678021363.500,68.359,-48.828,-84.473,30.273,-193.359
1678021363.504,62.500,-42.969,-81.543,57.617,-142.578
1678021363.508,57.617,-46.387,-82.031,60.059,-59.570
1678021363.512,52.734,-47.852,-87.891,37.598,-16.113
1678021363.516,48.340,-40.527,-84.961,20.996,-16.113
1678021363.519,51.270,-43.457,-72.754,13.672,-129.395
1678021363.523,47.852,-49.805,-63.965,37.109,-178.711
1678021363.527,45.410,-63.965,-60.547,54.199,-117.676
1678021363.531,47.363,-54.199,-69.336,43.945,-15.137
1678021363.535,44.434,-31.738,-74.707,31.738,61.035
1678021410.406,-69.336,-84.961,20.508,-36.133,-173.828
1678021410.410,-58.105,-104.492,4.395,-23.926,-138.672
1678021410.414,-39.551,-104.004,-10.742,-8.301,-54.688
1678021410.418,-26.367,-87.891,-11.230,9.277,43.457
1678021410.422,-18.066,-83.984,-13.672,20.020,40.527
1678021410.426,-7.324,-95.703,-22.949,27.832,67.871
1678021410.430,0.000,-98.633,-23.438,46.387,357.910
1678021410.433,12.695,-105.469,-20.508,77.637,283.691
1678021410.437,45.410,-115.234,-37.109,102.539,-99.121
1678021410.441,59.570,-100.098,-62.988,73.730,-71.777
1678021410.445,50.293,-95.215,-61.035,82.520,-52.734
1678021410.449,53.223,-102.051,-68.359,89.355,-204.102
1678021478.057,39.551,41.504,77.148,159.180,-38.086
1678021478.061,40.039,43.945,103.027,106.934,-191.895
1678021478.065,58.105,30.273,115.723,124.512,-49.805
1678021478.069,39.551,26.855,118.652,145.996,-93.750
1678021478.073,41.992,27.344,108.398,145.020,-141.113
1678021478.077,62.500,28.320,119.629,115.723,-5.859
1678021478.081,51.758,38.574,123.535,126.953,24.414
1678021478.084,39.551,36.133,104.492,126.953,-11.230
1678021478.088,32.227,24.902,119.629,77.637,26.367
1678021478.092,33.203,-4.395,103.516,88.379,90.820
1678021478.096,11.719,-34.668,47.363,90.332,139.648
1678021478.100,-26.855,-44.434,19.531,48.828,-154.297
1678021478.116,-47.852,-43.457,12.207,40.039,-196.777
1678021478.120,-40.527,-33.203,-11.719,32.715,38.574
1678021478.124,4.395,-30.762,-23.926,51.270,39.062
1678021478.128,10.742,-31.738,-10.254,24.902,-129.883
1678021478.132,-50.781,-37.109,3.418,-29.297,-146.973
1678021478.136,12.207,-25.879,-6.836,42.480,151.367
1678021478.140,38.086,-1.953,-28.320,33.691,172.852
1678021478.143,-51.758,-16.113,-27.344,-25.391,-85.938
1678021478.147,-27.344,-28.809,1.953,49.316,-89.844
1678021478.151,0.977,-17.090,19.531,69.336,206.055
1678021478.155,-53.223,-19.531,16.113,38.086,209.961
1678021478.159,-42.480,10.742,45.410,39.551,-61.523
1678021478.146,-4.395,48.828,42.969,74.219,-44.434
1678021478.150,31.250,42.480,37.109,105.957,-81.055
1678021478.154,30.762,36.133,85.938,27.832,-218.750
1678021478.158,15.137,36.621,73.730,53.223,-159.668
1678021478.162,31.250,28.809,42.969,109.375,12.695
1678021478.166,34.668,60.059,41.992,82.520,85.449
1678021478.170,19.043,62.012,40.527,50.781,20.508
1678021478.173,34.668,25.391,47.852,73.242,-97.656
1678021478.177,48.340,17.090,57.617,112.305,20.020
1678021478.181,-34.668,9.766,68.848,63.965,229.980
1678021478.185,3.906,11.719,73.242,52.246,16.113
1678021478.189,48.828,19.043,83.496,82.520,-83.008
1678021478.193,-21.973,21.973,75.195,39.551,-18.066
1678021478.197,-8.789,23.926,91.309,37.109,-78.125
1678021478.201,54.199,24.902,127.930,116.211,-47.363
1678021478.205,20.508,25.391,126.465,113.281,18.066
1678021478.209,0.488,24.902,99.121,55.664,139.160
1678021478.213,5.859,12.695,86.426,36.133,131.836
1678021478.217,6.836,8.789,82.520,44.922,-11.719
1678021478.220,53.223,14.648,82.520,103.516,-31.250
1678021478.224,57.617,13.672,76.660,105.469,196.289
1678021478.228,62.988,0.977,79.590,95.703,93.262
1678021478.232,69.824,-2.930,90.332,111.816,-150.879
1678021478.236,-13.184,8.789,72.754,64.941,-114.746
1678021478.239,-67.383,15.137,48.828,33.203,7.812
1678021478.243,18.066,35.645,47.363,105.469,22.949
1678021478.247,45.898,50.293,43.945,88.867,-81.543
1678021478.251,26.855,23.438,51.270,15.625,-74.707
1678021478.255,0.977,11.230,74.707,83.008,2.441
1678021478.259,-3.418,31.738,58.594,70.312,46.387
1678021478.263,32.715,43.945,53.223,20.996,66.406
1678021478.266,8.301,55.176,105.469,25.879,150.879
1678021478.270,-100.586,41.992,84.473,-43.945,252.930
1678021478.274,-96.191,62.988,92.773,-36.133,-81.055
1678021478.278,-53.223,82.520,118.164,-72.754,-229.004
1678021478.282,-146.484,64.453,115.234,-125.000,-9.766
1678021478.296,-141.602,69.824,133.789,-133.301,-26.855
1678021478.300,-113.281,97.168,145.996,-158.691,-178.223
1678021478.304,-158.691,108.398,134.277,-206.543,-87.402
1678021478.308,-190.918,116.211,112.793,-170.898,159.668
1678021478.312,-205.078,122.070,123.535,-168.945,130.859
1678021478.316,-237.305,126.465,142.578,-203.613,-22.949
1678021478.320,-248.047,117.188,126.953,-192.871,-142.090
1678021478.323,-194.336,108.398,132.324,-193.359,62.988
1678021478.327,-184.082,133.301,124.023,-164.062,310.547
1678021478.331,-200.684,128.906,133.301,-132.324,-29.785
1678021478.335,-165.039,112.305,117.188,-153.809,-147.949
1678021478.339,-152.832,163.574,89.355,-200.684,-95.703
1678021478.343,-167.480,208.496,114.258,-177.246,-182.617
1678021478.347,-141.113,187.500,119.141,-163.574,-187.988
1678021478.351,-162.598,177.246,100.098,-166.016,-112.305
1678021478.355,-150.879,186.523,81.055,-162.109,-63.965
1678021478.359,-128.906,181.152,62.012,-153.320,-161.133
1678021478.363,-94.727,145.020,73.730,-116.211,-141.113
1678021478.367,-62.988,74.219,60.547,-84.473,84.473
1678021478.370,-99.609,27.832,9.277,-72.266,143.066
1678021478.374,-170.410,35.645,-27.832,-88.379,-20.996
1678021478.378,-185.547,27.344,-25.391,-112.305,-177.734
1678021478.382,-136.230,15.625,-20.996,-85.938,-100.586
1678021478.386,-68.848,6.836,-61.035,-55.664,182.617
1678021478.371,-37.109,-14.160,-91.309,-67.383,20.020
1678021478.375,-44.434,-22.461,-107.910,-38.574,-97.168
1678021478.379,-15.137,-13.672,-108.887,-11.230,70.312
1678021478.383,15.625,-6.836,-67.871,68.359,-83.984
1678021478.387,41.992,-5.859,-59.082,103.027,-243.164
1678021478.391,85.938,-5.371,-69.824,77.637,-64.941
1678021478.395,83.496,-23.438,-70.312,83.496,95.215
1678021478.398,52.246,-17.578,-81.055,87.891,-49.316
1678021478.402,81.543,-11.230,-84.961,101.562,-93.750
1678021478.406,92.285,-16.113,-77.637,104.980,-127.441
1678021478.410,44.434,-4.395,-71.777,116.699,117.676
1678021478.414,83.496,0.000,-76.172,125.488,329.102
1678021478.447,141.602,-20.508,-77.637,125.000,41.992
1678021478.451,143.066,-40.039,-65.430,127.441,-113.770
1678021478.455,106.445,-34.668,-67.383,130.371,-163.086
1678021478.459,75.684,-42.969,-83.008,134.277,-184.570
1678021478.463,65.430,-21.484,-84.961,125.488,-104.004
1678021478.467,120.605,-13.672,-78.125,113.281,70.312
1678021478.471,143.555,-32.227,-79.102,81.055,78.613
1678021478.474,80.566,-27.344,-88.379,78.613,-189.453
1678021478.478,89.355,-37.598,-71.289,94.238,-211.426
1678021478.482,112.793,-37.598,-69.824,106.934,25.391
1678021478.486,110.840,-31.250,-82.520,112.793,110.352
1678021478.490,123.047,-27.344,-82.031,85.938,-119.629
1678021478.476,133.301,-33.203,-73.242,88.867,-241.211
1678021478.480,150.879,-105.469,-75.684,106.934,-2.441
1678021478.484,145.508,-75.195,-79.590,85.449,88.379
1678021478.488,88.379,8.789,-77.148,78.125,-62.012
1678021478.492,80.078,4.395,-69.824,90.820,-107.422
1678021478.496,98.633,-7.812,-70.312,53.223,-5.859
1678021478.500,95.215,-15.137,-77.148,54.688,6.836
1678021478.503,93.262,-23.926,-77.637,87.891,-52.734
1678021478.507,108.398,-19.043,-88.379,51.758,-38.574
1678021478.511,108.398,-32.227,-87.402,36.621,5.859
1678021478.515,86.426,-54.688,-78.125,33.203,-110.352
1678021478.519,105.957,-28.320,-84.961,41.504,-176.270
1678021478.536,148.438,-15.137,-86.914,51.758,-39.551
1678021478.540,127.930,-28.809,-81.543,57.617,282.715
1678021478.544,91.309,-36.133,-78.125,41.992,230.957
1678021478.548,89.844,-43.457,-82.520,4.395,-169.434
1678021478.552,66.895,-37.109,-82.520,24.414,-198.242
1678021478.556,66.406,-24.902,-80.566,62.988,-75.684
1678021478.560,93.750,-21.484,-71.777,59.082,-4.395
1678021478.563,130.371,-36.621,-70.801,11.719,-58.594
1678021478.567,114.258,-33.203,-81.055,5.371,8.789
1678021478.571,62.012,-21.973,-75.195,7.324,151.367
1678021478.575,80.078,-33.203,-69.824,13.184,-46.387
1678021478.579,96.191,-33.203,-77.637,9.277,-122.559
1678021478.566,102.051,-30.762,-66.895,0.977,-53.223
1678021478.570,111.816,-39.551,-60.059,20.020,-166.504
1678021478.574,68.848,-47.852,-66.406,-13.672,-166.016
1678021478.578,17.578,-37.109,-63.965,7.324,-47.852
1678021478.582,65.918,-34.180,-67.871,1.465,175.293
1678021478.586,65.430,-30.273,-57.129,-22.461,257.324
1678021478.590,52.246,-26.367,-65.918,-34.668,-62.012
1678021478.593,98.145,-23.926,-59.082,-40.527,-168.945
1678021478.597,79.102,-20.508,-21.484,-15.137,-23.926
1678021478.601,14.648,7.812,-47.852,-40.527,-31.738
1678021478.605,-8.789,24.902,-52.734,-64.941,-140.137
1678021478.609,-40.039,-9.277,-30.273,-108.887,-201.660
1678021478.611,-53.223,-4.395,3.418,-168.457,17.578
1678021478.615,-49.316,37.109,34.668,-182.617,-78.125
1678021478.619,-115.234,20.020,20.020,-206.055,-220.703
1678021478.623,-171.875,20.508,10.742,-271.484,-86.426
1678021478.627,-206.543,42.480,23.438,-274.414,-68.359
1678021478.631,-200.195,54.688,24.414,-279.297,-83.496
1678021478.635,-203.613,47.363,33.691,-285.645,-38.086
1678021478.638,-227.539,55.664,30.762,-270.996,134.277
1678021478.642,-213.867,78.613,32.227,-309.082,227.539
1678021478.646,-227.051,64.941,35.156,-324.707,-73.730
1678021478.650,-251.953,55.664,36.621,-325.684,-296.387
1678021478.654,-216.309,75.195,28.809,-318.359,-62.500
1678021478.657,-195.312,82.520,15.137,-299.316,100.098
1678021478.661,-201.660,54.688,19.531,-300.293,-83.496
1678021478.665,-209.961,51.270,17.090,-324.707,-114.746
1678021478.669,-211.914,73.730,11.719,-312.500,42.969
1678021478.673,-208.496,61.035,5.859,-299.316,-31.738
1678021478.677,-211.914,46.875,-1.465,-281.738,-108.887
1678021478.681,-170.898,38.086,-11.719,-248.047,-3.418
1678021478.684,-148.926,45.898,-12.207,-236.816,152.832
1678021478.688,-139.648,45.410,-20.508,-249.023,38.086
1678021478.692,-86.426,39.551,-45.898,-187.500,-187.988
1678021478.696,-125.488,23.926,-39.551,-176.758,-119.141
1678021478.700,-151.855,15.137,-41.504,-188.965,21.484
1678021478.702,-102.539,7.812,-53.223,-163.086,-62.500
1678021478.706,-73.242,-12.207,-55.664,-155.273,-247.070
1678021478.710,-23.926,-20.020,-69.336,-123.535,-124.512
1678021478.714,-11.230,-33.691,-71.289,-82.031,235.352
1678021478.718,-11.230,-40.527,-73.730,-85.938,96.680
1678021478.722,39.551,-37.598,-83.496,-79.102,-108.398
1678021478.726,-25.879,-52.246,-79.102,-80.566,41.016
1678021478.729,-64.941,-79.590,-76.172,-80.566,263.184
1678021478.733,12.207,-68.359,-81.055,-36.133,2.441
1678021478.737,50.781,-57.129,-83.008,-20.996,-121.582
1678021478.741,33.691,-76.172,-92.773,-39.062,18.555
1678021478.745,56.641,-78.613,-96.680,-55.176,-116.699
1678021478.746,59.082,-101.562,-82.031,-58.105,-236.328
1678021478.750,41.504,-73.242,-85.938,-1.465,-147.461
1678021478.754,47.852,-47.852,-93.750,20.996,146.973
1678021478.758,54.688,-63.477,-91.797,1.465,64.453
1678021478.762,1.953,-67.383,-90.332,-11.719,-204.102
1678021478.766,-6.348,-70.801,-94.727,-22.949,-118.652
1678021478.770,61.523,-78.125,-101.562,-13.672,244.141
1678021478.773,106.445,-78.613,-99.121,5.859,223.145
1678021478.777,79.102,-92.773,-103.516,-20.508,-94.238
1678021478.781,21.973,-136.230,-135.254,-54.199,-161.621
1678021478.785,9.766,-147.949,-168.945,-69.336,-150.879
1678021478.789,-19.043,-148.438,-164.551,-85.938,-117.676
1678021478.794,-0.977,-147.949,-145.508,-61.523,-58.105
1678021478.798,60.547,-131.348,-155.273,-55.664,5.371
1678021478.802,68.848,-125.488,-161.621,-81.055,-8.789
1678021478.806,-6.836,-133.301,-151.367,-55.664,-174.805
1678021478.810,5.859,-113.281,-123.047,-32.227,-215.332
1678021478.814,72.266,-78.613,-86.426,0.000,-39.551
1678021478.818,124.023,-38.086,-80.078,27.344,113.281
1678021478.821,123.535,-18.555,-71.777,23.438,-48.828
1678021478.825,100.098,-25.879,-60.547,-33.203,-231.934
1678021478.829,93.750,-40.039,-60.059,-4.395,-104.004
1678021478.833,126.953,-55.176,-58.594,40.527,44.922
1678021478.837,175.293,-38.086,-57.129,20.508,-90.820
1678021478.866,131.836,-34.668,-61.035,0.977,-164.062
1678021478.870,125.000,-44.922,-66.895,-6.836,-137.207
1678021478.874,132.324,-38.574,-68.359,-14.160,-112.793
1678021478.878,93.750,-38.574,-51.758,-2.930,-82.031
1678021478.882,115.234,-45.898,-43.945,-3.418,-110.352
1678021478.886,153.320,-36.621,-61.523,-5.859,194.336
1678021478.890,159.668,-30.762,-70.312,10.254,369.629
1678021478.893,128.906,-41.992,-75.684,-17.578,-16.113
1678021478.897,109.863,-43.457,-66.406,-14.160,-136.719
1678021478.901,135.742,-34.180,-58.105,-3.418,-35.156
1678021478.905,89.355,-41.504,-62.500,-24.414,-144.531
1678021478.909,57.129,-53.711,-61.523,-54.688,-187.012
1678021478.901,65.918,-45.898,-67.871,-34.668,-98.633
1678021478.905,112.305,-37.598,-71.289,-26.855,-15.625
1678021478.909,100.098,-44.434,-65.430,-29.297,-31.250
1678021478.913,50.293,-46.875,-63.477,-41.992,-59.082
1678021478.917,61.523,-45.898,-66.895,-58.105,-111.328
1678021478.921,67.383,-45.898,-68.359,-35.156,-78.125
1678021478.925,79.590,-47.363,-67.383,-41.016,13.672
1678021478.928,83.008,-44.434,-63.965,-68.848,87.402
1678021478.932,35.645,-45.410,-68.359,-48.828,131.348
1678021478.936,78.613,-49.805,-63.477,-68.359,26.367
1678021478.940,89.844,-37.598,-60.547,-66.895,-146.484
1678021478.944,35.156,-60.547,-56.641,-54.199,-143.555
1678021478.942,40.527,-67.383,-59.082,-51.270,139.648
1678021478.946,49.805,-31.738,-65.918,-52.734,224.121
1678021478.950,29.785,-28.320,-60.059,-89.844,-139.648
1678021478.954,52.734,-32.227,-50.781,-92.773,-187.012
1678021478.958,74.707,-25.879,-57.617,-58.594,65.918
1678021478.962,55.176,-38.086,-64.941,-55.664,77.637
1678021478.966,3.418,-53.711,-61.523,-82.520,-43.945
1678021478.969,0.488,-48.828,-58.594,-100.098,-46.875
1678021478.973,17.578,-37.598,-58.105,-70.312,98.145
1678021478.977,-4.883,-37.109,-57.617,-57.129,105.469
1678021478.981,27.344,-38.574,-53.711,-50.293,-82.031
1678021478.985,50.781,-37.109,-49.316,-66.895,-88.379
1678021478.986,-8.789,-34.668,-46.387,-109.375,-135.254
1678021478.990,-22.949,-43.945,-53.711,-91.309,-266.113
1678021478.994,18.066,-43.457,-66.406,-104.492,-233.887
1678021478.998,25.391,-38.574,-62.012,-91.797,-97.656
1678021479.002,17.090,-31.738,-54.199,-79.102,-86.426
1678021479.006,46.387,-27.344,-56.641,-92.285,-65.430
1678021479.010,17.090,-26.855,-58.105,-93.750,-119.629
1678021479.013,-5.371,-30.762,-63.965,-85.938,18.066
1678021479.017,24.902,-38.574,-71.777,-101.074,236.816
1678021479.021,4.395,-38.574,-66.406,-88.379,20.996
1678021479.025,-41.016,-43.457,-57.617,-64.941,-114.746
1678021479.029,1.465,-44.922,-61.523,-99.609,-76.660
1678021479.693,16.113,-36.133,-59.082,-92.285,-104.980
1678021479.697,25.879,-29.297,-59.082,-66.895,-109.375
1678021479.701,40.039,-31.738,-61.035,-75.684,-54.688
1678021479.705,-11.719,-38.574,-57.617,-67.871,57.129
1678021479.709,-5.859,-41.504,-63.477,-100.098,45.410
1678021479.713,24.414,-34.180,-63.477,-110.352,-145.508
1678021479.717,20.996,-32.227,-56.641,-83.008,4.395
1678021479.720,7.324,-36.133,-56.641,-75.684,273.438
1678021479.724,9.277,-34.668,-60.547,-70.801,77.148
1678021479.728,-7.812,-37.109,-59.570,-107.422,-190.430
1678021479.732,-28.809,-37.598,-62.012,-104.004,-206.055
1678021479.736,-34.180,-41.992,-62.012,-90.820,-86.426
1678021479.698,-11.230,-47.363,-60.059,-96.191,22.949
1678021479.702,31.250,-41.016,-64.453,-105.469,-105.469
1678021479.706,14.648,-36.133,-64.941,-111.328,-159.180
1678021479.710,-39.062,-37.598,-64.941,-83.984,-81.055
1678021479.714,-37.598,-42.969,-67.383,-100.586,-110.352
1678021479.718,-86.426,-49.316,-73.242,-122.559,-35.156
1678021479.722,-71.777,-40.527,-60.059,-116.699,121.094
1678021479.725,5.371,-24.902,-38.574,-97.168,149.902
1678021479.729,-24.902,-17.578,-49.316,-116.211,-118.652
1678021479.733,-51.270,-24.414,-56.641,-106.934,-146.973
1678021479.737,-11.719,-19.531,-26.855,-100.098,-82.031
1678021479.741,-87.891,9.766,-21.973,-170.898,-114.746
1678021479.730,-166.016,11.719,-29.785,-223.633,-194.336
1678021479.734,-148.926,15.137,-3.906,-224.609,-189.941
1678021479.738,-175.293,4.883,9.766,-247.070,35.156
1678021479.742,-211.914,-1.953,9.766,-274.414,52.734
1678021479.746,-222.656,17.090,18.066,-301.758,-37.598
1678021479.750,-210.449,3.418,20.996,-312.012,-66.406
1678021479.754,-229.980,11.230,36.621,-311.035,146.484
1678021479.757,-249.512,35.156,23.438,-290.039,326.660
1678021479.761,-218.750,25.879,6.348,-281.738,-19.531
1678021479.765,-238.281,23.926,17.090,-327.148,-111.328
1678021479.769,-282.715,39.062,18.555,-334.473,-119.629
1678021479.773,-247.070,37.109,6.348,-310.059,-256.836
1678021479.733,-216.797,6.348,9.277,-303.711,-182.617
1678021479.737,-238.281,34.668,1.465,-299.805,-93.750
1678021479.741,-217.773,39.551,-16.113,-295.410,-67.871
1678021479.745,-169.922,3.906,-17.090,-264.160,-127.930
1678021479.749,-142.090,4.883,-20.020,-257.324,-224.609
1678021479.753,-123.535,9.277,-26.855,-249.023,-47.852
1678021479.757,-134.277,21.484,-42.969,-222.168,276.855
1678021479.760,-150.879,22.461,-52.246,-186.523,41.992
1678021479.764,-132.324,-5.859,-56.152,-178.223,-166.016
1678021479.768,-124.023,-22.949,-69.336,-203.613,-39.551
1678021479.772,-72.754,-30.273,-78.613,-184.082,-70.801
1678021479.776,-14.648,-51.270,-83.496,-138.184,-117.188
1678021479.736,-74.707,-41.992,-83.496,-112.793,-49.316
1678021479.740,-88.867,-40.527,-85.449,-112.793,-3.418
1678021479.744,-61.523,-55.176,-88.867,-98.145,-95.703
1678021479.748,-35.645,-70.801,-95.215,-74.707,-162.109
1678021479.752,-21.973,-73.242,-106.934,-74.707,-77.637
1678021479.756,0.488,-61.523,-113.281,-62.012,284.180
1678021479.760,24.414,-56.641,-116.211,-37.598,338.867
1678021479.763,28.320,-68.359,-109.375,-70.312,-55.664
1678021479.767,50.293,-58.105,-109.863,-47.852,-112.305
1678021479.771,76.660,-64.453,-116.699,-5.371,166.992
1678021479.775,113.281,-80.078,-111.328,0.000,20.508
1678021479.779,104.980,-68.848,-106.445,-15.625,-191.406
1678021479.745,30.273,-70.801,-106.445,-29.785,-182.617
1678021479.749,7.324,-61.523,-116.211,-17.578,-186.523
1678021479.753,23.926,-66.895,-124.023,-12.207,-145.508
1678021479.757,26.855,-81.543,-119.629,6.348,-64.453
1678021479.761,32.715,-82.520,-117.188,9.766,-37.109
1678021479.765,62.988,-80.566,-122.559,-23.926,-52.734
1678021479.769,88.867,-61.035,-128.418,-20.996,-6.348
1678021479.772,67.383,-61.035,-122.070,3.906,-144.043
1678021479.776,93.262,-72.266,-126.953,3.906,-72.266
1678021479.780,65.430,-105.469,-166.504,-17.090,280.762
1678021479.784,0.488,-133.789,-183.594,-70.801,-19.043
1678021479.788,-8.301,-145.996,-173.340,-68.359,-209.473
1678021479.749,-10.742,-139.160,-173.828,-60.547,12.695
1678021479.753,21.973,-120.117,-174.805,-61.523,7.812
1678021479.757,10.742,-119.629,-171.387,-67.383,-2.930
1678021479.761,-10.742,-121.582,-171.387,-84.473,-61.035
1678021479.765,47.363,-118.652,-165.039,-62.988,37.109
1678021479.769,10.742,-112.793,-160.645,-45.410,157.715
1678021479.773,-45.898,-111.328,-155.762,-56.641,68.359
1678021479.776,22.949,-109.863,-146.484,-56.641,50.781
1678021479.780,59.570,-107.422,-143.555,-47.363,236.816
1678021479.784,12.207,-104.004,-146.484,-58.105,31.250
1678021479.788,-21.973,-100.098,-141.602,-64.453,-182.617
1678021479.792,17.090,-98.633,-133.789,-46.387,-61.035
1678021479.752,38.574,-84.961,-128.906,-51.270,-45.410
1678021479.756,59.570,-85.449,-125.000,-76.660,-170.898
1678021479.760,31.738,-89.355,-117.676,-79.590,-233.887
1678021479.764,-8.789,-67.383,-118.652,-52.734,-131.348
1678021479.768,-3.906,-62.988,-124.023,-52.246,-13.184
1678021479.772,5.371,-64.941,-117.188,-47.852,1.953
1678021479.776,45.898,-63.477,-113.770,-42.480,-61.523
1678021479.779,35.156,-66.406,-111.816,-53.711,-36.133
1678021479.783,-4.883,-70.312,-104.492,-48.340,162.598
1678021479.787,42.480,-61.035,-106.445,-70.312,-55.176
1678021479.791,76.172,-73.730,-107.910,-78.125,-128.418
1678021479.795,40.527,-77.148,-102.539,-65.918,-25.391
1678021479.766,19.043,-56.152,-104.980,-86.426,-166.992
1678021479.770,-6.348,-60.547,-105.469,-87.402,-206.543
1678021479.774,-9.277,-63.477,-96.680,-56.641,13.672
1678021479.778,6.348,-53.223,-98.633,-35.645,132.812
1678021479.782,12.695,-58.105,-97.656,-49.316,-109.375
1678021479.786,15.625,-52.734,-94.727,-92.285,-166.992
1678021479.790,39.551,-39.062,-99.609,-98.633,-109.863
1678021479.793,51.270,-41.016,-97.168,-48.340,134.766
1678021479.797,4.883,-38.086,-95.703,-45.898,337.891
1678021479.801,-7.812,-44.434,-90.332,-83.984,-6.348
1678021479.805,35.645,-52.246,-87.402,-88.867,-299.805
1678021479.809,4.883,-51.758,-91.309,-65.918,-244.629
1678021479.768,-15.625,-41.992,-92.285,-86.426,-114.746
1678021479.772,9.766,-37.109,-96.191,-91.797,-125.000
1678021479.776,31.738,-62.500,-92.773,-78.125,-86.914
1678021479.780,31.250,-43.945,-93.262,-71.777,-77.637
1678021479.784,-26.855,-22.461,-98.633,-101.074,-81.543
1678021479.788,-9.766,-35.156,-95.703,-85.449,-15.625
1678021479.792,20.020,-32.715,-83.496,-54.688,63.965
1678021479.795,-15.137,-32.715,-86.914,-71.777,298.828
1678021479.799,6.836,-36.133,-95.703,-108.887,26.367
1678021479.803,-2.930,-41.992,-90.820,-88.379,-280.762
1678021479.807,-6.348,-52.734,-80.566,-53.711,-132.324
1678021479.811,42.480,-49.805,-82.031,-93.750,-41.992
1678021479.773,26.855,-37.109,-85.449,-100.098,-83.008
1678021479.777,13.184,-34.180,-81.543,-82.031,-87.891
1678021479.781,-2.441,-41.992,-79.102,-104.004,22.949
1678021479.785,-28.809,-41.016,-84.961,-98.145,-57.129
1678021479.789,-26.367,-34.668,-79.590,-81.543,-128.418
1678021479.793,14.160,-35.645,-79.590,-88.379,1.953
1678021479.797,15.137,-40.039,-88.379,-81.543,70.312
1678021479.800,-24.902,-45.898,-86.426,-104.980,-46.387
1678021479.804,-15.137,-45.410,-88.379,-97.168,-134.277
1678021479.808,-18.555,-43.457,-86.914,-74.219,-52.734
1678021479.812,-42.480,-40.039,-84.473,-103.027,188.965
1678021479.816,-35.156,-30.273,-89.355,-112.305,42.480
1678021479.776,-7.812,-21.484,-89.844,-106.934,-218.750
1678021479.780,2.441,-23.926,-84.961,-92.285,-160.156
1678021479.784,5.859,-32.715,-83.984,-58.594,203.613
1678021479.788,18.555,-36.621,-81.543,-80.566,153.320
1678021479.792,1.953,-41.992,-80.566,-117.188,-92.285
1678021479.796,-24.414,-52.734,-82.520,-108.398,-84.961
1678021479.800,-36.133,-52.246,-79.590,-104.004,-37.598
1678021479.803,-45.898,-39.062,-76.660,-102.539,-55.664
1678021479.807,-13.184,-33.203,-80.566,-105.957,-112.793
1678021479.811,14.160,-31.250,-83.008,-100.586,-11.719
1678021479.815,-31.738,-33.203,-82.520,-113.770,22.461
1678021479.819,-19.043,-29.785,-81.543,-133.301,-157.227
1678021479.779,1.953,-35.645,-79.102,-102.539,-145.508
1678021479.783,-33.203,-43.457,-77.637,-98.633,-7.812
1678021479.787,-32.227,-39.062,-79.102,-134.277,11.719
1678021479.791,12.695,-37.109,-81.055,-149.902,-163.574
1678021479.795,13.672,-36.133,-83.008,-142.578,-206.543
1678021479.799,-8.789,-32.715,-86.914,-131.836,232.910
1678021479.803,-15.137,-29.297,-87.402,-119.629,284.180
1678021479.806,-30.762,-37.598,-90.820,-149.902,-109.863
1678021479.810,-29.297,-41.504,-90.332,-186.523,-172.852
1678021479.814,-30.762,-39.551,-89.844,-179.199,-72.266
1678021479.818,-30.762,-40.039,-82.520,-184.570,-127.930
1678021479.822,-16.113,-37.598,-83.496,-180.176,-103.516
1678021479.788,-37.598,-38.574,-98.145,-198.242,-46.875
1678021479.792,-39.062,-38.574,-96.191,-216.309,218.262
1678021479.796,-21.484,-38.086,-89.844,-211.426,126.953
1678021479.800,-32.715,-35.645,-82.031,-222.656,-168.457
1678021479.804,-30.762,-29.785,-82.031,-221.191,-76.172
1678021479.808,-20.508,-21.973,-84.473,-208.008,33.691
1678021479.812,-38.086,-22.949,-70.312,-219.727,-28.320
1678021479.815,-64.453,-22.949,-45.898,-236.816,-217.285
1678021479.819,-47.852,-7.324,-39.062,-258.789,-18.555
1678021479.823,-86.914,-8.301,-45.410,-290.039,250.977
1678021479.827,-161.621,-5.859,-33.691,-327.148,-33.691
1678021479.831,-216.309,-8.301,-11.230,-375.488,-198.730
1678021479.791,-238.770,-13.184,-1.465,-395.020,-177.734
1678021479.795,-220.703,15.625,13.672,-368.164,-149.902
1678021479.799,-229.492,9.277,20.020,-407.227,-29.297
1678021479.803,-264.160,-17.578,27.344,-455.566,-54.199
1678021479.807,-237.793,37.598,18.066,-388.184,55.664
1678021479.811,-216.797,57.129,-20.020,-393.066,111.816
1678021479.815,-244.141,36.621,-26.367,-428.223,-45.898
1678021479.818,-270.508,33.691,-26.855,-413.086,-60.547
1678021479.822,-249.512,26.367,-39.551,-386.230,-18.555
1678021479.826,-224.121,19.531,-24.414,-401.855,-84.473
1678021479.830,-218.750,22.461,-13.184,-422.363,-233.398
1678021479.834,-234.375,38.574,-20.996,-375.977,-174.316
1678021479.820,-223.633,31.738,-25.391,-358.398,62.988
1678021479.824,-181.641,-13.672,-25.391,-361.328,-24.414
1678021479.828,-147.949,-23.438,-22.461,-341.797,-192.383
1678021479.832,-163.086,21.484,-30.762,-339.844,-105.469
1678021479.836,-175.293,49.805,-40.039,-310.059,220.215
1678021479.840,-170.898,5.859,-56.152,-302.734,193.359
1678021479.844,-151.855,-1.953,-67.871,-279.785,9.277
1678021479.847,-116.211,23.926,-62.012,-246.582,5.371
1678021479.851,-71.777,16.113,-70.801,-232.910,115.723
1678021479.855,-54.688,9.766,-64.941,-199.219,-138.672
1678021479.859,-38.086,8.301,-54.688,-171.875,-219.727
1678021479.863,9.766,-3.906,-56.641,-125.977,-48.340
1678021479.823,14.648,0.000,-74.219,-120.117,-149.902
1678021479.827,-4.395,7.324,-89.355,-138.672,-257.812
1678021479.831,8.789,-6.836,-73.730,-145.996,-94.727
1678021479.835,28.320,-40.039,-63.477,-100.098,95.703
1678021479.839,36.621,-74.219,-71.777,-67.871,24.414
1678021479.843,25.391,-29.785,-83.008,-108.398,-132.812
1678021479.847,48.828,12.695,-83.496,-99.609,-211.426
1678021479.850,69.824,-5.859,-80.566,-75.195,139.648
1678021479.854,36.133,-24.414,-73.242,-53.223,430.664
1678021479.858,41.504,-31.250,-79.590,-43.457,52.246
1678021479.862,41.992,-38.574,-99.121,-61.523,-159.668
1678021479.866,60.547,-40.527,-97.656,-73.730,-78.613
1678021479.832,78.613,-46.875,-96.191,-65.918,-165.039
1678021479.836,66.406,-50.293,-96.680,-36.621,-163.574
1678021479.840,74.707,-49.316,-101.074,-24.902,-78.125
1678021479.844,84.473,-56.641,-105.957,-32.715,-70.801
1678021479.848,55.664,-88.867,-101.562,-30.273,-141.602
1678021479.852,56.152,-90.820,-100.098,-41.504,-152.832
1678021479.856,102.051,-48.340,-102.539,-45.410,76.172
1678021479.859,88.867,-44.434,-109.375,-16.113,341.309
1678021479.863,65.918,-85.449,-106.445,-8.789,136.719
1678021479.867,72.754,-57.129,-103.516,-55.176,-126.465
1678021479.871,67.383,-16.602,-101.074,-67.383,-108.398
1678021479.875,67.383,-33.691,-108.887,-38.574,-78.613
1678021479.902,66.895,-48.828,-116.211,-28.320,-127.441
1678021479.906,101.074,-50.293,-116.211,-39.551,-120.117
1678021479.910,112.305,-51.758,-116.211,-53.711,-49.805
1678021479.914,88.867,-62.012,-114.258,-62.988,-152.344
1678021479.918,104.980,-66.406,-110.840,-35.156,-240.723
1678021479.922,93.262,-55.664,-108.398,-40.039,-55.176
1678021479.926,36.133,-63.965,-118.652,-39.551,321.777
1678021479.929,26.367,-77.148,-117.676,-33.203,327.637
1678021479.933,24.902,-67.871,-111.816,-60.547,-132.812
1678021479.937,29.297,-66.406,-122.559,-64.453,-212.402
1678021479.941,42.480,-72.754,-118.164,-45.410,-46.387
1678021479.945,28.320,-61.523,-113.281,-33.691,-34.668
1678021479.921,42.969,-62.012,-115.234,-85.449,-152.344
1678021479.925,66.895,-67.383,-104.004,-107.422,-178.711
1678021479.929,53.711,-74.707,-97.656,-62.988,-82.520
1678021479.933,34.180,-69.824,-102.051,-64.941,-89.355
1678021479.937,13.672,-48.340,-107.422,-83.984,-138.184
1678021479.941,19.531,-45.410,-103.516,-96.680,-24.414
1678021479.945,22.461,-57.129,-101.562,-96.191,-4.395
1678021479.948,15.137,-56.641,-106.934,-75.684,-112.305
1678021479.952,60.547,-60.059,-106.445,-68.848,-122.070
1678021479.956,52.246,-58.105,-105.469,-90.332,64.453
1678021479.960,-29.785,-46.387,-101.562,-88.867,156.250
1678021479.964,9.277,-76.172,-100.586,-88.867,-72.754
1678021479.977,71.289,-79.102,-107.910,-99.609,-161.621
1678021479.981,-16.602,-53.223,-104.980,-68.848,225.586
1678021479.985,-45.410,-59.570,-89.844,-72.266,361.328
1678021479.989,-5.859,-62.012,-92.285,-122.559,25.879
1678021479.993,40.039,-57.617,-98.633,-117.188,-146.973
1678021479.997,0.488,-52.734,-88.867,-103.027,62.012
1678021480.001,-13.184,-48.828,-85.449,-95.215,441.406
1678021480.004,23.438,-59.082,-87.891,-79.102,251.953
1678021480.008,15.137,-59.570,-88.867,-80.078,-62.500
1678021480.012,29.785,-56.152,-91.797,-117.188,-143.066
1678021480.016,18.066,-65.918,-95.703,-125.488,-184.082
1678021480.020,9.766,-70.801,-96.680,-80.566,-182.129
1678021480.021,6.836,-58.105,-97.656,-83.496,-106.934
1678021480.025,-0.977,-42.969,-107.422,-103.027,-98.633
1678021480.029,-28.320,-51.270,-100.098,-113.281,-182.129
1678021480.033,-21.484,-58.105,-88.379,-120.605,-166.992
1678021480.037,35.156,-53.223,-83.496,-110.352,10.254
1678021480.041,38.574,-56.152,-81.543,-103.516,106.934
1678021480.045,-6.348,-55.176,-84.961,-97.168,37.109
1678021480.048,1.465,-51.270,-83.008,-104.004,-139.648
1678021480.052,39.551,-56.641,-82.520,-103.027,-121.582
1678021480.056,20.508,-63.965,-85.449,-83.984,166.504
1678021480.060,45.898,-54.688,-78.613,-97.168,31.250
1678021480.064,46.387,-68.359,-75.195,-101.562,-129.395
1678021480.084,-14.160,-67.383,-81.055,-126.953,-52.246
1678021480.088,-27.344,-40.039,-89.355,-133.301,-140.625
1678021480.092,-17.578,-48.340,-105.957,-99.609,-107.422
1678021480.096,20.996,-65.918,-111.328,-108.398,-6.836
1678021480.100,54.199,-47.363,-98.145,-102.051,70.312
1678021480.104,-35.645,-46.387,-84.473,-101.074,-2.441
1678021480.108,-44.922,-32.227,-85.449,-127.441,-136.230
1678021480.111,4.395,-22.949,-85.938,-115.234,-58.105
1678021480.115,-11.719,-41.504,-79.102,-102.051,218.750
1678021480.119,-26.855,-49.316,-84.961,-100.586,128.418
1678021480.123,-25.879,-48.340,-90.820,-103.027,-162.598
1678021480.127,-26.855,-48.340,-92.285,-114.258,-95.215
1678021480.111,-20.020,-48.828,-86.914,-104.004,127.441
1678021480.115,-12.207,-54.199,-82.031,-95.215,-64.941
1678021480.119,0.000,-80.566,-84.473,-82.031,-187.988
1678021480.123,-16.113,-72.266,-91.797,-90.820,-129.883
1678021480.127,-29.785,-45.898,-91.309,-115.723,-186.035
1678021480.131,0.977,-36.133,-83.496,-112.305,-66.895
1678021480.135,-25.391,-51.270,-93.262,-115.234,2.441
1678021480.138,-55.664,-62.988,-108.398,-117.188,66.406
1678021480.142,-47.852,-57.129,-104.004,-105.957,194.336
1678021480.146,-7.324,-53.223,-100.098,-122.070,-110.840
1678021480.150,-2.441,-56.152,-106.934,-111.328,-264.160
1678021480.154,-20.020,-68.848,-100.586,-102.051,-23.926
1678021480.156,-39.551,-68.359,-105.957,-96.680,246.094
1678021480.160,-48.340,-91.797,-118.164,-105.469,-17.090
1678021480.164,-77.637,-97.168,-104.004,-136.719,-138.672
1678021480.168,-66.406,-42.969,-93.750,-117.676,40.039
1678021480.172,-17.090,-25.879,-91.797,-103.027,26.367
1678021480.176,-21.484,-51.270,-97.656,-109.863,-43.457
1678021480.180,-36.621,-51.270,-102.539,-109.375,14.648
1678021480.183,-40.039,-46.387,-99.609,-118.652,141.113
1678021480.187,-47.852,-57.129,-103.027,-120.605,-59.082
1678021480.191,-41.504,-63.965,-105.957,-107.910,-229.980
1678021480.195,-40.527,-73.730,-105.469,-94.238,-22.949
1678021480.199,-22.461,-79.102,-103.516,-99.609,31.250
1678021480.201,-35.645,-55.664,-103.027,-110.352,-179.199
1678021480.205,-77.637,-52.246,-99.609,-106.445,-229.980
1678021480.209,-51.758,-62.500,-96.191,-91.309,-96.680
1678021480.213,-41.016,-61.523,-100.098,-107.422,17.090
1678021480.217,-48.340,-62.500,-99.121,-104.492,-30.273
1678021480.221,-25.391,-62.012,-105.957,-100.586,-141.602
1678021480.225,-31.738,-67.871,-106.934,-127.930,-105.469
1678021480.228,-35.156,-91.309,-96.680,-122.559,148.926
1678021480.232,-39.062,-83.008,-85.938,-97.168,-10.254
1678021480.236,-57.617,-64.453,-96.680,-102.051,-172.363
1678021480.240,-74.219,-65.430,-113.770,-118.652,-140.625
1678021480.244,-55.664,-42.480,-94.727,-124.512,-213.379
1678021480.261,-14.648,-49.805,-86.914,-117.676,-123.047
1678021480.265,-26.367,-80.566,-88.379,-97.656,-42.480
1678021480.269,-40.527,-62.500,-83.008,-111.328,88.867
1678021480.273,-75.684,-26.855,-87.891,-116.699,114.746
1678021480.277,-97.656,-40.039,-83.008,-115.723,-108.398
1678021480.281,-80.078,-47.852,-90.332,-140.137,-51.270
1678021480.285,-75.684,-40.527,-89.844,-132.324,259.277
1678021480.288,-53.223,-35.156,-86.914,-110.840,182.617
1678021480.292,-37.109,-42.969,-90.820,-121.582,-110.840
1678021480.296,-27.344,-60.547,-83.496,-120.117,-128.418
1678021480.300,-8.789,-60.059,-80.566,-118.164,-126.465
1678021480.304,-65.918,-53.223,-81.055,-127.930,-143.066
1678021480.294,-99.121,-68.848,-90.820,-136.719,-101.074
1678021480.298,-91.309,-104.980,-122.070,-171.387,-107.910
1678021480.302,-97.168,-115.723,-137.207,-190.430,-126.465
1678021480.306,-114.746,-107.910,-140.625,-195.312,-92.285
1678021480.310,-124.023,-101.562,-127.441,-202.148,-143.066
1678021480.314,-139.648,-84.961,-105.957,-211.426,-5.371
1678021480.318,-161.621,-84.961,-102.539,-233.398,137.207
1678021480.321,-200.684,-56.152,-86.426,-267.578,-136.230
1678021480.325,-249.023,-49.316,-62.988,-298.828,-290.527
1678021480.329,-295.898,-59.570,-49.316,-331.055,-109.375
1678021480.333,-298.828,-35.645,-30.273,-355.469,200.195
1678021480.337,-268.555,-16.602,10.254,-364.258,-1.465
1678021480.351,-305.664,4.395,35.645,-384.766,-260.742
1678021480.355,-315.918,16.113,59.570,-347.168,-161.133
1678021480.359,-300.293,35.645,60.547,-328.613,5.371
1678021480.363,-273.438,37.598,59.082,-333.008,-47.363
1678021480.367,-247.559,18.555,69.824,-317.383,-77.148
1678021480.371,-294.922,50.293,47.363,-342.773,175.781
1678021480.375,-276.367,89.355,46.387,-340.332,418.457
1678021480.378,-249.512,80.566,52.246,-326.660,158.203
1678021480.382,-258.789,70.312,41.016,-304.199,-75.195
1678021480.386,-275.391,48.828,33.203,-295.410,-9.766
1678021480.390,-309.570,63.477,17.578,-318.359,-95.215
1678021480.394,-292.480,75.684,0.000,-332.031,-228.516
1678021480.421,-277.344,89.844,-6.836,-320.312,-180.176
1678021480.425,-222.656,103.516,-16.113,-247.559,-56.641
1678021480.429,-152.832,55.176,-23.438,-209.961,-67.383
1678021480.433,-193.359,12.207,-8.301,-250.977,-102.051
1678021480.437,-210.449,24.902,-25.879,-222.656,-85.938
1678021480.441,-137.207,18.066,-44.922,-167.480,-65.430
1678021480.445,-74.219,-33.203,-43.945,-149.902,64.453
1678021480.448,-136.230,-72.266,-57.617,-141.602,43.457
1678021480.452,-171.387,-24.414,-66.895,-129.395,-171.387
1678021480.456,-129.395,-5.859,-53.223,-120.605,-219.727
1678021480.460,-81.543,-28.320,-57.617,-89.844,41.992
1678021480.464,-66.406,-40.527,-72.266,-74.707,237.793
1678021480.451,-103.027,-54.199,-67.871,-105.957,-77.637
1678021480.455,-77.148,-67.383,-66.895,-95.703,-183.594
1678021480.459,-23.438,-82.520,-68.848,-58.105,128.418
1678021480.463,-25.391,-74.707,-74.219,-43.945,130.859
1678021480.467,-52.246,-79.590,-76.660,-57.129,-81.055
1678021480.471,-53.711,-90.820,-77.637,-72.754,-16.113
1678021480.475,-60.547,-69.824,-75.195,-43.457,177.246
1678021480.478,-68.359,-74.219,-74.707,-36.133,96.680
1678021480.482,-59.082,-73.242,-79.590,-51.758,-35.645
1678021480.486,-20.508,-72.266,-75.684,-37.598,-63.965
1678021480.490,-21.484,-79.590,-75.684,-35.645,158.203
1678021480.494,-60.547,-80.078,-73.730,-23.438,86.914
1678021480.486,-59.570,-79.590,-77.637,-20.020,-113.281
1678021480.490,-47.852,-91.797,-91.797,-37.109,-48.828
1678021480.494,-51.758,-90.332,-87.891,-50.293,-16.602
1678021480.498,-39.551,-85.449,-79.102,-58.594,-115.723
1678021480.502,-33.691,-89.355,-88.379,-50.781,-133.301
1678021480.506,-29.785,-83.984,-93.750,-17.090,17.578
1678021480.510,-6.348,-81.055,-95.703,-30.273,123.535
1678021480.513,-16.602,-81.543,-96.680,-56.641,6.836
1678021480.517,-23.438,-87.891,-99.121,-48.340,-197.266
1678021480.521,19.531,-98.633,-103.516,-49.805,-132.324
1678021480.525,10.742,-104.004,-98.145,-55.176,48.828
1678021480.529,-38.086,-86.426,-94.238,-33.691,-55.176
1678021480.546,-78.125,-61.523,-94.727,-29.297,-50.293
1678021480.550,-40.039,-59.082,-93.750,-53.223,120.117
1678021480.554,-69.336,-77.148,-95.703,-55.664,68.359
1678021480.558,-91.797,-84.473,-86.914,-58.594,-193.359
1678021480.562,-44.434,-76.172,-84.473,-60.059,-119.629
1678021480.566,-44.922,-99.609,-108.887,-72.266,70.312
1678021480.570,-68.848,-106.445,-100.586,-80.566,2.441
1678021480.573,-37.598,-72.266,-83.984,-67.383,-175.293
1678021480.577,-13.184,-57.617,-89.844,-71.289,-139.160
1678021480.581,-35.156,-68.359,-89.355,-77.637,161.621
1678021480.585,-20.996,-72.266,-91.309,-65.430,61.523
1678021480.589,18.555,-75.684,-89.355,-68.359,-158.691
1678021480.591,-37.109,-88.867,-91.797,-81.543,-66.406
1678021480.595,-83.496,-92.285,-89.844,-76.172,40.039
1678021480.599,-42.480,-87.891,-79.590,-57.129,-39.062
1678021480.603,-13.184,-95.703,-82.520,-55.176,-70.801
1678021480.607,-22.949,-83.008,-91.797,-78.613,-126.465
1678021480.611,-33.691,-61.523,-91.309,-104.492,-75.195
1678021480.615,-48.828,-64.941,-81.055,-86.914,-8.789
1678021480.618,-51.270,-69.336,-85.938,-80.566,-73.730
1678021480.622,-43.945,-72.754,-89.355,-86.914,46.875
1678021480.626,-37.598,-82.520,-82.520,-88.379,212.402
1678021480.630,-58.105,-84.961,-82.031,-96.191,-108.887
1678021480.634,-69.824,-81.055,-81.055,-95.215,-212.402
1678021480.651,-59.082,-81.543,-79.102,-93.750,137.695
1678021480.655,-35.156,-79.102,-81.055,-85.449,113.281
1678021480.659,-18.066,-83.496,-79.590,-108.887,-48.828
1678021480.663,-66.895,-84.473,-80.078,-123.047,-35.645
1678021480.667,-48.340,-76.660,-79.590,-84.961,95.215
1678021480.671,-43.457,-76.660,-79.102,-77.637,141.113
1678021480.675,-79.102,-82.520,-81.543,-91.309,-27.832
1678021480.678,-86.914,-90.332,-81.055,-105.469,-45.898
1678021480.682,-71.777,-77.637,-73.242,-104.492,107.422
1678021480.686,-48.340,-74.707,-68.848,-104.004,-54.688
1678021480.690,-51.270,-74.219,-73.242,-100.586,-265.625
1678021480.694,-31.250,-66.406,-76.172,-92.285,-201.660
1678021480.681,-29.297,-61.523,-77.148,-115.234,-126.465
1678021480.685,-35.645,-53.223,-75.684,-119.629,-211.914
1678021480.689,-24.902,-47.363,-72.754,-116.211,-247.070
1678021480.693,-61.523,-52.734,-68.359,-104.980,-111.328
1678021480.697,-53.223,-69.824,-68.359,-93.262,-67.383
1678021480.701,-14.160,-70.312,-70.801,-110.352,-49.805
1678021480.705,-43.457,-70.801,-78.613,-127.441,-106.934
1678021480.708,-70.801,-61.523,-80.566,-123.535,-10.254
1678021480.712,-78.125,-46.387,-77.148,-112.793,53.711
1678021480.716,-88.867,-65.430,-72.754,-105.957,-79.102
1678021480.720,-79.102,-67.871,-64.453,-108.887,-162.598
1678021480.724,-64.941,-53.711,-59.570,-102.051,27.832
1678021480.741,-56.152,-69.336,-63.965,-107.910,266.602
1678021480.745,-64.453,-74.707,-63.965,-111.328,-16.113
1678021480.749,-62.012,-67.383,-64.941,-104.004,-138.184
1678021480.753,-57.129,-69.336,-70.312,-103.516,43.945
1678021480.757,-47.363,-62.500,-65.430,-105.957,-28.809
1678021480.761,-68.848,-67.871,-61.523,-113.281,-133.301
1678021480.765,-85.449,-86.426,-58.105,-116.211,-42.480
1678021480.768,-42.969,-66.406,-62.988,-100.098,278.320
1678021480.772,-50.781,-55.176,-71.777,-99.609,232.422
1678021480.776,-81.055,-54.688,-69.824,-111.816,-174.316
1678021480.780,-88.867,-54.199,-65.918,-125.977,-206.543
1678021480.784,-57.129,-61.523,-65.430,-122.070,-83.008
1678021480.802,-55.176,-71.777,-65.430,-97.656,-74.707
1678021480.806,-81.543,-84.961,-68.359,-118.652,-140.625
1678021480.810,-82.520,-69.824,-65.430,-131.348,-154.297
1678021480.814,-95.703,-50.293,-63.965,-130.859,-123.047
1678021480.818,-82.520,-51.270,-65.430,-120.605,-144.531
1678021480.822,-73.242,-68.359,-69.824,-109.863,-111.816
1678021480.826,-66.406,-77.637,-75.195,-128.418,28.809
1678021480.829,-88.867,-67.871,-69.824,-126.465,-1.465
1678021480.833,-108.398,-71.289,-64.941,-116.211,-206.055
1678021480.837,-87.402,-75.684,-69.336,-110.352,-204.102
1678021480.841,-68.359,-63.965,-69.336,-115.723,58.105
1678021480.845,-55.664,-58.105,-71.289,-121.094,75.195
1678021480.846,-79.102,-87.402,-74.707,-112.793,-63.965
1678021480.850,-78.125,-98.633,-70.801,-120.605,-133.789
1678021480.854,-86.914,-57.129,-69.824,-115.234,94.238
1678021480.858,-105.957,-46.875,-78.613,-102.051,391.113
1678021480.862,-75.195,-57.617,-76.172,-115.723,63.965
1678021480.866,-65.430,-69.824,-70.801,-125.000,-38.574
1678021480.870,-62.500,-66.406,-70.312,-134.277,45.898
1678021480.873,-68.359,-61.035,-71.777,-115.723,-123.535
1678021480.877,-74.219,-84.961,-77.148,-97.168,-164.062
1678021480.881,-70.312,-86.914,-69.824,-85.449,-75.684
1678021480.885,-75.195,-52.246,-74.707,-102.539,-67.383
1678021480.889,-88.379,-47.363,-83.008,-126.465,-122.559
1678021480.861,-95.703,-50.293,-66.895,-118.652,-64.453
1678021480.865,-45.410,-37.109,-47.852,-111.328,-13.672
1678021480.869,-31.738,-102.539,-66.406,-92.285,280.273
1678021480.873,-40.039,-97.656,-70.312,-100.098,168.457
1678021480.877,-70.801,-22.461,-56.152,-116.699,-149.902
1678021480.881,-141.602,-8.789,-76.172,-121.094,-75.684
1678021480.885,-123.535,-37.109,-44.434,-117.188,68.848
1678021480.888,-61.035,-63.965,-15.137,-103.027,-17.578
1678021480.892,-52.734,-46.875,-34.668,-99.609,-82.031
1678021480.896,-86.914,16.113,-21.973,-148.438,12.695
1678021480.900,-145.020,53.223,-13.672,-191.895,-124.023
1678021480.904,-194.824,32.715,9.766,-202.637,-199.219
1678021480.911,-187.500,16.602,9.766,-228.027,-63.477
1678021480.915,-144.531,17.578,12.207,-240.234,172.852
1678021480.919,-228.516,29.297,10.742,-297.852,408.203
1678021480.923,-312.012,9.766,41.016,-324.219,43.457
1678021480.927,-300.293,2.441,67.383,-299.316,-207.520
1678021480.931,-315.430,-24.902,40.527,-333.496,0.000
1678021480.935,-316.895,-3.906,26.367,-342.285,0.000
1678021480.938,-264.160,42.480,28.809,-337.402,-152.344
1678021480.942,-250.000,-2.930,37.109,-358.887,-166.504
1678021480.946,-272.949,-62.988,42.969,-347.168,-100.586
1678021480.950,-273.926,-32.227,38.086,-327.148,-83.008
1678021480.954,-286.621,53.223,28.320,-352.051,-124.023
1678021480.997,-279.785,79.590,31.738,-364.746,-125.488
1678021481.001,-261.230,74.707,37.598,-328.125,-77.637
1678021481.005,-222.168,23.926,11.230,-277.344,-119.629
1678021481.009,-210.938,0.488,-29.785,-276.855,-140.625
1678021481.013,-181.641,36.621,8.301,-281.738,11.719
1678021481.017,-155.273,19.043,2.930,-250.488,445.312
1678021481.021,-161.621,33.203,-27.344,-240.723,437.500
1678021481.024,-129.883,36.621,-12.207,-229.004,-77.148
1678021481.028,-114.258,-3.906,-19.043,-206.543,-163.574
1678021481.032,-109.863,-34.668,-36.621,-182.129,-116.211
1678021481.036,-70.801,-22.949,-51.758,-146.973,-203.613
1678021481.040,-29.297,-33.691,-74.219,-131.348,-194.336
1678021481.026,1.953,-67.871,-91.309,-126.465,0.488
1678021481.030,20.508,-68.848,-97.168,-107.422,9.766
1678021481.034,-10.254,-64.453,-102.051,-95.703,-50.781
1678021481.038,0.000,-76.172,-104.004,-86.914,-63.477
1678021481.042,35.156,-92.773,-109.863,-72.754,92.773
1678021481.046,23.926,-100.098,-118.164,-48.340,290.039
1678021481.050,45.410,-74.219,-119.629,-40.039,64.453
1678021481.053,59.570,-60.547,-115.723,-43.457,3.418
1678021481.057,49.316,-68.359,-128.418,-37.109,-12.207
1678021481.061,44.922,-70.801,-132.324,-43.457,-233.398
1678021481.065,83.984,-78.125,-115.234,-47.363,-312.012
1678021481.069,125.000,-81.543,-113.770,-14.648,-162.109
1678021481.071,69.336,-83.496,-113.281,-13.672,-51.758
1678021481.075,31.250,-96.191,-109.375,-31.738,-121.582
1678021481.079,76.660,-83.008,-113.281,-22.461,-201.172
1678021481.083,92.285,-88.867,-113.770,-16.113,-187.500
1678021481.087,59.082,-97.656,-111.328,8.301,171.875
1678021481.091,62.988,-80.078,-104.492,16.113,171.387
1678021481.095,67.383,-79.590,-107.910,3.418,-58.594
1678021481.098,54.688,-86.914,-115.234,-19.531,-125.488
1678021481.102,62.012,-101.562,-98.145,-27.832,-157.715
1678021481.106,54.688,-97.168,-83.984,-0.488,-126.953
1678021481.110,41.016,-81.055,-82.520,16.602,-153.320
1678021481.114,54.688,-91.797,-85.938,4.395,34.180
1678021481.123,55.176,-103.516,-93.750,-1.465,401.855
1678021481.127,41.504,-91.309,-104.004,-10.742,26.855
1678021481.131,23.438,-75.195,-98.633,-12.207,-232.910
1678021481.135,29.785,-79.590,-94.727,-9.766,-77.637
1678021481.139,72.266,-85.449,-99.121,-26.367,-66.895
1678021481.143,91.309,-87.402,-83.984,-50.293,-139.160
1678021481.147,30.762,-80.078,-83.008,-40.039,-195.801
1678021481.150,-6.836,-71.289,-89.844,-11.719,-56.152
1678021481.154,25.391,-76.172,-92.285,-7.812,-83.496
1678021481.158,-6.348,-77.148,-90.820,-24.902,-128.418
1678021481.162,-62.012,-79.102,-83.984,-45.898,-128.418
1678021481.166,-22.949,-83.496,-79.102,-28.320,181.641
1678021481.209,6.836,-81.543,-76.172,-13.672,145.020
1678021481.213,16.113,-76.660,-74.219,-23.926,-131.348
1678021481.217,2.441,-83.008,-76.660,-34.668,-51.270
1678021481.221,-19.531,-102.539,-80.078,-36.133,-125.488
1678021481.225,-3.418,-97.656,-78.125,-51.758,-219.238
1678021481.229,5.371,-102.051,-77.637,-44.922,-205.566
1678021481.233,-6.836,-89.355,-89.844,-25.879,41.992
1678021481.236,-34.668,-33.691,-74.707,-20.508,227.051
1678021481.240,-40.039,-32.715,-55.664,-38.086,-66.406
1678021481.244,-45.410,-59.082,-57.617,-61.523,-235.840
1678021481.248,-42.480,-63.965,-63.477,-61.035,-167.480
1678021481.252,-31.250,-69.336,-66.895,-58.105,-133.789
1678021481.215,-23.926,-86.914,-67.871,-59.570,-112.793
1678021481.219,-23.926,-87.402,-73.730,-72.266,-65.918
1678021481.223,-38.574,-73.730,-75.684,-67.871,-22.949
1678021481.227,-64.941,-70.801,-75.195,-65.918,-125.000
1678021481.231,-63.477,-67.871,-78.125,-73.242,-121.094
1678021481.235,-46.387,-75.195,-90.332,-59.570,63.477
1678021481.239,-40.039,-77.148,-93.750,-68.848,78.125
1678021481.242,-43.945,-75.684,-90.820,-85.449,-129.395
1678021481.246,-53.223,-75.684,-93.262,-78.125,-246.094
1678021481.250,-54.688,-73.730,-74.219,-60.547,-131.348
1678021481.254,-57.129,-83.496,-63.965,-61.035,-33.203
1678021481.258,-51.270,-92.773,-71.289,-83.008,-96.680
1678021481.250,-38.574,-91.309,-79.102,-96.680,-157.227
1678021481.254,-47.363,-63.477,-78.613,-92.773,-148.438
1678021481.258,-44.434,-49.805,-85.449,-77.637,-35.645
1678021481.262,-32.227,-64.453,-90.332,-72.266,-20.020
1678021481.266,-41.992,-78.613,-79.590,-64.941,20.996
1678021481.270,-54.199,-62.988,-76.172,-79.102,56.641
1678021481.274,-72.754,-54.199,-75.195,-98.145,-13.672
1678021481.277,-70.801,-69.336,-72.754,-82.520,-111.816
1678021481.281,-42.480,-62.012,-74.707,-67.871,-71.289
1678021481.285,-45.410,-57.129,-75.195,-75.195,107.910
1678021481.289,-59.570,-66.406,-71.289,-89.844,285.645
1678021481.293,-67.871,-73.242,-75.195,-76.172,337.402
1678021481.299,-68.848,-70.312,-80.566,-66.895,340.332
1678021481.303,-63.965,-72.266,-75.684,-76.660,73.730
1678021481.307,-49.316,-71.777,-74.707,-79.590,-132.812
1678021481.311,-43.457,-69.824,-72.754,-98.145,-168.945
1678021481.315,-52.734,-73.730,-70.312,-104.980,-190.918
1678021481.319,-47.852,-74.707,-83.984,-66.406,138.672
1678021481.323,-53.223,-67.383,-82.520,-71.289,222.656
1678021481.326,-67.871,-76.660,-71.777,-89.355,0.488
1678021481.330,-82.031,-77.637,-63.477,-100.098,-43.945
1678021481.334,-72.754,-70.312,-62.500,-123.535,-88.379
1678021481.338,-39.551,-70.801,-68.359,-96.191,-116.699
1678021481.342,-32.227,-64.453,-66.406,-65.918,-132.324
1678021481.343,-28.809,-66.895,-50.781,-73.730,-106.934
1678021481.347,-47.852,-72.754,-51.758,-87.891,-60.059
1678021481.351,-67.871,-87.402,-60.547,-110.352,-104.492
1678021481.355,-75.195,-87.891,-60.059,-85.938,-165.527
1678021481.359,-113.281,-54.688,-62.500,-69.336,-82.031
1678021481.363,-106.445,-47.852,-64.941,-88.379,53.711
1678021481.367,-67.383,-53.711,-72.266,-85.449,-32.227
1678021481.370,-57.617,-61.523,-82.031,-102.539,-164.062
1678021481.374,-81.055,-70.312,-77.148,-96.680,-62.012
1678021481.378,-75.684,-56.641,-59.570,-58.105,395.508
1678021481.382,-53.223,-57.617,-55.664,-65.918,341.309
1678021481.386,-57.617,-84.961,-71.777,-92.773,-84.961
1678021481.432,-78.613,-70.312,-72.266,-99.609,-54.199
1678021481.436,-103.516,-41.016,-53.711,-101.074,-50.781
1678021481.440,-102.539,-49.805,-57.129,-106.445,-192.871
1678021481.444,-88.867,-62.988,-63.477,-108.398,-136.230
1678021481.448,-76.660,-52.734,-48.828,-111.816,25.391
1678021481.452,-59.082,-32.715,-57.617,-116.211,-91.309
1678021481.456,-55.176,-40.039,-40.039,-110.840,-176.758
1678021481.459,-63.965,-37.109,-8.789,-88.867,-55.664
1678021481.463,-93.750,-7.812,-30.762,-105.469,268.555
1678021481.467,-134.766,-4.883,-50.781,-151.855,274.902
1678021481.471,-137.207,-5.859,-19.531,-184.570,-140.625
1678021481.475,-146.973,-8.301,-4.395,-211.914,-202.148
1678021481.439,-203.613,-9.766,-0.488,-246.582,-116.699
1678021481.443,-234.863,-6.836,15.625,-270.020,-168.457
1678021481.447,-288.574,0.977,4.395,-301.270,-176.758
1678021481.451,-330.566,2.441,27.832,-336.426,-149.902
1678021481.455,-310.059,3.418,56.641,-347.656,-177.246
1678021481.459,-295.410,19.531,57.617,-331.543,-96.191
1678021481.463,-301.758,3.906,41.504,-314.941,20.508
1678021481.466,-308.105,4.883,12.695,-325.684,-40.039
1678021481.470,-292.480,17.090,-5.859,-331.055,-99.121
1678021481.474,-277.344,10.742,41.504,-326.172,-180.664
1678021481.478,-259.766,1.953,55.664,-302.734,-166.016
1678021481.482,-267.090,1.953,31.738,-290.039,-7.812
1678021481.477,-280.273,8.301,40.527,-283.203,68.848
1678021481.481,-261.719,-8.301,18.555,-277.344,-38.574
1678021481.485,-252.930,-21.484,-0.977,-295.898,-154.297
1678021481.489,-238.770,24.414,37.109,-270.996,-66.895
1678021481.493,-195.801,15.137,20.996,-232.910,-66.895
1678021481.497,-153.809,-35.645,-37.109,-209.473,-76.660
1678021481.501,-146.973,-43.945,-58.105,-200.195,20.020
1678021481.504,-139.648,-67.871,-27.832,-188.965,144.043
1678021481.508,-137.207,-47.852,-30.762,-151.855,304.199
1678021481.512,-132.324,-37.109,-55.664,-117.188,338.379
1678021481.516,-111.816,-61.523,-75.684,-132.812,36.621
1678021481.520,-98.633,-60.547,-79.590,-140.625,-145.996
1678021481.526,-79.590,-65.918,-62.988,-123.535,-156.250
1678021481.530,-50.293,-85.938,-69.824,-95.703,-210.938
1678021481.534,-48.828,-95.703,-96.191,-64.453,-113.281
1678021481.538,-55.664,-79.102,-97.656,-56.152,8.301
1678021481.542,-55.664,-83.984,-76.172,-48.340,-79.590
1678021481.546,-42.480,-95.215,-66.895,-64.941,-143.066
1678021481.550,-35.645,-99.121,-68.848,-53.711,-29.785
1678021481.553,-18.555,-98.633,-71.289,-19.043,83.008
1678021481.557,1.953,-90.820,-75.684,-19.043,-33.691
1678021481.561,12.207,-108.887,-83.008,-12.695,-110.840
1678021481.565,11.719,-108.887,-69.824,-9.277,-74.219
1678021481.569,11.719,-83.496,-63.965,-25.879,-73.242
1678021481.581,21.484,-86.914,-59.570,-8.789,-94.727
1678021481.585,11.230,-92.285,-45.898,-1.953,-85.938
1678021481.589,14.648,-91.309,-47.363,-5.859,34.180
1678021481.593,10.742,-106.934,-42.969,-0.977,-77.637
1678021481.597,-1.953,-107.422,-40.039,4.395,-173.828
1678021481.601,1.953,-86.914,-44.922,18.066,33.203
1678021481.605,17.090,-84.473,-43.945,22.949,336.914
1678021481.608,17.090,-85.449,-50.781,9.277,602.051
1678021481.612,9.277,-90.820,-49.805,-2.930,387.695
1678021481.616,0.488,-92.285,-39.062,-4.883,-67.871
1678021481.620,-6.836,-87.891,-37.109,1.465,-79.102
1678021481.624,-10.254,-91.797,-49.316,-5.859,-77.148
1678021481.631,-10.254,-98.145,-60.059,-10.742,-104.980
1678021481.635,19.531,-96.680,-48.340,-23.926,-107.422
1678021481.639,23.438,-97.656,-51.758,-26.367,-174.805
1678021481.643,-13.672,-93.750,-57.617,-17.090,-212.891
1678021481.647,-12.695,-88.867,-52.246,-7.324,-124.512
1678021481.651,4.395,-94.727,-60.059,-3.418,37.598
1678021481.655,-8.301,-87.891,-62.500,-23.438,4.883
1678021481.658,-16.113,-83.496,-62.988,-35.645,-193.359
1678021481.662,-23.926,-86.426,-54.688,-31.738,-199.219
1678021481.666,-34.668,-86.426,-38.574,-25.879,-16.602
1678021481.670,-13.184,-83.008,-40.039,-20.508,15.137
1678021481.674,-4.883,-73.242,-41.992,-36.133,-164.062
1678021481.718,-31.738,-73.730,-45.898,-52.734,-146.484
1678021481.722,-43.457,-75.684,-53.223,-30.273,-38.574
1678021481.726,-34.180,-84.473,-56.641,-17.578,-45.410
1678021481.730,-6.348,-106.934,-56.641,-20.508,-73.242
1678021481.734,-27.832,-85.449,-56.152,-34.668,-6.836
1678021481.738,-79.590,-59.082,-59.570,-74.219,50.781
1678021481.742,-66.895,-63.965,-64.453,-60.547,-38.086
1678021481.745,-40.527,-67.871,-66.895,-39.551,-104.004
1678021481.749,-31.738,-62.500,-78.613,-62.988,-83.496
1678021481.753,-22.461,-82.520,-86.914,-69.336,124.023
1678021481.757,-8.789,-85.938,-71.289,-73.242,330.078
1678021481.761,-17.578,-37.109,-52.734,-63.477,317.383
1678021481.765,-66.895,-41.992,-55.664,-42.969,-5.859
1678021481.769,-88.379,-70.312,-59.570,-51.758,-59.570
1678021481.773,-68.848,-68.359,-60.547,-55.176,-42.969
1678021481.777,-54.688,-83.984,-62.500,-53.711,-208.984
1678021481.781,-50.781,-92.285,-57.129,-65.918,-194.336
1678021481.785,-46.875,-62.500,-54.199,-62.012,-100.098
1678021481.789,-54.688,-42.480,-53.711,-59.082,-42.969
1678021481.792,-56.641,-50.781,-55.176,-69.336,-61.523
1678021481.796,-56.152,-63.965,-52.246,-61.035,-137.695
1678021481.800,-52.734,-67.383,-51.270,-37.598,-225.098
1678021481.804,-26.855,-68.359,-53.223,-28.809,-182.129
1678021481.808,-33.203,-68.848,-57.129,-35.645,-74.219
1678021481.771,-64.453,-69.824,-63.477,-54.199,107.422
1678021481.775,-57.129,-69.336,-57.617,-69.336,90.332
1678021481.779,-39.551,-67.383,-54.688,-67.871,-203.613
1678021481.783,-32.227,-65.430,-58.594,-56.152,-201.172
1678021481.787,-21.484,-65.430,-64.453,-49.805,15.625
1678021481.791,-73.242,-71.777,-61.035,-62.012,44.922
1678021481.795,-78.613,-66.895,-53.711,-69.824,-75.195
1678021481.798,-42.480,-61.523,-57.129,-64.453,-136.230
1678021481.802,-45.410,-65.918,-58.105,-49.805,171.387
1678021481.806,-49.316,-78.125,-56.152,-33.203,199.219
1678021481.810,-53.223,-75.195,-57.617,-53.223,-142.578
1678021481.814,-43.457,-60.547,-55.664,-81.543,-178.711
1678021481.809,-32.227,-73.242,-52.246,-91.797,-105.957
1678021481.813,-53.223,-67.871,-57.617,-70.312,-120.605
1678021481.817,-72.754,-47.852,-72.754,-62.500,-118.652
1678021481.821,-81.055,-58.594,-58.105,-74.219,-36.133
1678021481.825,-79.590,-65.918,-46.875,-78.613,-0.977
1678021481.829,-67.383,-52.734,-42.480,-83.496,-76.172
1678021481.833,-64.453,-51.758,-50.781,-67.383,-73.730
1678021481.836,-54.199,-62.012,-58.594,-57.129,37.109
1678021481.840,-59.570,-69.336,-53.223,-62.500,289.551
1678021481.844,-79.102,-76.172,-54.199,-66.895,316.406
1678021481.848,-80.566,-66.406,-52.246,-76.660,178.223
1678021481.852,-84.961,-57.617,-57.129,-72.754,34.180
1678021481.896,-86.914,-60.059,-54.688,-83.008,2.441
1678021481.900,-69.336,-66.406,-55.176,-85.938,-94.238
1678021481.904,-67.871,-64.941,-53.711,-85.938,-159.180
1678021481.908,-96.680,-67.383,-56.152,-118.164,-83.008
1678021481.912,-88.379,-82.031,-47.852,-121.582,-84.961
1678021481.916,-69.336,-70.312,-41.504,-100.586,-94.727
1678021481.920,-67.871,-53.711,-45.898,-98.633,-39.062
1678021481.923,-69.336,-55.176,-42.480,-94.238,194.824
1678021481.927,-78.613,-64.453,-46.387,-85.938,272.949
1678021481.931,-69.824,-64.941,-46.387,-82.520,-82.520
1678021481.935,-73.730,-48.340,-41.992,-78.125,-163.574
1678021481.939,-80.566,-53.223,-43.945,-95.215,-81.543
1678021481.945,-69.336,-63.477,-45.898,-104.004,-156.250
1678021481.949,-69.336,-45.898,-53.711,-109.375,-237.305
1678021481.953,-81.055,-42.480,-61.523,-113.281,-198.242
1678021481.957,-73.730,-49.805,-50.781,-97.168,-32.227
1678021481.961,-66.406,-48.340,-43.945,-78.613,-69.824
1678021481.965,-72.266,-53.711,-48.828,-88.867,-45.410
1678021481.969,-79.590,-63.477,-40.527,-112.305,69.824
1678021481.972,-82.031,-54.199,-39.551,-99.121,-80.566
1678021481.976,-54.688,-48.340,-41.504,-72.266,-169.922
1678021481.980,-38.574,-55.176,-46.387,-59.082,-145.996
1678021481.984,-54.688,-51.270,-51.758,-57.129,-96.191
1678021481.988,-69.824,-45.898,-48.828,-104.004,-119.629
1678021481.950,-78.613,-51.758,-43.945,-129.883,-200.195
1678021481.954,-97.168,-57.129,-47.852,-114.258,-177.246
1678021481.958,-108.398,-59.082,-51.758,-108.398,-11.719
1678021481.962,-100.098,-59.082,-46.875,-108.887,-53.711
1678021481.966,-85.449,-60.547,-46.387,-121.582,-181.152
1678021481.970,-79.102,-61.523,-53.711,-122.559,-108.887
1678021481.974,-98.633,-54.688,-52.246,-96.191,132.812
1678021481.977,-101.562,-56.152,-44.434,-85.938,46.875
1678021481.981,-88.867,-73.730,-44.434,-85.449,-229.492
1678021481.985,-83.984,-57.617,-49.316,-95.703,-190.918
1678021481.989,-79.102,-40.527,-46.387,-109.375,-1.953
1678021481.993,-89.355,-48.828,-57.617,-87.891,-75.195
1678021482.004,-88.867,-51.270,-71.289,-96.191,-226.562
1678021482.008,-104.492,-52.246,-54.688,-114.746,-157.227
1678021482.012,-108.887,-56.641,-45.898,-113.281,-81.543
1678021482.016,-99.121,-58.105,-44.434,-114.746,-200.195
1678021482.020,-91.797,-52.246,-50.293,-101.562,-208.008
1678021482.024,-86.426,-43.457,-48.340,-77.637,1.465
1678021482.028,-78.613,-44.434,-15.625,-73.730,370.605
1678021482.031,-90.820,-59.082,-49.316,-91.309,438.477
1678021482.035,-113.281,-61.035,-72.754,-91.309,309.570
1678021482.039,-117.676,-57.617,-53.711,-93.750,108.398
1678021482.043,-109.375,-56.152,-53.711,-91.309,-62.500
1678021482.047,-103.027,-55.176,-57.129,-91.309,-146.484
1678021482.076,-102.051,-53.711,-57.129,-88.867,-84.961
1678021482.080,-100.586,-53.223,-51.758,-104.004,88.867
1678021482.084,-96.680,-58.594,-52.246,-96.680,-40.039
1678021482.088,-99.609,-72.754,-53.711,-78.613,-167.480
1678021482.092,-92.773,-66.406,-60.547,-73.730,-109.863
1678021482.096,-98.633,-43.945,-72.754,-86.914,132.324
1678021482.100,-109.375,-43.457,-75.684,-118.652,32.227
1678021482.103,-97.168,-52.246,-48.828,-105.469,-218.262
1678021482.107,-80.078,-59.570,-41.016,-83.984,-157.715
1678021482.111,-92.285,-49.316,-55.176,-89.844,232.910
1678021482.115,-99.609,-41.504,-54.199,-95.215,383.301
1678021482.119,-99.121,-50.781,-60.547,-99.121,-18.066
1678021482.081,-102.539,-65.918,-52.246,-82.031,-188.965
1678021482.085,-111.328,-53.223,-35.645,-83.496,-55.664
1678021482.089,-111.328,-42.480,-34.668,-87.402,-17.578
1678021482.093,-94.727,-49.316,-36.133,-78.125,-16.113
1678021482.097,-94.238,-54.199,-43.457,-83.984,-68.359
1678021482.101,-115.723,-57.129,-47.852,-88.379,-60.547
1678021482.105,-123.047,-60.059,-43.457,-95.215,-33.203
1678021482.108,-107.422,-52.734,-40.039,-91.309,-64.453
1678021482.112,-114.746,-46.875,-35.645,-93.262,-64.941
1678021482.116,-127.441,-51.270,-36.133,-115.234,-109.375
1678021482.120,-140.625,-50.293,-50.293,-111.328,-235.840
1678021482.124,-133.789,-42.969,-40.039,-106.445,-140.137
1678021482.168,-127.930,-35.156,-21.484,-133.301,123.047
1678021482.172,-141.602,-36.133,-20.508,-138.672,42.969
1678021482.176,-153.809,-28.320,-13.672,-131.348,-237.305
1678021482.180,-151.855,-6.836,5.371,-143.066,-305.176
1678021482.184,-170.410,8.301,1.953,-157.715,-1.953
1678021482.188,-208.984,2.441,-10.742,-166.504,328.613
1678021482.192,-239.258,-32.227,0.488,-202.637,39.062
1678021482.195,-261.230,-8.789,17.578,-242.676,-110.840
1678021482.199,-265.137,41.992,61.035,-257.812,-122.070
1678021482.203,-300.293,9.277,76.660,-279.785,-253.418
1678021482.207,-326.172,-24.414,54.688,-300.293,-177.246
1678021482.211,-326.660,-0.977,65.918,-312.500,-105.469
1678021482.183,-312.012,25.879,67.871,-302.734,-115.723
1678021482.187,-311.523,30.273,38.574,-308.105,-261.719
1678021482.191,-330.078,33.203,33.203,-333.984,-262.695
1678021482.195,-312.012,29.297,46.875,-323.730,-97.656
1678021482.199,-304.199,12.695,55.664,-300.293,-101.074
1678021482.203,-320.312,10.254,42.480,-302.734,-129.883
1678021482.207,-319.824,51.270,22.461,-312.500,-117.676
1678021482.210,-298.828,62.500,28.320,-270.020,20.508
1678021482.214,-281.250,62.988,7.324,-231.445,87.891
1678021482.218,-275.391,64.941,-9.277,-251.465,-92.285
1678021482.222,-269.043,57.617,24.902,-270.020,-135.254
1678021482.226,-240.234,52.246,33.203,-247.070,-85.938
1678021482.229,-208.984,24.902,11.719,-202.148,12.695
1678021482.233,-195.801,-14.160,-22.949,-172.363,-35.645
1678021482.237,-179.688,-57.617,-41.504,-166.504,-136.230
1678021482.241,-147.461,-45.410,-51.270,-142.090,73.242
1678021482.245,-160.156,-26.367,-57.617,-150.879,342.773
1678021482.249,-148.438,-54.199,-66.406,-142.090,306.641
1678021482.253,-122.559,-73.242,-73.242,-94.238,104.004
1678021482.256,-112.305,-78.125,-96.680,-62.012,163.086
1678021482.260,-89.844,-90.332,-127.930,-66.895,72.266
1678021482.264,-58.594,-96.191,-116.211,-76.660,-223.633
1678021482.268,-63.477,-88.867,-78.613,-53.711,-180.176
1678021482.272,-67.871,-86.426,-65.430,-28.809,-79.102
1678021482.275,-44.922,-91.309,-84.961,-23.926,-103.516
1678021482.279,-35.645,-97.168,-118.652,-23.438,-164.551
1678021482.283,-27.344,-100.098,-118.652,-32.227,-163.086
1678021482.287,-8.789,-102.539,-115.723,-12.207,-132.324
1678021482.291,-17.578,-106.934,-108.398,7.812,-156.250
1678021482.295,-15.137,-102.051,-105.957,-5.859,-88.379
1678021482.299,-10.742,-100.098,-112.793,-10.254,70.312
1678021482.302,-21.973,-105.957,-114.746,-5.859,276.367
1678021482.306,-12.695,-99.609,-121.582,-4.883,62.500
1678021482.310,-5.859,-94.238,-120.117,1.465,-153.809
1678021482.314,2.441,-98.633,-134.766,20.996,-16.113
1678021482.318,1.465,-92.773,-134.277,8.789,18.555
1678021482.332,9.277,-89.844,-103.027,-2.441,-119.629
1678021482.336,19.531,-95.215,-97.168,2.441,-144.043
1678021482.340,20.996,-89.844,-114.258,11.719,-32.715
1678021482.344,18.555,-84.961,-116.211,33.203,-65.430
1678021482.348,-1.953,-88.867,-115.723,26.855,-92.773
1678021482.352,-24.902,-90.820,-112.305,-10.742,-52.246
1678021482.356,-24.902,-86.914,-104.004,-3.418,127.441
1678021482.359,-17.090,-92.285,-95.703,20.996,138.184
1678021482.363,-11.230,-88.867,-93.262,16.113,-192.871
1678021482.367,-11.719,-78.125,-90.820,17.090,-217.773
1678021482.371,-26.855,-78.125,-88.379,24.902,41.992
1678021482.375,-31.250,-81.055,-94.727,-5.859,-128.418
1678021482.376,-16.113,-80.566,-86.426,-3.906,-256.348
1678021482.380,-7.812,-78.125,-96.680,5.859,-153.809
1678021482.384,-1.465,-71.777,-97.168,-2.930,-69.824
1678021482.388,-9.766,-69.336,-75.195,-17.578,-58.594
1678021482.392,-23.926,-73.730,-81.055,-32.227,-146.484
1678021482.396,-21.973,-76.660,-97.168,-19.043,-70.801
1678021482.400,-25.391,-78.613,-87.891,-8.301,27.832
1678021482.403,-23.438,-73.730,-63.477,-27.344,-8.301
1678021482.407,-36.621,-69.336,-55.176,-42.969,-111.328
1678021482.411,-34.668,-69.336,-58.105,-36.133,-61.523
1678021482.415,-13.184,-69.336,-65.918,-17.578,-45.410
1678021482.419,-11.719,-68.359,-71.777,-7.812,-120.117
1678021482.466,-23.926,-72.754,-75.195,-9.766,-53.223
1678021482.470,-23.438,-70.801,-81.543,-15.625,109.863
1678021482.474,-12.207,-62.500,-67.871,-25.879,220.703
1678021482.478,-40.527,-74.707,-65.430,-41.016,-123.535
1678021482.482,-72.754,-74.219,-78.613,-37.598,-131.348
1678021482.486,-63.477,-62.012,-62.988,-25.879,155.273
1678021482.490,-59.082,-67.871,-52.734,-48.828,-9.766
1678021482.493,-56.152,-69.336,-62.012,-51.270,-259.277
1678021482.497,-45.898,-63.965,-66.895,-41.016,-176.758
1678021482.501,-53.223,-65.918,-60.059,-36.133,126.465
1678021482.505,-57.617,-65.430,-54.199,-42.969,-2.930
1678021482.509,-51.270,-59.570,-50.781,-47.363,-191.406
1678021482.556,-45.898,-62.012,-55.176,-54.199,-124.023
1678021482.560,-41.016,-63.965,-58.594,-43.945,-39.551
1678021482.564,-58.105,-58.594,-60.059,-34.180,-109.375
1678021482.568,-49.316,-57.129,-72.266,-51.270,-177.734
1678021482.572,-42.480,-60.059,-60.547,-45.410,-72.266
1678021482.576,-54.688,-64.453,-43.457,-44.434,-2.441
1678021482.580,-67.383,-67.871,-52.734,-73.242,-134.277
1678021482.583,-83.008,-66.895,-55.176,-63.477,-76.660
1678021482.587,-75.195,-68.848,-51.270,-48.828,91.309
1678021482.591,-66.406,-63.477,-57.129,-52.246,50.781
1678021482.595,-63.477,-54.688,-51.270,-59.082,-117.676
1678021482.599,-60.059,-54.199,-57.129,-55.664,-179.688
1678021482.561,-65.918,-50.293,-69.824,-55.664,54.199
1678021482.565,-67.871,-55.664,-59.082,-60.059,17.578
1678021482.569,-63.965,-62.500,-50.781,-75.684,-136.719
1678021482.573,-72.754,-60.059,-35.156,-72.754,-124.512
1678021482.577,-66.895,-58.105,-32.227,-61.035,-46.387
1678021482.581,-71.777,-56.152,-41.504,-64.453,123.047
1678021482.585,-89.355,-62.500,-48.828,-68.359,70.312
1678021482.588,-88.867,-59.570,-52.734,-56.152,-51.758
1678021482.592,-89.355,-60.547,-48.340,-60.059,-23.926
1678021482.596,-88.379,-63.477,-50.781,-72.754,-44.434
1678021482.600,-92.285,-51.758,-54.199,-79.590,-87.402
1678021482.604,-87.891,-50.293,-49.805,-75.684,15.625
1678021482.607,-85.938,-58.105,-46.875,-66.895,91.309
1678021482.611,-79.590,-61.035,-52.734,-64.453,5.371
1678021482.615,-79.102,-61.035,-62.500,-77.637,-140.625
1678021482.619,-81.055,-51.270,-53.711,-65.430,-107.910
1678021482.623,-65.918,-41.016,-49.805,-50.293,282.227
1678021482.627,-67.871,-47.363,-51.758,-60.059,297.852
1678021482.631,-91.797,-61.035,-46.875,-76.660,7.812
1678021482.634,-98.145,-61.035,-43.457,-80.078,-6.348
1678021482.638,-105.957,-57.617,-39.062,-72.266,31.738
1678021482.642,-115.723,-56.152,-42.969,-68.848,-79.590
1678021482.646,-97.656,-53.711,-46.387,-72.266,-174.316
1678021482.650,-74.707,-59.570,-44.922,-71.777,-83.496
1678021482.613,-85.449,-60.059,-46.875,-81.055,-10.254
1678021482.617,-96.680,-52.246,-47.363,-84.961,-172.852
1678021482.621,-86.426,-54.688,-52.246,-67.383,-212.402
1678021482.625,-82.520,-55.176,-53.711,-56.152,-28.809
1678021482.629,-75.195,-54.688,-53.223,-72.266,-86.914
1678021482.633,-67.383,-60.059,-57.617,-84.961,-125.488
1678021482.637,-94.238,-56.641,-47.363,-82.520,-80.566
1678021482.640,-89.355,-52.246,-45.410,-51.758,133.301
1678021482.644,-74.707,-47.852,-50.293,-35.645,304.199
1678021482.648,-83.008,-45.898,-45.898,-63.477,-15.137
1678021482.652,-82.031,-47.852,-51.758,-94.238,-196.777
1678021482.656,-80.078,-55.664,-55.176,-90.820,-85.938
1678021482.679,-74.707,-58.105,-48.340,-64.453,-105.469
1678021482.683,-77.148,-50.781,-40.039,-67.871,-121.582
1678021482.687,-94.727,-45.410,-36.621,-63.965,-108.887
1678021482.691,-93.262,-44.434,-45.410,-83.984,-142.090
1678021482.695,-73.242,-49.805,-43.945,-92.773,-214.355
1678021482.699,-79.590,-53.711,-41.992,-55.176,-113.770
1678021482.703,-81.543,-47.363,-43.457,-48.340,42.480
1678021482.706,-80.566,-47.363,-41.504,-43.457,273.438
1678021482.710,-82.520,-55.176,-52.246,-47.363,322.266
1678021482.714,-90.332,-55.176,-45.410,-58.594,349.121
1678021482.718,-95.703,-51.270,-39.551,-64.453,101.562
1678021482.722,-87.891,-47.852,-51.270,-82.520,-193.848
1678021482.724,-82.520,-50.781,-34.180,-80.078,-171.875
1678021482.728,-77.148,-54.199,-26.367,-81.543,-261.230
1678021482.732,-68.359,-58.594,-26.367,-79.590,-107.422
1678021482.736,-87.891,-56.641,-22.461,-73.242,-10.742
1678021482.740,-93.750,-51.270,-34.180,-79.590,-158.691
1678021482.744,-60.547,-49.805,-43.945,-68.359,-98.145
1678021482.748,-74.219,-45.410,-45.898,-71.777,20.020
1678021482.751,-90.820,-52.246,-41.504,-77.148,-182.129
1678021482.755,-89.355,-57.129,-45.898,-73.242,-301.270
1678021482.759,-88.379,-50.293,-52.246,-73.730,-170.410
1678021482.763,-84.961,-47.363,-38.086,-69.824,-17.090
1678021482.767,-95.703,-53.711,-29.297,-86.426,-166.992
1678021482.766,-87.891,-57.617,-34.668,-95.703,-377.930
1678021482.770,-89.355,-52.734,-44.922,-84.473,-245.117
1678021482.774,-93.262,-54.199,-46.875,-68.848,91.797
1678021482.778,-90.820,-55.176,-38.086,-69.824,-21.484
1678021482.782,-95.703,-53.223,-30.762,-72.754,-295.898
1678021482.786,-93.750,-59.570,-32.227,-81.543,-184.082
1678021482.790,-102.539,-52.734,-40.527,-89.844,-113.281
1678021482.793,-100.098,-31.250,-30.273,-76.660,-88.379
1678021482.797,-91.309,-18.066,-8.301,-71.289,-76.172
1678021482.801,-103.027,-11.719,-6.348,-104.980,-104.492
1678021482.805,-145.996,-15.625,-16.602,-159.668,-160.645
1678021482.809,-180.664,-5.859,2.930,-173.340,-184.082
1678021482.797,-209.961,2.441,26.367,-186.035,-81.055
1678021482.801,-229.980,-7.812,42.969,-208.008,81.543
1678021482.805,-251.953,1.465,56.152,-215.332,365.723
1678021482.809,-283.691,-5.371,54.688,-247.559,294.434
1678021482.813,-304.688,-15.625,76.660,-289.062,-109.375
1678021482.817,-300.293,8.789,104.492,-276.855,-57.617
1678021482.821,-272.461,15.625,90.332,-241.699,41.504
1678021482.824,-270.996,2.441,58.105,-253.906,-155.762
1678021482.828,-296.387,10.254,57.617,-292.480,-202.148
1678021482.832,-317.871,17.578,63.965,-304.199,-7.812
1678021482.836,-305.664,9.277,66.406,-299.805,-149.414
1678021482.840,-282.227,9.277,49.316,-295.898,-226.562
1678021482.873,-284.668,34.180,40.527,-270.020,-105.957
1678021482.877,-272.949,39.062,58.105,-242.188,125.977
1678021482.881,-240.234,8.789,37.598,-235.840,21.973
1678021482.885,-215.820,-6.836,12.207,-204.590,-162.109
1678021482.889,-190.918,13.184,0.977,-181.641,-56.152
1678021482.893,-163.086,6.836,-13.672,-156.250,76.172
1678021482.897,-163.574,-1.465,0.000,-162.598,-22.949
1678021482.900,-159.668,-10.742,11.719,-162.598,-259.277
1678021482.904,-143.555,-38.574,-0.977,-117.188,-98.633
1678021482.908,-118.164,-59.082,-29.785,-83.984,172.363
1678021482.912,-83.496,-66.406,-49.316,-71.289,-102.051
1678021482.916,-83.008,-82.520,-52.246,-81.543,-154.297
1678021482.947,-83.984,-90.332,-67.871,-75.195,23.438
1678021482.951,-62.012,-83.008,-87.402,-30.762,-46.387
1678021482.955,-46.875,-84.473,-83.984,-12.695,-196.289
1678021482.959,-30.762,-83.008,-71.289,-18.555,-158.691
1678021482.963,-10.742,-83.984,-72.754,-20.020,-12.207
1678021482.967,-19.531,-83.984,-84.473,-18.066,-53.223
1678021482.971,-22.461,-84.961,-92.285,6.348,-78.613
1678021482.974,-1.465,-87.891,-94.727,10.742,-44.434
1678021482.978,4.883,-88.867,-95.703,4.883,-55.176
1678021482.982,6.348,-87.891,-95.703,12.695,-102.051
1678021482.986,-9.766,-87.402,-97.656,10.742,-204.102
1678021482.990,-7.812,-84.961,-94.238,15.625,-150.879
1678021482.962,8.301,-80.078,-88.867,34.180,-3.418
1678021482.966,15.137,-78.613,-89.844,37.109,-8.789
1678021482.970,22.461,-76.172,-93.750,27.832,-118.164
1678021482.974,8.789,-73.242,-91.797,31.738,-103.027
1678021482.978,3.418,-74.219,-91.309,46.387,147.461
1678021482.982,0.977,-74.219,-88.867,46.387,59.082
1678021482.986,10.254,-76.660,-86.914,47.852,-90.820
1678021482.989,28.809,-77.637,-91.309,37.109,46.875
1678021482.993,11.719,-70.801,-91.797,12.207,211.426
1678021482.997,2.930,-70.801,-99.121,19.043,-80.566
1678021483.001,8.301,-69.336,-100.098,26.367,-233.398
1678021483.005,2.930,-64.941,-89.355,28.809,-7.324
1678021483.037,3.418,-62.500,-87.891,24.414,44.922
1678021483.041,14.160,-64.941,-92.285,9.277,-139.160
1678021483.045,10.742,-68.848,-94.727,9.277,-150.879
1678021483.049,1.465,-70.312,-93.750,14.160,22.949
1678021483.053,9.277,-67.871,-95.703,-1.465,54.688
1678021483.057,9.766,-66.895,-87.891,12.207,41.016
1678021483.061,6.348,-69.824,-92.285,9.766,77.637
1678021483.064,0.488,-70.801,-96.191,-7.812,37.109
1678021483.068,-2.930,-70.801,-86.914,18.066,-97.656
1678021483.072,-1.465,-66.895,-85.449,20.996,-106.445
1678021483.076,1.465,-62.012,-87.891,9.277,-103.516
1678021483.080,7.324,-59.082,-80.078,26.367,105.957
1678021483.086,3.906,-55.664,-72.266,42.480,284.180
1678021483.090,2.930,-56.152,-76.660,24.414,56.641
1678021483.094,5.371,-57.617,-77.148,16.113,-33.203
1678021483.098,5.371,-64.941,-73.730,26.367,194.336
1678021483.102,0.977,-56.641,-73.242,10.742,-2.441
1678021483.106,0.977,-50.781,-70.312,9.277,-206.543
1678021483.110,12.695,-51.270,-71.289,3.906,14.648
1678021483.113,-4.395,-54.688,-71.777,-3.906,76.660
1678021483.117,-14.160,-60.059,-66.406,2.441,-43.945
1678021483.121,-2.930,-51.758,-63.965,-5.859,-140.137
1678021483.125,-9.277,-53.711,-64.941,-12.695,-81.055
1678021483.129,-14.160,-54.199,-63.477,-1.465,23.438
