timestamps,TP9,AF7,AF8,TP10,Right AUX
1678021180.233,50.781,-41.016,-38.574,47.852,-99.609
1678021180.237,44.922,-28.320,-54.199,42.969,-111.328
1678021180.241,62.500,-25.879,-62.988,60.547,-127.441
1678021180.245,71.289,-35.645,-58.105,58.594,-88.379
1678021180.249,54.688,-46.875,-65.430,24.414,-119.629
1678021180.253,52.734,-43.457,-70.801,32.715,-34.668
1678021180.257,57.129,-40.039,-68.359,62.988,28.809
1678021180.260,72.266,-38.086,-71.289,62.988,-161.133
1678021180.264,68.359,-41.992,-83.496,62.012,54.199
1678021180.268,54.688,-46.387,-80.566,74.219,205.566
1678021180.272,62.012,-44.922,-74.219,58.594,-115.723
1678021180.276,69.336,-35.156,-77.148,53.711,-148.438
1678021193.452,-28.809,-42.969,-41.016,-24.902,-24.902
1678021193.456,-32.227,-49.805,-38.574,-35.156,-157.227
1678021193.460,-38.086,-42.480,-36.133,-21.484,-181.641
1678021193.464,-49.316,-39.062,-33.691,-28.809,-7.812
1678021193.468,-52.246,-42.480,-37.598,-33.691,63.965
1678021193.472,-44.434,-43.457,-34.668,-27.344,-23.926
1678021193.476,-35.645,-42.480,-27.832,-39.062,-162.109
1678021193.479,-44.434,-41.504,-32.715,-35.156,-94.238
1678021193.483,-60.059,-41.016,-34.180,-23.438,164.062
1678021193.487,-46.875,-41.016,-31.250,-20.996,-19.531
1678021193.491,-43.945,-40.039,-30.762,-27.344,-211.426
1678021193.495,-53.223,-40.039,-31.250,-41.504,-139.160
1678021289.849,-31.738,-23.438,-33.203,-54.688,-187.500
1678021289.853,-33.691,-42.480,-32.227,-53.223,-80.078
1678021289.857,-33.203,-64.453,-26.367,-25.391,-36.133
1678021289.861,-40.039,-55.176,-26.855,-24.902,-45.410
1678021289.865,-29.297,-26.855,-30.762,-38.086,-140.137
1678021289.869,-9.277,-20.020,-26.367,-32.715,-41.992
1678021289.873,-7.812,-30.273,-39.062,-37.598,125.488
1678021289.876,-27.344,-38.086,-43.457,-29.297,-43.457
1678021289.880,-43.457,-25.879,-24.414,-7.324,-136.230
1678021289.884,-28.809,-30.273,-20.508,-22.461,51.270
1678021289.888,-18.066,-44.434,-21.484,-23.438,427.734
1678021289.892,-34.668,-40.039,-25.879,-10.742,283.691
1678021319.636,-37.598,-37.109,-29.297,-41.016,-78.125
1678021319.640,-46.875,-31.250,-29.785,-47.852,-178.711
1678021319.644,-48.340,-26.855,-28.809,-44.434,-208.008
1678021319.648,-51.758,-30.762,-33.691,-45.898,-124.023
1678021319.652,-47.852,-35.156,-37.109,-50.293,-21.484
1678021319.656,-39.062,-32.227,-35.156,-52.734,10.742
1678021319.660,-39.062,-33.203,-36.621,-57.129,-75.684
1678021319.663,-32.715,-31.738,-35.156,-50.293,57.129
1678021319.667,-22.949,-29.785,-28.320,-34.668,272.461
1678021319.671,-34.180,-37.598,-29.785,-43.945,-49.805
1678021319.675,-46.387,-46.875,-35.156,-53.223,-194.824
1678021319.679,-40.039,-39.062,-35.156,-48.340,-107.422
1678021319.682,-20.020,-24.902,-22.949,-19.043,-7.324
1678021319.682,-42.480,-30.762,-26.855,-21.484,38.574
1678021319.686,-44.922,-28.320,-26.855,-31.250,-29.785
1678021319.682,-38.574,-41.992,-43.945,-50.781,-198.730
1678021319.686,-33.691,-38.574,-43.945,-52.734,-189.941
1678021319.690,-38.086,-38.086,-32.715,-47.363,-139.648
1678021319.680,-25.879,-33.691,-40.527,-40.039,-57.617
1678021319.684,-31.738,-20.996,-41.992,-43.457,-125.488
1678021319.688,-27.832,-24.414,-40.039,-36.133,9.277
1678021319.692,-34.180,-33.691,-42.480,-37.598,0.488
1678021319.696,-42.480,-26.367,-40.039,-38.574,-63.477
1678021319.681,-25.879,-33.691,-35.645,-17.578,372.559
1678021319.684,-29.785,-38.086,-37.109,-49.316,-119.629
1678021319.688,-33.203,-36.133,-33.203,-41.992,-180.664
1678021319.692,-40.527,-27.344,-30.273,-20.508,-37.598
1678021319.696,-34.668,-33.691,-27.344,-23.438,-83.496
1678021319.700,-31.250,-37.109,-30.273,-32.227,-150.391
1678021319.681,-44.434,-28.320,-34.668,-51.758,1.465
1678021319.685,-46.875,-25.391,-34.668,-44.922,-121.582
1678021319.688,-49.805,-31.738,-33.691,-30.273,-140.137
1678021319.692,-48.828,-33.691,-38.086,-31.738,49.805
1678021319.696,-38.574,-38.574,-37.598,-26.855,121.094
1678021319.700,-33.203,-42.969,-43.945,-42.480,-151.367
1678021319.704,-34.668,-37.598,-40.527,-44.434,-157.715
1678021319.681,-49.316,-24.902,-31.250,-22.461,36.621
1678021319.685,-41.016,-32.227,-29.785,-35.645,-23.926
1678021319.689,-32.227,-36.621,-35.156,-35.156,23.926
1678021319.693,-50.293,-29.785,-35.645,-32.715,193.848
1678021319.697,-58.594,-31.738,-34.668,-41.016,104.004
1678021319.701,-46.875,-36.621,-31.250,-32.715,24.902
1678021319.704,-55.664,-31.250,-28.320,-38.086,42.480
1678021319.708,-60.547,-27.832,-30.762,-57.129,-59.082
1678021319.712,-59.082,-33.203,-30.273,-51.270,-170.898
1678021319.716,-52.246,-39.551,-32.715,-46.875,-136.719
1678021319.720,-38.574,-34.180,-31.250,-41.016,-12.207
1678021319.718,-41.992,-27.344,-27.832,-33.691,253.418
1678021319.722,-47.363,-26.367,-31.738,-41.992,77.637
1678021319.726,-48.828,-35.156,-33.203,-51.758,-175.781
1678021319.730,-46.875,-36.133,-32.715,-55.176,-105.469
1678021319.734,-39.551,-36.133,-32.227,-49.316,-83.496
1678021319.738,-42.969,-49.805,-32.227,-47.852,-18.555
1678021319.742,-54.688,-47.363,-32.715,-54.688,57.129
1678021319.745,-39.551,-39.062,-29.785,-48.828,134.277
1678021319.749,-38.574,-37.109,-28.809,-36.621,265.137
1678021319.753,-42.480,-25.391,-31.738,-35.645,-3.418
1678021319.757,-30.762,-31.738,-33.203,-36.133,-169.434
1678021319.761,-31.250,-33.203,-27.344,-33.203,-14.160
1678021319.760,-32.715,-25.391,-27.344,-37.109,-77.637
1678021319.764,-35.645,-32.227,-29.785,-31.738,-183.105
1678021319.768,-41.992,-43.457,-26.855,-15.625,-123.047
1678021319.772,-40.039,-46.387,-27.344,-21.973,19.043
1678021319.776,-29.785,-44.434,-28.809,-28.809,-60.059
1678021319.780,-24.902,-40.527,-31.250,-27.344,-203.125
1678021319.784,-31.738,-34.668,-29.785,-28.809,-143.555
1678021319.787,-39.551,-26.855,-28.809,-18.555,179.688
1678021319.791,-41.504,-31.738,-34.180,-24.414,64.941
1678021319.795,-42.969,-42.969,-36.133,-40.039,-273.438
1678021319.799,-42.969,-40.039,-32.227,-41.016,-186.523
1678021319.803,-25.879,-41.016,-28.809,-41.992,-122.070
1678021319.807,-24.902,-45.410,-29.297,-41.504,-197.754
1678021319.811,-41.992,-35.645,-31.250,-36.621,-166.016
1678021319.815,-41.016,-29.785,-29.785,-43.457,-107.422
1678021319.819,-23.438,-27.832,-29.785,-54.688,-135.254
1678021319.823,-18.555,-22.949,-28.809,-41.992,-172.852
1678021319.827,-31.250,-20.996,-30.762,-23.926,-27.832
1678021319.831,-31.250,-29.297,-30.273,-24.414,136.719
1678021319.834,-36.133,-34.180,-27.832,-36.621,183.594
1678021319.838,-42.969,-29.297,-32.227,-49.316,-116.211
1678021319.842,-32.715,-25.879,-36.133,-48.340,-234.375
1678021319.846,-37.109,-32.227,-39.062,-37.109,-91.309
1678021319.850,-45.898,-36.621,-41.016,-41.504,-98.633
1678021319.852,-40.039,-29.297,-39.551,-41.992,-179.688
1678021319.856,-42.969,-33.691,-40.527,-52.246,-104.004
1678021319.860,-43.457,-43.945,-38.574,-44.434,32.227
1678021319.864,-35.645,-44.434,-34.180,-23.438,44.922
1678021319.868,-33.203,-37.598,-32.715,-31.250,-60.547
1678021319.872,-32.715,-35.156,-32.227,-43.457,-61.523
1678021319.876,-29.785,-37.598,-38.086,-41.504,255.859
1678021319.879,-30.762,-36.133,-39.062,-22.949,208.008
1678021319.883,-32.715,-28.320,-32.715,-15.625,-49.805
1678021319.887,-25.391,-33.203,-36.133,-25.879,-44.434
1678021319.891,-24.414,-48.828,-38.086,-29.785,-101.562
1678021319.895,-41.016,-45.410,-35.156,-24.414,-168.457
1678021319.897,-55.664,-34.180,-33.691,-37.598,-201.172
1678021319.901,-48.340,-28.809,-39.551,-35.156,-143.555
1678021319.905,-41.992,-34.180,-44.434,-31.250,-52.246
1678021319.909,-46.875,-43.945,-37.598,-40.527,19.043
1678021319.913,-43.457,-41.504,-31.738,-42.480,-63.477
1678021319.917,-34.180,-40.527,-27.344,-34.668,-5.859
1678021319.921,-33.691,-43.457,-29.785,-22.949,284.668
1678021319.924,-40.039,-39.062,-32.227,-19.531,72.266
1678021319.928,-47.363,-37.109,-30.273,-19.043,-119.141
1678021319.932,-44.922,-36.621,-35.156,-29.297,8.789
1678021319.936,-46.875,-32.715,-37.109,-34.668,-71.289
1678021319.940,-45.898,-34.668,-44.922,-40.527,-145.996
1678021319.978,-29.785,-36.133,-41.992,-44.434,-45.898
1678021319.982,-28.809,-40.527,-39.062,-45.898,14.648
1678021319.986,-38.086,-36.133,-41.504,-48.340,-77.148
1678021319.990,-39.062,-27.832,-40.527,-42.480,-142.090
1678021319.994,-26.855,-32.715,-38.086,-31.738,-39.062
1678021319.998,-24.414,-35.645,-36.133,-20.996,215.820
1678021320.002,-41.992,-29.297,-40.527,-28.320,245.605
1678021320.005,-38.086,-29.297,-39.551,-40.039,56.152
1678021320.009,-22.949,-28.809,-32.715,-38.086,-16.113
1678021320.013,-27.832,-32.715,-34.180,-33.691,200.195
1678021320.017,-38.574,-41.992,-42.480,-27.832,43.457
1678021320.021,-41.992,-27.832,-41.016,-23.438,-171.387
1678021320.002,-45.410,-28.320,-38.574,-34.668,-150.879
1678021320.006,-48.828,-37.109,-48.828,-46.875,-161.133
1678021320.010,-35.156,-26.855,-47.852,-35.645,-129.883
1678021320.014,-22.949,-34.668,-37.109,-32.227,-131.836
1678021320.018,-25.391,-34.668,-35.156,-33.691,-63.477
1678021320.022,-35.645,-26.855,-40.039,-18.066,12.695
1678021320.026,-43.945,-23.926,-39.062,-37.109,-96.191
1678021320.029,-39.062,-22.461,-36.621,-50.293,-136.719
1678021320.033,-34.668,-28.320,-41.504,-37.109,93.750
1678021320.037,-35.645,-30.762,-43.945,-33.691,34.180
1678021320.041,-27.344,-30.762,-40.039,-28.320,-155.273
1678021320.045,-30.273,-32.227,-40.527,-34.180,-211.914
1678021320.045,-44.434,-35.645,-30.273,-26.367,46.387
1678021320.049,-42.480,-34.180,-26.367,-15.625,294.922
1678021320.053,-40.039,-31.738,-30.273,-30.762,-0.977
1678021320.057,-44.434,-37.598,-39.062,-47.852,-18.066
1678021320.061,-43.457,-38.086,-43.945,-50.781,158.691
1678021320.065,-44.922,-31.738,-34.180,-44.922,25.391
1678021320.069,-47.852,-32.227,-36.133,-30.762,-64.941
1678021320.072,-46.875,-30.762,-36.621,-26.367,-0.977
1678021320.076,-26.367,-25.391,-30.273,-21.484,187.012
1678021320.080,-26.855,-26.367,-30.762,-18.555,35.645
1678021320.084,-40.039,-31.250,-29.297,-23.438,-135.742
1678021320.088,-39.062,-27.832,-28.320,-28.320,-47.363
1678021320.090,-39.551,-30.762,-32.715,-26.855,-33.691
1678021320.094,-38.086,-39.062,-29.297,-25.391,-145.020
1678021320.098,-35.645,-28.320,-25.879,-26.855,-192.871
1678021320.102,-31.250,-30.273,-31.738,-35.156,-135.254
1678021320.106,-23.438,-32.227,-33.691,-33.691,-112.305
1678021320.110,-34.180,-25.879,-22.949,-27.344,-69.336
1678021320.114,-53.711,-30.273,-21.973,-38.574,-109.375
1678021320.117,-41.992,-33.691,-28.809,-38.086,-20.508
1678021320.121,-22.949,-26.855,-29.785,-31.738,131.836
1678021320.125,-23.438,-28.320,-26.855,-37.598,-69.824
1678021320.129,-29.785,-46.387,-26.367,-36.133,-115.234
1678021320.133,-29.785,-32.715,-32.227,-36.621,-7.812
1678021320.137,-44.434,-27.832,-36.133,-41.992,-88.379
1678021320.141,-59.082,-27.832,-34.668,-39.551,-130.371
1678021320.145,-41.504,-19.531,-35.156,-35.156,-74.707
1678021320.149,-42.480,-28.320,-36.621,-27.344,208.984
1678021320.153,-47.363,-35.156,-38.574,-31.738,128.906
1678021320.157,-42.969,-39.062,-40.527,-38.086,-120.117
1678021320.161,-44.434,-38.574,-38.086,-34.180,-59.082
1678021320.164,-40.527,-29.297,-37.598,-25.391,140.137
1678021320.168,-37.598,-28.809,-36.621,-24.414,74.219
1678021320.172,-27.344,-20.996,-31.738,-26.855,-89.355
1678021320.176,-25.879,-24.902,-36.621,-34.668,-83.984
1678021320.180,-41.504,-35.156,-38.086,-45.898,-86.426
1678021320.182,-44.434,-24.414,-37.598,-39.062,-153.809
1678021320.186,-37.598,-23.926,-32.715,-30.762,-145.508
1678021320.190,-39.551,-29.785,-28.320,-20.508,-50.781
1678021320.194,-38.574,-30.762,-31.738,-32.227,18.066
1678021320.198,-31.738,-31.738,-36.133,-48.340,-10.254
1678021320.202,-28.320,-25.391,-38.086,-37.109,-80.566
1678021320.206,-30.762,-28.320,-36.621,-20.996,125.977
1678021320.209,-41.016,-34.668,-36.133,-13.672,357.910
1678021320.213,-38.086,-28.320,-35.645,-32.715,10.742
1678021320.217,-28.320,-21.484,-31.738,-44.434,-236.816
1678021320.221,-25.391,-24.902,-35.645,-36.133,-137.207
1678021320.225,-33.203,-31.250,-40.039,-22.949,-72.754
1678021320.225,-37.598,-35.156,-35.156,-17.090,-140.137
1678021320.229,-27.832,-39.062,-35.156,-13.672,-136.719
1678021320.233,-17.578,-31.250,-33.691,-9.277,-70.801
1678021320.237,-35.645,-17.090,-32.227,-35.645,-132.812
1678021320.241,-43.945,-21.484,-36.133,-51.758,-144.531
1678021320.245,-29.297,-28.320,-32.715,-43.457,-41.992
1678021320.249,-42.480,-27.832,-27.832,-37.598,341.309
1678021320.252,-55.664,-23.438,-33.203,-37.598,449.707
1678021320.256,-57.129,-30.762,-38.086,-42.480,-73.730
1678021320.260,-52.246,-29.785,-32.715,-34.668,-178.711
1678021320.264,-44.922,-25.391,-26.367,-39.551,-7.812
1678021320.268,-39.551,-33.691,-28.809,-41.992,-45.898
1678021320.272,-34.180,-37.109,-32.715,-39.062,-117.188
1678021320.276,-32.227,-36.133,-30.273,-44.434,-99.609
1678021320.280,-33.691,-30.273,-29.785,-35.156,-112.305
1678021320.284,-41.992,-29.297,-33.691,-29.297,-137.695
1678021320.288,-36.621,-24.414,-35.645,-38.574,-152.344
1678021320.292,-27.832,-18.555,-33.203,-32.715,-4.395
1678021320.296,-32.227,-22.949,-30.273,-27.832,136.719
1678021320.299,-34.668,-31.738,-34.180,-22.461,-29.785
1678021320.303,-35.156,-29.785,-31.738,-20.508,-112.305
1678021320.307,-36.133,-23.438,-24.902,-25.879,108.398
1678021320.311,-31.738,-22.461,-29.297,-25.879,162.598
1678021320.315,-30.273,-20.508,-30.762,-36.133,-124.023
1678021320.330,-37.598,-30.762,-23.438,-36.133,-145.996
1678021320.334,-41.504,-33.691,-28.809,-34.668,-18.066
1678021320.338,-39.551,-30.273,-34.180,-35.645,12.207
1678021320.342,-43.457,-34.180,-30.762,-48.340,-28.809
1678021320.346,-51.270,-36.621,-32.227,-62.012,-189.941
1678021320.350,-56.152,-34.668,-35.645,-46.875,120.605
1678021320.354,-48.828,-29.785,-38.574,-32.715,219.238
1678021320.357,-44.434,-31.738,-39.062,-44.434,-91.797
1678021320.361,-45.898,-34.668,-37.598,-54.688,-125.977
1678021320.365,-43.945,-36.621,-38.086,-50.293,4.395
1678021320.369,-37.109,-30.762,-39.062,-46.387,-78.125
1678021320.373,-34.180,-22.461,-41.016,-41.992,-161.133
1678021320.375,-44.434,-38.086,-42.969,-48.828,-70.312
1678021320.379,-39.062,-39.062,-40.527,-57.617,27.832
1678021320.383,-33.691,-17.090,-30.273,-57.617,-128.418
1678021320.387,-37.109,-11.719,-8.789,-41.016,-207.520
1678021320.391,-47.852,-16.113,-0.488,-32.715,-97.168
1678021320.395,-82.520,-21.973,-25.879,-68.359,-0.488
1678021320.399,-75.195,7.324,-9.766,-79.102,-22.461
1678021320.402,-85.938,43.945,6.348,-97.168,-150.391
1678021320.406,-149.414,3.906,-19.043,-152.832,-13.184
1678021320.410,-177.246,-11.230,34.180,-175.781,159.180
1678021320.414,-175.293,36.133,62.500,-186.523,-81.543
1678021320.418,-211.914,59.570,46.875,-236.816,-140.137
1678021320.420,-257.324,33.203,57.617,-282.715,-1.953
1678021320.424,-274.902,28.809,80.566,-272.949,-132.812
1678021320.428,-279.297,91.309,117.188,-259.766,-181.641
1678021320.432,-315.430,74.707,99.609,-303.223,-56.152
1678021320.436,-325.684,35.645,97.168,-324.707,146.484
1678021320.440,-302.734,43.457,108.887,-324.219,84.961
1678021320.444,-277.344,35.645,99.121,-309.570,-77.637
1678021320.447,-276.367,37.598,87.402,-290.039,-54.688
1678021320.451,-287.109,41.992,92.773,-273.926,168.457
1678021320.455,-287.109,36.621,102.539,-280.762,54.199
1678021320.459,-270.996,34.668,87.402,-284.180,-223.633
1678021320.463,-262.207,40.039,69.824,-275.391,-183.105
1678021320.468,-270.508,46.387,62.500,-265.137,-86.426
1678021320.472,-262.207,37.598,52.734,-245.605,-163.574
1678021320.476,-245.605,34.180,50.781,-224.121,-138.184
1678021320.480,-229.980,19.043,56.152,-209.473,22.461
1678021320.484,-219.727,18.066,52.734,-213.867,13.672
1678021320.488,-214.355,28.809,39.551,-208.496,4.883
1678021320.492,-209.473,19.531,33.203,-200.195,-15.137
1678021320.495,-194.824,0.977,33.203,-185.059,28.809
1678021320.499,-185.547,-2.441,30.762,-180.176,106.445
1678021320.503,-191.406,11.230,29.297,-180.664,-182.617
1678021320.507,-177.734,10.742,27.344,-161.133,-251.953
1678021320.511,-164.062,6.348,17.090,-154.785,-78.125
1678021320.510,-148.438,19.531,11.230,-144.531,-42.480
1678021320.514,-138.672,21.484,7.812,-130.371,-103.516
1678021320.518,-135.742,5.859,5.859,-121.582,-76.660
1678021320.522,-108.887,-2.441,0.000,-98.145,33.203
1678021320.526,-83.008,-9.766,-10.742,-64.453,9.277
1678021320.530,-61.035,-9.277,-19.043,-52.734,-6.348
1678021320.534,-50.781,-9.277,-33.691,-59.570,21.973
1678021320.537,-50.781,-14.160,-51.270,-35.645,250.977
1678021320.541,-39.551,-22.461,-61.523,-4.395,296.387
1678021320.545,-22.949,-26.855,-62.988,2.930,-24.414
1678021320.549,-5.371,-33.203,-66.406,13.184,-140.137
1678021320.553,19.043,-55.664,-74.219,28.320,-124.512
1678021320.557,39.062,-58.105,-78.613,32.227,-196.777
1678021320.561,49.805,-44.922,-83.008,41.016,-117.676
1678021320.565,47.852,-57.617,-89.355,48.340,-44.434
1678021320.569,45.410,-68.359,-96.680,47.852,-98.633
1678021320.573,63.965,-74.219,-100.586,60.059,-150.391
1678021320.577,79.102,-73.730,-98.145,69.336,-192.871
1678021320.581,78.613,-74.707,-100.586,77.148,96.191
1678021320.584,89.355,-74.707,-104.980,95.215,339.844
1678021320.588,96.191,-78.613,-112.793,100.586,-25.879
1678021320.592,114.258,-85.938,-115.234,100.098,-187.988
1678021320.596,124.023,-87.891,-112.305,92.285,-86.426
1678021320.600,110.352,-86.914,-110.840,97.168,-143.555
1678021320.601,102.051,-84.961,-111.328,109.863,-136.230
1678021320.605,118.164,-81.543,-117.676,115.234,-56.152
1678021320.609,122.559,-74.707,-124.023,118.164,-37.598
1678021320.613,108.398,-72.266,-117.188,115.723,-85.449
1678021320.617,110.840,-84.473,-107.910,114.258,-89.355
1678021320.621,113.770,-98.633,-108.887,112.793,44.434
1678021320.625,106.934,-94.238,-109.863,111.328,326.660
1678021320.628,93.750,-89.355,-104.980,113.770,338.867
1678021320.632,87.402,-92.773,-106.934,99.609,-51.758
1678021320.636,94.238,-96.680,-101.074,96.191,-135.742
1678021320.640,97.656,-88.379,-94.238,105.957,-26.855
1678021320.644,99.121,-81.543,-99.609,105.469,-94.727
1678021320.647,104.492,-86.426,-98.145,102.539,-142.090
1678021320.651,98.633,-85.938,-88.867,87.891,-113.281
1678021320.655,88.867,-81.543,-92.773,76.172,-100.586
1678021320.659,88.379,-82.031,-96.680,79.590,-81.055
1678021320.663,86.426,-74.707,-91.797,75.195,-41.992
1678021320.667,70.801,-77.148,-87.891,60.547,80.078
1678021320.671,57.617,-73.242,-82.031,58.594,143.555
1678021320.674,49.805,-63.477,-75.684,65.430,-108.887
1678021320.678,48.340,-73.242,-80.078,60.059,-221.191
1678021320.682,57.129,-69.336,-77.637,61.035,-7.812
1678021320.686,66.895,-69.336,-69.824,53.711,45.898
1678021320.690,62.500,-85.449,-72.754,39.551,-186.035
1678021320.705,45.410,-69.336,-72.266,46.387,-132.324
1678021320.709,50.781,-56.152,-66.406,60.547,18.066
1678021320.713,57.129,-54.199,-64.453,63.477,-81.543
1678021320.717,47.363,-51.270,-58.594,58.594,-88.867
1678021320.721,40.527,-54.199,-54.199,54.199,-74.707
1678021320.725,43.945,-72.266,-52.246,60.547,174.316
1678021320.729,46.875,-66.895,-50.781,51.270,224.121
1678021320.732,41.504,-49.316,-52.734,43.945,-83.496
1678021320.736,26.855,-48.340,-54.688,52.246,-49.805
1678021320.740,23.926,-51.270,-54.199,46.387,77.148
1678021320.744,30.273,-55.664,-49.805,25.391,-113.281
1678021320.748,31.738,-47.852,-46.875,23.926,-166.504
1678021320.751,21.484,-39.062,-52.246,27.344,-46.387
1678021320.755,11.719,-44.922,-56.152,23.438,15.137
1678021320.759,11.719,-54.688,-46.387,11.230,-16.113
1678021320.763,10.254,-61.035,-41.992,6.348,-162.109
1678021320.767,3.418,-45.410,-48.340,18.066,-113.281
1678021320.771,-7.324,-38.574,-53.711,14.648,46.387
1678021320.775,-5.859,-49.805,-52.734,11.230,35.645
1678021320.778,1.953,-50.293,-46.875,20.020,-95.215
1678021320.782,0.977,-44.922,-48.340,15.625,-85.938
1678021320.786,-1.465,-38.574,-47.363,13.184,65.918
1678021320.790,4.883,-29.785,-43.457,13.184,-61.523
1678021320.794,11.719,-35.645,-43.945,3.418,-137.695
1678021320.795,19.043,-39.551,-42.480,0.488,-87.402
1678021320.799,7.812,-33.203,-42.480,0.000,-123.535
1678021320.803,-2.930,-40.039,-38.574,-9.277,-170.898
1678021320.807,-15.137,-50.293,-39.062,-2.441,-46.875
1678021320.811,-17.090,-48.828,-41.016,8.789,192.383
1678021320.815,-15.137,-49.316,-32.715,-2.441,155.273
1678021320.819,-16.113,-45.410,-31.738,-12.207,-38.574
1678021320.822,-13.184,-42.480,-39.551,-10.254,-98.145
1678021320.826,-11.230,-48.828,-40.039,-5.859,154.785
1678021320.830,-7.812,-42.969,-39.062,0.000,93.262
1678021320.834,-16.602,-37.598,-38.574,-13.184,-169.434
1678021320.838,-18.555,-50.781,-38.574,-20.996,-159.668
1678021320.841,-10.254,-39.551,-37.109,-14.160,-171.875
1678021320.845,-18.066,-30.762,-38.574,-14.160,-149.414
1678021320.849,-17.090,-36.133,-31.250,-7.812,-105.469
1678021320.853,-9.766,-29.297,-28.809,-5.859,-113.770
1678021320.857,-20.996,-31.250,-34.668,-30.762,-152.832
1678021320.861,-23.438,-38.086,-39.062,-36.621,-56.152
1678021320.865,-12.207,-33.691,-33.691,-21.484,-77.148
1678021320.868,-25.391,-32.227,-28.809,-7.324,172.852
1678021320.872,-35.156,-36.621,-30.762,4.395,439.941
1678021320.876,-27.344,-32.227,-26.855,-9.277,-8.789
1678021320.880,-22.461,-38.086,-34.180,-20.508,-238.281
1678021320.884,-27.344,-36.621,-43.945,-12.207,-96.680
1678021320.885,-31.250,-31.738,-41.992,-16.602,-118.164
1678021320.889,-26.367,-35.156,-38.574,-31.738,-152.344
1678021320.893,-26.367,-30.273,-39.062,-26.855,-113.281
1678021320.897,-23.926,-34.668,-40.527,-20.020,58.105
1678021320.901,-16.113,-34.180,-39.551,-20.996,3.906
1678021320.905,-18.066,-27.344,-36.133,-12.695,-45.410
1678021320.909,-35.156,-37.109,-40.039,-19.043,91.797
1678021320.912,-31.250,-43.457,-44.922,-26.367,292.480
1678021320.916,-32.715,-39.551,-48.340,-28.809,113.281
1678021320.920,-40.039,-42.480,-43.945,-31.250,-93.750
1678021320.924,-32.715,-38.086,-39.551,-35.156,-60.547
1678021320.928,-27.832,-32.227,-38.574,-36.133,-9.766
1678021320.932,-30.762,-32.715,-39.551,-40.039,-83.008
1678021320.936,-35.156,-38.574,-45.898,-53.711,-153.809
1678021320.940,-33.203,-44.922,-44.434,-42.969,-66.406
1678021320.944,-26.367,-41.992,-41.504,-31.250,-29.785
1678021320.948,-29.785,-36.133,-44.922,-22.461,-83.496
1678021320.952,-23.438,-32.715,-36.133,-20.508,-91.797
1678021320.956,-20.996,-36.621,-34.180,-32.715,49.316
1678021320.959,-26.367,-36.133,-39.062,-32.715,145.020
1678021320.963,-36.621,-34.180,-34.668,-33.203,-53.711
1678021320.967,-35.156,-40.039,-37.109,-31.250,-109.375
1678021320.971,-28.809,-37.109,-38.574,-35.645,-21.484
1678021320.975,-48.828,-31.738,-38.086,-53.223,-102.539
1678021320.975,-58.594,-43.457,-36.621,-61.523,-192.871
1678021320.979,-48.340,-41.504,-33.203,-55.176,-80.078
1678021320.983,-31.250,-28.320,-30.762,-35.156,148.926
1678021320.987,-37.109,-28.320,-34.668,-40.527,94.238
1678021320.991,-59.570,-41.016,-39.062,-51.758,-114.746
1678021320.995,-49.805,-26.855,-34.668,-53.223,-126.465
1678021320.999,-35.645,-11.230,-33.203,-39.551,222.168
1678021321.002,-48.828,-20.508,-23.438,-36.621,322.266
1678021321.006,-54.688,-13.672,-22.949,-61.523,-43.457
1678021321.010,-62.988,3.418,-12.207,-77.637,-172.852
1678021321.014,-106.934,1.953,-1.953,-111.816,-164.062
1678021321.018,-146.973,2.441,-2.441,-147.949,-155.273
1678021321.023,-167.969,21.973,31.738,-169.434,-134.766
1678021321.027,-209.473,19.531,47.852,-206.055,-122.070
1678021321.031,-237.305,20.020,61.035,-236.328,-95.703
1678021321.035,-253.906,24.414,87.402,-260.254,-172.852
1678021321.039,-277.832,38.574,98.145,-283.691,-173.340
1678021321.043,-291.016,65.430,106.445,-293.457,134.766
1678021321.047,-300.293,62.500,104.980,-310.059,287.109
1678021321.050,-317.871,67.383,98.145,-331.543,-121.094
1678021321.054,-338.379,61.035,97.656,-333.496,-294.434
1678021321.058,-317.383,61.035,95.703,-308.105,-79.102
1678021321.062,-289.551,85.449,96.680,-290.039,-54.688
1678021321.066,-296.387,77.637,89.844,-300.781,-184.082
1678021321.081,-288.086,50.781,70.801,-302.246,-198.242
1678021321.085,-265.137,52.246,72.754,-285.645,-150.391
1678021321.089,-243.652,72.754,69.336,-265.137,-161.133
1678021321.093,-258.789,66.406,56.152,-264.648,-83.008
1678021321.097,-256.348,62.500,79.102,-253.906,-21.973
1678021321.101,-232.422,53.711,83.008,-237.793,261.230
1678021321.105,-247.559,39.062,45.898,-254.395,423.828
1678021321.108,-236.816,56.152,62.012,-248.535,-14.160
1678021321.112,-205.078,47.363,61.523,-217.773,-176.270
1678021321.116,-204.102,20.508,47.363,-218.262,-73.242
1678021321.120,-192.871,29.785,44.922,-215.820,-171.875
1678021321.124,-173.828,41.016,41.016,-210.938,-219.727
1678021321.125,-179.688,27.832,60.547,-198.242,-159.180
1678021321.129,-184.570,26.367,61.523,-182.617,-98.633
1678021321.133,-175.781,29.297,59.570,-178.711,-119.629
1678021321.137,-168.945,28.320,52.734,-189.453,-194.336
1678021321.141,-160.645,47.852,44.922,-187.988,-165.039
1678021321.145,-138.184,52.734,43.457,-141.602,-66.895
1678021321.149,-126.465,39.062,40.527,-115.234,-56.152
1678021321.152,-121.582,21.973,35.645,-113.281,-65.430
1678021321.156,-108.398,9.277,26.367,-104.492,94.727
1678021321.160,-104.004,19.531,20.508,-98.145,219.727
1678021321.164,-87.891,10.254,3.418,-93.262,-15.625
1678021321.168,-70.312,-14.160,-12.695,-86.914,-121.094
1678021321.170,-51.758,-22.949,-27.344,-58.594,6.348
1678021321.174,-32.715,-31.738,-36.133,-37.109,-33.203
1678021321.178,-32.715,-42.480,-39.551,-40.039,-123.535
1678021321.182,-33.691,-51.270,-51.758,-22.461,-33.203
1678021321.186,-20.020,-63.965,-60.059,11.719,204.590
1678021321.190,0.000,-75.195,-62.988,16.113,98.145
1678021321.194,10.742,-66.406,-80.078,10.742,-57.129
1678021321.197,11.230,-86.426,-87.891,24.414,-80.078
1678021321.201,26.367,-115.234,-84.473,44.434,139.648
1678021321.205,35.645,-105.957,-92.773,57.617,130.371
1678021321.209,42.480,-77.637,-101.074,58.594,-134.766
1678021321.213,59.082,-72.754,-103.516,62.012,-122.559
1678021321.215,57.129,-85.449,-99.609,65.918,-48.828
1678021321.219,53.711,-89.355,-98.633,74.707,-163.086
1678021321.223,64.941,-92.285,-101.562,74.707,-187.012
1678021321.227,82.520,-93.262,-107.422,79.102,-104.980
1678021321.231,88.867,-96.191,-107.910,95.703,-77.637
1678021321.235,95.703,-104.004,-113.281,104.004,-14.160
1678021321.239,104.492,-111.328,-114.258,102.539,-51.270
1678021321.242,91.309,-109.863,-107.422,115.234,32.715
1678021321.246,84.961,-94.238,-113.770,128.418,190.918
1678021321.250,100.098,-85.449,-113.770,116.211,-64.941
1678021321.254,102.051,-92.773,-110.352,105.469,-176.758
1678021321.258,103.027,-99.121,-110.352,111.816,1.465
1678021321.260,99.609,-88.379,-109.375,116.211,-32.227
1678021321.264,100.098,-82.031,-111.816,114.746,-158.203
1678021321.268,113.770,-87.402,-107.910,112.793,-101.562
1678021321.272,112.305,-90.820,-99.609,114.746,125.000
1678021321.276,111.328,-83.984,-96.191,108.887,-37.598
1678021321.280,107.422,-86.914,-93.750,107.422,-154.785
1678021321.284,98.145,-92.285,-94.727,106.934,35.156
1678021321.287,91.797,-94.238,-90.332,114.258,232.422
1678021321.291,81.543,-91.797,-87.891,113.281,149.414
1678021321.295,87.402,-90.332,-94.727,85.938,-87.891
1678021321.299,82.031,-88.379,-92.285,68.848,-75.195
1678021321.303,66.895,-77.637,-82.520,75.195,-26.855
1678021321.308,68.848,-71.289,-80.566,75.195,-92.285
1678021321.312,71.777,-69.336,-83.008,62.500,-64.453
1678021321.316,69.336,-73.242,-82.520,55.664,-31.250
1678021321.320,70.801,-75.195,-76.172,57.617,-59.570
1678021321.324,77.148,-70.312,-65.430,69.336,-73.730
1678021321.328,72.266,-68.359,-63.965,64.941,-54.688
1678021321.332,67.871,-67.383,-67.871,58.105,109.863
1678021321.335,63.477,-63.477,-63.965,52.246,182.617
1678021321.339,40.527,-62.500,-62.500,41.504,-71.777
1678021321.343,34.668,-65.430,-64.453,50.781,-91.309
1678021321.347,45.410,-64.453,-61.035,51.758,6.348
1678021321.351,48.828,-58.594,-58.594,32.715,-38.086
1678021321.350,39.062,-54.199,-58.594,19.531,-114.746
1678021321.354,33.691,-55.176,-56.152,27.344,-158.691
1678021321.358,34.180,-61.523,-57.129,27.344,-50.781
1678021321.362,33.691,-70.801,-58.105,24.902,52.734
1678021321.366,31.250,-62.500,-52.734,29.785,33.203
1678021321.370,17.090,-41.016,-57.617,12.695,22.949
1678021321.374,15.137,-44.434,-52.734,15.625,207.031
1678021321.377,24.902,-49.316,-43.945,31.250,378.418
1678021321.381,3.418,-48.828,-50.293,25.391,100.098
1678021321.385,-3.418,-47.852,-49.316,11.719,-36.133
1678021321.389,6.836,-41.992,-44.922,-1.465,-78.125
1678021321.393,4.395,-38.086,-45.898,4.395,-156.250
1678021321.397,10.254,-40.527,-49.805,11.230,-103.516
1678021321.401,3.418,-41.016,-43.945,8.789,-107.910
1678021321.405,-6.348,-31.250,-34.668,6.348,-125.000
1678021321.409,1.953,-26.367,-38.086,-2.930,-133.789
1678021321.413,1.953,-35.156,-37.109,-3.906,-157.227
1678021321.417,-4.395,-40.527,-33.203,7.324,3.906
1678021321.421,-4.883,-34.180,-33.203,11.719,108.887
1678021321.424,-3.418,-35.156,-34.668,3.418,-45.410
1678021321.428,-8.789,-44.922,-38.574,-7.812,-145.020
1678021321.432,-27.344,-45.898,-34.668,-14.648,46.387
1678021321.436,-28.320,-45.410,-37.109,-9.277,147.949
1678021321.440,-15.625,-43.457,-34.668,2.441,-71.289
1678021321.455,-11.230,-34.668,-27.832,-1.953,-79.102
1678021321.459,-4.883,-31.250,-33.203,-10.254,-62.500
1678021321.463,-13.672,-32.227,-32.715,-16.602,-146.973
1678021321.467,-29.297,-39.062,-29.785,-10.742,-94.238
1678021321.471,-29.297,-45.410,-36.133,-8.789,1.953
1678021321.475,-20.996,-40.039,-39.062,-12.207,283.203
1678021321.479,-23.438,-39.062,-39.551,-12.207,225.098
1678021321.482,-27.344,-43.457,-33.203,-19.531,-122.559
1678021321.486,-23.438,-39.062,-29.297,-15.137,-12.695
1678021321.490,-27.344,-37.109,-25.879,-0.488,196.289
1678021321.494,-27.832,-29.785,-29.297,-9.277,-48.340
1678021321.498,-29.785,-26.855,-34.668,-20.996,-200.195
1678021321.500,-29.785,-28.320,-26.855,-31.738,-161.621
1678021321.504,-25.391,-30.762,-25.879,-29.785,-152.344
1678021321.508,-17.578,-36.621,-29.785,-26.855,-120.117
1678021321.512,-18.066,-36.621,-24.414,-20.996,-134.277
1678021321.516,-18.066,-37.109,-20.508,-16.602,-130.859
1678021321.520,-10.742,-30.762,-25.879,-23.926,-69.824
1678021321.524,-12.207,-23.438,-22.461,-22.949,-61.523
1678021321.527,-21.973,-33.691,-23.438,-25.391,-112.793
1678021321.531,-34.180,-41.016,-30.273,-23.926,79.590
1678021321.535,-41.992,-37.598,-34.180,-27.832,172.363
1678021321.539,-43.945,-38.086,-40.527,-37.598,-118.652
1678021321.543,-38.574,-37.598,-37.109,-37.109,-107.422
1678021321.545,-34.668,-36.133,-27.832,-28.809,88.867
1678021321.549,-23.926,-42.969,-21.973,-26.855,-10.742
1678021321.553,-20.996,-47.852,-23.926,-30.762,-129.883
1678021321.557,-41.016,-41.504,-23.438,-36.133,-53.711
1678021321.561,-32.227,-30.762,-25.391,-22.461,119.141
1678021321.565,-23.926,-33.691,-25.391,-17.090,77.148
1678021321.569,-40.039,-37.598,-22.949,-32.715,-34.180
1678021321.572,-35.156,-35.156,-26.855,-19.043,-59.570
1678021321.576,-31.250,-43.945,-27.344,-4.395,149.414
1678021321.580,-36.621,-46.875,-25.391,-12.695,35.645
1678021321.584,-37.109,-43.457,-26.367,-22.461,-175.781
1678021321.588,-36.133,-42.969,-27.344,-37.109,-116.211
1678021321.592,-36.621,-31.250,-31.250,-53.223,-78.125
1678021321.596,-58.105,-34.668,-32.227,-46.875,-93.262
1678021321.600,-64.453,-53.711,-38.086,-55.176,-187.012
1678021321.604,-44.922,-53.711,-43.945,-52.734,-117.188
1678021321.608,-43.457,-41.504,-41.016,-39.551,-61.035
1678021321.612,-37.109,-43.457,-37.598,-48.828,-120.605
1678021321.616,-45.898,-50.781,-37.109,-46.387,-134.766
1678021321.619,-55.176,-45.898,-32.715,-38.086,-47.363
1678021321.623,-46.875,-37.109,-33.203,-28.320,131.836
1678021321.627,-53.711,-32.715,-36.133,-34.668,-36.133
1678021321.631,-51.758,-30.762,-31.738,-40.039,-122.559
1678021321.635,-44.434,-35.645,-31.738,-30.273,-68.848
1678021321.635,-42.969,-51.270,-33.691,-22.461,-142.090
1678021321.639,-37.109,-38.574,-33.203,-30.762,-191.895
1678021321.643,-30.273,-19.043,-36.133,-37.109,-39.062
1678021321.647,-30.762,-19.531,-34.668,-34.180,119.141
1678021321.651,-25.879,-22.949,-32.227,-40.039,0.488
1678021321.655,-20.508,-25.391,-35.645,-40.527,-92.773
1678021321.659,-18.555,-24.902,-33.203,-31.250,-37.598
1678021321.662,-6.348,-28.809,-30.762,-20.508,247.070
1678021321.666,-6.348,-33.691,-30.762,-7.324,315.918
1678021321.670,-17.578,-30.273,-26.367,-9.766,-49.805
1678021321.674,-16.113,-32.227,-20.996,-30.762,-164.551
1678021321.678,-21.973,-50.293,-21.973,-33.203,-122.559
1678021321.682,-24.414,-46.387,-19.531,-23.438,-151.855
1678021321.686,-21.973,-35.645,-20.020,-18.066,-129.883
1678021321.690,-30.273,-41.504,-23.438,-25.879,-65.918
1678021321.694,-26.855,-38.574,-20.508,-28.809,-131.348
1678021321.698,-24.414,-40.039,-22.949,-22.949,-157.715
1678021321.702,-28.320,-37.109,-26.855,-27.832,-125.488
1678021321.706,-26.855,-33.203,-24.414,-23.926,113.281
1678021321.709,-34.668,-39.551,-26.367,-17.578,378.906
1678021321.713,-44.922,-41.504,-30.762,-39.062,-46.875
1678021321.717,-38.086,-40.039,-26.367,-47.852,-199.219
1678021321.721,-40.039,-34.180,-25.879,-31.250,15.137
1678021321.725,-49.316,-28.320,-30.762,-29.297,-20.020
1678021321.725,-46.875,-37.598,-22.949,-24.902,-123.047
1678021321.729,-36.133,-33.691,-21.973,-25.879,-144.531
1678021321.733,-37.109,-18.066,-33.691,-44.434,-99.609
1678021321.737,-32.227,-20.020,-22.949,-36.621,12.207
1678021321.741,-28.320,-23.438,-7.812,-33.691,-110.840
1678021321.745,-26.855,-11.719,1.465,-45.898,-104.004
1678021321.749,-58.594,-19.043,0.488,-68.359,294.922
1678021321.752,-98.633,-20.996,-2.930,-98.633,338.379
1678021321.756,-120.117,5.859,1.953,-127.930,-97.656
1678021321.760,-146.484,18.066,16.113,-153.809,-152.832
1678021321.764,-192.871,8.789,47.363,-197.754,-4.883
1678021321.768,-245.117,3.418,74.707,-251.953,-179.199
1678021321.772,-268.066,25.391,107.422,-283.691,-288.086
1678021321.776,-273.926,49.805,141.113,-288.574,-134.277
1678021321.780,-279.297,75.684,122.070,-290.527,-24.414
1678021321.784,-291.504,50.781,107.422,-304.688,-59.082
1678021321.788,-305.664,38.574,106.934,-319.824,-160.645
1678021321.792,-307.129,65.918,100.098,-313.477,-81.055
1678021321.796,-320.312,50.781,93.750,-314.453,67.871
1678021321.799,-310.059,38.574,109.863,-300.781,0.977
1678021321.803,-271.973,50.293,118.164,-271.484,-128.418
1678021321.807,-250.977,46.387,122.559,-256.836,14.160
1678021321.811,-262.695,36.621,135.742,-269.043,117.188
1678021321.815,-269.043,27.344,120.117,-277.344,-90.332
1678021321.830,-261.719,36.133,110.352,-267.090,-118.652
1678021321.834,-251.953,36.621,120.605,-255.859,53.223
1678021321.838,-239.746,30.762,125.977,-244.141,-41.016
1678021321.842,-232.910,28.320,125.977,-242.188,-141.602
1678021321.846,-207.520,33.691,127.930,-224.609,-126.953
1678021321.850,-191.406,22.949,116.211,-207.520,178.711
1678021321.854,-198.730,7.812,98.633,-195.801,288.086
1678021321.857,-202.148,11.719,81.543,-198.730,-67.871
1678021321.861,-187.988,24.902,73.242,-190.430,-125.977
1678021321.865,-168.945,26.855,60.547,-171.387,-3.418
1678021321.869,-161.621,13.184,36.621,-155.273,-109.863
1678021321.873,-139.160,0.977,31.738,-127.441,-247.070
1678021321.875,-110.840,-2.441,21.484,-111.816,-122.070
1678021321.879,-94.727,-26.855,5.371,-109.375,-2.930
1678021321.883,-84.961,-44.922,-4.395,-100.586,-125.000
1678021321.887,-67.871,-20.508,-19.043,-83.984,-137.695
1678021321.891,-56.641,-21.484,-30.762,-54.688,-88.867
1678021321.895,-41.016,-40.527,-38.574,-42.969,16.602
1678021321.899,-27.344,-47.363,-50.293,-45.410,4.395
1678021321.902,-22.461,-49.805,-62.012,-32.227,-146.484
1678021321.906,-10.742,-56.641,-62.988,-4.395,-28.320
1678021321.910,0.488,-62.500,-65.918,18.066,169.434
1678021321.914,11.719,-82.031,-74.219,16.113,-19.531
1678021321.918,23.926,-80.078,-79.102,8.789,-110.352
1678021321.921,20.996,-62.988,-84.961,18.066,-38.086
1678021321.925,34.180,-62.988,-84.961,43.945,-51.758
1678021321.929,48.340,-66.895,-88.867,49.805,-111.816
1678021321.933,63.965,-79.590,-91.309,49.805,-10.742
1678021321.937,71.777,-72.266,-95.215,64.941,264.648
1678021321.941,68.359,-71.289,-101.074,83.496,144.531
1678021321.945,74.707,-85.449,-99.609,77.637,-108.398
1678021321.948,70.801,-91.309,-100.586,70.801,-77.148
1678021321.952,76.172,-83.496,-105.469,89.844,152.832
1678021321.956,88.867,-79.102,-103.027,93.750,11.230
1678021321.960,82.520,-84.473,-104.492,88.867,-228.027
1678021321.964,86.426,-84.473,-115.234,108.398,-148.438
1678021321.965,102.051,-82.031,-108.887,103.027,-105.957
1678021321.969,102.051,-76.660,-97.168,84.473,-133.789
1678021321.973,89.355,-84.961,-97.168,84.961,-143.555
1678021321.977,78.125,-86.426,-97.168,88.867,-166.016
1678021321.981,77.637,-78.613,-92.773,96.191,-102.051
1678021321.985,83.008,-69.336,-86.426,99.609,-19.043
1678021321.989,81.055,-70.801,-82.520,87.402,-37.598
1678021321.992,74.707,-75.195,-84.473,80.078,125.977
1678021321.996,72.754,-71.777,-84.961,83.008,336.426
1678021322.000,71.289,-66.895,-79.590,75.195,115.234
1678021322.004,72.754,-63.477,-75.195,76.660,-85.449
1678021322.008,75.684,-62.988,-75.195,72.266,-11.719
1678021322.010,82.031,-59.082,-79.590,53.711,-60.059
1678021322.014,74.219,-55.664,-77.148,51.270,-194.336
1678021322.018,65.430,-67.871,-71.289,57.617,-76.660
1678021322.022,65.430,-73.242,-73.730,67.871,242.676
1678021322.026,55.664,-64.453,-73.242,59.082,120.605
1678021322.030,48.828,-65.918,-71.777,43.457,-79.590
1678021322.034,41.016,-67.871,-76.660,41.992,-31.250
1678021322.037,45.410,-59.570,-74.219,46.875,239.746
1678021322.041,48.340,-63.965,-68.848,65.918,241.211
1678021322.045,49.805,-70.312,-67.871,53.711,-97.168
1678021322.049,55.176,-61.523,-64.941,37.598,-126.953
1678021322.053,50.293,-64.453,-61.523,34.668,-103.027
1678021322.057,42.480,-58.594,-67.871,34.668,-151.855
1678021322.061,40.039,-45.898,-64.941,43.945,-132.812
1678021322.065,31.738,-47.363,-57.129,39.062,-98.145
1678021322.069,29.785,-51.270,-57.617,26.855,-109.375
1678021322.073,29.785,-48.340,-55.176,24.902,-174.805
1678021322.077,21.484,-42.969,-50.293,32.715,-168.945
1678021322.081,19.531,-40.527,-49.316,45.410,97.168
1678021322.084,21.973,-42.969,-47.852,44.922,265.137
1678021322.088,20.020,-38.574,-44.922,28.809,0.488
1678021322.092,23.926,-37.598,-47.363,12.695,-66.406
1678021322.096,24.414,-39.551,-49.805,13.184,59.082
1678021322.100,12.695,-40.039,-46.875,16.113,-13.184
1678021322.100,15.625,-41.016,-40.039,12.207,-150.391
1678021322.104,17.578,-36.133,-38.086,14.648,-145.020
1678021322.108,8.789,-34.180,-41.504,9.766,-88.867
1678021322.112,4.883,-36.621,-39.551,0.488,-1.953
1678021322.116,-5.859,-38.086,-35.156,-6.348,-27.344
1678021322.120,-2.930,-39.551,-38.574,-6.348,-48.828
1678021322.124,12.207,-38.086,-39.062,4.395,250.000
1678021322.127,10.742,-40.039,-35.156,5.859,321.289
1678021322.131,0.488,-45.898,-39.062,-14.648,-87.402
1678021322.135,-12.207,-36.621,-43.945,-27.832,-175.293
1678021322.139,-13.672,-27.344,-41.504,-9.766,-34.668
1678021322.143,-7.812,-35.156,-35.156,2.930,-50.293
1678021322.148,-16.602,-43.457,-39.062,-18.066,-80.566
1678021322.152,-24.414,-43.945,-46.387,-20.996,-13.672
1678021322.156,-21.484,-49.805,-50.781,-8.301,47.363
1678021322.160,-20.996,-60.547,-52.734,-12.695,-39.551
1678021322.164,-21.973,-53.711,-51.270,-14.648,-130.371
1678021322.168,-28.320,-41.016,-46.387,-15.625,-47.852
1678021322.172,-26.367,-41.992,-41.504,-21.973,32.227
1678021322.175,-20.996,-46.387,-42.969,-19.043,-48.828
1678021322.179,-24.902,-49.316,-45.410,-12.207,-103.027
1678021322.183,-37.109,-46.875,-44.434,-6.836,23.438
1678021322.187,-38.574,-43.457,-39.062,-15.137,-8.301
1678021322.191,-30.273,-33.203,-36.133,-22.461,-156.738
1678021322.205,-28.320,-35.156,-41.504,-20.996,-90.332
1678021322.209,-32.227,-44.922,-42.969,-24.414,-21.973
1678021322.213,-29.785,-41.992,-30.762,-21.484,-7.812
1678021322.217,-33.203,-42.480,-32.227,-25.879,0.000
1678021322.221,-34.180,-42.480,-35.645,-29.785,17.090
1678021322.225,-27.344,-48.828,-34.180,-23.926,244.141
1678021322.229,-33.203,-49.805,-33.691,-17.090,436.035
1678021322.232,-35.156,-43.945,-29.297,-20.508,82.520
1678021322.236,-30.762,-37.109,-32.227,-28.320,-168.945
1678021322.240,-36.621,-37.109,-33.691,-35.645,-171.875
1678021322.244,-38.086,-39.551,-36.133,-41.504,-207.520
1678021322.248,-29.785,-35.156,-33.203,-35.156,-232.422
1678021322.250,-27.832,-32.715,-24.414,-27.832,-135.742
1678021322.254,-38.574,-42.969,-29.785,-39.062,-45.410
1678021322.258,-37.109,-45.898,-30.273,-40.039,-184.082
1678021322.262,-24.902,-36.621,-28.809,-38.086,-208.008
1678021322.266,-22.949,-31.250,-32.227,-36.621,-3.418
1678021322.270,-24.414,-31.738,-37.109,-36.133,77.637
1678021322.274,-30.273,-32.715,-36.133,-45.898,4.395
1678021322.277,-28.320,-35.156,-33.691,-40.527,-171.387
1678021322.281,-14.648,-26.367,-33.691,-20.996,-99.121
1678021322.285,-28.320,-25.879,-35.645,-29.785,185.059
1678021322.289,-48.828,-33.203,-31.738,-41.504,-34.668
1678021322.293,-41.016,-28.809,-25.391,-30.273,-184.570
1678021322.295,-34.668,-36.133,-26.367,-41.992,-136.230
1678021322.299,-43.457,-38.086,-26.367,-41.504,-162.598
1678021322.303,-39.062,-29.297,-26.367,-29.785,-168.945
1678021322.307,-44.922,-33.203,-27.832,-21.973,48.828
1678021322.311,-35.156,-34.180,-33.691,-26.855,204.102
1678021322.315,-30.762,-33.691,-33.691,-47.852,10.742
1678021322.319,-51.758,-29.785,-33.203,-44.922,-106.445
1678021322.322,-52.734,-28.809,-39.062,-32.227,-1.465
1678021322.326,-40.039,-41.992,-37.109,-22.461,225.586
1678021322.330,-40.039,-50.781,-32.715,-24.414,198.730
1678021322.334,-41.504,-49.316,-30.273,-45.410,-97.168
1678021322.338,-42.480,-43.457,-28.320,-47.363,-157.715
1678021322.340,-42.969,-36.621,-23.438,-27.832,-82.520
1678021322.344,-34.668,-31.250,-24.414,-20.996,-63.477
1678021322.348,-17.090,-23.926,-28.809,-37.109,-65.918
1678021322.352,-19.043,-37.598,-28.809,-49.805,-62.988
1678021322.356,-32.715,-46.387,-26.855,-48.828,-85.938
1678021322.360,-33.691,-28.809,-35.156,-40.039,-28.320
1678021322.364,-39.551,-33.691,-38.574,-35.645,-1.465
1678021322.367,-44.922,-55.664,-33.203,-35.156,101.562
1678021322.371,-44.922,-41.992,-33.691,-37.598,231.445
1678021322.375,-37.109,-24.414,-31.738,-46.875,-8.301
1678021322.379,-33.691,-23.438,-27.832,-42.969,-220.215
1678021322.383,-38.086,-23.438,-37.109,-36.621,-62.500
1678021322.385,-29.785,-36.133,-36.621,-39.062,4.395
1678021322.389,-29.297,-51.758,-30.762,-42.480,-147.949
1678021322.393,-36.621,-39.551,-27.344,-47.852,-166.504
1678021322.397,-41.016,-25.391,-29.785,-41.016,-9.766
1678021322.401,-35.645,-23.926,-36.621,-25.879,-6.348
1678021322.405,-35.645,-28.320,-39.062,-32.227,-38.086
1678021322.409,-43.457,-39.551,-36.621,-44.434,-75.684
1678021322.412,-45.410,-40.039,-31.250,-38.574,111.328
1678021322.416,-45.410,-31.738,-35.156,-29.297,71.289
1678021322.420,-38.086,-36.621,-37.598,-30.762,-129.883
1678021322.424,-35.156,-41.016,-37.598,-36.133,-91.309
1678021322.428,-47.852,-34.668,-35.645,-43.945,-10.742
1678021322.432,-53.223,-32.715,-31.250,-55.176,-61.035
1678021322.436,-33.203,-36.621,-33.203,-46.875,-178.223
1678021322.440,-21.973,-35.645,-30.762,-41.992,-129.883
1678021322.444,-34.180,-35.156,-33.203,-41.504,-66.895
1678021322.448,-35.645,-33.203,-36.133,-41.504,-120.605
1678021322.452,-36.133,-30.762,-34.668,-47.852,-74.707
1678021322.456,-41.016,-35.645,-31.250,-41.992,136.719
1678021322.459,-39.062,-38.574,-33.691,-29.785,256.348
1678021322.463,-37.109,-32.227,-39.551,-33.691,-54.199
1678021322.467,-36.621,-39.551,-33.203,-37.598,-216.797
1678021322.471,-37.598,-38.574,-30.762,-41.992,-136.719
1678021322.475,-30.273,-28.809,-39.551,-39.551,-161.621
1678021322.476,-38.574,-31.250,-34.180,-28.320,-178.711
1678021322.480,-51.758,-40.527,-23.926,-28.809,-121.094
1678021322.484,-38.574,-39.062,-26.367,-26.367,3.906
1678021322.488,-30.273,-37.109,-28.809,-28.320,-60.547
1678021322.492,-38.086,-40.039,-33.203,-41.992,-170.410
1678021322.496,-40.039,-41.016,-45.410,-44.434,-10.742
1678021322.500,-48.340,-43.945,-44.922,-26.367,335.938
1678021322.503,-49.805,-38.574,-31.738,-13.672,388.672
1678021322.507,-43.457,-24.902,-21.973,-35.156,-28.320
1678021322.511,-42.969,-13.672,-21.484,-44.922,-222.168
1678021322.515,-47.363,-24.414,-30.273,-44.922,-156.738
1678021322.519,-46.387,-35.156,-43.457,-49.316,-141.113
1678021322.522,-37.109,-20.508,-19.531,-40.527,-161.621
1678021322.526,-45.898,-3.418,-0.977,-41.016,-120.117
1678021322.530,-78.125,13.184,-28.320,-71.289,-87.891
1678021322.534,-100.098,8.301,-35.645,-92.773,-122.070
1678021322.538,-107.422,24.414,-17.090,-107.422,-106.445
1678021322.542,-134.766,26.855,-2.930,-152.832,91.309
1678021322.546,-175.293,32.227,20.020,-187.988,328.125
1678021322.549,-217.285,51.270,37.109,-229.492,-62.500
1678021322.553,-253.906,51.758,58.594,-263.184,-285.645
1678021322.557,-283.203,57.617,82.031,-277.832,-66.895
1678021322.561,-299.316,50.293,88.867,-306.641,-38.574
1678021322.565,-279.785,51.758,101.562,-311.523,-108.398
1678021322.580,-280.273,64.453,108.887,-316.406,-130.859
1678021322.584,-311.035,59.082,98.145,-330.078,-132.812
1678021322.588,-319.824,45.410,92.773,-314.941,-98.145
1678021322.592,-291.992,41.992,97.168,-293.457,-12.207
1678021322.596,-287.109,35.645,93.750,-293.945,-49.805
1678021322.600,-292.969,39.062,92.285,-277.344,147.949
1678021322.604,-294.922,31.250,85.449,-266.113,167.969
1678021322.607,-278.320,20.020,72.754,-271.484,-3.418
1678021322.611,-247.070,31.250,63.965,-253.418,-6.348
1678021322.615,-254.395,24.414,50.781,-248.535,131.348
1678021322.619,-246.094,2.441,41.992,-248.535,20.508
1678021322.623,-220.215,18.066,44.434,-237.793,-180.664
1678021322.625,-218.262,21.973,46.875,-217.285,-132.324
1678021322.629,-208.496,1.465,39.551,-195.801,-78.125
1678021322.633,-187.012,3.906,30.273,-197.754,-89.844
1678021322.637,-164.551,14.648,29.785,-197.754,-148.438
1678021322.641,-149.414,8.789,15.137,-172.852,-141.602
1678021322.645,-147.949,7.812,1.953,-139.648,-39.551
1678021322.649,-133.301,6.836,0.000,-125.977,38.086
1678021322.652,-112.305,-12.695,-10.742,-122.070,-142.090
1678021322.656,-99.609,-28.320,-23.438,-106.934,-107.422
1678021322.660,-80.078,-29.297,-24.902,-68.848,242.676
1678021322.664,-62.012,-34.180,-24.902,-47.852,-36.621
1678021322.668,-36.621,-49.805,-41.992,-39.551,-164.062
1678021322.670,-23.438,-54.199,-57.617,-31.738,-81.055
1678021322.674,-17.090,-55.176,-54.199,-31.250,-211.426
1678021322.678,1.465,-57.617,-57.129,-12.207,-247.070
1678021322.682,17.090,-58.105,-67.871,12.207,-64.941
1678021322.686,21.484,-76.660,-73.730,14.648,193.359
1678021322.690,18.066,-99.609,-79.102,14.160,134.766
1678021322.694,20.996,-84.961,-80.078,16.602,-57.129
1678021322.697,29.297,-72.754,-85.449,34.668,-81.055
1678021322.701,45.410,-73.730,-88.379,62.012,172.852
1678021322.705,61.523,-76.660,-84.473,53.711,98.633
1678021322.709,71.777,-74.707,-83.984,47.363,-82.520
1678021322.713,62.012,-73.242,-83.008,65.918,-12.695
1678021322.715,68.359,-75.195,-93.262,71.777,-41.016
1678021322.719,79.590,-72.754,-98.145,80.078,-127.930
1678021322.723,81.055,-77.637,-98.633,83.496,-150.879
1678021322.727,92.285,-73.730,-97.168,90.820,-122.559
1678021322.731,99.121,-73.242,-94.727,96.680,-42.480
1678021322.735,93.750,-81.055,-93.262,84.961,46.875
1678021322.739,87.891,-79.102,-94.727,94.238,-9.277
1678021322.742,93.750,-77.148,-96.191,111.328,49.316
1678021322.746,99.609,-76.172,-85.449,110.352,196.289
1678021322.750,91.797,-68.359,-78.613,89.355,0.000
1678021322.754,83.984,-67.383,-84.961,77.637,-134.766
1678021322.758,82.031,-70.312,-87.891,68.848,-107.910
1678021322.762,85.938,-66.895,-84.473,73.730,-77.637
1678021322.766,76.172,-65.918,-80.566,84.961,-50.293
1678021322.770,64.453,-67.383,-81.543,78.125,-87.891
1678021322.774,64.941,-68.359,-81.055,74.219,137.207
1678021322.778,69.336,-63.965,-78.125,79.590,156.250
1678021322.782,83.008,-58.594,-76.172,82.520,-48.340
1678021322.786,83.496,-58.105,-71.777,83.496,-34.668
1678021322.789,74.219,-56.152,-62.988,94.727,129.395
1678021322.793,60.059,-56.152,-62.012,76.660,24.902
1678021322.797,48.340,-64.941,-64.453,60.059,-154.785
1678021322.801,45.898,-63.477,-65.430,53.711,-97.168
1678021322.805,45.410,-58.105,-68.359,49.316,-99.609
1678021322.807,44.434,-54.199,-66.895,52.246,-102.051
1678021322.811,44.922,-57.129,-60.547,43.457,-94.727
1678021322.815,47.363,-58.105,-62.012,56.152,-143.555
1678021322.819,50.781,-49.805,-58.594,62.500,-100.586
1678021322.823,56.641,-43.457,-54.199,43.945,-11.230
1678021322.827,49.316,-46.387,-55.176,36.133,-67.383
1678021322.831,37.109,-49.805,-52.246,33.203,36.133
1678021322.834,32.227,-45.898,-48.340,48.828,261.230
1678021322.838,20.020,-49.316,-48.340,43.945,32.227
1678021322.842,27.832,-50.293,-50.781,25.391,-127.930
1678021322.846,34.668,-61.035,-55.664,15.137,1.953
1678021322.850,26.367,-61.523,-49.805,3.906,-92.773
1678021322.850,23.926,-43.945,-45.898,8.789,-179.688
1678021322.854,10.742,-41.992,-51.270,11.230,-106.445
1678021322.858,3.418,-47.363,-58.105,14.160,-27.344
1678021322.862,11.230,-50.293,-55.176,19.531,36.133
1678021322.866,14.648,-50.781,-46.387,13.184,-44.434
1678021322.870,12.695,-52.246,-45.410,-5.371,-135.254
1678021322.874,6.348,-49.316,-43.945,3.906,242.188
1678021322.877,4.883,-46.387,-44.434,16.113,489.258
1678021322.881,0.488,-41.016,-42.480,10.254,105.469
1678021322.885,-4.883,-39.062,-41.504,0.488,-104.492
1678021322.889,-6.348,-63.965,-47.363,-16.602,-74.219
1678021322.893,-7.324,-43.945,-43.945,-23.926,-93.262
1678021322.943,-4.395,-25.391,-39.551,-20.020,-83.496
1678021322.947,-1.953,-39.551,-44.922,-18.066,-62.012
1678021322.951,-6.836,-36.133,-41.992,-22.461,-113.770
1678021322.955,-15.137,-31.250,-40.039,-29.297,-158.203
1678021322.959,-15.137,-32.715,-40.039,-19.531,-103.516
1678021322.963,-18.066,-33.691,-42.969,-11.230,57.129
1678021322.967,-21.973,-38.086,-46.387,-11.719,105.469
1678021322.970,-12.207,-35.645,-41.504,-14.648,-52.246
1678021322.974,-0.488,-31.250,-40.039,-23.438,-105.469
1678021322.978,-6.836,-38.574,-38.574,-11.230,41.504
1678021322.982,-19.043,-41.016,-35.645,-1.465,88.379
1678021322.986,-19.531,-36.621,-37.598,-13.672,-148.438
1678021322.955,-10.254,-37.109,-38.086,-21.973,-210.449
1678021322.959,-16.602,-28.809,-34.668,-20.996,-173.340
1678021322.963,-25.879,-27.344,-32.227,-13.672,-155.273
1678021322.967,-17.090,-41.016,-34.668,-20.020,-127.441
1678021322.971,-26.367,-47.363,-32.715,-23.438,-126.953
1678021322.975,-39.551,-48.828,-32.227,-21.484,249.512
1678021322.979,-34.668,-41.992,-36.621,-35.156,306.152
1678021322.982,-25.391,-41.504,-41.992,-35.645,-127.930
1678021322.986,-24.414,-44.922,-34.668,-20.508,-162.109
1678021322.990,-24.414,-37.109,-29.785,-2.441,21.973
1678021322.994,-16.113,-27.832,-29.785,-1.465,-21.973
1678021322.998,-9.277,-23.438,-29.297,-17.090,-112.793
1678021323.000,-11.719,-32.227,-33.691,-30.762,-85.449
1678021323.004,-22.461,-41.992,-34.180,-24.414,-44.434
1678021323.008,-27.832,-40.527,-35.645,-19.531,-55.176
1678021323.012,-25.391,-39.551,-41.504,-28.320,-78.613
1678021323.016,-20.996,-45.898,-39.062,-27.832,-91.309
1678021323.020,-34.180,-46.387,-37.598,-29.785,-11.719
1678021323.024,-44.922,-34.180,-40.039,-32.715,-2.441
1678021323.027,-39.062,-28.320,-40.039,-25.879,-46.875
1678021323.031,-33.691,-32.715,-38.086,-20.996,25.391
1678021323.035,-41.504,-32.715,-36.133,-27.832,110.352
1678021323.039,-40.527,-33.203,-37.598,-34.668,-126.953
1678021323.043,-36.133,-28.809,-43.457,-28.809,-210.449
1678021323.045,-32.227,-31.250,-42.480,-23.438,-82.520
1678021323.049,-20.508,-36.621,-33.203,-22.461,-21.484
1678021323.053,-25.391,-31.250,-32.227,-29.297,-117.676
1678021323.057,-37.598,-26.367,-32.715,-35.645,-128.906
1678021323.061,-41.992,-31.250,-30.762,-22.949,124.023
1678021323.065,-44.434,-35.156,-37.109,-25.391,154.785
1678021323.069,-38.086,-31.250,-41.504,-29.785,-29.785
1678021323.072,-30.762,-29.785,-39.062,-14.648,-29.785
1678021323.076,-31.738,-28.320,-41.992,-21.484,98.145
1678021323.080,-29.297,-31.250,-46.387,-39.551,3.418
1678021323.084,-25.391,-36.133,-41.504,-44.434,-199.219
1678021323.088,-29.297,-29.297,-39.062,-47.852,-138.672
1678021323.090,-34.180,-26.855,-37.598,-41.504,-129.883
1678021323.094,-31.250,-33.203,-34.180,-41.504,-138.672
1678021323.098,-28.809,-38.086,-34.180,-43.457,-150.391
1678021323.102,-39.062,-36.621,-36.133,-38.086,-66.406
1678021323.106,-35.645,-22.949,-36.621,-37.109,27.344
1678021323.110,-33.203,-22.461,-33.691,-36.133,-50.781
1678021323.114,-44.434,-40.527,-25.879,-35.645,-111.816
1678021323.117,-46.387,-55.176,-26.367,-35.156,7.324
1678021323.121,-38.086,-34.668,-37.109,-22.461,171.387
1678021323.125,-34.668,-19.531,-35.645,-24.902,18.555
1678021323.129,-36.621,-22.461,-34.180,-34.668,-59.082
1678021323.133,-40.527,-22.949,-37.598,-35.645,-58.105
1678021323.135,-37.598,-22.461,-35.645,-29.785,-91.797
1678021323.139,-32.715,-20.020,-33.691,-27.832,-157.227
1678021323.143,-41.016,-34.668,-39.062,-28.809,-80.566
1678021323.147,-44.434,-38.086,-40.039,-37.598,148.438
1678021323.151,-28.809,-29.785,-37.598,-41.504,-39.062
1678021323.155,-22.461,-30.273,-33.691,-38.574,-66.406
1678021323.159,-31.250,-27.832,-32.715,-28.320,128.418
1678021323.162,-30.273,-31.738,-38.574,-5.371,327.148
1678021323.166,-30.273,-33.691,-39.062,-10.742,265.625
1678021323.170,-36.133,-33.691,-35.156,-39.062,-132.324
1678021323.174,-39.062,-36.621,-38.574,-36.621,-195.801
1678021323.178,-34.180,-45.410,-43.945,-26.855,-145.508
1678021323.182,-24.414,-41.016,-41.992,-38.574,-157.715
1678021323.186,-28.809,-34.180,-38.086,-40.039,-175.781
1678021323.190,-37.598,-32.715,-39.551,-40.039,-151.855
1678021323.194,-32.715,-28.809,-35.645,-49.316,-134.766
1678021323.198,-27.832,-31.250,-35.156,-36.621,-194.336
1678021323.202,-34.180,-39.551,-36.621,-32.227,-187.988
1678021323.206,-44.434,-38.574,-35.156,-36.621,17.090
1678021323.209,-52.246,-38.086,-41.504,-33.203,192.383
1678021323.213,-48.828,-42.969,-42.969,-41.992,-58.105
1678021323.217,-36.621,-42.480,-38.086,-45.898,-154.297
1678021323.221,-38.574,-41.504,-35.156,-40.527,2.930
1678021323.225,-37.598,-32.227,-37.598,-44.922,-31.738
1678021323.225,-44.922,-35.156,-36.621,-49.316,-203.125
1678021323.229,-50.293,-37.109,-30.273,-37.109,-200.684
1678021323.233,-36.133,-25.879,-33.691,-34.668,-46.387
1678021323.237,-36.133,-31.250,-35.645,-38.574,27.344
1678021323.241,-48.340,-43.945,-33.203,-38.086,-33.203
1678021323.245,-48.340,-44.434,-41.992,-51.270,-14.648
1678021323.249,-37.598,-32.227,-36.133,-56.641,280.273
1678021323.252,-49.805,-20.508,-29.785,-50.293,341.309
1678021323.256,-64.453,-20.020,-30.762,-45.898,7.324
1678021323.260,-56.152,-21.484,-27.832,-49.805,-52.246
1678021323.264,-58.594,-14.160,-25.879,-72.754,47.852
1678021323.268,-69.336,12.207,-2.930,-93.750,-20.996
1678021323.272,-109.375,24.414,8.789,-130.859,-110.352
1678021323.276,-145.508,19.531,4.883,-154.785,-83.984
1678021323.280,-173.828,31.250,16.113,-180.176,11.719
1678021323.284,-229.004,26.855,44.922,-236.328,-67.871
1678021323.288,-270.996,25.879,76.172,-274.902,-178.223
1678021323.292,-287.598,37.109,92.285,-290.039,-110.352
1678021323.296,-291.504,38.086,98.145,-291.504,84.961
1678021323.299,-295.410,50.781,97.168,-316.406,-39.551
1678021323.303,-339.844,56.152,90.820,-369.141,-171.875
1678021323.307,-328.125,50.781,91.797,-344.238,-92.285
1678021323.311,-311.035,40.039,103.516,-307.617,-82.031
1678021323.315,-322.754,39.062,91.309,-312.988,-187.988
1678021323.330,-311.523,41.504,77.148,-314.941,-108.398
1678021323.334,-295.410,44.922,79.590,-304.688,81.543
1678021323.338,-288.086,39.062,73.730,-293.457,-19.531
1678021323.342,-287.598,25.391,69.824,-287.109,-71.289
1678021323.346,-273.438,21.973,67.383,-276.367,-34.180
1678021323.350,-263.672,22.461,62.500,-256.348,254.395
1678021323.354,-252.930,19.531,63.965,-245.117,255.371
1678021323.357,-245.605,10.254,53.223,-254.883,-158.203
1678021323.361,-240.723,10.742,50.781,-244.141,-202.637
1678021323.365,-228.027,15.625,44.922,-215.820,-46.387
1678021323.369,-228.516,6.348,35.645,-214.355,-127.441
1678021323.373,-215.820,0.977,31.250,-213.867,-150.391
1678021323.375,-186.523,7.812,24.414,-194.824,-129.883
1678021323.379,-173.340,9.766,20.020,-178.711,-193.359
1678021323.383,-163.086,0.488,16.602,-166.504,-135.742
1678021323.387,-146.484,2.441,14.648,-147.461,-62.988
1678021323.391,-145.996,9.277,6.348,-126.953,3.418
1678021323.395,-139.160,-4.883,-4.883,-133.789,63.477
1678021323.399,-109.375,-6.836,-15.137,-123.047,-48.340
1678021323.402,-87.402,3.418,-23.438,-82.520,-170.410
1678021323.406,-68.359,-6.836,-31.250,-53.223,-6.836
1678021323.410,-54.199,-29.785,-35.156,-46.387,239.746
1678021323.414,-54.199,-34.668,-37.109,-47.363,1.465
1678021323.418,-42.480,-17.090,-47.852,-39.551,-150.879
1678021323.719,-20.508,-20.020,-53.711,-20.508,1.465
1678021323.723,-1.465,-32.715,-60.547,-1.465,0.000
1678021323.727,-4.395,-35.156,-69.824,-1.953,-96.191
1678021323.731,-2.441,-47.363,-67.383,-5.371,-78.125
1678021323.735,11.230,-53.711,-69.336,21.484,62.988
1678021323.739,22.461,-51.270,-78.125,39.062,40.527
1678021323.743,33.691,-52.246,-75.684,35.645,-66.406
1678021323.746,41.016,-56.641,-78.125,41.992,87.402
1678021323.750,46.875,-62.012,-83.984,53.223,291.016
1678021323.754,52.734,-59.570,-85.938,57.617,161.621
1678021323.758,61.035,-59.082,-84.961,63.965,-88.867
1678021323.762,69.824,-59.082,-83.008,77.148,-88.379
1678021323.722,80.078,-55.176,-90.820,87.891,-71.777
1678021323.726,83.008,-65.430,-96.191,83.008,-168.945
1678021323.730,92.773,-69.336,-94.727,80.566,-154.297
1678021323.734,101.074,-66.406,-95.703,95.703,-39.551
1678021323.738,95.703,-73.730,-95.703,110.840,-43.457
1678021323.742,99.609,-74.219,-94.727,113.281,-28.320
1678021323.746,99.121,-69.336,-102.051,102.051,-4.883
1678021323.749,101.562,-73.730,-103.027,103.027,56.152
1678021323.753,108.887,-80.078,-99.609,111.328,307.617
1678021323.757,102.539,-79.590,-98.633,111.816,98.633
1678021323.761,99.609,-79.102,-97.168,106.934,-129.883
1678021323.765,102.051,-83.008,-95.703,98.633,-42.969
1678021323.725,96.680,-79.590,-87.402,92.285,-98.145
1678021323.729,92.285,-75.684,-90.820,88.867,-172.852
1678021323.733,104.492,-78.613,-87.402,96.191,-163.086
1678021323.737,99.609,-72.266,-75.195,102.539,61.035
1678021323.741,76.172,-76.172,-79.590,80.566,-2.441
1678021323.745,73.242,-85.938,-82.031,72.754,-216.797
1678021323.749,80.078,-74.219,-80.566,82.031,-128.906
1678021323.752,77.637,-56.641,-82.520,83.984,156.250
1678021323.756,78.613,-56.152,-79.590,85.938,145.996
1678021323.760,67.383,-61.523,-75.684,76.172,-88.379
1678021323.764,63.965,-60.547,-78.613,64.453,-19.043
1678021323.768,68.848,-56.641,-79.590,69.824,5.859
1678021323.734,57.129,-60.547,-71.777,71.777,-115.723
1678021323.738,60.547,-63.477,-73.242,56.641,-121.582
1678021323.742,69.336,-61.523,-74.219,54.199,-46.875
1678021323.746,62.988,-77.148,-67.871,52.734,-76.172
1678021323.750,54.688,-63.965,-68.359,44.922,-101.074
1678021323.754,49.805,-42.480,-63.477,60.059,-6.348
1678021323.758,49.316,-51.758,-63.965,65.430,121.582
1678021323.761,56.641,-53.223,-66.895,55.664,241.211
1678021323.765,49.805,-45.410,-60.547,32.715,-50.293
1678021323.769,38.086,-41.992,-57.129,26.855,-181.641
1678021323.773,36.621,-37.109,-55.664,43.945,-65.918
1678021323.777,37.598,-33.691,-56.152,44.922,-40.527
1678021323.737,37.109,-43.457,-60.547,32.715,-20.996
1678021323.741,31.250,-40.527,-59.082,22.949,-73.242
1678021323.745,29.297,-35.645,-58.105,25.391,-3.418
1678021323.749,32.227,-41.992,-57.129,28.320,26.855
1678021323.753,24.902,-38.574,-48.340,26.855,-61.523
1678021323.757,17.578,-40.527,-48.828,20.508,-5.859
1678021323.761,27.832,-47.852,-49.316,22.949,288.574
1678021323.764,23.926,-47.852,-40.527,26.367,298.828
1678021323.768,13.184,-54.688,-49.316,22.461,-96.191
1678021323.772,7.812,-63.477,-53.711,16.113,-147.949
1678021323.776,-1.953,-43.945,-45.898,7.324,-100.098
1678021323.780,-3.418,-30.273,-41.016,0.488,-134.766
1678021323.742,-5.371,-32.227,-42.480,-7.324,-170.410
1678021323.746,-10.254,-44.922,-46.387,-16.602,-155.273
1678021323.750,-7.324,-53.223,-55.176,-16.602,-27.832
1678021323.754,-2.441,-55.176,-57.617,-17.578,-27.832
1678021323.758,-12.207,-47.852,-47.852,-23.438,-78.125
1678021323.762,-18.066,-40.527,-44.922,-15.137,55.664
1678021323.766,-5.859,-38.086,-43.945,6.836,275.879
1678021323.769,-4.395,-36.621,-41.016,8.789,29.785
1678021323.773,-7.324,-40.527,-36.621,-1.953,-146.973
1678021323.777,-5.859,-35.645,-37.109,-15.625,-42.480
1678021323.781,-13.184,-38.086,-41.504,-19.531,-155.273
1678021323.785,-24.902,-47.363,-41.016,-18.555,-268.555
1678021323.745,-25.391,-41.992,-43.945,-13.184,-130.371
1678021323.749,-20.020,-36.133,-47.852,-12.207,-58.594
1678021323.753,-8.301,-41.016,-39.551,-18.555,-55.176
1678021323.757,5.859,-39.062,-34.180,-17.578,-65.430
1678021323.761,-11.719,-33.691,-37.598,-14.160,-66.406
1678021323.765,-21.484,-34.668,-39.062,0.000,300.293
1678021323.769,-15.137,-26.855,-38.574,6.348,422.852
1678021323.772,-16.113,-22.949,-34.180,-14.648,12.207
1678021323.776,-5.371,-23.926,-32.227,-21.973,-174.316
1678021323.780,2.930,-24.414,-33.203,-7.812,-2.441
1678021323.784,-5.859,-29.297,-40.039,-5.859,-80.078
1678021323.788,-11.230,-36.621,-41.504,-9.766,-187.500
1678021323.762,-12.695,-47.852,-35.645,-9.277,-135.742
1678021323.766,-19.043,-34.668,-38.086,-22.949,-135.742
1678021323.770,-20.508,-22.949,-42.969,-23.438,-161.621
1678021323.774,-9.766,-27.832,-39.551,-3.906,-120.605
1678021323.778,0.000,-18.066,-34.668,2.441,-38.086
1678021323.782,-8.789,-15.625,-37.109,-8.789,-14.648
1678021323.786,-14.160,-24.902,-35.645,-21.484,-73.730
1678021323.789,-9.277,-36.621,-37.109,-35.645,-127.441
1678021323.793,-21.973,-40.527,-41.504,-26.855,-12.695
1678021323.797,-38.574,-42.480,-43.457,-17.578,226.074
1678021323.801,-36.621,-44.922,-41.016,-21.973,19.043
1678021323.805,-31.738,-44.922,-43.945,-31.738,-184.082
1678021323.796,-34.180,-36.621,-46.387,-35.156,-135.742
1678021323.800,-35.645,-31.250,-40.039,-32.715,-211.914
1678021323.804,-32.715,-37.598,-39.062,-36.133,-245.117
1678021323.808,-32.227,-38.086,-45.410,-29.297,-64.941
1678021323.812,-31.738,-31.738,-45.410,-30.762,124.512
1678021323.816,-20.996,-21.484,-43.457,-39.551,47.363
1678021323.820,-26.367,-35.156,-41.992,-38.574,-74.219
1678021323.823,-34.180,-51.270,-47.363,-36.133,-62.500
1678021323.827,-37.598,-39.062,-42.969,-29.297,148.926
1678021323.831,-36.621,-41.504,-33.203,-35.645,110.352
1678021323.835,-35.156,-27.344,-40.527,-52.734,-158.203
1678021323.839,-27.344,-20.020,-41.992,-42.969,-130.859
1678021323.840,-27.832,-23.926,-36.621,-26.367,-56.152
1678021323.844,-45.898,-26.855,-36.133,-32.715,-140.137
1678021323.848,-53.223,-39.062,-36.621,-49.316,-141.113
1678021323.852,-51.758,-46.875,-39.062,-55.176,-134.277
1678021323.856,-40.527,-43.457,-43.945,-43.945,-50.293
1678021323.860,-30.762,-37.598,-46.387,-30.762,6.348
1678021323.864,-38.574,-42.969,-40.527,-32.227,-29.785
1678021323.867,-39.062,-38.574,-35.156,-38.086,35.156
1678021323.871,-49.805,-41.504,-38.086,-38.574,123.535
1678021323.875,-59.570,-37.598,-38.574,-37.598,-55.176
1678021323.879,-57.617,-26.367,-43.457,-31.250,-149.902
1678021323.883,-47.363,-31.250,-45.410,-37.109,-30.273
1678021323.885,-49.316,-28.809,-40.527,-54.199,25.879
1678021323.889,-54.199,-28.320,-38.574,-60.547,-145.020
1678021323.893,-44.922,-31.738,-38.574,-44.922,-186.035
1678021323.897,-42.480,-38.086,-39.551,-33.691,170.898
1678021323.901,-32.715,-38.086,-37.598,-32.715,116.699
1678021323.905,-22.949,-31.738,-37.598,-42.969,-73.242
1678021323.909,-38.086,-38.086,-38.574,-43.457,-53.711
1678021323.912,-43.457,-41.992,-34.180,-29.785,100.098
1678021323.916,-32.715,-35.156,-31.738,-29.297,44.922
1678021323.920,-23.926,-30.273,-28.809,-36.133,-169.922
1678021323.924,-23.438,-28.809,-27.832,-25.879,-127.930
1678021323.928,-22.949,-26.367,-26.367,-18.066,-198.730
1678021323.934,-21.484,-20.020,-22.461,-20.508,-227.051
1678021323.938,-20.020,-36.621,-25.391,-16.602,-108.887
1678021323.942,-20.508,-58.105,-36.621,-13.672,-32.715
1678021323.946,-21.973,-32.227,-41.992,-21.973,-10.742
1678021323.950,-19.043,-6.348,-35.645,-32.227,-64.941
1678021323.954,-13.184,-9.766,-35.645,-30.273,-112.793
1678021323.958,-12.207,-19.043,-34.180,-18.066,43.457
1678021323.961,-17.578,-28.809,-26.367,-6.836,232.422
1678021323.965,-27.344,-20.508,-27.344,-13.184,-25.391
1678021323.969,-31.250,-18.555,-33.203,-26.367,-173.340
1678021323.973,-31.738,-27.832,-35.156,-27.344,-74.707
1678021323.977,-27.344,-36.621,-33.691,-20.508,-49.316
1678021323.975,-27.344,-32.227,-33.691,-10.742,-64.453
1678021323.979,-40.039,-29.785,-38.574,-17.090,-34.668
1678021323.983,-39.551,-35.645,-38.574,-36.621,-7.812
1678021323.987,-31.250,-36.133,-34.180,-40.039,-75.684
1678021323.991,-30.762,-35.645,-37.109,-36.133,-103.516
1678021323.995,-35.156,-41.504,-41.504,-38.574,-33.203
1678021323.999,-40.039,-38.086,-36.621,-35.156,291.016
1678021324.002,-40.527,-29.297,-33.203,-25.879,383.301
1678021324.006,-31.738,-27.832,-43.457,-35.645,-26.855
1678021324.010,-38.086,-39.551,-42.969,-47.852,-190.430
1678021324.014,-47.852,-36.133,-36.621,-46.875,-100.098
1678021324.018,-46.387,-21.484,-29.297,-42.480,-161.621
1678021324.022,-49.316,-20.508,-21.973,-43.457,-217.773
1678021324.026,-60.547,-20.020,-19.531,-54.199,-194.824
1678021324.030,-65.430,-11.230,-17.578,-62.988,-154.785
1678021324.034,-84.961,5.371,-19.043,-79.590,-133.301
1678021324.038,-109.863,11.230,-14.648,-115.723,-104.004
1678021324.042,-138.184,7.324,0.977,-145.508,48.340
1678021324.046,-176.270,6.348,16.113,-184.082,136.230
1678021324.049,-201.660,24.414,35.645,-211.914,17.578
1678021324.053,-239.746,28.320,60.059,-241.699,-68.359
1678021324.057,-275.879,20.508,82.520,-273.438,84.473
1678021324.061,-295.410,34.668,101.074,-282.715,196.777
1678021324.065,-311.523,47.852,99.121,-303.223,-66.895
1678021324.081,-306.152,52.246,93.262,-308.594,-142.578
1678021324.085,-299.805,55.176,96.680,-311.523,2.930
1678021324.089,-315.918,52.734,90.820,-319.336,-14.160
1678021324.093,-306.641,49.805,90.820,-319.824,-85.938
1678021324.097,-286.621,49.316,81.543,-315.430,-127.441
1678021324.101,-291.504,55.664,75.684,-279.785,167.480
1678021324.105,-307.129,47.363,75.195,-271.484,254.395
1678021324.108,-289.551,45.898,60.059,-272.949,-67.871
1678021324.112,-237.793,49.805,51.270,-246.094,-89.844
1678021324.116,-212.891,39.062,44.922,-223.633,121.582
1678021324.120,-204.102,36.133,42.480,-205.078,-88.867
1678021324.124,-196.289,30.762,28.809,-202.637,-182.617
1678021324.125,-185.547,34.180,15.137,-203.125,-44.922
1678021324.129,-172.363,27.344,9.766,-183.594,-50.293
1678021324.133,-155.762,30.273,3.418,-167.480,-143.066
1678021324.137,-143.066,26.367,-0.977,-150.879,-233.398
1678021324.141,-130.371,11.719,-7.812,-123.047,-115.723
1678021324.145,-108.887,5.371,-20.508,-93.262,125.488
1678021324.149,-74.707,-10.742,-29.785,-75.684,66.406
1678021324.152,-60.059,-26.855,-32.715,-76.660,-86.426
1678021324.156,-57.617,-45.898,-40.039,-54.199,11.230
1678021324.160,-37.109,-63.477,-53.223,-11.230,243.652
1678021324.164,-11.230,-40.039,-59.570,-2.441,11.719
1678021324.168,0.977,-31.738,-64.941,6.836,-23.926
1678021324.170,7.812,-50.293,-73.730,23.438,124.512
1678021324.174,23.438,-81.055,-78.613,27.832,-68.359
1678021324.178,30.762,-72.266,-77.148,42.480,-184.570
1678021324.182,43.457,-42.969,-72.266,55.664,-43.945
1678021324.186,58.105,-43.457,-79.102,63.965,100.098
1678021324.190,51.758,-55.176,-93.750,57.617,52.246
1678021324.194,59.570,-63.477,-104.492,62.988,-83.008
1678021324.197,78.125,-64.941,-104.004,83.008,-54.199
1678021324.201,90.332,-67.871,-101.074,98.633,164.551
1678021324.205,95.703,-79.102,-100.586,105.957,126.953
1678021324.209,91.309,-85.938,-99.609,95.703,-128.418
1678021324.213,83.008,-81.543,-101.074,93.750,-154.785
1678021324.217,83.984,-84.473,-106.445,101.562,-120.117
1678021324.221,93.262,-97.656,-107.422,104.980,-29.297
1678021324.225,98.145,-92.285,-104.492,102.051,5.859
1678021324.229,100.098,-88.867,-100.586,95.215,-86.426
1678021324.233,93.262,-85.449,-94.727,90.820,-84.961
1678021324.237,86.914,-79.102,-86.426,88.867,-16.113
1678021324.241,83.496,-80.566,-87.402,85.449,-26.855
1678021324.244,69.824,-84.473,-91.797,92.285,66.406
1678021324.248,62.988,-86.914,-85.449,90.332,195.312
1678021324.252,77.637,-75.684,-86.914,72.754,-118.164
1678021324.256,82.520,-73.242,-93.262,70.801,-234.863
1678021324.260,78.613,-70.312,-92.773,79.102,-136.719
1678021324.260,77.148,-72.754,-83.008,73.730,-116.211
1678021324.264,73.730,-74.707,-80.078,51.270,-75.195
1678021324.268,61.523,-64.453,-80.078,50.293,-94.238
1678021324.272,49.316,-62.012,-77.637,53.223,36.621
1678021324.276,50.781,-64.941,-75.195,53.711,51.270
1678021324.280,45.410,-66.406,-69.824,50.781,-27.344
1678021324.284,47.363,-69.824,-66.895,47.363,-42.480
1678021324.287,56.641,-69.824,-65.430,47.852,123.535
1678021324.291,45.410,-67.871,-65.430,48.340,231.445
1678021324.295,30.273,-71.289,-63.477,42.480,-75.684
1678021324.299,28.320,-65.430,-59.082,47.852,-155.273
1678021324.303,33.203,-60.547,-57.129,39.551,-85.449
1678021324.307,37.109,-71.289,-63.477,15.625,-181.641
1678021324.311,37.598,-53.223,-62.988,19.043,-208.496
1678021324.315,46.387,-33.691,-54.688,25.391,-131.348
1678021324.319,29.297,-46.387,-58.594,17.090,-124.512
1678021324.323,7.324,-58.105,-62.500,12.695,-103.027
1678021324.327,5.371,-52.246,-62.012,15.625,-83.008
1678021324.331,1.465,-46.875,-58.105,19.531,-10.742
1678021324.334,-1.953,-48.828,-54.199,30.762,301.758
1678021324.338,-5.859,-61.035,-47.363,26.855,63.477
1678021324.342,1.465,-48.340,-49.316,15.137,-195.801
1678021324.346,6.836,-29.785,-47.852,10.742,-79.102
1678021324.350,-1.953,-39.551,-43.945,6.836,-107.910
1678021324.350,-0.488,-53.223,-47.852,9.277,-126.953
1678021324.354,6.836,-55.664,-43.457,20.996,-128.906
1678021324.358,1.953,-47.852,-40.527,16.113,-32.227
1678021324.362,-7.812,-40.039,-45.898,-1.953,21.973
1678021324.366,1.465,-47.363,-43.945,-1.953,-111.328
1678021324.370,6.836,-52.246,-40.039,6.836,-79.590
1678021324.374,12.207,-41.992,-40.039,14.160,269.531
1678021324.377,1.465,-41.016,-43.945,7.812,351.562
1678021324.381,-11.230,-42.480,-45.410,-8.789,11.230
1678021324.385,-8.301,-33.691,-39.062,-7.324,-108.887
1678021324.389,-10.742,-41.016,-37.109,0.977,-54.199
1678021324.393,-6.348,-51.758,-38.574,-0.488,-125.000
1678021324.397,-14.160,-33.691,-38.574,-9.277,-122.070
1678021324.401,-19.531,-30.762,-35.156,-3.418,-94.727
1678021324.405,-7.324,-35.156,-36.621,-4.395,-125.488
1678021324.409,-4.883,-26.855,-40.039,0.000,-166.992
1678021324.413,-7.324,-27.832,-41.016,-5.371,-163.086
1678021324.417,-17.578,-33.691,-41.016,-11.230,17.090
1678021324.421,-29.297,-40.039,-40.527,-9.766,93.262
1678021324.424,-29.297,-50.781,-45.898,-20.996,-141.113
1678021324.428,-27.344,-40.039,-37.109,-27.344,-212.402
1678021324.432,-30.273,-31.738,-32.715,-10.742,-46.875
1678021324.436,-32.715,-47.363,-35.156,-7.324,59.082
1678021324.440,-31.738,-44.922,-39.551,-36.133,14.648
1678021324.455,-30.273,-37.598,-41.504,-46.875,-91.309
1678021324.459,-28.809,-42.969,-36.621,-26.367,-42.480
1678021324.463,-28.320,-36.621,-35.156,-21.484,22.461
1678021324.467,-23.438,-30.762,-33.691,-30.762,-100.586
1678021324.471,-22.461,-35.645,-32.715,-30.762,-162.109
1678021324.475,-25.391,-40.039,-31.738,-24.902,241.699
1678021324.479,-25.879,-40.039,-36.133,-23.438,288.574
1678021324.482,-41.504,-43.945,-43.945,-29.297,-128.906
1678021324.486,-35.645,-38.574,-43.457,-24.902,-122.070
1678021324.490,-20.020,-42.969,-38.574,-19.531,26.367
1678021324.494,-18.555,-41.504,-41.504,-26.367,-125.000
1678021324.498,-34.668,-48.828,-39.551,-35.156,-166.504
1678021324.501,-41.992,-37.109,-36.133,-24.414,-80.566
1678021324.505,-34.180,-20.996,-35.645,-21.973,-26.367
1678021324.509,-25.391,-30.762,-34.668,-32.227,-95.215
1678021324.513,-19.531,-38.574,-35.645,-28.809,-181.152
1678021324.517,-27.344,-44.434,-31.250,-26.367,-96.680
1678021324.521,-32.715,-34.180,-25.879,-22.461,60.059
1678021324.525,-32.715,-29.297,-35.156,-22.461,89.355
1678021324.528,-32.715,-35.156,-38.574,-30.273,-69.336
1678021324.532,-34.668,-32.227,-34.668,-33.203,-13.672
1678021324.536,-31.250,-20.996,-36.621,-33.691,119.141
1678021324.540,-25.391,-30.762,-37.109,-35.156,-123.535
1678021324.544,-29.785,-39.062,-33.203,-32.227,-160.156
1678021324.545,-31.250,-16.602,-30.273,-33.203,-34.180
1678021324.549,-37.598,-25.879,-28.320,-41.504,-67.871
1678021324.553,-45.898,-39.551,-34.668,-39.062,-138.184
1678021324.557,-40.039,-26.855,-35.156,-38.086,-37.598
1678021324.561,-27.344,-23.926,-36.621,-34.180,251.465
1678021324.565,-28.320,-32.715,-43.457,-35.156,208.496
1678021324.569,-38.086,-41.504,-45.898,-50.781,-70.801
1678021324.572,-40.527,-41.016,-45.898,-61.035,-100.098
1678021324.576,-43.945,-38.086,-41.992,-41.016,189.941
1678021324.580,-42.969,-34.180,-42.480,-28.809,133.301
1678021324.584,-25.879,-29.297,-39.551,-34.668,-127.441
1678021324.588,-28.320,-38.086,-36.621,-39.062,-116.211
1678021324.591,-43.457,-41.504,-39.062,-43.945,-108.398
1678021324.595,-36.621,-35.156,-35.156,-32.227,-156.738
1678021324.599,-31.250,-33.691,-34.180,-30.762,-143.555
1678021324.603,-38.574,-40.527,-39.551,-45.410,-69.336
1678021324.607,-41.504,-38.086,-36.621,-41.992,-67.871
1678021324.611,-38.574,-39.551,-31.250,-44.434,-23.438
1678021324.615,-37.109,-51.270,-30.762,-48.828,-17.090
1678021324.618,-48.340,-49.316,-33.203,-31.738,156.738
1678021324.622,-54.199,-38.574,-27.832,-20.996,398.438
1678021324.626,-56.152,-46.875,-26.367,-41.016,14.648
1678021324.630,-51.758,-54.199,-27.344,-58.594,-189.941
1678021324.634,-47.852,-34.180,-26.855,-46.875,-79.590
1678021324.635,-41.016,-25.391,-25.879,-37.598,-102.539
1678021324.639,-43.457,-28.320,-25.879,-44.922,-108.887
1678021324.643,-60.547,-23.926,-25.879,-57.129,-52.246
1678021324.647,-63.965,-17.090,-19.531,-66.406,53.711
1678021324.651,-71.777,-10.742,-17.090,-76.660,-69.824
1678021324.655,-89.844,-8.301,-9.277,-88.867,-89.355
1678021324.659,-89.844,2.930,-2.930,-94.727,2.441
1678021324.662,-91.309,12.695,16.602,-95.703,229.004
1678021324.666,-139.160,1.953,26.367,-125.977,348.145
1678021324.670,-166.016,-6.348,24.902,-154.297,-43.945
1678021324.674,-169.922,-1.465,37.109,-165.039,-143.066
1678021324.678,-196.289,7.812,50.293,-188.965,-39.062
1678021324.682,-219.238,14.160,62.012,-232.910,-116.699
1678021324.686,-243.164,12.207,73.730,-273.438,-191.895
1678021324.690,-253.906,17.578,83.984,-270.996,-179.199
1678021324.694,-266.602,22.461,85.938,-262.695,-155.762
1678021324.698,-275.879,32.227,99.609,-267.090,-108.887
1678021324.702,-284.180,34.180,104.492,-290.039,-49.316
1678021324.706,-303.223,35.156,90.332,-311.523,-24.902
1678021324.709,-314.453,48.828,72.754,-312.500,123.047
1678021324.713,-302.734,54.199,69.824,-310.059,-29.297
1678021324.717,-285.156,56.641,69.336,-296.387,-78.125
1678021324.721,-284.668,55.664,64.453,-278.809,47.852
1678021324.725,-297.363,39.551,63.477,-274.902,-31.738
