timestamps,TP9,AF7,AF8,TP10,Right AUX
1678021333.350,-23.926,-29.785,-14.160,-36.621,-181.641
1678021333.354,-23.926,-47.852,-15.625,-32.715,-116.211
1678021333.358,-43.457,-34.668,-27.832,-37.109,9.766
1678021333.362,-49.316,-22.461,-19.043,-40.039,-31.738
1678021333.366,-40.527,-11.230,-28.320,-40.039,-136.719
1678021333.370,-52.246,-18.555,-45.898,-43.945,-78.125
1678021333.374,-59.082,-30.273,-40.039,-41.016,199.219
1678021333.377,-41.504,-31.250,-30.762,-29.297,368.652
1678021333.381,-36.133,-34.180,-29.785,-45.898,52.246
1678021333.385,-37.109,-38.086,-40.527,-60.059,-46.387
1678021333.389,-20.020,-39.551,-61.035,-36.133,12.695
1678021333.393,-16.602,-30.762,-52.734,-36.621,-112.793
1678021373.010,-19.531,-27.832,-39.551,-11.230,13.672
1678021373.014,-22.461,-28.320,-31.738,-22.461,-126.465
1678021373.018,-13.184,-43.457,-26.367,-36.621,-219.727
1678021373.022,-30.762,-22.461,-31.738,-26.367,-71.777
1678021373.026,-37.109,-17.578,-38.086,-5.859,191.895
1678021373.030,-18.066,-26.855,-40.039,-13.184,156.738
1678021373.034,-18.066,-27.344,-39.062,-30.762,-28.320
1678021373.037,-50.781,-28.320,-37.598,-36.133,-39.062
1678021373.041,-43.457,-20.508,-37.598,-31.738,114.746
1678021373.045,-18.555,-21.484,-37.598,-17.578,63.477
1678021373.049,-30.273,-27.344,-35.156,-24.414,-139.648
1678021373.053,-45.410,-19.531,-38.574,-30.273,-129.883
1678021423.081,-290.039,70.312,127.930,-273.438,-48.828
1678021423.085,-290.039,76.660,125.000,-282.715,-147.949
1678021423.089,-273.926,85.449,119.629,-291.504,-55.176
1678021423.093,-264.648,101.562,116.699,-283.691,33.203
1678021423.097,-265.625,89.355,121.094,-266.113,-76.660
1678021423.101,-265.137,60.547,116.699,-257.324,-79.590
1678021423.105,-228.516,67.871,106.934,-234.375,129.883
1678021423.108,-209.961,68.848,96.191,-230.957,207.520
1678021423.112,-226.074,51.758,76.660,-247.070,-154.785
1678021423.116,-223.633,53.223,57.617,-220.215,-282.715
1678021423.120,-198.242,60.547,38.086,-176.270,-66.406
1678021423.124,-174.805,25.391,23.438,-158.203,-48.828
1678021423.125,-113.770,-8.301,-50.781,-96.191,54.688
1678021423.129,-86.914,-23.926,-45.898,-71.289,-10.742
1678021423.133,-51.270,-34.180,-54.688,-51.758,-54.199
1678021423.137,-28.320,-48.828,-59.082,-48.340,-87.402
1678021423.140,-10.742,-67.871,-67.871,-20.020,-123.047
1678021423.144,12.207,-83.008,-80.078,6.836,-113.770
1678021423.148,19.043,-76.660,-78.125,20.508,-39.062
1678021423.152,25.879,-69.824,-86.914,23.926,158.691
1678021423.156,33.691,-83.984,-97.168,25.391,19.531
1678021423.156,46.875,-97.656,-96.680,55.664,-152.832
1678021423.160,56.641,-109.863,-96.680,79.102,-12.207
1678021423.164,63.477,-102.051,-103.027,86.426,110.352
1678021423.168,66.895,-57.129,-104.492,78.125,11.230
1678021423.172,73.242,-61.523,-103.027,64.941,-198.730
1678021423.176,89.844,-93.750,-102.539,83.984,-67.871
1678021423.180,99.121,-95.703,-100.586,110.840,326.172
1678021423.183,101.074,-89.844,-102.539,109.375,178.711
1678021423.187,102.539,-100.098,-104.004,104.980,-107.422
1678021423.191,110.840,-97.656,-98.633,97.656,-99.609
1678021423.195,101.562,-95.215,-99.121,97.168,-54.199
1678021423.199,79.102,-93.262,-103.027,99.609,-158.691
1678021423.235,76.172,-67.871,-97.168,104.004,-144.043
1678021423.239,85.449,-63.965,-90.332,93.750,-41.504
1678021423.243,87.402,-64.941,-86.914,73.730,-190.430
1678021423.247,87.402,-67.871,-85.938,76.172,-283.203
1678021423.251,87.891,-73.730,-84.961,98.145,-103.027
1678021423.255,79.590,-61.523,-88.379,99.121,114.258
1678021423.259,72.754,-76.172,-97.168,78.613,110.352
1678021423.262,69.336,-72.754,-87.402,60.547,-75.684
1678021423.266,60.059,-56.152,-70.312,57.129,-166.992
1678021423.270,57.617,-61.035,-66.895,75.195,126.953
1678021423.274,60.547,-68.359,-69.336,72.754,164.062
1678021423.278,59.082,-79.102,-72.754,54.688,-111.328
1678021423.264,50.293,-80.078,-77.637,33.203,-179.688
1678021423.268,48.828,-76.172,-77.637,27.832,-231.934
1678021423.272,53.711,-72.266,-75.684,48.340,-168.457
1678021423.276,57.129,-69.824,-68.848,43.945,-172.363
1678021423.280,40.527,-67.383,-65.918,28.809,-41.992
1678021423.284,27.832,-55.176,-63.477,23.926,210.938
1678021423.288,34.180,-58.105,-59.082,23.438,-31.738
1678021423.291,33.203,-50.781,-58.594,31.738,-121.094
1678021423.295,27.344,-44.434,-56.641,41.992,135.254
1678021423.299,20.508,-43.457,-59.082,51.270,315.918
1678021423.303,20.996,-49.316,-59.570,17.090,-16.113
1678021423.307,18.555,-54.199,-57.617,8.789,-299.805
1678021423.306,17.090,-48.828,-60.547,41.016,-125.977
1678021423.310,13.184,-49.805,-60.059,29.785,-21.973
1678021423.314,10.254,-54.199,-59.082,15.625,-69.824
1678021423.318,6.836,-60.547,-53.711,5.859,-100.098
1678021423.322,-5.859,-59.570,-52.734,-7.812,-80.566
1678021423.326,3.906,-53.711,-53.711,8.301,-53.711
1678021423.330,13.672,-64.941,-55.664,23.438,15.625
1678021423.333,0.000,-73.730,-64.941,17.090,42.480
1678021423.337,-5.371,-50.293,-65.918,8.789,106.934
1678021423.341,-12.207,-41.504,-59.082,-4.395,-27.344
1678021423.345,-16.602,-45.410,-54.199,-1.953,-174.316
1678021423.349,-7.324,-42.969,-47.852,7.324,-66.406
1678021423.351,-4.395,-40.527,-48.340,4.883,74.219
1678021423.355,-6.836,-46.387,-48.828,-0.977,-43.945
1678021423.359,-10.742,-48.828,-42.969,-19.531,-125.977
1678021423.363,-8.789,-48.340,-48.340,-20.020,-49.805
1678021423.367,-7.324,-54.688,-49.805,-4.395,64.453
1678021423.371,-7.324,-64.941,-45.898,-5.371,46.875
1678021423.375,-2.441,-59.082,-42.480,-9.766,-43.945
1678021423.378,-8.301,-51.270,-44.434,-27.344,-79.102
1678021423.382,-9.277,-33.203,-56.152,-22.461,158.691
1678021423.386,23.438,-26.855,-61.035,24.414,56.641
1678021423.390,27.832,-44.434,-40.527,40.527,-62.012
1678021423.394,-14.160,-51.270,-22.461,-6.348,-16.602
1678021423.412,-28.320,-53.223,-27.832,-32.227,-114.258
1678021423.416,-17.090,-50.293,-28.809,-16.602,-141.602
1678021423.420,-12.207,-55.664,-29.785,12.695,-75.684
1678021423.424,-16.602,-62.988,-25.879,17.578,83.008
1678021423.428,-19.531,-59.570,-20.508,7.324,67.871
1678021423.432,-15.137,-62.012,-23.438,1.465,-83.984
1678021423.436,-15.625,-65.918,-23.926,2.930,-99.609
1678021423.439,-19.043,-67.383,-20.996,24.902,147.949
1678021423.443,-26.367,-71.289,-20.020,32.227,135.254
1678021423.447,-23.926,-75.684,-17.578,19.531,-78.613
1678021423.451,-16.113,-74.219,-13.184,7.324,-129.395
1678021423.455,-26.855,-78.125,-12.207,15.137,-177.246
1678021423.442,-29.297,-83.496,-9.766,36.133,-151.855
1678021423.446,-21.973,-84.473,-9.277,45.898,-95.215
1678021423.450,-24.902,-82.520,-8.789,33.691,62.012
1678021423.454,-23.438,-79.102,-12.695,13.672,271.484
1678021423.458,-7.812,-72.266,-17.090,11.230,-25.391
1678021423.462,-0.977,-74.219,-16.113,33.203,-66.406
1678021423.466,2.441,-71.289,-14.648,45.898,128.418
1678021423.469,4.395,-62.500,-14.160,38.574,-11.230
1678021423.473,-20.996,-78.613,-20.508,12.207,-186.035
1678021423.477,-33.203,-76.660,-19.531,0.977,-246.094
1678021423.481,-14.160,-51.270,-9.766,28.320,-4.883
1678021423.485,-11.719,-56.641,-13.672,47.363,314.453
1678021423.487,-24.414,-65.430,-19.531,21.973,56.641
1678021423.491,-29.297,-61.035,-15.625,-4.395,-149.414
1678021423.495,-24.414,-55.664,-7.324,-13.184,-139.648
1678021423.499,-34.668,-42.480,-6.836,-10.254,-144.043
1678021423.503,-29.785,-43.945,2.930,3.906,-41.504
1678021423.507,-28.320,-28.809,12.207,5.371,75.684
1678021423.511,-50.781,-19.531,9.277,-15.137,273.438
1678021423.514,-66.406,-21.484,17.090,-52.246,187.988
1678021423.518,-87.891,-25.391,34.668,-71.777,-77.148
1678021423.522,-109.863,-0.977,51.270,-80.566,-45.898
1678021423.526,-146.973,33.691,46.875,-121.582,-12.695
1678021423.530,-171.875,19.531,77.637,-168.945,-113.281
1678021423.549,-215.332,4.395,106.445,-221.191,-273.926
1678021423.553,-254.395,15.137,125.488,-235.840,-186.035
1678021423.557,-270.020,2.441,144.043,-226.074,-9.277
1678021423.561,-260.254,15.137,116.699,-233.398,-95.703
1678021423.565,-241.699,53.711,97.656,-252.930,-116.211
1678021423.569,-278.809,54.688,112.305,-302.246,-67.383
1678021423.573,-296.875,60.547,121.582,-294.434,161.133
1678021423.576,-286.621,82.520,118.164,-275.391,163.086
1678021423.580,-291.992,83.984,113.281,-289.062,-11.719
1678021423.584,-283.203,83.496,107.910,-302.246,-51.758
1678021423.588,-279.785,95.215,96.191,-308.594,-82.520
1678021423.592,-292.480,99.121,99.121,-304.199,-184.082
1678021423.578,-293.457,88.379,98.633,-287.598,-176.758
1678021423.582,-280.762,83.984,93.750,-260.742,21.973
1678021423.586,-265.625,84.473,78.613,-251.953,46.875
1678021423.590,-259.766,97.656,57.617,-280.273,-224.609
1678021423.594,-251.465,92.285,53.711,-269.043,-291.992
1678021423.598,-250.000,75.195,61.035,-246.582,62.500
1678021423.602,-260.254,61.035,54.688,-254.395,169.434
1678021423.605,-251.465,38.574,47.363,-253.906,-41.504
1678021423.609,-222.656,40.527,41.504,-248.535,-147.949
1678021423.613,-212.402,36.133,37.109,-210.449,109.375
1678021423.617,-213.379,50.781,36.133,-179.199,145.020
1678021423.621,-194.336,60.059,20.508,-170.898,-50.293
1678021423.636,-168.945,42.969,7.812,-161.133,-14.160
1678021423.640,-151.367,34.180,-0.488,-162.598,-51.758
1678021423.644,-134.277,28.809,-7.324,-152.832,-100.098
1678021423.648,-124.512,1.953,-13.184,-121.094,-114.746
1678021423.652,-103.516,-29.785,-24.414,-79.590,-19.531
1678021423.656,-83.008,-21.973,-38.086,-49.805,248.047
1678021423.660,-84.961,-22.461,-41.992,-63.965,63.477
1678021423.663,-65.918,-59.570,-40.527,-65.918,-286.621
1678021423.667,-41.016,-86.426,-55.176,-18.066,-155.273
1678021423.671,-20.996,-77.148,-78.125,13.184,128.906
1678021423.675,-7.812,-81.055,-71.777,7.324,-45.898
1678021423.679,5.371,-91.309,-62.500,1.465,-122.559
1678021423.681,24.902,-97.168,-63.965,22.461,18.066
1678021423.685,26.367,-118.164,-71.777,58.594,36.621
1678021423.689,44.434,-117.676,-80.566,81.055,-9.766
1678021423.693,64.453,-115.234,-79.102,88.379,-30.762
1678021423.697,73.242,-131.348,-82.520,92.773,-5.371
1678021423.701,91.309,-127.441,-88.379,98.145,-66.406
1678021423.705,89.355,-120.605,-91.309,104.492,-125.977
1678021423.708,98.145,-129.883,-93.262,119.141,-28.809
1678021423.712,112.793,-128.906,-96.680,145.508,210.449
1678021423.716,112.793,-130.371,-104.004,139.648,70.801
1678021423.720,119.629,-126.953,-104.492,120.117,-245.117
1678021423.724,126.465,-120.605,-99.121,129.395,-209.473
1678021423.727,107.422,-126.465,-102.539,134.277,-79.102
1678021423.731,104.492,-119.141,-108.887,129.883,-76.660
1678021423.735,106.445,-104.004,-105.469,131.348,-35.645
1678021423.739,114.746,-94.238,-106.445,129.883,-1.465
1678021423.743,124.512,-104.492,-112.793,136.719,101.074
1678021423.747,118.164,-110.840,-109.375,150.391,105.469
1678021423.751,110.840,-90.332,-103.516,145.508,-2.441
1678021423.754,112.305,-80.078,-96.191,126.953,69.336
1678021423.758,107.910,-84.961,-94.238,119.629,125.488
1678021423.762,106.934,-91.797,-93.750,117.676,-107.910
1678021423.766,100.098,-100.586,-90.820,121.094,-150.879
1678021423.770,85.449,-80.566,-93.750,110.840,0.488
1678021423.772,83.008,-63.965,-89.355,96.191,-26.855
1678021423.776,77.637,-73.730,-90.332,76.172,-157.715
1678021423.780,74.707,-70.312,-89.355,74.219,-165.039
1678021423.784,83.496,-59.082,-79.590,97.656,-18.066
1678021423.788,80.566,-62.012,-76.660,97.168,124.512
1678021423.792,75.684,-61.523,-77.637,77.637,100.098
1678021423.796,70.312,-61.035,-82.520,55.664,41.016
1678021423.799,60.059,-70.312,-79.590,61.035,143.555
1678021423.803,60.059,-71.777,-86.914,83.496,105.469
1678021423.807,50.293,-65.430,-82.031,64.941,-95.215
1678021423.811,33.203,-57.617,-64.453,45.898,-78.613
1678021423.815,37.109,-56.152,-65.430,40.527,78.125
1678021423.815,42.480,-53.223,-66.406,33.203,-124.023
1678021423.819,44.434,-56.152,-67.871,44.922,-216.797
1678021423.823,47.852,-56.152,-67.871,50.781,16.113
1678021423.827,45.898,-45.898,-61.035,45.898,4.395
1678021423.831,32.227,-44.434,-54.199,34.180,-149.902
1678021423.835,26.855,-56.152,-57.617,18.066,-214.844
1678021423.839,33.691,-56.152,-61.035,24.902,-108.887
1678021423.842,31.250,-52.246,-57.617,43.457,410.156
1678021423.846,24.414,-50.293,-57.129,43.945,380.371
1678021423.850,25.391,-49.316,-50.781,21.973,-118.652
1678021423.854,23.438,-48.340,-48.340,2.441,-243.164
1678021423.858,20.508,-36.133,-45.898,17.090,-185.547
1678021423.861,16.113,-33.691,-44.922,39.062,-149.902
1678021423.865,7.324,-46.875,-53.223,27.832,-126.953
1678021423.869,8.789,-39.062,-50.293,5.371,-88.867
1678021423.873,2.930,-37.109,-43.457,-9.277,-165.527
1678021423.877,1.465,-41.504,-37.598,2.930,-177.734
1678021423.881,-2.930,-45.410,-39.062,17.090,-15.137
1678021423.885,-5.859,-38.086,-45.898,19.531,202.637
1678021423.888,13.184,-43.945,-51.270,19.531,86.426
1678021423.892,1.953,-49.805,-46.387,-11.230,-197.266
1678021423.896,-20.996,-37.109,-37.598,-25.391,-135.742
1678021423.900,-9.766,-39.551,-41.016,2.930,1.465
1678021423.904,2.930,-37.598,-43.945,31.250,-26.367
1678021423.906,-1.465,-35.645,-38.574,16.113,-162.109
1678021423.910,-11.230,-48.340,-38.574,-16.113,-142.578
1678021423.914,-13.184,-51.758,-34.180,2.441,102.051
1678021423.918,-18.066,-46.387,-28.809,16.602,-21.484
1678021423.922,-14.648,-42.969,-29.297,7.324,-167.480
1678021423.926,-11.719,-48.828,-23.438,7.812,5.371
1678021423.930,-5.371,-48.340,-20.508,4.395,165.527
1678021423.933,4.395,-41.504,-24.414,4.395,-78.613
1678021423.937,0.977,-41.504,-26.855,14.648,-120.605
1678021423.941,-1.953,-44.434,-28.809,17.090,46.387
1678021423.945,-5.371,-46.387,-26.855,11.719,-6.836
1678021423.949,-22.461,-46.387,-26.855,-9.277,-153.809
1678021423.971,-31.250,-49.316,-24.902,-16.113,-192.383
1678021423.975,-18.066,-56.152,-20.020,11.230,20.020
1678021423.979,-9.766,-60.547,-21.484,16.602,68.359
1678021423.983,-11.230,-60.547,-25.879,5.371,-113.281
1678021423.987,-14.160,-47.852,-24.414,-10.254,-148.926
1678021423.991,-15.137,-47.363,-25.391,-22.461,9.766
1678021423.995,-9.766,-52.246,-29.297,0.977,76.172
1678021423.998,-20.020,-45.898,-28.320,20.996,-12.207
1678021424.002,-41.016,-47.852,-31.250,3.418,3.906
1678021424.006,-45.898,-43.945,-31.250,-20.508,150.879
1678021424.010,-38.086,-37.598,-26.855,-26.855,-46.875
1678021424.014,-27.344,-39.551,-25.391,-9.277,-171.387
1678021424.011,-21.484,-41.992,-30.762,-5.371,-123.047
1678021424.015,-23.926,-41.504,-34.668,-8.789,-132.324
1678021424.019,-32.715,-50.781,-28.320,-13.184,-105.469
1678021424.023,-28.320,-47.363,-26.367,-25.879,-112.793
1678021424.027,-33.203,-45.410,-32.715,-14.160,-95.215
1678021424.031,-35.645,-49.805,-37.109,-3.906,57.617
1678021424.035,-17.090,-36.621,-39.062,-9.277,106.445
1678021424.038,-21.484,-37.109,-39.551,-27.344,-33.203
1678021424.042,-32.227,-42.480,-32.227,-37.109,-92.773
1678021424.046,-23.438,-41.016,-29.297,-2.441,245.117
1678021424.050,-21.973,-45.898,-34.668,8.789,280.762
1678021424.054,-23.438,-42.480,-31.250,-6.836,-32.227
1678021424.070,-24.414,-32.227,-31.738,-15.625,-41.016
1678021424.074,-33.203,-44.434,-32.715,-41.016,-97.168
1678021424.078,-38.574,-49.805,-27.832,-28.809,-229.004
1678021424.082,-32.715,-38.574,-28.809,-6.348,-95.215
1678021424.086,-26.855,-42.480,-28.320,-7.812,120.605
1678021424.090,-29.297,-47.363,-26.855,-20.996,-27.832
1678021424.094,-41.992,-44.434,-28.320,-44.434,-217.285
1678021424.097,-34.180,-38.574,-28.809,-37.109,-214.355
1678021424.101,-30.762,-37.598,-28.320,-9.277,118.652
1678021424.105,-41.504,-40.527,-31.250,-13.184,130.371
1678021424.109,-35.156,-39.062,-30.762,-32.715,-134.277
1678021424.113,-34.668,-36.621,-26.367,-44.922,-199.707
1678021424.101,-28.320,-33.691,-27.344,-38.574,-176.758
1678021424.105,-25.391,-41.504,-30.273,-20.020,-58.105
1678021424.109,-22.949,-55.664,-22.461,-11.230,85.938
1678021424.113,7.324,-45.410,-25.879,1.465,41.504
1678021424.117,17.090,-18.066,-44.434,10.254,-70.801
1678021424.121,3.906,-6.348,-56.641,-6.836,-163.574
1678021424.125,-9.766,-8.789,-55.664,-24.902,-50.293
1678021424.128,-29.297,-3.906,-55.664,-35.645,78.613
1678021424.132,-46.875,1.465,-54.199,-62.988,23.926
1678021424.136,-67.383,1.953,-50.293,-101.074,-152.832
1678021424.140,-77.637,4.883,-58.105,-118.164,-276.855
1678021424.144,-75.195,6.836,-63.965,-104.980,-9.277
1678021424.145,-84.473,6.836,-58.105,-84.473,380.859
1678021424.149,-89.355,7.324,-49.805,-102.051,59.082
1678021424.153,-87.402,3.418,-49.805,-129.883,-173.340
1678021424.157,-79.102,-8.301,-52.246,-119.629,-186.035
1678021424.161,-78.613,-5.371,-51.270,-101.562,-157.715
1678021424.165,-86.426,8.301,-53.223,-90.820,-29.785
1678021424.169,-81.543,-3.418,-51.758,-85.938,10.742
1678021424.172,-79.590,-12.695,-56.641,-96.680,111.816
1678021424.176,-75.684,5.371,-56.641,-100.586,51.758
1678021424.180,-60.059,11.230,-53.223,-90.332,-118.652
1678021424.184,-49.805,-1.953,-61.035,-71.289,-40.039
1678021424.188,-50.781,-11.230,-61.035,-63.477,77.637
1678021424.192,-55.664,-14.648,-55.176,-77.148,-86.914
1678021424.196,-58.594,-14.648,-54.199,-91.797,-250.000
1678021424.200,-50.293,-15.625,-52.246,-67.871,-82.031
1678021424.204,-37.109,-15.137,-46.387,-40.527,127.930
1678021424.208,-35.645,-19.043,-41.992,-55.176,-14.648
1678021424.212,-43.945,-20.508,-40.039,-67.871,-124.023
1678021424.216,-45.410,-14.160,-41.504,-71.289,-31.738
1678021424.219,-42.969,-20.508,-43.457,-53.711,196.289
1678021424.223,-46.875,-25.879,-46.387,-40.527,3.418
1678021424.227,-46.875,-19.043,-49.316,-37.598,-166.504
1678021424.231,-38.086,-17.578,-47.363,-49.805,-86.426
1678021424.235,-43.945,-17.578,-46.875,-61.523,-100.586
1678021424.237,-46.875,-21.484,-43.457,-47.363,-171.387
1678021424.241,-33.203,-20.508,-43.457,-32.227,-99.121
1678021424.245,-29.297,-13.672,-44.434,-29.785,77.148
1678021424.249,-36.133,-14.648,-44.434,-44.922,27.832
1678021424.253,-29.297,-23.926,-43.457,-50.293,-189.453
1678021424.257,-24.902,-30.273,-42.969,-30.762,-199.219
1678021424.261,-34.180,-24.902,-46.387,-9.277,169.434
1678021424.264,-39.062,-25.391,-50.781,-16.113,230.469
1678021424.268,-40.039,-36.133,-50.293,-43.945,-64.453
1678021424.272,-47.363,-34.668,-53.223,-55.176,-128.906
1678021424.276,-50.781,-27.832,-53.223,-45.898,-110.840
1678021424.280,-45.410,-35.645,-49.805,-33.691,-68.848
1678021424.921,-48.828,-41.016,-51.270,-31.738,-76.172
1678021424.925,-54.199,-34.668,-55.664,-40.039,70.312
1678021424.929,-51.270,-20.020,-48.340,-55.176,176.758
1678021424.933,-45.898,-9.277,-48.340,-56.152,-39.551
1678021424.937,-23.926,-7.812,-35.156,-27.344,-144.531
1678021424.941,-23.926,-18.066,-14.160,-25.879,92.773
1678021424.945,-53.223,-17.578,-13.672,-53.223,390.625
1678021424.948,-70.801,1.953,-6.348,-84.961,-0.977
1678021424.952,-107.910,0.488,-4.883,-124.512,-320.312
1678021424.956,-142.578,0.000,10.254,-130.859,-85.938
1678021424.960,-156.250,28.809,50.781,-141.602,-6.348
1678021424.964,-197.754,20.996,67.383,-198.730,-115.234
1678021424.924,-244.141,0.488,74.219,-261.719,-171.875
1678021424.928,-264.648,-7.324,113.770,-275.879,-171.387
1678021424.932,-270.996,-2.930,117.676,-260.742,-94.238
1678021424.936,-264.648,26.855,94.727,-261.230,-52.734
1678021424.940,-266.602,44.434,95.703,-281.250,-72.266
1678021424.944,-290.039,41.992,103.516,-313.477,57.129
1678021424.948,-303.711,45.410,104.004,-328.125,20.996
1678021424.951,-297.852,54.688,96.680,-306.641,-144.531
1678021424.955,-285.645,66.895,98.633,-278.809,-164.062
1678021424.959,-278.320,80.078,87.402,-277.832,214.844
1678021424.963,-287.598,102.051,72.266,-312.012,296.387
1678021424.967,-282.227,83.984,60.547,-328.613,-144.043
1678021424.933,-267.578,66.406,49.805,-289.551,-196.777
1678021424.937,-250.977,92.773,61.035,-253.418,-46.387
1678021424.941,-254.883,99.609,67.871,-270.996,-4.883
1678021424.945,-268.066,83.984,50.781,-297.852,-136.719
1678021424.949,-244.141,83.984,37.109,-283.203,-148.926
1678021424.953,-224.609,84.473,37.598,-245.117,125.488
1678021424.957,-232.422,73.730,35.156,-242.676,55.176
1678021424.960,-229.492,76.660,26.367,-251.953,-33.691
1678021424.964,-232.910,78.613,22.949,-259.766,38.574
1678021424.968,-227.051,77.637,27.832,-255.371,40.527
1678021424.972,-223.633,71.777,25.391,-250.977,-117.188
1678021424.976,-224.121,58.105,8.789,-245.117,-136.230
1678021424.938,-208.496,59.570,-0.977,-227.539,32.227
1678021424.942,-203.125,78.125,-15.137,-227.539,69.336
1678021424.946,-201.172,68.848,-17.578,-241.211,-204.590
1678021424.950,-206.543,55.176,-19.531,-244.629,-227.539
1678021424.954,-205.566,41.992,-14.648,-219.727,-31.250
1678021424.958,-189.453,45.898,-9.277,-194.824,41.016
1678021424.962,-193.848,54.199,-16.602,-212.891,66.895
1678021424.965,-188.477,51.270,-18.555,-224.609,-60.547
1678021424.969,-182.129,41.992,-27.832,-207.520,41.504
1678021424.973,-181.152,27.832,-32.227,-188.965,208.008
1678021424.977,-156.250,28.320,-34.180,-171.875,-22.461
1678021424.981,-139.160,33.691,-35.645,-161.133,-135.254
1678021424.940,-144.043,23.926,-34.180,-186.035,-218.750
1678021424.944,-148.438,14.648,-32.227,-187.012,-211.426
1678021424.948,-150.391,17.578,-40.527,-163.086,-35.156
1678021424.952,-137.207,14.648,-49.805,-145.020,62.012
1678021424.956,-124.512,13.672,-57.129,-127.930,119.629
1678021424.960,-136.230,12.207,-52.734,-156.250,11.719
1678021424.964,-135.742,8.789,-51.758,-169.922,-113.281
1678021424.967,-116.211,3.906,-58.105,-130.859,-22.461
1678021424.971,-108.398,2.441,-52.734,-111.328,231.934
1678021424.975,-107.422,7.324,-42.969,-117.188,2.930
1678021424.979,-103.516,1.465,-43.457,-119.629,-147.949
1678021424.983,-108.887,-7.812,-52.734,-117.188,-125.000
1678021424.947,-100.586,-0.977,-58.594,-82.031,-146.484
1678021424.951,-79.590,3.418,-60.547,-57.129,-119.141
1678021424.955,-68.848,-8.789,-61.523,-62.500,-109.863
1678021424.959,-50.293,0.488,-66.406,-71.777,-135.742
1678021424.963,-30.273,3.906,-69.824,-50.293,-223.633
1678021424.967,-11.230,-13.672,-74.707,-9.766,-119.629
1678021424.971,3.906,-20.508,-76.660,7.324,49.316
1678021424.974,7.812,-32.715,-85.938,20.020,172.363
1678021424.978,14.160,-45.410,-93.262,23.926,63.965
1678021424.982,24.414,-60.547,-86.426,17.090,-181.641
1678021424.986,28.809,-78.613,-88.867,46.875,-186.523
1678021424.990,41.504,-80.566,-91.309,75.684,-105.957
1678021424.951,60.547,-91.309,-92.285,72.754,-39.062
1678021424.955,53.711,-93.750,-99.609,64.941,-75.684
1678021424.959,59.082,-89.355,-102.539,66.895,-100.586
1678021424.963,75.195,-107.422,-104.492,96.680,142.090
1678021424.967,82.520,-122.559,-107.422,115.723,96.680
1678021424.971,97.168,-132.812,-106.445,124.023,-20.508
1678021424.975,110.840,-135.742,-103.027,134.277,150.391
1678021424.978,113.281,-139.648,-101.562,133.301,171.387
1678021424.982,122.070,-155.273,-104.980,151.367,-83.496
1678021424.986,127.930,-151.855,-102.539,166.504,-80.566
1678021424.990,130.371,-147.949,-97.656,166.992,91.309
1678021424.994,140.625,-150.391,-93.750,171.875,81.543
1678021424.957,147.949,-148.926,-96.191,152.344,-155.762
1678021424.961,151.855,-150.879,-97.168,160.645,-219.727
1678021424.965,154.785,-154.297,-91.309,190.430,-39.551
1678021424.969,151.855,-153.809,-87.402,188.477,45.898
1678021424.973,152.344,-159.668,-88.379,180.664,-33.203
1678021424.977,145.996,-175.781,-93.750,166.016,-123.047
1678021424.981,142.090,-156.250,-91.309,175.781,178.711
1678021424.984,145.996,-138.184,-86.914,202.148,338.379
1678021424.988,153.320,-140.137,-90.820,195.801,61.035
1678021424.992,150.879,-139.648,-93.262,174.805,-16.602
1678021424.996,152.832,-134.766,-85.449,161.133,-112.305
1678021425.000,148.926,-131.348,-85.938,147.949,-214.844
1678021424.959,139.160,-125.488,-89.844,158.691,-151.855
1678021424.963,135.742,-129.883,-88.867,174.805,-87.402
1678021424.967,131.348,-133.789,-90.820,149.902,-3.906
1678021424.971,129.395,-118.652,-87.402,124.023,-144.043
1678021424.975,121.582,-104.492,-82.520,124.023,-291.504
1678021424.979,106.445,-111.328,-86.914,138.672,-29.785
1678021424.983,109.375,-119.141,-88.867,152.832,407.227
1678021424.986,100.586,-108.887,-85.938,130.371,202.148
1678021424.990,92.285,-91.309,-84.961,100.098,-163.574
1678021424.994,93.262,-84.961,-92.285,95.215,-137.695
1678021424.998,82.520,-84.961,-85.938,101.074,-36.621
1678021425.002,75.195,-83.008,-80.078,98.145,-71.777
1678021424.962,68.848,-91.797,-80.566,91.797,-62.500
1678021424.966,69.824,-91.309,-73.730,82.031,-52.246
1678021424.970,69.824,-78.125,-69.824,68.359,-107.910
1678021424.974,64.941,-77.148,-67.383,77.637,-182.129
1678021424.978,64.941,-79.102,-67.383,92.285,-97.168
1678021424.982,66.895,-76.172,-62.988,98.145,118.164
1678021424.986,62.988,-83.496,-59.082,75.195,-5.371
1678021424.989,55.176,-77.148,-63.965,44.922,-230.469
1678021424.993,44.922,-66.406,-66.895,51.270,-171.875
1678021424.997,46.387,-67.383,-62.012,60.059,187.012
1678021425.001,41.016,-65.430,-59.570,52.246,227.539
1678021425.005,39.062,-59.082,-54.688,40.527,-91.797
1678021424.965,41.992,-52.246,-55.176,37.109,-204.590
1678021424.969,39.062,-52.246,-51.758,45.898,-113.281
1678021424.973,39.062,-50.781,-47.852,59.082,38.574
1678021424.977,39.551,-50.293,-53.711,53.711,2.441
1678021424.981,27.344,-52.246,-50.781,38.086,-107.422
1678021424.985,9.766,-49.805,-49.805,16.113,-79.590
1678021424.989,9.277,-50.781,-54.199,21.484,-19.531
1678021424.992,8.789,-55.176,-52.734,48.340,-23.438
1678021424.996,9.766,-55.664,-41.504,53.223,65.918
1678021425.000,17.578,-40.039,-41.504,35.645,294.922
1678021425.004,7.324,-38.086,-42.969,-0.977,64.941
1678021425.008,4.883,-49.316,-43.457,-0.977,-185.547
1678021424.966,6.836,-51.758,-45.898,25.391,-34.180
1678021424.970,0.977,-48.828,-47.363,17.578,17.578
1678021424.974,3.906,-43.945,-44.434,4.883,-77.637
1678021424.978,2.930,-44.434,-37.598,-0.488,-174.316
1678021424.982,-3.906,-43.945,-39.062,0.488,-148.438
1678021424.986,0.977,-33.691,-43.945,11.719,4.395
1678021424.990,1.953,-34.668,-41.504,16.113,47.363
1678021424.993,-2.930,-42.480,-35.645,3.906,-41.016
1678021424.997,-4.395,-46.387,-34.180,-5.859,56.641
1678021425.001,-2.441,-44.434,-30.762,-1.465,-13.184
1678021425.005,-2.441,-42.480,-31.738,13.184,-143.066
1678021425.009,-6.836,-47.363,-36.621,18.555,-22.461
1678021424.969,-6.836,-47.363,-42.969,4.395,62.012
1678021424.973,-14.648,-41.016,-45.410,-28.809,-12.207
1678021424.977,-24.414,-41.504,-42.480,-38.086,-122.559
1678021424.981,-16.602,-49.805,-46.387,-7.324,-58.105
1678021424.985,-6.836,-45.410,-46.875,10.742,219.238
1678021424.989,-14.160,-37.109,-46.387,-14.648,179.199
1678021424.993,-18.066,-39.551,-48.340,-47.363,-77.148
1678021424.996,-13.184,-41.992,-46.387,-45.410,-116.211
1678021425.000,-13.672,-39.551,-45.898,-16.602,155.273
1678021425.004,-18.555,-35.645,-47.852,-12.207,30.273
1678021425.008,-21.973,-37.109,-45.410,-26.367,-100.098
1678021425.012,-30.762,-41.992,-45.410,-40.527,-69.824
1678021425.003,-38.574,-34.668,-47.852,-46.387,-143.555
1678021425.007,-41.016,-25.391,-46.387,-26.367,-177.734
1678021425.011,-34.668,-27.344,-41.504,-10.742,-89.355
1678021425.015,-27.832,-29.785,-41.504,-8.301,106.934
1678021425.019,-23.438,-31.250,-44.434,-23.438,21.484
1678021425.023,-25.879,-29.297,-35.645,-38.574,-90.332
1678021425.027,-22.461,-28.320,-34.180,-16.602,6.348
1678021425.030,-28.320,-34.668,-36.621,-0.977,197.754
1678021425.034,-29.297,-36.133,-35.645,-7.812,157.715
1678021425.038,-21.973,-35.645,-37.598,-22.949,-160.156
1678021425.042,-30.273,-35.156,-38.574,-36.133,-313.477
1678021425.046,-28.320,-35.156,-38.086,-25.391,-232.910
1678021425.015,-14.648,-36.621,-34.180,-9.766,-119.141
1678021425.019,-12.695,-33.691,-38.086,-13.184,-110.352
1678021425.023,-23.438,-38.574,-39.551,-31.250,2.930
1678021425.027,-31.738,-40.039,-41.504,-44.922,22.949
1678021425.031,-29.297,-40.527,-43.457,-34.180,-145.996
1678021425.035,-30.273,-46.875,-41.504,-26.855,-134.766
1678021425.039,-24.414,-44.922,-41.992,-35.645,18.555
1678021425.042,-19.043,-45.898,-39.551,-26.367,305.176
1678021425.046,-27.344,-45.410,-37.598,-40.527,47.363
1678021425.050,-32.227,-46.875,-35.156,-42.480,-249.023
1678021425.054,-30.273,-43.457,-37.598,-24.902,-86.914
1678021425.058,-35.645,-34.180,-38.086,-32.715,-40.527
1678021425.020,-39.551,-31.738,-32.227,-42.969,-113.770
1678021425.024,-34.668,-29.297,-33.203,-48.828,-181.641
1678021425.028,-31.738,-22.461,-30.762,-40.527,-101.074
1678021425.032,-34.668,-28.809,-18.066,-26.367,-22.949
1678021425.036,-41.504,-25.879,-18.555,-24.414,-62.988
1678021425.040,-55.176,-8.301,-18.555,-51.270,-51.270
1678021425.044,-74.707,-8.301,-7.812,-82.520,148.438
1678021425.047,-92.773,6.348,7.324,-91.309,141.113
1678021425.051,-132.812,4.395,15.137,-124.512,-134.766
1678021425.055,-173.828,7.812,24.902,-161.621,-89.355
1678021425.059,-200.684,22.461,50.293,-181.641,40.527
1678021425.063,-221.680,3.906,84.473,-206.055,-132.812
1678021425.036,-220.703,22.461,98.145,-215.820,-273.926
1678021425.040,-249.023,61.523,98.145,-240.234,-108.398
1678021425.044,-305.176,58.594,100.098,-292.969,48.340
1678021425.048,-322.754,55.664,105.957,-319.336,-70.801
1678021425.052,-303.223,60.059,104.980,-327.148,-222.656
1678021425.056,-310.059,76.172,95.215,-339.355,-135.254
1678021425.060,-334.473,76.660,98.633,-328.613,240.723
1678021425.063,-329.590,77.637,90.820,-325.684,109.375
1678021425.067,-313.477,92.285,75.684,-327.148,-158.203
1678021425.071,-310.547,95.215,74.707,-325.195,-42.480
1678021425.075,-317.383,81.055,66.895,-336.914,-106.934
1678021425.079,-306.641,87.891,53.223,-336.426,-209.961
1678021425.079,-287.598,100.098,45.410,-314.941,-119.629
1678021425.083,-287.598,88.867,42.480,-297.852,22.461
1678021425.087,-281.250,86.914,39.062,-302.246,-20.996
1678021425.091,-268.555,89.844,36.621,-313.477,-184.082
1678021425.095,-259.277,81.055,35.156,-275.391,-130.371
1678021425.099,-246.094,68.848,32.227,-252.930,51.270
1678021425.103,-236.328,65.430,21.973,-259.766,-47.852
1678021425.106,-228.027,71.777,12.695,-249.512,-231.934
1678021425.110,-222.168,70.312,9.766,-257.324,-256.348
1678021425.114,-216.797,61.523,9.277,-242.676,-32.715
1678021425.118,-194.824,54.199,7.324,-199.219,6.348
1678021425.122,-182.617,45.410,2.441,-183.594,-79.102
1678021425.152,-184.082,36.621,0.977,-195.312,-16.602
1678021425.156,-176.758,38.574,-4.395,-199.219,-53.223
1678021425.160,-147.949,48.828,-13.184,-164.062,-49.805
1678021425.164,-139.160,32.227,-10.254,-141.113,-52.246
1678021425.168,-145.996,18.066,-15.625,-140.137,60.059
1678021425.172,-111.328,6.348,-36.133,-115.723,381.836
1678021425.176,-88.379,-6.348,-42.480,-114.258,77.148
1678021425.179,-92.285,10.254,-42.969,-105.469,-235.840
1678021425.183,-81.543,4.395,-54.199,-68.359,-66.895
1678021425.187,-54.688,-17.578,-59.570,-31.250,102.539
1678021425.191,-34.668,-29.785,-59.082,-28.809,15.625
1678021425.195,-32.227,-44.434,-68.359,-33.203,-130.371
1678021425.182,-15.625,-56.152,-71.289,2.441,-106.445
1678021425.186,5.859,-72.754,-65.918,35.645,-60.547
1678021425.190,15.625,-86.914,-68.359,35.645,-5.859
1678021425.194,21.973,-89.844,-71.289,46.387,16.602
1678021425.198,34.668,-92.773,-74.219,48.340,-15.625
1678021425.202,46.387,-103.516,-74.707,59.082,-86.426
1678021425.206,57.617,-112.793,-79.102,81.543,-24.414
1678021425.209,62.988,-112.793,-81.055,94.727,91.797
1678021425.213,75.684,-114.258,-81.055,104.492,56.152
1678021425.217,85.449,-123.047,-85.938,96.191,-127.441
1678021425.221,78.613,-138.672,-89.844,95.703,-246.094
1678021425.225,86.914,-132.812,-95.703,118.652,-153.320
1678021425.226,104.004,-125.488,-96.680,143.066,157.715
1678021425.230,96.680,-135.742,-94.238,143.066,116.699
1678021425.234,96.680,-132.324,-106.445,118.652,-126.465
1678021425.238,116.699,-131.348,-103.516,119.629,-125.977
1678021425.242,116.699,-134.277,-94.727,137.207,58.594
1678021425.246,106.934,-124.512,-96.680,141.602,63.965
1678021425.250,104.004,-122.559,-97.168,139.648,-125.977
1678021425.253,116.699,-119.141,-96.191,132.324,-112.305
1678021425.257,118.164,-114.258,-98.633,125.000,161.133
1678021425.261,111.816,-119.141,-104.492,135.742,19.043
1678021425.265,115.234,-111.816,-104.004,142.578,-96.680
1678021425.269,114.258,-108.887,-99.121,141.113,27.832
1678021425.271,111.328,-106.445,-96.191,124.512,-59.570
1678021425.275,105.469,-101.074,-96.191,97.168,-225.098
1678021425.279,95.703,-103.027,-100.098,113.770,-212.402
1678021425.283,87.891,-101.562,-101.562,131.836,14.160
1678021425.287,86.914,-102.539,-101.562,107.422,44.922
1678021425.291,83.008,-96.680,-100.586,87.891,-7.812
1678021425.295,79.102,-95.703,-102.051,81.055,-36.621
1678021425.298,81.543,-95.703,-94.727,97.656,183.105
1678021425.302,81.543,-83.008,-89.844,116.699,287.109
1678021425.306,81.543,-80.566,-91.797,103.516,-1.953
1678021425.310,79.102,-92.773,-91.797,86.426,-103.516
1678021425.314,62.988,-93.750,-92.773,56.641,-136.230
1678021425.317,58.105,-79.590,-84.473,57.617,-259.277
1678021425.321,70.312,-77.148,-82.031,83.984,-173.340
1678021425.325,67.383,-74.219,-83.496,82.520,96.191
1678021425.329,56.641,-77.148,-78.125,70.801,140.137
1678021425.333,46.875,-76.172,-82.520,41.504,-122.559
1678021425.337,44.922,-68.359,-80.566,41.016,-225.098
1678021425.341,45.410,-65.918,-73.242,63.965,83.496
1678021425.344,43.457,-63.477,-72.754,60.547,370.605
1678021425.348,31.250,-71.777,-70.801,42.480,18.066
1678021425.352,18.066,-78.125,-68.848,28.809,-192.383
1678021425.356,17.090,-69.824,-64.453,37.109,-73.730
1678021425.360,20.508,-63.477,-62.500,60.059,-63.477
1678021425.376,21.973,-62.988,-59.570,57.129,-80.078
1678021425.380,22.949,-64.453,-61.035,35.645,-48.340
1678021425.384,17.090,-65.430,-61.035,18.555,-71.777
1678021425.388,15.137,-61.523,-55.176,19.531,-176.758
1678021425.392,15.625,-61.035,-58.594,27.344,-195.312
1678021425.396,13.184,-52.246,-60.059,24.902,-10.742
1678021425.400,14.160,-42.969,-56.152,23.438,204.590
1678021425.403,11.719,-48.340,-57.617,10.742,-13.184
1678021425.407,3.418,-51.270,-56.641,0.977,-296.875
1678021425.411,1.465,-45.410,-55.176,20.020,-122.559
1678021425.415,7.324,-45.898,-52.246,30.273,24.902
1678021425.419,6.836,-44.434,-51.758,13.672,76.172
1678021425.407,-0.488,-43.457,-54.199,-4.883,-45.410
1678021425.411,-4.395,-44.922,-53.223,-8.301,-186.035
1678021425.415,-5.371,-44.434,-51.270,14.648,126.465
1678021425.419,-0.977,-44.434,-56.152,20.508,90.820
1678021425.423,4.395,-44.434,-53.223,9.277,-101.562
1678021425.427,3.906,-44.434,-49.805,-2.930,-59.082
1678021425.431,-7.324,-51.758,-55.664,-19.043,-65.430
1678021425.434,-18.066,-43.457,-56.152,-7.812,-110.352
1678021425.438,-12.695,-39.551,-54.199,3.418,-152.832
1678021425.442,-1.465,-41.992,-61.035,-0.488,-34.180
1678021425.446,-5.371,-41.016,-60.547,-2.930,255.859
1678021425.450,-11.719,-44.922,-53.223,-30.273,-77.148
1678021425.454,-9.766,-48.340,-52.734,-22.949,-229.492
1678021425.458,-7.324,-40.527,-50.781,-3.906,73.242
1678021425.462,-7.324,-38.086,-50.781,-11.230,64.941
1678021425.466,-9.277,-47.363,-49.805,-23.926,-145.508
1678021425.470,-17.090,-43.457,-45.898,-34.668,-259.277
1678021425.474,-14.648,-34.668,-41.016,-8.301,87.402
1678021425.478,-12.207,-42.969,-44.922,12.695,275.879
1678021425.481,-16.602,-47.363,-47.363,8.789,-17.578
1678021425.485,-14.648,-49.805,-39.551,-11.230,-57.617
1678021425.489,-12.207,-51.270,-36.133,-28.809,1.465
1678021425.493,-13.184,-45.898,-37.109,-16.602,-128.418
1678021425.497,-15.625,-38.574,-37.109,-5.859,-71.289
1678021425.511,-16.113,-38.086,-35.645,-0.977,-53.711
1678021425.515,-18.066,-41.016,-34.180,-8.301,-43.945
1678021425.519,-16.113,-41.016,-28.809,-31.250,-63.477
1678021425.523,-18.555,-42.480,-31.738,-29.297,-147.461
1678021425.527,-19.531,-32.227,-39.551,-9.766,-10.254
1678021425.531,-14.648,-31.250,-37.598,1.465,327.148
1678021425.535,-21.973,-36.133,-38.086,-4.883,308.105
1678021425.538,-24.414,-30.762,-42.480,-25.391,-137.207
1678021425.542,-24.902,-28.809,-45.410,-32.227,-181.641
1678021425.546,-16.602,-28.320,-43.945,-9.766,-10.742
1678021425.550,-8.301,-27.832,-41.992,-2.930,-29.297
1678021425.554,-17.578,-32.227,-41.504,-15.137,-66.895
1678021425.556,-16.602,-31.738,-45.410,-29.297,-59.082
1678021425.560,-23.926,-26.367,-44.434,-34.668,-174.805
1678021425.564,-31.250,-28.320,-42.480,-24.902,-123.047
1678021425.568,-31.250,-31.250,-46.875,-12.207,14.648
1678021425.572,-35.156,-40.039,-43.457,-11.230,59.082
1678021425.576,-15.137,-40.039,-44.922,-20.020,36.133
1678021425.580,0.488,-32.715,-49.805,-9.766,-64.453
1678021425.583,-23.926,-34.668,-42.480,-12.207,-57.129
1678021425.587,-35.645,-32.715,-37.598,-25.879,199.219
1678021425.591,-36.133,-25.879,-32.227,-30.762,331.055
1678021425.595,-48.340,-22.949,-29.785,-56.641,-33.203
1678021425.599,-56.641,-25.879,-26.367,-74.707,-206.543
1678021425.613,-63.965,-36.621,-27.832,-63.965,-158.691
1678021425.617,-61.035,-35.645,-32.227,-55.176,-84.961
1678021425.621,-51.758,-29.785,-32.227,-53.711,-21.973
1678021425.625,-44.434,-36.621,-31.250,-56.152,-74.707
1678021425.629,-52.246,-39.551,-37.598,-61.523,-16.602
1678021425.633,-55.176,-36.133,-40.527,-36.621,-18.066
1678021425.637,-44.922,-43.457,-36.621,-26.367,-41.504
1678021425.640,-41.992,-40.527,-37.109,-36.621,41.992
1678021425.644,-31.738,-31.738,-37.109,-36.621,147.461
1678021425.648,-29.297,-31.250,-36.133,-53.223,-119.141
1678021425.652,-42.480,-34.668,-35.156,-49.316,-283.691
1678021425.656,-40.039,-39.551,-40.039,-35.156,-22.461
1678021425.646,-35.645,-37.109,-36.621,-32.715,30.273
1678021425.650,-40.039,-34.668,-30.762,-41.016,-119.141
1678021425.654,-41.504,-36.133,-36.621,-60.059,-170.898
1678021425.658,-40.527,-36.621,-35.645,-40.039,-87.891
1678021425.662,-31.250,-37.109,-32.227,-15.137,-24.902
1678021425.666,-26.367,-41.504,-33.691,-14.160,-34.668
1678021425.670,-29.785,-38.574,-32.227,-22.949,50.293
1678021425.673,-30.273,-34.180,-37.598,-39.062,188.965
1678021425.677,-41.504,-35.156,-43.945,-37.598,53.223
1678021425.681,-41.504,-41.016,-41.016,-22.461,-110.352
1678021425.685,-27.832,-49.316,-41.992,-26.367,15.137
1678021425.689,-33.203,-42.969,-43.457,-36.621,57.617
1678021425.692,-40.039,-33.203,-38.574,-45.898,-140.625
1678021425.696,-35.645,-40.039,-36.621,-45.898,-245.117
1678021425.700,-34.668,-35.645,-36.133,-19.531,-8.789
1678021425.704,-27.344,-28.809,-36.621,-1.465,243.164
1678021425.708,-22.949,-29.785,-38.086,-20.020,67.383
1678021425.712,-26.367,-34.668,-34.668,-41.504,-128.418
1678021425.716,-23.926,-35.156,-31.250,-28.320,-99.121
1678021425.719,-24.414,-31.738,-34.180,-10.742,41.016
1678021425.723,-27.344,-33.691,-34.668,-10.742,-65.918
1678021425.727,-32.715,-41.504,-31.250,-26.367,-134.277
1678021425.731,-45.410,-44.922,-33.203,-53.711,-94.727
1678021425.735,-43.945,-34.668,-29.785,-56.641,-67.871
1678021425.739,-35.156,-32.227,-35.156,-36.133,-60.059
1678021425.743,-34.668,-35.156,-41.016,-29.785,0.000
1678021425.747,-33.691,-39.062,-37.109,-37.598,83.984
1678021425.751,-31.738,-33.691,-33.203,-54.199,16.113
1678021425.755,-42.969,-40.039,-30.762,-58.105,-162.109
1678021425.759,-44.922,-41.016,-15.625,-31.738,-49.316
1678021425.763,-39.062,-22.461,4.883,-13.184,257.812
1678021425.766,-57.129,-28.809,4.395,-33.203,207.520
1678021425.770,-75.684,-7.324,-6.348,-75.684,-169.922
1678021425.774,-89.355,42.480,0.488,-106.445,-281.738
1678021425.778,-119.141,14.160,19.043,-111.816,-152.832
1678021425.782,-166.504,1.465,19.043,-143.555,-19.531
1678021425.781,-187.012,20.508,48.828,-172.852,-53.711
1678021425.785,-194.336,32.715,83.984,-195.312,-73.242
1678021425.789,-235.840,51.270,89.844,-244.141,-109.375
1678021425.793,-277.344,34.180,99.609,-274.414,-153.320
1678021425.797,-297.363,37.598,103.027,-281.250,-145.020
1678021425.801,-293.457,27.832,109.863,-275.391,9.277
1678021425.805,-258.789,62.988,132.324,-242.188,380.859
1678021425.808,-273.926,115.723,136.230,-261.230,148.438
1678021425.812,-290.039,79.590,122.559,-279.297,-213.867
1678021425.816,-284.180,42.480,103.516,-280.762,-125.977
1678021425.820,-293.457,71.289,85.938,-298.340,-64.453
1678021425.824,-286.621,132.812,96.191,-302.246,-165.527
1678021425.828,-266.113,176.758,115.234,-296.875,-220.215
1678021425.832,-271.484,205.078,112.793,-283.691,-119.629
1678021425.836,-275.391,238.281,113.770,-263.184,-62.012
1678021425.840,-274.902,270.508,108.398,-255.371,-87.891
1678021425.844,-265.625,320.801,92.773,-237.793,-75.195
1678021425.848,-249.512,344.727,92.285,-256.348,-25.391
1678021425.852,-241.211,350.586,90.332,-250.000,-68.359
1678021425.855,-228.027,341.309,79.590,-207.031,-56.641
1678021425.859,-218.262,301.758,66.895,-206.543,-25.879
1678021425.863,-198.730,262.207,56.641,-197.266,166.992
1678021425.867,-183.105,217.285,45.410,-187.988,14.160
1678021425.871,-170.898,193.848,32.715,-177.246,-277.832
1678021425.886,-164.062,167.969,15.625,-162.598,-125.488
1678021425.890,-155.273,123.535,6.348,-156.250,-56.641
1678021425.894,-137.695,82.031,-0.488,-137.207,10.254
1678021425.898,-118.652,51.270,-11.230,-132.324,-112.305
1678021425.902,-119.629,37.598,-27.832,-125.488,-169.434
1678021425.906,-109.375,16.113,-32.227,-87.891,289.062
1678021425.910,-74.219,3.906,-29.297,-59.570,276.367
1678021425.913,-61.523,-6.348,-30.273,-50.293,-75.195
1678021425.917,-57.617,-26.855,-37.109,-71.289,-15.625
1678021425.921,-35.645,-43.945,-45.898,-46.387,135.254
1678021425.925,-13.184,-56.641,-48.828,3.418,-74.219
1678021425.929,-9.766,-71.777,-62.988,7.324,-121.582
1678021425.931,6.836,-82.031,-73.242,13.672,-27.344
1678021425.935,32.715,-83.496,-63.477,29.785,-72.266
1678021425.939,41.992,-87.891,-68.848,37.109,-189.453
1678021425.943,42.969,-106.445,-90.332,59.082,-138.184
1678021425.947,48.828,-118.164,-91.797,85.449,15.625
1678021425.951,68.848,-118.652,-92.773,87.891,61.035
1678021425.955,88.867,-124.023,-105.469,81.055,22.949
1678021425.958,94.727,-121.582,-104.980,86.426,-39.551
1678021425.962,91.797,-117.676,-104.980,114.746,113.770
1678021425.966,107.910,-120.605,-110.840,136.230,172.852
1678021425.970,126.953,-124.023,-115.234,130.371,31.250
1678021425.974,128.906,-130.371,-118.164,119.141,8.789
1678021425.978,123.535,-125.977,-114.746,113.770,-42.480
1678021425.982,114.746,-121.582,-116.699,115.234,-124.512
1678021425.986,116.211,-123.047,-118.164,120.605,-70.801
1678021425.990,117.188,-115.234,-114.258,120.605,68.359
1678021425.994,114.746,-120.605,-115.234,116.211,109.863
1678021425.998,111.816,-128.418,-121.094,105.469,-55.176
1678021426.002,99.609,-119.629,-116.211,109.863,-117.676
1678021426.005,99.609,-112.793,-108.887,120.605,45.898
1678021426.009,98.145,-111.328,-103.516,125.977,218.262
1678021426.013,88.867,-119.141,-109.375,101.562,-37.109
1678021426.017,81.543,-104.980,-113.281,73.242,-222.168
1678021426.021,77.148,-92.285,-104.004,75.195,-172.363
1678021426.024,81.543,-88.379,-104.004,98.633,-66.406
1678021426.028,79.590,-89.355,-109.375,88.867,-19.531
1678021426.032,71.777,-99.609,-107.422,76.172,-88.867
1678021426.036,73.242,-96.680,-96.191,71.777,-79.102
1678021426.040,73.730,-87.402,-90.820,75.195,-141.113
1678021426.044,70.801,-84.961,-85.938,91.309,-40.527
1678021426.048,64.941,-77.637,-83.008,87.891,83.008
1678021426.051,55.176,-71.289,-80.078,76.660,280.762
1678021426.055,48.340,-80.566,-79.102,58.594,300.293
1678021426.059,44.922,-80.566,-75.684,40.039,-104.980
1678021426.063,40.039,-62.988,-61.035,58.594,-85.938
1678021426.067,29.297,-65.918,-58.105,64.453,72.266
1678021426.066,31.250,-64.453,-57.617,52.734,-57.617
1678021426.070,36.621,-54.199,-55.664,35.156,-194.824
1678021426.074,27.832,-62.012,-55.176,23.926,-139.648
1678021426.078,21.484,-76.660,-57.129,44.922,17.090
1678021426.082,25.879,-75.195,-64.941,45.410,-76.172
1678021426.086,22.949,-67.871,-65.918,27.832,-73.730
1678021426.090,17.578,-60.059,-59.570,19.531,-18.066
1678021426.093,14.648,-56.152,-65.430,25.879,117.188
1678021426.097,19.043,-60.547,-70.312,38.086,182.129
1678021426.101,15.625,-58.594,-55.664,28.320,-38.086
1678021426.105,6.348,-60.547,-52.246,13.672,-102.051
1678021426.109,1.465,-58.594,-60.059,-8.789,-132.324
1678021426.112,0.977,-54.688,-62.500,-16.602,-163.574
1678021426.116,3.418,-60.059,-62.012,2.441,-142.090
1678021426.120,10.254,-53.711,-53.223,13.184,-64.941
1678021426.124,11.230,-49.805,-53.223,2.441,15.625
1678021426.128,2.441,-51.270,-59.570,-12.695,-66.406
1678021426.132,1.465,-45.898,-51.758,-9.766,-133.301
1678021426.136,7.812,-49.316,-49.316,10.742,152.344
1678021426.139,-3.906,-50.781,-66.406,20.508,257.812
1678021426.143,-14.648,-63.477,-63.965,12.695,-90.820
1678021426.147,-8.301,-63.965,-55.664,-6.348,-176.270
1678021426.151,-8.789,-36.621,-47.852,-19.531,-62.012
1678021426.155,-15.137,-35.156,-45.410,-16.113,-168.945
1678021426.156,-13.672,-43.457,-47.363,-1.465,-160.156
1678021426.160,-7.812,-44.922,-41.992,6.836,-67.383
1678021426.164,-9.766,-43.945,-43.457,-11.230,1.465
1678021426.168,-14.648,-47.363,-47.852,-25.391,-142.578
1678021426.172,-13.184,-37.598,-46.387,-3.418,-177.734
1678021426.176,-11.719,-31.738,-39.551,14.160,148.926
1678021426.180,-9.277,-49.805,-37.109,12.695,481.445
1678021426.183,-2.930,-44.922,-38.086,-4.395,200.195
1678021426.187,-7.812,-43.457,-43.945,-27.344,-136.230
1678021426.191,-15.137,-57.617,-45.410,-14.160,-57.129
1678021426.195,-16.602,-41.504,-35.645,4.883,62.500
1678021426.199,-14.648,-34.668,-31.250,3.906,-85.449
1678021426.203,-6.836,-39.551,-36.621,-7.324,-115.723
1678021426.207,-5.859,-42.969,-36.621,-24.902,-87.402
1678021426.211,-8.301,-43.945,-33.691,-20.508,-159.180
1678021426.215,-5.371,-45.410,-37.109,3.906,-134.766
1678021426.219,-6.348,-46.875,-41.016,6.348,-51.270
1678021426.223,-5.859,-42.480,-41.504,-1.953,59.570
1678021426.227,-13.672,-38.086,-37.598,-20.020,-22.949
1678021426.230,2.930,-37.598,-47.852,-12.207,-202.637
1678021426.234,31.738,-35.156,-46.387,30.762,-121.094
1678021426.238,12.207,-39.062,-30.762,31.250,206.055
1678021426.242,-20.996,-45.410,-19.531,-4.395,237.305
1678021426.246,-29.297,-47.852,-16.113,-31.738,-83.984
1678021426.261,-20.996,-53.223,-20.508,-22.949,-166.016
1678021426.265,-7.324,-59.082,-24.902,14.160,-26.367
1678021426.269,-13.184,-70.312,-22.949,10.254,-28.809
1678021426.273,-17.090,-71.289,-22.461,8.301,-145.508
1678021426.277,-11.719,-64.453,-21.973,0.000,-144.531
1678021426.281,-13.184,-63.965,-17.090,-1.953,172.363
1678021426.285,-9.277,-65.430,-14.648,27.344,102.051
1678021426.288,-10.742,-58.594,-8.301,30.762,-156.738
1678021426.292,-19.043,-62.988,-4.883,20.020,-55.176
1678021426.296,-14.160,-75.195,-13.184,20.508,0.488
1678021426.300,-16.113,-65.918,-16.113,6.348,-207.031
1678021426.304,-24.902,-52.246,-14.160,3.906,-176.270
1678021426.305,-18.555,-57.129,-19.043,16.113,92.773
1678021426.309,-5.859,-55.176,-22.461,8.789,84.961
1678021426.313,-8.301,-50.293,-19.043,-6.348,-184.570
1678021426.317,-19.531,-48.340,-15.625,-5.859,-230.957
1678021426.321,-19.531,-46.875,-21.973,5.371,-74.219
1678021426.325,-14.160,-51.270,-25.879,9.766,-17.578
1678021426.329,-10.254,-51.270,-26.855,3.418,54.199
1678021426.332,-10.254,-39.062,-24.902,-9.277,-5.371
1678021426.336,-14.648,-43.457,-24.414,-17.090,91.797
1678021426.340,-7.324,-45.898,-23.438,-1.465,81.543
1678021426.344,-7.812,-43.457,-21.484,8.789,-119.629
1678021426.348,-18.555,-49.316,-24.414,-0.977,-51.270
1678021426.352,-13.672,-50.293,-26.367,-9.277,-17.578
1678021426.356,-10.742,-41.016,-28.320,-22.461,-188.477
1678021426.360,-16.602,-34.180,-28.809,-18.555,-167.969
1678021426.364,-17.090,-39.062,-28.809,-6.348,65.918
1678021426.368,-16.602,-44.922,-29.297,0.000,256.348
1678021426.372,-24.414,-44.922,-27.344,-16.602,36.133
1678021426.376,-27.832,-44.922,-26.367,-41.992,-169.434
1678021426.379,-25.879,-41.504,-25.391,-32.227,-48.828
1678021426.383,-23.926,-40.527,-25.879,4.883,227.539
1678021426.387,-17.578,-44.922,-22.949,8.789,28.809
1678021426.391,-9.766,-41.992,-27.832,-12.695,-135.254
1678021426.395,-15.625,-36.621,-29.785,-32.227,-104.004
1678021426.396,-15.137,-36.621,-26.855,-19.531,-163.086
1678021426.400,-14.648,-35.156,-27.344,-0.488,-108.398
1678021426.404,-18.555,-35.645,-24.414,-3.906,-29.297
1678021426.408,-25.391,-43.457,-28.809,-21.484,-21.484
1678021426.412,-21.973,-41.504,-33.203,-33.691,-171.875
1678021426.416,-12.207,-35.645,-34.180,-25.879,-198.730
1678021426.420,-16.602,-34.180,-39.062,-15.625,-46.387
1678021426.423,-16.602,-32.715,-33.691,-5.371,325.684
1678021426.427,-17.090,-32.227,-33.691,-3.906,361.816
1678021426.431,-26.367,-36.621,-40.527,-41.016,-52.734
1678021426.435,-36.133,-37.109,-40.039,-52.734,-158.203
1678021426.439,-34.180,-34.668,-33.203,-27.832,-91.797
1678021426.441,-24.902,-36.133,-27.344,-22.949,-36.133
1678021426.445,-22.949,-38.574,-30.273,-24.902,-100.098
1678021426.449,-24.902,-39.062,-30.762,-35.645,-54.199
1678021426.453,-35.645,-34.668,-34.180,-41.992,76.172
1678021426.457,-43.945,-37.109,-39.551,-26.367,-38.574
1678021426.461,-33.691,-28.809,-34.180,-13.184,-51.758
1678021426.465,-30.762,-28.809,-29.785,-18.555,119.141
1678021426.468,-34.668,-29.785,-37.598,-27.832,299.316
1678021426.472,-45.898,-25.391,-36.133,-48.828,-56.641
1678021426.476,-32.227,-33.203,-13.672,-25.879,-232.422
1678021426.480,-24.414,-13.672,-10.254,-11.230,-74.707
1678021426.484,-31.738,0.000,0.977,-18.066,-82.031
1678021426.487,-35.156,-2.930,25.391,-35.645,-186.035
1678021426.491,-62.012,0.488,23.438,-73.730,-213.867
1678021426.495,-76.172,7.812,23.926,-71.289,-110.352
1678021426.499,-103.516,12.695,53.223,-85.449,-50.293
1678021426.503,-163.574,-10.254,52.734,-134.277,-53.711
1678021426.507,-173.828,-25.391,64.941,-151.367,-22.949
1678021426.511,-165.039,1.953,88.867,-153.809,78.125
1678021426.514,-191.406,26.855,105.957,-176.270,7.324
1678021426.518,-227.539,17.090,126.465,-216.309,-172.852
1678021426.522,-261.719,18.066,139.160,-254.883,-59.570
1678021426.526,-294.434,60.547,116.211,-297.363,223.145
1678021426.530,-290.039,83.496,130.371,-317.871,41.504
1678021426.545,-297.852,98.633,149.902,-309.082,-231.934
1678021426.549,-299.805,130.371,147.461,-287.109,-124.023
1678021426.553,-318.848,149.414,137.207,-320.801,7.324
1678021426.557,-342.285,142.578,129.395,-345.703,-57.129
1678021426.561,-335.449,187.988,125.977,-359.375,-203.125
1678021426.565,-324.707,250.488,131.348,-351.074,-75.684
1678021426.569,-315.918,287.598,130.371,-313.965,378.906
1678021426.572,-315.430,317.383,117.188,-317.871,201.172
1678021426.576,-309.082,324.707,123.047,-340.820,-174.805
1678021426.580,-295.898,323.730,120.605,-340.332,-208.984
1678021426.584,-289.062,301.270,93.750,-317.383,-203.613
1678021426.588,-289.551,284.180,73.242,-317.383,-109.863
1678021426.592,-284.180,270.996,71.289,-310.547,-9.766
1678021426.596,-271.484,247.559,68.848,-293.457,48.828
1678021426.600,-277.832,222.168,41.992,-312.012,-89.355
1678021426.604,-260.254,195.801,28.809,-291.504,-178.223
1678021426.608,-242.188,160.156,25.391,-254.395,-69.336
1678021426.612,-238.770,119.629,14.648,-247.070,41.992
1678021426.616,-221.191,95.703,4.883,-227.051,73.730
1678021426.619,-191.406,65.430,-1.465,-210.938,-102.051
1678021426.623,-188.965,41.992,-12.207,-211.426,-231.445
1678021426.627,-192.383,40.039,-32.227,-193.848,116.211
1678021426.631,-166.504,23.438,-27.832,-163.086,184.570
1678021426.635,-144.043,-0.488,-32.227,-163.574,-128.418
1678021426.637,-136.230,-14.648,-38.574,-166.992,-256.836
1678021426.641,-121.094,-38.574,-40.039,-140.625,-188.477
1678021426.645,-98.145,-43.457,-58.594,-100.586,-74.219
1678021426.649,-88.867,-33.691,-67.871,-87.402,-84.961
1678021426.653,-78.125,-41.992,-62.012,-79.102,-22.461
1678021426.657,-50.293,-63.477,-65.430,-55.664,285.156
1678021426.661,-41.992,-83.984,-78.125,-67.871,99.121
1678021426.664,-34.668,-101.562,-85.938,-41.504,-198.242
1678021426.668,-6.836,-118.652,-74.707,2.441,2.930
1678021426.672,4.395,-125.977,-71.289,6.348,244.629
1678021426.676,16.602,-115.723,-80.566,5.859,12.695
1678021426.680,35.645,-127.930,-84.961,13.184,-279.785
1678021426.681,50.781,-137.207,-96.680,41.016,-152.832
1678021426.685,64.941,-124.512,-100.586,72.754,17.090
1678021426.689,72.266,-129.395,-100.098,79.102,-13.672
1678021426.693,69.336,-140.625,-99.609,72.266,-144.043
1678021426.697,64.453,-149.414,-103.027,66.895,-216.797
1678021426.701,69.336,-161.621,-114.746,99.121,-88.379
1678021426.705,77.148,-154.297,-110.840,118.652,-15.625
1678021426.708,84.961,-141.602,-109.863,110.352,-20.508
1678021426.712,78.125,-138.184,-95.215,118.164,204.102
1678021426.716,75.684,-135.254,-85.449,123.047,168.457
1678021426.720,92.285,-147.949,-96.191,134.277,-212.891
1678021426.724,99.609,-154.785,-101.562,126.465,-179.688
1678021426.725,100.098,-140.625,-102.051,98.145,-0.977
1678021426.729,94.727,-133.789,-106.445,99.609,17.090
1678021426.733,89.355,-133.789,-113.770,100.586,-83.008
1678021426.737,104.004,-145.996,-104.492,106.445,-129.395
1678021426.741,97.168,-122.559,-99.121,117.676,83.496
1678021426.745,84.473,-94.238,-109.863,108.887,86.426
1678021426.749,88.867,-98.145,-114.258,96.680,-8.789
1678021426.752,82.031,-106.934,-99.121,94.238,-76.660
1678021426.756,77.637,-105.957,-91.309,113.281,147.949
1678021426.760,82.520,-99.609,-116.699,118.652,140.625
1678021426.764,83.008,-88.379,-96.191,106.934,-82.520
1678021426.768,72.754,-91.309,-71.289,84.473,-67.383
1678021426.773,58.105,-85.449,-77.148,66.895,-83.984
1678021426.777,59.570,-76.660,-80.078,83.984,-194.824
1678021426.781,59.082,-80.078,-83.008,120.117,-169.434
1678021426.785,62.012,-76.172,-85.938,104.004,-62.012
1678021426.789,67.383,-66.406,-84.961,74.219,-35.156
1678021426.793,54.688,-62.500,-74.707,63.965,-62.500
1678021426.797,54.688,-66.895,-67.383,40.527,-83.984
1678021426.800,61.523,-64.941,-70.312,42.969,134.766
1678021426.804,64.453,-61.035,-74.707,54.688,195.801
1678021426.808,59.570,-64.941,-67.871,38.086,-65.430
1678021426.812,38.086,-63.965,-63.965,25.879,-168.457
1678021426.816,43.457,-54.199,-82.031,36.621,-140.625
1678021426.816,52.246,-83.496,-87.402,53.711,-163.574
1678021426.820,35.645,-77.148,-66.895,48.828,-106.445
1678021426.824,38.086,-36.621,-60.059,35.156,22.949
1678021426.828,42.969,-31.250,-53.711,20.020,-30.273
1678021426.832,32.715,-39.551,-53.223,44.922,-226.074
1678021426.836,25.879,-40.527,-64.453,88.379,-154.297
1678021426.840,28.320,-45.410,-58.594,96.191,57.617
1678021426.843,32.227,-45.410,-53.223,90.820,261.230
1678021426.847,34.668,-33.203,-59.570,33.691,83.496
1678021426.851,35.645,-29.297,-58.105,-6.836,-236.816
1678021426.855,38.574,-30.762,-59.570,0.000,-237.793
1678021426.859,37.109,-35.156,-56.641,2.441,-71.777
1678021426.864,29.785,-38.086,-53.711,-3.906,-67.383
1678021426.868,42.969,-31.738,-55.664,-0.977,-153.320
1678021426.872,69.336,-24.414,-52.246,20.020,-70.801
1678021426.876,61.035,-25.391,-58.105,40.039,-101.074
1678021426.880,23.926,-23.438,-46.387,42.480,-134.766
1678021426.884,-3.906,-29.297,-29.297,32.227,-22.949
1678021426.888,-4.395,-34.180,-25.391,42.969,211.914
1678021426.891,-9.766,-34.668,-34.668,36.621,140.137
1678021426.895,-19.531,-36.133,-31.738,16.113,-198.730
1678021426.899,-11.230,-39.551,-21.484,19.043,-165.039
1678021426.903,-2.930,-41.992,-28.320,-1.953,-45.410
1678021426.907,-2.930,-29.785,-29.785,-22.949,-116.699
1678021426.908,-9.766,-31.738,-32.715,-22.461,-200.195
1678021426.912,-11.719,-34.180,-33.203,-0.977,-130.371
1678021426.916,-9.277,-33.203,-26.367,21.973,10.254
1678021426.920,-15.625,-39.551,-40.039,-6.348,50.293
1678021426.924,-10.254,-39.551,-43.945,-19.531,11.230
1678021426.928,-18.066,-33.691,-26.855,-22.949,12.207
1678021426.932,-27.344,-33.691,-34.668,-17.578,323.730
1678021426.935,-16.602,-34.668,-41.504,15.625,331.543
1678021426.939,-5.859,-33.203,-36.621,15.625,-42.969
1678021426.943,-12.207,-23.438,-45.898,5.371,-43.945
1678021426.947,-26.855,-17.578,-46.387,-8.789,-56.152
1678021426.951,-22.949,-22.949,-33.203,3.418,-191.895
1678021426.952,-24.414,-37.598,-36.133,38.574,-166.504
1678021426.956,-26.855,-38.574,-44.922,48.828,-62.988
1678021426.960,-18.555,-25.391,-38.574,-0.977,-75.684
1678021426.964,-14.160,-20.508,-34.668,-67.383,-153.809
1678021426.968,-20.020,-24.902,-47.852,-52.734,-144.531
1678021426.972,-16.113,-21.484,-55.176,5.859,153.809
1678021426.976,-7.324,-23.438,-47.363,9.277,287.109
1678021426.979,-10.254,-27.832,-41.992,-20.020,-85.938
1678021426.983,-18.066,-20.508,-37.109,-32.227,-248.047
1678021426.987,-16.602,-15.137,-38.574,-30.273,-111.328
1678021426.991,-22.949,-24.902,-36.621,-12.207,-81.055
1678021426.995,-22.949,-30.762,-38.086,7.324,-138.672
1678021427.011,-17.578,-23.438,-53.223,18.066,-78.125
1678021427.015,-15.137,-26.367,-68.848,1.465,-95.215
1678021427.019,-20.508,-26.367,-46.875,-15.625,-127.930
1678021427.023,-21.484,-16.602,-21.484,1.465,-97.656
1678021427.027,-15.137,-20.020,-24.414,18.066,-36.621
1678021427.031,-13.672,-26.855,-26.855,19.043,275.391
1678021427.035,-11.719,-23.926,-28.320,-19.043,120.117
1678021427.038,-5.371,-11.230,-38.574,-45.898,-173.828
1678021427.042,-8.789,-20.996,-38.086,-34.180,-72.754
1678021427.046,-7.812,-30.762,-34.668,-20.508,-23.438
1678021427.050,-0.977,-12.695,-40.527,-22.949,-66.406
1678021427.054,-9.277,-15.625,-37.109,-27.832,-178.711
1678021427.056,-16.602,-20.508,-27.344,-17.578,-126.953
1678021427.060,-18.066,-17.090,-28.320,1.953,19.043
1678021427.064,-18.066,-23.438,-34.668,2.930,-140.625
1678021427.068,-10.742,-16.113,-34.668,-2.930,-146.973
1678021427.072,-9.277,-14.648,-35.156,-3.418,-53.223
1678021427.076,-15.137,-11.230,-32.715,-17.578,-103.027
1678021427.080,-16.602,-8.301,-29.297,-14.160,-160.156
1678021427.083,-14.160,-19.531,-28.809,5.859,-175.293
1678021427.087,-12.207,-21.973,-39.062,0.977,116.699
1678021427.091,-21.973,-11.719,-37.109,-21.973,221.680
1678021427.095,-21.484,-15.137,-45.410,-51.270,-157.715
1678021427.099,-16.113,-21.484,-50.781,-46.875,-153.809
1678021427.101,-13.184,-17.578,-40.039,-17.090,4.883
1678021427.105,-20.508,-20.996,-41.504,-7.812,-11.719
1678021427.109,-21.973,-22.949,-27.344,-16.113,42.969
1678021427.113,-17.578,-22.461,-20.020,-29.785,-75.195
1678021427.117,-21.484,-25.879,-21.973,-21.973,-105.469
1678021427.121,-19.531,-29.785,-32.715,-8.301,-64.941
1678021427.125,-22.461,-22.949,-46.875,-9.766,-64.453
1678021427.128,-23.438,-17.090,-41.016,-8.789,-13.672
1678021427.132,-20.996,-17.090,-38.574,-1.953,121.582
1678021427.136,-16.113,-19.531,-43.457,-0.977,-78.125
1678021427.140,-12.695,-36.133,-50.781,1.953,-213.867
1678021427.144,-10.742,-46.875,-29.785,-0.977,0.488
1678021427.146,-16.113,-35.156,-17.578,-32.715,13.184
1678021427.150,-27.832,-12.207,-29.785,-52.246,-163.574
1678021427.154,-30.273,-13.184,-17.578,-45.898,-163.574
1678021427.158,-25.391,-7.324,-18.555,-33.203,-70.312
1678021427.162,-24.902,-2.441,-32.227,-22.461,-96.680
1678021427.166,-14.648,-24.902,-40.039,-14.648,-93.262
1678021427.170,-16.602,-30.762,-37.109,-23.926,-82.520
1678021427.173,-27.832,-12.695,-35.156,-16.602,45.410
1678021427.177,-19.531,-16.602,-40.039,-29.297,83.496
1678021427.181,-12.695,-23.926,-38.574,-36.621,-57.617
1678021427.185,-13.672,-22.461,-41.504,-14.160,-48.828
1678021427.189,-17.090,-23.926,-42.969,-9.766,-77.637
1678021427.193,-13.672,-21.973,-41.016,-23.926,-135.254
1678021427.197,-13.672,-19.043,-38.574,-27.832,-88.867
1678021427.201,5.371,-18.066,-42.480,-17.090,60.059
1678021427.205,39.062,-16.602,-61.035,17.578,318.848
1678021427.209,2.441,-14.160,-43.457,-9.766,89.844
1678021427.213,-52.246,-13.672,-15.625,-70.801,-209.961
1678021427.217,-49.316,-12.207,-19.043,-65.918,-49.316
1678021427.220,-47.852,-21.484,-24.414,-32.715,207.031
1678021427.224,-66.895,-34.180,-15.625,-20.020,42.480
1678021427.228,-93.262,-36.621,-6.836,-65.918,-158.691
1678021427.232,-97.656,-29.785,-11.230,-113.281,-211.426
1678021427.236,-84.473,-17.578,-21.973,-120.117,-232.910
1678021427.237,-99.609,-22.461,-20.020,-114.746,-194.824
1678021427.241,-118.652,-33.691,-12.207,-112.305,-141.602
1678021427.245,-125.488,-24.414,-5.859,-109.375,-67.383
1678021427.249,-119.629,-20.020,-9.766,-114.258,-121.094
1678021427.253,-105.957,-22.949,-15.625,-110.352,-158.691
1678021427.257,-104.980,-17.090,-16.113,-89.844,-49.805
1678021427.261,-104.492,-21.973,-12.695,-79.102,250.977
1678021427.264,-89.355,-30.762,-29.785,-86.914,314.941
1678021427.268,-83.496,-20.508,-47.852,-106.445,-154.297
1678021427.272,-85.938,-34.668,-34.180,-88.379,-235.840
1678021427.276,-83.008,-29.297,-29.785,-62.012,-62.012
1678021427.280,-81.543,-9.766,-3.418,-67.383,-52.246
1678021427.281,-84.961,-24.902,1.953,-85.938,-86.426
1678021427.285,-90.332,-31.250,-19.531,-101.074,-163.086
1678021427.289,-95.703,-12.695,-18.555,-88.379,-102.051
1678021427.293,-107.910,4.395,5.371,-77.148,-111.328
1678021427.297,-119.629,-3.418,9.277,-104.980,-162.598
1678021427.301,-140.625,-0.977,13.184,-148.438,44.922
1678021427.305,-180.664,8.789,18.066,-170.410,313.477
1678021427.308,-201.172,21.973,28.320,-190.918,58.594
1678021427.312,-210.938,34.668,62.012,-218.262,-153.809
1678021427.316,-255.859,27.832,92.773,-256.836,-11.230
1678021427.320,-288.574,25.879,105.957,-292.480,63.965
1678021427.324,-281.738,44.434,104.980,-311.523,-153.320
1678021427.327,-297.363,40.527,106.934,-316.895,-199.707
1678021427.331,-308.105,41.504,118.652,-313.965,-71.289
1678021427.335,-297.363,47.363,110.352,-290.527,-20.996
1678021427.339,-299.316,37.109,74.219,-256.836,-104.004
1678021427.343,-288.574,31.250,61.523,-289.551,-169.922
1678021427.347,-283.691,31.250,49.316,-322.754,2.930
1678021427.351,-288.086,20.508,54.199,-293.945,83.008
1678021427.354,-268.066,18.555,93.262,-246.582,-109.375
1678021427.358,-231.445,22.461,96.191,-197.754,-74.707
1678021427.362,-227.051,37.598,60.059,-226.562,188.965
1678021427.366,-223.145,25.879,31.250,-233.398,50.781
1678021427.370,-214.355,17.578,43.945,-219.727,-204.102
1678021427.387,-193.359,13.672,68.359,-184.570,-113.281
1678021427.391,-146.484,7.812,25.391,-131.836,-37.109
1678021427.395,-146.484,-6.348,-10.254,-147.949,21.484
1678021427.399,-159.668,-29.297,1.465,-161.133,-155.762
1678021427.403,-142.578,-50.781,9.277,-127.930,-215.820
1678021427.407,-115.234,-72.266,-18.555,-80.078,130.371
1678021427.411,-84.961,-62.988,-75.195,-55.664,97.656
1678021427.414,-70.312,-56.641,-81.543,-60.547,-154.297
1678021427.418,-72.754,-74.707,-2.441,-70.312,-115.723
1678021427.422,-53.223,-74.707,25.391,-39.062,8.301
1678021427.426,-32.715,-79.590,-12.207,-8.789,-68.359
1678021427.430,-22.461,-86.426,-44.434,0.488,-60.059
1678021427.431,-5.371,-77.637,-51.270,27.344,-19.531
1678021427.435,-15.137,-71.289,-52.734,18.555,-70.312
1678021427.439,8.789,-69.336,-74.219,26.367,-140.137
1678021427.443,42.969,-74.219,-96.680,52.246,-64.941
1678021427.447,36.133,-73.242,-85.449,47.363,64.453
1678021427.451,34.180,-74.707,-83.984,36.133,145.996
1678021427.455,50.293,-82.031,-64.941,31.250,22.461
1678021427.458,57.129,-84.473,-62.012,48.340,-75.684
1678021427.462,65.430,-66.406,-83.008,81.543,87.891
1678021427.466,76.172,-46.875,-78.125,90.820,-6.348
1678021427.470,71.777,-59.082,-76.172,78.125,-171.387
1678021427.474,75.195,-63.965,-74.707,67.383,-165.039
1678021427.506,77.148,-44.434,-76.172,81.055,54.688
1678021427.510,83.496,-34.668,-95.703,101.074,81.055
1678021427.514,77.148,-34.668,-100.586,104.980,-68.359
1678021427.518,66.895,-60.059,-104.004,104.980,-78.125
1678021427.522,63.477,-64.453,-100.098,88.867,163.574
1678021427.526,72.754,-39.551,-83.496,79.102,83.984
1678021427.530,78.613,-28.809,-73.242,91.797,-137.695
1678021427.533,73.242,-26.855,-72.266,115.234,-12.695
1678021427.537,59.570,-59.570,-61.523,80.078,214.355
1678021427.541,39.062,-63.477,-49.805,12.695,-78.613
1678021427.545,36.621,-29.785,-68.359,6.836,-335.938
1678021427.549,53.223,-21.484,-72.266,49.805,-174.805
1678021427.521,49.316,-33.203,-82.520,61.523,-51.270
1678021427.525,44.434,-33.691,-86.914,43.457,-106.445
1678021427.529,47.363,-26.367,-66.406,32.227,-143.066
1678021427.533,30.762,-45.898,-58.105,41.016,-37.109
1678021427.537,22.949,-51.270,-67.383,56.152,-103.027
1678021427.541,35.645,-33.691,-67.383,49.316,-88.379
1678021427.545,37.109,-30.273,-66.406,26.367,93.262
1678021427.548,30.273,-31.738,-74.219,26.367,97.656
1678021427.552,33.691,-30.762,-70.312,41.504,-139.648
1678021427.556,35.645,-46.387,-64.453,51.758,-230.469
1678021427.560,44.922,-54.199,-61.035,37.109,-88.379
1678021427.564,56.152,-34.668,-59.082,32.715,37.598
1678021427.566,47.363,-28.320,-50.781,24.902,-65.430
1678021427.570,33.203,-44.434,-41.504,1.953,-197.266
1678021427.574,24.902,-45.410,-38.086,37.598,-113.770
1678021427.578,30.273,-44.922,-58.105,74.707,274.902
1678021427.582,25.879,-49.316,-44.434,42.969,337.891
1678021427.586,22.949,-28.809,-12.207,14.160,29.785
1678021427.590,18.066,-37.598,-29.297,0.488,23.926
1678021427.593,3.906,-30.273,-43.945,12.207,217.773
1678021427.597,12.207,-6.836,-46.387,13.184,48.340
1678021427.601,20.508,-14.160,-49.316,3.418,-147.949
1678021427.605,11.230,-19.043,-44.922,11.719,-94.238
1678021427.609,0.977,-22.461,-44.434,-2.441,-158.691
1678021427.628,4.883,-31.250,-43.457,-1.465,-275.879
1678021427.632,11.719,-34.180,-53.711,10.742,-196.777
1678021427.636,11.719,-32.227,-73.730,8.301,-22.949
1678021427.640,11.719,-34.180,-42.969,29.785,-102.539
1678021427.644,12.695,-45.898,-24.414,24.414,-181.641
1678021427.648,24.414,-23.438,-50.781,-21.973,-63.965
1678021427.652,49.316,-15.625,-57.129,25.879,132.324
1678021427.655,11.230,-32.227,-36.133,30.762,129.395
1678021427.659,-35.645,-35.156,-34.668,-21.484,-85.449
1678021427.663,-42.969,-41.992,-23.926,-36.133,-196.289
1678021427.667,-45.410,-49.316,-26.367,-13.184,-73.730
1678021427.671,-46.387,-59.570,-37.598,-9.766,-43.457
1678021427.656,-49.316,-51.270,-20.996,-52.734,-103.516
1678021427.660,-67.383,-30.762,-0.977,-62.988,-27.832
1678021427.664,-80.078,-45.410,-13.184,-78.125,13.184
1678021427.668,-79.590,-59.570,-8.301,-87.402,-151.367
1678021427.672,-85.938,-46.387,0.000,-71.289,-152.832
1678021427.676,-86.914,-53.223,25.391,-60.547,-5.371
1678021427.680,-93.262,-41.016,20.996,-76.660,114.258
1678021427.683,-97.168,-31.738,-18.066,-92.773,-83.496
1678021427.687,-88.867,-19.531,-23.926,-86.914,-289.551
1678021427.691,-87.402,-12.695,-19.531,-66.895,-120.605
1678021427.695,-67.871,-7.324,-23.926,-30.273,288.574
1678021427.699,-49.805,-51.758,-11.719,-30.762,158.691
1678021427.718,-64.941,-54.199,-19.531,-61.523,-160.645
1678021427.722,-72.266,-8.301,-33.691,-60.059,-162.109
1678021427.726,-64.941,-8.301,-12.207,-40.039,-152.832
1678021427.730,-52.246,-6.348,-8.789,-19.043,-191.406
1678021427.734,-47.363,1.465,-24.414,-29.785,-159.668
1678021427.738,-44.922,-5.859,-17.090,-52.246,-22.949
1678021427.742,-34.180,-15.625,-16.113,-51.270,-172.363
1678021427.745,-32.715,-24.414,-17.090,-45.410,-250.000
1678021427.749,-35.645,-13.184,-12.207,-18.555,-104.980
1678021427.753,-21.484,-0.977,-13.184,-0.488,149.902
1678021427.757,-15.625,-15.625,-20.996,-16.602,56.152
1678021427.761,-14.648,-7.812,-23.438,-20.020,-240.234
1678021427.764,-18.066,-13.184,-10.254,-14.160,-172.363
1678021427.768,-23.926,-33.203,-19.531,-11.719,34.668
1678021427.772,-17.578,-22.949,-26.367,-16.113,35.645
1678021427.776,-11.230,-12.695,-40.527,-21.484,-115.234
1678021427.780,-15.625,-1.953,-31.738,-26.855,-132.324
1678021427.784,-20.020,-13.672,-15.137,-21.973,42.480
1678021427.788,-19.531,-20.508,-14.648,-15.625,-35.645
1678021427.791,-14.648,-21.973,-8.301,-10.254,-173.828
1678021427.795,-5.371,-48.828,-24.902,-3.906,-64.453
1678021427.799,-6.348,-31.738,-16.113,-0.977,185.547
1678021427.803,-3.906,-2.930,-0.977,-0.488,-30.762
1678021427.807,13.184,-2.930,-13.184,6.348,-212.891
1678021427.809,5.371,-15.137,-16.602,1.465,-72.266
1678021427.813,-13.184,-29.297,-15.625,-18.555,-74.219
1678021427.817,-18.555,-29.785,-3.418,-28.320,-167.969
1678021427.821,-13.184,-19.043,0.000,-20.508,-118.164
1678021427.825,-8.301,-16.113,-6.348,-8.789,0.488
1678021427.829,-11.230,-19.531,-8.301,1.953,17.090
1678021427.833,-1.953,-21.973,-20.996,0.000,-48.340
1678021427.836,17.578,-24.902,-25.879,2.930,-205.078
1678021427.840,13.672,-24.902,-16.602,20.996,-16.602
1678021427.844,-11.719,-25.391,-7.324,15.625,266.602
1678021427.848,-33.691,-27.344,0.977,-19.531,-31.738
1678021427.852,-31.738,-22.949,-2.441,-23.926,-125.488
1678021427.851,-21.484,-32.715,-1.953,-20.020,-96.680
1678021427.855,-38.086,-36.621,-7.324,-44.434,-193.359
1678021427.859,-34.668,-13.672,-9.277,-30.762,-85.449
1678021427.863,-13.184,-11.230,-1.465,-4.883,-14.160
1678021427.867,-7.324,-14.160,-19.531,-5.371,-6.348
1678021427.871,-10.742,-11.719,-30.273,-14.648,-36.133
1678021427.875,-9.277,-23.438,-16.113,-3.906,-33.691
1678021427.878,-18.555,-29.785,-15.137,-11.719,82.031
1678021427.882,-32.227,-33.691,-12.695,-15.137,324.707
1678021427.886,-27.832,-41.504,-17.578,-6.348,250.000
1678021427.890,-26.367,-31.738,-25.879,-21.973,-136.719
1678021427.894,-27.832,-28.809,-20.020,-27.344,-194.336
1678021427.912,-24.414,-34.180,-16.602,-13.184,-139.160
1678021427.916,-19.531,-38.574,-19.043,-12.207,-165.527
1678021427.920,-18.066,-39.062,-31.250,-14.648,-204.590
1678021427.924,-27.832,-30.762,-16.602,-18.555,-147.461
1678021427.928,-22.949,-36.621,-3.418,-24.414,-163.574
1678021427.932,-21.973,-41.992,-18.555,-28.809,-107.910
1678021427.936,-20.996,-30.762,-27.832,-13.672,45.410
1678021427.939,-9.766,-34.180,-25.391,-7.324,186.523
1678021427.943,-20.508,-41.016,-22.461,-24.902,56.641
1678021427.947,-25.879,-25.879,-11.230,-20.996,-208.984
1678021427.951,-19.531,-13.184,-20.996,-15.137,-193.848
1678021427.955,-8.789,-21.973,-20.508,-6.836,140.137
1678021427.971,-4.395,-21.484,2.441,-2.930,109.375
1678021427.975,-18.066,-14.648,-19.043,-22.461,-181.641
1678021427.979,-24.902,-18.555,-31.738,-36.133,-173.340
1678021427.983,-38.086,-25.879,-17.578,-49.805,-81.543
1678021427.987,-39.062,-19.531,-8.301,-54.199,-112.305
1678021427.991,-32.227,-14.648,-3.418,-48.340,-132.324
1678021427.995,-48.340,-17.090,-6.836,-43.945,3.418
1678021427.998,-58.594,-20.020,-10.254,-52.734,-32.227
1678021428.002,-57.617,-22.461,-13.672,-52.734,-145.996
1678021428.006,-57.617,-19.043,-2.441,-43.457,-154.297
1678021428.010,-63.965,-7.324,-1.953,-58.594,-46.387
1678021428.014,-67.871,30.273,18.066,-52.734,253.418
1678021428.032,-98.633,33.203,16.113,-81.543,179.688
1678021428.036,-132.324,26.367,4.883,-120.117,-150.879
1678021428.040,-150.391,57.129,28.809,-131.348,-128.906
1678021428.044,-203.125,56.152,39.062,-193.359,-74.707
1678021428.048,-237.305,40.039,60.547,-233.887,-185.059
1678021428.052,-266.113,45.410,92.285,-261.230,-95.703
1678021428.056,-301.270,49.316,105.957,-292.969,72.266
1678021428.059,-309.082,54.199,113.770,-284.668,-2.441
1678021428.063,-304.199,58.105,118.652,-280.273,-161.133
1678021428.067,-296.875,45.898,122.070,-297.363,-188.965
1678021428.071,-284.180,48.828,122.559,-291.992,-115.723
1678021428.075,-283.203,69.336,116.699,-274.414,-127.441
1678021428.039,-279.785,65.430,104.004,-265.625,-132.324
1678021428.043,-263.184,58.594,98.633,-260.254,-134.766
1678021428.047,-246.094,67.871,90.820,-254.883,217.773
1678021428.051,-248.047,64.941,79.590,-252.930,191.406
1678021428.055,-257.324,49.805,77.148,-274.414,-157.227
1678021428.059,-250.977,47.852,69.824,-254.883,-75.684
1678021428.063,-238.770,76.660,63.965,-230.469,-29.297
1678021428.066,-235.352,86.426,47.852,-245.605,-107.422
1678021428.070,-233.887,82.520,41.016,-250.000,-130.859
1678021428.074,-218.262,76.172,59.570,-218.262,-93.262
1678021428.078,-196.289,65.430,62.500,-178.223,-80.078
1678021428.082,-188.477,49.805,20.996,-181.152,-121.582
1678021428.138,-182.129,41.016,11.230,-191.895,-85.449
1678021428.142,-185.059,45.410,36.621,-203.125,-16.602
1678021428.146,-184.082,45.898,42.480,-208.984,42.480
1678021428.150,-176.270,39.551,31.738,-183.594,-56.152
1678021428.154,-149.902,38.086,31.738,-161.133,-105.469
1678021428.158,-134.277,34.668,28.320,-144.531,146.484
1678021428.162,-143.066,15.137,9.766,-131.836,415.527
1678021428.165,-142.578,9.766,2.441,-129.395,287.598
1678021428.169,-132.324,21.973,-0.977,-137.695,-17.090
1678021428.173,-125.000,25.391,-12.695,-149.414,-135.742
1678021428.177,-125.000,12.207,-10.742,-141.602,-159.668
1678021428.181,-123.535,-18.066,1.465,-124.512,-192.383
