timestamps,TP9,AF7,AF8,TP10,Right AUX
1678021310.670,-37.109,-27.344,-33.691,-24.414,-91.309
1678021310.674,-34.180,-19.043,-31.250,-40.039,-110.352
1678021310.678,-39.551,-19.043,-35.156,-58.105,-122.070
1678021310.682,-38.086,-25.391,-36.133,-44.922,-38.574
1678021310.686,-35.645,-25.879,-28.809,-30.273,70.312
1678021310.690,-33.203,-19.043,-27.832,-29.785,5.371
1678021310.694,-33.691,-25.879,-29.785,-34.180,-81.543
1678021310.697,-31.738,-32.227,-31.738,-35.645,-62.988
1678021310.701,-27.832,-26.855,-33.691,-27.344,50.781
1678021310.705,-20.020,-26.855,-22.949,-29.785,7.812
1678021310.709,-12.207,-31.738,-20.508,-12.695,-110.352
1678021310.713,-17.090,-29.785,-26.855,4.883,-34.668
1678021346.807,-41.504,-42.480,-40.527,-36.133,-71.777
1678021346.811,-31.738,-60.059,-39.551,-32.715,-145.020
1678021346.815,-35.156,-42.480,-38.086,-38.574,-36.621
1678021346.819,-40.527,-23.926,-37.598,-45.898,-2.930
1678021346.823,-43.457,-31.250,-38.086,-44.434,-170.410
1678021346.827,-49.316,-33.691,-41.504,-35.156,-117.188
1678021346.831,-43.457,-40.039,-42.480,-30.273,175.781
1678021346.834,-31.738,-41.504,-38.574,-24.902,280.273
1678021346.838,-41.016,-40.039,-38.574,-32.715,-2.930
1678021346.842,-34.668,-33.203,-33.203,-48.340,-208.008
1678021346.846,-30.273,-27.344,-28.809,-53.223,-191.895
1678021346.850,-39.551,-36.133,-29.297,-36.133,-124.023
1678021346.866,-39.062,-43.945,-30.762,-34.668,-136.719
1678021346.870,-31.738,-39.062,-34.180,-37.109,-138.672
1678021346.874,-31.738,-39.551,-35.156,-45.898,-37.109
1678021346.878,-51.758,-40.039,-32.227,-56.152,30.762
1678021346.882,-41.504,-41.992,-33.691,-41.504,-41.992
1678021346.886,-34.668,-42.969,-33.691,-36.133,-46.875
1678021346.890,-56.152,-41.016,-32.715,-34.668,165.039
1678021346.893,-61.035,-43.457,-32.715,-41.016,208.008
1678021346.897,-50.781,-32.715,-35.156,-43.945,-140.625
1678021346.901,-42.969,-32.227,-40.527,-33.691,-196.289
1678021346.905,-39.551,-35.645,-34.180,-38.086,-95.703
1678021346.909,-43.945,-37.109,-31.250,-42.969,-86.426
1678021346.897,-39.062,-42.969,-29.785,-46.875,-186.523
1678021346.901,-28.320,-45.898,-21.484,-41.992,-218.750
1678021346.905,-37.109,-45.898,-28.320,-22.949,-56.152
1678021346.909,-42.969,-37.109,-30.762,-24.902,-87.402
1678021346.913,-40.039,-28.320,-26.855,-45.410,-37.598
1678021346.917,-41.016,-25.879,-30.273,-62.988,32.227
1678021346.921,-40.527,-23.438,-24.414,-52.246,13.672
1678021346.924,-41.016,-36.621,-24.414,-28.809,-20.020
1678021346.928,-40.527,-45.410,-30.273,-36.133,-96.680
1678021346.932,-45.410,-40.527,-31.250,-40.527,10.254
1678021346.936,-49.316,-30.762,-29.785,-40.039,200.684
1678021346.940,-41.504,-24.902,-29.785,-41.992,-34.668
1678021346.956,-42.480,-30.762,-27.344,-36.133,-217.285
1678021346.960,-42.480,-37.598,-24.902,-44.434,-97.656
1678021346.964,-36.621,-29.785,-35.156,-44.922,7.812
1678021346.968,-40.039,-45.898,-36.133,-45.410,-41.992
1678021346.972,-49.316,-57.129,-31.738,-56.152,-184.570
1678021346.976,-45.410,-28.320,-31.250,-35.645,168.457
1678021346.980,-31.250,-25.391,-27.344,-19.531,421.387
1678021346.983,-43.457,-41.992,-29.297,-35.645,90.820
1678021346.987,-52.734,-41.992,-31.738,-56.641,-121.582
1678021346.991,-43.457,-29.785,-27.832,-67.383,6.836
1678021346.995,-40.527,-28.320,-28.809,-50.781,35.156
1678021346.999,-42.480,-26.367,-34.180,-37.598,-189.453
1678021347.000,-47.852,-40.527,-37.598,-44.434,-98.145
1678021347.004,-44.434,-52.246,-39.551,-47.363,-48.340
1678021347.008,-53.223,-52.734,-38.086,-55.176,-180.176
1678021347.012,-60.547,-52.246,-36.133,-50.293,-157.715
1678021347.016,-47.363,-41.504,-37.109,-39.551,23.438
1678021347.020,-45.898,-39.062,-37.109,-35.156,138.184
1678021347.024,-43.457,-35.645,-30.762,-32.715,-2.930
1678021347.027,-41.992,-35.645,-25.391,-46.875,-192.383
1678021347.031,-36.621,-38.086,-20.996,-47.363,-31.250
1678021347.035,-36.133,-43.945,-24.902,-19.043,280.762
1678021347.039,-47.363,-45.898,-32.227,-29.297,52.246
1678021347.043,-40.039,-36.133,-31.738,-50.293,-150.391
1678021347.045,-39.062,-34.668,-30.273,-57.129,-125.488
1678021347.049,-42.480,-26.855,-29.297,-48.828,-183.594
1678021347.053,-41.992,-30.762,-37.598,-40.039,-103.516
1678021347.057,-38.574,-34.668,-40.039,-40.527,-58.105
1678021347.061,-36.621,-22.461,-29.297,-36.133,75.195
1678021347.065,-39.551,-37.598,-28.320,-48.828,127.441
1678021347.069,-48.340,-45.410,-33.691,-55.176,-96.680
1678021347.072,-55.176,-42.969,-28.809,-52.734,-113.281
1678021347.076,-43.457,-37.109,-29.297,-38.086,161.621
1678021347.080,-37.109,-20.020,-41.504,-37.109,160.645
1678021347.084,-55.664,-8.789,-32.715,-72.754,-177.246
1678021347.088,-69.336,-11.230,-13.184,-78.125,-146.973
1678021347.091,-73.242,-8.301,-13.184,-82.520,17.578
1678021347.095,-104.492,23.926,-15.625,-116.699,-46.387
1678021347.099,-149.902,25.879,-2.441,-165.039,-172.363
1678021347.103,-179.199,18.555,20.508,-212.891,-122.559
1678021347.107,-207.031,27.832,40.039,-241.211,-56.152
1678021347.111,-235.352,41.992,52.734,-250.977,-29.785
1678021347.115,-270.020,52.246,57.129,-276.367,-14.160
1678021347.118,-297.852,45.898,60.547,-289.062,103.516
1678021347.122,-301.758,47.852,61.523,-305.664,168.457
1678021347.126,-295.898,49.805,65.430,-314.941,-139.648
1678021347.130,-277.344,49.316,66.895,-297.363,-169.922
1678021347.134,-258.301,53.711,60.547,-280.762,2.441
1678021347.136,-266.602,48.340,59.570,-266.602,-60.059
1678021347.140,-284.180,44.922,58.594,-288.574,-117.188
1678021347.144,-278.320,43.945,57.129,-292.480,-110.840
1678021347.148,-251.465,34.668,46.875,-249.023,92.773
1678021347.152,-225.098,21.484,40.527,-217.773,221.680
1678021347.156,-222.656,25.879,33.691,-218.750,49.805
1678021347.160,-211.426,24.414,20.508,-216.797,-30.273
1678021347.163,-186.523,4.883,12.695,-193.848,134.766
1678021347.167,-172.363,11.230,8.301,-158.203,89.355
1678021347.171,-153.809,11.719,-5.859,-138.672,-175.781
1678021347.175,-135.742,-12.207,-21.484,-113.770,-114.746
1678021347.179,-114.258,-10.254,-15.625,-106.934,-63.965
1678021347.182,-89.844,-4.395,-23.438,-112.793,-231.934
1678021347.186,-67.871,-13.184,-38.574,-80.566,-253.906
1678021347.190,-56.641,-26.367,-40.039,-58.594,-99.609
1678021347.194,-46.387,-33.203,-43.945,-48.828,-64.453
1678021347.198,-26.367,-32.715,-52.734,-42.480,-67.383
1678021347.202,-20.996,-72.266,-58.105,-36.621,-99.609
1678021347.206,-11.719,-98.633,-54.199,-8.789,56.152
1678021347.209,-7.812,-51.270,-59.570,20.996,334.473
1678021347.213,-15.625,-32.715,-65.918,27.832,152.832
1678021347.217,7.812,-44.922,-71.777,23.438,-118.652
1678021347.221,16.113,-58.594,-77.637,6.348,-127.441
1678021347.225,16.602,-69.824,-76.172,10.742,-125.488
1678021347.225,28.809,-66.895,-74.707,39.551,-175.781
1678021347.229,39.551,-64.453,-72.266,47.363,-169.922
1678021347.233,35.156,-66.406,-65.918,37.109,13.672
1678021347.237,35.645,-72.266,-68.848,30.762,-24.414
1678021347.241,44.922,-74.707,-71.777,42.969,-184.570
1678021347.245,38.574,-69.336,-70.801,59.082,-106.445
1678021347.249,28.320,-66.406,-70.801,71.289,269.531
1678021347.252,35.645,-67.871,-72.266,76.172,410.645
1678021347.256,47.363,-73.242,-73.242,55.664,-33.691
1678021347.260,52.246,-82.031,-70.312,49.805,-137.695
1678021347.264,55.176,-74.219,-72.754,72.266,-80.566
1678021347.268,56.641,-69.824,-72.754,79.102,-181.152
1678021347.272,62.012,-92.773,-68.848,55.664,-217.285
1678021347.276,58.594,-82.031,-64.453,48.340,-174.805
1678021347.280,51.758,-64.453,-60.059,60.547,-150.879
1678021347.284,47.852,-67.383,-55.176,61.035,-127.930
1678021347.288,39.062,-63.477,-54.688,58.105,-100.098
1678021347.292,51.758,-62.500,-56.152,58.594,68.359
1678021347.296,57.617,-80.078,-54.199,48.828,225.586
1678021347.299,51.758,-70.801,-53.711,39.551,-35.645
1678021347.303,43.457,-48.828,-52.734,48.340,-156.250
1678021347.307,36.133,-55.176,-52.246,66.406,85.938
1678021347.311,28.320,-63.477,-45.898,68.359,189.941
1678021347.315,35.156,-73.730,-48.340,42.480,-91.309
1678021347.330,44.922,-67.871,-54.199,30.273,-192.383
1678021347.334,35.156,-66.406,-49.316,43.457,-120.605
1678021347.338,32.715,-68.848,-43.457,46.387,-19.043
1678021347.342,33.691,-62.012,-48.340,33.691,53.711
1678021347.346,29.297,-62.012,-54.199,27.344,-73.730
1678021347.350,25.879,-62.988,-47.363,32.715,115.723
1678021347.354,21.484,-60.547,-46.387,40.527,266.602
1678021347.357,21.973,-59.082,-45.410,42.480,-28.320
1678021347.361,30.762,-54.688,-46.387,34.180,-86.914
1678021347.365,23.438,-52.734,-48.828,17.578,-75.195
1678021347.369,21.973,-46.875,-48.828,6.836,-128.418
1678021347.373,29.297,-42.969,-46.387,21.973,-130.859
1678021347.377,19.043,-52.734,-48.340,31.250,-60.059
1678021347.381,16.113,-57.129,-55.176,19.043,50.781
1678021347.385,14.160,-53.711,-55.664,12.207,-60.547
1678021347.389,17.578,-46.387,-51.758,-4.395,-158.203
1678021347.393,19.531,-52.246,-48.828,5.859,-88.379
1678021347.397,22.949,-53.223,-47.852,30.273,57.617
1678021347.401,36.133,-48.828,-43.457,23.438,9.766
1678021347.404,24.414,-49.805,-42.969,18.066,-186.035
1678021347.408,5.859,-44.922,-43.457,7.324,-94.727
1678021347.412,-2.441,-38.574,-36.621,0.977,138.184
1678021347.416,-5.859,-42.969,-36.133,4.395,-11.230
1678021347.420,2.930,-50.293,-45.898,6.836,-98.633
1678021347.420,9.766,-39.551,-39.551,9.766,-105.957
1678021347.424,2.930,-36.133,-29.297,0.977,-171.875
1678021347.428,-8.789,-38.086,-27.832,-1.953,-100.586
1678021347.432,-8.301,-32.715,-24.902,4.883,36.621
1678021347.436,-1.465,-37.598,-28.320,5.371,43.945
1678021347.440,-4.883,-41.992,-28.809,1.953,7.324
1678021347.444,-19.531,-49.805,-26.367,-16.113,-9.766
1678021347.447,-14.160,-51.758,-29.785,-25.391,-145.508
1678021347.451,-4.883,-46.387,-32.715,-7.324,81.543
1678021347.455,-9.766,-42.480,-31.250,9.766,368.652
1678021347.459,-13.184,-37.598,-30.762,-8.789,36.133
1678021347.463,-18.066,-35.156,-33.691,-32.715,-165.039
1678021347.475,-29.297,-36.133,-39.062,-37.598,-147.461
1678021347.479,-25.391,-41.504,-41.504,-20.508,-145.508
1678021347.483,-22.461,-41.016,-40.039,-9.766,-145.508
1678021347.487,-33.691,-34.180,-37.598,-23.438,6.836
1678021347.491,-32.227,-33.203,-39.062,-40.039,82.520
1678021347.495,-38.574,-43.945,-45.410,-40.527,-47.363
1678021347.499,-48.340,-45.410,-43.945,-30.273,-98.145
1678021347.502,-42.480,-36.621,-41.992,-29.785,0.488
1678021347.506,-33.203,-44.922,-41.504,-25.391,127.441
1678021347.510,-39.551,-55.176,-44.922,-38.086,-83.496
1678021347.514,-46.875,-44.922,-42.480,-42.480,-211.426
1678021347.518,-42.969,-38.574,-36.133,-26.855,-109.863
1678021347.510,-32.715,-45.898,-37.598,-23.926,-48.340
1678021347.514,-34.180,-44.434,-37.598,-33.691,-71.777
1678021347.518,-33.691,-25.879,-32.227,-37.598,-126.465
1678021347.522,-30.762,-31.738,-30.273,-37.598,-12.207
1678021347.526,-40.527,-40.039,-38.574,-36.133,57.617
1678021347.530,-35.156,-38.086,-40.527,-36.133,-83.984
1678021347.534,-27.344,-44.434,-37.598,-42.480,7.812
1678021347.537,-33.691,-53.223,-37.598,-39.062,214.844
1678021347.541,-43.457,-47.363,-34.668,-43.457,155.762
1678021347.545,-45.898,-45.898,-32.227,-41.016,-132.324
1678021347.549,-32.227,-42.969,-32.227,-20.508,-142.578
1678021347.553,-34.668,-37.598,-35.156,-16.113,-20.996
1678021347.556,-40.039,-34.180,-35.645,-36.133,-78.613
1678021347.560,-37.109,-25.879,-25.391,-53.711,-166.504
1678021347.564,-40.039,-44.434,-21.484,-46.875,-87.402
1678021347.568,-38.086,-57.617,-26.367,-36.621,14.160
1678021347.572,-28.320,-39.062,-24.902,-32.227,-64.941
1678021347.576,-29.785,-40.039,-24.902,-40.527,-14.160
1678021347.580,-39.551,-42.480,-27.832,-46.875,94.238
1678021347.583,-41.504,-38.574,-25.391,-40.039,220.215
1678021347.587,-50.293,-44.434,-32.715,-32.715,106.445
1678021347.591,-64.453,-46.875,-36.133,-36.621,-93.750
1678021347.595,-59.082,-42.480,-28.320,-43.945,-17.090
1678021347.599,-48.340,-33.691,-29.785,-51.270,-52.246
1678021347.600,-51.270,-37.109,-32.715,-48.340,-205.566
1678021347.604,-44.922,-39.062,-33.203,-38.086,-142.578
1678021347.608,-41.016,-44.922,-40.527,-39.551,70.801
1678021347.612,-51.758,-50.781,-41.504,-54.688,104.004
1678021347.616,-51.270,-35.156,-37.109,-61.035,-122.559
1678021347.620,-45.410,-29.785,-34.180,-50.781,-135.254
1678021347.624,-41.016,-28.809,-29.297,-28.320,248.535
1678021347.627,-35.645,-31.250,-31.250,-24.902,292.480
1678021347.631,-46.387,-33.203,-31.250,-46.387,-158.691
1678021347.635,-50.781,-23.926,-19.531,-60.547,-130.371
1678021347.639,-52.246,-22.461,-18.555,-56.641,-63.477
1678021347.643,-59.082,-28.320,-29.297,-48.340,-165.527
1678021347.647,-46.387,-14.160,-19.043,-49.316,-138.184
1678021347.651,-49.316,-10.742,-13.184,-52.734,-31.250
1678021347.655,-68.359,-6.348,-19.531,-62.012,-10.254
1678021347.659,-92.285,-1.953,-25.879,-97.168,-207.031
1678021347.663,-113.281,-3.906,-11.719,-119.629,-261.719
1678021347.667,-139.648,13.672,12.695,-135.254,42.480
1678021347.671,-173.828,20.508,31.250,-166.016,235.840
1678021347.674,-205.566,12.207,46.387,-213.379,-74.707
1678021347.678,-236.816,29.785,62.012,-259.277,-276.367
1678021347.682,-266.602,44.922,71.289,-271.973,-94.727
1678021347.686,-265.137,51.270,70.312,-269.531,1.465
1678021347.690,-265.625,60.059,70.312,-281.738,-107.422
1678021347.705,-285.156,64.941,71.289,-310.547,-146.973
1678021347.709,-285.645,69.824,74.219,-319.824,-89.355
1678021347.713,-283.203,48.340,68.848,-307.617,-8.789
1678021347.717,-263.672,43.945,66.895,-279.785,-87.402
1678021347.721,-264.648,53.711,66.895,-270.996,-156.250
1678021347.725,-278.320,44.922,67.871,-271.973,179.688
1678021347.729,-273.926,35.156,62.988,-279.785,302.246
1678021347.732,-261.719,36.133,57.129,-275.391,-55.664
1678021347.736,-252.930,40.039,53.223,-247.070,-132.812
1678021347.740,-243.652,33.691,47.363,-238.281,17.090
1678021347.744,-221.680,30.273,43.945,-236.328,15.137
1678021347.748,-213.379,37.598,36.133,-242.188,-138.672
1678021347.750,-232.910,31.738,23.926,-236.816,-90.332
1678021347.754,-229.492,22.461,20.020,-218.750,17.578
1678021347.758,-193.359,25.879,17.578,-191.406,-40.527
1678021347.762,-163.574,28.809,15.137,-182.617,-93.262
1678021347.766,-153.809,12.207,12.207,-180.664,-48.340
1678021347.770,-163.574,-7.324,9.766,-163.086,71.777
1678021347.774,-149.414,0.488,14.160,-147.461,44.922
1678021347.777,-131.836,17.578,6.348,-130.859,-51.758
1678021347.781,-143.066,14.648,-3.906,-132.324,91.797
1678021347.785,-143.066,7.812,-11.719,-140.137,164.062
1678021347.789,-115.234,10.254,-16.602,-121.094,-126.465
1678021347.793,-90.332,2.930,-25.879,-99.121,-141.602
1678021347.796,-68.359,-18.066,-39.062,-92.285,-71.777
1678021347.800,-55.664,-29.785,-45.410,-69.824,-106.445
1678021347.804,-43.457,-44.922,-56.152,-42.969,-83.496
1678021347.808,-22.949,-41.016,-67.871,-27.832,-41.992
1678021347.812,-1.953,-30.762,-68.359,15.137,62.988
1678021347.816,-0.488,-41.016,-68.359,29.297,170.898
1678021347.820,6.348,-58.594,-71.777,25.879,54.688
1678021347.823,32.227,-79.102,-70.801,36.621,-103.027
1678021347.827,53.223,-82.031,-70.801,55.176,116.699
1678021347.831,53.223,-72.266,-74.219,86.914,219.238
1678021347.835,64.453,-62.988,-79.590,87.402,-83.984
1678021347.839,73.730,-65.430,-78.613,85.449,-105.957
1678021347.840,66.895,-69.824,-80.566,86.426,-86.426
1678021347.844,82.520,-80.566,-85.449,88.379,-210.938
1678021347.848,86.914,-88.867,-86.426,105.957,-186.523
1678021347.852,80.078,-93.262,-90.332,108.398,-38.574
1678021347.856,91.309,-98.633,-91.797,105.469,-6.836
1678021347.860,99.121,-102.539,-88.867,103.027,25.879
1678021347.864,99.609,-98.145,-87.402,106.445,-59.570
1678021347.867,106.445,-93.750,-87.891,112.793,4.395
1678021347.871,105.957,-94.238,-90.820,123.535,403.320
1678021347.875,101.562,-95.215,-90.332,117.676,182.617
1678021347.879,102.051,-93.262,-88.379,93.262,-167.969
1678021347.883,102.051,-91.797,-87.891,79.590,-158.691
1678021347.885,94.727,-92.773,-84.473,85.938,-157.227
1678021347.889,77.148,-89.355,-82.520,104.980,-118.652
1678021347.893,86.426,-96.680,-78.613,102.051,-48.828
1678021347.897,86.426,-95.215,-81.543,87.402,118.652
1678021347.901,77.148,-85.449,-83.496,69.336,41.992
1678021347.905,79.102,-91.309,-79.102,76.660,-87.891
1678021347.909,73.242,-98.145,-77.637,84.961,16.602
1678021347.912,69.824,-96.680,-75.684,81.055,211.914
1678021347.916,70.801,-86.914,-73.730,83.008,125.488
1678021347.920,79.102,-85.938,-68.359,62.012,-139.160
1678021347.924,72.266,-85.938,-62.988,55.176,-35.645
1678021347.928,53.711,-74.707,-61.523,70.312,11.719
1678021347.931,53.711,-71.289,-62.988,68.848,-117.188
1678021347.935,56.641,-73.730,-66.406,51.270,-157.227
1678021347.939,49.316,-70.801,-66.895,33.203,-147.949
1678021347.943,44.434,-63.965,-62.988,29.297,-198.242
1678021347.947,49.316,-68.848,-56.641,40.527,-185.547
1678021347.951,45.898,-74.219,-54.688,44.434,-111.328
1678021347.955,34.668,-72.754,-56.641,41.504,105.957
1678021347.958,28.320,-66.895,-53.223,41.992,186.523
1678021347.962,32.715,-63.965,-51.758,45.898,-121.582
1678021347.966,29.297,-58.594,-49.316,42.480,-148.438
1678021347.970,16.602,-58.105,-46.875,31.250,-17.090
1678021347.974,12.695,-69.824,-52.246,24.902,-65.918
1678021347.976,12.695,-71.289,-56.152,19.531,-112.793
1678021347.980,13.672,-65.918,-54.688,14.160,-178.711
1678021347.984,15.137,-65.918,-50.781,21.973,70.312
1678021347.988,6.836,-58.105,-43.945,27.344,187.500
1678021347.992,0.488,-48.828,-45.898,10.254,-57.617
1678021347.996,7.812,-51.758,-50.781,-8.789,-125.977
1678021348.000,10.254,-53.711,-49.316,-0.488,103.027
1678021348.003,4.395,-48.340,-47.363,9.766,226.562
1678021348.007,1.465,-64.453,-48.340,4.883,-70.312
1678021348.011,-9.766,-72.754,-53.711,-0.488,-76.660
1678021348.015,-15.137,-52.246,-53.223,-17.578,-42.480
1678021348.019,-9.766,-49.316,-48.828,-19.531,-187.500
1678021348.025,-11.719,-52.246,-48.828,-3.906,-227.539
1678021348.029,-5.371,-50.293,-43.457,9.766,-57.617
1678021348.033,-11.230,-46.875,-45.410,8.301,0.977
1678021348.037,-9.277,-42.969,-48.340,-17.578,-127.930
1678021348.041,-4.395,-39.062,-45.410,-21.484,-198.242
1678021348.045,-6.836,-39.551,-47.363,-0.977,-16.602
1678021348.049,9.766,-36.621,-39.551,10.254,312.988
1678021348.052,2.441,-35.645,-39.551,1.953,89.844
1678021348.056,-9.277,-46.387,-49.316,-16.113,-207.031
1678021348.060,-9.277,-51.270,-49.316,-31.250,-214.844
1678021348.064,-14.648,-44.922,-48.828,-23.438,-133.301
1678021348.068,-16.602,-38.086,-47.363,-10.742,-75.195
1678021348.332,-19.531,-37.598,-46.387,-9.766,-129.883
1678021348.336,-15.137,-39.062,-40.527,-14.648,-79.102
1678021348.340,-10.254,-37.598,-38.086,-16.602,-51.758
1678021348.344,-11.230,-32.227,-36.133,-11.230,-100.098
1678021348.348,-2.441,-33.203,-33.691,-11.230,-140.625
1678021348.352,-4.883,-34.180,-34.180,-2.930,149.902
1678021348.356,-14.648,-26.855,-34.668,-5.371,327.637
1678021348.359,-19.043,-24.414,-35.156,-27.832,-69.824
1678021348.363,-21.973,-24.902,-30.273,-20.996,-200.684
1678021348.367,-24.414,-31.250,-28.320,-5.371,26.367
1678021348.371,-25.879,-31.738,-30.273,4.883,1.465
1678021348.375,-19.531,-30.762,-32.715,1.465,-144.043
1678021348.336,-27.832,-32.227,-35.156,-17.578,-126.465
1678021348.340,-38.574,-31.738,-33.203,-20.508,-138.672
1678021348.344,-33.203,-37.109,-36.621,-22.949,-143.555
1678021348.348,-29.785,-46.875,-41.504,-23.926,-123.047
1678021348.352,-26.855,-39.551,-36.621,-24.414,-28.320
1678021348.356,-19.043,-18.066,-32.715,-26.367,44.922
1678021348.360,-27.832,-25.391,-33.691,-26.855,3.418
1678021348.363,-35.156,-46.387,-34.668,-24.414,-52.734
1678021348.367,-32.227,-41.992,-34.180,-13.184,44.922
1678021348.371,-32.227,-34.668,-39.062,-17.090,280.762
1678021348.375,-31.250,-34.668,-45.898,-33.203,85.938
1678021348.379,-37.109,-32.227,-45.898,-38.086,-199.219
1678021348.340,-38.574,-33.691,-40.039,-28.320,-148.926
1678021348.344,-39.062,-32.715,-36.133,-26.855,-96.680
1678021348.348,-34.180,-28.320,-28.320,-19.043,-42.480
1678021348.352,-28.320,-34.180,-30.762,-30.273,-79.590
1678021348.356,-29.297,-39.551,-36.621,-49.805,-56.641
1678021348.360,-31.250,-37.109,-36.621,-36.621,22.461
1678021348.364,-41.992,-37.109,-37.109,-21.973,-62.500
1678021348.367,-38.574,-33.691,-36.621,-24.414,-95.215
1678021348.371,-33.691,-37.598,-37.109,-33.691,84.961
1678021348.375,-36.133,-41.016,-40.039,-39.551,78.125
1678021348.379,-37.109,-42.969,-43.457,-31.738,-170.410
1678021348.383,-34.180,-40.039,-39.062,-21.484,-125.488
1678021348.344,-35.645,-39.551,-39.551,-26.855,-24.414
1678021348.348,-40.527,-40.039,-39.062,-42.969,-78.613
1678021348.352,-40.527,-35.645,-32.715,-41.992,-185.059
1678021348.356,-36.621,-32.227,-34.180,-24.902,-114.258
1678021348.360,-31.738,-35.645,-38.086,-23.926,-49.805
1678021348.364,-34.668,-43.457,-41.016,-33.203,-74.219
1678021348.368,-39.062,-41.992,-43.945,-45.898,-80.078
1678021348.371,-35.645,-37.598,-41.016,-44.434,47.852
1678021348.375,-34.668,-37.109,-33.691,-25.879,221.680
1678021348.379,-30.273,-38.574,-27.832,-19.043,-7.324
1678021348.383,-24.902,-36.621,-28.809,-25.391,-162.109
1678021348.387,-16.602,-38.574,-31.738,-25.391,-53.711
1678021348.347,-22.461,-38.086,-29.297,-35.156,-16.602
1678021348.351,-37.109,-29.785,-29.297,-31.250,-110.352
1678021348.355,-39.551,-39.551,-31.738,-28.809,-118.164
1678021348.359,-40.039,-51.270,-35.645,-36.621,138.672
1678021348.363,-44.922,-53.711,-37.598,-36.621,187.500
1678021348.367,-44.922,-38.574,-31.250,-55.176,-53.711
1678021348.371,-48.340,-35.156,-31.250,-62.012,-119.141
1678021348.374,-41.992,-41.504,-27.832,-45.410,84.961
1678021348.378,-38.574,-37.109,-33.203,-37.109,123.535
1678021348.382,-48.340,-32.715,-28.809,-51.270,-141.113
1678021348.386,-47.363,-29.297,-22.461,-64.941,-175.293
1678021348.390,-48.828,-27.344,-26.855,-59.082,-166.504
1678021348.352,-62.012,-21.973,-16.113,-57.129,-170.898
1678021348.356,-77.637,-13.672,-3.906,-80.078,-155.273
1678021348.360,-102.539,-0.488,-0.488,-104.004,-35.156
1678021348.364,-134.277,16.602,14.648,-143.066,-41.016
1678021348.368,-173.828,12.207,32.715,-194.336,-195.801
1678021348.372,-204.102,22.949,50.781,-213.379,-89.355
1678021348.376,-231.934,41.016,62.012,-227.051,71.777
1678021348.379,-250.000,52.734,71.777,-238.770,183.105
1678021348.383,-272.949,56.152,76.660,-267.578,-69.336
1678021348.387,-282.715,53.711,75.195,-298.828,-186.523
1678021348.391,-273.438,72.266,74.219,-292.480,-29.297
1678021348.395,-283.691,70.312,68.848,-292.969,-24.414
1678021348.359,-280.762,61.035,73.730,-292.969,-95.215
1678021348.363,-277.832,62.500,69.336,-298.340,-110.840
1678021348.367,-279.297,65.918,60.547,-294.434,-110.840
1678021348.371,-262.695,60.059,63.477,-266.602,-41.504
1678021348.375,-253.906,58.105,55.176,-260.254,-60.547
1678021348.379,-257.324,60.059,49.805,-262.207,-48.340
1678021348.383,-244.141,55.176,45.410,-249.512,186.523
1678021348.386,-230.469,52.246,43.945,-230.469,302.246
1678021348.390,-224.609,52.734,37.598,-217.285,20.508
1678021348.394,-218.262,52.734,34.180,-213.867,-77.148
1678021348.398,-202.148,54.688,34.180,-200.195,40.039
1678021348.402,-194.824,33.203,27.344,-200.684,-74.707
1678021348.398,-197.754,19.531,16.113,-208.984,-220.703
1678021348.402,-184.082,20.508,9.277,-185.547,-130.371
1678021348.406,-159.668,16.602,9.277,-158.203,-22.949
1678021348.410,-150.391,21.484,10.742,-155.273,-68.359
1678021348.414,-146.973,19.043,5.859,-161.621,-162.109
1678021348.418,-135.742,12.695,-0.977,-142.090,-68.848
1678021348.422,-117.188,7.812,-5.371,-108.887,157.715
1678021348.425,-106.934,3.418,-17.090,-99.121,126.465
1678021348.429,-96.191,-4.395,-27.344,-98.633,-74.219
1678021348.433,-78.613,-8.301,-33.691,-92.285,-40.039
1678021348.437,-63.477,-11.230,-42.480,-82.031,64.941
1678021348.441,-59.570,-13.184,-51.758,-61.523,-141.113
1678021348.456,-49.316,-16.602,-48.828,-33.203,-180.664
1678021348.460,-31.738,-37.598,-53.223,-19.043,-116.211
1678021348.464,-29.297,-38.086,-59.570,-15.137,-20.508
1678021348.468,-22.949,-32.227,-57.617,-19.043,-75.684
1678021348.472,-17.578,-36.621,-61.523,-8.789,-270.996
1678021348.476,-5.371,-47.852,-62.500,17.090,60.547
1678021348.480,14.648,-49.316,-64.453,30.273,343.750
1678021348.483,11.230,-54.199,-66.406,17.578,-43.457
1678021348.487,9.766,-76.660,-66.895,6.836,-244.629
1678021348.491,25.391,-86.914,-68.359,29.297,23.926
1678021348.495,28.320,-86.914,-70.801,43.457,52.734
1678021348.499,18.066,-86.914,-72.754,24.902,-135.254
1678021348.500,18.066,-87.402,-74.219,20.996,-114.258
1678021348.504,27.344,-81.543,-75.195,32.227,-100.098
1678021348.508,32.227,-77.148,-69.824,35.645,-138.672
1678021348.512,41.992,-79.102,-69.336,50.781,-155.273
1678021348.516,51.758,-82.520,-73.242,72.266,-20.020
1678021348.520,57.129,-90.332,-69.336,68.848,74.219
1678021348.524,51.270,-93.262,-67.383,51.270,-42.480
1678021348.527,30.762,-89.355,-68.848,50.781,-154.297
1678021348.531,55.176,-80.078,-67.871,79.102,-19.043
1678021348.535,62.500,-72.754,-62.988,89.355,222.168
1678021348.539,44.922,-76.660,-66.406,65.430,41.016
1678021348.543,50.781,-82.031,-74.219,58.594,-106.934
1678021348.545,52.246,-85.449,-77.148,65.430,52.734
1678021348.549,50.293,-88.867,-75.684,74.219,17.090
1678021348.553,50.781,-80.078,-68.848,81.055,-61.035
1678021348.557,55.176,-69.336,-60.547,77.637,-81.543
1678021348.561,51.758,-75.684,-63.965,63.477,-5.859
1678021348.565,53.223,-85.938,-65.430,67.383,47.363
1678021348.569,66.895,-86.914,-66.895,84.473,-66.895
1678021348.572,58.594,-77.148,-69.824,83.496,-83.496
1678021348.576,45.410,-73.730,-66.895,83.008,184.082
1678021348.580,46.875,-79.102,-66.406,71.289,212.891
1678021348.584,46.387,-72.266,-65.430,44.434,-156.250
1678021348.588,46.387,-65.918,-64.453,53.223,-141.113
1678021348.591,44.434,-68.359,-63.477,62.988,-27.832
1678021348.595,44.434,-69.824,-60.547,58.105,-31.738
1678021348.599,54.688,-73.730,-57.617,47.363,-85.938
1678021348.603,49.316,-72.754,-53.711,30.273,-96.191
1678021348.607,31.250,-70.312,-53.711,40.527,29.785
1678021348.611,25.879,-79.102,-60.059,46.387,41.992
1678021348.615,33.691,-75.684,-63.965,47.852,24.414
1678021348.618,28.809,-69.336,-63.477,43.945,142.578
1678021348.622,28.320,-69.336,-56.641,34.668,184.082
1678021348.626,34.668,-66.406,-52.246,36.621,-46.387
1678021348.630,41.992,-61.035,-48.340,37.109,-147.461
1678021348.634,26.367,-58.594,-49.316,46.875,-87.402
1678021348.635,10.742,-57.617,-52.734,32.715,-76.172
1678021348.639,27.344,-59.082,-47.852,7.324,-183.594
1678021348.643,28.320,-62.500,-43.945,14.648,-214.355
1678021348.647,24.902,-57.617,-47.363,33.691,63.965
1678021348.651,21.484,-52.246,-47.852,40.527,145.020
1678021348.655,21.973,-51.270,-47.852,26.367,-54.199
1678021348.659,24.902,-52.246,-48.340,5.859,-101.562
1678021348.662,14.648,-48.340,-40.039,20.996,67.383
1678021348.666,6.836,-50.781,-33.203,44.434,168.457
1678021348.670,7.324,-55.664,-37.598,33.691,-141.602
1678021348.674,-0.977,-54.199,-42.969,16.113,-185.547
1678021348.678,-12.207,-54.199,-41.504,0.488,-78.613
1678021348.681,-2.930,-52.734,-40.527,-0.977,-156.738
1678021348.685,4.883,-47.852,-42.969,14.160,-173.828
1678021348.689,-0.488,-44.922,-41.992,19.043,-49.805
1678021348.693,3.418,-44.434,-38.086,20.508,-22.461
1678021348.697,11.230,-49.805,-43.457,15.625,-79.590
1678021348.701,13.184,-45.410,-50.293,13.184,-59.082
1678021348.705,-5.859,-33.691,-52.734,3.906,142.090
1678021348.708,-33.203,-36.133,-45.898,-16.602,447.266
1678021348.712,-35.645,-45.898,-40.527,-20.020,192.383
1678021348.716,-28.809,-41.016,-41.992,-27.832,-180.664
1678021348.720,-38.574,-39.551,-40.527,-44.434,-191.895
1678021348.724,-58.594,-44.434,-34.668,-39.551,-78.125
1678021348.725,-44.922,-34.668,-33.691,-39.062,-79.590
1678021348.729,-42.480,-34.180,-37.598,-45.410,-126.953
1678021348.733,-49.805,-41.504,-38.086,-61.523,-46.875
1678021348.737,-40.527,-35.645,-43.945,-60.547,-99.121
1678021348.741,-50.781,-34.180,-45.898,-36.621,-121.094
1678021348.745,-49.805,-35.156,-45.410,-34.180,-52.246
1678021348.749,-38.086,-33.203,-48.828,-34.180,238.770
1678021348.752,-33.203,-34.668,-46.875,-29.297,291.016
1678021348.756,-40.527,-41.992,-42.969,-31.250,-136.230
1678021348.760,-37.598,-46.875,-37.598,-22.949,-174.805
1678021348.764,-25.879,-41.992,-34.180,-16.113,-10.254
1678021348.768,-28.809,-41.016,-36.133,-20.996,-37.109
1678021348.772,-32.715,-49.805,-35.156,-34.180,-171.875
1678021348.776,-34.180,-41.016,-32.227,-37.598,-206.543
1678021348.780,-39.551,-36.621,-33.203,-27.832,-74.219
1678021348.784,-36.133,-39.551,-36.133,-18.066,-12.207
1678021348.788,-36.621,-33.691,-39.062,-25.879,-84.961
1678021348.792,-41.504,-40.039,-37.109,-35.645,15.137
1678021348.796,-41.504,-47.852,-41.992,-43.457,85.938
1678021348.799,-40.527,-44.434,-39.551,-39.551,-89.355
1678021348.803,-32.227,-44.434,-39.062,-25.391,-180.176
1678021348.807,-29.785,-46.387,-37.109,-16.602,-13.184
1678021348.811,-33.203,-48.828,-31.250,-22.461,124.512
1678021348.815,-29.785,-42.969,-32.227,-35.645,-145.508
1678021348.830,-17.578,-36.133,-32.227,-31.250,-276.367
1678021348.834,-26.855,-39.551,-41.992,-22.461,-96.191
1678021348.838,-39.062,-43.457,-45.410,-29.297,-2.441
1678021348.842,-38.086,-45.898,-39.062,-30.762,-70.801
1678021348.846,-33.691,-49.316,-33.203,-33.203,-204.102
1678021348.850,-28.809,-42.480,-35.156,-29.785,111.328
1678021348.854,-30.273,-41.016,-40.527,-19.531,306.152
1678021348.857,-37.598,-46.387,-36.133,-14.160,-92.773
1678021348.861,-47.852,-47.363,-32.715,-19.531,-171.875
1678021348.865,-44.434,-43.457,-35.645,-45.410,-66.895
1678021348.869,-41.992,-41.504,-33.203,-49.316,-128.418
1678021348.873,-44.434,-36.133,-31.738,-32.227,-146.484
1678021348.894,-41.504,-31.250,-39.062,-23.926,6.836
1678021348.898,-37.109,-36.621,-38.086,-37.598,32.715
1678021348.902,-35.645,-35.645,-34.180,-46.875,-140.137
1678021348.906,-35.156,-28.320,-30.762,-41.504,-170.410
1678021348.910,-32.227,-29.785,-32.227,-34.180,11.230
1678021348.914,-18.555,-29.297,-28.809,-24.414,153.320
1678021348.918,-23.438,-33.691,-23.926,-19.531,13.672
1678021348.921,-30.273,-41.016,-33.203,-32.715,-219.727
1678021348.925,-21.484,-34.180,-35.645,-40.039,-152.832
1678021348.929,-16.602,-31.250,-34.180,-24.902,115.234
1678021348.933,-18.555,-34.668,-35.645,-24.414,22.949
1678021348.937,-28.809,-35.645,-31.250,-29.785,-61.523
1678021348.920,-36.133,-31.738,-30.762,-41.016,-68.359
1678021348.924,-42.969,-35.156,-32.227,-47.363,-123.047
1678021348.928,-40.527,-40.039,-31.738,-38.574,-110.352
1678021348.932,-22.461,-40.039,-33.203,-25.879,0.977
1678021348.936,-19.531,-48.828,-34.668,-29.297,119.141
1678021348.940,-37.598,-42.969,-36.133,-45.898,77.148
1678021348.944,-53.223,-33.691,-38.574,-51.758,-9.277
1678021348.947,-43.457,-36.621,-36.133,-33.691,-148.438
1678021348.951,-29.785,-31.738,-34.668,-13.672,73.242
1678021348.955,-36.133,-33.691,-36.133,-6.836,406.738
1678021348.959,-39.062,-41.016,-35.645,-27.344,58.594
1678021348.963,-35.156,-39.551,-34.668,-42.969,-209.961
1678021348.965,-29.297,-31.250,-32.715,-27.832,-92.773
1678021348.969,-18.555,-34.180,-32.715,-18.555,-155.273
1678021348.973,-24.902,-41.504,-35.645,-18.555,-232.422
1678021348.977,-42.969,-37.109,-38.574,-33.203,-169.922
1678021348.981,-49.805,-35.645,-42.969,-59.082,-132.812
1678021348.985,-42.480,-41.504,-45.898,-54.688,-71.289
1678021348.989,-45.898,-42.480,-41.992,-46.387,-17.578
1678021348.992,-35.645,-36.621,-32.715,-32.715,85.938
1678021348.996,-30.762,-29.785,-37.109,-29.297,320.801
1678021349.000,-49.805,-28.809,-37.109,-57.617,58.105
1678021349.004,-37.109,-22.949,-21.484,-50.781,-225.098
1678021349.008,-39.062,-16.602,-16.602,-25.879,-109.863
1678021349.010,-57.617,-0.977,-24.414,-34.668,-57.129
1678021349.014,-60.547,0.000,-18.555,-66.895,-68.359
1678021349.018,-83.984,-5.371,-7.812,-103.516,-148.438
1678021349.022,-116.699,14.648,-3.906,-125.488,-54.688
1678021349.026,-154.785,27.344,14.648,-152.832,27.344
1678021349.030,-198.242,34.668,31.738,-192.383,-24.414
1678021349.034,-221.191,41.504,49.805,-223.145,-39.551
1678021349.037,-232.422,53.223,69.336,-238.770,137.695
1678021349.041,-256.836,57.129,70.801,-256.348,158.203
1678021349.045,-275.391,58.594,62.012,-284.668,-133.789
1678021349.049,-285.156,72.754,49.805,-300.293,-104.980
1678021349.053,-294.922,66.895,46.387,-309.570,13.672
1678021349.056,-278.809,64.453,54.199,-302.246,-144.531
1678021349.060,-269.043,69.824,50.781,-278.320,-225.586
1678021349.064,-276.367,59.082,46.387,-283.691,-65.430
1678021349.068,-277.344,60.059,41.504,-282.715,0.488
1678021349.072,-253.906,62.988,43.457,-256.348,-77.637
1678021349.076,-241.211,55.664,38.574,-270.508,-114.746
1678021349.080,-236.816,47.852,30.762,-278.320,-29.785
1678021349.083,-212.891,46.387,27.832,-228.516,127.441
1678021349.087,-207.031,46.387,24.902,-199.707,-6.348
1678021349.091,-205.078,43.457,24.902,-205.078,-136.230
1678021349.095,-190.430,33.203,16.602,-202.637,-49.805
1678021349.099,-184.570,27.832,11.719,-190.430,-121.094
1678021349.100,-173.828,26.367,5.371,-168.457,-198.242
1678021349.104,-136.719,21.484,-4.883,-152.832,-121.094
1678021349.108,-124.512,5.371,-8.301,-132.324,72.754
1678021349.112,-120.605,-0.488,-21.484,-114.746,64.941
1678021349.116,-99.609,2.441,-23.926,-112.305,-137.207
1678021349.120,-74.219,-3.906,-20.020,-92.285,-132.812
1678021349.124,-64.941,-31.250,-29.297,-64.941,161.133
1678021349.127,-72.266,-44.434,-37.598,-46.387,260.742
1678021349.131,-48.828,-30.273,-48.340,-56.152,-104.492
1678021349.135,-33.203,-35.156,-53.223,-65.430,-181.641
1678021349.139,-38.574,-45.898,-54.688,-40.527,-131.836
1678021349.143,-20.508,-51.270,-56.641,-5.371,-96.680
1678021349.149,10.742,-56.641,-55.664,4.395,-35.156
1678021349.153,0.488,-62.988,-60.547,-5.859,32.227
1678021349.157,-19.531,-67.383,-63.477,-9.277,36.133
1678021349.161,-2.930,-67.383,-61.523,9.766,-83.496
1678021349.165,15.625,-71.289,-62.012,33.691,-111.328
1678021349.169,28.320,-79.590,-64.941,41.016,68.359
1678021349.173,30.273,-73.242,-71.289,25.391,115.723
1678021349.176,36.621,-82.520,-70.801,20.996,-74.707
1678021349.180,42.969,-97.168,-69.824,45.410,-173.340
1678021349.184,38.086,-83.008,-73.242,65.918,-29.297
1678021349.188,47.852,-76.172,-71.777,81.543,86.914
1678021349.192,49.316,-81.055,-78.125,68.848,-71.777
1678021349.205,39.551,-82.520,-79.102,49.805,-176.270
1678021349.209,51.270,-79.590,-72.754,65.430,-152.832
1678021349.213,66.406,-83.008,-70.801,79.102,-7.812
1678021349.217,64.453,-84.961,-73.730,79.590,34.668
1678021349.221,70.312,-84.473,-71.289,77.148,-12.695
1678021349.225,75.195,-87.891,-67.871,70.801,167.969
1678021349.229,67.871,-90.332,-65.918,86.914,453.125
1678021349.232,68.359,-83.984,-67.383,96.680,199.219
1678021349.236,74.707,-78.125,-63.965,89.844,-66.406
1678021349.240,73.730,-83.496,-62.500,76.172,-32.715
1678021349.244,64.941,-77.148,-63.965,56.152,-140.625
1678021349.248,60.059,-77.148,-63.965,60.547,-181.641
1678021349.250,62.988,-79.590,-61.523,64.941,-44.434
1678021349.254,61.523,-75.684,-61.523,62.988,29.785
1678021349.258,57.617,-77.148,-62.500,60.059,-78.613
1678021349.262,53.223,-79.590,-57.129,47.363,-171.875
1678021349.266,46.875,-73.730,-56.152,40.527,-169.922
1678021349.270,41.504,-69.336,-61.035,50.781,-28.320
1678021349.274,30.273,-80.566,-62.988,52.734,21.973
1678021349.277,38.086,-83.984,-61.523,46.387,-21.973
1678021349.281,50.781,-73.730,-54.688,34.668,46.387
1678021349.285,41.016,-57.617,-49.316,44.922,187.500
1678021349.289,20.508,-52.246,-48.340,48.340,36.133
1678021349.293,12.207,-57.129,-48.828,25.879,-108.398
1678021349.295,30.273,-60.547,-52.246,18.066,-27.832
1678021349.299,22.461,-64.941,-48.340,19.043,-80.078
1678021349.303,10.254,-71.289,-42.969,10.254,-148.926
1678021349.307,13.184,-79.102,-41.504,22.461,-105.469
1678021349.311,22.461,-67.383,-42.969,44.434,79.590
1678021349.315,17.578,-63.965,-47.363,41.016,169.922
1678021349.319,7.324,-72.266,-43.945,16.602,-31.250
1678021349.322,6.348,-66.895,-38.574,3.906,-140.625
1678021349.326,12.207,-61.523,-41.016,21.484,171.387
1678021349.330,13.184,-59.570,-42.969,25.391,272.949
1678021349.334,-4.395,-59.570,-44.434,6.348,-76.660
1678021349.338,-3.906,-65.918,-45.898,-4.395,-130.859
1678021349.340,9.277,-67.871,-42.969,-10.742,-137.695
1678021349.344,14.160,-60.547,-37.109,-1.465,-202.148
1678021349.348,-1.465,-56.641,-35.645,21.484,-132.812
1678021349.352,-3.906,-61.035,-40.039,29.297,-20.996
1678021349.356,0.977,-62.012,-40.039,12.695,6.348
1678021349.360,-3.906,-59.570,-38.086,-1.953,-157.227
1678021349.364,-10.254,-56.641,-36.133,-0.488,-179.199
1678021349.367,-10.742,-54.688,-36.621,15.625,74.707
1678021349.371,-13.672,-55.176,-38.086,30.273,206.543
1678021349.375,-16.113,-53.223,-40.527,11.719,-69.336
1678021349.379,-13.672,-52.734,-38.086,-11.719,-220.703
1678021349.383,-13.184,-50.293,-32.715,-7.812,-101.562
1678021349.385,-17.578,-45.898,-32.715,4.883,-47.363
1678021349.389,-15.137,-44.922,-31.738,3.418,-131.836
1678021349.393,-10.254,-50.293,-32.715,-1.953,-59.082
1678021349.397,-7.812,-52.246,-34.180,-9.277,143.066
1678021349.401,-14.160,-48.828,-36.133,-10.254,-6.348
1678021349.405,-15.137,-43.945,-37.598,-5.859,-139.648
1678021349.409,-6.348,-45.410,-37.109,-2.930,-3.906
1678021349.412,5.371,-43.945,-36.133,-5.859,189.941
1678021349.416,6.348,-36.133,-35.156,-16.602,156.738
1678021349.420,-7.324,-35.645,-36.133,-26.367,-207.031
1678021349.424,-7.812,-37.109,-35.156,-22.949,-196.777
1678021349.428,-8.301,-39.062,-33.203,-11.230,-83.008
1678021349.434,-5.371,-38.574,-33.203,-2.930,-38.086
1678021349.438,-10.742,-38.086,-38.086,-8.789,-107.422
1678021349.442,-11.719,-38.574,-39.062,-12.207,-135.742
1678021349.446,-10.742,-47.852,-39.551,-4.883,13.184
1678021349.450,-17.090,-45.410,-41.992,-8.301,-58.594
1678021349.454,-15.137,-38.574,-41.992,-16.602,-71.289
1678021349.458,-21.973,-39.551,-41.016,-27.344,69.336
1678021349.461,-20.020,-35.645,-39.062,-27.344,145.020
1678021349.465,-16.602,-33.691,-35.156,-20.508,-56.152
1678021349.469,-26.367,-32.715,-23.926,-11.230,-117.676
1678021349.473,-22.461,-33.203,-28.320,-4.395,-33.691
1678021349.477,-20.996,-37.109,-38.086,-14.160,-93.262
1678021349.477,-27.344,-38.574,-34.668,-37.598,-183.594
1678021349.481,-29.297,-38.086,-32.227,-38.574,-180.664
1678021349.485,-25.391,-41.016,-36.133,-19.043,-37.598
1678021349.489,-20.508,-35.645,-38.086,-25.391,62.500
1678021349.493,-29.785,-36.133,-38.574,-42.480,-43.457
1678021349.497,-31.250,-42.969,-39.062,-48.340,-128.906
1678021349.501,-27.344,-41.504,-38.574,-41.504,165.527
1678021349.504,-20.508,-35.645,-41.992,-15.137,406.250
1678021349.508,-16.602,-33.203,-44.434,-13.184,19.531
1678021349.512,-25.879,-42.480,-36.133,-31.738,-178.711
1678021349.516,-34.668,-45.898,-29.297,-36.133,-179.688
1678021349.520,-39.551,-41.016,-36.133,-23.926,-179.199
1678021349.522,-34.668,-42.480,-38.574,-18.066,-81.543
1678021349.526,-37.109,-45.410,-33.691,-29.785,-43.457
1678021349.530,-45.898,-43.457,-34.668,-45.410,-92.285
1678021349.534,-43.457,-37.109,-36.133,-46.387,-172.852
1678021349.538,-41.016,-33.203,-34.180,-39.551,-132.812
1678021349.542,-36.621,-38.086,-34.180,-32.715,70.801
1678021349.546,-35.645,-36.621,-34.668,-18.555,279.785
1678021349.549,-34.668,-32.227,-35.156,-30.273,71.289
1678021349.553,-35.645,-31.738,-35.645,-51.758,-158.203
1678021349.557,-33.691,-33.203,-36.621,-40.527,14.648
1678021349.561,-27.344,-29.785,-42.969,-29.297,111.816
1678021349.565,-32.227,-28.809,-48.828,-34.180,-90.820
1678021349.580,-37.109,-37.598,-43.945,-39.062,-145.020
1678021349.584,-36.621,-42.969,-38.086,-49.805,-127.930
1678021349.588,-41.504,-40.039,-30.762,-43.457,-93.262
1678021349.592,-42.480,-35.645,-32.227,-28.320,-41.504
1678021349.596,-35.156,-35.156,-36.133,-31.738,-84.961
1678021349.600,-24.414,-28.809,-31.250,-37.598,124.512
1678021349.604,-32.715,-30.762,-32.227,-46.387,232.422
1678021349.607,-46.875,-37.598,-32.715,-52.734,-87.891
1678021349.611,-42.480,-33.203,-25.391,-43.945,-127.441
1678021349.615,-43.457,-29.785,-22.461,-28.320,62.012
1678021349.619,-52.246,-26.367,-26.855,-34.668,48.828
1678021349.623,-58.105,-20.020,-25.879,-55.664,-174.805
1678021349.625,-47.363,-20.508,-13.672,-44.434,-230.957
1678021349.629,-32.227,-18.066,-14.160,-31.250,-173.828
1678021349.633,-47.363,-13.184,-13.184,-27.832,-75.195
1678021349.637,-60.547,-3.906,-10.742,-42.480,-87.891
1678021349.641,-82.520,-2.441,-14.160,-84.961,-98.145
1678021349.645,-106.934,3.418,-13.672,-105.469,3.906
1678021349.649,-116.211,38.574,4.883,-100.586,35.645
1678021349.652,-147.949,41.016,39.551,-131.836,-23.926
1678021349.656,-207.031,30.273,23.926,-192.871,45.410
1678021349.660,-231.445,45.410,16.113,-228.027,247.559
1678021349.664,-234.375,48.828,47.363,-252.441,-2.930
1678021349.668,-264.648,87.891,53.711,-278.320,-225.586
1678021349.671,-294.922,97.656,61.035,-284.180,-41.504
1678021349.675,-284.668,58.105,88.379,-270.996,-27.832
1678021349.679,-297.363,52.734,78.125,-301.270,-194.336
1678021349.683,-308.105,53.711,68.359,-322.266,-157.715
1678021349.687,-294.434,62.988,84.473,-285.645,9.766
1678021349.691,-298.828,59.570,74.219,-280.762,116.211
1678021349.695,-292.969,57.617,56.152,-295.898,22.461
1678021349.698,-289.062,51.758,48.828,-297.852,-86.426
1678021349.702,-277.832,49.805,44.434,-284.180,27.832
1678021349.706,-261.719,47.852,40.527,-263.672,45.898
1678021349.710,-254.395,39.551,33.691,-267.090,-112.793
1678021349.714,-227.539,38.086,26.367,-260.742,10.254
1678021349.715,-209.961,34.668,21.973,-255.371,50.293
1678021349.719,-218.750,34.180,17.578,-253.906,-117.188
1678021349.723,-212.891,35.156,14.648,-228.027,-220.215
1678021349.727,-190.918,30.273,10.742,-191.406,-64.453
1678021349.731,-159.180,27.832,5.859,-170.898,13.184
1678021349.735,-140.625,23.438,1.465,-155.273,-73.242
1678021349.739,-121.582,14.160,-6.348,-145.508,-60.547
1678021349.742,-111.816,10.254,-8.301,-124.512,31.250
1678021349.746,-104.492,11.230,-14.648,-81.543,203.613
1678021349.750,-83.984,0.000,-26.367,-59.082,96.191
1678021349.754,-64.453,-13.672,-27.832,-62.988,-56.641
1678021349.758,-52.734,-11.230,-25.879,-76.172,-76.660
1678021349.761,-42.480,-10.254,-33.203,-55.176,-98.633
1678021349.765,-31.738,-21.484,-41.504,-12.207,-41.504
1678021349.769,-29.785,-31.738,-45.410,-9.277,5.371
1678021349.773,-31.250,-40.527,-49.805,-21.484,260.254
1678021349.777,-28.320,-53.223,-47.852,-11.719,223.145
1678021349.781,-16.602,-60.059,-51.270,-7.812,-90.820
1678021349.785,12.695,-56.641,-57.129,15.137,-3.418
1678021349.788,15.137,-53.711,-52.246,36.133,218.262
1678021349.792,14.648,-67.383,-52.246,46.387,212.402
1678021349.796,27.832,-72.266,-60.547,45.410,-122.559
1678021349.800,25.879,-62.012,-61.523,30.273,-205.078
1678021349.804,36.621,-62.012,-58.105,35.645,-83.008
1678021349.806,43.945,-70.312,-59.570,55.664,-62.988
1678021349.810,40.527,-73.730,-63.477,62.500,-136.719
1678021349.814,40.039,-68.848,-66.406,52.734,-174.316
1678021349.818,46.875,-77.148,-72.266,43.945,-126.953
1678021349.822,58.105,-87.891,-68.848,63.477,-55.176
1678021349.826,61.035,-78.125,-63.965,90.332,8.301
1678021349.830,59.570,-69.824,-68.848,86.426,152.344
1678021349.833,53.711,-69.824,-73.242,78.613,337.402
1678021349.837,60.547,-73.730,-70.801,77.637,88.379
1678021349.841,64.941,-75.684,-68.848,78.613,-141.113
1678021349.845,75.195,-72.754,-74.219,84.473,-68.359
1678021349.849,83.008,-72.754,-74.707,79.590,-69.336
1678021349.850,67.383,-78.125,-68.359,76.660,-112.793
1678021349.854,66.895,-71.289,-63.477,67.871,-147.949
1678021349.858,80.078,-67.383,-66.406,75.684,-55.664
1678021349.862,70.801,-76.660,-73.242,80.566,54.199
1678021349.866,61.035,-84.473,-76.172,71.289,6.348
1678021349.870,50.781,-78.125,-73.730,66.406,-49.805
1678021349.874,44.434,-63.965,-72.266,66.895,70.801
1678021349.877,58.594,-69.824,-76.660,80.566,280.762
1678021349.881,54.199,-74.219,-77.637,66.406,-8.301
1678021349.885,50.293,-68.359,-75.195,44.434,-222.656
1678021349.889,52.734,-68.359,-69.824,43.457,-107.910
1678021349.893,48.340,-65.430,-64.941,32.227,-165.527
1678021349.897,47.363,-64.941,-62.988,31.250,-230.469
1678021349.901,45.898,-65.430,-62.012,57.129,-104.492
1678021349.905,45.898,-73.242,-62.500,66.406,-46.387
1678021349.909,45.898,-72.266,-58.594,47.363,-100.098
1678021349.913,38.574,-57.617,-57.129,23.926,-211.914
1678021349.917,28.809,-62.988,-61.523,28.809,-95.215
1678021349.921,36.621,-61.523,-57.129,46.875,164.062
1678021349.924,39.062,-50.293,-55.664,42.969,0.977
1678021349.928,34.180,-58.105,-61.523,30.273,-151.367
1678021349.932,37.598,-62.012,-57.617,31.250,-49.805
1678021349.936,28.809,-59.570,-48.340,28.809,7.812
1678021349.940,23.926,-62.988,-54.199,24.414,-145.508
1678021349.955,25.879,-58.105,-56.152,26.367,-137.207
1678021349.959,24.414,-66.406,-52.734,23.926,-64.453
1678021349.963,13.672,-61.523,-49.805,6.836,-15.625
1678021349.967,5.371,-53.223,-45.898,5.859,-100.586
1678021349.971,4.883,-59.082,-45.410,9.766,-163.574
1678021349.975,4.395,-54.688,-43.945,4.395,228.027
1678021349.979,7.812,-51.758,-41.504,22.461,400.391
1678021349.982,9.766,-54.688,-45.898,4.395,-50.293
1678021349.986,8.789,-50.293,-53.711,-12.207,-175.293
1678021349.990,-1.465,-59.570,-51.758,8.301,-63.965
1678021349.994,-14.160,-64.453,-45.410,9.277,-44.922
1678021349.998,-7.812,-49.316,-42.969,0.000,-87.402
1678021350.000,-3.418,-52.246,-41.504,-1.465,-111.328
1678021350.004,-1.465,-44.922,-45.898,-3.418,-87.891
1678021350.008,-4.883,-38.574,-48.340,-5.371,-174.805
1678021350.012,-7.324,-43.457,-41.992,0.488,-173.828
1678021350.016,-3.906,-48.828,-37.598,1.465,-61.035
1678021350.020,-4.883,-51.270,-38.086,-4.883,-49.316
1678021350.024,-18.066,-49.316,-37.598,-4.395,-33.203
1678021350.027,-26.855,-52.246,-36.621,-6.836,-86.914
1678021350.031,-11.719,-45.410,-37.109,-6.348,-41.992
1678021350.035,-3.418,-40.527,-40.527,-4.395,193.359
1678021350.039,6.836,-44.434,-43.457,-1.953,-8.789
1678021350.043,6.836,-50.781,-38.574,0.000,-237.793
1678021350.046,-13.184,-57.129,-32.715,-0.977,-118.652
1678021350.050,-37.109,-56.152,-29.297,-12.695,-24.902
1678021350.054,-37.598,-50.293,-29.785,-30.762,-86.426
1678021350.058,-34.668,-52.246,-30.273,-41.016,-138.672
1678021350.062,-42.480,-53.711,-27.832,-30.762,80.078
1678021350.066,-34.180,-45.410,-30.273,-16.602,188.477
1678021350.070,-15.625,-41.016,-34.180,-21.484,10.254
1678021350.073,-18.555,-41.016,-38.086,-22.949,-24.902
1678021350.077,-22.949,-51.758,-37.598,-23.926,155.762
1678021350.081,-22.461,-56.152,-36.133,-35.156,53.223
1678021350.085,-30.762,-45.410,-39.551,-19.043,-258.789
1678021350.089,-36.621,-51.758,-41.504,-11.719,-83.008
1678021350.090,-35.645,-64.453,-40.527,-33.691,-7.812
1678021350.094,-34.668,-53.223,-37.109,-32.227,-62.012
1678021350.098,-28.809,-38.086,-32.227,-37.109,-96.191
1678021350.102,-19.531,-42.480,-32.227,-31.250,-59.082
1678021350.106,-21.484,-44.922,-36.621,-18.066,45.898
1678021350.110,-24.902,-41.504,-32.715,-11.230,64.941
1678021350.114,-28.320,-40.527,-28.320,-12.207,-40.527
1678021350.117,-22.461,-40.039,-30.762,-30.273,-93.262
1678021350.121,-13.672,-38.574,-34.668,-15.137,185.547
1678021350.125,-15.625,-34.180,-35.156,-9.766,88.867
1678021350.129,-7.812,-32.227,-30.762,-13.184,-139.648
1678021350.133,-13.672,-36.621,-31.250,-8.301,-32.227
1678021350.135,-13.672,-38.574,-33.691,-32.715,-81.055
1678021350.139,-13.184,-32.227,-33.203,-40.527,-207.031
1678021350.143,-24.902,-34.180,-29.297,-24.902,-73.242
1678021350.147,-15.137,-35.156,-29.785,-11.230,56.152
1678021350.151,-20.020,-33.691,-34.668,-7.324,46.387
1678021350.155,-24.902,-38.086,-33.691,-29.785,-69.336
1678021350.159,-19.531,-35.645,-36.621,-42.480,-165.527
1678021350.162,-37.109,-35.156,-38.574,-18.066,163.086
1678021350.166,-40.039,-39.062,-40.039,-5.859,320.312
1678021350.170,-35.645,-38.086,-38.574,-23.926,-98.633
1678021350.174,-37.109,-37.109,-32.715,-43.945,-234.375
1678021350.178,-34.668,-39.062,-31.250,-42.969,-179.688
1678021350.182,-29.297,-38.086,-33.203,-32.715,-117.188
1678021350.186,-25.879,-36.133,-31.250,-39.551,-33.691
1678021350.190,-26.855,-36.621,-26.367,-33.203,-6.348
1678021350.194,-28.320,-35.645,-25.879,-28.809,-80.566
1678021350.198,-36.621,-32.715,-26.367,-40.527,-142.090
1678021350.202,-47.363,-32.715,-27.832,-33.691,-103.027
1678021350.206,-43.457,-38.574,-32.715,-30.762,110.840
1678021350.209,-46.875,-38.574,-37.598,-32.227,250.488
1678021350.213,-45.410,-29.785,-32.715,-45.898,35.156
1678021350.217,-37.598,-25.879,-29.785,-54.199,-208.984
1678021350.221,-47.852,-23.438,-33.203,-45.410,-98.633
1678021350.225,-53.711,-24.414,-29.297,-44.434,4.395
1678021350.225,-45.410,-23.438,-32.227,-41.504,-114.746
1678021350.229,-48.340,-22.949,-34.180,-52.734,-125.000
1678021350.233,-58.594,-30.762,-29.297,-74.219,-30.762
1678021350.237,-56.641,-26.855,-28.320,-61.523,13.184
1678021350.241,-60.547,-21.484,-27.832,-42.480,-120.605
1678021350.245,-62.012,-28.320,-26.367,-40.039,-120.117
1678021350.249,-51.758,-29.785,-27.344,-55.176,158.691
1678021350.252,-49.316,-27.832,-26.855,-64.941,205.566
1678021350.256,-58.594,-25.391,-29.297,-57.129,-85.449
1678021350.260,-49.316,-21.484,-36.133,-39.062,-117.676
1678021350.264,-34.180,-22.949,-34.668,-37.598,-73.242
1678021350.268,-36.133,-22.949,-30.762,-51.758,-56.152
1678021350.272,-41.504,-27.832,-34.668,-57.129,-135.742
1678021350.276,-51.270,-38.574,-43.457,-48.340,-110.352
1678021350.280,-45.898,-33.691,-41.504,-48.340,4.395
1678021350.284,-41.504,-27.344,-36.133,-56.152,-36.621
1678021350.288,-34.668,-41.504,-35.156,-42.480,-93.750
1678021350.292,-30.762,-45.898,-37.109,-45.898,-22.949
1678021350.296,-41.504,-27.344,-39.551,-37.109,128.418
1678021350.299,-38.086,-16.602,-41.992,-27.344,0.000
1678021350.303,-37.109,-23.438,-51.270,-45.410,-141.113
1678021350.307,-46.387,-31.738,-49.805,-40.039,-13.672
1678021350.311,-52.246,-31.250,-42.969,-41.992,-7.324
1678021350.315,-50.293,-29.297,-42.969,-45.898,-166.504
1678021350.316,-40.039,-29.297,-41.016,-27.344,-145.508
1678021350.320,-29.297,-32.227,-42.480,-17.090,10.742
1678021350.324,-18.555,-35.156,-46.387,-22.461,67.383
1678021350.328,-12.207,-32.227,-41.016,-36.133,-77.148
1678021350.332,-27.344,-28.320,-36.133,-44.434,-205.078
1678021350.336,-36.621,-28.320,-35.645,-27.832,77.148
1678021350.340,-32.227,-31.738,-38.086,-12.207,382.812
1678021350.343,-26.367,-34.180,-41.992,-18.555,85.938
1678021350.347,-35.156,-40.039,-43.457,-35.156,-160.156
1678021350.351,-39.551,-34.668,-41.016,-40.527,-145.508
1678021350.355,-31.250,-23.438,-29.785,-22.461,-158.691
1678021350.359,-28.809,-20.020,-29.297,-6.348,-183.105
1678021350.375,-44.434,-21.973,-36.621,-23.926,-99.121
1678021350.379,-47.852,-28.809,-19.531,-52.734,-90.820
1678021350.383,-34.668,-9.277,-4.883,-61.035,-223.145
1678021350.387,-60.547,2.930,-17.578,-66.406,-189.453
1678021350.391,-94.238,-19.531,-20.996,-88.867,36.621
1678021350.395,-98.633,8.301,1.465,-103.516,203.125
1678021350.399,-127.441,25.879,39.062,-140.137,86.914
1678021350.402,-184.570,7.324,47.852,-207.520,-183.105
1678021350.406,-217.773,33.691,39.062,-229.492,-119.141
1678021350.410,-229.492,36.133,59.082,-223.633,77.637
1678021350.414,-235.352,64.941,60.547,-244.141,-100.098
1678021350.418,-254.883,104.492,61.035,-276.855,-172.852
1678021350.420,-274.902,60.547,77.148,-297.363,-143.555
1678021350.424,-284.180,41.504,64.453,-293.945,-153.320
1678021350.428,-270.508,55.176,62.500,-278.320,-57.129
1678021350.432,-275.879,54.199,64.941,-289.551,-14.160
1678021350.436,-282.227,45.898,61.523,-290.039,83.008
1678021350.440,-249.023,54.688,62.500,-277.344,46.387
1678021350.444,-242.676,61.035,48.828,-269.043,-225.586
1678021350.447,-247.559,60.059,36.621,-264.648,-152.832
1678021350.451,-238.281,58.594,36.621,-246.094,162.598
1678021350.455,-239.258,51.758,27.832,-227.539,238.770
1678021350.459,-222.168,46.387,17.578,-230.957,-149.414
1678021350.463,-213.867,44.922,13.184,-218.750,-225.098
1678021350.469,-201.172,39.551,5.371,-202.637,-71.289
1678021350.473,-177.246,37.598,0.977,-196.777,-93.750
1678021350.477,-166.504,40.039,4.395,-184.570,-127.441
1678021350.481,-155.762,12.207,6.836,-168.945,-54.688
1678021350.485,-151.367,13.184,-3.906,-170.410,-83.496
1678021350.489,-147.461,39.551,-19.531,-153.320,-92.773
1678021350.493,-121.582,26.367,-25.391,-120.605,-31.250
1678021350.496,-92.285,20.020,-28.809,-100.586,9.277
1678021350.500,-82.520,17.578,-33.203,-90.820,241.211
1678021350.504,-82.031,1.953,-50.781,-88.867,59.082
1678021350.508,-67.383,-11.719,-62.012,-51.758,-226.074
1678021350.512,-51.758,-24.414,-58.594,-16.113,-109.863
1678021350.510,-39.551,-36.621,-64.453,-11.719,-78.125
1678021350.514,-5.371,-46.387,-72.266,-13.672,-187.012
1678021350.518,16.602,-53.711,-68.359,-12.207,-151.367
1678021350.522,1.465,-54.199,-67.871,15.625,138.672
1678021350.526,16.113,-53.711,-82.520,31.738,89.844
1678021350.530,28.320,-62.500,-89.355,34.668,-76.172
1678021350.534,33.203,-65.430,-81.543,36.621,-50.293
1678021350.537,47.363,-63.965,-83.008,40.527,184.570
1678021350.541,47.363,-69.824,-91.309,61.035,132.324
1678021350.545,51.270,-73.730,-90.820,69.336,-167.480
1678021350.549,58.105,-71.289,-89.844,66.406,-46.875
1678021350.553,65.430,-71.777,-91.797,61.035,0.977
1678021350.555,71.289,-81.055,-89.355,58.105,-127.441
1678021350.559,75.195,-89.844,-87.891,80.566,-167.969
1678021350.563,76.660,-82.520,-89.844,95.215,-94.727
1678021350.567,80.566,-72.266,-91.309,93.750,-72.266
1678021350.571,78.613,-71.289,-90.820,90.820,-123.535
1678021350.575,65.918,-77.637,-89.355,81.055,-108.887
1678021350.579,72.266,-82.031,-89.355,87.891,53.711
1678021350.582,85.938,-78.125,-89.355,109.863,260.254
1678021350.586,84.961,-83.984,-85.449,115.234,58.105
1678021350.590,100.098,-84.961,-82.031,97.168,-105.469
1678021350.594,82.031,-73.242,-87.402,69.336,-93.262
1678021350.598,70.312,-72.266,-81.543,74.219,-89.355
1678021350.601,87.891,-76.172,-76.172,91.797,-61.035
1678021350.605,78.613,-74.707,-79.102,84.961,-35.156
1678021350.609,78.613,-65.918,-76.660,83.496,257.812
1678021350.613,77.148,-59.082,-73.730,73.242,228.027
1678021350.617,63.477,-67.383,-73.730,62.012,-179.199
1678021350.621,64.453,-74.707,-68.359,69.336,-152.344
1678021350.625,60.059,-75.195,-75.684,76.660,204.102
1678021350.628,60.547,-76.660,-80.078,65.918,215.332
1678021350.632,65.430,-73.242,-72.266,47.852,-184.082
1678021350.636,65.430,-70.801,-70.312,57.129,-267.578
1678021350.640,53.711,-71.289,-71.289,58.105,-153.809
1678021350.644,46.875,-66.895,-72.754,52.246,-137.207
1678021350.647,52.246,-73.242,-71.289,46.387,-187.012
1678021350.651,48.340,-73.730,-66.895,28.809,-128.906
1678021350.655,36.133,-60.547,-64.941,29.297,-93.262
1678021350.659,39.551,-58.594,-62.500,42.480,-7.812
1678021350.663,50.293,-64.453,-58.105,59.570,-10.254
1678021350.667,37.598,-56.152,-55.176,59.082,43.457
1678021350.671,17.090,-44.922,-53.223,43.945,314.453
1678021350.674,14.160,-43.457,-51.270,39.551,83.496
1678021350.678,27.832,-41.992,-53.711,54.199,-155.273
1678021350.682,25.879,-50.781,-53.711,38.574,-1.953
1678021350.686,17.578,-56.152,-50.293,18.066,-52.734
1678021350.690,14.648,-58.105,-46.875,18.555,-198.242
1678021350.706,16.602,-60.547,-45.410,12.207,-212.402
1678021350.710,15.625,-54.688,-49.805,20.996,-134.766
1678021350.714,10.742,-51.270,-49.316,26.855,0.488
1678021350.718,10.742,-46.387,-44.434,23.438,32.227
1678021350.722,4.395,-41.992,-41.992,4.883,-107.910
1678021350.726,2.930,-41.504,-42.480,8.301,21.484
1678021350.730,8.301,-39.551,-47.363,20.996,232.910
1678021350.733,14.648,-35.156,-44.922,14.648,70.801
1678021350.737,4.395,-35.645,-44.434,2.441,-99.121
1678021350.741,1.953,-37.598,-41.504,-16.113,-11.230
1678021350.745,2.441,-37.109,-39.062,-9.766,-83.984
1678021350.749,-2.930,-42.969,-39.551,9.766,-279.785
1678021350.750,1.953,-42.969,-41.504,9.766,-130.859
1678021350.754,0.000,-38.086,-42.969,1.953,-21.484
1678021350.758,-6.348,-34.180,-41.504,-10.742,-72.266
1678021350.762,-5.859,-32.715,-44.434,-24.414,-211.426
1678021350.766,-6.348,-35.156,-44.922,-8.301,-136.719
1678021350.770,-7.812,-46.387,-39.062,6.348,29.297
1678021350.774,-0.488,-57.617,-39.062,10.254,-52.246
1678021350.777,0.488,-37.109,-43.945,-6.348,-97.168
1678021350.781,2.441,-29.297,-41.504,-21.484,-2.930
1678021350.785,2.441,-32.227,-44.434,-4.395,188.965
1678021350.789,2.930,-31.250,-45.898,0.000,62.500
1678021350.793,-0.977,-36.133,-43.457,-7.324,-139.648
1678021350.795,-12.207,-34.180,-44.434,-8.789,-103.516
1678021350.799,-16.113,-33.203,-42.480,-16.113,-140.625
1678021350.803,-10.742,-34.668,-37.598,-16.602,-153.809
1678021350.807,-14.160,-29.785,-40.039,-3.906,-143.555
1678021350.811,-28.809,-34.668,-41.992,0.000,58.594
1678021350.815,-13.672,-37.598,-40.039,-1.465,112.305
1678021350.819,-0.488,-37.598,-43.945,1.465,-72.754
1678021350.822,-2.930,-46.387,-41.504,4.883,-148.438
1678021350.826,-8.789,-45.898,-39.551,7.324,65.918
1678021350.830,-22.949,-40.039,-39.062,-10.254,153.320
1678021350.834,-33.691,-46.387,-33.691,-30.273,-93.262
1678021350.838,-33.203,-45.410,-35.645,-36.133,-139.160
1678021350.840,-15.625,-41.992,-44.434,-33.691,-58.105
1678021350.844,-13.184,-44.434,-45.898,-20.020,-109.863
1678021350.848,-16.602,-38.574,-41.992,-9.766,-177.734
1678021350.852,-8.789,-32.715,-40.039,-5.859,-135.254
1678021350.856,-7.324,-35.645,-40.039,-9.766,-155.273
1678021350.860,-13.184,-40.039,-39.551,-22.949,-142.090
1678021350.864,-11.719,-39.062,-37.598,-24.902,-90.332
1678021350.867,-17.578,-37.598,-38.574,-10.742,113.281
1678021350.871,-31.250,-41.504,-39.062,-7.324,237.793
1678021350.875,-27.344,-46.387,-37.109,-30.762,-80.078
1678021350.879,-31.738,-41.016,-38.574,-41.992,-235.840
1678021350.883,-32.715,-38.574,-35.645,-28.809,-87.402
1678021350.886,-22.949,-34.668,-35.645,-10.742,-17.090
1678021350.890,-18.066,-35.156,-41.992,-9.277,-35.645
1678021350.894,-16.602,-41.016,-41.992,-34.668,-106.934
1678021350.898,-22.461,-24.414,-39.062,-36.133,85.449
1678021350.902,-20.996,-21.484,-41.992,-14.160,218.262
1678021350.906,-18.066,-34.180,-41.504,-11.230,34.180
1678021350.910,-5.371,-35.645,-39.551,-18.555,60.547
1678021350.913,-11.230,-34.668,-40.039,-22.461,159.180
1678021350.917,-34.668,-43.945,-42.969,-31.738,44.922
1678021350.921,-32.227,-46.387,-44.434,-29.297,-223.633
1678021350.925,-30.273,-36.621,-41.504,-12.695,-144.531
1678021350.929,-22.949,-35.156,-41.992,-14.160,-82.031
1678021350.932,-19.043,-32.715,-41.504,-23.438,-117.188
1678021350.936,-29.297,-34.180,-36.621,-31.250,-116.699
1678021350.940,-28.809,-39.062,-36.133,-26.367,-53.711
1678021350.944,-27.832,-33.203,-36.621,-14.160,52.246
1678021350.948,-27.832,-33.691,-40.527,-12.695,-22.949
1678021350.952,-28.809,-37.598,-36.133,-32.715,-20.508
1678021350.956,-29.297,-37.109,-29.297,-28.809,-12.695
1678021350.959,-28.320,-37.109,-33.691,-3.906,102.539
1678021350.963,-30.273,-34.180,-36.621,-8.301,26.855
1678021350.967,-24.414,-32.715,-34.180,-25.391,-158.691
1678021350.971,-26.855,-33.691,-32.227,-34.668,-73.730
1678021350.975,-27.344,-35.156,-27.832,-34.180,-125.977
1678021350.975,-20.020,-36.133,-29.785,-34.180,-166.992
1678021350.979,-15.137,-35.645,-30.273,-27.344,-102.051
1678021350.983,-22.461,-37.109,-29.785,-26.367,-4.395
1678021350.987,-35.156,-35.156,-33.691,-25.391,-18.555
1678021350.991,-34.180,-29.297,-28.809,-31.738,-155.762
1678021350.995,-35.156,-24.414,-28.809,-24.414,-144.531
1678021350.999,-24.902,-23.926,-32.227,-12.207,138.672
1678021351.002,-27.832,-29.785,-35.645,-6.348,381.836
1678021351.006,-34.180,-33.691,-40.039,-16.602,61.035
1678021351.010,-27.832,-43.457,-36.133,-42.480,-195.312
1678021351.014,-29.297,-34.668,-33.691,-32.227,-170.898
1678021351.018,-31.250,-25.879,-32.715,-13.672,-159.180
1678021351.022,-27.832,-27.832,-36.133,-22.461,-116.211
1678021351.026,-19.531,-26.855,-37.598,-25.391,-32.227
1678021351.030,-25.879,-23.438,-33.203,-40.039,-54.688
1678021351.034,-42.480,-31.738,-34.668,-49.316,-175.293
1678021351.038,-36.621,-34.668,-41.504,-33.691,-158.203
1678021351.042,-32.715,-20.996,-36.133,-20.508,6.348
1678021351.046,-38.574,-19.531,-32.227,-19.531,151.855
1678021351.049,-27.832,-25.879,-34.180,-34.180,24.414
1678021351.053,-28.320,-33.203,-24.902,-43.457,-170.410
1678021351.057,-34.668,-32.715,-32.715,-34.668,-32.227
1678021351.061,-30.273,-25.391,-45.898,-25.879,157.227
1678021351.065,-25.391,-29.785,-41.016,-35.156,-22.461
1678021351.080,-23.926,-34.668,-40.527,-50.781,-76.660
1678021351.084,-31.250,-35.645,-44.434,-56.641,-81.543
1678021351.088,-37.109,-42.969,-38.086,-46.387,50.293
1678021351.092,-33.691,-43.457,-39.551,-30.273,89.844
1678021351.096,-35.645,-33.691,-40.039,-19.043,-79.102
1678021351.100,-36.133,-33.203,-41.504,-21.973,130.371
1678021351.104,-44.434,-33.691,-43.457,-39.551,259.766
1678021351.107,-49.805,-21.973,-40.527,-40.039,-55.176
1678021351.111,-36.621,-24.902,-40.039,-34.668,-74.707
1678021351.115,-32.227,-36.621,-41.504,-26.855,98.633
1678021351.119,-39.551,-36.133,-42.969,-43.945,24.902
1678021351.123,-34.668,-30.273,-38.086,-61.035,-201.660
1678021351.125,-26.367,-24.902,-40.527,-35.645,-185.059
1678021351.129,-28.809,-30.762,-42.480,-26.855,-69.336
1678021351.133,-23.438,-35.156,-41.992,-30.762,-149.902
1678021351.137,-24.902,-28.320,-41.504,-30.273,-152.832
1678021351.141,-33.203,-23.438,-41.992,-34.668,-57.129
1678021351.145,-36.621,-21.484,-41.016,-35.156,48.828
1678021351.149,-35.645,-25.879,-39.551,-36.621,101.074
1678021351.152,-26.367,-25.879,-40.039,-30.762,-40.527
1678021351.156,-31.738,-16.113,-38.574,-38.086,-47.852
1678021351.160,-33.691,-30.273,-39.551,-43.945,92.285
1678021351.164,-38.086,-34.668,-35.645,-33.203,-73.242
1678021351.168,-45.410,-20.508,-36.621,-32.715,-131.836
1678021351.170,-41.016,-26.367,-41.992,-38.574,85.449
1678021351.174,-25.879,-23.926,-34.668,-34.668,93.750
1678021351.178,-28.320,-12.695,-33.203,-40.527,-103.027
1678021351.182,-45.410,-12.695,-37.598,-35.156,-152.832
1678021351.186,-45.898,-14.160,-34.180,-24.414,61.523
1678021351.190,-43.457,-12.695,-23.926,-31.738,205.078
1678021351.194,-48.828,-7.324,-14.648,-56.152,-6.836
1678021351.197,-67.383,13.672,-17.090,-80.078,-149.414
1678021351.201,-97.656,13.672,4.395,-104.492,51.270
1678021351.205,-139.648,1.465,20.996,-137.695,181.641
1678021351.209,-164.551,19.043,22.461,-157.227,-68.848
1678021351.213,-196.289,30.273,40.039,-194.336,-102.051
1678021351.216,-234.863,41.016,49.316,-244.141,-109.863
1678021351.220,-255.859,49.805,54.688,-261.719,-170.410
1678021351.224,-264.160,59.570,61.035,-267.090,-150.391
1678021351.228,-266.602,68.359,67.871,-276.855,6.836
1678021351.232,-275.391,76.172,61.035,-288.086,101.562
1678021351.236,-283.203,75.195,51.758,-312.988,-15.625
1678021351.240,-277.832,72.754,65.430,-313.965,-90.332
1678021351.243,-278.320,71.289,64.453,-284.668,11.719
1678021351.247,-269.531,65.918,54.688,-267.090,201.660
1678021351.251,-263.184,65.918,53.711,-263.184,61.035
1678021351.255,-252.930,59.570,53.223,-256.836,-180.664
1678021351.259,-250.977,55.176,49.316,-261.719,-240.723
1678021351.260,-255.859,60.059,43.945,-244.629,-146.484
1678021351.264,-254.395,47.363,31.738,-247.559,-122.070
1678021351.268,-236.816,41.016,21.484,-248.535,-118.652
1678021351.272,-212.891,40.527,23.926,-225.098,62.012
1678021351.276,-214.355,34.668,23.438,-222.656,32.715
1678021351.280,-211.914,28.809,20.020,-216.797,-20.508
1678021351.284,-178.711,15.137,12.207,-188.477,64.941
1678021351.287,-156.250,15.625,4.883,-158.691,234.375
1678021351.291,-147.949,17.090,0.000,-156.738,247.559
1678021351.295,-137.207,3.906,-5.371,-159.668,-87.891
1678021351.299,-124.023,13.184,-10.254,-134.766,-107.422
1678021351.303,-104.004,16.113,-23.926,-107.910,-65.918
1678021351.306,-86.914,6.348,-37.598,-87.891,-117.676
1678021351.310,-69.336,-0.977,-47.363,-83.496,-94.238
1678021351.314,-57.617,-12.207,-48.340,-84.961,-79.590
1678021351.318,-52.246,-26.855,-46.875,-61.523,-83.008
1678021351.322,-45.898,-40.039,-56.641,-35.156,-100.586
1678021351.326,-33.203,-46.875,-56.641,-23.926,-55.664
1678021351.330,-16.602,-47.852,-50.293,-18.555,148.926
1678021351.333,0.000,-52.246,-56.152,-8.301,356.934
1678021351.337,-1.465,-63.965,-59.082,0.000,119.141
1678021351.341,-10.742,-70.801,-61.523,6.348,-181.152
1678021351.345,2.441,-66.895,-64.941,22.461,-68.359
1678021351.349,20.508,-60.059,-62.012,27.832,-26.855
1678021351.350,22.949,-66.895,-63.477,23.438,-173.340
1678021351.354,19.531,-82.031,-68.848,36.133,-258.789
1678021351.358,25.391,-80.078,-70.801,60.059,-86.914
1678021351.362,39.062,-70.312,-70.801,65.918,33.691
1678021351.366,51.758,-75.684,-71.289,59.082,-148.438
1678021351.370,55.664,-78.125,-71.289,62.012,-173.340
1678021351.374,62.500,-81.543,-67.871,80.078,111.328
1678021351.377,73.730,-76.660,-75.195,90.332,219.238
1678021351.381,80.078,-73.730,-85.449,83.496,-53.711
1678021351.385,80.566,-73.730,-80.078,94.238,-157.715
1678021351.389,77.637,-85.938,-80.078,96.191,-69.336
1678021351.393,82.031,-101.074,-79.590,80.078,-135.254
1678021351.397,76.660,-83.496,-73.242,86.426,-176.758
1678021351.401,75.195,-71.289,-73.730,97.656,-69.336
1678021351.405,84.473,-77.637,-73.242,86.914,-17.090
1678021351.409,81.543,-71.777,-70.312,81.055,-80.566
1678021351.413,73.242,-67.383,-70.312,73.730,-254.395
1678021351.417,74.707,-77.148,-72.754,83.008,-89.355
1678021351.421,86.426,-79.590,-80.566,94.238,216.797
1678021351.424,80.078,-73.730,-84.473,76.660,32.227
1678021351.428,64.453,-72.754,-80.566,67.383,-113.281
1678021351.432,70.312,-69.336,-79.102,63.477,-22.949
1678021351.436,74.219,-63.477,-74.707,74.219,43.945
1678021351.440,72.266,-65.430,-74.219,80.078,-26.855
1678021351.442,64.941,-68.359,-73.242,78.613,-92.285
1678021351.446,59.082,-74.707,-62.988,60.547,4.883
1678021351.450,59.082,-69.824,-60.547,48.828,32.227
1678021351.454,49.805,-55.176,-64.453,57.617,-85.449
1678021351.458,64.941,-56.152,-64.453,59.082,-101.562
1678021351.462,58.105,-61.523,-60.059,60.059,157.715
1678021351.466,34.668,-65.918,-57.617,62.988,325.195
1678021351.469,34.668,-64.941,-65.430,42.480,-89.844
1678021351.473,34.668,-65.430,-67.871,36.621,-263.184
1678021351.477,28.809,-63.477,-59.082,45.410,-64.941
1678021351.481,28.809,-55.664,-51.270,37.598,-39.062
1678021351.485,29.785,-56.641,-51.270,28.809,-119.141
1678021351.488,27.344,-71.289,-58.594,20.508,-121.582
1678021351.492,26.855,-75.684,-62.988,20.996,-111.328
1678021351.496,9.766,-56.641,-57.129,20.996,-81.543
1678021351.500,6.836,-43.457,-49.316,23.926,-118.652
1678021351.504,16.602,-41.992,-49.316,18.555,-5.859
1678021351.508,13.184,-41.992,-52.246,11.230,222.656
1678021351.512,7.812,-48.340,-53.711,10.742,36.621
1678021351.515,-3.906,-56.152,-55.664,8.301,-142.578
1678021351.519,0.488,-47.363,-50.781,20.996,-15.625
1678021351.523,2.930,-40.527,-48.340,25.879,86.914
1678021351.527,-4.883,-54.199,-46.875,0.000,-110.840
1678021351.531,3.418,-54.199,-41.504,3.418,-184.570
1678021351.545,10.254,-39.551,-41.992,12.695,-44.434
1678021351.549,-0.977,-41.992,-40.039,4.883,-43.457
1678021351.553,7.324,-41.504,-36.621,5.371,-43.945
1678021351.557,3.418,-43.457,-38.574,-4.883,-116.699
1678021351.561,-5.859,-44.434,-40.039,-11.719,81.055
1678021351.565,4.883,-32.715,-35.156,-6.836,355.469
1678021351.569,-0.977,-37.598,-30.762,0.488,67.383
1678021351.572,5.371,-47.363,-29.785,-2.441,-165.039
1678021351.576,9.277,-39.062,-28.809,-8.789,-15.137
1678021351.580,7.812,-29.297,-30.273,-1.465,39.551
1678021351.584,9.277,-32.227,-27.344,1.465,-154.297
1678021351.588,-3.906,-41.016,-32.227,-5.371,-98.633
1678021351.590,-10.254,-42.969,-36.621,-9.277,-45.898
1678021351.594,-1.465,-40.527,-27.832,-15.625,-123.047
1678021351.598,-2.441,-39.551,-25.879,-23.926,-205.566
1678021351.602,-17.090,-37.598,-32.715,-15.137,-113.281
1678021351.606,-19.043,-38.574,-32.715,-4.883,19.043
1678021351.610,-13.672,-32.227,-27.832,-3.906,-1.465
1678021351.614,-9.766,-34.668,-35.645,-27.344,-87.891
1678021351.617,-15.625,-37.109,-34.668,-32.227,19.043
1678021351.621,-26.367,-26.367,-29.785,-4.395,363.281
1678021351.625,-21.484,-33.691,-33.691,-4.883,205.078
1678021351.629,-28.809,-33.203,-31.250,-8.301,-40.039
1678021351.633,-30.273,-22.949,-27.832,-23.438,-20.508
1678021351.635,-15.625,-27.344,-24.414,-38.086,-51.270
1678021351.639,-20.020,-37.109,-22.949,-25.879,-84.473
1678021351.643,-20.996,-47.852,-24.902,-14.160,-7.812
1678021351.647,-20.020,-32.715,-28.809,-11.719,191.406
1678021351.651,-29.785,-19.043,-33.203,-34.668,137.207
1678021351.655,-23.926,-29.297,-35.645,-51.270,-83.496
1678021351.659,-30.762,-43.945,-41.016,-37.109,-95.215
1678021351.662,-46.387,-41.016,-41.016,-19.531,155.762
1678021351.666,-34.668,-31.738,-33.691,-13.672,224.121
1678021351.670,-29.785,-31.250,-34.668,-24.414,-85.449
1678021351.674,-36.621,-32.715,-30.762,-32.715,-211.426
1678021351.678,-28.809,-41.992,-28.320,-29.785,-110.840
1678021351.681,-35.645,-42.969,-33.203,-24.902,-109.863
1678021351.685,-32.227,-37.109,-28.809,-17.090,-154.297
1678021351.689,-22.949,-39.062,-25.391,-17.578,-107.910
1678021351.693,-31.250,-40.527,-28.809,-29.785,-112.305
1678021351.697,-42.480,-39.551,-27.832,-34.668,-145.020
1678021351.701,-50.293,-40.039,-27.344,-29.785,-84.473
1678021351.705,-39.551,-36.621,-31.250,-25.391,91.797
1678021351.708,-33.691,-39.551,-32.715,-35.645,227.051
1678021351.712,-44.922,-34.668,-33.691,-54.688,-11.230
1678021351.716,-42.480,-27.832,-34.668,-42.480,-210.938
1678021351.720,-41.504,-33.691,-37.109,-28.320,-110.840
1678021351.724,-41.992,-36.621,-38.574,-30.762,-17.090
1678021351.725,-36.621,-36.133,-35.645,-29.297,-60.547
1678021351.729,-34.180,-38.086,-33.203,-42.480,-232.910
1678021351.733,-29.297,-33.203,-28.809,-37.598,9.766
1678021351.737,-35.645,-37.109,-29.785,-21.484,280.762
1678021351.741,-34.668,-45.410,-36.621,-20.996,-18.555
1678021351.745,-34.668,-39.551,-38.574,-29.297,-64.941
1678021351.749,-34.668,-36.133,-34.180,-43.945,211.914
1678021351.752,-23.438,-34.180,-29.785,-45.410,184.082
1678021351.756,-21.484,-25.879,-27.344,-29.785,-145.020
1678021351.760,-23.438,-24.414,-28.809,-11.719,-151.855
1678021351.764,-32.227,-30.762,-26.367,-29.297,-102.051
1678021351.768,-35.645,-26.367,-23.926,-51.758,-168.945
1678021351.775,-29.297,-19.531,-22.461,-46.387,-301.270
1678021351.779,-27.344,-20.508,-23.926,-32.715,-166.016
1678021351.783,-36.621,-25.879,-26.855,-34.668,79.590
1678021351.787,-45.410,-31.250,-28.320,-51.270,-65.430
1678021351.791,-47.363,-33.691,-34.180,-61.523,-187.500
1678021351.795,-45.898,-27.832,-32.227,-61.523,5.371
1678021351.799,-46.387,-20.996,-22.949,-40.527,145.020
1678021351.802,-48.340,-23.438,-18.066,-40.039,-110.352
1678021351.806,-52.246,-23.926,-20.020,-44.434,-144.531
1678021351.810,-54.199,-15.625,-11.719,-58.594,56.152
1678021351.814,-53.223,-16.113,-7.812,-80.078,13.184
1678021351.818,-70.801,-17.578,-3.418,-86.914,-162.598
1678021351.830,-98.145,-4.883,11.719,-105.957,-117.188
1678021351.834,-120.117,-0.488,20.996,-132.324,-41.992
1678021351.838,-148.438,-1.465,33.203,-160.645,-72.266
1678021351.842,-183.105,7.812,45.410,-203.125,-119.141
1678021351.846,-204.102,17.578,62.012,-214.844,-103.027
1678021351.850,-229.980,23.926,67.383,-225.098,104.004
1678021351.854,-259.277,40.039,67.871,-243.164,467.773
1678021351.857,-275.879,42.480,75.684,-272.461,233.887
1678021351.861,-278.320,49.805,72.266,-298.828,-194.824
1678021351.865,-282.715,66.895,68.848,-285.645,-152.832
1678021351.869,-287.598,64.941,77.637,-274.902,-114.746
1678021351.873,-284.180,50.293,73.242,-284.668,-110.840
