timestamps,TP9,AF7,AF8,TP10,Right AUX
1678021261.500,-62.012,-44.922,-41.016,-46.387,-10.254
1678021261.504,-37.109,-21.484,-37.109,-48.340,-235.352
1678021261.508,-25.879,-25.879,-30.762,-23.438,-136.719
1678021261.512,-29.297,-40.039,-39.551,-4.883,-50.293
1678021261.516,-22.461,-26.855,-41.992,-18.066,-24.902
1678021261.520,-32.227,-16.602,-33.691,-54.688,-46.387
1678021261.524,-51.270,-27.832,-35.645,-75.684,-93.262
1678021261.527,-43.945,-33.203,-42.480,-50.293,136.719
1678021261.531,-38.086,-22.949,-34.668,-33.203,187.500
1678021261.535,-48.828,-24.414,-27.344,-38.574,-113.281
1678021261.539,-47.363,-32.227,-28.809,-50.293,-155.762
1678021261.543,-44.434,-30.762,-32.715,-53.711,-116.211
1678021352.068,55.664,-79.102,-70.312,74.219,-137.207
1678021352.072,62.012,-68.359,-68.848,77.148,-134.277
1678021352.076,65.430,-64.453,-74.219,73.242,-13.672
1678021352.080,67.871,-66.406,-69.824,67.871,70.801
1678021352.084,63.477,-64.453,-59.570,59.570,-80.566
1678021352.088,48.340,-65.430,-57.129,48.828,-219.238
1678021352.092,48.828,-63.477,-57.617,59.082,44.922
1678021352.095,52.246,-59.570,-52.734,74.707,227.539
1678021352.099,45.410,-57.617,-51.270,48.340,-54.199
1678021352.103,36.133,-54.199,-54.688,30.273,-171.875
1678021352.107,29.297,-50.781,-54.688,43.945,-85.449
1678021352.111,32.715,-49.316,-52.734,47.363,-68.848
1678021396.351,-25.391,-27.344,-39.062,-18.066,40.039
1678021396.355,-30.762,-34.180,-41.504,-40.527,-181.152
1678021396.359,-27.344,-36.133,-36.133,-47.852,-214.844
1678021396.363,-20.996,-35.645,-33.203,-29.297,4.395
1678021396.367,-25.879,-32.227,-36.133,-8.789,119.141
1678021396.371,-26.855,-34.180,-41.504,-9.277,6.348
1678021396.375,-24.902,-26.855,-41.992,-29.297,-22.461
1678021396.378,-28.320,-19.043,-39.551,-52.246,22.949
1678021396.382,-30.762,-27.344,-38.086,-43.945,135.742
1678021396.386,-33.691,-30.273,-35.156,-31.738,-31.738
1678021396.390,-34.180,-27.344,-33.203,-34.668,-90.332
1678021396.394,-32.715,-26.855,-35.156,-39.062,9.766
1678021396.396,-27.832,-28.320,-35.156,-48.340,-81.543
1678021396.400,-25.879,-35.156,-31.250,-47.852,-203.125
1678021396.404,-38.086,-34.668,-34.180,-27.832,-97.656
1678021396.408,-40.039,-29.785,-39.062,-22.461,0.000
1678021396.412,-35.645,-33.203,-40.039,-24.414,-105.469
1678021396.416,-28.809,-38.574,-37.598,-30.273,-207.031
1678021396.420,-26.855,-35.645,-38.574,-29.297,-53.223
1678021396.423,-33.691,-33.691,-43.457,-19.043,181.641
1678021396.427,-40.527,-41.016,-44.434,-32.227,62.012
1678021396.431,-39.062,-41.992,-43.457,-40.527,-115.234
1678021396.435,-25.879,-26.855,-41.016,-46.387,-108.398
1678021396.439,-41.016,-28.809,-43.945,-51.270,-130.371
1678021396.442,-49.805,-40.527,-48.340,-33.691,-108.887
1678021396.446,-34.180,-39.062,-46.875,-23.926,-103.027
1678021396.450,-37.598,-45.898,-43.457,-26.855,106.445
1678021396.454,-42.480,-35.645,-43.945,-41.016,159.180
1678021396.458,-38.086,-29.785,-45.410,-54.199,-143.555
1678021396.462,-42.480,-33.203,-52.246,-43.457,-165.527
1678021396.466,-38.574,-30.762,-51.270,-40.527,194.336
1678021396.469,-35.645,-26.855,-37.109,-38.574,433.594
1678021396.473,-35.645,-24.414,-38.086,-54.199,47.363
1678021396.477,-44.434,-30.762,-40.039,-62.012,-260.254
1678021396.481,-51.758,-42.480,-38.574,-42.969,-170.898
1678021396.485,-40.527,-36.133,-39.551,-33.203,-43.457
1678021396.487,-42.969,-31.738,-37.109,-33.691,-42.969
1678021396.491,-44.922,-51.270,-39.551,-52.246,-77.148
1678021396.495,-41.504,-40.039,-41.504,-62.988,-146.973
1678021396.499,-41.992,-16.113,-43.457,-41.016,-100.586
1678021396.503,-41.016,-16.113,-43.457,-26.855,-40.039
1678021396.507,-38.086,-23.926,-40.039,-32.227,-40.527
1678021396.511,-25.391,-18.555,-34.180,-26.367,263.672
1678021396.514,-24.902,-12.695,-25.391,-34.180,201.660
1678021396.518,-25.391,-13.184,-23.438,-35.156,-166.992
1678021396.522,-28.809,-12.695,-24.902,-25.391,-80.566
1678021396.526,-38.574,-7.324,-9.277,-27.344,15.137
1678021396.530,-57.129,-1.953,8.301,-55.664,-104.004
1678021396.530,-103.516,-4.395,-2.930,-109.375,-251.953
1678021396.534,-125.977,9.277,12.207,-118.652,-159.668
1678021396.538,-150.391,26.367,49.805,-135.254,0.488
1678021396.542,-190.918,31.250,64.453,-181.641,-36.133
1678021396.546,-226.074,31.250,72.266,-227.539,-187.988
1678021396.550,-251.465,43.945,79.590,-256.348,-35.645
1678021396.554,-260.742,64.453,90.820,-245.117,243.652
1678021396.557,-278.320,75.684,83.984,-263.672,68.848
1678021396.561,-273.438,79.590,81.055,-287.598,-71.777
1678021396.565,-260.254,83.496,89.844,-282.715,118.652
1678021396.569,-273.438,79.102,89.355,-295.898,58.105
1678021396.573,-289.551,61.523,83.496,-302.246,-175.781
1678021396.591,-269.531,64.453,81.543,-270.996,-91.309
1678021396.595,-252.441,64.453,77.148,-261.230,-50.781
1678021396.599,-261.230,56.152,65.918,-263.672,-49.316
1678021396.603,-256.836,58.105,59.082,-260.254,-146.973
1678021396.607,-231.934,56.152,54.688,-237.793,-151.855
1678021396.611,-203.125,44.922,41.504,-201.172,97.656
1678021396.615,-192.871,36.133,25.879,-187.500,130.859
1678021396.618,-182.129,27.344,13.184,-185.059,-81.543
1678021396.622,-150.391,24.414,5.371,-174.316,-123.535
1678021396.626,-137.207,20.508,0.000,-141.602,156.250
1678021396.630,-146.973,15.625,-11.230,-131.348,64.453
1678021396.634,-138.672,17.578,-20.020,-123.535,-155.273
1678021396.636,-110.352,7.812,-28.320,-110.352,-76.172
1678021396.640,-96.680,-3.418,-41.016,-109.375,-99.609
1678021396.644,-87.402,-15.137,-50.293,-89.355,-161.621
1678021396.648,-64.941,-35.645,-51.270,-64.941,-134.766
1678021396.652,-43.457,-42.480,-51.758,-33.691,109.863
1678021396.656,-23.926,-30.762,-51.270,-12.207,298.340
1678021396.660,-19.043,-32.715,-48.828,-33.203,-79.102
1678021396.663,-18.555,-59.082,-49.805,-30.762,-305.176
1678021396.667,-11.719,-59.570,-57.617,5.371,42.969
1678021396.671,-3.906,-45.410,-64.453,22.461,230.957
1678021396.675,9.766,-75.684,-63.965,18.555,25.391
1678021396.679,22.949,-91.309,-65.430,10.742,-77.148
1678021396.680,33.691,-80.078,-66.406,15.137,-132.812
1678021396.684,39.551,-62.012,-70.801,44.434,-123.535
1678021396.688,41.992,-49.805,-74.707,55.664,-111.816
1678021396.692,40.527,-54.688,-78.613,53.223,-62.012
1678021396.696,51.270,-64.941,-84.473,50.781,-30.273
1678021396.700,63.965,-73.242,-83.008,48.340,-54.199
1678021396.704,68.359,-74.707,-85.938,59.082,-41.992
1678021396.707,66.406,-82.520,-87.402,74.707,23.438
1678021396.711,65.430,-85.938,-83.496,83.496,230.469
1678021396.715,72.754,-80.078,-81.543,76.660,125.488
1678021396.719,68.848,-75.684,-83.496,66.406,-207.031
1678021396.723,74.219,-80.078,-85.938,75.195,-196.289
1678021396.728,83.984,-84.961,-85.449,74.219,-78.613
1678021396.732,71.777,-77.148,-87.402,68.359,-9.766
1678021396.736,60.059,-73.242,-88.379,64.453,-99.121
1678021396.740,62.012,-84.473,-82.520,59.082,-91.797
1678021396.744,70.312,-83.496,-74.707,76.660,59.570
1678021396.748,68.848,-77.637,-70.312,83.008,-52.734
1678021396.752,67.383,-87.891,-71.777,73.242,-94.727
1678021396.755,61.523,-92.773,-75.195,71.777,107.910
1678021396.759,56.152,-74.219,-76.660,61.523,72.266
1678021396.763,59.082,-61.523,-75.195,56.152,-196.289
1678021396.767,58.105,-68.359,-69.336,66.406,-145.020
1678021396.771,58.594,-68.848,-68.359,60.059,-23.926
1678021396.771,56.152,-63.965,-75.684,48.340,6.348
1678021396.775,48.340,-58.594,-71.289,32.227,-142.090
1678021396.779,35.645,-53.223,-57.617,28.320,-192.383
1678021396.783,42.969,-52.734,-55.664,42.969,36.621
1678021396.787,45.410,-60.059,-60.547,51.758,60.059
1678021396.791,29.785,-70.312,-63.477,41.016,-57.129
1678021396.795,19.531,-68.359,-61.523,29.297,-55.176
1678021396.798,13.184,-59.082,-62.012,32.715,173.828
1678021396.802,15.137,-60.059,-65.430,41.016,147.949
1678021396.806,17.090,-61.035,-57.617,41.992,-93.750
1678021396.810,15.137,-57.129,-55.176,26.367,-42.969
1678021396.814,18.066,-53.711,-53.711,18.066,-104.492
1678021396.816,17.578,-51.270,-54.688,21.973,-190.430
1678021396.820,12.695,-51.758,-65.918,22.949,-166.016
1678021396.824,16.602,-52.734,-62.012,31.250,76.660
1678021396.828,14.648,-52.246,-52.246,30.762,148.926
1678021396.832,14.160,-54.688,-50.293,13.672,-137.207
1678021396.836,15.137,-56.641,-47.852,1.465,-171.875
1678021396.840,11.719,-55.664,-50.293,25.391,83.496
1678021396.843,10.742,-57.617,-46.387,42.969,304.688
1678021396.847,0.488,-56.641,-43.945,20.508,45.410
1678021396.851,-2.441,-60.059,-48.340,-4.395,-125.977
1678021396.855,-3.906,-60.059,-49.805,-16.602,-125.488
1678021396.859,-1.465,-51.270,-45.898,2.441,-74.707
1678021396.877,3.906,-41.992,-41.504,22.949,-48.828
1678021396.881,-2.441,-32.227,-42.480,9.766,-90.820
1678021396.885,-6.836,-42.480,-41.992,-15.137,-108.398
1678021396.889,-4.395,-60.059,-42.969,-22.949,-146.484
1678021396.893,-3.418,-52.734,-45.898,-6.348,-127.930
1678021396.897,-6.348,-46.387,-38.086,3.418,45.898
1678021396.901,-6.348,-45.410,-34.668,5.371,276.367
1678021396.904,-5.859,-34.668,-36.621,-3.906,101.074
1678021396.908,-2.930,-33.203,-34.180,-18.066,-118.652
1678021396.912,2.930,-31.250,-38.086,-2.930,-0.977
1678021396.916,3.906,-33.691,-41.016,13.184,123.047
1678021396.920,0.977,-36.621,-40.527,5.371,2.930
1678021396.905,-4.883,-34.668,-36.621,-7.812,-101.562
1678021396.909,-8.789,-30.762,-35.645,-19.043,-146.973
1678021396.913,-8.789,-27.832,-37.109,-11.719,2.441
1678021396.917,-6.348,-33.691,-35.156,-2.441,41.016
1678021396.921,-9.277,-36.133,-34.668,-3.906,-85.449
1678021396.925,-17.090,-32.715,-32.227,-5.859,148.926
1678021396.929,-18.066,-35.156,-29.297,-20.996,143.555
1678021396.932,-19.531,-35.645,-30.762,-24.414,-166.504
1678021396.936,-12.695,-39.551,-29.785,0.488,-226.562
1678021396.940,-9.277,-41.504,-30.762,9.766,64.453
1678021396.944,-20.996,-34.668,-34.668,2.441,255.371
1678021396.948,-27.344,-31.738,-36.621,-26.367,-125.000
1678021396.973,-23.926,-28.320,-39.062,-27.832,-278.320
1678021396.977,-17.090,-26.855,-42.969,-10.254,-65.918
1678021396.981,-15.625,-32.715,-44.434,-12.207,-27.832
1678021396.985,-27.344,-32.715,-40.527,-25.879,-172.363
1678021396.989,-35.645,-40.527,-41.992,-41.504,-208.984
1678021396.993,-31.738,-52.246,-40.039,-34.668,-112.305
1678021396.997,-33.691,-48.828,-40.527,-22.461,-65.430
1678021397.000,-33.691,-41.992,-43.945,-14.648,-116.211
1678021397.004,-27.344,-38.574,-39.551,-20.996,-20.996
1678021397.008,-21.484,-30.762,-32.715,-41.992,87.402
1678021397.012,-20.508,-32.227,-27.344,-42.480,-95.703
1678021397.016,-30.762,-34.180,-25.391,-20.020,-168.945
1678021397.011,-37.598,-44.434,-30.762,-18.555,49.805
1678021397.015,-32.715,-43.945,-31.738,-27.832,107.910
1678021397.019,-29.297,-36.133,-28.809,-40.039,-8.301
1678021397.023,-29.297,-39.062,-32.715,-38.574,-194.824
1678021397.027,-26.855,-31.250,-30.273,-19.043,-39.551
1678021397.031,-24.902,-29.785,-29.297,-16.113,297.363
1678021397.035,-29.297,-38.574,-31.250,-15.625,85.449
1678021397.038,-30.762,-26.855,-28.809,-22.949,-157.227
1678021397.042,-32.227,-24.902,-33.203,-35.645,-53.223
1678021397.046,-33.691,-31.738,-36.621,-28.809,63.965
1678021397.050,-32.715,-16.113,-34.180,-20.996,-61.523
1678021397.054,-36.621,-17.578,-33.691,-22.949,-68.359
1678021397.055,-43.457,-39.551,-35.156,-43.945,-79.590
1678021397.059,-43.457,-36.133,-32.227,-54.688,-212.402
1678021397.063,-37.598,-28.809,-32.227,-37.109,-232.422
1678021397.067,-33.203,-27.832,-31.738,-23.438,-11.230
1678021397.071,-32.227,-14.648,-28.320,-25.879,63.965
1678021397.075,-44.922,-15.625,-20.020,-45.898,79.102
1678021397.079,-56.152,-17.090,-12.695,-68.848,-71.777
1678021397.082,-52.734,-8.301,-1.953,-62.988,-145.508
1678021397.086,-45.410,-6.836,1.953,-46.387,198.730
1678021397.090,-70.801,-4.883,12.207,-61.523,79.102
1678021397.094,-118.164,-1.465,20.020,-110.352,-217.773
1678021397.098,-138.672,8.789,35.156,-137.207,-164.062
1678021397.100,-161.621,17.578,58.105,-154.297,-134.766
1678021397.104,-182.129,26.855,73.730,-175.293,-172.363
1678021397.108,-203.613,27.344,82.031,-203.125,-106.934
1678021397.112,-228.027,32.227,86.426,-232.910,110.352
1678021397.116,-237.305,53.223,89.355,-254.883,68.359
1678021397.120,-249.023,65.430,85.938,-270.996,-111.328
1678021397.124,-267.090,60.547,87.402,-276.855,-72.266
1678021397.127,-274.902,61.035,88.867,-272.461,123.535
1678021397.131,-275.391,72.754,82.031,-276.855,277.344
1678021397.135,-270.508,73.242,83.008,-287.109,-11.719
1678021397.139,-264.160,66.895,82.520,-281.250,-206.055
1678021397.143,-256.348,65.430,71.777,-258.789,-138.672
1678021397.147,-251.465,61.523,68.359,-246.094,-157.227
1678021397.151,-245.605,57.129,64.941,-250.488,-168.457
1678021397.155,-229.980,53.711,55.176,-257.812,-139.160
1678021397.159,-223.633,51.758,56.641,-242.676,-151.367
1678021397.163,-228.027,49.805,54.199,-216.309,-112.305
1678021397.167,-214.844,46.387,41.504,-216.309,0.488
1678021397.171,-193.848,43.457,37.109,-208.984,48.828
1678021397.174,-184.082,40.039,34.668,-197.754,153.809
1678021397.178,-184.570,33.691,26.367,-189.941,43.945
1678021397.182,-173.340,39.062,19.043,-168.945,-161.133
1678021397.186,-149.414,29.297,13.672,-144.531,-15.137
1678021397.190,-135.742,9.766,4.395,-142.090,-0.977
1678021397.190,-130.371,17.578,-11.230,-147.461,-127.441
1678021397.194,-104.492,26.855,-22.949,-128.906,-181.152
1678021397.198,-78.613,23.438,-30.762,-95.703,35.645
1678021397.202,-83.984,6.836,-37.109,-73.730,86.426
1678021397.206,-76.660,-8.301,-36.621,-59.082,-78.613
1678021397.210,-47.363,-19.531,-38.574,-55.664,-71.289
1678021397.214,-41.016,-28.809,-44.922,-57.617,3.906
1678021397.217,-43.457,-41.016,-51.758,-31.250,177.734
1678021397.221,-27.344,-55.176,-57.617,-6.348,51.758
1678021397.225,-19.531,-58.594,-58.105,-0.488,-69.336
1678021397.229,-25.391,-53.223,-67.383,-14.648,-21.973
1678021397.233,-14.160,-60.059,-77.637,-19.531,-104.980
1678021397.252,5.371,-67.871,-81.543,16.113,-163.574
1678021397.256,9.277,-68.848,-81.543,27.344,-108.398
1678021397.260,16.113,-69.824,-81.543,28.320,-21.484
1678021397.264,36.133,-67.871,-87.402,34.180,-11.719
1678021397.268,38.086,-71.777,-87.891,16.602,-144.531
1678021397.272,35.645,-78.125,-86.426,34.668,-103.027
1678021397.276,52.246,-78.613,-86.426,62.988,225.586
1678021397.279,60.059,-84.961,-81.543,61.035,100.098
1678021397.283,65.430,-91.309,-77.637,63.965,-144.531
1678021397.287,63.965,-83.496,-82.031,49.805,-92.285
1678021397.291,59.570,-73.242,-85.938,59.570,-76.172
1678021397.295,71.777,-70.801,-83.496,89.355,-89.844
1678021397.282,77.148,-69.824,-79.590,86.914,-0.977
1678021397.286,72.754,-78.613,-84.961,73.242,114.258
1678021397.290,71.777,-83.984,-90.820,64.453,97.168
1678021397.294,68.848,-86.426,-88.867,65.430,-30.273
1678021397.298,74.707,-84.473,-85.938,90.820,-94.727
1678021397.302,82.520,-80.566,-86.914,97.168,135.254
1678021397.306,81.055,-78.125,-87.891,83.008,156.738
1678021397.309,72.754,-74.219,-89.355,63.477,-157.227
1678021397.313,64.941,-75.684,-89.355,55.664,-230.469
1678021397.317,72.754,-83.984,-85.938,85.449,90.820
1678021397.321,68.359,-82.520,-82.031,95.215,332.520
1678021397.325,54.688,-78.125,-83.008,68.359,9.277
1678021397.344,61.523,-75.195,-80.078,60.059,-242.676
1678021397.348,62.988,-68.848,-74.707,63.965,-189.453
1678021397.352,55.176,-70.312,-77.148,64.453,-79.590
1678021397.356,60.547,-65.430,-77.637,69.336,-51.758
1678021397.360,58.594,-71.777,-80.078,60.059,-117.188
1678021397.364,45.410,-79.102,-77.637,44.922,-7.324
1678021397.368,44.434,-67.383,-71.777,52.734,-17.578
1678021397.371,45.410,-61.523,-68.848,67.871,-198.242
1678021397.375,43.457,-59.082,-62.012,64.453,-81.055
1678021397.379,39.551,-61.035,-64.453,53.223,34.668
1678021397.383,35.645,-62.012,-66.895,34.180,-168.945
1678021397.387,32.227,-55.664,-65.430,23.926,-281.738
1678021397.385,25.391,-51.758,-65.430,41.992,-81.543
1678021397.389,23.926,-47.363,-64.453,44.434,106.445
1678021397.393,34.180,-60.547,-63.965,28.320,71.777
1678021397.397,27.344,-74.219,-63.965,11.719,-46.387
1678021397.401,19.531,-44.434,-62.012,13.184,21.973
1678021397.405,28.809,-32.715,-57.617,32.715,185.059
1678021397.409,25.879,-40.527,-54.199,34.668,27.832
1678021397.412,13.672,-47.852,-55.176,17.090,-86.426
1678021397.416,18.555,-55.176,-56.641,8.789,-33.203
1678021397.420,20.020,-46.387,-45.898,16.113,226.562
1678021397.424,9.766,-36.133,-43.457,18.555,102.539
1678021397.428,8.301,-48.828,-50.293,21.484,-162.598
1678021397.430,9.766,-55.176,-46.875,7.812,-83.496
1678021397.434,5.859,-45.898,-49.316,-10.254,-109.375
1678021397.438,3.418,-50.293,-47.852,-8.789,-236.816
1678021397.442,3.418,-59.082,-39.551,10.254,-177.246
1678021397.446,4.395,-54.199,-38.574,19.531,-63.477
1678021397.450,2.441,-48.340,-41.504,15.625,-11.719
1678021397.454,-0.977,-41.992,-39.551,4.883,-11.230
1678021397.457,-7.324,-45.410,-37.109,-14.648,-19.043
1678021397.461,-4.395,-52.734,-36.133,3.418,40.527
1678021397.465,-1.953,-41.504,-38.574,14.648,-39.062
1678021397.469,-3.906,-44.922,-41.016,0.488,-129.883
1678021397.473,-11.230,-60.547,-36.133,-5.371,-42.969
1678021397.476,-20.508,-60.547,-33.691,-14.648,12.207
1678021397.480,-13.672,-45.410,-39.062,-16.113,-178.711
1678021397.484,-15.625,-44.922,-45.898,-4.883,-116.699
1678021397.488,-24.414,-61.523,-46.387,-9.766,44.434
1678021397.492,-16.602,-51.758,-40.527,-12.207,355.469
1678021397.496,-9.766,-39.551,-40.039,-27.832,234.375
1678021397.500,-17.578,-44.434,-38.086,-31.250,-162.109
1678021397.503,-22.461,-63.965,-33.691,0.488,93.750
1678021397.507,-19.043,-66.895,-32.227,9.766,257.812
1678021397.511,-13.672,-25.879,-31.250,-9.766,40.039
1678021397.515,-15.137,-24.902,-37.109,-28.320,-101.562
1678021397.519,-29.785,-39.551,-35.156,-27.344,-170.410
1678021397.520,-20.508,-32.715,-29.785,-9.277,-131.836
1678021397.524,-7.812,-36.133,-35.645,-10.254,-170.898
1678021397.528,-11.719,-40.039,-34.180,-13.184,-154.297
1678021397.532,-13.672,-40.527,-34.668,-22.949,-118.652
1678021397.536,-16.602,-39.551,-38.574,-26.367,-231.934
1678021397.540,-13.184,-39.062,-38.574,-0.488,-121.094
1678021397.544,-15.137,-44.922,-40.039,-4.395,112.305
1678021397.547,-17.090,-43.457,-41.016,-9.277,276.367
1678021397.551,-19.531,-33.691,-38.086,-11.230,76.172
1678021397.555,-31.738,-32.715,-34.668,-21.973,-261.719
1678021397.559,-33.203,-36.621,-30.273,-13.184,-104.492
1678021397.563,-20.020,-44.922,-28.320,-8.789,-28.809
1678021397.566,-15.625,-53.711,-27.832,-8.301,-100.586
1678021397.570,-20.508,-44.922,-28.320,-18.066,-200.684
1678021397.574,-18.066,-32.715,-33.203,-25.879,-55.176
1678021397.578,-13.184,-35.156,-34.180,-3.418,226.074
1678021397.582,-9.277,-37.109,-31.250,10.742,-13.184
1678021397.586,-5.859,-32.227,-30.762,-1.465,-130.859
1678021397.590,-20.508,-32.227,-35.156,-10.254,152.344
1678021397.593,-16.602,-34.668,-35.645,-16.113,173.828
1678021397.597,-19.531,-39.062,-36.133,-18.066,-106.934
1678021397.601,-39.062,-38.574,-33.203,-6.836,-88.379
1678021397.605,-32.227,-39.062,-28.809,-10.254,-55.176
1678021397.609,-30.273,-40.527,-30.762,-26.367,-115.234
1678021397.633,-35.156,-39.062,-32.227,-45.898,-181.641
1678021397.637,-25.391,-37.109,-29.785,-32.715,-154.785
1678021397.641,-36.133,-37.109,-32.715,-16.113,52.246
1678021397.645,-44.434,-54.199,-39.551,-18.066,9.277
1678021397.649,-23.926,-62.500,-37.109,-27.344,-106.934
1678021397.653,-30.273,-44.434,-35.645,-44.922,-27.344
1678021397.657,-34.668,-31.738,-32.715,-26.367,210.938
1678021397.660,-35.645,-33.203,-34.668,-12.207,127.930
1678021397.664,-47.363,-33.691,-39.551,-27.832,-134.277
1678021397.668,-38.086,-31.250,-36.133,-31.250,-63.965
1678021397.672,-39.062,-38.086,-32.227,-41.016,-51.270
1678021397.676,-47.363,-39.062,-28.809,-44.922,-158.203
1678021397.655,-41.992,-30.273,-27.344,-25.879,-85.938
1678021397.659,-36.133,-33.691,-25.879,-18.555,19.531
1678021397.663,-33.203,-44.434,-26.855,-34.180,97.168
1678021397.667,-41.992,-38.086,-31.250,-50.781,-23.438
1678021397.671,-39.062,-31.250,-35.156,-48.340,-190.918
1678021397.675,-32.227,-39.551,-40.039,-24.902,81.055
1678021397.679,-32.715,-40.527,-39.551,-22.461,414.551
1678021397.682,-28.809,-34.180,-26.855,-33.203,112.305
1678021397.686,-27.344,-39.551,-23.926,-45.410,-247.559
1678021397.690,-34.180,-42.480,-29.785,-45.898,-27.344
1678021397.694,-40.039,-40.039,-30.273,-21.973,132.812
1678021397.698,-34.180,-32.715,-31.738,-19.531,-93.750
1678021397.715,-24.414,-33.203,-32.227,-24.902,-156.738
1678021397.719,-20.996,-32.227,-30.762,-38.574,-158.691
1678021397.723,-19.043,-22.949,-30.273,-38.574,-156.250
1678021397.727,-20.020,-31.250,-35.645,-25.879,-177.246
1678021397.731,-22.461,-36.133,-39.551,-23.438,-118.652
1678021397.735,-14.648,-33.691,-33.203,-32.715,45.898
1678021397.739,-18.555,-35.156,-29.785,-47.363,5.371
1678021397.742,-30.273,-28.320,-29.785,-53.711,-58.105
1678021397.746,-27.344,-19.531,-31.250,-42.480,-41.504
1678021397.750,-23.438,-29.785,-39.062,-18.066,219.238
1678021397.754,-28.809,-52.246,-41.504,-20.508,151.855
1678021397.758,-33.203,-45.898,-37.598,-44.922,-197.754
1678021397.760,-34.668,-23.438,-36.621,-66.406,-193.359
1678021397.764,-33.203,-24.902,-42.480,-52.246,-135.742
1678021397.768,-25.391,-32.715,-47.363,-31.250,-100.098
1678021397.772,-25.391,-38.574,-52.246,-40.039,-96.191
1678021397.776,-31.250,-37.598,-49.316,-42.969,43.945
1678021397.780,-42.969,-32.715,-41.992,-40.527,112.305
1678021397.784,-50.293,-35.156,-41.016,-37.109,-35.645
1678021397.787,-40.039,-34.668,-44.922,-30.762,-98.633
1678021397.791,-36.133,-37.109,-50.781,-36.133,23.438
1678021397.795,-49.316,-37.109,-44.922,-45.410,302.246
1678021397.799,-50.781,-32.227,-39.062,-56.152,23.438
1678021397.803,-49.316,-31.250,-38.574,-54.688,-192.383
1678021397.806,-45.410,-33.203,-37.598,-51.758,-128.418
1678021397.810,-45.898,-39.062,-38.086,-44.922,-101.562
1678021397.814,-57.617,-39.551,-35.156,-48.340,-148.438
1678021397.818,-49.316,-25.391,-28.320,-57.129,-241.699
1678021397.822,-45.410,-19.043,-26.367,-42.969,-210.449
1678021397.826,-54.199,-20.508,-19.531,-38.574,-35.645
1678021397.830,-54.199,-22.461,-14.160,-50.781,13.672
1678021397.833,-72.266,-20.996,-17.578,-76.172,-55.664
1678021397.837,-97.168,0.977,12.207,-92.773,61.523
1678021397.841,-118.164,15.625,35.645,-113.281,-61.035
1678021397.845,-145.996,16.113,42.480,-148.926,-187.988
1678021397.849,-176.270,19.043,59.570,-175.781,76.660
1678021397.850,-214.355,31.250,72.754,-212.891,110.352
1678021397.854,-251.953,35.156,83.008,-257.812,-208.008
1678021397.858,-265.625,44.434,94.238,-278.809,-237.793
1678021397.862,-263.184,61.523,103.516,-272.949,31.738
1678021397.866,-278.809,67.383,108.887,-274.414,122.070
1678021397.870,-282.715,59.570,100.586,-290.527,-32.227
1678021397.874,-278.809,62.988,86.914,-313.965,-80.078
1678021397.877,-281.738,72.754,87.402,-308.594,-4.883
1678021397.881,-274.414,69.336,82.031,-277.344,133.301
1678021397.885,-250.977,68.848,76.172,-264.160,-38.086
1678021397.889,-230.957,72.754,81.543,-251.465,-145.508
1678021397.893,-236.816,64.941,68.848,-259.277,-146.973
1678021397.898,-248.047,55.176,61.035,-264.648,-230.469
1678021397.902,-241.699,52.246,59.570,-245.117,-184.082
1678021397.906,-234.863,47.852,53.223,-225.098,-72.754
1678021397.910,-231.445,47.363,48.340,-217.285,50.781
1678021397.914,-211.426,47.852,41.504,-219.727,-7.812
1678021397.918,-196.289,28.320,38.574,-215.332,-128.418
1678021397.922,-185.547,15.137,35.156,-193.359,51.270
1678021397.925,-172.852,36.621,27.832,-151.367,257.812
1678021397.929,-168.457,43.945,16.602,-140.625,60.547
1678021397.933,-156.738,22.461,6.348,-150.879,-180.664
1678021397.937,-139.648,15.625,0.000,-138.672,-158.691
1678021397.941,-119.141,17.578,-8.789,-113.281,-88.379
1678021397.971,-92.773,0.000,-20.508,-83.496,-118.164
1678021397.975,-75.195,-9.277,-26.367,-79.102,-98.633
1678021397.979,-55.176,-18.555,-39.062,-64.453,8.789
1678021397.983,-40.527,-21.484,-63.477,-47.363,-34.668
1678021397.987,-29.785,-37.109,-67.871,-34.180,-76.172
1678021397.991,-4.883,-57.129,-66.895,-8.789,-37.109
1678021397.995,12.207,-42.969,-78.613,11.230,183.594
1678021397.998,16.113,-47.852,-82.031,28.809,403.320
1678021398.002,19.531,-52.246,-82.520,24.414,54.199
1678021398.006,31.250,-50.781,-82.520,30.273,-180.176
1678021398.010,50.293,-59.082,-87.402,58.105,-83.496
1678021398.014,71.777,-66.406,-94.727,75.684,-91.309
1678021397.985,80.078,-79.102,-92.773,68.359,-158.203
1678021397.989,78.125,-92.285,-91.309,62.500,-194.824
1678021397.993,83.496,-85.938,-94.238,91.309,-98.145
1678021397.997,90.820,-80.078,-93.750,104.004,-10.742
1678021398.001,93.750,-86.914,-97.168,95.703,-19.531
1678021398.005,97.168,-97.168,-103.027,108.887,43.457
1678021398.009,103.516,-88.867,-101.074,94.238,62.988
1678021398.012,97.168,-78.125,-99.609,89.355,3.906
1678021398.016,106.934,-87.891,-100.586,118.164,-145.020
1678021398.020,112.793,-92.773,-103.027,122.559,-92.285
1678021398.024,101.562,-89.844,-101.074,115.723,46.387
1678021398.028,103.027,-82.031,-92.773,102.539,-132.324
1678021398.035,106.934,-92.285,-88.379,97.168,-178.223
1678021398.039,109.375,-90.332,-86.914,116.211,-91.797
1678021398.043,106.934,-71.289,-89.844,128.906,271.973
1678021398.047,89.844,-75.684,-94.727,118.164,357.422
1678021398.051,73.730,-76.172,-92.773,89.844,-144.531
1678021398.055,80.566,-69.336,-91.309,79.590,-140.625
1678021398.059,86.426,-68.848,-87.891,94.727,76.172
1678021398.062,75.684,-78.125,-81.543,88.379,-41.016
1678021398.066,79.102,-69.336,-80.078,74.707,-99.121
1678021398.070,80.566,-59.570,-77.637,64.453,-47.363
1678021398.074,75.684,-67.871,-77.637,55.176,-142.090
1678021398.078,79.102,-67.871,-75.684,62.988,-152.832
1678021398.092,79.590,-67.383,-68.848,82.520,-70.312
1678021398.096,77.637,-70.801,-67.383,83.008,66.895
1678021398.100,74.219,-66.895,-63.477,55.176,25.391
1678021398.104,65.430,-64.941,-64.453,36.621,-241.699
1678021398.108,50.781,-69.824,-66.895,44.922,-205.566
1678021398.112,34.668,-67.871,-63.965,54.199,249.023
1678021398.116,36.133,-61.523,-65.430,44.922,317.871
1678021398.119,43.457,-60.547,-63.477,26.367,-77.637
1678021398.123,42.969,-63.477,-57.617,15.625,-143.555
1678021398.127,33.691,-67.383,-58.594,25.391,-46.875
1678021398.131,29.297,-65.430,-59.570,39.062,-52.246
1678021398.135,28.320,-61.035,-52.246,34.180,-95.215
1678021398.150,27.344,-62.012,-47.363,12.695,-22.461
1678021398.154,28.809,-63.477,-52.246,-3.906,-34.668
1678021398.158,14.160,-61.523,-54.199,5.859,-129.395
1678021398.162,7.324,-59.082,-54.199,17.090,-112.793
1678021398.166,19.043,-58.594,-51.270,16.602,-5.371
1678021398.170,15.625,-53.711,-46.875,9.766,15.137
1678021398.174,-1.465,-54.199,-52.246,-6.836,-81.055
1678021398.177,-6.348,-54.199,-50.781,-3.418,-163.574
1678021398.181,-0.488,-65.918,-40.527,26.855,36.133
1678021398.185,-0.977,-69.336,-39.062,28.320,314.941
1678021398.189,-4.883,-51.758,-43.945,-0.977,26.855
1678021398.193,-2.441,-54.199,-44.434,-12.695,-193.359
1678021398.180,-1.953,-49.805,-44.922,0.000,-38.574
1678021398.184,-0.488,-41.016,-43.945,15.137,63.477
1678021398.188,-0.977,-39.551,-40.039,13.184,-20.020
1678021398.192,-4.395,-41.016,-42.969,0.977,-60.547
1678021398.196,-13.184,-46.875,-41.992,-15.137,-107.422
1678021398.200,-24.902,-47.852,-33.691,-13.672,-106.934
1678021398.204,-20.020,-44.434,-28.809,4.395,-26.367
1678021398.207,-11.230,-44.434,-34.668,3.906,12.695
1678021398.211,-16.602,-43.457,-33.691,-1.953,-9.766
1678021398.215,-24.902,-44.922,-27.344,-16.602,-148.438
1678021398.219,-15.137,-42.969,-29.297,-17.578,-237.305
1678021398.223,-7.812,-34.668,-31.738,2.441,-88.867
1678021398.226,-19.043,-38.574,-33.203,5.371,201.660
1678021398.230,-17.090,-41.504,-31.738,-5.371,95.703
1678021398.234,-9.766,-32.227,-28.320,-23.438,-143.555
1678021398.238,-17.578,-31.738,-24.902,-21.973,-14.160
1678021398.242,-24.902,-39.062,-31.250,-6.836,185.059
1678021398.246,-32.715,-41.992,-25.879,-7.812,37.598
1678021398.250,-33.691,-52.734,-25.391,-21.973,-65.918
1678021398.253,-27.344,-54.199,-36.133,-32.715,47.363
1678021398.257,-36.133,-50.781,-35.645,-29.785,79.102
1678021398.261,-34.180,-48.828,-34.668,-10.254,-100.586
1678021398.265,-23.438,-36.621,-31.250,4.395,-149.902
1678021398.269,-26.855,-32.715,-31.738,-8.301,-118.652
1678021398.271,-29.297,-32.715,-32.227,-18.066,-196.777
1678021398.275,-26.367,-27.832,-32.227,-23.926,-248.047
1678021398.279,-32.227,-33.691,-35.156,-17.578,-153.809
1678021398.283,-33.691,-38.086,-35.156,-11.230,-79.590
1678021398.287,-26.855,-39.062,-33.691,-20.020,-103.516
1678021398.291,-28.320,-36.621,-31.250,-29.785,-45.410
1678021398.295,-33.691,-30.273,-26.367,-29.297,-64.453
1678021398.298,-33.203,-36.621,-27.344,-8.301,214.355
1678021398.302,-37.109,-37.598,-34.180,-7.812,295.898
1678021398.306,-40.527,-33.691,-32.715,-23.926,-77.637
1678021398.310,-35.645,-41.016,-31.738,-28.809,-141.602
1678021398.314,-31.738,-43.945,-32.715,-31.250,-174.316
1678021398.315,-28.320,-44.922,-34.668,-32.715,-184.082
1678021398.319,-31.738,-43.457,-34.668,-34.668,-145.508
1678021398.323,-23.438,-36.621,-30.762,-13.672,28.809
1678021398.327,-23.926,-32.715,-32.227,-23.926,93.750
1678021398.331,-47.852,-35.645,-33.691,-54.688,-164.062
1678021398.335,-48.340,-37.109,-29.297,-47.363,-184.082
1678021398.339,-41.016,-29.297,-29.785,-23.438,186.523
1678021398.342,-41.016,-23.926,-33.691,-16.602,245.117
1678021398.346,-35.645,-20.508,-25.391,-33.691,-49.805
1678021398.350,-35.645,-14.160,-15.137,-59.570,-157.227
1678021398.354,-53.711,-5.859,-14.160,-59.570,-13.184
1678021398.358,-63.965,0.488,-10.742,-57.129,84.473
1678021398.362,-75.684,10.742,0.000,-84.961,-84.961
1678021398.366,-105.957,10.742,12.695,-123.047,-129.395
1678021398.370,-147.461,14.648,26.855,-161.133,-168.457
1678021398.374,-178.711,29.297,41.992,-187.012,-197.266
1678021398.378,-207.031,39.062,53.223,-206.543,-185.547
1678021398.382,-228.516,41.016,67.383,-222.656,-49.316
1678021398.386,-250.977,45.898,84.473,-253.906,186.523
1678021398.389,-268.555,58.594,83.008,-275.879,19.043
1678021398.393,-272.461,81.543,84.961,-290.039,-244.141
1678021398.397,-281.738,75.684,91.797,-292.969,-153.809
1678021398.401,-293.945,64.453,83.008,-293.945,12.207
1678021398.405,-303.223,69.824,78.125,-312.500,20.508
1678021398.406,-295.410,74.707,85.449,-316.895,-122.070
1678021398.410,-288.086,70.312,87.402,-310.547,-86.426
1678021398.414,-275.879,71.777,84.473,-285.156,92.773
1678021398.418,-277.344,66.895,67.871,-274.902,13.184
1678021398.422,-262.695,55.664,57.617,-266.602,-74.219
1678021398.426,-241.699,71.777,58.594,-254.883,92.285
1678021398.430,-244.141,73.242,51.270,-259.766,271.973
1678021398.433,-236.816,57.129,43.457,-249.023,21.973
1678021398.437,-218.750,48.340,43.945,-222.656,-135.742
1678021398.441,-206.543,46.875,45.898,-216.797,-31.738
1678021398.445,-215.820,41.992,40.039,-229.492,-75.195
1678021398.449,-205.078,33.203,36.133,-217.285,-239.258
1678021398.454,-189.453,38.086,20.020,-195.312,-112.305
1678021398.458,-178.711,44.922,10.254,-186.523,80.078
1678021398.462,-155.762,29.785,13.672,-171.387,-29.785
1678021398.466,-151.855,22.949,13.184,-160.645,-186.035
1678021398.470,-158.691,21.484,8.301,-161.133,-197.266
1678021398.474,-147.949,16.113,-1.953,-150.879,-24.414
1678021398.478,-127.930,24.414,-8.301,-123.047,-20.508
1678021398.481,-99.121,29.785,-12.695,-88.379,-152.344
1678021398.485,-89.355,20.020,-21.973,-93.262,-108.398
1678021398.489,-97.168,4.395,-38.574,-116.699,36.621
1678021398.493,-86.914,-11.719,-40.039,-95.215,-92.285
1678021398.497,-66.406,-11.230,-36.133,-59.082,-151.855
1678021398.525,-55.664,-15.137,-43.945,-36.133,66.406
1678021398.529,-41.504,-31.738,-51.758,-42.969,39.062
1678021398.533,-24.414,-30.762,-51.270,-47.363,-65.918
1678021398.537,-29.297,-28.320,-54.688,-33.691,-79.102
1678021398.541,-24.414,-48.340,-58.105,-16.113,93.750
1678021398.545,-6.348,-49.316,-59.082,0.977,388.184
1678021398.549,1.465,-34.668,-62.988,2.441,220.215
1678021398.552,-3.418,-48.340,-63.965,-12.695,-101.562
1678021398.556,-0.977,-61.035,-67.383,-3.906,-67.383
1678021398.560,8.301,-74.707,-70.801,25.879,12.207
1678021398.564,16.602,-78.613,-72.266,23.438,-101.074
1678021398.568,17.090,-66.895,-66.406,21.484,-123.047
1678021398.586,14.648,-72.754,-68.359,18.066,-214.844
1678021398.590,29.785,-73.730,-74.219,32.227,-200.195
1678021398.594,39.062,-70.801,-67.871,53.223,-83.984
1678021398.598,46.875,-68.848,-64.453,60.059,-1.465
1678021398.602,58.105,-71.777,-66.406,67.383,6.836
1678021398.606,52.246,-82.031,-63.965,54.199,-59.082
1678021398.610,50.293,-83.984,-62.500,43.945,-82.031
1678021398.613,52.246,-83.496,-61.523,61.035,58.105
1678021398.617,50.293,-83.496,-54.199,80.078,98.145
1678021398.621,46.875,-76.172,-60.059,61.035,-19.043
1678021398.625,36.133,-63.965,-60.059,31.250,-87.891
1678021398.629,35.156,-58.105,-41.992,38.086,-92.285
1678021398.600,34.668,-51.758,-33.691,59.082,262.695
1678021398.604,19.043,-46.387,-35.645,45.898,270.996
1678021398.608,-10.742,-53.223,-22.949,4.395,14.160
1678021398.612,-30.273,-45.410,12.695,-28.320,78.613
1678021398.616,-66.406,-37.598,29.785,-72.754,10.742
1678021398.620,-110.840,-34.668,32.715,-103.027,-112.305
1678021398.624,-132.812,-20.996,38.086,-115.234,-50.781
1678021398.627,-143.066,-3.418,47.852,-136.230,1.465
1678021398.631,-154.297,7.324,43.457,-170.410,-45.410
1678021398.635,-168.945,16.113,32.715,-190.918,-210.938
1678021398.639,-173.340,31.250,41.504,-181.152,-249.023
1678021398.643,-178.223,33.691,35.156,-168.457,-30.762
1678021398.647,-174.316,17.578,29.785,-165.527,1.953
1678021398.651,-156.250,20.996,39.062,-170.410,-121.094
1678021398.655,-163.574,19.531,36.621,-183.105,-209.473
1678021398.659,-166.016,-3.418,26.855,-151.855,41.504
1678021398.663,-155.273,15.137,12.695,-121.582,228.027
1678021398.667,-155.273,35.645,-0.977,-138.672,-72.266
1678021398.671,-134.766,21.973,-1.465,-144.043,-60.059
1678021398.674,-101.074,2.441,-7.324,-113.770,154.785
1678021398.678,-82.031,-0.488,-23.438,-75.195,0.000
1678021398.682,-68.359,6.348,-35.156,-61.035,-223.145
1678021398.686,-58.594,-11.230,-34.668,-43.945,-39.551
1678021398.690,-36.133,-33.203,-38.086,-22.461,26.855
1678021398.690,-15.137,-18.555,-48.828,-20.508,-170.898
1678021398.694,-9.277,-17.578,-61.035,-10.742,-227.539
1678021398.698,-2.930,-52.734,-70.801,19.043,-0.488
1678021398.702,7.812,-49.316,-70.801,32.715,113.770
1678021398.706,31.250,-37.109,-71.777,32.227,-71.289
1678021398.710,49.805,-52.734,-74.219,29.785,-223.145
1678021398.714,45.898,-60.547,-72.754,44.434,-15.625
1678021398.717,45.898,-61.035,-74.707,79.102,367.676
1678021398.721,70.312,-61.523,-81.543,87.402,145.020
1678021398.725,87.402,-60.547,-85.938,84.473,-151.367
1678021398.729,80.566,-61.523,-84.961,78.613,-165.527
1678021398.733,83.008,-74.707,-85.938,87.891,-188.477
1678021398.750,100.586,-83.008,-87.891,110.840,-114.258
1678021398.754,114.258,-82.031,-89.844,112.305,-31.738
1678021398.758,127.441,-80.566,-96.680,117.676,51.758
1678021398.762,127.441,-79.102,-106.934,118.164,-41.504
1678021398.766,110.352,-88.867,-105.469,110.352,-199.219
1678021398.770,102.539,-93.750,-103.027,116.211,-134.277
1678021398.774,111.816,-87.891,-102.051,134.277,184.082
1678021398.777,118.164,-90.332,-104.492,132.812,122.559
1678021398.781,125.488,-79.590,-105.957,106.934,-165.527
1678021398.785,130.859,-72.266,-99.609,103.516,-156.250
1678021398.789,128.418,-77.637,-95.215,122.559,-98.633
1678021398.793,127.441,-78.613,-94.238,125.977,-72.266
1678021399.208,120.117,-94.238,-91.309,117.676,-84.961
1678021399.212,109.375,-95.703,-89.355,105.469,-79.590
1678021399.216,106.934,-73.242,-92.285,94.727,-132.324
1678021399.220,100.098,-69.824,-102.051,105.469,-64.453
1678021399.224,95.215,-74.707,-98.145,113.281,4.883
1678021399.228,92.773,-75.684,-86.426,105.957,140.625
1678021399.232,88.379,-77.148,-84.961,96.680,459.961
1678021399.235,95.215,-83.984,-83.008,83.008,141.602
1678021399.239,90.332,-94.238,-85.449,77.148,-201.172
1678021399.243,72.754,-97.656,-89.355,86.914,-71.777
1678021399.247,70.801,-84.961,-82.031,85.938,-21.973
1678021399.251,71.777,-68.848,-73.730,63.477,-117.676
1678021399.283,62.012,-69.336,-66.895,45.898,-251.465
1678021399.287,58.105,-71.289,-67.383,56.641,-161.621
1678021399.291,57.617,-66.895,-67.871,67.383,-10.742
1678021399.295,52.246,-67.871,-61.523,59.570,-47.363
1678021399.299,56.152,-72.754,-58.105,48.340,-96.191
1678021399.303,52.734,-76.172,-56.152,35.645,-68.848
1678021399.307,42.480,-72.754,-59.082,37.109,18.555
1678021399.310,41.504,-63.965,-62.988,48.340,19.531
1678021399.314,36.133,-65.918,-59.570,46.387,-62.012
1678021399.318,39.062,-61.523,-57.617,44.922,145.508
1678021399.322,33.691,-63.477,-60.547,21.484,31.250
1678021399.326,16.602,-71.777,-59.570,4.395,-265.137
1678021399.287,20.020,-57.129,-60.547,21.973,-65.430
1678021399.291,12.207,-56.641,-59.082,19.531,23.438
1678021399.295,5.859,-59.570,-52.246,9.277,-80.078
1678021399.299,5.371,-47.363,-46.875,0.000,-185.547
1678021399.303,7.324,-51.270,-45.898,1.953,-52.246
1678021399.307,12.207,-55.176,-45.898,18.066,141.113
1678021399.311,-3.906,-53.223,-41.504,18.555,2.930
1678021399.314,0.000,-57.617,-43.457,6.348,-77.637
1678021399.318,2.441,-46.387,-43.945,-4.883,-21.973
1678021399.322,-8.789,-42.480,-41.992,6.348,112.305
1678021399.326,-9.277,-51.758,-43.945,10.254,-58.105
1678021399.330,-3.906,-54.199,-42.480,2.441,-130.859
1678021399.289,0.000,-45.898,-38.574,-1.953,-158.691
1678021399.293,-10.742,-43.457,-36.621,-19.531,-220.215
1678021399.297,-16.113,-51.270,-37.598,-25.879,-253.418
1678021399.301,-16.113,-46.387,-35.156,-6.348,-197.754
1678021399.305,-20.020,-49.316,-35.156,-6.836,-57.129
1678021399.309,-21.484,-53.223,-33.691,-15.625,58.594
1678021399.313,-25.391,-43.457,-35.156,-20.020,22.949
1678021399.316,-22.461,-44.922,-32.227,-29.297,-89.355
1678021399.320,-17.578,-55.664,-31.738,-11.230,168.457
1678021399.324,-23.926,-54.688,-35.156,-3.418,175.781
1678021399.328,-25.879,-41.016,-30.762,-14.648,-64.453
1678021399.332,-22.461,-36.621,-26.367,-20.996,-12.207
1678021399.294,-20.508,-39.062,-28.809,-18.066,-42.480
1678021399.298,-17.090,-40.527,-27.344,-4.883,-135.254
1678021399.302,-18.555,-40.039,-21.484,-7.324,-122.070
1678021399.306,-24.902,-39.551,-23.438,-13.672,-2.441
1678021399.310,-20.508,-48.828,-25.879,-17.578,32.227
1678021399.314,-22.461,-54.199,-28.320,-33.203,-180.176
1678021399.318,-28.809,-35.645,-24.902,-20.020,-118.652
1678021399.321,-14.648,-26.855,-18.555,2.441,176.270
1678021399.325,-14.160,-36.133,-21.484,-0.977,205.078
1678021399.329,-23.926,-35.645,-28.809,-26.367,-104.980
1678021399.333,-22.461,-26.855,-29.297,-50.781,-207.031
1678021399.337,-18.555,-31.250,-25.391,-34.668,-130.859
1678021399.299,-20.508,-35.645,-22.461,-12.207,-20.020
1678021399.303,-23.926,-33.691,-20.508,-12.207,-37.109
1678021399.307,-21.973,-35.645,-24.902,-20.508,-99.609
1678021399.311,-21.484,-34.180,-29.785,-25.879,-114.258
1678021399.315,-25.391,-27.832,-24.414,-13.184,-155.273
1678021399.319,-21.973,-27.344,-21.973,-11.230,-111.328
1678021399.323,-15.625,-30.273,-24.414,-17.090,-83.496
1678021399.326,-8.301,-37.109,-30.762,-20.508,91.797
1678021399.330,-9.766,-38.574,-29.785,-32.227,34.180
1678021399.334,-21.973,-31.250,-21.973,-28.320,-237.793
1678021399.338,-23.438,-33.203,-25.879,-23.438,-120.605
1678021399.342,-23.926,-37.109,-30.273,-29.785,-7.324
1678021399.301,-29.785,-33.203,-31.250,-24.414,-115.723
1678021399.305,-23.438,-27.832,-27.832,-34.180,-201.660
1678021399.309,-20.020,-34.180,-26.855,-44.434,-65.430
1678021399.313,-29.297,-44.434,-33.691,-20.996,82.031
1678021399.317,-22.949,-30.762,-35.645,-11.230,17.578
1678021399.321,-14.648,-20.996,-32.715,-20.508,-23.926
1678021399.325,-23.438,-30.762,-26.855,-31.738,46.387
1678021399.328,-28.809,-36.133,-28.809,-14.160,281.250
1678021399.332,-40.039,-38.086,-39.551,-9.277,222.168
1678021399.336,-42.480,-35.156,-38.574,-23.926,-2.930
1678021399.340,-31.250,-38.086,-34.668,-30.273,-61.523
1678021399.344,-35.645,-46.875,-37.598,-47.852,-176.270
1678021399.305,-31.738,-32.715,-39.551,-46.875,-203.125
1678021399.309,-21.973,-30.273,-36.621,-25.879,-148.926
1678021399.313,-19.531,-43.457,-34.668,-17.578,-55.664
1678021399.317,-19.043,-37.109,-38.574,-25.879,-79.590
1678021399.321,-25.391,-30.273,-37.109,-32.715,-154.785
1678021399.325,-21.973,-25.391,-28.809,-27.832,-90.332
1678021399.329,-20.020,-28.809,-30.273,-21.484,74.707
1678021399.332,-29.785,-34.180,-31.250,-17.578,-12.207
1678021399.336,-27.344,-38.086,-29.785,-19.043,-139.648
1678021399.340,-26.855,-26.855,-29.297,-33.203,-193.848
1678021399.344,-28.320,-26.855,-27.344,-34.668,60.059
1678021399.348,-27.344,-42.480,-28.809,-21.973,138.672
1678021399.308,-31.738,-37.109,-28.809,-22.461,-107.422
1678021399.312,-32.227,-34.668,-32.715,-26.855,-115.234
1678021399.316,-37.109,-41.992,-35.645,-39.062,-56.641
1678021399.320,-34.668,-36.133,-29.785,-48.340,-111.328
1678021399.324,-28.320,-31.738,-26.855,-40.527,-208.008
1678021399.328,-16.113,-25.391,-28.320,-20.508,92.285
1678021399.332,-21.973,-23.438,-32.715,-15.137,373.047
1678021399.335,-31.250,-27.832,-30.762,-34.180,128.906
1678021399.339,-30.762,-20.996,-17.090,-48.340,-190.430
1678021399.343,-34.180,-7.812,-7.324,-38.086,-40.527
1678021399.347,-46.387,-8.789,-3.418,-33.203,71.289
1678021399.351,-59.082,-10.742,4.883,-49.805,-115.723
1678021399.314,-83.008,-1.953,8.301,-85.938,-195.801
1678021399.318,-108.887,2.930,20.020,-117.188,-174.805
1678021399.322,-133.301,11.230,36.133,-128.906,-114.258
1678021399.326,-162.109,24.902,39.551,-158.691,-121.582
1678021399.330,-190.430,30.762,56.152,-195.801,-92.773
1678021399.334,-225.586,41.504,72.266,-230.469,-32.715
1678021399.338,-260.254,48.340,83.984,-270.508,-44.922
1678021399.341,-279.297,51.758,94.727,-287.109,-145.996
1678021399.345,-278.320,72.754,89.844,-281.738,-132.812
1678021399.349,-277.344,86.426,80.078,-276.855,296.387
1678021399.353,-297.363,73.242,81.543,-302.734,220.215
1678021399.357,-297.852,69.824,89.355,-329.590,-239.258
1678021399.318,-292.480,83.008,84.961,-306.152,-174.805
1678021399.322,-288.086,83.984,80.566,-283.691,-46.387
1678021399.326,-280.762,68.359,74.219,-291.992,53.223
1678021399.330,-272.461,49.316,64.941,-288.574,5.859
1678021399.334,-258.301,55.664,61.523,-265.625,-0.488
1678021399.338,-243.164,73.730,52.246,-242.676,217.285
1678021399.342,-224.609,69.824,33.691,-229.980,64.941
1678021399.345,-207.520,55.176,24.902,-201.660,-167.480
1678021399.349,-191.895,41.992,23.438,-173.340,31.250
1678021399.353,-166.992,35.645,14.648,-177.734,120.605
1678021399.357,-145.020,35.645,8.301,-172.852,-170.898
1678021399.361,-119.141,29.785,-1.953,-130.371,-129.883
1678021399.324,-99.121,9.277,-17.578,-96.680,125.977
1678021399.328,-100.586,-10.254,-27.832,-101.074,65.430
1678021399.332,-86.426,-12.207,-34.668,-100.586,-134.766
1678021399.336,-65.430,-24.414,-35.645,-76.660,-199.219
1678021399.340,-58.105,-34.668,-41.504,-48.828,-57.129
1678021399.344,-36.133,-36.133,-48.828,-18.066,64.453
1678021399.348,-12.695,-52.734,-47.852,-6.348,45.410
1678021399.351,-8.789,-48.828,-46.387,-19.043,-26.855
1678021399.355,-9.766,-35.645,-51.270,-0.977,48.828
1678021399.359,0.488,-43.945,-58.594,25.391,-1.953
1678021399.363,24.902,-55.176,-63.477,29.297,-123.047
1678021399.367,29.297,-65.918,-73.242,34.668,-6.836
1678021399.352,30.273,-69.824,-71.289,35.156,-92.773
1678021399.356,33.691,-66.895,-69.336,35.645,-250.488
1678021399.360,29.785,-71.289,-76.660,46.875,-165.527
1678021399.364,47.852,-72.266,-77.637,65.430,113.281
1678021399.368,66.406,-59.082,-75.684,83.008,248.047
1678021399.372,73.242,-62.988,-74.707,80.078,14.160
1678021399.376,75.195,-68.848,-73.730,59.570,-167.480
1678021399.379,67.383,-64.941,-79.102,72.754,25.391
1678021399.383,70.801,-75.195,-82.520,95.215,176.270
1678021399.387,81.055,-86.914,-82.520,88.867,-33.203
1678021399.391,79.590,-82.031,-78.613,86.914,-168.945
1678021399.395,75.684,-76.172,-77.637,80.078,-202.148
1678021399.396,81.055,-73.730,-82.520,79.102,-176.270
1678021399.400,88.867,-69.336,-83.984,94.238,-137.207
1678021399.404,87.402,-79.590,-83.008,97.168,-107.910
1678021399.408,77.148,-78.125,-84.961,83.496,-121.582
1678021399.412,78.613,-71.777,-85.449,66.895,-156.250
1678021399.416,74.219,-78.125,-82.031,65.918,-66.406
1678021399.420,66.406,-73.730,-81.055,76.660,17.090
1678021399.423,66.406,-76.172,-85.938,85.938,271.484
1678021399.427,65.918,-78.125,-92.285,73.242,224.121
1678021399.431,58.594,-74.219,-87.891,44.922,-176.758
1678021399.435,48.340,-71.777,-79.102,38.086,-159.180
1678021399.439,52.246,-78.125,-75.684,52.246,-54.688
1678021399.440,55.176,-82.031,-73.730,51.758,-59.082
1678021399.444,50.781,-58.105,-73.730,38.574,-106.934
1678021399.448,45.410,-48.340,-75.195,30.762,12.695
1678021399.452,32.227,-64.453,-73.730,30.762,107.910
1678021399.456,32.227,-63.477,-68.359,38.574,-47.363
1678021399.460,30.273,-61.523,-64.453,42.480,-30.273
1678021399.464,26.855,-68.848,-61.523,48.828,145.508
1678021399.467,32.715,-56.152,-62.988,24.902,221.680
1678021399.471,31.250,-55.176,-61.523,16.602,-96.191
1678021399.475,27.832,-58.105,-54.688,41.504,-258.301
1678021399.479,28.320,-55.664,-51.758,45.898,36.133
1678021399.483,32.227,-58.594,-53.711,39.551,155.762
1678021399.505,31.250,-61.523,-56.641,14.160,-171.875
1678021399.509,16.602,-62.012,-53.223,15.137,-263.184
1678021399.513,7.324,-51.758,-51.758,33.691,-106.445
1678021399.517,-1.953,-53.711,-47.852,32.227,-61.035
1678021399.521,-9.766,-72.266,-45.410,26.367,-89.355
1678021399.525,0.488,-63.477,-46.875,16.113,-57.129
1678021399.529,6.348,-36.133,-42.969,8.301,149.902
1678021399.532,0.488,-37.109,-41.992,6.836,127.930
1678021399.536,-9.277,-49.805,-49.316,11.230,-129.395
1678021399.540,-8.789,-53.711,-52.246,9.766,7.812
1678021399.544,-4.395,-56.641,-48.340,-9.277,79.102
1678021399.548,-9.766,-66.895,-49.316,-22.949,-178.711
1678021399.530,-13.672,-61.035,-46.875,-12.695,-239.258
1678021399.534,-9.766,-49.805,-43.457,10.254,14.648
1678021399.538,-5.859,-57.129,-47.852,15.137,176.758
1678021399.542,-7.324,-46.875,-50.293,-10.742,-13.672
1678021399.546,-16.113,-41.504,-46.387,-23.926,-227.539
1678021399.550,-15.137,-40.039,-45.410,-4.883,-67.383
1678021399.554,-10.742,-46.875,-43.945,8.301,406.250
1678021399.557,-16.602,-65.918,-43.457,-1.465,282.227
1678021399.561,-22.949,-53.223,-42.969,-21.973,-143.555
1678021399.565,-21.484,-35.645,-38.086,-31.250,-226.074
1678021399.569,-21.973,-39.551,-36.621,-18.066,-205.566
1678021399.573,-20.996,-44.434,-38.086,-5.859,-58.105
1678021399.578,-15.137,-39.551,-34.180,-1.953,-30.273
1678021399.582,-9.766,-29.785,-33.691,-10.742,-10.254
1678021399.586,-11.719,-27.344,-36.133,-23.926,-99.609
1678021399.590,-17.090,-29.297,-37.598,-18.066,-202.637
1678021399.594,-10.254,-36.133,-42.480,-7.812,-169.922
1678021399.598,-20.020,-39.551,-43.457,-7.812,-26.367
1678021399.602,-38.086,-38.574,-44.434,-22.461,63.477
1678021399.605,-40.527,-43.945,-43.945,-44.922,-164.551
1678021399.609,-37.109,-50.293,-39.551,-38.086,-180.176
1678021399.613,-32.227,-50.293,-39.551,-14.160,30.273
1678021399.617,-21.973,-44.434,-35.156,-11.719,-57.617
1678021399.621,-24.414,-44.434,-33.203,-28.809,-202.637
1678021399.636,-35.156,-43.457,-36.133,-50.781,-141.602
1678021399.640,-36.621,-41.504,-40.039,-37.109,108.398
1678021399.644,-41.504,-40.527,-46.387,-22.461,122.559
1678021399.648,-38.574,-38.574,-43.457,-30.273,-40.527
1678021399.652,-26.855,-39.551,-41.016,-24.902,55.664
1678021399.656,-26.855,-41.016,-45.410,-26.855,205.078
1678021399.660,-34.668,-31.250,-46.387,-29.785,-21.484
1678021399.663,-32.715,-35.645,-44.922,-22.949,-144.043
1678021399.667,-27.832,-41.992,-43.457,-19.043,33.203
1678021399.671,-30.273,-32.715,-44.434,-18.555,87.402
1678021399.675,-27.344,-28.809,-44.922,-28.320,-181.152
1678021399.679,-28.320,-28.320,-44.434,-30.273,-260.254
1678021399.695,-31.250,-24.902,-39.551,-12.695,-138.184
1678021399.699,-26.855,-23.926,-38.086,-3.906,-62.988
1678021399.703,-26.855,-37.598,-38.574,-15.625,-100.098
1678021399.707,-26.855,-43.457,-40.039,-33.203,-61.035
1678021399.711,-25.879,-25.879,-42.969,-41.504,-44.434
1678021399.715,-30.762,-27.832,-44.922,-30.273,-81.543
1678021399.719,-38.086,-37.598,-45.410,-22.949,-25.391
1678021399.722,-33.203,-41.504,-39.551,-21.484,15.625
1678021399.726,-33.691,-41.992,-38.574,-23.438,156.738
1678021399.730,-41.504,-45.410,-36.621,-43.945,77.637
1678021399.734,-41.016,-47.852,-40.039,-45.898,-142.578
1678021399.738,-41.016,-36.621,-41.504,-29.297,-13.672
1678021399.725,-37.598,-26.855,-33.203,-23.438,-39.062
1678021399.729,-34.180,-24.902,-33.203,-37.109,-184.082
1678021399.733,-36.621,-28.809,-37.598,-51.758,-186.523
1678021399.737,-31.250,-41.992,-31.738,-32.227,37.598
1678021399.741,-29.785,-51.270,-28.320,-16.113,134.277
1678021399.745,-40.039,-33.203,-35.156,-30.273,-16.602
1678021399.749,-37.109,-26.367,-35.645,-37.109,-43.457
1678021399.752,-30.273,-41.504,-33.203,-45.898,19.531
1678021399.756,-32.715,-34.668,-35.645,-37.109,-70.312
1678021399.760,-34.668,-18.555,-37.109,-13.672,-175.781
1678021399.764,-38.574,-28.320,-33.691,-24.414,-161.621
1678021399.768,-36.621,-37.109,-34.668,-25.879,62.012
1678021399.772,-34.668,-29.785,-39.062,-20.996,172.363
1678021399.776,-31.250,-24.902,-40.039,-27.832,-137.695
1678021399.780,-28.320,-36.133,-40.527,-16.602,-147.461
1678021399.784,-32.227,-38.086,-48.828,-17.090,-80.078
1678021399.788,-32.715,-32.715,-47.363,-25.391,-116.699
1678021399.792,-34.180,-39.551,-37.598,-36.621,-53.711
1678021399.796,-40.527,-40.527,-39.551,-45.898,3.418
1678021399.799,-43.945,-28.320,-39.062,-25.879,190.918
1678021399.803,-40.039,-24.414,-34.180,-20.508,144.531
1678021399.807,-30.273,-26.855,-32.715,-38.574,-104.492
1678021399.811,-36.133,-31.250,-36.133,-46.875,-146.484
1678021399.815,-44.434,-35.645,-41.504,-42.480,-77.637
1678021399.815,-39.551,-34.180,-41.992,-29.297,-89.355
1678021399.819,-38.086,-31.250,-37.598,-27.344,-50.781
1678021399.823,-38.574,-29.785,-27.344,-27.832,158.691
1678021399.827,-35.645,-30.273,-28.809,-44.434,118.164
1678021399.831,-39.062,-40.039,-35.645,-55.176,-122.559
1678021399.835,-40.039,-37.109,-33.203,-44.922,-67.871
1678021399.839,-40.527,-28.809,-34.180,-34.668,197.754
1678021399.842,-41.992,-32.227,-38.086,-28.809,398.438
1678021399.846,-43.457,-24.414,-28.809,-49.316,25.391
1678021399.850,-65.918,-23.438,-25.879,-85.938,-298.340
1678021399.854,-91.309,-10.254,-25.879,-93.262,-178.711
1678021399.858,-103.027,10.254,-6.836,-89.844,-109.863
1678021399.863,-122.559,15.137,20.508,-114.746,-136.719
1678021399.867,-160.156,18.555,30.762,-174.805,-170.410
1678021399.871,-192.871,29.297,45.410,-214.844,-172.363
1678021399.875,-221.191,34.668,72.266,-223.145,-51.270
1678021399.879,-250.000,40.527,85.938,-234.375,-45.898
1678021399.883,-270.996,68.848,91.797,-262.207,-34.180
1678021399.887,-284.668,90.332,101.562,-293.945,198.730
1678021399.890,-302.734,82.031,102.051,-318.848,25.879
1678021399.894,-311.035,69.336,91.797,-319.824,-170.898
1678021399.898,-308.594,73.242,91.309,-305.176,-6.348
1678021399.902,-310.059,82.031,85.449,-304.199,30.273
1678021399.906,-301.270,80.566,77.148,-309.082,-129.395
1678021399.907,-295.410,79.102,79.590,-311.035,-209.473
1678021399.911,-291.992,76.172,81.543,-291.504,34.180
1678021399.915,-265.625,66.406,68.359,-270.508,158.203
1678021399.919,-266.113,48.340,54.199,-282.227,-66.406
1678021399.923,-269.043,52.734,51.758,-276.367,-153.809
1678021399.927,-256.348,71.289,52.734,-279.785,43.457
1678021399.931,-257.324,61.523,52.246,-277.832,351.074
1678021399.934,-245.117,53.223,46.387,-251.953,115.234
1678021399.938,-224.609,30.273,38.574,-232.910,-154.785
1678021399.942,-221.680,12.695,33.691,-228.516,-83.008
1678021399.946,-215.820,47.363,32.715,-227.539,-218.262
1678021399.950,-205.566,67.383,21.484,-215.332,-330.078
1678021399.953,-199.707,59.570,9.277,-194.824,-195.312
1678021399.957,-173.340,49.805,1.953,-172.852,-100.586
1678021399.961,-153.320,37.109,-7.324,-155.762,-63.477
1678021399.965,-158.203,30.762,-8.301,-167.969,-55.664
1678021399.969,-146.484,30.273,-20.508,-157.715,-139.160
1678021399.973,-121.582,23.926,-25.391,-99.609,154.297
1678021399.977,-99.609,4.883,-17.578,-77.637,281.250
1678021399.980,-91.797,12.207,-19.043,-97.656,-65.918
1678021399.984,-73.242,20.508,-31.250,-93.262,-124.023
1678021399.988,-68.848,6.836,-39.062,-88.379,-25.391
1678021399.992,-81.055,4.883,-43.457,-71.777,-89.844
1678021399.996,-57.617,-1.953,-50.293,-45.898,-125.000
1678021400.026,-28.809,-18.066,-58.594,-36.621,-27.344
1678021400.030,-20.020,-12.695,-57.617,-33.691,-89.355
1678021400.034,-8.301,-31.738,-54.688,-20.020,-156.250
1678021400.038,13.672,-60.547,-58.105,12.695,-106.934
1678021400.042,23.438,-56.641,-57.129,33.203,37.109
1678021400.046,26.367,-49.805,-68.359,36.133,244.141
1678021400.050,26.855,-57.617,-74.219,26.367,-24.902
1678021400.053,36.133,-72.754,-66.406,32.227,-210.938
1678021400.057,51.758,-69.336,-67.383,67.871,51.758
1678021400.061,64.941,-68.848,-82.031,99.121,434.082
1678021400.065,70.312,-92.285,-83.008,88.867,209.473
1678021400.069,67.871,-104.492,-72.266,71.289,-148.926
1678021400.055,78.125,-87.891,-73.242,89.355,-14.648
1678021400.059,94.238,-93.750,-71.289,118.652,73.730
1678021400.063,97.656,-101.562,-73.730,126.465,-71.777
1678021400.067,99.121,-90.332,-82.031,131.348,-131.836
1678021400.071,99.121,-97.656,-83.008,116.211,-162.598
1678021400.075,94.238,-108.887,-85.449,102.539,-237.305
1678021400.079,103.516,-95.703,-86.426,125.000,-133.301
1678021400.082,114.258,-95.703,-89.355,135.254,53.711
1678021400.086,105.957,-108.398,-87.402,126.953,94.238
1678021400.090,95.215,-102.051,-85.938,118.652,-95.215
1678021400.094,99.609,-98.633,-91.797,102.051,-261.230
1678021400.098,107.422,-95.703,-91.309,110.840,-152.832
1678021400.101,111.328,-92.285,-88.379,140.625,229.980
1678021400.105,112.793,-91.309,-86.914,137.695,204.590
1678021400.109,110.840,-93.750,-83.984,104.492,-44.922
1678021400.113,109.375,-94.238,-79.102,90.332,-32.227
1678021400.117,102.051,-84.961,-84.473,108.398,1.953
1678021400.121,100.098,-97.168,-84.473,116.211,-17.578
1678021400.125,92.285,-108.398,-79.590,92.773,-77.148
1678021400.128,78.613,-90.820,-76.660,87.891,75.684
1678021400.132,74.219,-92.285,-78.125,85.449,106.445
1678021400.136,73.730,-85.938,-84.961,79.102,-123.535
1678021400.140,67.383,-83.496,-80.566,95.215,-46.875
1678021400.144,60.059,-87.891,-77.637,89.355,86.914
1678021400.145,63.965,-75.684,-81.055,64.941,-52.734
1678021400.149,59.082,-73.730,-76.172,44.434,-209.961
1678021400.153,57.129,-81.055,-72.266,38.086,-173.340
1678021400.157,62.988,-83.496,-68.848,55.664,-69.336
1678021400.161,62.012,-79.102,-63.477,61.523,-62.988
1678021400.165,61.523,-79.590,-67.383,56.641,-14.648
1678021400.169,45.898,-74.707,-67.871,41.504,-14.160
1678021400.172,26.367,-67.383,-59.082,44.922,30.762
1678021400.176,31.250,-69.824,-62.500,63.477,11.230
1678021400.180,36.621,-67.871,-66.406,58.105,-82.520
1678021400.184,37.109,-62.012,-60.059,57.129,-30.762
1678021400.188,36.621,-61.035,-62.500,42.969,-104.492
1678021400.192,32.227,-57.129,-62.988,30.273,-157.227
1678021400.196,21.973,-58.594,-58.105,46.875,-131.836
1678021400.200,23.926,-60.059,-57.129,52.246,100.586
1678021400.204,22.949,-61.035,-49.316,55.176,314.941
1678021400.208,21.484,-60.547,-42.480,33.203,-35.156
1678021400.212,22.949,-49.805,-42.969,4.395,-299.805
1678021400.216,17.090,-48.828,-48.340,20.508,40.039
1678021400.219,17.090,-56.641,-49.805,35.645,256.348
1678021400.223,21.484,-57.129,-47.363,20.508,-36.621
1678021400.227,15.137,-61.523,-41.016,3.906,-202.148
1678021400.231,14.160,-52.246,-38.574,0.977,-183.594
1678021400.235,12.695,-37.598,-41.504,16.602,-157.227
1678021400.237,6.836,-39.551,-45.410,17.578,-154.785
1678021400.241,6.348,-43.457,-41.016,15.625,-134.277
1678021400.245,10.254,-48.340,-38.574,14.648,-117.188
1678021400.249,5.859,-52.246,-38.574,-0.488,-127.441
1678021400.253,-1.465,-53.711,-37.598,0.000,-96.680
1678021400.257,-2.930,-44.434,-42.969,7.812,-12.695
1678021400.261,10.254,-38.086,-41.504,14.160,276.855
1678021400.264,8.789,-40.039,-39.062,15.137,213.867
1678021400.268,-5.859,-38.574,-41.016,-14.648,-179.199
1678021400.272,-5.859,-30.273,-38.086,-8.789,-207.520
1678021400.276,-5.859,-29.785,-36.133,12.207,-111.328
1678021400.280,-18.555,-39.062,-38.086,-1.953,-84.473
1678021400.290,-26.855,-44.434,-38.574,-19.531,-144.531
1678021400.294,-20.020,-52.734,-39.551,-22.949,-181.641
1678021400.298,-14.648,-56.152,-39.062,-13.184,-73.242
1678021400.302,-25.391,-43.457,-33.691,-7.812,-34.180
1678021400.306,-47.363,-37.598,-41.992,-15.625,-133.301
1678021400.310,-50.781,-43.457,-46.387,-29.785,54.199
1678021400.314,-39.062,-45.410,-40.039,-38.574,315.918
1678021400.317,-31.738,-43.945,-38.086,-40.527,98.633
1678021400.321,-21.973,-43.457,-33.203,-25.391,-145.508
1678021400.325,-20.508,-41.992,-34.180,-0.488,7.812
1678021400.329,-21.973,-39.062,-39.551,-20.020,41.016
1678021400.333,-26.367,-41.504,-43.945,-53.223,-187.500
1678021400.331,-34.180,-41.992,-43.457,-33.203,-222.168
1678021400.335,-37.109,-35.645,-33.203,-8.789,-113.770
1678021400.339,-32.227,-37.109,-30.762,-16.113,-45.898
1678021400.343,-30.762,-63.477,-31.250,-24.902,-125.000
1678021400.347,-39.062,-47.852,-31.250,-38.086,-151.855
1678021400.351,-41.504,-15.137,-33.203,-34.668,-11.719
1678021400.355,-36.621,-21.484,-30.762,-19.531,16.602
1678021400.358,-31.738,-35.156,-29.785,-18.066,-40.039
1678021400.362,-28.320,-39.551,-34.180,-26.367,27.832
1678021400.366,-32.227,-44.922,-38.574,-36.133,1.953
1678021400.370,-41.504,-42.480,-36.621,-36.621,-149.902
1678021400.374,-43.457,-35.156,-37.109,-23.926,-142.090
1678021400.386,-36.621,-33.691,-36.133,-12.207,40.527
1678021400.390,-27.832,-28.809,-36.621,-12.695,117.188
1678021400.394,-35.645,-68.848,-40.527,-22.461,-57.617
1678021400.398,-41.016,-59.082,-34.668,-41.016,-175.293
1678021400.402,-36.133,-4.883,-33.203,-25.879,-48.340
1678021400.406,-32.227,-13.672,-35.156,-2.930,380.859
1678021400.410,-28.809,-19.043,-31.250,-8.789,594.238
1678021400.413,-25.879,-23.926,-31.738,-28.809,139.160
1678021400.417,-31.250,-33.691,-28.320,-37.598,-236.328
1678021400.421,-34.180,-40.527,-21.973,-19.531,-164.062
1678021400.425,-27.832,-41.016,-30.273,-21.973,-129.395
1678021400.429,-23.438,-32.715,-37.598,-22.949,-169.922
1678021400.431,-24.414,-38.086,-35.156,-18.066,-91.797
1678021400.435,-41.992,-45.898,-38.086,-37.109,-107.910
1678021400.439,-40.527,-36.133,-37.109,-33.691,-173.828
1678021400.443,-30.762,-35.645,-34.668,-19.531,-114.258
1678021400.447,-30.762,-44.434,-34.180,-17.578,-61.035
1678021400.451,-34.668,-44.434,-34.180,-27.344,-34.180
1678021400.455,-34.668,-41.504,-32.715,-44.922,-181.641
1678021400.458,-30.762,-37.109,-35.156,-41.504,-177.734
1678021400.462,-29.297,-33.691,-38.574,-19.531,114.258
1678021400.466,-21.484,-20.020,-27.832,-19.043,57.617
1678021400.470,-25.391,-9.766,-18.066,-40.527,-184.082
1678021400.474,-22.461,-4.395,-14.648,-45.410,-160.156
1678021400.475,-19.043,4.883,-0.977,-40.527,-143.066
1678021400.479,-53.711,4.395,-7.324,-64.453,-134.766
1678021400.483,-79.590,2.930,-9.766,-86.914,-68.359
1678021400.487,-96.191,24.902,19.531,-113.770,47.852
1678021400.491,-141.113,47.852,32.227,-160.645,144.531
1678021400.495,-194.336,38.574,45.410,-205.078,4.883
1678021400.499,-221.680,40.527,58.105,-223.145,-51.758
1678021400.502,-233.887,60.547,78.125,-233.887,147.461
1678021400.506,-268.555,61.035,93.262,-269.531,249.512
1678021400.510,-284.668,65.430,91.309,-300.293,-20.996
1678021400.514,-292.969,79.590,94.727,-305.664,-182.129
1678021400.518,-288.086,84.961,95.215,-293.945,-94.238
1678021400.523,-289.062,77.637,80.566,-301.270,-1.953
1678021400.527,-297.852,69.336,81.055,-318.359,-77.148
1678021400.531,-279.297,69.824,96.680,-316.406,-129.883
1678021400.535,-285.156,77.637,83.008,-302.734,-77.637
1678021400.539,-293.457,69.336,66.406,-298.828,-84.473
1678021400.543,-285.645,57.617,73.242,-294.434,-2.441
1678021400.547,-283.203,60.547,74.707,-275.879,29.297
1678021400.550,-265.137,65.918,72.754,-264.160,142.090
1678021400.554,-251.953,56.152,72.266,-267.578,61.035
1678021400.558,-244.629,41.504,62.500,-253.906,-160.645
1678021400.562,-232.422,40.527,47.363,-229.980,-54.688
1678021400.566,-220.215,48.340,45.898,-222.656,18.555
1678021400.565,-203.613,43.457,46.875,-222.656,-93.750
1678021400.569,-187.988,41.504,40.039,-209.473,-225.586
1678021400.573,-193.848,39.062,27.344,-183.594,-10.742
1678021400.577,-182.129,16.602,18.555,-160.156,75.684
1678021400.581,-157.227,3.418,15.625,-149.902,-94.238
1678021400.585,-148.438,13.184,6.348,-161.621,-128.906
1678021400.589,-126.465,15.625,0.977,-146.484,1.953
1678021400.592,-101.074,8.301,-6.836,-86.426,348.145
1678021400.596,-84.473,7.812,-20.020,-63.477,168.945
1678021400.600,-58.105,-32.715,-35.156,-58.105,-113.770
1678021400.604,-50.293,-52.246,-48.340,-50.293,-123.535
1678021400.608,-47.363,-24.414,-52.734,-54.688,-169.922
1678021400.627,-30.762,-32.227,-52.246,-33.691,-147.949
1678021400.631,-15.137,-54.688,-51.270,-7.324,-84.961
1678021400.635,-2.930,-59.082,-60.059,2.930,-140.137
1678021400.639,3.418,-60.059,-72.754,3.906,-177.246
1678021400.643,3.418,-51.758,-73.730,-0.488,-233.398
1678021400.647,20.996,-52.734,-72.754,17.578,-167.969
1678021400.651,37.109,-69.824,-82.031,48.340,140.137
1678021400.654,28.809,-74.707,-86.914,57.617,158.203
1678021400.658,36.621,-76.660,-90.820,48.340,-95.215
1678021400.662,51.270,-79.590,-91.309,41.504,-185.547
1678021400.666,53.711,-80.078,-88.379,60.059,-25.391
1678021400.670,59.082,-80.566,-88.867,76.660,12.695
1678021400.655,70.801,-82.520,-95.703,79.102,-69.336
1678021400.659,87.402,-83.496,-100.586,82.520,-68.359
1678021400.663,97.168,-92.285,-101.074,74.707,-96.680
1678021400.667,83.008,-93.262,-104.492,75.684,-119.629
1678021400.671,79.590,-85.449,-105.957,96.680,-57.617
1678021400.675,91.797,-82.520,-103.516,99.609,147.949
1678021400.679,93.262,-83.496,-101.074,90.820,188.965
1678021400.682,87.402,-94.238,-96.680,79.102,-26.367
1678021400.686,87.891,-96.680,-92.285,83.496,-137.695
1678021400.690,93.262,-87.402,-92.773,97.168,95.703
1678021400.694,95.703,-94.727,-93.750,104.492,489.746
1678021400.698,87.402,-88.867,-88.867,90.820,265.625
1678021400.729,76.660,-72.266,-90.332,63.477,-145.020
1678021400.733,69.336,-75.684,-92.773,65.430,-197.266
1678021400.737,67.383,-83.984,-89.844,83.984,-91.797
1678021400.741,68.848,-91.309,-89.844,87.402,-32.227
1678021400.745,70.801,-72.754,-87.402,76.660,-59.082
1678021400.749,63.477,-61.035,-86.426,56.641,21.484
1678021400.753,52.246,-71.777,-87.402,51.270,-14.648
1678021400.756,57.129,-73.730,-85.938,70.312,-127.930
1678021400.760,63.965,-74.219,-83.984,74.219,-6.348
1678021400.764,61.523,-73.730,-77.148,69.336,185.059
1678021400.768,54.199,-67.871,-73.730,55.664,8.301
1678021400.772,45.898,-69.336,-72.266,38.086,-110.840
1678021400.760,46.875,-77.637,-74.707,46.875,58.594
1678021400.764,49.805,-80.566,-76.660,65.430,66.406
1678021400.768,52.246,-65.430,-75.684,56.152,-62.500
1678021400.772,50.781,-53.711,-75.684,33.691,-145.996
1678021400.776,43.945,-57.129,-69.336,30.273,-93.750
1678021400.780,41.504,-59.570,-68.359,45.898,-39.062
1678021400.784,38.086,-62.012,-72.266,50.293,-62.500
1678021400.787,23.926,-57.617,-70.312,36.133,-105.469
1678021400.791,17.578,-53.711,-60.547,33.203,-51.758
1678021400.795,26.855,-60.059,-56.152,20.508,-36.133
1678021400.799,28.320,-54.688,-55.664,18.555,-210.449
1678021400.803,25.391,-52.246,-52.734,38.574,-199.707
1678021400.807,19.043,-53.711,-60.059,48.340,90.820
1678021400.811,16.602,-51.758,-68.848,31.250,139.648
1678021400.815,17.090,-41.504,-60.547,7.812,-132.812
1678021400.819,13.672,-47.852,-59.082,15.625,-158.203
1678021400.823,18.555,-54.199,-60.547,30.762,-33.203
1678021400.827,8.789,-41.504,-54.688,25.879,-8.301
1678021400.831,4.883,-41.016,-56.152,19.043,-75.684
1678021400.834,13.184,-41.016,-54.688,2.930,-141.602
1678021400.838,4.883,-53.711,-51.758,3.418,18.066
1678021400.842,-4.883,-50.293,-54.688,16.602,103.027
1678021400.846,-3.906,-44.434,-52.246,11.719,-49.805
1678021400.850,-9.766,-52.246,-52.734,2.930,-41.016
1678021400.850,-9.766,-40.039,-57.129,-13.672,-94.727
1678021400.854,-9.277,-41.992,-54.199,-4.395,-125.000
1678021400.858,-11.719,-50.293,-43.945,9.766,-38.574
1678021400.862,-9.766,-42.480,-41.504,3.418,134.766
1678021400.866,-13.184,-39.551,-44.922,-1.953,269.531
1678021400.870,-15.625,-39.062,-41.992,-18.066,4.395
1678021400.874,-18.066,-41.992,-42.969,-23.926,-157.715
1678021400.877,-17.578,-40.527,-45.410,-6.348,49.316
1678021400.881,-19.531,-33.203,-44.434,12.207,304.199
1678021400.885,-21.484,-31.738,-45.898,0.000,26.855
1678021400.889,-22.949,-41.504,-41.504,-14.160,-217.285
1678021400.893,-24.902,-48.828,-36.621,-12.207,-159.668
1678021400.897,-21.973,-56.152,-41.504,-9.766,-88.867
1678021400.901,-27.344,-59.570,-52.246,-9.277,-68.848
1678021400.905,-20.996,-51.758,-49.316,-17.090,-104.980
1678021400.909,-13.184,-42.480,-41.992,-31.250,-149.414
1678021400.913,-16.113,-42.480,-41.992,-30.273,-199.707
1678021400.917,-16.602,-46.875,-39.551,-14.160,-42.969
1678021400.921,-11.230,-34.668,-42.480,-1.465,17.578
1678021400.924,-16.602,-30.273,-44.922,0.488,286.133
1678021400.928,-30.762,-39.062,-45.898,-14.160,289.551
1678021400.932,-33.691,-37.598,-46.387,-27.344,-174.805
1678021400.936,-33.203,-32.227,-41.016,-24.902,-168.457
1678021400.940,-23.926,-40.527,-41.992,-19.531,-35.645
1678021400.971,-23.926,-41.992,-47.852,-33.203,-14.160
1678021400.975,-23.438,-40.527,-44.922,-43.945,-95.215
1678021400.979,-21.484,-34.668,-41.504,-41.016,-9.766
1678021400.983,-26.855,-31.250,-46.387,-36.621,119.141
1678021400.987,-13.672,-29.785,-45.898,-18.555,-50.293
1678021400.991,-9.766,-20.508,-48.828,-11.230,-118.164
1678021400.995,-18.555,-27.832,-49.316,-24.414,117.676
1678021400.998,-22.461,-30.273,-38.086,-29.785,250.977
1678021401.002,-28.809,-25.391,-33.203,-21.484,-55.664
1678021401.006,-25.391,-23.438,-32.715,-13.672,-120.605
1678021401.010,-23.438,-20.996,-34.668,-23.438,25.391
1678021401.014,-32.227,-28.809,-33.203,-37.598,-56.152
1678021401.035,-36.621,-33.203,-31.250,-41.992,-174.805
1678021401.039,-38.574,-30.762,-33.203,-33.691,-145.508
1678021401.043,-42.969,-31.250,-36.133,-17.578,-0.977
1678021401.047,-42.480,-30.762,-40.527,-13.672,-10.742
1678021401.051,-41.016,-26.367,-42.480,-27.832,-142.578
1678021401.055,-30.762,-16.113,-39.551,-39.551,-136.230
1678021401.059,-25.391,-29.297,-38.574,-36.133,15.137
1678021401.062,-31.738,-41.016,-39.062,-27.832,-17.090
1678021401.066,-34.180,-31.738,-39.062,-22.461,-163.574
1678021401.070,-28.320,-25.391,-40.527,-27.344,-100.586
1678021401.074,-33.691,-25.391,-39.062,-45.898,-90.820
1678021401.078,-40.039,-34.180,-34.668,-40.039,-131.836
1678021401.063,-35.645,-24.902,-37.598,-23.438,-117.676
1678021401.067,-28.809,-20.508,-36.621,-21.484,-22.461
1678021401.071,-27.344,-26.855,-32.227,-21.973,221.191
1678021401.075,-25.391,-21.973,-31.738,-39.062,10.254
1678021401.079,-28.809,-22.461,-36.133,-39.062,-223.633
1678021401.083,-34.180,-41.016,-36.133,-25.879,2.441
1678021401.087,-23.926,-30.762,-32.715,-18.555,67.871
1678021401.090,-17.578,-11.719,-31.738,-20.020,-103.516
1678021401.094,-21.973,-22.949,-36.621,-39.062,-171.875
1678021401.098,-27.832,-32.715,-38.086,-38.086,-97.168
1678021401.102,-33.203,-29.785,-37.109,-27.832,-53.711
1678021401.106,-35.645,-26.855,-33.203,-28.809,-39.551
1678021401.155,-31.738,-25.391,-34.180,-28.809,-63.965
1678021401.159,-25.391,-21.484,-39.551,-34.180,-157.715
1678021401.163,-24.902,-19.531,-36.621,-35.156,-151.855
1678021401.167,-29.297,-26.367,-39.551,-26.367,-135.742
1678021401.171,-29.785,-40.039,-43.945,-26.367,-173.828
1678021401.175,-30.762,-40.039,-39.062,-24.902,154.297
1678021401.179,-31.250,-28.809,-40.039,-29.297,498.047
1678021401.182,-33.691,-28.320,-46.387,-51.270,36.621
1678021401.186,-38.574,-32.227,-42.969,-48.828,-247.070
1678021401.190,-32.227,-29.297,-39.551,-25.879,-23.438
1678021401.194,-24.902,-19.043,-39.062,-21.484,-29.297
1678021401.198,-19.043,-25.879,-37.598,-37.109,-183.594
1678021401.159,-24.902,-33.691,-36.621,-53.711,-234.375
1678021401.163,-35.156,-32.227,-39.551,-37.109,126.953
1678021401.167,-39.551,-25.879,-35.156,-27.344,302.246
1678021401.171,-42.480,-16.602,-31.738,-41.016,-6.348
1678021401.175,-25.391,-14.160,-19.043,-37.109,-16.602
1678021401.179,-33.691,-5.371,1.465,-48.828,228.516
1678021401.183,-73.242,-8.301,-8.301,-76.660,58.105
1678021401.186,-64.941,-5.371,14.160,-66.406,-143.555
1678021401.190,-85.938,25.391,29.297,-92.285,-55.664
1678021401.194,-140.625,29.785,20.996,-152.832,-76.172
1678021401.198,-171.387,25.879,35.645,-189.941,-188.477
1678021401.202,-199.219,56.152,68.359,-212.891,-195.801
1678021401.171,-235.352,61.035,93.262,-240.234,-68.359
1678021401.175,-274.902,51.270,89.844,-271.973,-49.316
1678021401.179,-279.297,62.012,96.191,-282.715,-132.812
1678021401.183,-277.344,78.613,103.027,-306.641,-218.750
1678021401.187,-290.527,78.613,106.445,-305.664,42.480
1678021401.191,-302.246,72.754,107.910,-293.945,279.297
1678021401.195,-303.711,55.176,103.516,-303.711,3.418
1678021401.198,-281.250,68.359,98.145,-296.875,-6.836
1678021401.202,-275.391,73.242,103.027,-310.059,-45.898
1678021401.206,-281.250,42.969,97.656,-305.664,-245.605
1678021401.210,-270.508,47.852,80.078,-276.855,-242.188
1678021401.214,-266.113,63.477,71.289,-268.555,-111.816
1678021401.227,-268.555,53.711,64.453,-259.277,-33.203
1678021401.231,-238.281,52.734,53.223,-243.652,-172.852
1678021401.235,-213.867,57.617,42.480,-239.258,-196.289
1678021401.239,-199.219,41.016,37.598,-199.707,29.297
1678021401.243,-175.293,23.926,20.508,-157.715,419.922
1678021401.247,-151.855,38.574,3.418,-147.461,399.902
1678021401.251,-119.629,38.574,-8.301,-145.508,-89.355
1678021401.254,-87.891,-2.930,-18.555,-115.234,-55.664
1678021401.258,-83.496,-3.906,-26.855,-78.613,175.293
1678021401.262,-86.914,17.090,-35.645,-77.637,27.832
1678021401.266,-69.824,5.859,-38.086,-71.777,-93.262
1678021401.270,-52.734,-17.578,-41.504,-59.570,-104.492
1678021401.288,-40.039,-36.133,-46.875,-47.852,-178.711
1678021401.292,-14.160,-39.551,-58.594,-14.160,-231.445
1678021401.296,-3.418,-47.852,-63.477,9.766,-122.070
1678021401.300,13.184,-72.266,-63.477,15.137,-54.688
1678021401.304,17.090,-74.707,-68.848,17.578,-136.230
1678021401.308,12.695,-67.871,-70.801,21.484,-184.082
1678021401.312,24.414,-75.684,-75.684,39.551,-179.199
1678021401.315,27.344,-83.496,-77.148,61.035,177.246
1678021401.319,40.039,-80.566,-76.660,73.730,255.371
1678021401.323,48.828,-78.125,-85.938,53.711,-156.738
1678021401.327,53.223,-81.543,-90.332,39.062,-198.730
1678021401.331,54.688,-88.379,-87.891,62.500,-69.824
1678021401.346,59.570,-88.867,-91.309,73.730,-88.379
1678021401.350,78.613,-85.938,-92.773,72.754,-130.371
1678021401.354,75.195,-93.750,-96.680,74.707,41.992
1678021401.358,62.012,-105.469,-98.145,67.383,25.879
1678021401.362,69.824,-96.680,-97.168,75.684,-158.203
1678021401.366,76.172,-81.055,-101.074,101.562,-100.586
1678021401.370,65.918,-78.613,-98.633,100.098,99.609
1678021401.373,65.430,-77.637,-95.215,81.543,94.238
1678021401.377,70.312,-85.449,-97.168,69.336,-161.621
1678021401.381,63.965,-83.008,-95.215,68.848,-214.355
1678021401.385,71.777,-72.754,-89.355,94.238,35.156
1678021401.389,75.684,-84.473,-89.844,104.492,415.039
1678021401.423,72.754,-82.520,-88.379,68.848,193.848
1678021401.427,64.453,-65.430,-87.891,47.363,-140.625
1678021401.431,57.617,-64.941,-90.820,56.641,-55.664
1678021401.435,58.105,-69.824,-87.891,67.383,-9.277
1678021401.439,57.617,-72.266,-85.449,69.824,-129.395
1678021401.443,54.688,-72.754,-80.566,64.453,-73.242
1678021401.447,53.711,-71.777,-75.195,36.621,3.418
1678021401.450,48.828,-79.102,-74.219,22.461,-91.309
1678021401.454,45.410,-77.148,-70.801,45.898,-164.062
1678021401.458,46.387,-67.383,-70.801,63.477,-80.566
1678021401.462,40.039,-62.012,-69.824,46.387,0.000
1678021401.466,28.809,-62.988,-66.406,23.926,-136.230
