timestamps,TP9,AF7,AF8,TP10,Right AUX
1678020562.418,-45.410,-30.273,-33.203,-53.711,-156.250
1678020562.422,-46.875,-35.156,-33.203,-50.781,-132.324
1678020562.426,-34.668,-34.180,-32.715,-50.781,-140.137
1678020562.430,-29.297,-25.879,-39.062,-52.734,-174.316
1678020562.434,-30.762,-26.367,-48.340,-52.734,-70.801
1678020562.438,-25.391,-28.809,-47.363,-48.340,-5.859
1678020562.442,-32.715,-27.832,-41.016,-45.898,-91.309
1678020562.445,-63.965,-31.250,-42.480,-50.781,-88.867
1678020562.449,-65.918,-32.715,-46.387,-48.828,108.887
1678020562.453,-61.035,-28.809,-41.992,-32.715,329.102
1678020562.457,-76.660,-41.992,-37.598,-35.645,101.074
1678020562.461,-76.660,-39.551,-41.016,-49.805,-113.281
1678020562.463,-61.523,-28.809,-41.504,-25.879,-0.977
1678020562.467,-61.035,-27.832,-32.715,12.695,-8.301
1678020562.471,-73.730,-26.367,-33.691,-11.719,-157.227
1678020562.475,-76.172,-30.762,-41.992,-76.660,-168.945
1678020562.479,-74.219,-38.086,-42.480,-79.590,-126.953
1678020562.483,-73.242,-43.945,-40.039,-63.965,-68.848
1678020562.487,-78.613,-43.457,-41.504,-55.176,28.320
1678020562.490,-73.730,-39.551,-44.434,-54.199,-45.898
1678020562.494,-71.777,-32.715,-43.457,-61.035,92.773
1678020562.498,-65.918,-31.738,-43.457,-55.664,109.863
1678020562.502,-48.828,-33.691,-46.387,-40.527,-104.492
1678020562.506,-48.828,-28.809,-37.109,-36.621,-50.293
1678020562.509,-62.012,-33.691,-31.250,-43.945,10.742
1678020562.513,-58.105,-39.551,-35.156,-41.504,21.973
1678020562.517,-53.711,-41.016,-34.668,-38.574,-21.484
1678020562.521,-54.199,-46.387,-31.738,-39.062,58.105
1678020562.525,-51.758,-40.527,-33.203,-35.645,130.371
1678020562.529,-52.734,-37.109,-38.086,-30.273,49.805
1678020562.533,-60.059,-39.062,-39.062,-5.859,82.031
1678020562.536,-65.430,-38.574,-38.086,-27.832,253.418
1678020562.540,-61.523,-41.992,-31.250,-51.270,457.520
1678020562.544,-69.824,-30.762,-29.785,-25.879,263.184
1678020562.548,-62.988,-23.926,-30.273,-33.691,14.648
1678020562.552,-57.617,-26.855,-27.344,-29.297,52.734
1678020562.568,-40.039,-27.832,-32.715,-14.648,29.297
1678020562.572,-43.457,-32.227,-30.762,-39.551,-8.301
1678020562.576,-70.312,-32.227,-27.344,-60.547,11.230
1678020562.580,-60.059,-32.227,-30.762,-55.664,65.918
1678020562.584,-54.688,-33.203,-31.738,-56.152,104.980
1678020562.588,-50.293,-32.227,-26.855,-54.688,41.504
1678020562.592,-45.898,-30.273,-22.949,-48.340,-23.926
1678020562.595,-46.875,-25.879,-33.203,-36.133,249.023
1678020562.599,-43.457,-39.062,-36.621,-29.785,361.328
1678020562.603,-45.898,-40.527,-32.715,-29.297,35.645
1678020562.607,-48.340,-23.438,-30.762,-31.250,16.113
1678020562.611,-39.062,-26.855,-28.809,-34.180,108.887
1678020562.600,-40.527,-31.738,-24.414,-26.367,91.797
1678020562.604,-51.758,-33.203,-21.973,-43.945,58.594
1678020562.608,-42.480,-33.203,-23.438,-66.406,118.652
1678020562.612,-44.922,-33.691,-18.066,-59.570,155.762
1678020562.616,-60.547,-37.109,-17.578,-39.062,77.148
1678020562.620,-57.129,-39.062,-19.531,-22.949,80.566
1678020562.624,-54.688,-44.922,-23.926,-27.832,284.180
1678020562.627,-54.199,-47.363,-32.227,-45.410,284.668
1678020562.631,-52.734,-44.434,-28.809,-42.969,111.816
1678020562.635,-61.523,-43.457,-21.484,-45.410,34.668
1678020562.639,-60.059,-46.875,-28.320,-60.547,73.242
1678020562.643,-51.758,-52.734,-36.621,-46.387,317.383
1678020562.643,-47.852,-50.293,-30.762,-43.945,165.039
1678020562.647,-52.246,-50.781,-23.926,-24.902,-27.832
1678020562.651,-55.176,-47.363,-26.367,-46.875,170.898
1678020562.655,-41.504,-30.273,-29.297,-86.914,99.609
1678020562.659,-37.598,-23.926,-37.109,-80.078,-146.973
1678020562.663,-29.297,-30.273,-40.039,-64.453,-18.066
1678020562.667,-22.949,-28.320,-36.133,-49.805,256.348
1678020562.670,-32.715,-22.949,-29.785,-66.895,273.926
1678020562.674,-37.109,-27.344,-26.855,-67.383,37.109
1678020562.678,-30.762,-34.180,-40.527,-66.895,-15.137
1678020562.682,-27.344,-33.203,-47.852,-66.406,41.504
1678020562.686,-25.879,-36.133,-41.992,-54.199,5.371
1678020562.688,-30.273,-45.898,-46.387,-68.359,-80.566
1678020562.692,-38.086,-34.180,-44.434,-70.312,-20.020
1678020562.696,-43.945,-15.137,-41.504,-58.105,29.785
1678020562.700,-44.434,-15.625,-45.410,-58.594,-140.625
1678020562.704,-43.457,-18.066,-43.457,-60.059,-167.969
1678020562.708,-44.922,-29.297,-41.504,-46.875,108.398
1678020562.712,-39.062,-29.297,-37.109,-39.062,138.184
1678020562.715,-38.086,-20.996,-28.320,-53.223,-38.086
1678020562.719,-28.809,-23.926,-24.414,-58.594,-32.715
1678020562.723,-35.156,-31.250,-30.762,-20.996,167.969
1678020562.727,-48.828,-32.715,-33.203,-19.043,215.820
1678020562.731,-48.828,-34.180,-40.527,-58.105,-12.695
1678020562.748,-59.570,-35.645,-46.875,-59.570,-173.828
1678020562.752,-45.898,-30.762,-42.480,-53.711,19.043
1678020562.756,-34.668,-26.855,-41.992,-39.551,185.547
1678020562.760,-37.598,-27.344,-43.945,-35.156,-45.410
1678020562.764,-41.504,-23.926,-41.504,-43.457,-81.543
1678020562.768,-38.574,-22.461,-47.852,-55.176,29.785
1678020562.772,-28.809,-29.785,-54.199,-51.270,29.297
1678020562.775,-21.973,-24.414,-54.199,-34.668,-55.176
1678020562.779,-18.555,-18.555,-55.664,-39.062,-93.262
1678020562.783,-26.367,-18.066,-47.852,-60.547,55.176
1678020562.787,-29.297,-11.230,-42.969,-48.828,39.551
1678020562.791,-18.555,-12.695,-49.316,-27.832,-143.066
1678020562.793,-13.672,-15.137,-51.758,-29.297,-53.711
1678020562.797,-13.184,-16.602,-48.828,-26.855,63.477
1678020562.801,-20.996,-16.602,-41.992,-10.742,-38.086
1678020562.805,-36.621,-22.949,-30.762,-40.039,-98.145
1678020562.809,-48.340,-26.855,-28.320,-72.754,0.488
1678020562.813,-50.781,-25.391,-32.227,-51.758,100.586
1678020562.817,-51.758,-29.297,-33.691,-29.785,48.340
1678020562.820,-56.152,-28.320,-27.832,-56.641,-107.422
1678020562.824,-60.547,-26.367,-24.902,-58.105,-26.855
1678020562.828,-50.781,-25.879,-26.367,-29.297,334.961
1678020562.832,-36.133,-26.855,-26.855,-39.551,102.051
1678020562.836,-35.645,-28.809,-28.320,-37.598,-197.754
1678020562.838,-36.133,-28.809,-28.320,-24.902,-139.160
1678020562.842,-31.250,-27.344,-30.762,-37.598,-118.164
1678020562.846,-34.180,-25.879,-33.203,-30.273,-62.988
1678020562.850,-20.020,-38.574,-32.715,-16.602,-38.574
1678020562.854,-24.414,-47.852,-32.227,-24.902,3.418
1678020562.858,-45.410,-44.434,-30.273,-21.973,38.086
1678020562.862,-42.480,-39.062,-30.762,-33.691,-10.742
1678020562.865,-39.551,-35.645,-30.762,-47.363,-129.883
1678020562.869,-49.805,-29.297,-33.203,-10.742,84.961
1678020562.873,-51.270,-25.391,-33.691,4.883,76.172
1678020562.877,-41.016,-26.367,-28.809,-32.715,-215.820
1678020562.881,-41.016,-24.902,-27.344,-62.988,-131.348
1678020562.883,-29.785,-27.832,-33.691,-54.688,-115.234
1678020562.887,-20.996,-33.691,-38.574,-28.809,-153.320
1678020562.891,-28.809,-40.039,-37.109,-25.391,-115.234
1678020562.895,-31.738,-51.270,-37.598,-43.457,-79.590
1678020562.899,-35.156,-50.781,-32.715,-45.410,-75.684
1678020562.903,-32.715,-37.598,-29.297,-28.320,12.695
1678020562.907,-43.945,-28.809,-29.785,-29.785,32.227
1678020562.910,-47.852,-30.273,-23.926,-28.809,120.117
1678020562.914,-47.852,-32.227,-23.926,-21.973,479.492
1678020562.918,-57.129,-30.273,-27.832,-35.156,335.449
1678020562.922,-62.012,-21.973,-25.391,-31.738,-104.492
1678020562.926,-33.691,-34.668,-13.672,-22.461,-126.465
1678020562.928,-8.789,-46.875,-10.254,-29.297,-43.457
1678020562.932,-48.828,-4.395,-9.277,-55.664,-63.477
1678020562.936,-105.957,28.320,0.977,-84.961,-130.371
1678020562.940,-120.605,32.715,-4.883,-110.352,-115.234
1678020562.944,-130.371,21.973,-2.441,-125.000,-140.625
1678020562.948,-160.156,3.906,10.742,-152.832,-76.660
1678020562.952,-185.059,26.855,31.250,-200.684,48.340
1678020562.955,-244.141,48.828,51.758,-237.305,229.004
1678020562.959,-261.719,50.781,62.988,-245.605,242.188
1678020562.963,-269.531,54.199,76.172,-266.113,-99.609
1678020562.967,-308.594,74.707,87.891,-300.781,-71.289
1678020562.971,-315.430,58.594,96.191,-311.035,8.789
1678020562.973,-324.707,48.828,97.656,-330.566,-84.961
1678020562.977,-332.031,99.609,101.074,-335.938,-134.277
1678020562.981,-305.176,89.844,97.168,-321.289,-63.965
1678020562.985,-274.902,49.805,82.520,-318.359,-34.180
1678020562.989,-265.137,69.824,70.801,-304.688,-76.660
1678020562.993,-253.906,105.469,72.266,-271.973,-34.668
1678020562.997,-223.145,66.895,69.336,-239.258,46.387
1678020563.000,-192.871,42.969,45.410,-198.242,278.809
1678020563.004,-161.621,63.965,35.645,-156.738,72.754
1678020563.008,-123.047,44.922,33.203,-150.879,-231.934
1678020563.012,-102.539,20.020,13.672,-138.672,10.254
1678020563.016,-90.332,6.348,-7.812,-111.816,113.281
1678020563.018,-67.871,-9.766,-14.648,-74.707,-139.648
1678020563.022,-37.598,-21.973,-14.160,-59.082,-193.359
1678020563.026,-20.508,-30.273,-19.531,-76.660,-159.180
1678020563.030,-15.625,-36.621,-37.109,-55.664,-103.516
1678020563.034,-10.742,-47.363,-52.246,-32.227,-103.027
1678020563.038,20.996,-55.176,-43.945,-42.480,-90.820
1678020563.042,51.758,-54.688,-49.316,-29.297,143.066
1678020563.045,49.805,-54.199,-62.988,-11.230,140.137
1678020563.049,29.785,-53.711,-61.035,-4.883,-99.609
1678020563.053,33.691,-63.477,-58.594,11.719,-71.777
1678020563.057,56.152,-78.125,-62.988,34.180,-92.285
1678020563.061,70.312,-86.914,-72.266,41.016,-108.398
1678020563.064,85.938,-78.125,-69.336,13.672,-17.090
1678020563.068,62.500,-75.195,-64.453,28.320,55.176
1678020563.072,41.504,-84.961,-69.336,57.617,40.039
1678020563.076,58.594,-82.520,-70.312,40.039,-81.055
1678020563.080,73.730,-79.102,-66.406,38.086,-137.695
1678020563.084,89.355,-81.055,-72.754,64.453,-5.859
1678020563.088,89.355,-80.566,-76.660,48.828,49.316
1678020563.091,63.477,-72.754,-69.824,31.250,45.410
1678020563.095,79.102,-76.172,-74.707,39.062,-9.766
1678020563.099,87.402,-81.055,-74.219,49.805,82.520
1678020563.103,69.336,-83.984,-65.430,72.754,230.957
1678020563.107,71.289,-84.473,-67.383,48.340,-17.578
1678020563.124,63.965,-82.520,-66.406,43.945,-127.441
1678020563.128,59.082,-83.496,-64.453,63.477,-83.008
1678020563.132,62.500,-98.145,-61.523,61.035,-62.500
1678020563.136,70.312,-92.285,-55.664,58.105,-30.273
1678020563.140,66.406,-69.336,-54.199,63.477,-92.773
1678020563.144,38.574,-73.730,-54.688,67.871,124.512
1678020563.148,38.574,-80.078,-51.758,52.734,196.777
1678020563.151,41.504,-85.938,-50.293,29.297,-123.047
1678020563.155,35.645,-92.285,-50.293,45.410,-164.551
1678020563.159,35.156,-78.613,-49.805,46.387,-6.836
1678020563.163,24.414,-62.988,-51.758,28.809,-69.824
1678020563.167,26.367,-75.684,-57.617,30.273,-155.762
1678020563.168,27.344,-81.543,-59.082,25.391,-96.191
1678020563.172,28.320,-75.684,-58.105,33.203,-41.992
1678020563.176,28.320,-75.684,-60.547,35.156,-101.074
1678020563.180,17.090,-71.289,-57.617,40.039,-122.070
1678020563.184,16.602,-62.500,-52.246,49.805,-35.156
1678020563.188,14.160,-62.012,-50.781,44.922,20.508
1678020563.192,7.812,-74.707,-57.129,13.672,-0.488
1678020563.195,8.789,-80.078,-53.223,26.855,-27.832
1678020563.199,3.418,-69.336,-47.363,45.410,47.852
1678020563.203,6.836,-76.172,-52.734,40.527,380.371
1678020563.207,4.395,-72.754,-53.711,15.137,262.695
1678020563.211,2.441,-55.176,-49.805,1.953,-62.500
1678020563.213,-14.160,-62.012,-47.363,7.324,-62.012
1678020563.217,-30.273,-68.848,-49.805,-9.766,-109.375
1678020563.221,-20.508,-64.453,-48.828,-10.742,-95.703
1678020563.225,-5.859,-62.988,-44.434,1.465,-96.680
1678020563.229,8.789,-60.547,-40.039,16.113,-98.633
1678020563.233,-17.578,-58.594,-45.410,15.137,2.441
1678020563.237,-40.527,-81.055,-46.387,-2.441,3.906
1678020563.240,-19.531,-65.918,-47.363,-4.883,-8.789
1678020563.244,-15.137,-34.180,-43.945,2.930,191.406
1678020563.248,-26.367,-42.480,-39.062,14.648,77.637
1678020563.252,-13.184,-45.410,-44.434,5.371,-159.180
1678020563.256,-8.301,-40.039,-39.062,-1.465,-64.941
1678020563.258,-26.367,-43.945,-34.180,-1.953,85.938
1678020563.262,-26.367,-46.387,-44.922,-11.719,19.043
1678020563.266,-3.418,-45.410,-44.434,-8.301,-36.621
1678020563.270,-10.742,-50.781,-31.738,-5.371,-3.906
1678020563.274,-30.762,-54.199,-34.180,-18.555,-27.344
1678020563.278,-21.484,-51.758,-40.039,-24.414,2.930
1678020563.282,-16.113,-49.316,-37.598,-15.137,-38.574
1678020563.285,-14.160,-52.246,-39.062,-0.488,62.012
1678020563.289,-12.695,-49.805,-41.016,1.953,331.543
1678020563.293,-16.113,-52.246,-42.969,-32.227,105.957
1678020563.297,-34.668,-61.523,-43.457,-23.926,-164.062
1678020563.301,-31.738,-50.781,-44.922,-9.766,-16.602
1678020563.303,-26.855,-48.828,-46.387,-46.387,121.094
1678020563.307,-30.762,-59.082,-46.875,-51.270,-100.098
1678020563.311,-30.273,-45.898,-49.316,-44.434,-79.102
1678020563.315,-30.273,-33.691,-41.992,-39.551,-39.551
1678020563.319,-25.391,-33.203,-38.086,-37.109,-106.445
1678020563.323,-22.949,-37.598,-40.527,-19.043,-96.191
1678020563.327,-24.902,-45.898,-37.109,-17.578,-64.941
1678020563.330,-39.062,-51.270,-38.086,-15.625,133.789
1678020563.334,-41.016,-43.457,-44.434,-15.625,146.484
1678020563.338,-42.480,-39.551,-45.898,-17.578,-109.863
1678020563.342,-39.062,-39.551,-37.598,21.484,-111.816
1678020563.346,-43.945,-49.316,-27.344,-10.254,-18.555
1678020563.349,-45.898,-42.969,-32.227,-77.148,-71.289
1678020563.353,-56.641,-27.344,-36.621,-70.801,-180.176
1678020563.357,-55.176,-32.715,-37.598,-52.246,-50.781
1678020563.361,-42.480,-36.133,-39.551,-41.016,50.293
1678020563.365,-57.617,-33.203,-43.945,-34.180,-50.781
1678020563.369,-61.523,-52.246,-35.156,-38.086,-116.699
1678020563.373,-68.359,-60.547,-20.508,-40.527,-14.160
1678020563.376,-70.312,-29.297,-36.133,-43.945,272.461
1678020563.380,-42.480,-48.828,-46.875,-51.270,110.840
1678020563.384,-49.805,-57.617,-36.621,-49.316,-117.676
1678020563.388,-81.543,-13.184,-38.086,-37.109,-24.902
1678020563.392,-65.918,-12.695,-33.203,-14.160,-28.809
1678020563.394,-62.012,-24.414,-34.180,-17.578,-85.449
1678020563.398,-62.012,-18.555,-34.180,-53.711,-39.062
1678020563.402,-40.039,-18.555,-28.809,-58.105,-45.410
1678020563.406,-46.387,-30.273,-29.297,-48.828,-79.590
1678020563.410,-54.688,-36.621,-30.762,-41.016,-102.539
1678020563.414,-59.082,-24.902,-32.227,-32.227,-62.500
1678020563.418,-51.758,-23.438,-33.691,-35.156,222.656
1678020563.421,-34.180,-38.086,-37.109,-14.160,259.277
1678020563.425,-39.551,-36.621,-35.156,-19.043,-83.496
1678020563.429,-48.340,-27.832,-26.855,-21.484,-93.750
1678020563.433,-48.340,-24.414,-26.367,-27.832,-35.156
1678020563.437,-36.621,-15.625,-29.297,-51.270,-59.570
1678020563.438,-37.109,-17.090,-23.926,-23.438,-74.219
1678020563.442,-33.203,-20.508,-28.320,-15.625,-40.039
1678020563.446,-24.414,-30.273,-36.621,-37.598,52.734
1678020563.450,-23.926,-26.855,-30.273,-36.621,-3.418
1678020563.454,-18.555,-23.438,-29.785,-24.902,-86.914
1678020563.458,-26.367,-39.551,-25.391,0.977,130.859
1678020563.462,-36.621,-42.969,-15.625,-3.418,322.754
1678020563.465,-49.316,-33.691,-13.184,-27.344,62.500
1678020563.469,-47.852,-21.484,-20.508,-28.320,-24.414
1678020563.473,-41.504,-15.625,-32.227,-29.297,123.535
1678020563.477,-40.039,-25.391,-30.762,-12.207,285.156
1678020563.481,-36.133,-29.297,-26.855,-4.883,49.316
1678020563.498,-31.738,-25.879,-31.250,-32.715,-175.781
1678020563.502,-41.016,-25.879,-37.109,-35.645,-117.676
1678020563.506,-39.062,-21.484,-33.203,-32.715,-85.938
1678020563.510,-35.645,-10.254,-28.320,-50.293,-82.031
1678020563.514,-42.969,-12.695,-25.879,-40.039,-53.223
1678020563.518,-39.551,-18.555,-21.484,-8.301,20.020
1678020563.522,-44.922,-27.832,-21.484,0.488,1.465
1678020563.525,-47.852,-34.668,-25.879,-47.363,24.902
1678020563.529,-30.273,-28.320,-32.715,-55.664,17.090
1678020563.533,-20.508,-27.832,-30.762,-41.016,230.957
1678020563.537,-35.156,-27.832,-33.691,-44.434,213.867
1678020563.541,-48.340,-26.367,-33.691,-54.199,-138.672
1678020563.543,-40.527,-27.832,-25.391,-59.082,-77.148
1678020563.547,-33.203,-17.578,-27.344,-54.199,23.926
1678020563.551,-35.645,-15.625,-31.250,-41.504,-2.930
1678020563.555,-30.762,-17.578,-39.062,-32.715,-92.285
1678020563.559,-44.922,-18.555,-41.504,-62.012,-62.500
1678020563.563,-53.711,-18.555,-35.156,-47.852,62.988
1678020563.567,-35.156,-18.066,-31.738,-46.387,-28.320
1678020563.570,-38.574,-23.926,-38.574,-55.176,-114.258
1678020563.574,-38.086,-19.043,-40.039,-42.969,75.195
1678020563.578,-35.156,-26.855,-35.156,-44.922,243.164
1678020563.582,-45.410,-23.438,-37.109,-42.969,2.930
1678020563.586,-37.109,-17.090,-39.062,-36.133,-243.652
1678020563.588,-26.367,-23.438,-40.039,-28.809,11.719
1678020563.592,-27.344,-11.230,-35.645,-27.344,158.203
1678020563.596,-38.086,-18.555,-37.109,-34.668,-123.535
1678020563.600,-39.551,-23.926,-39.062,-39.551,-76.660
1678020563.604,-33.203,-16.602,-38.086,-36.621,10.742
1678020563.608,-28.320,-18.066,-38.086,-37.109,-15.137
1678020563.612,-39.551,-28.809,-34.668,-20.508,21.973
1678020563.615,-45.898,-39.062,-33.691,-44.434,48.340
1678020563.619,-44.434,-35.156,-30.273,-62.988,208.496
1678020563.623,-44.922,-23.438,-26.367,-45.410,145.996
1678020563.627,-39.551,-18.066,-26.855,-20.508,-91.797
1678020563.631,-35.645,-19.043,-29.785,-3.418,54.199
1678020563.633,-40.039,-16.113,-28.320,-29.785,98.145
1678020563.637,-40.527,-17.090,-25.391,-50.781,-32.227
1678020563.641,-18.555,-12.695,-25.879,-37.598,-73.242
1678020563.645,-12.207,-8.789,-26.855,-37.109,23.926
1678020563.649,-19.043,-23.926,-26.367,-37.598,80.078
1678020563.653,-28.320,-28.320,-22.949,-17.090,72.266
1678020563.657,-40.527,-42.480,-26.855,-29.297,83.496
1678020563.660,-34.180,-41.016,-34.668,-32.227,158.203
1678020563.664,-30.762,-20.020,-26.855,-15.625,408.691
1678020563.668,-30.273,-20.020,-24.414,-41.016,197.266
1678020563.672,-32.715,-10.742,-27.344,-40.527,-137.207
1678020563.676,-37.598,-7.324,-27.344,-31.250,-137.207
1678020563.679,-37.109,-12.695,-27.832,-45.898,-107.910
1678020563.683,-18.066,-15.137,-27.832,-45.898,-82.520
1678020563.687,-13.672,-20.020,-28.320,-40.527,-33.203
1678020563.691,-32.227,-28.809,-29.785,-42.480,72.266
1678020563.695,-41.016,-32.227,-36.133,-60.547,59.082
1678020563.699,-44.922,-30.762,-40.039,-64.941,-19.043
1678020563.703,-42.480,-28.320,-37.598,-55.176,-6.836
1678020563.706,-13.672,-32.227,-36.133,-38.574,187.012
1678020563.710,-24.414,-37.598,-32.715,-40.039,122.559
1678020563.714,-60.059,-31.250,-35.156,-54.199,-158.691
1678020563.718,-61.523,-30.273,-42.480,-54.688,-158.203
1678020563.722,-41.016,-33.691,-39.062,-73.730,-138.184
1678020563.723,-40.527,-23.926,-33.691,-66.895,-114.258
1678020563.727,-50.781,-21.973,-30.273,-50.781,-81.055
1678020563.731,-49.316,-28.320,-35.645,-57.129,-94.727
1678020563.735,-39.062,-31.250,-41.016,-70.801,-87.402
1678020563.739,-35.156,-29.785,-39.551,-66.406,-75.684
1678020563.743,-49.316,-30.762,-42.480,-33.691,-74.707
1678020563.747,-36.133,-31.738,-41.992,-34.180,35.156
1678020563.750,-28.320,-27.832,-37.109,-64.941,386.719
1678020563.754,-38.574,-26.367,-41.992,-72.754,186.523
1678020563.758,-27.344,-29.297,-41.016,-74.707,-205.078
1678020563.762,-19.531,-37.109,-30.273,-57.129,-57.617
1678020563.766,-26.367,-24.902,-36.133,-58.594,2.930
1678020563.768,-39.062,-31.738,-40.527,-63.477,-128.906
1678020563.772,-47.852,-32.715,-31.250,-46.387,-163.574
1678020563.776,-33.203,-15.137,-33.691,-15.137,-21.484
1678020563.780,-22.461,-18.066,-35.645,-17.578,-6.836
1678020563.784,-26.367,-23.438,-30.762,-45.898,-149.414
1678020563.788,-39.062,-27.832,-34.180,-78.125,-119.141
1678020563.792,-45.410,-27.344,-39.062,-59.082,159.668
1678020563.795,-45.898,-28.809,-40.527,-20.996,185.547
1678020563.799,-47.852,-31.738,-43.457,-10.742,-172.363
1678020563.803,-35.645,-26.855,-41.016,-44.434,-222.168
1678020563.807,-30.273,-20.020,-36.133,-74.707,-81.543
1678020563.811,-42.969,-25.879,-33.691,-61.035,-127.930
1678020563.828,-44.922,-28.320,-30.762,-59.570,-199.707
1678020563.832,-30.273,-24.414,-30.762,-43.457,-87.402
1678020563.836,-41.992,-29.297,-31.738,-26.855,-60.547
1678020563.840,-54.688,-32.227,-26.367,-6.348,-106.445
1678020563.844,-41.504,-30.273,-27.344,-26.855,-133.789
1678020563.848,-42.480,-36.133,-34.180,-66.895,26.367
1678020563.852,-38.574,-42.480,-33.203,-50.781,180.176
1678020563.855,-19.043,-37.598,-26.367,-31.738,-20.996
1678020563.859,-21.484,-27.344,-20.996,-23.926,-100.586
1678020563.863,-37.598,-21.973,-26.367,-39.062,114.258
1678020563.867,-38.086,-20.996,-24.414,-45.898,275.391
1678020563.871,-40.039,-20.020,-16.113,-40.527,-16.602
1678020563.873,-28.809,-23.926,-22.949,-39.551,-185.059
1678020563.877,-36.621,-29.785,-28.809,-42.480,-120.117
1678020563.881,-54.688,-25.391,-23.926,-38.574,-144.531
1678020563.885,-56.152,-22.949,-31.250,-33.691,-211.426
1678020563.889,-42.969,-26.855,-37.109,-39.551,-161.621
1678020563.893,-29.297,-23.438,-31.250,-39.062,20.996
1678020563.897,-39.551,-20.508,-34.180,-40.527,-22.461
1678020563.900,-54.688,-22.949,-33.203,-32.227,-113.281
1678020563.904,-51.270,-23.438,-28.320,-28.809,-72.266
1678020563.908,-48.828,-27.832,-35.156,-29.297,192.383
1678020563.912,-43.457,-29.297,-37.598,-30.762,161.133
1678020563.916,-35.156,-21.484,-33.691,-47.363,-90.820
1678020563.918,-42.480,-17.578,-32.715,-53.223,-21.973
1678020563.922,-46.875,-26.367,-29.785,-36.133,11.230
1678020563.926,-28.809,-34.180,-30.273,-23.926,-88.867
1678020563.930,-32.715,-42.480,-37.109,-41.504,-121.094
1678020563.934,-40.039,-38.086,-32.227,-62.012,-37.598
1678020563.938,-43.457,-12.695,-28.320,-52.246,13.672
1678020563.942,-38.086,-4.883,-29.785,-38.086,-36.621
1678020563.945,-18.555,-18.066,-29.785,-48.828,-22.461
1678020563.949,-40.527,-25.391,-29.297,-41.016,77.148
1678020563.953,-59.570,-26.855,-28.320,-27.344,247.070
1678020563.957,-59.570,-27.832,-27.344,-39.551,104.004
1678020563.961,-66.406,-23.926,-32.227,-43.457,-172.852
1678020563.964,-59.570,-21.484,-35.645,-49.316,-173.828
1678020563.968,-46.387,-19.531,-36.621,-50.293,-57.129
1678020563.972,-55.664,-28.320,-43.945,-50.781,-115.234
1678020563.976,-51.758,-29.785,-39.062,-39.551,-179.199
1678020563.980,-38.574,-20.996,-35.156,-20.508,20.508
1678020563.984,-43.945,-20.020,-38.086,-30.273,47.363
1678020563.988,-38.574,-22.949,-37.109,-30.273,-56.152
1678020563.991,-36.133,-21.484,-31.738,-21.484,-107.422
1678020563.995,-45.410,-16.602,-26.367,-3.418,116.211
1678020563.999,-50.781,-19.531,-28.320,-12.695,145.020
1678020564.003,-49.805,-23.438,-32.227,-35.645,-137.207
1678020564.007,-41.016,-21.973,-32.227,-21.484,-102.051
1678020564.008,-37.598,-19.531,-31.250,-31.250,-65.918
1678020564.012,-34.180,-28.320,-30.273,-47.363,-146.484
1678020564.016,-26.367,-28.320,-27.344,-39.062,-170.410
1678020564.020,-37.598,-18.555,-31.738,-42.480,-41.504
1678020564.024,-34.180,-15.625,-38.086,-40.527,7.324
1678020564.028,-26.367,-20.996,-37.109,-37.598,-59.570
1678020564.032,-43.457,-25.879,-31.738,-44.922,-19.043
1678020564.035,-54.199,-24.902,-33.203,-42.969,133.789
1678020564.039,-44.922,-22.949,-43.457,-38.086,374.023
1678020564.043,-40.527,-19.531,-46.875,-35.645,212.402
1678020564.047,-43.457,-22.949,-46.875,-46.875,-109.863
1678020564.051,-31.250,-22.461,-41.992,-42.480,-69.336
1678020564.053,-37.598,-22.949,-36.621,-33.691,-76.660
1678020564.057,-51.758,-27.344,-37.598,-32.715,-173.828
1678020564.061,-36.133,-29.297,-36.133,-5.859,-182.617
1678020564.065,-29.785,-27.344,-34.668,-5.371,-174.805
1678020564.069,-32.227,-23.926,-28.809,-39.551,-140.137
1678020564.073,-40.527,-30.762,-25.391,-34.180,-11.719
1678020564.077,-43.945,-27.344,-34.668,-30.762,-43.945
1678020564.080,-31.250,-21.973,-38.086,-27.832,225.098
1678020564.084,-35.156,-33.691,-30.762,-12.207,308.594
1678020564.088,-46.387,-33.203,-24.902,-30.273,-104.492
1678020564.092,-54.688,-32.227,-26.855,-50.293,-117.188
1678020564.096,-57.129,-41.016,-33.691,-61.523,-49.805
1678020564.098,-48.828,-38.086,-34.668,-51.758,-98.633
1678020564.102,-38.574,-24.414,-33.203,-34.668,-159.668
1678020564.106,-42.480,-22.461,-36.621,-36.133,-86.914
1678020564.110,-52.734,-28.320,-37.109,-57.617,-55.176
1678020564.114,-52.734,-29.785,-36.133,-69.336,-128.906
1678020564.118,-42.969,-42.480,-37.598,-53.223,-31.250
1678020564.122,-39.551,-47.363,-36.621,-47.852,124.023
1678020564.125,-44.922,-28.320,-32.227,-39.551,371.094
1678020564.129,-51.270,-26.855,-33.203,-38.574,250.977
1678020564.133,-51.270,-30.762,-36.133,-64.453,-113.770
1678020564.137,-41.016,-29.297,-31.738,-59.570,1.953
1678020564.141,-48.340,-31.250,-34.668,-37.598,114.746
1678020564.143,-54.199,-27.832,-38.574,-49.805,-78.613
1678020564.147,-59.082,-28.809,-35.156,-57.129,-151.367
1678020564.151,-61.523,-30.273,-36.133,-55.176,-91.797
1678020564.155,-50.781,-26.855,-34.180,-53.223,-135.742
1678020564.159,-44.434,-29.297,-33.203,-40.527,-163.574
1678020564.163,-32.227,-29.785,-33.203,-43.457,-74.219
1678020564.167,-43.945,-32.227,-36.133,-41.016,189.941
1678020564.170,-60.547,-34.668,-34.668,-31.250,112.305
1678020564.174,-54.199,-31.250,-28.320,-35.156,-214.844
1678020564.178,-40.527,-32.715,-27.344,-49.805,-150.391
1678020564.182,-32.715,-31.250,-28.809,-59.082,-85.449
1678020564.186,-35.156,-26.855,-29.785,-43.457,-55.176
1678020564.189,-40.527,-30.762,-27.832,-37.109,-74.219
1678020564.193,-44.434,-29.785,-26.367,-32.227,-59.082
1678020564.197,-38.574,-28.320,-23.438,-21.484,-2.441
1678020564.201,-37.109,-27.832,-28.809,-16.602,-91.797
1678020564.205,-39.551,-36.621,-30.273,-43.945,-115.234
1678020564.209,-40.527,-41.504,-29.785,-57.617,61.035
1678020564.213,-45.410,-34.668,-32.227,-36.621,164.551
1678020564.216,-40.039,-34.668,-31.738,-30.762,30.273
1678020564.220,-31.738,-41.016,-36.621,-32.227,-112.305
1678020564.224,-31.738,-38.086,-40.527,-36.621,-34.668
1678020564.228,-44.434,-28.809,-32.227,-24.902,161.133
1678020564.232,-48.340,-28.809,-24.902,-20.020,-47.852
1678020564.248,-40.039,-31.250,-24.414,-29.297,-175.293
1678020564.252,-32.227,-29.785,-25.879,-27.344,-29.297
1678020564.256,-32.715,-28.809,-30.762,-31.250,-26.367
1678020564.260,-32.227,-28.809,-30.762,-41.504,-113.770
1678020564.264,-29.785,-25.879,-32.715,-38.574,-115.234
1678020564.268,-39.551,-26.367,-31.738,-42.480,86.426
1678020564.272,-27.344,-34.668,-27.832,-41.016,69.824
1678020564.275,-24.902,-39.062,-22.461,-19.531,-136.230
1678020564.279,-38.574,-28.320,-20.508,-3.418,-209.961
1678020564.283,-41.992,-22.461,-26.367,-17.578,29.297
1678020564.287,-37.598,-24.414,-31.250,-19.531,101.562
1678020564.291,-33.691,-26.855,-29.785,-17.578,-87.402
1678020564.293,-21.973,-25.391,-30.762,-31.250,-117.188
1678020564.297,-25.879,-27.832,-29.297,-23.438,-90.820
1678020564.301,-49.316,-34.668,-29.297,-41.016,-137.695
1678020564.305,-34.668,-23.926,-30.762,-45.898,-124.512
1678020564.309,-9.766,-20.996,-28.320,17.090,28.809
1678020564.313,-5.371,-19.043,-31.738,15.137,237.305
1678020564.317,-44.434,-7.812,-40.527,-79.590,128.906
1678020564.320,-70.801,-9.277,-44.922,-67.871,-83.008
1678020564.324,-49.805,-19.531,-41.992,-38.086,102.051
1678020564.328,-38.574,-14.648,-41.504,-62.988,372.070
1678020564.332,-52.734,-14.160,-42.480,-64.941,138.184
1678020564.336,-68.848,-14.160,-35.156,-56.641,-114.258
1678020564.338,-57.617,-15.137,-34.668,-73.242,-133.301
1678020564.342,-59.082,-22.949,-40.039,-81.055,-102.051
1678020564.346,-68.359,-31.250,-36.133,-52.246,-119.629
1678020564.350,-56.152,-34.180,-37.598,-51.758,-156.250
1678020564.354,-41.016,-23.438,-36.621,-52.734,-57.617
1678020564.358,-47.852,-22.461,-34.180,-36.133,-47.852
1678020564.362,-58.105,-28.809,-38.086,-34.668,34.180
1678020564.365,-46.387,-37.598,-38.574,-54.199,3.418
1678020564.369,-37.109,-32.715,-42.969,-67.383,195.801
1678020564.373,-50.781,-22.461,-43.457,-68.359,286.133
1678020564.377,-65.430,-27.832,-37.109,-55.664,-66.406
1678020564.381,-33.691,-39.551,-31.250,-35.156,-118.164
1678020564.383,-2.930,-38.574,-32.227,-60.059,-92.285
1678020564.387,-27.344,-30.273,-37.109,-67.871,-69.336
1678020564.391,-53.711,-25.391,-36.133,-35.645,-71.289
1678020564.395,-52.246,-6.348,-42.969,-40.039,-55.664
1678020564.399,-34.668,-13.184,-41.504,-33.691,-29.785
1678020564.403,-17.090,-30.762,-34.668,-28.809,-85.449
1678020564.407,-17.578,-18.066,-38.086,-48.340,-37.109
1678020564.410,-18.555,-14.648,-33.203,-38.086,85.938
1678020564.414,-30.273,-20.020,-31.250,-20.996,346.191
1678020564.418,-32.227,-18.555,-35.156,-10.742,273.926
1678020564.422,-10.254,-18.066,-30.273,-25.879,-49.805
1678020564.426,-12.207,-18.066,-29.297,-24.902,-24.902
1678020564.428,-19.043,-20.020,-30.762,-26.855,-41.016
1678020564.432,-17.578,-20.508,-33.691,-67.383,-144.531
1678020564.436,-19.531,-27.344,-35.645,-58.105,-74.219
1678020564.440,-33.203,-41.016,-36.621,-35.645,-29.785
1678020564.444,-32.227,-45.410,-39.062,-41.504,-34.668
1678020564.448,-29.785,-37.598,-34.668,-29.785,-31.250
1678020564.452,-41.016,-31.738,-33.691,-34.668,-30.273
1678020564.455,-35.156,-40.039,-37.598,-33.203,154.297
1678020564.459,-8.789,-47.363,-41.016,-33.691,86.914
1678020564.463,-6.348,-44.922,-43.945,-44.434,-159.180
1678020564.467,-20.996,-38.086,-43.457,-48.828,-57.129
1678020564.471,-3.418,-35.645,-42.969,-48.340,27.344
1678020564.473,-2.441,-37.598,-42.969,-31.738,-84.961
1678020564.477,-15.625,-45.898,-44.434,-28.320,-165.527
1678020564.481,-9.766,-46.387,-43.457,-23.438,-103.516
1678020564.485,-20.508,-23.926,-36.621,-15.625,-85.449
1678020564.489,-50.293,-29.297,-37.598,-52.734,-115.723
1678020564.493,-41.016,-51.270,-41.016,-59.082,-72.266
1678020564.497,-16.602,-37.598,-40.527,-41.992,102.051
1678020564.500,-13.184,-25.879,-38.086,-29.297,455.566
1678020564.504,-8.301,-29.785,-38.574,-24.414,214.844
1678020564.508,-15.625,-34.668,-39.062,-39.551,-149.414
1678020564.512,-12.207,-34.180,-37.109,-8.301,-29.297
1678020564.516,8.789,-41.016,-29.297,3.418,5.859
1678020564.519,2.930,-58.594,-23.926,-41.992,-6.836
1678020564.523,-10.742,-54.688,-26.855,-21.484,-26.367
1678020564.527,-2.930,-33.203,-30.762,-0.488,-32.227
1678020564.531,-18.555,-18.066,-37.598,-45.410,-48.828
1678020564.535,-21.484,-29.785,-35.645,-41.504,-149.414
1678020564.539,4.883,-27.832,-34.180,-24.902,-106.934
1678020564.543,-6.836,-20.020,-34.668,-33.203,83.496
1678020564.546,-17.090,-24.902,-34.180,-30.273,79.590
1678020564.550,-29.785,-36.133,-35.645,-39.551,-107.422
1678020564.554,-25.391,-36.621,-31.738,-16.602,-57.129
1678020564.558,-4.883,-27.832,-35.156,-13.672,-0.977
1678020564.562,-6.836,-30.762,-37.109,-43.945,-17.578
1678020564.563,-12.695,-38.574,-34.668,-36.133,-54.688
1678020564.567,-4.883,-39.551,-35.156,-6.836,-67.383
1678020564.571,-22.461,-38.574,-32.227,-10.742,-104.004
1678020564.575,-34.180,-44.434,-29.297,-35.645,-119.629
1678020564.579,-6.348,-41.016,-33.691,-26.367,-152.832
1678020564.583,-3.418,-32.715,-39.551,-18.555,-61.523
1678020564.587,-32.227,-27.832,-38.086,-32.227,275.879
1678020564.590,-38.574,-20.996,-43.457,-43.945,186.523
1678020564.594,-14.648,-29.297,-44.434,-32.715,-60.059
1678020564.598,-25.879,-37.109,-39.551,-10.742,83.008
1678020564.602,-41.016,-27.832,-42.969,-37.598,103.027
1678020564.606,-31.738,-24.902,-47.852,-75.195,-123.535
1678020564.623,-42.480,-44.434,-43.457,-53.223,-135.742
1678020564.627,-53.223,-40.527,-40.039,-32.227,-108.398
1678020564.631,-32.227,-21.484,-38.086,-38.574,-92.285
1678020564.635,-25.391,-17.578,-37.109,-42.480,-139.648
1678020564.639,-43.945,-24.414,-39.062,-36.133,-129.883
1678020564.643,-38.086,-40.527,-36.133,-41.016,27.832
1678020564.647,-19.531,-43.945,-33.203,-26.855,61.523
1678020564.650,-25.879,-27.832,-38.574,-39.551,3.906
1678020564.654,-32.715,-15.625,-36.133,-73.242,-93.262
1678020564.658,-25.391,-17.578,-26.855,-29.297,142.090
1678020564.662,-26.367,-20.996,-31.738,-26.367,198.730
1678020564.666,-41.504,-27.344,-41.016,-83.008,-134.766
1678020564.668,-56.152,-32.715,-41.016,-72.266,-74.219
1678020564.672,-58.105,-31.738,-34.668,-60.059,-28.809
1678020564.676,-55.176,-28.809,-34.180,-64.941,-64.941
1678020564.680,-60.547,-32.715,-33.203,-74.219,-87.891
1678020564.684,-48.340,-35.156,-33.203,-60.059,-97.656
1678020564.688,-26.855,-38.086,-31.250,-47.852,-29.297
1678020564.692,-28.809,-36.133,-27.832,-54.199,-15.137
1678020564.695,-53.711,-15.137,-25.391,-58.105,-66.895
1678020564.699,-69.336,-10.254,-25.391,-56.641,73.730
1678020564.703,-59.082,-17.578,-29.785,-41.992,422.852
1678020564.707,-41.504,-17.578,-32.715,-45.410,315.430
1678020564.711,-40.039,-31.738,-31.738,-53.223,-90.820
1678020564.713,-41.016,-37.598,-30.762,-28.809,-134.766
1678020564.717,-42.480,-22.949,-28.809,-20.508,-121.094
1678020564.721,-50.781,-32.227,-29.785,-51.270,-195.801
1678020564.725,-46.875,-39.551,-29.785,-70.801,-151.367
1678020564.729,-42.969,-20.996,-29.785,-53.711,-92.285
1678020564.733,-49.316,-13.672,-34.668,-52.734,-41.016
1678020564.737,-58.105,-29.785,-39.551,-59.082,5.371
1678020564.740,-59.082,-50.293,-36.133,-55.664,-90.820
1678020564.744,-43.457,-45.898,-30.762,-47.852,99.121
1678020564.748,-44.434,-24.902,-28.809,-41.992,284.668
1678020564.752,-54.688,-18.555,-34.180,-41.992,49.316
1678020564.756,-46.387,-35.156,-41.016,-41.016,-69.336
1678020564.758,-43.945,-49.316,-37.598,-51.758,-0.488
1678020564.762,-41.992,-28.320,-35.156,-51.758,-66.406
1678020564.766,-28.809,-18.555,-37.598,-49.805,-164.551
1678020564.770,-22.461,-54.199,-37.598,-23.926,-62.500
1678020564.774,-33.203,-44.434,-35.645,-23.926,-0.977
1678020564.778,-31.738,-13.672,-38.574,-45.898,-15.137
1678020564.782,-27.832,-20.020,-41.016,-51.270,-50.293
1678020564.785,-41.504,-21.973,-36.621,-37.598,9.277
1678020564.789,-44.434,-22.461,-29.785,-18.066,325.684
1678020564.793,-54.199,-30.762,-27.344,-20.508,155.762
1678020564.797,-62.500,-29.785,-26.855,-42.480,-116.211
1678020564.801,-37.598,-25.391,-30.273,-43.945,-43.945
1678020564.803,-23.438,-29.297,-33.691,-40.527,-14.648
1678020564.807,-23.926,-29.785,-35.645,-50.781,-87.891
1678020564.811,-38.574,-32.227,-39.062,-38.086,-98.633
1678020564.815,-45.410,-35.156,-41.016,-24.902,-31.738
1678020564.819,-32.227,-37.109,-41.016,-20.020,-58.105
1678020564.823,-26.855,-43.457,-40.039,-33.203,-70.801
1678020564.827,-33.691,-40.527,-41.992,-41.992,-47.363
1678020564.830,-41.016,-32.227,-46.387,-36.621,155.762
1678020564.834,-46.387,-35.156,-45.898,-31.738,139.648
1678020564.838,-39.062,-36.133,-40.527,-43.945,-82.520
1678020564.842,-33.203,-45.410,-40.039,-52.734,9.766
1678020564.846,-30.273,-49.805,-39.551,-25.879,30.762
1678020564.849,-32.715,-24.902,-38.574,-23.438,-43.945
1678020564.853,-29.297,-13.184,-43.945,-34.180,-118.652
1678020564.857,-11.230,-24.414,-46.387,-13.672,17.578
1678020564.861,-22.461,-30.273,-39.062,9.277,108.887
1678020564.865,-28.320,-36.621,-33.691,-18.555,-53.711
1678020564.869,-15.625,-46.875,-31.738,-47.852,-39.062
1678020564.873,-8.301,-28.809,-32.715,-35.645,87.891
1678020564.876,-34.180,-20.020,-38.086,-23.438,260.254
1678020564.880,-44.922,-35.156,-38.574,-17.090,50.293
1678020564.884,-21.973,-40.039,-30.762,-20.996,-165.527
1678020564.888,-24.902,-37.109,-28.809,-29.785,-5.371
1678020564.892,-32.715,-44.922,-39.062,-32.715,25.391
1678020564.908,-27.344,-41.504,-43.945,-45.898,-134.766
1678020564.912,-33.203,-29.297,-39.062,-51.270,-131.348
1678020564.916,-34.180,-30.762,-38.574,-44.434,-52.246
1678020564.920,-35.645,-29.785,-41.992,-47.852,-55.176
1678020564.924,-37.109,-35.156,-38.086,-48.340,-94.238
1678020564.928,-37.109,-57.129,-41.016,-45.898,-46.387
1678020564.932,-44.434,-51.270,-42.969,-48.340,208.008
1678020564.935,-35.156,-26.855,-31.250,-45.898,282.715
1678020564.939,-26.367,-28.809,-33.691,-43.457,-81.055
1678020564.943,-45.410,-37.109,-43.457,-61.523,-91.797
1678020564.947,-63.965,-37.109,-39.062,-52.246,-1.953
1678020564.951,-40.527,-38.086,-34.668,-9.766,-80.078
1678020564.938,-25.391,-41.016,-31.738,-18.555,-164.551
1678020564.942,-38.086,-41.992,-31.738,-48.340,-103.027
1678020564.946,-42.969,-50.293,-36.133,-54.199,19.531
1678020564.950,-37.598,-47.852,-36.621,-46.875,-36.621
1678020564.954,-29.297,-38.574,-32.715,-54.199,-104.980
1678020564.958,-23.438,-29.785,-27.344,-54.688,60.547
1678020564.962,-26.367,-27.344,-25.879,-37.109,104.980
1678020564.965,-41.016,-37.109,-32.227,-36.133,-83.008
1678020564.969,-41.016,-34.668,-36.133,-56.152,-113.281
1678020564.973,-38.574,-36.621,-38.574,-60.547,15.625
1678020564.977,-39.062,-46.387,-43.457,-46.387,305.664
1678020564.981,-31.738,-49.805,-39.062,-38.574,203.125
1678020565.013,-33.691,-41.504,-37.598,-35.645,-116.211
1678020565.017,-46.387,-36.621,-39.062,-43.945,-144.043
1678020565.021,-49.316,-42.480,-41.016,-68.359,-119.629
1678020565.025,-41.504,-40.527,-41.992,-62.500,-148.926
1678020565.029,-46.875,-39.062,-41.016,-32.227,-123.047
1678020565.033,-56.641,-39.062,-39.551,-22.949,34.668
1678020565.037,-47.363,-39.551,-38.574,-37.598,24.414
1678020565.040,-34.668,-41.016,-38.574,-61.523,-120.605
1678020565.044,-24.902,-37.598,-31.738,-34.668,-124.023
1678020565.048,-20.996,-36.133,-28.320,-9.766,212.891
1678020565.052,-34.180,-36.621,-30.762,-30.762,232.422
1678020565.056,-32.227,-34.668,-37.598,-39.551,-93.750
1678020565.043,-10.254,-39.551,-35.156,-9.766,-71.289
1678020565.047,-15.625,-38.574,-29.297,-28.809,-65.918
1678020565.051,-53.223,-37.598,-30.762,-51.758,-145.508
1678020565.055,-56.152,-38.574,-34.180,-46.875,-216.309
1678020565.059,-53.223,-36.621,-36.133,-45.410,-115.234
1678020565.063,-52.734,-40.039,-38.086,-34.668,-2.930
1678020565.067,-45.410,-44.434,-39.551,-34.180,8.789
1678020565.070,-46.387,-45.410,-39.062,-52.246,33.691
1678020565.074,-41.016,-39.062,-40.039,-49.805,4.395
1678020565.078,-46.875,-39.062,-39.062,-34.180,-30.273
1678020565.082,-50.293,-40.527,-38.574,-31.738,-89.355
1678020565.086,-40.039,-47.852,-38.086,-36.133,-68.359
1678020565.088,-36.133,-56.152,-42.480,-38.574,154.785
1678020565.092,-38.086,-38.574,-44.434,-20.996,377.930
1678020565.096,-41.992,-27.832,-45.898,-35.156,80.078
1678020565.100,-36.133,-28.320,-42.480,-40.527,-123.047
1678020565.104,-33.203,-26.367,-34.180,-14.648,59.082
1678020565.108,-25.879,-28.809,-34.180,-29.785,56.152
1678020565.112,-22.949,-30.273,-36.133,-62.012,-71.777
1678020565.115,-27.832,-26.367,-35.645,-50.293,-141.602
1678020565.119,-34.668,-30.762,-30.762,-32.227,-35.645
1678020565.123,-28.809,-36.621,-33.691,-31.738,-32.227
1678020565.127,-21.973,-33.203,-40.527,-27.832,-145.996
1678020565.131,-27.832,-31.738,-32.227,-25.391,-74.219
1678020565.134,-30.273,-34.668,-25.879,-9.766,18.066
1678020565.138,-28.809,-29.297,-31.738,-18.555,-28.320
1678020565.142,-22.949,-24.902,-35.156,-54.688,-55.176
1678020565.146,-27.832,-27.344,-34.668,-39.062,62.988
1678020565.150,-36.621,-25.879,-33.203,-9.766,53.711
1678020565.154,-28.809,-27.832,-32.227,-32.227,-74.219
1678020565.158,-33.691,-34.668,-31.738,-42.969,-37.109
1678020565.161,-29.785,-33.203,-31.250,-21.484,45.410
1678020565.165,-3.906,-27.344,-28.809,11.719,274.902
1678020565.169,-2.930,-29.785,-26.367,-7.812,132.812
1678020565.173,-17.090,-32.227,-30.273,-39.062,-169.434
1678020565.177,-22.949,-34.668,-31.738,-26.855,-150.391
1678020565.178,-22.949,-40.527,-27.832,-32.715,-166.504
1678020565.182,-11.230,-38.574,-30.762,-55.176,-87.402
1678020565.186,-29.785,-46.387,-36.133,-40.527,1.465
1678020565.190,-36.133,-40.527,-34.668,-21.973,-7.812
1678020565.194,-25.879,-23.438,-32.715,-54.199,-22.949
1678020565.198,-34.668,-28.809,-26.367,-58.594,59.570
1678020565.202,-26.367,-26.367,-23.926,-42.969,68.848
1678020565.205,-17.090,-23.438,-27.344,-21.973,243.652
1678020565.209,-16.602,-31.250,-27.832,-8.301,242.188
1678020565.213,-32.227,-38.574,-31.250,-32.715,-82.520
1678020565.217,-31.250,-31.250,-31.250,-26.367,-34.180
1678020565.221,-21.484,-33.691,-30.273,-30.762,-49.316
1678020565.223,-36.621,-39.551,-33.203,-39.062,-98.633
1678020565.227,-35.645,-33.203,-32.715,-34.668,-81.543
1678020565.231,-30.762,-32.227,-32.715,-41.992,-75.195
1678020565.235,-22.949,-40.527,-29.297,-37.598,-92.285
1678020565.239,-18.555,-35.156,-21.973,-10.742,-82.031
1678020565.243,-21.973,-25.391,-25.879,-17.578,-9.277
1678020565.247,-20.508,-36.621,-28.809,-42.480,116.699
1678020565.250,-35.156,-41.992,-28.809,-47.363,293.945
1678020565.254,-44.922,-25.879,-32.227,-56.641,116.211
1678020565.258,-38.574,-28.320,-30.273,-62.988,-95.215
1678020565.262,-27.344,-41.016,-33.691,-51.270,48.340
1678020565.266,-27.832,-39.551,-34.668,-43.457,193.359
1678020565.268,-45.410,-38.086,-30.273,-56.641,-14.648
1678020565.272,-48.340,-36.621,-27.832,-56.152,-110.352
1678020565.276,-42.969,-37.109,-33.203,-26.367,-66.895
1678020565.280,-34.180,-37.109,-38.574,-15.625,-7.324
1678020565.284,-32.715,-33.691,-26.855,-36.133,-22.949
1678020565.288,-46.875,-35.645,-20.020,-46.387,0.000
1678020565.292,-49.316,-36.621,-22.949,-32.227,287.598
1678020565.295,-40.527,-22.461,-16.602,-39.062,248.535
1678020565.299,-44.434,-29.297,-18.555,-33.691,-97.656
1678020565.303,-52.246,-41.992,-31.250,-19.531,26.367
1678020565.307,-46.387,-46.875,-34.180,-15.625,74.707
1678020565.311,-56.152,-44.434,-24.902,-16.113,-116.211
1678020565.313,-48.828,-1.953,3.906,-29.297,-171.875
1678020565.317,-29.297,14.648,8.301,-13.184,-95.703
1678020565.321,-37.109,-30.273,-31.738,-24.414,-39.551
1678020565.325,-63.965,-70.312,-48.340,-44.434,-99.121
1678020565.329,-74.707,-74.219,-42.969,-35.156,-162.598
1678020565.333,-48.340,-24.414,-21.484,-18.555,78.125
1678020565.337,-41.504,-18.066,-11.719,-18.066,185.059
1678020565.340,-70.312,-43.945,-21.484,-41.992,14.160
1678020565.344,-79.590,-40.527,-23.438,-55.176,-4.883
1678020565.348,-48.340,-39.551,11.230,-21.484,78.613
1678020565.352,-39.551,-35.645,22.949,16.113,199.707
1678020565.356,-79.102,-31.738,-60.059,-41.504,0.488
1678020565.359,-71.289,-21.484,-68.848,-57.617,-196.777
1678020565.363,-46.387,-46.875,-25.391,-9.277,-39.551
1678020565.367,-44.434,-20.996,-10.742,-7.324,-9.766
1678020565.371,-49.316,-22.461,-14.160,-24.414,-201.660
1678020565.375,-92.773,-101.562,-56.152,-41.504,-155.762
1678020565.379,-95.215,-98.145,-65.918,-44.922,23.438
1678020565.383,-75.195,-46.875,-38.574,-53.223,78.613
1678020565.386,-77.148,-49.316,-37.109,-48.828,-39.062
1678020565.390,-66.895,-59.082,-53.223,-36.133,-94.238
1678020565.394,-52.734,-36.621,-49.805,-44.434,87.402
1678020565.398,-60.059,-34.180,-31.250,-41.016,43.945
1678020565.402,-96.191,-46.387,-33.691,-49.316,-111.328
1678020565.418,-105.957,-36.621,-40.527,-71.777,-61.523
1678020565.422,-89.844,-23.438,-36.133,-60.547,-2.930
1678020565.426,-76.172,-29.297,-40.039,-63.965,-25.391
1678020565.430,-58.105,-42.969,-46.387,-65.430,-195.312
1678020565.434,-72.754,-27.832,-46.875,-68.359,-63.965
1678020565.438,-89.355,-14.648,-42.969,-86.426,227.051
1678020565.442,-73.242,-22.461,-43.945,-80.078,70.801
1678020565.445,-38.574,-25.391,-45.410,-43.945,-46.875
1678020565.449,-51.270,-20.996,-41.504,-25.879,94.727
1678020565.453,-82.031,-30.273,-36.621,-32.227,234.863
1678020565.457,-59.082,-29.297,-41.992,-57.129,-15.625
1678020565.461,-55.176,-25.879,-44.922,-75.195,-239.258
1678020565.464,-51.270,-35.645,-41.016,-56.641,-56.641
1678020565.468,-45.898,-37.109,-41.016,-48.828,0.488
1678020565.472,-56.152,-35.645,-42.969,-57.617,-151.855
1678020565.476,-60.547,-36.621,-44.434,-71.777,-110.840
1678020565.480,-74.219,-38.086,-44.434,-73.242,28.320
1678020565.484,-62.012,-39.551,-41.504,-56.152,3.906
1678020565.488,-43.945,-42.480,-38.086,-35.156,-22.949
1678020565.491,-61.035,-38.574,-39.062,-28.320,-90.332
1678020565.495,-62.012,-35.156,-40.039,-43.457,27.832
1678020565.499,-52.246,-41.504,-34.668,-70.312,130.859
1678020565.503,-41.992,-44.434,-34.180,-45.410,-114.746
1678020565.507,-28.809,-37.109,-34.668,-22.949,-151.855
1678020565.508,-28.320,-39.551,-35.645,-45.898,-70.801
1678020565.512,-42.969,-41.992,-39.062,-38.574,-72.754
1678020565.516,-49.805,-38.574,-34.668,-34.668,-113.770
1678020565.520,-34.180,-33.203,-31.250,-24.902,-69.336
1678020565.524,-20.508,-26.367,-34.180,-24.414,-54.688
1678020565.528,-31.738,-31.250,-37.598,-32.227,-28.809
1678020565.532,-29.297,-34.668,-35.156,-34.668,24.902
1678020565.535,-26.367,-32.715,-34.180,-28.320,98.633
1678020565.539,-31.250,-39.551,-31.738,5.371,402.832
1678020565.543,-22.461,-49.805,-36.621,-7.812,364.746
1678020565.547,-17.090,-47.852,-43.457,-26.367,2.930
1678020565.551,-24.414,-41.016,-39.062,-8.301,-77.637
1678020565.553,-36.621,-45.410,-30.762,9.766,-78.125
1678020565.557,-36.621,-47.363,-28.809,-2.441,-116.211
1678020565.561,-23.438,-43.457,-29.785,-26.367,-139.648
1678020565.565,-17.578,-44.434,-26.367,-12.695,-115.723
1678020565.569,-16.113,-45.898,-28.320,13.184,-68.359
1678020565.573,-12.207,-42.969,-29.297,13.184,-45.410
1678020565.577,-22.461,-41.016,-27.832,4.883,-44.434
1678020565.580,-21.973,-39.551,-29.297,10.742,208.984
1678020565.584,-11.230,-43.457,-35.645,-15.137,264.648
1678020565.588,-20.996,-42.969,-35.645,-27.344,-29.297
1678020565.592,-37.598,-38.574,-30.762,-23.926,-116.699
1678020565.596,-29.297,-45.898,-36.133,-9.766,-10.742
1678020565.598,-13.184,-53.223,-34.668,5.371,-40.527
1678020565.602,-19.043,-50.781,-28.320,-2.441,-167.480
1678020565.606,-13.672,-48.340,-29.297,-3.418,-81.543
1678020565.610,-13.672,-44.434,-31.738,-15.137,-19.043
1678020565.614,-35.645,-36.621,-33.691,-35.156,-179.199
1678020565.618,-37.598,-37.109,-31.250,-38.574,-141.113
1678020565.622,-36.133,-41.992,-30.273,-26.367,35.156
1678020565.625,-45.410,-42.480,-28.320,-1.953,299.805
1678020565.629,-43.945,-42.969,-28.809,-14.160,142.578
1678020565.633,-42.480,-41.992,-29.785,-58.594,-187.012
1678020565.637,-28.809,-40.527,-21.484,-34.180,22.949
1678020565.641,-22.461,-39.062,-19.043,12.207,163.086
1678020565.643,-31.250,-33.691,-22.949,17.090,-97.656
1678020565.647,-30.762,-35.645,-23.438,-10.254,-181.641
1678020565.651,-26.855,-40.527,-31.250,-43.457,1.953
1678020565.655,-27.832,-33.691,-38.086,-30.762,26.855
1678020565.659,-33.203,-46.875,-35.156,-22.949,-104.980
1678020565.663,-40.527,-51.270,-34.180,-30.762,-44.922
1678020565.667,-38.086,-36.133,-40.039,-35.645,183.105
1678020565.670,-46.387,-39.062,-41.992,-29.297,197.266
1678020565.674,-39.551,-42.969,-39.551,-40.039,-94.727
1678020565.678,-25.391,-46.875,-38.574,-50.781,-89.844
1678020565.682,-29.297,-33.691,-26.367,-32.227,-42.480
1678020565.686,-28.809,-23.438,-20.996,-18.066,-78.613
1678020565.689,-40.527,-41.992,-37.109,-42.480,-90.820
1678020565.693,-43.945,-35.645,-42.480,-47.852,-42.969
1678020565.697,-43.457,-29.785,-40.039,-40.039,14.648
1678020565.701,-41.016,-47.852,-47.363,-41.992,-62.012
1678020565.705,-40.527,-47.363,-41.992,-42.480,-43.457
1678020565.709,-61.523,-40.527,-33.691,-63.965,181.641
1678020565.713,-53.711,-48.828,-35.645,-45.898,274.414
1678020565.716,-47.363,-41.504,-29.785,-30.762,120.605
1678020565.720,-58.105,-28.320,-36.133,-53.711,7.324
1678020565.724,-40.039,-29.297,-33.691,-58.594,43.945
1678020565.728,-35.645,-17.090,-25.391,-26.855,144.531
1678020565.732,-64.453,-41.992,-46.875,-19.043,-54.199
1678020565.749,-56.641,-63.477,-40.039,-17.578,-147.949
1678020565.753,-48.340,-51.758,-14.160,-20.020,-28.809
1678020565.757,-63.477,-67.871,-38.086,-60.547,-62.012
1678020565.761,-68.848,-56.152,-54.199,-91.309,-123.535
1678020565.765,-62.988,-50.293,-43.945,-68.848,-39.551
1678020565.769,-52.734,-49.316,-32.715,-38.574,192.383
1678020565.773,-64.453,-34.668,-28.809,-22.461,253.906
1678020565.776,-64.453,-28.320,-34.668,-49.316,-81.543
1678020565.780,-60.547,-40.039,-36.133,-55.664,-171.387
1678020565.784,-65.430,-46.875,-39.062,-50.781,-150.391
1678020565.788,-55.664,-37.109,-37.598,-61.523,-122.559
1678020565.792,-49.805,-35.156,-31.738,-54.688,-130.371
1678020565.808,-54.199,-35.645,-27.344,-50.781,-107.910
1678020565.812,-50.781,-32.227,-22.461,-30.273,31.250
1678020565.816,-49.316,-28.809,-19.043,-24.414,-76.172
1678020565.820,-56.152,-37.109,-22.461,-41.992,-140.625
1678020565.824,-49.805,-36.621,-26.855,-43.457,-23.926
1678020565.828,-59.570,-36.133,-28.320,-30.762,5.859
1678020565.832,-74.707,-41.016,-26.367,-37.109,-32.227
1678020565.835,-67.383,-41.016,-27.832,-42.480,-48.340
1678020565.839,-51.270,-38.574,-34.668,-39.062,144.043
1678020565.843,-44.434,-37.598,-29.785,-32.715,149.902
1678020565.847,-48.340,-42.969,-27.344,-47.852,-147.461
1678020565.851,-49.805,-42.480,-33.203,-74.707,-203.613
1678020565.838,-49.805,-36.621,-35.156,-50.781,-31.250
1678020565.842,-42.480,-31.738,-34.180,-6.348,294.434
1678020565.846,-35.156,-32.715,-32.715,-23.438,176.270
1678020565.850,-31.738,-29.297,-30.762,-51.270,-165.039
1678020565.854,-33.203,-27.832,-28.809,-53.711,-106.445
1678020565.858,-42.969,-32.227,-26.855,-42.480,9.766
1678020565.862,-40.527,-29.297,-28.320,-40.527,-54.199
1678020565.865,-40.527,-22.949,-34.180,-37.109,-82.520
1678020565.869,-40.527,-20.996,-34.180,-37.598,-8.301
1678020565.873,-37.109,-26.367,-28.809,-57.617,-100.586
1678020565.877,-42.480,-31.250,-29.785,-54.199,-198.730
1678020565.881,-35.156,-35.156,-31.250,-47.852,-171.875
1678020565.916,-36.133,-38.574,-33.691,-42.969,88.867
1678020565.920,-39.062,-33.203,-38.574,-39.062,104.004
1678020565.924,-37.109,-36.133,-36.133,-32.227,-141.602
1678020565.928,-46.875,-42.969,-28.320,-38.574,-73.730
1678020565.932,-37.598,-30.273,-25.391,-29.297,34.180
1678020565.936,-36.133,-26.855,-26.855,-10.254,-38.574
1678020565.940,-32.227,-36.133,-30.273,-44.434,-100.586
1678020565.943,-25.879,-34.180,-33.691,-56.641,46.387
1678020565.947,-34.180,-30.273,-32.715,-48.828,68.848
1678020565.951,-38.574,-35.645,-34.180,-46.387,-164.551
1678020565.955,-19.531,-28.320,-33.691,-36.133,-156.738
1678020565.959,-16.602,-21.484,-30.273,-39.551,28.320
1678020565.944,-10.254,-16.602,-21.484,-30.762,38.574
1678020565.948,-17.090,-28.809,-19.043,-39.062,-147.949
1678020565.952,-30.273,-34.668,-20.508,-52.246,-189.941
1678020565.956,-15.625,-31.738,-17.578,-44.434,99.121
1678020565.960,-17.090,-39.551,-17.090,-22.461,209.961
1678020565.964,-25.391,-40.527,-20.996,-15.625,9.277
1678020565.968,-39.062,-39.062,-26.367,-28.809,-41.992
1678020565.971,-27.832,-31.738,-29.297,-56.641,-48.340
1678020565.975,-14.648,-24.902,-29.785,-50.781,-99.121
1678020565.979,-17.578,-29.297,-27.832,-27.832,-147.949
1678020565.983,-18.555,-35.645,-30.273,-32.715,-59.082
1678020565.987,-22.461,-33.203,-27.832,-26.855,-20.996
1678020566.003,-31.250,-39.551,-29.297,-27.344,-24.902
1678020566.007,-14.160,-37.109,-31.250,-55.176,-62.500
1678020566.011,-10.254,-30.762,-27.832,-44.434,-46.387
1678020566.015,-13.184,-29.297,-30.273,-14.160,245.117
1678020566.019,-13.184,-27.344,-31.738,-16.602,377.441
1678020566.023,-13.672,-34.668,-31.250,-17.090,109.863
1678020566.027,-0.488,-41.016,-19.043,0.977,52.246
1678020566.030,-11.230,-41.992,-16.113,-13.672,146.973
1678020566.034,-27.832,-42.969,-27.832,-36.621,-19.043
1678020566.038,-32.227,-43.945,-27.344,-42.969,-166.504
1678020566.042,-32.715,-41.016,-26.855,-39.062,-38.574
1678020566.046,-9.766,-34.668,-31.738,-18.066,59.570
1678020566.033,2.441,-28.809,-30.762,-15.137,-106.445
1678020566.037,-13.672,-31.738,-29.297,-33.203,-177.246
1678020566.041,-29.785,-39.062,-21.484,-16.602,9.766
1678020566.045,-31.250,-37.109,-24.902,0.977,179.688
1678020566.049,-22.461,-37.109,-34.668,-32.227,-59.570
1678020566.053,-13.672,-36.621,-32.227,-51.758,-71.777
1678020566.057,-5.371,-26.855,-28.320,-23.438,109.863
1678020566.060,-16.113,-34.668,-31.738,-17.090,-5.859
1678020566.064,-23.926,-43.457,-28.320,-30.762,-213.379
1678020566.068,-15.625,-38.574,-24.414,-31.738,-201.172
1678020566.072,-5.371,-28.320,-32.715,-26.855,62.988
1678020566.076,-1.465,-26.855,-33.691,-36.621,64.941
1678020566.063,-11.719,-38.574,-30.273,-41.504,-125.000
1678020566.067,-14.160,-40.039,-30.762,-38.086,-31.250
1678020566.071,-3.906,-34.180,-31.738,-30.762,169.434
1678020566.075,-2.441,-30.762,-29.785,-21.484,59.570
1678020566.079,-15.625,-33.203,-30.273,-25.879,-169.434
1678020566.083,-27.832,-30.762,-29.785,-24.902,1.465
1678020566.087,-34.668,-30.273,-28.809,-29.785,99.609
1678020566.090,-27.344,-31.250,-27.832,-48.828,-11.719
1678020566.094,-17.578,-26.367,-27.344,-45.410,-47.363
1678020566.098,-4.883,-25.879,-25.391,-40.039,29.297
1678020566.102,-10.742,-26.367,-20.996,-32.227,311.035
1678020566.106,-28.320,-25.879,-22.949,-43.945,215.820
1678020566.138,-32.227,-28.809,-23.926,-57.129,-132.812
1678020566.142,-17.090,-33.691,-26.367,-26.855,-114.258
1678020566.146,-14.160,-27.832,-29.297,-19.043,-120.605
1678020566.150,-23.926,-22.461,-27.344,-33.203,-180.664
1678020566.154,-21.973,-29.297,-26.855,-44.922,-178.711
1678020566.158,-31.738,-35.156,-28.320,-48.340,-23.438
1678020566.162,-27.344,-33.691,-25.391,-32.715,20.508
1678020566.165,-12.207,-31.738,-19.043,-32.715,-57.617
1678020566.169,-17.578,-31.738,-19.043,-30.273,-57.617
1678020566.173,-28.809,-21.484,-20.508,-23.926,125.488
1678020566.177,-28.320,-13.672,-19.531,-32.227,151.855
1678020566.181,-28.809,-24.414,-25.391,-27.832,-137.695
1678020566.168,-29.297,-41.504,-30.762,-20.020,-84.961
1678020566.172,-30.762,-48.340,-30.762,-34.668,-66.895
1678020566.176,-42.969,-45.410,-30.273,-36.621,-148.438
1678020566.180,-27.344,-37.109,-23.438,-21.973,-153.809
1678020566.184,-17.090,-34.180,-22.949,-44.434,-55.176
1678020566.188,-20.508,-32.227,-25.879,-48.828,63.477
1678020566.192,-33.203,-31.738,-25.879,-35.156,-1.953
1678020566.195,-40.039,-41.016,-25.391,-33.691,-48.828
1678020566.199,-35.645,-41.504,-24.414,-25.391,35.645
1678020566.203,-28.320,-30.762,-22.949,-17.578,69.336
1678020566.207,-16.602,-28.320,-21.973,-20.508,19.531
1678020566.211,-16.113,-36.621,-28.320,-38.086,-66.406
1678020566.214,-27.344,-38.574,-30.762,-30.273,20.020
1678020566.218,-30.273,-27.832,-24.902,-21.484,348.633
1678020566.222,-25.391,-24.902,-22.949,-37.598,247.559
1678020566.226,-29.785,-41.016,-21.973,-40.527,-40.527
1678020566.230,-30.762,-41.016,-24.902,-27.344,-82.520
1678020566.234,-28.320,-39.062,-32.715,-26.855,-39.062
1678020566.238,-35.156,-45.410,-33.203,-26.367,5.371
1678020566.241,-36.621,-35.645,-32.715,-38.086,-163.574
1678020566.245,-30.273,-33.691,-35.156,-42.480,24.414
1678020566.249,-33.203,-43.945,-34.668,-27.832,84.473
1678020566.253,-40.039,-41.992,-33.203,-42.480,-244.141
1678020566.257,-36.621,-28.809,-29.785,-47.363,-164.062
1678020566.259,-38.574,-27.344,-35.645,-45.410,-3.906
1678020566.263,-44.434,-39.062,-40.527,-49.316,-104.492
1678020566.267,-21.973,-33.691,-34.180,-27.344,-151.855
1678020566.271,-20.996,-23.438,-29.297,-27.832,-85.449
1678020566.275,-38.574,-32.227,-38.086,-44.434,-23.438
1678020566.279,-34.668,-41.016,-44.434,-28.809,-7.324
1678020566.283,-34.668,-39.551,-39.062,-27.832,-43.945
1678020566.286,-29.297,-39.551,-31.738,-21.973,53.223
1678020566.290,-30.762,-38.574,-25.391,-9.277,142.090
1678020566.294,-43.457,-30.762,-28.320,-23.438,-104.980
1678020566.298,-37.598,-28.320,-30.273,-44.922,-241.211
1678020566.302,-34.668,-29.785,-26.855,-30.273,10.254
1678020566.304,-29.785,-24.414,-27.344,-1.465,211.914
1678020566.308,-33.691,-20.996,-29.785,-34.668,-61.523
1678020566.312,-42.969,-19.043,-31.250,-55.176,-45.410
1678020566.316,-38.574,-27.832,-36.133,-41.016,79.590
1678020566.320,-34.180,-35.645,-37.109,-49.805,-98.145
1678020566.324,-36.621,-31.250,-32.227,-53.223,-138.184
1678020566.328,-43.945,-31.738,-23.438,-24.902,-19.531
1678020566.331,-50.781,-36.621,-24.414,-5.859,169.434
1678020566.335,-47.363,-30.762,-37.109,-17.578,200.195
1678020566.339,-36.133,-23.438,-37.598,-27.832,-98.145
1678020566.343,-26.855,-27.832,-37.598,-18.066,-158.691
1678020566.347,-23.438,-34.180,-37.109,-27.832,-81.543
1678020566.348,-41.992,-34.668,-30.273,-39.551,-137.207
1678020566.352,-53.711,-30.762,-28.320,-26.855,-172.852
1678020566.356,-44.922,-26.855,-23.926,-23.438,-109.863
1678020566.360,-37.598,-28.320,-25.391,-25.391,-25.391
1678020566.364,-40.527,-31.738,-30.273,-34.668,-106.445
1678020566.368,-47.852,-26.855,-27.832,-30.762,-111.328
1678020566.372,-47.363,-19.043,-23.926,-12.695,35.645
1678020566.375,-41.016,-31.738,-25.879,-20.020,375.000
1678020566.379,-30.273,-37.598,-27.832,-7.324,353.516
1678020566.383,-31.738,-28.320,-25.391,-0.977,-108.887
1678020566.387,-43.457,-34.180,-22.461,-11.719,-72.754
1678020566.391,-43.945,-44.434,-25.879,-10.254,105.469
1678020566.409,-34.180,-34.180,-28.809,-17.090,-52.734
1678020566.413,-36.621,-34.180,-28.320,-19.531,-104.980
1678020566.417,-45.410,-45.410,-26.367,-19.043,-19.531
1678020566.421,-35.156,-39.551,-27.344,-30.762,-34.668
1678020566.425,-36.133,-32.715,-25.879,-22.949,-81.543
1678020566.429,-37.109,-39.062,-25.879,-10.254,23.438
1678020566.433,-25.391,-30.273,-28.320,-7.812,81.543
1678020566.436,-25.391,-20.996,-24.414,-5.859,-37.109
1678020566.440,-29.297,-30.762,-22.461,-11.230,-121.094
1678020566.444,-36.621,-31.738,-20.020,-19.531,-150.879
1678020566.448,-38.574,-29.297,-17.090,-22.949,119.141
1678020566.452,-29.785,-34.180,-19.043,-12.207,171.875
1678020566.442,-37.109,-47.363,-15.625,-23.926,-99.121
1678020566.446,-41.992,-48.828,-16.113,-22.461,-38.086
1678020566.450,-51.758,-42.969,-24.902,-23.438,-21.973
1678020566.454,-53.223,-44.922,-25.391,-36.621,-119.629
1678020566.458,-36.621,-39.062,-29.785,-22.949,-159.668
1678020566.462,-39.062,-29.297,-21.973,-25.879,55.664
1678020566.466,-32.715,-30.273,-16.113,-36.621,76.660
1678020566.469,-41.504,-29.297,-29.297,-20.508,-50.781
1678020566.473,-56.641,-29.297,-30.273,-11.719,-93.750
1678020566.477,-44.434,-25.391,-31.738,-20.996,34.180
1678020566.481,-34.180,-25.879,-34.668,-12.695,163.574
1678020566.485,-38.574,-34.180,-32.227,-30.762,-48.828
1678020566.499,-50.293,-39.062,-33.691,-56.641,-127.441
1678020566.503,-50.781,-39.062,-28.809,-47.363,81.055
1678020566.507,-38.574,-26.855,-26.367,-24.414,132.812
1678020566.511,-38.086,-29.785,-32.227,-21.484,-98.633
1678020566.515,-48.828,-39.551,-32.715,-33.691,-149.902
1678020566.519,-54.199,-30.273,-31.738,-42.969,142.090
1678020566.523,-49.805,-19.043,-31.250,-19.043,497.070
1678020566.526,-32.715,-31.250,-28.320,-25.879,207.520
1678020566.530,-27.344,-40.527,-25.879,-52.246,-145.020
1678020566.534,-40.039,-34.668,-26.855,-33.691,-84.473
1678020566.538,-49.805,-28.809,-18.555,-17.090,-112.305
1678020566.542,-50.293,-25.391,-20.020,-23.926,-150.391
1678020566.543,-45.898,-32.715,-34.180,-31.738,-55.664
1678020566.547,-45.410,-45.898,-42.969,-31.250,-12.695
1678020566.551,-51.758,-49.316,-40.527,-26.855,-132.324
1678020566.555,-45.410,-32.227,-31.738,-24.902,-196.289
1678020566.559,-38.574,-22.949,-32.227,-23.926,-90.820
1678020566.563,-28.809,-25.879,-35.645,-39.551,72.266
1678020566.567,-44.434,-36.621,-36.133,-49.805,10.254
1678020566.570,-44.434,-42.480,-36.621,-42.480,-110.352
1678020566.574,-38.574,-37.109,-34.180,-56.641,23.926
1678020566.578,-46.387,-33.691,-33.203,-48.340,210.449
1678020566.582,-38.574,-27.344,-33.691,-26.855,-53.711
1678020566.586,-38.574,-34.180,-33.203,-32.715,-242.188
1678020566.589,-28.320,-22.949,-24.902,-23.438,-24.902
1678020566.593,-30.273,-18.066,-28.320,-19.531,76.660
1678020566.597,-41.016,-42.969,-40.527,-43.945,-96.680
1678020566.601,-38.086,-50.781,-35.645,-20.020,-214.355
1678020566.605,-23.438,-54.688,-21.973,-17.090,-109.863
1678020566.609,-22.461,-41.016,-20.020,-40.039,38.574
1678020566.613,-41.016,-26.855,-30.762,-43.457,-83.984
1678020566.616,-41.016,-32.715,-38.574,-39.551,-187.988
1678020566.620,-22.949,-29.785,-42.480,-9.766,117.676
1678020566.624,-30.762,-20.996,-37.109,-6.836,165.527
1678020566.628,-37.598,-24.902,-46.875,-19.531,-161.133
1678020566.632,-34.668,-32.227,-47.363,-17.578,-103.516
1678020566.633,-54.199,-31.250,-35.156,-33.691,-8.301
1678020566.637,-46.875,-32.715,-37.109,-31.738,-62.988
1678020566.641,-27.344,-39.551,-40.527,-45.410,-108.887
1678020566.645,-32.227,-37.598,-34.180,-33.203,-68.359
1678020566.649,-35.645,-24.902,-31.250,-25.391,60.059
1678020566.653,-41.504,-24.414,-37.109,-47.852,39.551
1678020566.657,-41.504,-24.902,-41.504,-36.133,-30.762
1678020566.660,-38.086,-18.555,-39.551,-38.086,90.820
1678020566.664,-46.875,-33.203,-39.551,-33.691,375.488
1678020566.668,-49.316,-40.039,-41.016,-24.414,204.102
1678020566.672,-48.828,-31.738,-32.227,-29.785,-166.504
1678020566.676,-47.852,-29.785,-30.762,-26.367,-119.629
1678020566.678,-49.316,-32.715,-41.016,-35.156,-61.035
1678020566.682,-46.387,-33.691,-42.480,-49.805,-159.668
1678020566.686,-42.480,-31.738,-41.504,-45.898,-212.891
1678020566.690,-52.246,-36.621,-38.574,-36.133,-137.695
1678020566.694,-46.875,-40.039,-40.039,-34.668,-79.102
1678020566.698,-39.062,-38.086,-37.109,-7.812,-43.457
1678020566.702,-38.574,-33.691,-38.574,-16.602,-45.898
1678020566.705,-35.645,-32.227,-43.457,-40.039,168.945
1678020566.709,-36.621,-43.945,-41.016,0.977,230.469
1678020566.713,-26.855,-37.109,-44.922,-0.977,-54.688
1678020566.717,-37.598,-20.020,-43.945,-56.152,-173.340
1678020566.721,-49.316,-21.973,-41.016,-73.730,-89.844
1678020566.723,-47.852,-21.973,-46.875,-67.383,-75.684
1678020566.727,-57.129,-17.578,-48.340,-54.688,-175.781
1678020566.731,-59.570,-16.602,-45.898,-60.547,-116.211
1678020566.735,-54.688,-19.531,-44.922,-59.082,-69.824
1678020566.739,-59.082,-21.484,-42.969,-41.016,-128.418
1678020566.743,-55.176,-23.438,-37.109,-28.320,-65.918
1678020566.747,-52.734,-29.297,-36.133,-26.367,89.355
1678020566.750,-59.570,-33.203,-37.109,-42.969,365.723
1678020566.754,-49.805,-24.902,-33.203,-32.715,219.238
1678020566.758,-40.527,-26.367,-32.227,-40.527,-84.473
1678020566.762,-43.945,-27.344,-32.715,-49.316,31.738
1678020566.766,-38.574,-21.484,-37.109,-41.016,92.773
1678020566.768,-47.852,-31.250,-43.457,-59.082,-75.684
1678020566.772,-44.922,-27.832,-35.156,-37.598,-83.496
1678020566.776,-35.156,-19.531,-30.762,-17.578,-33.203
1678020566.780,-33.691,-16.602,-35.156,-27.344,-91.309
1678020566.784,-34.668,-14.648,-38.574,-36.621,-135.254
1678020566.788,-47.852,-22.949,-43.457,-52.246,-86.426
1678020566.792,-42.969,-31.250,-41.016,-39.551,178.711
1678020566.795,-28.320,-30.273,-33.203,-16.602,203.125
1678020566.799,-21.484,-29.297,-36.621,-17.578,-154.785
1678020566.803,-14.160,-31.738,-37.598,-20.508,-193.359
1678020566.807,-19.531,-30.273,-31.738,-40.039,-65.918
1678020566.811,-33.203,-32.227,-34.180,-42.480,-86.426
1678020566.814,-25.391,-27.344,-31.738,-36.133,-190.430
1678020566.818,-19.531,-20.996,-29.297,-45.410,-99.121
1678020566.822,-26.855,-25.879,-31.738,-44.922,21.973
1678020566.826,-37.598,-34.668,-37.109,-33.691,-85.449
1678020566.830,-37.598,-33.203,-44.922,-30.762,-160.156
1678020566.834,-18.555,-25.391,-45.410,-29.785,23.438
1678020566.838,-16.113,-24.902,-39.551,-21.973,175.293
1678020566.841,-33.203,-26.855,-36.133,-18.066,-17.090
1678020566.845,-38.574,-33.691,-40.039,-28.809,-158.203
1678020566.849,-37.109,-39.062,-37.598,-34.180,24.414
1678020566.853,-32.227,-31.738,-38.574,-21.484,169.922
1678020566.857,-27.344,-27.344,-34.180,-10.742,-98.145
1678020566.873,-31.738,-39.551,-27.832,-19.043,-183.105
1678020566.877,-38.086,-44.434,-32.715,-33.203,-90.332
1678020566.881,-52.246,-34.668,-35.645,-38.086,-101.074
1678020566.885,-57.129,-40.039,-33.203,-20.508,-136.719
1678020566.889,-55.176,-44.434,-35.645,-13.672,-103.027
1678020566.893,-43.457,-34.668,-36.133,-24.414,175.293
1678020566.897,-44.434,-31.250,-36.133,-44.922,220.703
1678020566.900,-58.594,-35.156,-41.016,-53.711,-87.891
1678020566.904,-48.340,-42.969,-40.527,-47.363,-85.449
1678020566.908,-37.109,-47.852,-41.016,-52.246,49.805
1678020566.912,-44.922,-40.039,-36.133,-43.945,-29.297
1678020566.916,-53.223,-38.086,-30.762,-39.062,-131.348
1678020566.918,-49.805,-42.480,-36.621,-30.273,-74.219
1678020566.922,-48.340,-37.598,-40.527,-29.785,-41.016
1678020566.926,-37.598,-34.668,-38.086,-31.738,-31.738
1678020566.930,-27.344,-35.645,-34.180,-11.230,-71.289
1678020566.934,-31.250,-27.344,-32.715,-16.602,42.969
1678020566.938,-36.133,-28.320,-36.621,-31.738,127.930
1678020566.942,-34.668,-27.832,-36.133,-27.832,33.691
1678020566.945,-16.602,-24.414,-31.250,-33.203,27.832
1678020566.949,-13.672,-32.715,-29.785,-27.832,74.707
1678020566.953,-35.156,-26.855,-27.832,-1.465,293.457
1678020566.957,-35.645,-13.672,-30.273,2.930,166.504
1678020566.961,-24.902,-24.414,-26.855,-13.184,-112.305
1678020566.963,-24.902,-34.668,-27.832,-11.230,-20.996
1678020566.967,-24.414,-33.203,-30.762,-22.461,-62.988
1678020566.971,-14.160,-28.809,-27.344,-41.016,-175.293
1678020566.975,-30.273,-32.227,-28.320,-38.086,-183.594
1678020566.979,-45.410,-34.668,-29.297,-34.668,-121.094
1678020566.983,-26.367,-31.250,-30.273,-33.691,70.312
1678020566.987,-18.555,-32.715,-24.902,-36.621,-2.441
1678020566.990,-27.832,-34.180,-27.344,-47.363,-148.926
1678020566.994,-39.062,-37.598,-24.902,-29.297,81.055
1678020566.998,-41.992,-44.922,-32.715,-34.180,222.656
1678020567.002,-44.922,-38.574,-43.457,-39.551,-50.781
1678020567.006,-40.039,-27.832,-34.180,-7.812,-128.418
1678020567.008,-39.062,-30.273,-34.668,-31.250,-49.805
1678020567.012,-46.387,-28.320,-37.109,-66.895,-104.004
1678020567.016,-44.434,-19.531,-23.438,-52.734,-171.875
1678020567.020,-40.527,-33.203,-20.996,-33.691,-50.781
1678020567.024,-38.086,-33.203,-28.809,-37.109,44.922
1678020567.028,-37.109,-26.855,-32.227,-41.992,-71.777
1678020567.032,-50.781,-34.668,-27.344,-53.223,-91.797
1678020567.035,-62.012,-28.320,-25.391,-41.504,80.566
1678020567.039,-48.340,-23.926,-30.273,-14.160,410.645
1678020567.043,-32.715,-21.484,-29.297,-31.250,293.457
1678020567.047,-30.762,-24.902,-29.785,-53.711,-143.555
1678020567.051,-48.340,-38.086,-30.273,-43.457,-200.684
1678020567.053,-51.758,-32.227,-24.902,-27.344,-107.910
1678020567.057,-41.992,-23.926,-27.832,-33.691,-105.469
1678020567.061,-35.645,-26.367,-35.156,-42.969,-42.480
1678020567.065,-25.391,-35.645,-36.133,-22.461,-11.719
1678020567.069,-36.133,-46.875,-35.156,-31.250,-106.445
1678020567.073,-54.688,-41.016,-29.785,-51.758,-84.961
1678020567.077,-58.105,-35.156,-25.879,-63.965,-38.086
1678020567.080,-56.152,-39.062,-21.484,-43.457,257.812
1678020567.084,-50.781,-39.551,-23.438,-20.508,286.133
1678020567.088,-56.641,-38.574,-35.645,-45.410,-81.055
1678020567.092,-57.129,-32.715,-40.527,-60.059,6.348
1678020567.096,-39.551,-28.320,-33.691,-52.246,86.426
1678020567.098,-32.715,-32.227,-25.879,-41.992,-106.445
1678020567.102,-46.387,-35.645,-20.996,-40.039,-182.129
1678020567.106,-46.875,-32.715,-20.996,-49.805,-110.840
1678020567.110,-51.758,-47.852,-20.996,-46.387,-99.121
1678020567.114,-54.688,-56.152,-29.297,-45.898,-120.605
1678020567.118,-45.898,-43.457,-32.715,-57.129,-54.199
1678020567.122,-35.156,-33.203,-24.902,-43.457,61.035
1678020567.125,-41.504,-29.785,-17.578,-17.090,293.945
1678020567.129,-46.387,-30.762,-21.484,-21.973,175.293
1678020567.133,-38.574,-44.434,-26.367,-39.551,-152.832
1678020567.137,-39.062,-43.945,-27.344,-33.203,-90.332
1678020567.141,-40.527,-42.480,-32.715,-30.273,-31.738
1678020567.144,-39.551,-39.062,-31.738,-36.133,-155.273
1678020567.148,-36.133,-28.809,-23.438,-24.414,-93.750
1678020567.152,-29.785,-28.809,-17.090,-36.621,53.223
1678020567.156,-29.785,-32.227,-23.926,-44.922,-22.461
1678020567.160,-35.645,-36.621,-27.344,-37.598,-128.418
1678020567.164,-42.480,-42.969,-26.367,-32.227,-72.754
1678020567.168,-44.922,-31.738,-26.855,-27.832,222.168
1678020567.171,-42.969,-20.508,-31.250,-38.574,223.633
1678020567.175,-32.715,-20.996,-36.133,-58.594,-134.766
1678020567.179,-27.344,-14.648,-30.762,-44.922,-156.250
1678020567.183,-41.992,-25.391,-25.879,-37.109,-69.336
1678020567.187,-48.828,-33.203,-28.320,-45.898,-54.199
1678020567.188,-43.457,-38.574,-32.715,-65.430,-107.422
1678020567.192,-40.039,-41.016,-33.203,-60.547,-96.191
1678020567.196,-34.180,-22.949,-32.227,-30.762,-72.754
1678020567.200,-41.992,-25.879,-36.133,-37.109,-53.223
1678020567.204,-49.316,-36.133,-36.133,-49.316,-24.902
1678020567.208,-40.527,-33.203,-33.691,-46.875,12.695
1678020567.212,-42.969,-25.391,-33.691,-24.902,323.242
1678020567.215,-51.758,-17.090,-35.156,-19.043,236.816
1678020567.219,-49.316,-26.855,-35.645,-41.504,-153.809
1678020567.223,-55.664,-36.133,-31.250,-35.156,-23.438
1678020567.227,-56.152,-32.227,-34.180,-28.320,51.758
1678020567.231,-45.410,-29.297,-34.668,-62.988,-135.254
1678020567.248,-36.621,-24.414,-27.344,-48.828,-178.223
1678020567.252,-42.969,-29.785,-31.738,-26.367,-120.117
1678020567.256,-50.781,-30.273,-31.250,-52.246,-58.594
1678020567.260,-51.758,-36.133,-24.902,-54.688,-142.090
1678020567.264,-41.504,-47.852,-35.645,-34.180,-116.211
1678020567.268,-38.574,-52.734,-32.715,-33.203,60.059
1678020567.272,-43.457,-71.289,-50.293,-35.645,125.000
1678020567.275,-50.293,-47.852,-70.801,-36.621,73.730
1678020567.279,-54.199,-16.113,-21.484,-40.039,-68.359
1678020567.283,-39.062,-22.949,-9.277,-14.648,142.090
1678020567.287,-32.227,-31.738,-33.691,-22.461,241.211
1678020567.291,-41.016,-35.156,-14.160,-55.176,-92.285
1678020567.293,-47.363,-30.762,-10.254,-22.949,-121.582
1678020567.297,-48.828,-16.602,-16.113,-3.906,-65.918
1678020567.301,-54.199,-8.301,-15.137,-26.367,-95.703
1678020567.305,-65.430,-23.926,-19.043,-19.531,-133.301
1678020567.309,-61.035,-18.555,-2.441,-16.602,-34.668
1678020567.313,-53.711,-2.441,5.371,-35.156,55.664
1678020567.317,-58.105,-21.973,-15.137,-50.293,-9.277
1678020567.320,-59.570,-27.832,-27.832,-57.617,-57.129
1678020567.324,-56.641,-26.367,-22.949,-42.480,-59.082
1678020567.328,-70.312,-38.086,-32.227,-24.902,221.191
1678020567.332,-75.195,-42.480,-42.480,-51.758,196.289
1678020567.336,-73.242,-41.016,-44.434,-55.176,-155.273
1678020567.338,-57.129,-42.480,-49.316,-36.133,-156.738
1678020567.342,-44.434,-50.781,-47.852,-25.879,-118.164
1678020567.346,-57.617,-57.617,-41.992,-33.691,-173.340
1678020567.350,-62.500,-47.852,-37.598,-39.062,-200.195
1678020567.354,-64.453,-50.293,-39.062,-38.086,-100.098
1678020567.358,-59.570,-64.453,-38.574,-41.504,-1.953
1678020567.362,-51.758,-62.988,-40.039,-30.762,-112.793
1678020567.365,-51.270,-56.152,-40.039,-44.434,-137.207
1678020567.369,-54.199,-47.852,-32.227,-26.367,158.691
1678020567.373,-54.688,-42.969,-37.598,-4.883,137.695
1678020567.377,-66.895,-47.852,-42.969,-16.602,-112.793
1678020567.381,-62.012,-39.551,-38.086,-33.691,-14.648
1678020567.383,-40.039,-34.180,-38.574,-37.598,22.949
1678020567.387,-43.457,-39.062,-38.086,-45.898,-70.312
1678020567.391,-54.199,-46.387,-38.086,-37.598,-123.047
1678020567.395,-64.941,-50.293,-32.227,-19.531,-108.887
1678020567.399,-57.129,-45.410,-38.086,-33.203,-28.809
1678020567.403,-57.129,-47.852,-58.594,-49.805,-13.184
1678020567.407,-56.152,-57.129,-48.828,-44.922,3.906
1678020567.410,-61.035,-62.012,-35.156,-53.711,65.918
1678020567.414,-68.359,-47.363,-46.875,-55.664,275.879
1678020567.418,-50.781,-41.504,-46.875,-22.461,174.805
1678020567.422,-44.922,-49.316,-28.809,-11.230,-149.414
1678020567.426,-48.340,-47.852,-31.738,-24.414,-150.879
1678020567.429,-44.434,-40.527,-43.457,-44.922,-130.371
1678020567.433,-55.176,-41.016,-37.598,-24.414,-90.820
1678020567.437,-52.246,-42.969,-36.621,-0.488,-100.586
1678020567.441,-36.621,-42.969,-42.480,-24.902,28.320
1678020567.445,-41.992,-53.223,-37.598,-22.949,58.594
1678020567.449,-57.129,-53.223,-26.855,-26.855,-51.270
1678020567.453,-55.176,-39.551,-25.879,-38.574,-52.734
1678020567.456,-30.273,-31.738,-30.273,-16.113,131.348
1678020567.460,-28.320,-36.133,-31.738,4.883,108.398
1678020567.464,-42.480,-42.969,-37.109,-25.391,-143.066
1678020567.468,-49.805,-41.992,-28.320,-42.480,-129.395
1678020567.472,-62.012,-38.574,-25.879,-21.973,-110.352
1678020567.473,-47.852,-41.504,-35.156,-42.480,-95.215
1678020567.477,-46.387,-50.293,-34.180,-38.086,-141.113
1678020567.481,-51.758,-42.480,-30.273,-22.949,-97.656
1678020567.485,-49.316,-38.574,-31.738,-18.066,-43.457
1678020567.489,-62.500,-53.711,-36.133,-53.711,-121.582
1678020567.493,-56.152,-57.617,-37.598,-52.734,-34.668
1678020567.497,-54.688,-47.363,-37.598,-22.461,151.367
1678020567.500,-44.434,-44.434,-29.785,-11.719,450.195
1678020567.504,-42.969,-48.828,-27.344,-18.066,408.203
1678020567.508,-65.430,-51.270,-34.668,-55.176,-43.457
1678020567.512,-57.617,-41.992,-37.109,-44.434,-141.602
1678020567.516,-38.574,-41.016,-44.922,-29.297,-91.309
1678020567.518,-39.062,-49.316,-33.203,-36.133,-113.281
1678020567.522,-39.551,-47.363,-23.926,-43.457,-139.648
1678020567.526,-44.922,-41.016,-31.250,-41.504,-63.477
1678020567.530,-55.176,-41.992,-28.809,-36.621,-77.637
1678020567.534,-44.434,-37.598,-31.250,-41.504,-158.691
1678020567.538,-39.551,-41.504,-33.203,-53.711,-106.445
1678020567.542,-57.617,-48.828,-30.762,-37.598,238.281
1678020567.545,-58.594,-41.504,-32.227,-27.832,352.051
1678020567.549,-55.176,-29.785,-35.156,-46.387,-12.695
1678020567.553,-48.828,-30.273,-37.598,-54.688,-115.723
1678020567.557,-47.363,-34.668,-32.227,-45.898,-32.227
1678020567.561,-45.898,-35.156,-32.715,-62.500,-89.355
1678020567.563,-50.293,-31.250,-28.809,-41.992,-150.391
1678020567.567,-42.480,-30.273,-27.832,-16.602,-64.941
1678020567.571,-40.527,-35.645,-37.109,-56.641,-37.109
1678020567.575,-62.988,-30.762,-33.691,-80.078,-58.594
1678020567.579,-67.871,-27.344,-32.227,-49.316,-98.145
1678020567.583,-57.129,-29.785,-36.133,-47.852,-9.277
1678020567.587,-57.129,-25.879,-33.691,-65.430,187.012
1678020567.590,-63.477,-21.973,-26.855,-37.109,104.492
1678020567.594,-50.781,-23.438,-27.832,-28.320,-13.672
1678020567.598,-60.547,-15.625,-27.832,-44.434,59.570
1678020567.602,-83.984,-14.648,-21.973,-54.199,274.414
1678020567.606,-94.238,-15.625,-24.414,-82.520,83.984
1678020567.624,-103.027,-7.324,-26.855,-106.445,-147.461
1678020567.628,-111.816,7.812,-17.578,-94.238,-107.910
1678020567.632,-125.977,26.855,-7.324,-124.512,-127.930
1678020567.636,-147.949,29.297,2.930,-173.340,-116.211
1678020567.640,-179.688,31.738,10.742,-172.852,-126.953
1678020567.644,-201.660,36.133,20.020,-168.457,-21.973
1678020567.648,-200.684,36.133,29.785,-180.176,53.711
1678020567.651,-205.566,37.598,37.598,-220.215,-106.445
1678020567.655,-224.121,38.574,42.969,-227.051,-189.941
1678020567.659,-231.934,42.480,43.945,-218.750,29.297
1678020567.663,-226.562,45.410,41.016,-249.512,116.699
1678020567.667,-214.355,28.809,40.039,-249.023,-126.465
1678020567.668,-204.590,21.484,48.828,-211.914,-186.035
1678020567.672,-203.613,49.805,32.715,-182.129,-28.320
1678020567.676,-191.406,52.734,7.324,-191.895,-34.180
1678020567.680,-188.477,22.461,17.578,-219.238,-164.062
1678020567.684,-175.293,33.203,20.996,-198.242,-94.238
1678020567.688,-156.738,21.484,24.414,-153.320,58.594
1678020567.692,-155.762,45.410,6.348,-153.809,79.102
1678020567.695,-153.320,39.062,-39.062,-143.555,5.371
1678020567.699,-125.977,4.395,-42.480,-110.840,58.594
1678020567.703,-81.543,2.930,-23.926,-72.754,340.332
1678020567.707,-71.777,-15.625,-25.391,-61.523,269.531
1678020567.711,-66.895,-15.625,-26.855,-71.777,-30.762
1678020567.713,-59.570,-13.184,-18.555,-40.039,2.930
1678020567.717,-54.199,-41.992,-35.156,-17.578,-35.645
1678020567.721,-35.645,-43.945,-40.039,-23.438,-162.109
1678020567.725,-32.715,-41.016,-38.086,-27.344,-187.500
1678020567.729,-21.484,-43.457,-49.316,-17.090,-70.801
1678020567.733,-8.789,0.488,-54.199,-11.230,74.219
1678020567.737,4.883,15.137,-44.434,-8.301,59.570
1678020567.740,19.043,-4.883,-41.504,-4.395,-20.020
1678020567.744,17.578,-36.133,-49.805,14.648,162.598
1678020567.748,12.695,-65.430,-37.109,41.504,198.242
1678020567.752,5.371,-70.801,-27.832,44.922,-101.074
1678020567.756,16.113,-64.453,-44.922,41.016,-135.254
1678020567.759,35.156,-67.383,-62.012,28.809,-115.234
1678020567.763,31.250,-88.379,-62.500,33.203,-96.191
1678020567.767,33.691,-100.586,-56.641,61.035,-64.941
1678020567.771,29.785,-86.426,-59.082,94.238,11.719
1678020567.775,33.691,-91.797,-61.035,72.266,24.414
1678020567.779,45.898,-108.398,-57.617,31.738,6.348
1678020567.783,41.504,-101.074,-54.199,39.062,-2.441
1678020567.786,43.945,-107.910,-57.617,42.480,19.531
1678020567.790,36.621,-104.004,-61.035,51.270,338.379
1678020567.794,25.391,-87.402,-56.641,52.734,191.895
1678020567.798,25.391,-115.234,-61.035,37.109,-178.223
1678020567.802,32.227,-125.977,-65.430,31.738,-90.332
1678020567.803,34.180,-104.004,-61.035,43.945,-59.570
1678020567.807,31.250,-112.305,-62.500,48.340,-189.453
1678020567.811,22.949,-113.281,-56.152,34.668,-182.129
1678020567.815,19.043,-105.957,-49.316,32.715,-67.383
1678020567.819,30.273,-100.098,-46.875,33.203,-64.453
1678020567.823,27.344,-104.004,-46.387,27.832,-24.902
1678020567.827,17.578,-118.164,-56.152,35.156,-61.523
1678020567.830,13.184,-118.652,-57.617,45.410,118.652
1678020567.834,17.578,-101.562,-50.293,39.551,273.438
1678020567.838,26.855,-109.863,-54.199,23.438,-49.805
1678020567.842,23.926,-120.605,-58.594,21.973,-146.484
1678020567.846,19.043,-80.078,-47.852,23.438,-106.934
1678020567.848,22.949,-66.895,-46.387,22.949,-91.309
1678020567.852,29.297,-80.566,-58.594,33.203,-111.816
1678020567.856,28.809,-83.008,-53.223,33.691,-109.375
1678020567.860,17.090,-81.543,-39.551,15.137,-41.992
1678020567.864,9.277,-76.172,-35.645,9.766,-115.234
1678020567.868,3.418,-89.844,-41.992,5.859,-182.129
1678020567.872,7.812,-95.703,-46.875,9.766,57.129
1678020567.875,14.648,-82.031,-40.039,27.344,310.059
1678020567.879,14.648,-72.754,-35.645,34.180,177.246
1678020567.883,13.184,-62.988,-41.992,19.531,-68.359
1678020567.887,1.465,-67.383,-45.898,-10.742,-28.809
1678020567.891,0.000,-83.008,-38.574,-9.766,85.449
1678020567.893,7.324,-73.730,-35.645,-5.371,-104.980
1678020567.897,-0.977,-62.012,-38.574,7.324,-182.129
1678020567.901,-1.465,-62.012,-38.574,17.090,-63.477
1678020567.905,-6.836,-65.430,-34.180,10.254,-96.191
1678020567.909,-12.207,-64.453,-36.621,-9.766,-188.477
1678020567.913,2.930,-53.223,-38.574,-25.879,-123.047
1678020567.917,11.719,-42.969,-35.156,-6.836,198.730
1678020567.920,-0.977,-44.922,-35.645,1.953,216.309
1678020567.924,-11.230,-45.410,-34.668,-4.883,-126.465
1678020567.928,-2.441,-41.992,-39.551,-7.324,-133.789
1678020567.932,6.348,-40.527,-42.969,-1.953,-69.824
1678020567.936,0.977,-39.551,-39.062,-2.930,-114.746
1678020567.938,-11.719,-49.316,-36.133,-9.766,-125.000
1678020567.942,-10.742,-48.828,-37.109,-22.461,-94.238
1678020567.946,-2.930,-46.875,-39.551,-27.832,-99.609
1678020567.950,11.230,-62.500,-37.598,-12.207,-107.910
1678020567.954,19.043,-55.664,-30.273,-1.953,-134.277
1678020567.958,5.859,-31.738,-25.391,-9.766,42.480
1678020567.962,-19.043,-46.875,-36.133,-20.996,202.637
1678020567.965,-22.949,-52.246,-41.992,-13.184,32.227
1678020567.969,-1.465,-43.945,-40.039,-6.836,-97.168
1678020567.973,1.465,-56.152,-37.598,-4.395,-30.273
1678020567.977,-1.953,-60.059,-31.738,16.113,131.348
1678020567.981,-11.230,-46.875,-33.203,6.348,-22.949
1678020567.998,-8.789,-42.480,-33.203,-28.320,-153.320
1678020568.002,-1.465,-42.969,-33.691,-19.531,-10.742
1678020568.006,-3.906,-38.086,-33.203,-5.859,-3.418
1678020568.010,6.348,-39.551,-29.297,-14.648,-171.387
1678020568.014,-7.324,-50.293,-29.297,-16.602,-169.434
1678020568.018,-21.484,-48.828,-36.133,-20.508,-43.457
1678020568.022,-13.672,-48.340,-38.086,-22.461,13.672
1678020568.025,-11.719,-35.645,-36.621,-25.391,-95.215
1678020568.029,-11.719,-17.578,-35.156,-18.555,-153.320
1678020568.033,-13.672,-24.414,-32.715,1.953,62.012
1678020568.037,-11.230,-28.809,-31.250,-6.836,59.082
1678020568.041,-17.090,-33.691,-38.574,-33.691,-161.133
1678020568.044,-16.602,-44.922,-47.363,-19.531,-128.418
1678020568.048,-19.531,-42.480,-46.387,-9.766,-56.641
1678020568.052,-31.738,-53.223,-39.062,-18.555,-33.203
1678020568.056,-43.945,-63.965,-35.645,-11.719,-122.559
1678020568.060,-34.668,-36.621,-44.922,-17.090,-38.574
1678020568.064,-5.859,-41.504,-48.340,-42.969,166.992
1678020568.068,-15.625,-51.270,-40.039,-27.832,31.738
1678020568.071,-27.832,-32.715,-32.715,-13.184,-79.590
1678020568.075,-27.832,-18.555,-19.531,-7.812,-10.742
1678020568.079,-33.691,-31.738,-18.555,3.418,292.480
1678020568.083,-23.438,-52.734,-26.367,-15.137,178.223
1678020568.087,-18.066,-42.480,-30.273,-42.480,-173.340
1678020568.088,-31.250,-34.668,-32.227,-36.133,-78.613
1678020568.092,-44.922,-33.691,-32.227,-26.855,-92.285
1678020568.096,-39.551,-29.297,-23.438,-34.668,-138.672
1678020568.100,-29.785,-33.203,-24.902,-30.762,-95.215
1678020568.104,-27.344,-35.156,-38.574,-20.996,12.207
1678020568.108,-33.203,-40.039,-26.367,-19.531,42.969
1678020568.112,-32.715,-32.227,-20.508,-14.160,-14.160
1678020568.115,-27.344,-24.414,-33.691,-20.020,-97.168
1678020568.119,-25.391,-24.414,-37.598,-31.250,91.797
1678020568.123,-22.461,-27.344,-41.992,-16.602,241.211
1678020568.127,-23.926,-41.992,-44.434,-29.785,-95.215
1678020568.131,-31.250,-31.738,-33.203,-36.133,-144.043
1678020568.133,-39.551,-23.438,-33.203,-40.527,-62.500
1678020568.137,-29.785,-35.156,-37.109,-61.035,-124.023
1678020568.141,-19.043,-35.645,-36.133,-39.062,-129.883
1678020568.145,-20.508,-35.645,-35.645,-19.531,-33.203
1678020568.149,-28.320,-35.645,-27.832,-18.066,59.570
1678020568.153,-31.738,-29.297,-22.949,-27.344,-35.645
1678020568.157,-26.367,-24.414,-31.250,-35.156,-51.270
1678020568.160,-23.438,-27.344,-32.227,-28.320,167.969
1678020568.164,-35.645,-38.086,-31.738,-21.973,485.352
1678020568.168,-46.387,-45.898,-36.133,-36.621,267.578
1678020568.172,-41.504,-50.293,-35.645,-45.898,-145.996
1678020568.176,-36.621,-55.176,-29.297,-27.832,-32.227
1678020568.178,-26.855,-42.969,-30.762,-14.648,-7.812
1678020568.182,-32.715,-41.016,-39.062,-22.949,-112.305
1678020568.186,-48.340,-37.598,-28.320,-25.391,-140.137
1678020568.190,-37.109,-37.598,-20.996,-33.691,-145.020
1678020568.194,-30.273,-39.551,-13.672,-14.160,-128.418
1678020568.198,-31.738,-24.414,-14.160,8.789,-79.102
1678020568.202,-25.879,-26.855,-25.391,-33.203,-49.316
1678020568.205,-28.809,-32.227,-24.902,-46.875,94.727
1678020568.209,-43.945,-36.621,-25.879,-24.414,144.043
1678020568.213,-41.016,-30.273,-35.156,-14.160,-114.258
1678020568.217,-31.250,-28.320,-34.668,-20.996,-126.465
1678020568.221,-41.016,-37.598,-35.645,-37.109,-67.383
1678020568.223,-43.945,-40.527,-31.738,-40.039,-111.816
1678020568.227,-41.016,-41.992,-25.391,-39.062,-84.961
1678020568.231,-50.781,-46.387,-28.809,-49.316,-3.906
1678020568.235,-51.270,-37.598,-31.250,-48.340,-15.137
1678020568.239,-40.527,-41.504,-30.273,-27.344,-92.285
1678020568.243,-30.273,-37.109,-36.133,-30.762,-82.520
1678020568.247,-39.551,-32.715,-39.062,-46.875,56.641
1678020568.250,-56.152,-31.738,-34.180,-30.273,327.148
1678020568.254,-44.434,-20.020,-36.621,-31.738,147.949
1678020568.258,-42.969,-23.438,-37.598,-42.969,-176.270
1678020568.262,-56.152,-28.809,-38.574,-40.527,-117.188
1678020568.266,-50.293,-28.320,-41.992,-51.270,-0.977
1678020568.269,-38.086,-21.973,-36.133,-57.129,-45.898
1678020568.273,-41.504,-21.973,-35.156,-58.105,-140.137
1678020568.277,-47.363,-24.414,-41.504,-48.340,11.719
1678020568.281,-34.180,-34.180,-42.969,-20.996,18.555
1678020568.285,-25.391,-39.062,-41.504,-27.832,-125.488
1678020568.289,-41.504,-40.527,-38.574,-29.785,-60.059
1678020568.293,-57.617,-44.434,-34.668,-16.602,182.129
1678020568.296,-59.082,-42.969,-35.645,-46.387,187.500
1678020568.300,-56.152,-42.480,-33.691,-72.754,-125.977
1678020568.304,-54.688,-41.016,-27.832,-57.129,-137.695
1678020568.308,-58.594,-40.039,-28.809,-61.035,-30.273
1678020568.312,-62.988,-43.457,-32.227,-54.688,-89.844
1678020568.314,-49.316,-43.945,-32.715,-32.715,-151.855
1678020568.318,-44.922,-37.598,-28.320,-19.531,-33.691
1678020568.322,-52.734,-41.992,-27.344,-35.156,116.699
1678020568.326,-53.223,-45.410,-31.250,-54.688,-43.945
1678020568.330,-45.410,-40.039,-36.621,-49.316,-174.805
1678020568.334,-31.738,-37.598,-42.480,-28.320,-20.508
1678020568.338,-38.086,-37.598,-34.668,-16.602,234.375
1678020568.341,-58.105,-43.457,-25.879,-30.762,134.766
1678020568.345,-56.152,-59.570,-32.715,-48.828,-89.355
1678020568.349,-41.504,-48.340,-32.715,-52.246,-3.418
1678020568.353,-41.504,-29.297,-26.367,-52.734,147.461
1678020568.357,-36.621,-37.109,-21.484,-43.945,-37.109
1678020568.373,-37.109,-38.574,-25.391,-37.598,-145.996
1678020568.377,-48.340,-35.645,-31.250,-39.062,-81.543
1678020568.381,-36.621,-51.270,-31.250,-46.387,-66.406
1678020568.385,-29.785,-62.500,-29.785,-60.547,-73.730
1678020568.389,-42.480,-41.992,-27.344,-51.270,-61.035
1678020568.393,-45.898,-31.738,-30.762,-36.621,148.926
1678020568.397,-53.223,-34.668,-31.738,-43.457,244.629
1678020568.400,-62.500,-34.668,-33.691,-51.270,-91.309
1678020568.404,-43.945,-37.598,-25.391,-44.922,-220.703
1678020568.408,-40.039,-45.410,-29.785,-30.273,-105.469
1678020568.412,-44.434,-41.992,-39.551,-32.227,-113.281
1678020568.416,-41.504,-30.762,-34.668,-47.363,-177.246
1678020568.418,-41.504,-34.668,-33.203,-36.621,-130.859
1678020568.422,-38.086,-46.875,-37.598,-30.762,2.930
1678020568.426,-34.180,-58.105,-39.062,-41.992,27.832
1678020568.430,-32.227,-45.410,-32.227,-33.203,-96.191
1678020568.434,-38.574,-34.668,-36.133,-37.598,-69.824
1678020568.438,-41.504,-31.738,-39.551,-48.828,92.773
1678020568.442,-45.410,-22.461,-40.039,-45.410,86.426
1678020568.445,-34.668,-13.672,-39.551,-31.738,55.664
1678020568.449,-28.809,-27.832,-33.203,-33.691,112.793
1678020568.453,-41.016,-52.734,-31.250,-55.664,157.227
1678020568.457,-48.828,-41.016,-32.715,-59.570,-41.992
1678020568.461,-44.922,-35.645,-32.715,-41.016,-162.109
1678020568.463,-33.691,-38.086,-35.156,-32.715,-9.766
1678020568.467,-39.062,-28.320,-38.574,-21.973,298.828
1678020568.471,-53.711,-31.738,-33.691,-30.273,138.672
1678020568.475,-45.898,-33.691,-32.715,-48.340,-122.559
1678020568.479,-35.156,-32.227,-36.621,-36.621,-89.355
1678020568.483,-26.367,-38.574,-36.621,-26.367,-42.480
1678020568.487,-29.785,-33.691,-35.645,-36.621,-3.418
1678020568.490,-34.180,-31.250,-35.645,-41.504,-137.695
1678020568.494,-30.273,-39.551,-29.297,-34.180,48.828
1678020568.498,-30.762,-44.922,-26.855,-35.156,267.090
1678020568.502,-31.738,-55.176,-31.250,-25.391,-67.383
1678020568.506,-34.668,-39.062,-31.738,-14.160,-158.691
1678020568.508,-30.273,-18.555,-38.574,-29.785,-63.965
1678020568.512,-49.316,-29.297,-38.574,-46.875,-62.012
1678020568.516,-52.246,-36.133,-40.039,-42.969,-155.273
1678020568.520,-33.691,-31.738,-46.875,-41.016,-166.016
1678020568.524,-37.109,-27.344,-41.504,-29.297,-100.098
1678020568.528,-41.016,-25.391,-40.527,-39.551,-85.449
1678020568.532,-43.457,-29.297,-45.410,-56.152,-91.309
1678020568.535,-51.270,-33.691,-46.387,-41.504,57.617
1678020568.539,-43.945,-29.297,-47.363,-29.785,224.121
1678020568.543,-25.391,-37.109,-36.133,-27.344,30.273
1678020568.547,-35.645,-49.805,-22.461,-27.832,-168.945
1678020568.551,-48.828,-26.367,-34.668,-21.973,3.418
1678020568.554,-42.480,-21.484,-58.105,-26.367,252.930
1678020568.558,-23.438,-22.461,-53.711,-43.945,9.766
1678020568.562,-10.742,20.020,-29.785,-40.527,-169.434
1678020568.566,-9.277,-9.766,-33.691,-41.992,-105.469
1678020568.570,-7.812,-59.082,-23.438,-18.555,-86.426
1678020568.574,-20.996,-30.762,-23.438,-13.672,-44.434
1678020568.578,-35.156,-18.066,-34.180,-47.852,-67.871
1678020568.581,-37.109,0.977,-19.531,-56.152,56.641
1678020568.585,-44.434,23.926,-20.508,-48.340,82.520
1678020568.589,-47.852,14.160,-23.926,-40.527,-162.598
1678020568.593,-42.969,10.254,-24.902,-46.387,-181.152
1678020568.597,-56.641,1.953,-29.785,-54.199,-82.031
1678020568.599,-49.805,-0.488,-30.273,-52.734,-56.641
1678020568.603,-30.762,-19.531,-37.598,-65.918,-125.000
1678020568.607,-57.129,-38.086,-45.410,-65.918,-72.266
1678020568.611,-59.082,-41.016,-53.711,-48.340,4.883
1678020568.615,-27.832,-30.273,-62.012,-34.180,-73.730
1678020568.619,-23.438,-16.113,-47.363,-28.320,-63.477
1678020568.623,-26.855,-31.250,-30.273,-27.832,-4.395
1678020568.626,-26.855,-29.297,-14.160,-23.926,316.406
1678020568.630,-23.926,-17.090,-24.414,-39.551,301.758
1678020568.634,-17.090,-29.785,-33.691,-52.246,-126.465
1678020568.638,-18.066,-23.926,-29.297,-38.086,-100.098
1678020568.642,-7.812,-12.207,-50.781,-45.898,-55.664
1678020568.643,-13.672,-19.043,-42.969,-43.457,-148.438
1678020568.647,-26.367,-24.414,-25.879,-23.926,-135.254
1678020568.651,-23.926,-30.273,-30.273,-30.273,-40.039
1678020568.655,-24.414,-37.598,-25.391,-34.180,-51.270
1678020568.659,-24.414,-30.273,-34.180,-29.785,-65.918
1678020568.663,-20.996,-23.438,-41.016,-26.855,-61.035
1678020568.667,-29.785,-23.438,-37.109,-19.531,129.883
1678020568.670,-21.973,-30.273,-32.227,-20.996,226.074
1678020568.674,-0.488,-33.691,-28.809,-23.438,-123.535
1678020568.678,-14.648,-30.762,-31.250,-14.160,-219.727
1678020568.682,-26.855,-30.273,-30.273,-9.277,-149.414
1678020568.686,-23.926,-30.273,-47.363,-20.508,-148.438
1678020568.688,-29.785,-42.480,-57.617,-19.043,-123.535
1678020568.692,-22.461,-51.270,-37.109,-20.020,-62.500
1678020568.696,-18.066,-34.668,-29.297,-28.809,-17.578
1678020568.700,-25.879,-33.203,-31.738,-34.668,-86.914
1678020568.704,-28.809,-49.316,-37.109,-39.551,-135.254
1678020568.708,-12.695,-58.594,-43.945,-37.109,58.105
1678020568.712,-11.230,-37.598,-50.293,-41.016,214.844
1678020568.715,-40.527,-18.555,-59.082,-57.129,60.059
1678020568.719,-43.457,-20.996,-58.594,-28.809,-43.945
1678020568.723,-41.504,-29.297,-46.875,-18.555,10.742
1678020568.727,-46.387,-51.270,-23.926,-34.180,242.676
1678020568.731,-37.598,-64.941,-29.297,-29.785,104.004
1678020568.748,-29.297,-43.945,-38.086,-36.133,-167.480
1678020568.752,-23.438,-16.602,-30.762,-37.598,-116.211
1678020568.756,-24.414,-21.973,-34.180,-32.227,-84.961
1678020568.760,-25.879,-31.250,-34.180,-20.020,-198.242
1678020568.764,-14.160,-33.203,-32.227,-27.832,-220.703
1678020568.768,-23.438,-35.645,-39.551,-36.621,-45.410
1678020568.772,-39.062,-35.645,-37.109,-27.832,71.777
1678020568.775,-41.016,-37.598,-29.297,-18.555,-46.387
1678020568.779,-40.039,-31.738,-28.320,-17.578,-201.660
1678020568.783,-31.250,-32.715,-27.832,-20.508,65.918
1678020568.787,-32.227,-36.621,-39.062,-28.809,162.109
1678020568.791,-29.785,-28.809,-38.086,-41.992,-139.160
1678020568.793,-30.762,-24.902,-29.297,-42.969,-125.977
1678020568.797,-41.504,-29.785,-36.133,-46.387,-62.500
1678020568.801,-32.715,-44.434,-42.969,-43.457,-83.496
1678020568.805,-16.602,-41.504,-42.969,-22.949,-100.586
1678020568.809,-26.855,-30.273,-45.898,-33.203,-46.387
1678020568.813,-43.945,-35.645,-38.086,-50.293,10.742
1678020568.817,-36.133,-39.062,-27.832,-39.551,37.598
1678020568.820,-36.133,-41.992,-27.344,-18.066,26.367
1678020568.824,-43.945,-36.621,-32.715,-28.809,51.758
1678020568.828,-33.691,-30.762,-32.227,-51.758,305.176
1678020568.832,-39.551,-39.062,-40.039,-51.270,207.031
1678020568.836,-42.480,-45.410,-44.434,-59.570,-81.543
1678020568.838,-25.879,-33.203,-35.156,-41.016,23.438
1678020568.842,-27.832,-26.367,-37.109,-10.254,10.254
1678020568.846,-35.645,-23.926,-34.668,-32.227,-159.668
1678020568.850,-38.086,-30.762,-28.320,-66.895,-161.621
1678020568.854,-42.480,-34.668,-25.879,-60.059,-98.633
1678020568.858,-40.527,-39.551,-30.273,-33.203,-3.418
1678020568.862,-35.645,-37.109,-34.180,-41.504,44.434
1678020568.865,-44.922,-30.273,-31.250,-65.430,-91.309
1678020568.869,-48.340,-35.645,-27.344,-49.805,47.852
1678020568.873,-49.316,-36.133,-24.902,-48.340,133.789
1678020568.877,-41.504,-28.809,-32.227,-63.477,-128.906
1678020568.881,-39.062,-32.715,-43.945,-50.781,-144.531
1678020568.884,-57.617,-47.852,-31.250,-50.781,-47.852
1678020568.888,-48.340,-38.574,-15.137,-46.387,-62.012
1678020568.892,-34.668,-41.504,-14.648,-39.062,-162.598
1678020568.896,-32.227,-47.852,-21.484,-31.738,-93.750
1678020568.900,-30.273,-38.086,-22.461,-32.227,33.691
1678020568.904,-37.598,-34.180,-21.484,-42.480,39.551
1678020568.908,-43.945,-32.227,-22.461,-35.645,38.086
1678020568.911,-46.875,-27.832,-16.602,-37.598,95.215
1678020568.915,-57.129,-27.832,-12.695,-49.316,269.531
1678020568.919,-63.477,-20.020,-19.531,-51.270,145.996
1678020568.923,-77.637,-11.230,-16.602,-82.031,-82.520
1678020568.927,-104.980,4.883,-9.277,-109.863,-83.008
1678020568.928,-139.648,18.066,-1.465,-140.625,-71.289
1678020568.932,-158.691,27.344,8.301,-182.617,-140.625
1678020568.936,-175.293,33.203,20.508,-199.707,-139.648
1678020568.940,-213.867,31.738,44.434,-210.449,17.578
1678020568.944,-239.746,43.457,60.547,-230.957,-30.273
1678020568.948,-251.465,53.223,68.848,-272.949,-39.551
1678020568.952,-261.719,44.922,76.172,-294.434,-50.781
1678020568.955,-257.812,53.711,84.473,-275.391,45.410
1678020568.959,-258.301,67.383,92.285,-270.508,166.016
1678020568.963,-271.484,62.500,93.750,-267.578,-144.531
1678020568.967,-276.367,56.641,90.820,-270.508,-198.242
1678020568.971,-254.395,23.926,88.867,-267.090,-55.176
1678020568.973,-240.723,-4.395,78.613,-254.395,-104.004
1678020568.977,-236.816,49.316,62.500,-254.395,-132.324
1678020568.981,-221.191,77.148,59.570,-251.465,-77.637
1678020568.985,-207.031,58.105,55.664,-240.234,-76.660
1678020568.989,-196.289,37.598,40.039,-199.707,-67.383
1678020568.993,-165.039,27.344,26.855,-174.316,10.742
1678020568.997,-127.930,47.363,10.742,-159.180,145.020
1678020569.000,-118.164,42.480,-11.719,-118.652,496.094
1678020569.004,-107.910,10.254,-8.789,-106.934,365.234
1678020569.008,-85.938,-4.883,-17.090,-121.094,-69.824
1678020569.012,-62.988,-7.812,-29.297,-99.609,-32.227
1678020569.016,-44.922,-24.414,-22.949,-78.125,40.039
1678020569.018,-36.133,-24.414,-23.926,-66.406,-102.539
1678020569.022,-38.574,-20.020,-29.785,-44.434,-105.469
1678020569.026,-22.949,-38.574,-41.992,-35.645,-27.832
1678020569.030,6.348,-50.293,-49.316,-15.625,-51.758
1678020569.034,10.742,-49.805,-57.617,12.695,-98.145
1678020569.038,10.254,-56.641,-62.500,4.883,-48.340
1678020569.042,26.855,-57.129,-62.988,27.832,92.285
1678020569.045,36.621,-52.246,-75.684,31.738,138.184
1678020569.049,43.457,-56.641,-74.219,17.578,-54.199
1678020569.053,50.293,-52.734,-67.871,44.922,-113.281
1678020569.057,46.875,-60.547,-73.730,47.852,35.156
1678020569.061,50.293,-76.660,-75.684,33.691,-18.555
1678020569.063,50.781,-64.941,-80.078,29.297,-156.250
1678020569.067,51.270,-61.035,-87.402,32.227,-76.660
1678020569.071,53.711,-73.730,-89.355,51.758,9.277
1678020569.075,51.270,-82.031,-92.285,55.176,-37.109
1678020569.079,53.223,-81.543,-87.891,25.879,-130.371
1678020569.083,46.387,-75.195,-77.637,28.320,66.406
1678020569.087,52.246,-85.938,-76.172,33.691,267.578
1678020569.090,65.918,-88.867,-77.148,32.227,72.266
1678020569.094,65.430,-87.891,-76.172,28.320,-83.496
1678020569.098,65.430,-89.355,-67.871,19.531,-81.543
1678020569.102,71.777,-78.613,-63.477,41.016,213.379
1678020569.106,63.965,-79.102,-70.312,35.156,84.473
1678020569.123,69.824,-79.102,-71.289,27.832,-213.379
1678020569.127,65.918,-73.730,-62.012,37.109,-145.508
1678020569.131,47.852,-70.801,-58.594,13.184,-124.512
1678020569.135,47.852,-73.242,-61.523,2.441,-207.031
1678020569.139,47.363,-73.730,-60.547,5.371,-212.891
1678020569.143,49.805,-67.383,-56.641,18.066,-132.324
1678020569.147,46.875,-63.477,-55.664,26.367,-9.766
1678020569.150,47.852,-70.312,-58.594,7.324,-103.027
1678020569.154,47.852,-62.500,-60.547,6.836,-290.527
1678020569.158,46.875,-66.895,-68.359,14.160,-70.801
1678020569.162,45.898,-75.195,-71.777,12.207,12.207
1678020569.166,43.457,-54.688,-58.105,11.230,-198.730
1678020569.168,43.945,-46.875,-53.223,-1.465,-92.285
1678020569.172,34.180,-48.828,-63.477,-20.020,51.758
1678020569.176,32.227,-50.781,-65.918,-6.836,-59.082
1678020569.180,39.551,-51.758,-58.105,5.371,-187.012
1678020569.184,27.344,-62.988,-56.641,6.348,-99.609
1678020569.188,20.020,-73.242,-57.617,7.812,91.309
1678020569.192,24.414,-63.477,-48.828,-1.465,65.918
1678020569.195,20.020,-46.875,-37.109,-8.789,9.277
1678020569.199,18.066,-44.922,-30.273,-20.508,13.184
1678020569.203,18.555,-58.594,-39.551,-29.297,319.336
1678020569.207,8.301,-56.641,-51.758,-20.020,264.648
1678020569.211,-16.602,-50.293,-51.270,-32.227,-100.586
1678020569.213,-25.879,-63.477,-53.711,-48.828,-73.242
1678020569.217,-6.836,-57.129,-41.992,-34.668,-111.816
1678020569.221,8.789,-55.176,-46.875,-28.809,-118.652
1678020569.225,6.836,-45.410,-51.758,-9.277,-62.500
1678020569.229,-3.906,-35.156,-37.598,-2.441,32.715
1678020569.233,-6.348,-40.039,-29.785,-31.738,69.824
1678020569.237,-3.906,-46.875,-35.645,-49.316,-25.879
1678020569.240,3.418,-51.758,-43.945,-40.527,-126.465
1678020569.244,6.348,-41.016,-40.527,-20.020,78.125
1678020569.248,-1.953,-35.156,-37.109,-14.160,108.398
1678020569.252,-13.184,-45.410,-46.875,-33.691,-181.152
1678020569.256,-8.789,-42.969,-41.992,-50.781,-126.953
1678020569.258,-10.254,-39.062,-27.832,-58.594,-28.320
1678020569.262,-19.531,-35.156,-25.879,-36.133,-77.148
1678020569.266,-16.113,-30.762,-34.668,-19.043,-174.316
1678020569.270,-23.438,-37.598,-40.039,-48.828,-119.141
1678020569.274,-20.508,-37.109,-33.203,-54.199,-13.672
1678020569.278,-7.324,-40.527,-40.039,-36.621,-40.039
1678020569.282,-11.719,-41.016,-36.621,-23.438,-83.496
1678020569.285,-19.043,-31.250,-30.273,-33.203,24.902
1678020569.289,-27.832,-34.668,-37.109,-39.551,344.238
1678020569.293,-28.320,-39.062,-35.156,-39.062,271.484
1678020569.297,-21.973,-36.621,-35.156,-43.457,-138.184
1678020569.301,-22.461,-37.598,-39.551,-44.434,-140.137
1678020569.303,-24.414,-34.180,-29.297,-39.551,-68.359
1678020569.307,-35.645,-32.715,-27.832,-46.875,-139.648
1678020569.311,-43.945,-40.527,-27.344,-60.547,-174.805
1678020569.315,-35.156,-40.527,-30.273,-52.734,-115.234
1678020569.319,-20.996,-33.203,-31.738,-46.875,-70.312
1678020569.323,-15.625,-35.645,-22.461,-37.109,-22.461
1678020569.327,-28.320,-44.434,-20.508,-46.875,-5.371
1678020569.330,-33.203,-47.852,-21.484,-32.715,233.398
1678020569.334,-27.344,-43.945,-26.855,-21.484,361.328
1678020569.338,-25.391,-42.969,-34.668,-48.828,-21.973
1678020569.342,-22.461,-39.062,-43.457,-68.359,-104.492
1678020569.346,-26.367,-40.527,-37.598,-50.293,-72.266
1678020569.348,-28.320,-47.852,-24.414,-24.902,-95.703
1678020569.352,-24.902,-53.223,-21.484,-26.855,-66.895
1678020569.356,-32.227,-56.641,-23.438,-35.156,-73.730
1678020569.360,-41.992,-51.758,-21.484,-39.062,-49.316
1678020569.364,-41.504,-39.551,-24.414,-43.457,-62.988
1678020569.368,-37.598,-42.969,-27.832,-47.363,-21.973
1678020569.372,-31.738,-43.457,-25.391,-35.645,6.348
1678020569.375,-23.438,-41.992,-27.832,-18.555,291.504
1678020569.379,-22.949,-36.621,-24.414,-20.020,255.859
1678020569.383,-22.949,-37.598,-23.438,-46.875,-124.512
1678020569.387,-23.438,-39.551,-21.973,-30.273,-20.020
1678020569.391,-17.090,-36.133,-17.578,-13.672,-56.152
1678020569.393,-20.020,-33.691,-17.090,-23.926,-189.453
1678020569.397,-23.438,-32.227,-19.531,-30.273,-100.586
1678020569.401,-26.855,-36.133,-20.996,-29.785,-102.051
1678020569.405,-28.809,-34.180,-20.996,-42.480,-129.883
1678020569.409,-18.555,-29.297,-27.344,-53.223,-123.047
1678020569.413,-22.949,-41.504,-34.180,-27.344,-11.719
1678020569.417,-43.945,-54.199,-33.203,-17.090,266.602
1678020569.420,-44.922,-53.223,-33.203,-41.016,158.691
1678020569.424,-40.527,-49.805,-37.598,-49.316,-185.059
1678020569.428,-39.062,-40.527,-25.391,-38.574,-161.133
1678020569.432,-19.043,-35.645,-16.113,-25.879,-68.359
1678020569.436,-18.555,-34.180,-23.438,-32.715,-79.590
1678020569.439,-37.598,-39.062,-30.762,-49.316,-104.980
1678020569.443,-41.016,-44.434,-31.738,-55.664,-51.270
1678020569.447,-22.949,-40.527,-35.156,-49.805,56.152
1678020569.451,-14.160,-28.809,-38.086,-48.340,11.230
1678020569.455,-24.414,-33.691,-28.809,-56.152,-91.797
1678020569.459,-33.203,-35.645,-28.320,-44.434,45.410
1678020569.463,-32.227,-24.414,-33.691,-31.738,184.082
1678020569.466,-28.809,-32.227,-25.879,-33.691,42.969
1678020569.470,-20.996,-35.645,-20.996,-41.992,-68.359
1678020569.474,-19.531,-29.297,-28.320,-35.645,-43.945
1678020569.478,-27.832,-29.297,-38.086,-35.156,225.586
1678020569.482,-31.250,-28.320,-32.715,-43.945,123.047
1678020569.499,-27.832,-31.738,-28.809,-53.223,-156.250
1678020569.503,-22.949,-25.879,-32.715,-53.223,-160.156
1678020569.507,-25.391,-29.297,-41.016,-48.828,-100.098
1678020569.511,-25.879,-37.109,-36.621,-49.805,-86.914
1678020569.515,-35.645,-39.551,-23.438,-53.223,-203.613
1678020569.519,-29.297,-30.762,-23.926,-37.598,31.250
1678020569.523,-15.137,-22.461,-25.391,-36.621,240.723
1678020569.526,-35.156,-19.531,-23.438,-52.734,-20.508
1678020569.530,-34.668,-15.137,-29.297,-53.711,-110.352
1678020569.534,-31.738,-29.297,-33.691,-54.199,3.906
1678020569.538,-35.156,-41.016,-25.879,-48.828,29.297
1678020569.542,-25.391,-32.715,-32.715,-63.965,-108.398
1678020569.543,-26.367,-24.414,-41.992,-61.035,-112.793
1678020569.547,-24.902,-31.250,-33.203,-41.016,-56.641
1678020569.551,-22.949,-35.645,-25.391,-38.574,-127.930
1678020569.555,-37.109,-24.902,-23.926,-38.086,-156.250
1678020569.559,-30.273,-27.832,-31.250,-35.645,-28.809
1678020569.563,-0.977,-26.367,-40.527,-21.973,39.062
1678020569.567,-8.789,-19.531,-42.969,-31.738,24.414
1678020569.570,-35.645,-30.762,-30.273,-47.363,52.246
1678020569.574,-43.945,-42.969,-25.391,-49.805,49.316
1678020569.578,-41.016,-47.363,-30.762,-49.805,267.578
1678020569.582,-37.109,-45.410,-30.762,-33.203,208.496
1678020569.586,-33.203,-43.945,-32.715,-41.016,-192.383
1678020569.588,-38.574,-40.039,-28.320,-54.199,-19.043
1678020569.592,-44.922,-43.457,-30.273,-50.293,84.473
1678020569.596,-42.480,-43.457,-32.715,-49.805,-88.867
1678020569.600,-39.551,-33.691,-31.738,-47.363,-80.566
1678020569.604,-36.133,-23.438,-31.250,-59.082,-82.031
1678020569.608,-44.434,-25.391,-28.320,-55.664,16.113
1678020569.612,-48.828,-28.809,-23.438,-45.898,13.184
1678020569.615,-38.574,-35.645,-27.832,-41.992,-123.535
1678020569.619,-36.621,-33.203,-34.180,-41.992,35.645
1678020569.623,-34.668,-28.320,-33.691,-50.293,227.051
1678020569.627,-27.832,-50.781,-33.203,-59.082,-11.719
1678020569.631,-40.039,-58.105,-35.156,-60.547,-116.699
1678020569.633,-38.086,-46.387,-35.645,-53.223,-59.570
1678020569.637,-26.367,-35.645,-32.227,-47.852,-76.172
1678020569.641,-38.574,-32.227,-23.926,-42.969,-47.852
1678020569.645,-36.621,-31.738,-28.320,-51.758,-5.371
1678020569.649,-42.969,-31.738,-32.227,-61.523,10.742
1678020569.653,-45.410,-36.133,-34.668,-53.223,-1.953
1678020569.657,-39.551,-37.598,-39.551,-41.504,25.391
1678020569.660,-42.480,-45.898,-32.227,-36.133,141.113
1678020569.664,-43.945,-47.852,-26.367,-38.086,354.980
1678020569.668,-42.480,-37.109,-23.926,-51.758,196.777
1678020569.672,-41.016,-30.273,-24.414,-49.316,-186.035
1678020569.676,-25.879,-23.926,-29.297,-38.574,-62.988
1678020569.678,-26.855,-16.602,-33.691,-34.180,65.430
1678020569.682,-44.434,-22.949,-35.645,-28.809,-125.488
1678020569.686,-43.945,-45.410,-38.574,-30.273,-204.102
1678020569.690,-48.828,-50.781,-41.016,-34.668,-184.082
1678020569.694,-43.457,-45.410,-41.016,-26.367,-125.000
1678020569.698,-25.391,-38.574,-38.086,-27.832,-55.176
1678020569.702,-30.762,-35.156,-39.551,-43.945,31.250
1678020569.705,-46.875,-39.551,-34.180,-32.715,208.008
1678020569.709,-51.758,-38.086,-29.785,-19.043,181.641
1678020569.713,-48.828,-34.180,-31.738,-27.832,-142.578
1678020569.717,-45.410,-37.598,-35.156,-31.738,-137.207
1678020569.721,-46.387,-35.645,-31.738,-20.996,-5.859
1678020569.738,-44.434,-27.344,-19.531,-36.133,-23.926
1678020569.742,-40.527,-41.504,-23.438,-56.641,-183.105
1678020569.746,-43.945,-57.617,-28.320,-40.527,-140.625
1678020569.750,-41.016,-48.828,-33.203,-33.203,16.113
1678020569.754,-37.109,-41.016,-34.180,-40.039,-87.891
1678020569.758,-35.645,-41.504,-25.391,-42.480,-58.594
1678020569.762,-42.969,-37.109,-24.414,-54.199,42.480
1678020569.765,-36.133,-27.832,-26.855,-34.180,345.703
1678020569.769,-32.715,-26.367,-29.785,-30.273,264.160
1678020569.773,-39.062,-29.297,-30.762,-39.551,-165.039
1678020569.777,-38.086,-36.621,-29.297,-40.039,-123.535
1678020569.781,-42.969,-43.457,-27.344,-59.082,-140.137
1678020569.769,-36.621,-33.691,-21.973,-54.199,-148.438
1678020569.773,-25.391,-29.785,-27.832,-52.246,-106.934
1678020569.777,-27.344,-31.250,-33.691,-55.176,-24.902
1678020569.781,-31.738,-34.180,-32.227,-45.410,35.156
1678020569.785,-39.551,-41.992,-39.551,-49.805,-81.055
1678020569.789,-27.832,-41.016,-35.645,-52.734,-92.773
1678020569.793,-26.367,-33.691,-23.438,-62.012,59.570
1678020569.796,-46.875,-34.668,-22.949,-62.012,29.785
1678020569.800,-44.922,-48.828,-29.785,-64.941,-116.699
1678020569.804,-39.062,-41.016,-34.668,-75.195,-184.570
1678020569.808,-46.387,-30.762,-32.715,-60.059,83.496
1678020569.812,-40.039,-37.598,-31.250,-57.617,195.801
1678020569.813,-33.691,-41.016,-35.156,-73.242,-106.445
1678020569.817,-49.316,-42.969,-42.969,-74.219,-120.117
1678020569.821,-59.570,-37.598,-48.340,-50.293,-107.422
1678020569.825,-55.664,-34.180,-44.922,-47.363,-122.559
1678020569.829,-47.363,-33.203,-42.480,-63.965,-62.500
1678020569.833,-38.086,-35.645,-41.504,-65.430,-30.762
1678020569.837,-32.715,-37.109,-41.504,-56.152,275.391
1678020569.840,-36.133,-38.574,-39.551,-38.574,217.773
1678020569.844,-37.109,-41.504,-34.668,-43.457,-231.445
1678020569.848,-39.062,-38.574,-31.250,-56.641,-82.031
1678020569.852,-51.758,-34.180,-33.691,-50.293,27.832
1678020569.856,-42.969,-37.598,-41.016,-60.059,-198.730
1678020569.873,-37.598,-48.828,-35.156,-65.430,-232.910
1678020569.877,-44.434,-43.945,-30.762,-59.570,-156.250
1678020569.881,-34.180,-29.785,-33.691,-40.039,-103.516
1678020569.885,-27.344,-34.668,-34.180,-12.207,-128.418
1678020569.889,-39.551,-47.852,-38.574,-29.785,-143.555
1678020569.893,-52.246,-39.551,-39.551,-55.176,-25.879
1678020569.897,-47.363,-34.668,-37.109,-51.758,30.762
1678020569.900,-38.574,-40.039,-36.621,-46.875,-28.809
1678020569.904,-36.133,-39.551,-36.133,-50.293,-126.953
1678020569.908,-37.109,-41.016,-41.992,-65.430,113.281
1678020569.912,-41.992,-43.457,-41.016,-63.477,185.547
1678020569.916,-43.945,-49.316,-39.062,-55.176,-123.535
1678020569.918,-40.039,-47.852,-39.551,-50.781,-163.086
1678020569.922,-40.527,-38.574,-33.691,-40.527,-81.055
1678020569.926,-32.227,-32.227,-34.180,-53.223,-48.828
1678020569.930,-31.250,-31.250,-32.715,-65.430,-115.234
1678020569.934,-41.016,-40.039,-31.250,-46.387,-41.992
1678020569.938,-28.320,-40.039,-33.203,-40.527,77.148
1678020569.942,-24.414,-39.551,-36.133,-35.156,67.871
1678020569.945,-39.062,-52.246,-33.691,-34.668,-17.578
1678020569.949,-41.016,-48.828,-33.691,-35.156,-60.547
1678020569.953,-46.875,-34.180,-39.551,-11.230,241.699
1678020569.957,-40.039,-28.320,-48.340,-14.648,250.488
1678020569.961,-35.645,-34.180,-53.711,-40.527,-98.145
1678020569.963,-39.062,-45.410,-37.598,-37.109,-112.793
1678020569.967,-37.109,-32.715,-31.250,-32.715,-91.797
1678020569.971,-38.574,-29.297,-34.180,-33.691,-177.246
1678020569.975,-28.320,-36.133,-36.621,-32.227,-145.508
1678020569.979,-19.043,-24.414,-31.250,-38.574,-68.359
1678020569.983,-37.598,-42.480,-29.785,-41.016,9.766
1678020569.987,-47.852,-37.109,-31.738,-39.551,27.832
1678020569.990,-48.828,-15.625,-32.227,-37.109,-99.609
1678020569.994,-40.039,-16.113,-31.250,-23.926,52.246
1678020569.998,-31.250,-13.184,-32.227,-15.137,199.219
1678020570.002,-33.691,-16.113,-35.156,-24.414,-58.105
1678020570.006,-30.762,-16.113,-34.180,-46.387,-64.453
1678020570.008,-38.086,-20.020,-29.785,-56.641,56.641
1678020570.012,-36.621,-31.250,-32.715,-51.270,-76.660
1678020570.016,-35.645,-39.551,-39.551,-42.969,-147.949
1678020570.020,-43.457,-35.645,-41.016,-36.621,-15.625
1678020570.024,-38.574,-29.297,-40.527,-35.156,-22.949
1678020570.028,-31.250,-23.926,-41.504,-56.641,-27.344
1678020570.032,-36.133,-25.879,-41.504,-67.871,-42.480
1678020570.035,-35.645,-38.086,-37.109,-51.270,-23.926
1678020570.039,-29.297,-32.227,-27.832,-28.320,347.168
1678020570.043,-38.086,-35.645,-32.227,-29.785,245.605
1678020570.047,-46.875,-37.109,-39.551,-47.852,-128.418
1678020570.051,-46.875,-24.414,-38.574,-29.297,-81.055
1678020570.054,-42.969,-34.180,-40.527,-34.180,-63.965
1678020570.058,-42.969,-44.922,-52.246,-70.312,-26.367
1678020570.062,-45.410,-38.574,-56.641,-68.359,2.441
1678020570.066,-52.246,-37.598,-44.434,-52.734,10.742
1678020570.070,-59.570,-43.945,-42.969,-52.734,-26.855
1678020570.074,-51.270,-40.039,-43.457,-52.734,-103.516
1678020570.078,-41.504,-35.156,-38.086,-46.875,-117.676
1678020570.081,-45.410,-36.621,-38.086,-42.480,23.438
1678020570.085,-45.410,-38.086,-50.293,-55.664,109.863
1678020570.089,-45.410,-44.922,-54.688,-70.801,-171.875
1678020570.093,-33.691,-39.551,-41.016,-65.430,-177.734
1678020570.097,-32.227,-34.668,-39.062,-58.105,-56.641
1678020570.098,-42.969,-40.527,-36.133,-45.410,-76.172
1678020570.102,-44.922,-41.016,-29.785,-42.480,-145.996
1678020570.106,-52.246,-36.133,-27.832,-60.547,-118.652
1678020570.110,-42.969,-33.691,-27.344,-54.688,-63.477
1678020570.114,-29.297,-41.016,-35.645,-48.340,-59.570
1678020570.118,-30.273,-43.945,-43.945,-52.246,-41.504
1678020570.122,-40.527,-39.551,-38.574,-55.664,-33.203
1678020570.125,-46.387,-46.387,-34.180,-46.875,265.625
1678020570.129,-38.574,-42.480,-36.133,-61.035,269.531
1678020570.133,-26.855,-35.156,-32.227,-81.543,-75.684
1678020570.137,-29.785,-34.668,-23.438,-61.035,-97.656
1678020570.141,-36.621,-23.926,-25.879,-52.246,-100.098
1678020570.143,-34.668,-21.484,-29.785,-63.965,-197.754
1678020570.147,-22.461,-38.574,-30.273,-60.547,-154.297
1678020570.151,-30.762,-41.016,-35.156,-60.059,-41.992
1678020570.155,-42.480,-26.855,-32.715,-49.316,-63.965
1678020570.159,-30.273,-26.367,-27.344,-58.105,-110.352
1678020570.163,-43.457,-35.645,-34.668,-82.520,-49.805
1678020570.167,-58.105,-36.621,-41.504,-72.754,210.449
1678020570.170,-45.410,-34.668,-33.203,-49.805,278.809
1678020570.174,-38.086,-24.414,-20.996,-38.574,-41.992
1678020570.178,-52.734,-13.672,-21.484,-43.945,-140.625
1678020570.182,-64.453,-20.508,-24.902,-52.246,-34.180
1678020570.186,-79.590,-10.254,-20.996,-68.359,-46.387
1678020570.188,-96.680,7.812,-14.648,-77.148,-123.535
1678020570.192,-108.887,19.043,-4.883,-90.332,-67.871
1678020570.196,-141.602,29.297,6.836,-147.461,15.137
1678020570.200,-188.965,36.621,14.160,-187.500,-31.250
1678020570.204,-224.609,44.922,30.762,-217.285,-135.254
1678020570.208,-249.023,41.504,53.711,-242.188,-25.391
1678020570.212,-259.277,43.457,75.684,-256.836,265.137
1678020570.215,-268.555,56.152,93.262,-270.996,95.215
1678020570.219,-305.664,54.688,102.051,-292.480,-142.578
1678020570.223,-322.754,50.293,106.445,-310.059,-54.199
1678020570.227,-305.664,60.059,104.492,-308.105,-60.059
1678020570.231,-293.457,65.430,98.633,-296.875,-143.066
1678020570.248,-289.062,59.570,95.703,-265.625,-185.547
1678020570.252,-281.250,61.523,92.773,-263.672,-20.508
1678020570.256,-257.812,50.293,61.035,-271.484,249.023
1678020570.260,-229.980,27.344,40.039,-247.559,-23.926
1678020570.264,-213.867,43.457,50.781,-214.844,-219.727
1678020570.268,-204.102,46.875,39.551,-184.082,-51.758
1678020570.272,-189.453,37.109,19.043,-184.082,6.348
1678020570.275,-168.945,35.645,15.625,-182.129,-83.984
1678020570.279,-130.859,16.113,16.602,-143.066,-159.668
1678020570.283,-108.887,6.348,0.977,-108.398,59.570
1678020570.287,-110.352,-1.953,-16.602,-101.562,115.723
1678020570.291,-101.074,-19.043,-27.832,-99.121,-98.633
1678020570.293,-80.566,-8.301,-40.527,-76.660,-85.449
1678020570.297,-56.641,-9.277,-47.852,-61.035,20.996
1678020570.301,-36.133,-22.949,-55.176,-49.316,16.602
1678020570.305,-23.926,-36.621,-62.988,-25.391,-83.496
1678020570.309,-21.484,-48.828,-62.012,-11.230,-47.852
1678020570.313,-19.043,-53.711,-59.570,-6.348,107.910
1678020570.317,-6.836,-60.059,-59.570,-4.395,24.902
1678020570.320,6.836,-61.523,-73.242,4.883,-37.598
1678020570.324,18.066,-57.617,-72.754,21.973,64.453
1678020570.328,26.367,-59.082,-68.359,44.922,321.777
1678020570.332,20.996,-57.617,-79.590,41.504,199.219
1678020570.336,24.902,-59.570,-80.566,29.297,-185.547
1678020570.338,48.340,-62.988,-73.730,40.527,-86.914
1678020570.342,54.199,-67.383,-74.219,57.129,79.102
1678020570.346,52.246,-77.148,-76.660,59.082,-83.008
1678020570.350,64.453,-70.801,-80.078,48.828,-201.660
1678020570.354,62.500,-61.523,-82.520,66.406,-54.199
1678020570.358,53.711,-64.941,-86.426,66.406,38.574
1678020570.362,57.129,-68.359,-77.148,50.293,-47.363
1678020570.365,64.941,-71.289,-79.590,60.059,-131.348
1678020570.369,62.988,-71.289,-82.031,74.707,63.477
1678020570.373,49.316,-67.383,-71.777,72.266,125.977
1678020570.377,48.828,-72.266,-72.266,44.434,-124.512
1678020570.381,58.105,-76.172,-73.730,49.805,-106.445
1678020570.383,72.266,-75.684,-71.289,59.570,-42.480
1678020570.387,62.500,-80.566,-73.242,35.156,-70.801
1678020570.391,47.852,-76.172,-74.707,45.410,-129.395
1678020570.395,56.641,-65.918,-67.383,71.777,-41.016
1678020570.399,49.805,-71.289,-72.754,71.289,74.219
1678020570.403,43.457,-76.660,-80.078,54.688,34.180
1678020570.407,34.180,-76.660,-82.520,30.273,0.977
1678020570.410,36.133,-66.406,-79.102,20.508,47.363
1678020570.414,47.852,-63.477,-70.801,38.086,355.469
1678020570.418,42.480,-78.613,-76.172,49.316,260.254
1678020570.422,42.480,-77.637,-75.195,49.805,-93.750
1678020570.426,36.621,-69.336,-63.965,47.363,-74.707
1678020570.428,34.668,-62.012,-67.383,56.641,-119.629
1678020570.432,41.504,-67.383,-66.895,49.805,-239.258
1678020570.436,46.387,-72.266,-67.871,37.598,-197.754
1678020570.440,38.574,-65.430,-66.895,44.922,-87.891
1678020570.444,30.762,-62.012,-54.688,44.434,-65.430
1678020570.448,33.203,-61.523,-58.105,39.062,-75.195
1678020570.452,34.180,-62.012,-69.824,31.738,-51.758
1678020570.455,31.738,-62.500,-64.941,46.875,158.691
1678020570.459,35.645,-62.012,-58.105,47.363,220.703
1678020570.463,20.020,-61.523,-61.523,18.555,-75.684
1678020570.467,8.789,-65.918,-59.082,17.090,-119.629
1678020570.471,19.531,-67.383,-57.129,20.020,-69.336
1678020570.473,24.414,-66.406,-60.547,20.508,-116.211
1678020570.477,19.531,-64.941,-60.059,16.602,-125.000
1678020570.481,13.672,-60.547,-64.453,4.395,-73.730
1678020570.485,3.418,-58.105,-69.336,13.672,-80.566
1678020570.489,8.301,-55.664,-67.871,0.977,-123.047
1678020570.493,19.531,-48.340,-56.152,-0.977,-70.312
1678020570.497,6.348,-45.898,-51.758,19.531,13.184
1678020570.500,-1.953,-44.922,-55.176,17.090,359.863
1678020570.504,-13.184,-44.922,-53.223,16.113,313.477
1678020570.508,-16.113,-52.246,-53.711,17.090,-107.422
1678020570.512,0.000,-54.688,-45.410,15.625,-79.102
1678020570.516,-0.488,-50.781,-43.457,15.137,98.145
1678020570.518,-4.395,-58.105,-55.664,15.625,7.812
1678020570.522,-8.301,-49.805,-51.270,14.648,-67.383
1678020570.526,-16.602,-43.945,-52.246,14.160,-77.637
1678020570.530,-8.789,-48.828,-53.711,10.742,-85.449
1678020570.534,2.930,-50.781,-47.852,8.301,-149.902
1678020570.538,-1.953,-44.434,-39.551,-5.859,-101.074
1678020570.542,-6.348,-34.668,-41.992,0.488,208.984
1678020570.545,-13.184,-40.527,-48.828,3.906,185.059
1678020570.549,-10.254,-41.992,-47.852,-19.531,-102.539
1678020570.553,-1.465,-37.109,-41.992,-1.465,-104.004
1678020570.557,-9.277,-41.016,-44.434,15.625,-12.207
1678020570.561,-24.902,-45.410,-44.434,-9.766,-16.113
1678020570.563,-25.391,-40.527,-33.203,-19.531,-160.645
1678020570.567,-11.230,-40.527,-40.039,-18.066,-121.582
1678020570.571,-9.277,-47.852,-45.410,-21.484,48.340
1678020570.575,-19.531,-44.922,-41.504,-21.484,23.438
1678020570.579,-36.133,-42.969,-44.922,-28.809,-120.117
1678020570.583,-39.062,-47.363,-42.969,-23.926,13.184
1678020570.587,-28.320,-41.992,-44.434,-27.832,273.438
1678020570.590,-29.785,-48.340,-47.363,-38.086,166.992
1678020570.594,-32.227,-66.895,-41.016,-29.785,-81.055
1678020570.598,-29.297,-50.293,-38.574,-19.531,-12.207
1678020570.602,-32.715,-32.715,-39.062,-15.137,217.285
1678020570.606,-28.320,-40.527,-37.598,-19.043,-16.602
1678020570.609,-11.719,-43.945,-38.086,-16.113,-118.652
1678020570.613,-22.949,-42.480,-41.504,-20.508,57.129
1678020570.617,-37.598,-39.551,-40.527,-21.484,30.273
1678020570.621,-24.414,-30.762,-37.598,-24.414,-125.000
1678020570.625,-23.926,-33.691,-38.086,-33.203,-173.828
1678020570.629,-36.621,-41.016,-37.598,-32.227,40.527
1678020570.633,-27.344,-30.762,-40.039,-40.039,89.355
1678020570.636,-21.973,-37.109,-48.340,-28.320,-74.707
1678020570.640,-32.227,-42.969,-39.062,-36.133,-86.914
1678020570.644,-31.738,-38.574,-31.738,-35.645,170.898
1678020570.648,-18.555,-40.039,-40.039,-13.184,153.809
1678020570.652,-18.555,-36.133,-40.527,-25.879,-161.133
1678020570.668,-33.203,-43.457,-39.062,-38.086,-142.578
1678020570.672,-42.480,-47.852,-42.969,-39.551,-108.398
1678020570.676,-37.109,-40.527,-40.039,-31.738,-131.348
1678020570.680,-35.645,-46.387,-39.062,-31.250,-81.543
1678020570.684,-38.086,-45.898,-42.480,-41.992,7.812
1678020570.688,-32.227,-33.691,-38.574,-30.762,166.016
1678020570.692,-32.715,-32.227,-32.715,-28.809,41.992
1678020570.695,-32.715,-29.785,-36.133,-39.062,-87.891
1678020570.699,-19.043,-30.762,-41.016,-20.020,12.695
1678020570.703,-10.742,-37.109,-33.691,16.113,233.398
1678020570.707,-19.531,-37.598,-28.809,5.859,45.410
1678020570.711,-25.879,-39.551,-32.715,-45.898,-210.938
1678020570.713,-26.855,-51.270,-34.668,-55.176,-21.973
1678020570.717,-14.160,-50.781,-34.180,-12.695,36.133
1678020570.721,-1.953,-47.363,-32.227,29.297,-135.254
1678020570.725,-3.906,-32.227,-27.344,22.949,-143.555
1678020570.729,-36.621,-17.090,-37.598,-34.180,-116.211
1678020570.733,-58.594,-32.227,-41.016,-72.266,-67.871
1678020570.737,-41.016,-39.551,-34.180,-58.594,-36.133
1678020570.740,-32.715,-31.738,-29.297,-54.199,-32.227
1678020570.744,-35.645,-24.902,-30.273,-57.129,167.969
1678020570.748,-40.527,-26.367,-35.156,-37.598,277.832
1678020570.752,-58.594,-43.457,-33.691,-61.523,-87.402
1678020570.756,-55.664,-39.062,-37.109,-80.078,-215.820
1678020570.758,-48.340,-28.320,-39.551,-52.246,-34.668
1678020570.762,-54.199,-30.273,-36.133,-50.293,-52.734
1678020570.766,-54.688,-25.879,-43.945,-68.359,-162.109
1678020570.770,-54.688,-29.297,-43.945,-59.082,-132.324
1678020570.774,-41.992,-31.738,-36.621,-36.133,-31.250
1678020570.778,-34.180,-36.621,-34.180,-48.340,-11.719
1678020570.782,-36.133,-35.645,-32.715,-56.152,-30.762
1678020570.785,-51.270,-28.320,-29.785,-44.922,-10.254
1678020570.789,-51.270,-25.879,-24.414,-38.574,295.898
1678020570.793,-30.762,-23.438,-25.391,-42.480,322.754
1678020570.797,-24.902,-20.996,-27.344,-57.617,-62.500
1678020570.801,-27.832,-23.926,-28.320,-56.641,-83.496
1678020570.806,-35.645,-33.203,-37.109,-53.223,-113.770
1678020570.810,-36.133,-29.785,-36.133,-60.547,-229.980
1678020570.814,-21.484,-22.949,-31.250,-49.805,-176.270
1678020570.818,-24.902,-25.391,-31.250,-37.598,-136.230
1678020570.822,-32.715,-26.855,-35.156,-54.688,-112.793
1678020570.826,-38.086,-23.438,-41.992,-59.082,-39.551
1678020570.830,-42.480,-21.973,-37.598,-37.598,-0.977
1678020570.833,-33.203,-26.855,-32.715,-25.879,93.750
1678020570.837,-29.297,-32.227,-33.203,-34.668,16.602
1678020570.841,-28.320,-32.715,-28.809,-49.805,-131.836
1678020570.845,-28.320,-31.738,-31.250,-57.617,-133.789
1678020570.849,-33.203,-22.461,-42.969,-54.199,-10.254
1678020570.863,-30.762,-35.156,-41.504,-36.621,4.395
1678020570.867,-17.090,-67.383,-43.945,-23.926,-122.559
1678020570.871,-14.648,-41.504,-45.410,-29.297,-23.438
1678020570.875,-22.461,-10.742,-37.109,-41.016,120.117
1678020570.879,-33.203,-19.531,-33.203,-35.156,37.109
1678020570.883,-30.762,-23.926,-41.992,-17.090,-42.480
1678020570.887,-20.508,-20.020,-51.758,-24.414,56.152
1678020570.890,-16.602,-20.508,-46.875,-39.551,399.902
1678020570.894,-25.391,-22.949,-43.945,-30.762,492.676
1678020570.898,-33.203,-32.715,-48.340,-26.855,14.648
1678020570.902,-30.762,-34.668,-45.898,-36.621,-191.406
1678020570.906,-33.203,-24.414,-43.945,-29.297,-78.613
1678020570.909,-33.691,-37.598,-45.898,-25.391,-103.027
1678020570.913,-33.691,-41.992,-46.875,-45.898,-141.113
1678020570.917,-36.621,-29.297,-51.270,-46.875,-65.918
1678020570.921,-40.039,-34.668,-52.734,-43.945,-45.410
1678020570.925,-28.320,-35.156,-37.598,-43.945,-99.609
1678020570.929,-25.879,-31.250,-35.645,-31.738,-33.691
1678020570.933,-31.738,-33.691,-42.480,-17.090,43.457
1678020570.936,-38.574,-30.762,-34.668,-19.531,5.371
1678020570.940,-38.086,-25.879,-31.738,-35.156,-107.422
1678020570.944,-33.691,-30.273,-32.715,-32.715,-189.941
1678020570.948,-27.344,-34.180,-29.297,-17.090,50.781
1678020570.952,-29.785,-31.250,-30.762,-26.367,141.602
1678020570.953,-44.434,-32.227,-35.156,-40.527,-122.559
1678020570.957,-45.898,-34.180,-35.645,-37.598,-111.816
1678020570.961,-40.039,-34.180,-37.109,-47.852,-26.855
1678020570.965,-39.062,-38.086,-40.527,-52.246,-34.180
1678020570.969,-42.480,-40.039,-43.457,-60.059,-162.598
1678020570.973,-38.086,-37.598,-37.598,-55.176,-20.020
1678020570.977,-49.805,-28.320,-36.133,-54.199,88.379
