timestamps,TP9,AF7,AF8,TP10,Right AUX
1687767973.647,-95.215,-86.914,-2.441,-31.250,-21.973
1687767973.651,-73.730,-79.590,-6.836,-29.297,-62.500
1687767973.655,-78.125,-75.195,-5.859,-23.926,-156.250
1687767973.659,-86.426,-79.590,-4.883,-29.785,-177.734
1687767973.663,-82.031,-69.336,-1.953,-29.785,-136.719
1687767973.667,-66.406,-64.453,0.977,-22.949,8.301
1687767973.671,-59.082,-62.988,-1.465,-11.719,45.898
1687767973.674,-68.359,-61.035,-3.906,-23.438,6.836
1687767973.678,-75.684,-67.383,-10.254,-25.391,221.680
1687767973.682,-70.801,-68.359,-20.020,-22.461,172.852
1687767973.686,-53.223,-57.617,-19.043,-20.996,-104.004
1687767973.690,-31.738,-45.898,-20.020,-11.719,-44.922
1687767973.693,-37.109,-41.504,-16.113,-17.578,-81.543
1687767973.697,-60.059,-38.574,-12.207,-26.855,-205.078
1687767973.701,-62.988,-41.016,-22.949,-37.109,-178.223
1687767973.705,-57.129,-41.016,-20.508,-36.621,-135.742
1687767973.709,-58.594,-47.363,-17.578,-29.785,-118.164
1687767973.713,-61.523,-51.758,-21.973,-19.531,-50.781
1687767973.717,-66.895,-47.363,-21.973,-26.855,-42.480
1687767973.720,-72.754,-45.898,-23.438,-29.785,147.461
1687767973.724,-68.848,-40.039,-24.902,-20.508,439.941
1687767973.728,-51.758,-32.715,-23.926,-24.414,109.375
1687767973.732,-37.598,-35.156,-17.090,-23.438,-173.828
1687767973.736,-39.551,-42.969,-14.648,-22.461,94.238
1687767973.736,-57.617,-41.016,-14.648,-34.180,15.137
1687767973.740,-55.664,-29.785,-18.555,-37.598,-215.332
1687767973.744,-42.480,-23.926,-20.020,-28.809,-108.398
1687767973.748,-40.527,-32.227,-22.949,-25.391,-90.820
1687767973.752,-49.316,-36.621,-25.391,-29.297,-130.371
1687767973.756,-52.246,-37.598,-26.855,-37.109,-153.809
1687767973.760,-42.480,-39.551,-32.227,-32.715,-30.762
1687767973.763,-43.945,-40.039,-32.227,-14.648,211.426
1687767973.767,-30.273,-40.039,-35.156,-17.090,46.387
1687767973.771,-2.930,-38.086,-29.785,-8.301,-90.820
1687767973.775,-32.715,-32.715,-13.672,-20.020,-70.312
1687767973.779,-73.242,-30.762,-8.301,-48.828,7.812
1687767973.780,-58.105,-36.621,-6.836,-36.621,-75.684
1687767973.784,-42.969,-37.598,-6.348,-27.832,-134.766
1687767973.788,-46.875,-35.156,-8.301,-35.645,-108.398
1687767973.792,-49.316,-38.086,-7.812,-39.062,-168.457
1687767973.796,-49.316,-43.457,-14.160,-43.945,-187.012
1687767973.800,-31.738,-37.598,-19.043,-36.133,-84.961
1687767973.804,-25.879,-32.715,-11.719,-20.996,158.691
1687767973.807,-48.828,-42.969,-22.949,-23.926,194.336
1687767973.811,-61.035,-45.898,-34.668,-33.203,-92.773
1687767973.815,-59.570,-35.156,-23.926,-21.973,-101.074
1687767973.819,-58.105,-27.344,-23.926,-23.438,119.629
1687767973.823,-53.223,-24.902,-30.762,-27.832,105.957
1687767973.826,-56.641,-28.809,-31.250,-33.691,-82.520
1687767973.830,-67.871,-37.598,-33.691,-39.551,-69.824
1687767973.834,-61.035,-40.527,-24.902,-35.156,65.918
1687767973.838,-45.898,-36.621,-18.555,-27.344,-36.621
1687767973.842,-39.551,-34.668,-22.461,-30.273,-130.859
1687767973.846,-43.457,-40.527,-17.090,-32.227,53.711
1687767973.850,-58.105,-45.898,-17.578,-33.691,291.992
1687767973.853,-62.500,-44.922,-29.297,-37.109,80.566
1687767973.857,-51.270,-35.156,-33.691,-28.809,-125.977
1687767973.861,-45.410,-31.738,-30.762,-25.391,-107.422
1687767973.865,-48.828,-32.715,-34.668,-36.133,-75.195
1687767973.869,-51.758,-30.762,-36.621,-41.504,-98.633
1687767973.871,-52.734,-33.203,-27.344,-32.715,-193.359
1687767973.875,-45.410,-31.738,-30.762,-22.949,-140.625
1687767973.879,-27.344,-30.762,-41.016,-20.020,-27.344
1687767973.883,-22.461,-42.969,-38.086,-24.902,-72.754
1687767973.887,-30.762,-55.664,-29.297,-39.062,-139.160
1687767973.891,-47.852,-50.293,-28.809,-44.434,50.293
1687767973.895,-53.711,-33.691,-32.227,-33.691,363.281
1687767973.898,-35.645,-18.555,-29.785,-31.738,54.688
1687767973.902,-29.785,-19.043,-32.227,-26.367,-231.445
1687767973.906,-50.293,-25.391,-30.273,-21.484,44.922
1687767973.910,-58.594,-33.691,-30.762,-36.621,67.871
1687767973.914,-47.363,-35.645,-33.203,-44.922,-224.609
1687767973.931,-49.805,-40.039,-34.180,-45.410,-159.668
1687767973.935,-43.457,-42.969,-35.645,-48.340,-43.945
1687767973.939,-44.922,-39.551,-34.180,-45.898,-130.371
1687767973.943,-54.688,-39.551,-37.109,-47.852,-144.531
1687767973.947,-47.852,-37.598,-40.039,-41.016,22.461
1687767973.951,-46.387,-37.109,-30.273,-35.645,289.062
1687767973.955,-47.363,-31.738,-29.785,-47.363,143.066
1687767973.958,-47.852,-31.250,-39.062,-56.152,-159.668
1687767973.962,-52.246,-32.715,-35.156,-50.781,-140.625
1687767973.966,-58.105,-32.227,-29.785,-55.664,14.160
1687767973.970,-45.898,-39.551,-33.691,-58.105,-88.867
1687767973.974,-33.691,-36.621,-32.227,-45.898,-195.312
1687767973.976,-50.781,-38.086,-33.691,-44.434,-125.488
1687767973.980,-65.918,-46.875,-32.715,-48.828,-101.074
1687767973.984,-61.035,-46.875,-29.297,-51.758,-131.836
1687767973.988,-44.434,-39.551,-23.438,-46.875,-133.301
1687767973.992,-35.645,-36.621,-22.949,-31.738,-101.074
1687767973.996,-41.504,-32.227,-28.320,-23.926,-24.902
1687767974.000,-49.316,-23.438,-29.297,-29.785,19.043
1687767974.003,-49.805,-29.785,-30.273,-38.086,-76.660
1687767974.007,-29.297,-42.969,-34.180,-24.414,76.172
1687767974.011,-20.020,-35.156,-29.785,-8.789,453.125
1687767974.015,-44.922,-35.156,-30.762,-20.508,250.977
1687767974.019,-64.941,-45.898,-34.668,-44.434,-80.566
1687767974.021,-60.547,-46.387,-27.832,-49.805,-106.934
1687767974.025,-42.969,-38.574,-28.320,-42.969,-183.105
1687767974.029,-30.273,-29.785,-29.785,-43.945,-189.941
1687767974.033,-31.250,-40.039,-40.039,-41.504,-96.680
1687767974.037,-45.410,-49.805,-41.016,-49.316,-72.754
1687767974.041,-43.945,-39.062,-31.250,-53.223,-1.953
1687767974.045,-33.691,-30.762,-30.273,-42.969,21.484
1687767974.048,-36.133,-33.691,-35.156,-41.504,-36.621
1687767974.052,-41.504,-33.203,-36.621,-43.457,149.414
1687767974.056,-51.270,-36.133,-31.738,-45.898,51.270
1687767974.060,-56.641,-40.527,-33.203,-49.805,-168.945
1687767974.064,-41.016,-37.109,-39.062,-47.852,-128.418
1687767974.066,-22.949,-34.180,-35.156,-38.086,10.254
1687767974.070,-34.180,-34.180,-32.227,-47.363,-47.852
1687767974.074,-52.246,-40.527,-35.645,-51.270,-164.551
1687767974.078,-59.570,-42.480,-34.668,-52.246,-91.309
1687767974.082,-46.387,-37.109,-36.621,-61.035,-56.152
1687767974.086,-29.297,-42.969,-41.016,-54.199,-107.422
1687767974.090,-31.250,-47.852,-49.316,-50.781,-118.164
1687767974.093,-39.551,-44.434,-47.363,-56.152,31.250
1687767974.097,-49.316,-36.133,-41.016,-40.527,259.766
1687767974.101,-48.340,-27.832,-36.133,-48.340,58.594
1687767974.105,-30.273,-33.203,-32.227,-55.176,-153.809
1687767974.109,-23.926,-39.551,-35.645,-35.156,209.473
1687767974.126,-40.527,-33.203,-38.086,-32.227,262.207
1687767974.130,-50.293,-33.691,-31.250,-49.805,-91.309
1687767974.134,-51.270,-41.992,-25.879,-49.316,-198.730
1687767974.138,-40.527,-41.992,-39.551,-36.621,-89.844
1687767974.142,-27.832,-39.551,-38.086,-32.715,-55.176
1687767974.146,-31.250,-34.668,-24.902,-27.832,-135.254
1687767974.150,-33.691,-38.086,-19.531,-29.785,-13.672
1687767974.153,-27.344,-31.250,-14.648,-19.043,232.422
1687767974.157,-23.926,-26.367,-22.949,-10.742,60.059
1687767974.161,-18.555,-36.621,-25.391,-19.043,-182.617
1687767974.165,-29.785,-38.574,-22.461,-31.738,-114.746
1687767974.169,-37.598,-44.434,-23.438,-38.086,-63.477
1687767974.157,-37.109,-55.176,-20.508,-37.109,-158.203
1687767974.161,-16.113,-45.898,-19.043,-21.973,-165.039
1687767974.165,-4.395,-22.949,-30.273,-21.973,-78.613
1687767974.169,-22.949,-17.578,-33.691,-47.852,-78.613
1687767974.173,-44.922,-21.973,-38.086,-65.918,-135.742
1687767974.177,-52.734,-25.391,-46.875,-68.359,-83.496
1687767974.181,-36.133,-25.879,-45.898,-63.477,65.430
1687767974.184,-27.344,-17.578,-47.363,-65.430,-35.645
1687767974.188,-38.574,-21.484,-56.641,-65.918,-167.480
1687767974.192,-46.387,-27.344,-65.430,-72.266,-115.723
1687767974.196,-61.523,-20.508,-62.988,-83.984,45.410
1687767974.200,-66.895,-18.066,-59.570,-83.984,226.074
1687767974.201,-50.293,-19.531,-62.012,-84.961,-67.383
1687767974.205,-33.203,-21.484,-64.453,-77.148,-135.254
1687767974.209,-44.922,-31.250,-65.918,-77.637,-6.348
1687767974.213,-57.617,-22.949,-67.383,-89.355,-24.414
1687767974.217,-47.852,-3.906,-69.824,-81.055,-92.285
1687767974.221,-36.621,-9.766,-72.266,-71.289,-108.887
1687767974.225,-39.551,-24.414,-74.707,-71.777,291.992
1687767974.228,-46.875,-20.508,-74.707,-79.590,220.215
1687767974.232,-45.410,-18.066,-73.730,-78.613,-188.965
1687767974.236,-33.203,-12.207,-76.660,-76.660,-166.016
1687767974.240,-11.230,-1.465,-66.406,-81.543,-86.914
1687767974.244,-8.301,-5.371,-61.523,-75.195,-96.191
1687767974.261,-29.785,-10.254,-68.848,-83.496,-144.531
1687767974.265,-32.227,-11.719,-65.430,-86.914,-161.133
1687767974.269,-19.531,2.441,-60.547,-80.078,-169.434
1687767974.273,-5.859,6.836,-61.035,-74.219,-179.199
1687767974.277,-4.395,-7.324,-62.012,-71.777,-166.992
1687767974.281,-22.461,-10.254,-58.105,-83.008,8.789
1687767974.285,-38.574,-6.836,-57.129,-85.938,157.715
1687767974.288,-30.762,0.488,-56.641,-74.707,8.301
1687767974.292,-5.859,-5.371,-53.223,-74.707,-117.188
1687767974.296,-3.418,-15.137,-55.664,-72.266,134.766
1687767974.300,-23.926,-16.113,-56.641,-60.547,349.121
1687767974.304,-36.133,-18.555,-51.758,-71.777,-26.855
1687767974.307,-31.250,-14.648,-46.387,-78.613,-216.309
1687767974.311,-12.695,-11.719,-42.969,-78.125,-104.980
1687767974.315,-7.324,-20.508,-44.434,-78.125,-104.004
1687767974.319,-25.391,-12.207,-41.504,-76.660,-166.992
1687767974.323,-40.527,-8.789,-40.527,-81.543,-137.207
1687767974.327,-50.293,-21.973,-40.527,-80.566,0.977
1687767974.331,-44.434,-27.344,-42.480,-70.312,-16.113
1687767974.334,-27.344,-24.414,-44.434,-62.012,-72.266
1687767974.338,-31.250,-29.297,-42.969,-66.406,-0.977
1687767974.342,-51.758,-44.922,-38.574,-57.129,254.883
1687767974.346,-47.852,-42.480,-34.668,-49.316,130.859
1687767974.350,-34.668,-23.438,-39.551,-60.059,-142.578
1687767974.350,-35.645,-24.414,-47.363,-64.941,-124.512
1687767974.354,-35.156,-37.598,-44.434,-53.711,-91.797
1687767974.358,-41.016,-29.297,-37.598,-56.152,-137.207
1687767974.362,-54.688,-27.344,-41.504,-61.035,-154.785
1687767974.366,-49.805,-36.621,-41.504,-42.480,-54.688
1687767974.370,-35.156,-33.203,-38.574,-19.043,61.035
1687767974.374,-23.926,-30.273,-40.527,-15.137,7.812
1687767974.377,-35.645,-27.344,-41.504,-20.508,-185.059
1687767974.381,-49.316,-19.531,-36.621,-25.391,-27.344
1687767974.385,-47.363,-25.391,-30.762,-14.648,320.312
1687767974.389,-32.715,-35.645,-34.180,-9.766,-3.906
1687767974.393,-20.996,-26.367,-42.969,-16.602,-91.797
1687767974.395,-27.832,-16.113,-45.898,-28.320,91.309
1687767974.399,-43.945,-18.555,-46.387,-49.316,-0.977
1687767974.403,-39.551,-19.043,-39.551,-43.945,-156.738
1687767974.407,-25.391,-21.973,-37.598,-32.227,-171.875
1687767974.411,-21.484,-29.297,-47.852,-36.621,-81.055
1687767974.415,-38.086,-26.367,-47.852,-52.246,-88.867
1687767974.419,-55.664,-23.926,-40.039,-61.035,-163.086
1687767974.422,-45.898,-26.367,-40.527,-57.129,-166.504
1687767974.426,-38.086,-29.297,-41.992,-49.805,134.277
1687767974.430,-37.109,-26.367,-37.109,-50.293,62.988
1687767974.434,-33.203,-17.090,-37.109,-52.734,-157.227
1687767974.438,-41.504,-24.414,-43.945,-56.152,-131.836
1687767974.441,-43.945,-25.879,-42.480,-56.152,-135.254
1687767974.445,-26.855,-16.113,-38.086,-50.293,-116.211
1687767974.449,-15.625,-25.391,-36.621,-48.828,-142.090
1687767974.453,-26.855,-32.227,-34.180,-54.199,-94.238
1687767974.457,-43.457,-26.367,-37.598,-58.105,-76.660
1687767974.461,-34.180,-23.926,-34.668,-51.270,-45.410
1687767974.465,-23.926,-21.973,-28.809,-44.434,-41.504
1687767974.468,-32.227,-25.879,-26.367,-44.434,25.879
1687767974.472,-49.316,-33.203,-21.973,-45.410,184.570
1687767974.476,-57.617,-22.949,-23.438,-52.246,22.949
1687767974.480,-44.434,-17.090,-26.367,-52.246,-134.277
1687767974.484,-32.715,-23.926,-33.691,-40.527,11.719
1687767974.485,-31.250,-26.855,-36.133,-44.922,-21.484
1687767974.489,-33.691,-27.832,-35.156,-47.363,-184.082
1687767974.493,-45.898,-28.320,-36.621,-50.781,-76.172
1687767974.497,-48.828,-18.066,-32.715,-55.176,21.484
1687767974.501,-36.133,-25.391,-28.320,-52.734,-34.180
1687767974.505,-29.785,-36.133,-30.762,-51.270,67.871
1687767974.509,-35.156,-29.785,-32.715,-45.898,138.184
1687767974.512,-50.293,-39.551,-35.156,-48.340,225.586
1687767974.516,-58.594,-49.316,-34.180,-64.941,150.879
1687767974.520,-44.922,-38.574,-33.203,-74.707,-114.746
1687767974.524,-38.086,-37.598,-33.203,-70.312,-121.094
1687767974.528,-42.480,-38.574,-30.273,-63.477,-50.781
1687767974.530,-47.852,-33.203,-33.203,-59.082,-91.797
1687767974.534,-54.199,-26.367,-34.180,-55.664,-132.812
1687767974.538,-44.922,-27.832,-32.227,-62.988,-134.277
1687767974.542,-25.391,-25.879,-34.668,-62.500,-85.938
1687767974.546,-31.250,-24.902,-37.598,-62.988,-48.340
1687767974.550,-50.781,-34.668,-39.551,-68.848,-102.051
1687767974.554,-52.246,-34.668,-39.062,-63.965,121.094
1687767974.557,-38.086,-38.086,-36.133,-58.105,255.371
1687767974.561,-34.180,-53.711,-36.133,-59.570,-15.625
1687767974.565,-42.480,-48.828,-35.156,-61.523,-107.422
1687767974.569,-51.758,-37.109,-35.645,-60.059,51.758
1687767974.573,-72.266,-36.621,-34.668,-61.523,153.320
1687767974.575,-62.500,-37.109,-35.156,-62.988,-109.375
1687767974.579,-27.344,-30.762,-30.273,-55.664,-164.062
1687767974.583,-30.762,-27.832,-27.832,-45.410,-40.039
1687767974.587,-51.270,-33.691,-30.762,-53.711,-89.844
1687767974.591,-59.082,-32.715,-33.203,-67.383,-179.199
1687767974.595,-42.480,-33.691,-32.715,-55.176,-102.539
1687767974.599,-29.297,-36.621,-31.250,-30.273,204.590
1687767974.602,-31.738,-32.227,-40.527,-48.340,79.590
1687767974.606,-29.785,-24.414,-52.246,-67.871,-130.859
1687767974.610,-13.672,-12.695,-53.223,-39.551,-80.078
1687767974.614,-16.113,-18.066,-34.180,-18.066,72.266
1687767974.618,-36.621,-42.969,-12.207,-26.855,-72.266
1687767974.620,-49.805,-43.457,-18.066,-44.434,-151.855
1687767974.624,-58.594,-41.504,-19.531,-48.340,-133.301
1687767974.628,-70.312,-52.246,-19.043,-44.434,-177.246
1687767974.632,-75.684,-56.641,-24.414,-52.734,-170.410
1687767974.636,-66.895,-47.852,-21.484,-55.176,-134.766
1687767974.640,-58.594,-41.504,-25.391,-48.340,57.617
1687767974.644,-49.805,-45.898,-28.320,-48.340,88.379
1687767974.647,-61.035,-51.758,-27.344,-51.758,-70.801
1687767974.651,-59.570,-51.270,-30.273,-41.504,-207.031
1687767974.655,-34.668,-46.875,-29.785,-29.785,108.398
1687767974.659,-34.180,-38.574,-31.738,-24.902,510.254
1687767974.663,-39.551,-37.109,-30.273,-34.668,139.648
1687767974.680,-38.574,-42.480,-27.832,-39.551,-137.207
1687767974.684,-45.898,-38.086,-29.297,-45.898,-83.496
1687767974.688,-34.668,-37.109,-28.320,-45.410,-113.770
1687767974.692,-18.555,-44.922,-25.879,-38.086,-170.410
1687767974.696,-35.645,-44.434,-23.438,-38.574,-213.379
1687767974.700,-55.664,-38.086,-29.297,-46.387,-108.887
1687767974.704,-51.270,-31.250,-33.691,-51.270,-71.777
1687767974.707,-41.504,-24.414,-26.367,-49.805,-131.348
1687767974.711,-38.574,-26.855,-22.461,-41.504,-125.000
1687767974.715,-38.574,-32.715,-29.297,-31.250,65.918
1687767974.719,-41.992,-30.273,-33.203,-46.387,-68.848
1687767974.723,-45.410,-31.738,-26.367,-53.711,-221.680
1687767974.726,-37.109,-38.574,-27.832,-33.203,-96.680
1687767974.730,-27.832,-40.039,-31.250,-33.691,-50.781
1687767974.734,-21.973,-38.574,-27.344,-37.109,-114.258
1687767974.738,-32.227,-36.621,-33.203,-45.898,-114.258
1687767974.742,-34.668,-30.762,-28.809,-49.316,-72.266
1687767974.746,-31.738,-32.715,-21.484,-41.016,-27.344
1687767974.750,-30.762,-37.109,-30.273,-36.621,14.160
1687767974.753,-20.020,-34.668,-36.621,-33.203,-27.832
1687767974.757,-27.832,-26.855,-32.227,-37.598,104.004
1687767974.761,-37.109,-24.414,-35.645,-39.062,277.344
1687767974.765,-28.809,-30.762,-36.621,-32.227,-13.184
1687767974.769,-18.066,-34.180,-33.691,-42.969,-172.852
1687767974.770,-22.949,-35.156,-30.273,-35.645,-22.461
1687767974.774,-35.645,-35.645,-34.180,-40.527,-54.688
1687767974.778,-41.016,-32.227,-45.410,-62.988,-145.020
1687767974.782,-20.996,-25.879,-62.012,-43.457,27.832
1687767974.786,16.602,-20.996,-54.199,2.930,86.914
1687767974.790,-8.789,-35.645,-25.391,-3.906,19.043
1687767974.794,-47.363,-50.781,-17.090,-40.039,33.203
1687767974.797,-51.758,-41.504,-19.043,-34.668,-18.555
1687767974.801,-53.223,-39.062,-19.043,-26.855,160.156
1687767974.805,-42.969,-41.992,-17.578,-32.227,83.496
1687767974.809,-46.387,-44.922,-16.602,-35.156,-113.281
1687767974.813,-66.406,-57.129,-14.648,-41.504,-110.352
1687767974.819,-79.102,-68.848,-11.719,-50.293,-196.289
1687767974.823,-77.148,-66.895,-10.254,-48.340,-169.434
1687767974.827,-62.500,-61.035,-7.812,-38.574,-63.477
1687767974.831,-58.594,-61.523,-6.348,-35.156,-77.637
1687767974.835,-71.289,-60.059,-4.395,-38.574,-101.562
1687767974.839,-92.773,-59.570,3.418,-54.688,-36.133
1687767974.843,-85.449,-65.918,4.883,-54.199,-82.031
1687767974.846,-69.824,-68.359,8.301,-32.227,77.637
1687767974.850,-76.660,-74.219,6.836,-19.043,337.891
1687767974.854,-75.195,-76.660,5.371,-22.949,32.227
1687767974.858,-82.520,-64.941,6.348,-41.016,-180.176
1687767974.862,-95.703,-55.176,7.324,-37.109,9.277
1687767974.860,-80.078,-56.641,5.371,-32.227,-32.227
1687767974.864,-69.336,-65.430,5.371,-39.062,-196.289
1687767974.868,-88.867,-75.684,-4.883,-43.457,-177.246
1687767974.872,-96.191,-71.289,-12.695,-42.480,-147.949
1687767974.876,-87.402,-60.547,-8.301,-34.668,-84.473
1687767974.880,-78.125,-62.012,-10.254,-36.621,-59.570
1687767974.884,-63.477,-67.383,-12.207,-36.133,28.320
1687767974.887,-56.641,-63.965,-6.348,-22.949,374.512
1687767974.891,-59.082,-51.270,-1.953,-24.902,247.070
1687767974.895,-68.359,-48.340,-13.184,-41.016,-184.570
1687767974.899,-45.898,-50.293,-9.766,-37.109,-163.574
1687767974.903,-36.133,-49.805,-9.277,-35.156,-64.941
1687767974.905,-51.270,-55.664,-19.531,-36.621,-121.582
1687767974.909,-49.316,-52.734,-20.996,-29.297,-157.227
1687767974.913,-53.223,-45.898,-18.066,-23.926,-103.027
1687767974.917,-46.875,-43.945,-14.160,-22.461,-75.195
1687767974.921,-21.973,-43.457,-5.859,-11.719,-80.566
1687767974.925,-13.672,-37.598,-3.418,-7.812,-89.355
1687767974.929,-28.809,-46.875,-9.766,-14.160,101.562
1687767974.932,-46.387,-55.176,-18.066,-24.414,188.965
1687767974.936,-45.410,-51.758,-19.043,-24.414,-89.355
1687767974.940,-31.738,-50.293,-17.578,-13.672,-137.207
1687767974.944,-26.855,-51.270,-17.578,-13.672,94.238
1687767974.948,-33.691,-54.688,-18.066,-21.484,177.734
1687767974.950,-40.039,-49.316,-15.625,-31.738,-113.770
1687767974.954,-28.320,-43.457,-14.648,-33.691,-192.383
1687767974.958,-23.926,-31.738,-17.578,-24.414,-111.816
1687767974.962,-30.762,-33.691,-21.484,-21.484,-104.980
1687767974.966,-34.668,-41.016,-25.391,-25.391,-146.973
1687767974.970,-45.898,-43.945,-25.879,-31.738,-47.363
1687767974.974,-49.805,-44.434,-19.531,-23.926,244.629
1687767974.977,-38.086,-48.340,-22.949,-30.273,80.078
1687767974.981,-23.926,-46.387,-24.414,-43.945,-109.863
1687767974.985,-26.855,-42.969,-21.973,-36.133,-97.656
1687767974.989,-50.293,-42.480,-33.691,-42.480,-156.738
1687767974.993,-57.129,-41.504,-34.180,-57.617,-121.094
1687767975.001,-45.898,-49.805,-32.715,-60.547,-55.664
1687767975.005,-27.832,-44.922,-30.762,-40.527,21.973
1687767975.009,-36.133,-37.598,-27.344,-39.062,75.684
1687767975.013,-50.781,-41.992,-20.996,-40.039,-62.012
1687767975.017,-45.898,-39.551,-22.949,-33.203,-179.688
1687767975.021,-36.133,-36.133,-35.645,-41.992,-62.988
1687767975.025,-27.344,-43.457,-33.203,-43.945,88.867
1687767975.028,-33.203,-48.340,-30.273,-44.434,-69.824
1687767975.032,-47.363,-43.457,-40.527,-50.293,-180.664
1687767975.036,-40.039,-25.391,-41.016,-45.898,41.992
1687767975.040,-9.277,-18.555,-33.203,-29.297,208.984
1687767975.044,4.883,-28.320,-26.367,-18.555,-100.098
1687767975.057,-22.949,-38.574,-21.973,-21.973,-189.941
1687767975.061,-50.781,-38.086,-15.625,-38.086,-139.160
1687767975.065,-63.477,-39.551,-20.020,-49.805,-129.395
1687767975.069,-56.152,-39.062,-17.090,-47.363,-81.543
1687767975.073,-35.645,-53.223,-8.301,-34.180,-107.910
1687767975.077,-19.531,-51.270,-10.254,-12.695,176.758
1687767975.081,-24.414,-27.832,-11.719,-19.043,144.043
1687767975.084,-38.574,-19.043,-10.254,-34.180,-119.629
1687767975.088,-48.340,-33.691,-15.137,-40.527,-101.562
1687767975.092,-46.875,-41.504,-25.391,-41.504,37.598
1687767975.096,-32.715,-53.223,-33.691,-35.156,-22.949
1687767975.100,-24.902,-40.527,-18.555,-16.113,-108.398
1687767975.100,-65.918,-23.926,-26.367,-35.645,-86.426
1687767975.104,-73.242,-42.480,-39.551,-58.105,-70.801
1687767975.108,-33.691,-42.969,-34.180,-40.039,-125.977
1687767975.112,-41.016,-21.973,-33.691,-35.156,-118.164
1687767975.116,-58.594,-25.879,-33.203,-39.062,-27.344
1687767975.120,-63.965,-38.086,-36.133,-44.434,38.086
1687767975.124,-57.617,-31.738,-29.297,-46.387,59.570
1687767975.127,-42.480,-28.809,-24.414,-44.922,-44.922
1687767975.131,-41.992,-34.180,-31.250,-41.504,61.523
1687767975.135,-52.246,-36.621,-31.250,-24.902,382.812
1687767975.139,-54.688,-39.062,-27.832,-27.344,157.715
1687767975.143,-42.480,-41.016,-27.344,-29.785,-123.535
1687767975.145,-21.484,-46.875,-24.902,-28.320,-92.773
1687767975.149,-19.531,-43.457,-25.391,-25.391,-131.348
1687767975.153,-30.273,-30.273,-24.902,-25.391,-161.621
1687767975.157,-46.387,-30.273,-23.438,-32.227,-117.188
1687767975.161,-55.664,-42.480,-31.250,-35.156,-73.242
1687767975.165,-38.574,-47.363,-34.668,-29.297,-33.203
1687767975.169,-20.508,-40.527,-32.715,-23.926,-46.875
1687767975.172,-25.391,-31.250,-29.297,-24.414,-77.637
1687767975.176,-45.410,-34.180,-31.250,-19.531,231.445
1687767975.180,-52.734,-45.898,-35.156,-37.598,202.637
1687767975.184,-33.691,-41.016,-32.715,-42.969,-87.891
1687767975.188,-23.438,-45.410,-32.227,-25.879,-67.871
1687767975.190,-33.203,-48.340,-35.645,-42.969,-76.172
1687767975.194,-41.504,-35.645,-37.598,-55.176,-157.715
1687767975.198,-35.156,-33.203,-31.738,-50.781,-192.383
1687767975.202,-21.973,-34.668,-32.227,-41.016,-124.512
1687767975.206,-26.367,-36.621,-36.133,-39.062,-104.004
1687767975.210,-30.762,-37.598,-35.645,-40.527,-94.238
1687767975.214,-48.828,-39.062,-41.992,-49.316,-46.387
1687767975.217,-54.199,-43.457,-41.504,-48.340,28.809
1687767975.221,-35.156,-43.457,-37.598,-34.180,112.793
1687767975.225,-19.043,-33.203,-36.133,-37.109,-34.668
1687767975.229,-15.625,-25.879,-33.691,-32.715,-58.105
1687767975.233,-24.414,-33.203,-36.621,-31.738,68.359
1687767975.235,-37.598,-37.109,-39.551,-40.039,112.305
1687767975.239,-37.109,-37.109,-42.480,-40.039,-119.629
1687767975.243,-25.879,-43.457,-45.898,-44.922,-158.203
1687767975.247,-23.926,-54.688,-39.062,-51.758,-80.566
1687767975.251,-32.715,-53.223,-37.109,-52.734,-91.309
1687767975.255,-49.805,-52.734,-49.316,-67.871,-50.781
1687767975.259,-59.082,-49.805,-53.223,-64.453,-44.922
1687767975.262,-43.457,-35.645,-54.688,-46.387,230.469
1687767975.266,-27.344,-33.691,-51.758,-46.387,141.602
1687767975.270,-38.086,-42.480,-46.875,-59.082,-140.137
1687767975.274,-52.246,-39.551,-46.875,-69.824,-117.188
1687767975.278,-45.898,-42.969,-48.828,-74.219,-98.633
1687767975.281,-23.926,-60.059,-51.758,-62.012,-74.707
1687767975.285,-21.973,-49.316,-48.828,-54.688,-132.324
1687767975.289,-46.387,-41.016,-46.875,-62.012,-93.750
1687767975.293,-49.805,-47.363,-44.434,-71.289,-0.977
1687767975.297,-44.922,-37.109,-43.945,-73.242,-59.082
1687767975.301,-37.598,-27.832,-41.992,-66.406,-73.730
1687767975.305,-24.902,-34.180,-40.527,-62.500,104.004
1687767975.308,-25.879,-35.645,-40.527,-50.293,193.848
1687767975.312,-36.621,-41.992,-48.340,-65.918,-83.496
1687767975.316,-30.273,-53.711,-47.852,-65.430,-87.402
1687767975.320,-12.207,-47.363,-41.504,-37.598,50.781
1687767975.324,0.000,-37.598,-41.992,-42.969,17.090
1687767975.326,-13.184,-40.527,-47.363,-47.852,-118.652
1687767975.330,-43.457,-41.992,-50.293,-59.570,-133.301
1687767975.334,-48.340,-38.086,-50.293,-70.312,-18.066
1687767975.338,-38.574,-42.480,-44.434,-62.012,-88.379
1687767975.342,-43.457,-52.734,-42.480,-65.430,-166.504
1687767975.346,-50.293,-47.363,-44.922,-64.941,-44.922
1687767975.350,-57.617,-41.504,-45.410,-68.359,271.973
1687767975.353,-58.105,-36.621,-42.969,-71.777,189.941
1687767975.357,-35.645,-41.992,-41.504,-62.012,-88.867
1687767975.361,-23.926,-47.852,-41.992,-47.852,-87.891
1687767975.365,-30.273,-36.133,-42.480,-44.922,-29.297
1687767975.369,-40.039,-27.832,-40.039,-49.805,-32.715
1687767975.370,-52.734,-46.387,-41.016,-43.945,-111.816
1687767975.374,-50.293,-56.152,-47.363,-49.805,-137.695
1687767975.378,-40.527,-40.039,-44.922,-47.363,-141.602
1687767975.382,-41.504,-40.039,-42.480,-46.387,-157.227
1687767975.386,-50.781,-45.898,-53.711,-65.430,-161.621
1687767975.390,-58.105,-34.180,-58.594,-63.965,39.062
1687767975.394,-49.316,-37.598,-48.340,-57.129,323.242
1687767975.397,-44.922,-48.340,-43.945,-64.453,19.043
1687767975.401,-54.688,-40.039,-40.039,-60.059,-194.824
1687767975.405,-61.035,-41.992,-35.645,-50.781,52.246
1687767975.409,-50.293,-42.969,-32.715,-51.270,121.582
1687767975.413,-43.457,-43.457,-36.621,-47.852,-110.840
1687767975.430,-39.062,-36.133,-36.621,-44.922,-154.785
1687767975.434,-39.551,-30.762,-35.156,-51.758,-92.285
1687767975.438,-53.223,-37.598,-37.109,-62.500,-126.465
1687767975.442,-59.082,-35.156,-26.367,-60.547,-182.617
1687767975.446,-43.945,-27.832,-23.438,-53.223,-102.051
1687767975.450,-43.945,-36.621,-39.062,-58.594,84.473
1687767975.454,-52.246,-41.504,-47.852,-57.617,65.918
1687767975.457,-62.500,-48.828,-46.387,-60.547,-29.297
1687767975.461,-81.055,-53.711,-47.363,-71.777,-13.184
1687767975.465,-73.730,-54.688,-51.270,-64.941,228.516
1687767975.469,-58.105,-46.875,-49.805,-59.082,117.188
1687767975.473,-46.875,-40.527,-45.898,-70.312,-118.652
1687767975.475,-56.152,-46.387,-44.922,-60.547,-68.848
1687767975.479,-70.801,-38.574,-43.457,-54.199,-83.008
1687767975.483,-61.035,-39.062,-45.410,-56.641,-146.484
1687767975.487,-43.457,-46.387,-39.062,-60.059,-167.969
1687767975.491,-44.434,-47.852,-33.691,-56.152,-91.309
1687767975.495,-51.758,-56.152,-34.668,-54.199,-15.625
1687767975.499,-52.246,-46.387,-36.621,-43.945,21.484
1687767975.502,-55.664,-29.297,-42.480,-55.664,-81.055
1687767975.506,-45.898,-34.668,-40.039,-55.176,23.438
1687767975.510,-38.086,-36.133,-41.992,-37.598,356.445
1687767975.514,-49.316,-25.879,-50.293,-54.199,104.980
1687767975.518,-47.852,-20.996,-43.945,-60.059,-154.297
1687767975.520,-49.316,-27.344,-46.387,-53.223,18.066
1687767975.524,-42.480,-32.227,-53.711,-49.805,-13.184
1687767975.528,-31.250,-12.207,-53.711,-59.082,-240.723
1687767975.532,-34.668,-2.441,-63.965,-72.754,-163.574
1687767975.536,-40.527,-14.160,-65.430,-70.312,-114.746
1687767975.540,-43.457,-27.344,-60.547,-65.430,-140.137
1687767975.544,-27.344,-21.484,-63.965,-68.359,-88.867
1687767975.547,-27.344,-8.789,-66.895,-75.684,-3.418
1687767975.551,-32.715,-11.230,-72.754,-66.406,175.293
1687767975.555,-23.438,-7.812,-71.289,-69.336,18.555
1687767975.559,-19.531,-11.719,-68.359,-83.008,-225.098
1687767975.563,-18.555,-14.160,-72.754,-73.242,-45.898
1687767975.565,-14.160,-2.930,-84.473,-68.359,69.824
1687767975.569,-16.113,-3.418,-87.891,-71.777,-72.754
1687767975.573,-22.461,-23.438,-75.195,-76.172,-140.137
1687767975.577,-16.602,-34.180,-74.707,-91.309,-157.227
1687767975.581,-14.160,-20.996,-83.496,-90.820,-161.133
1687767975.585,-22.461,-11.719,-76.660,-87.402,-41.992
1687767975.589,-24.414,-5.371,-69.824,-104.004,18.555
1687767975.592,-30.273,-0.488,-73.242,-107.422,56.152
1687767975.596,-41.992,-0.488,-66.406,-94.727,209.473
1687767975.600,-27.832,1.465,-65.430,-96.680,34.180
1687767975.604,-0.977,-6.348,-63.965,-99.121,-114.746
1687767975.608,-3.418,-13.184,-58.594,-88.867,20.508
1687767975.611,-28.320,-0.488,-65.430,-94.727,-18.066
1687767975.615,-38.574,2.930,-67.871,-108.887,-129.883
1687767975.619,-30.762,-15.137,-61.035,-99.121,-37.109
1687767975.623,-18.066,-27.832,-58.105,-88.867,24.414
1687767975.627,-8.789,-20.508,-55.664,-94.727,-100.098
1687767975.631,-29.297,-11.230,-60.059,-94.727,-140.137
1687767975.635,-33.691,-5.371,-61.523,-92.285,-19.043
1687767975.638,-17.090,-6.348,-52.246,-90.820,192.383
1687767975.642,-12.695,-10.254,-56.152,-83.984,66.895
1687767975.646,1.953,-8.789,-56.641,-65.918,-210.449
1687767975.650,3.906,-5.371,-53.711,-53.711,-206.543
1687767975.654,-12.695,-21.973,-52.246,-67.383,-139.648
1687767975.655,-15.137,-37.109,-51.758,-72.266,-150.879
1687767975.659,5.859,-23.438,-53.711,-70.312,-170.898
1687767975.663,3.418,-20.996,-55.664,-83.008,-82.031
1687767975.667,-19.043,-25.879,-56.641,-87.891,-35.645
1687767975.671,-27.832,-21.484,-54.688,-84.473,-98.633
1687767975.675,-22.461,-8.789,-53.711,-83.008,-111.328
1687767975.679,-12.695,-25.879,-51.758,-74.707,62.500
1687767975.682,-9.277,-28.320,-43.457,-51.758,281.250
1687767975.686,-12.207,-5.859,-41.016,-55.176,62.500
1687767975.690,-29.785,-25.879,-50.781,-82.031,-64.453
1687767975.694,-38.086,-29.297,-46.387,-73.242,44.434
1687767975.698,-25.879,-12.695,-47.363,-60.059,-19.043
1687767975.700,-22.461,-23.926,-55.664,-61.523,-89.355
1687767975.704,-31.250,-30.762,-54.199,-56.152,-37.598
1687767975.708,-42.480,-30.762,-49.316,-56.641,-56.152
1687767975.712,-46.875,-32.715,-48.340,-65.430,-115.234
1687767975.716,-34.180,-37.109,-47.363,-68.848,-176.270
1687767975.720,-23.926,-40.527,-45.898,-60.059,-15.625
1687767975.724,-27.344,-12.695,-41.016,-46.387,245.605
1687767975.727,-36.133,-12.695,-43.945,-60.059,118.652
1687767975.731,-39.062,-37.109,-47.363,-74.219,-134.766
1687767975.735,-38.086,-49.316,-44.434,-61.523,-73.242
1687767975.739,-28.809,-33.691,-42.969,-44.922,83.984
1687767975.743,-18.066,-18.555,-42.480,-43.945,-62.012
1687767975.745,-24.902,-14.160,-40.527,-43.457,-144.043
1687767975.749,-43.457,-11.719,-38.086,-49.316,-98.633
1687767975.753,-39.062,-28.320,-37.109,-59.082,-53.223
1687767975.757,-20.996,-37.598,-39.551,-53.711,-46.875
1687767975.761,-20.508,-20.020,-41.992,-49.805,-80.566
1687767975.765,-28.809,-24.414,-40.039,-45.898,85.938
1687767975.769,-51.270,-41.992,-42.969,-56.152,216.309
1687767975.772,-55.664,-33.203,-41.992,-59.082,-6.348
1687767975.776,-34.180,-28.320,-38.574,-51.758,-190.918
1687767975.780,-25.391,-22.949,-40.527,-52.246,59.570
1687767975.784,-39.551,-23.438,-41.504,-47.852,381.836
1687767975.788,-48.340,-31.738,-35.156,-54.688,4.395
1687767975.805,-43.945,-29.785,-37.109,-50.781,-216.309
1687767975.809,-40.527,-23.438,-42.480,-46.387,-71.289
1687767975.813,-26.855,-20.996,-39.062,-41.992,-137.207
1687767975.817,-27.344,-25.391,-40.039,-44.434,-179.199
1687767975.821,-58.594,-44.434,-44.922,-57.617,-121.582
1687767975.825,-56.152,-41.016,-39.551,-49.805,-17.090
1687767975.829,-24.414,-19.531,-30.273,-40.039,-24.414
1687767975.832,-11.719,-16.113,-29.297,-32.227,-147.461
1687767975.836,-26.367,-28.320,-30.762,-31.738,-128.418
1687767975.840,-44.434,-29.297,-28.320,-38.574,70.801
1687767975.844,-40.527,-26.855,-31.250,-51.270,-24.414
1687767975.848,-25.879,-24.414,-36.133,-38.574,-44.922
1687767975.851,-17.578,-22.949,-33.691,-22.949,-31.738
1687767975.855,-26.367,-25.391,-31.738,-32.227,-22.949
1687767975.859,-36.133,-23.926,-27.344,-41.016,-74.219
1687767975.863,-38.574,-28.320,-23.926,-33.691,-177.246
1687767975.867,-40.039,-47.852,-29.785,-41.016,-126.465
1687767975.871,-25.391,-41.504,-27.344,-38.086,-47.363
1687767975.875,-16.113,-21.484,-26.367,-35.645,-92.285
1687767975.878,-42.969,-23.926,-42.969,-52.734,-158.203
1687767975.882,-62.012,-26.855,-43.457,-49.316,32.227
1687767975.886,-44.922,-28.809,-39.551,-38.086,348.633
1687767975.890,-26.367,-28.320,-41.504,-45.898,18.555
1687767975.894,-36.621,-27.344,-34.668,-47.852,-199.219
1687767975.896,-49.316,-21.973,-28.320,-51.758,-32.715
1687767975.900,-54.688,-24.414,-30.273,-53.223,-26.855
1687767975.904,-47.852,-35.156,-35.156,-61.035,-158.691
1687767975.908,-37.598,-32.715,-39.551,-59.082,-112.305
1687767975.912,-33.691,-32.715,-34.668,-42.480,96.680
1687767975.916,-48.828,-29.297,-33.203,-55.176,48.340
1687767975.920,-66.406,-31.250,-41.992,-67.383,-100.586
1687767975.923,-50.293,-35.645,-38.574,-51.758,-136.230
1687767975.927,-33.203,-31.250,-35.645,-32.227,120.117
1687767975.931,-39.062,-34.180,-37.598,-32.715,-3.906
1687767975.935,-48.340,-21.973,-36.621,-56.641,-225.098
1687767975.939,-57.129,-9.277,-37.598,-66.895,-157.715
1687767975.955,-47.363,-19.531,-37.109,-56.152,-175.781
1687767975.959,-33.203,-32.227,-40.039,-56.641,-200.684
1687767975.963,-37.109,-28.809,-41.992,-59.570,-155.273
1687767975.967,-45.410,-32.715,-34.668,-62.988,-55.176
1687767975.971,-60.059,-41.992,-36.133,-70.801,-0.488
1687767975.975,-58.105,-34.668,-40.039,-68.848,77.637
1687767975.979,-42.969,-31.250,-42.969,-58.594,64.941
1687767975.982,-49.805,-28.320,-45.410,-56.641,108.398
1687767975.986,-53.223,-18.066,-53.223,-52.246,280.762
1687767975.990,-22.949,-12.207,-62.012,-36.621,-61.523
1687767975.994,-7.812,-22.949,-50.293,-22.461,-235.352
1687767975.998,-26.367,-47.363,-37.598,-31.250,33.203
1687767975.985,-48.340,-48.828,-34.668,-50.781,-2.930
1687767975.989,-55.176,-39.551,-31.738,-42.480,-176.758
1687767975.993,-70.801,-46.387,-32.227,-46.875,-101.074
1687767975.997,-82.520,-52.246,-28.320,-56.641,-5.859
1687767976.001,-69.336,-52.734,-20.996,-46.875,-70.312
1687767976.005,-54.688,-50.781,-16.602,-38.086,-125.488
1687767976.009,-68.359,-47.363,-15.137,-37.598,10.254
1687767976.012,-86.914,-57.129,-16.602,-50.293,80.078
1687767976.016,-83.008,-61.523,-20.020,-65.918,-98.633
1687767976.020,-70.801,-62.012,-15.137,-55.664,-153.809
1687767976.024,-63.477,-61.523,-5.371,-46.875,-92.285
1687767976.028,-68.848,-65.918,-4.883,-45.898,232.422
1687767976.030,-91.797,-73.242,-10.742,-47.852,210.938
1687767976.034,-95.703,-67.871,-7.324,-54.688,-83.008
1687767976.038,-82.520,-63.965,-0.488,-43.945,-56.152
1687767976.042,-78.613,-75.684,-4.395,-43.457,-103.027
1687767976.046,-80.078,-76.172,0.977,-48.340,-154.297
1687767976.050,-88.867,-60.547,7.324,-42.480,-151.855
1687767976.054,-107.422,-64.453,6.836,-49.316,40.039
1687767976.057,-104.492,-78.125,1.953,-41.016,176.270
1687767976.061,-86.914,-76.660,-3.906,-36.133,5.371
1687767976.065,-84.961,-66.406,3.906,-47.363,-88.379
1687767976.069,-86.914,-62.988,7.812,-47.363,135.254
1687767976.073,-95.215,-60.547,9.766,-33.691,166.992
1687767976.090,-91.797,-67.871,10.254,-35.645,-140.625
1687767976.094,-79.590,-76.172,6.348,-32.227,-188.965
1687767976.098,-78.125,-65.918,11.719,-26.855,-131.836
1687767976.102,-98.633,-62.012,15.625,-38.574,-170.410
1687767976.106,-107.910,-58.594,6.348,-53.223,-187.500
1687767976.110,-89.355,-60.547,-5.371,-53.711,-3.906
1687767976.114,-71.777,-62.500,-7.812,-31.250,254.395
1687767976.117,-62.500,-57.129,-4.883,-26.855,34.668
1687767976.121,-60.547,-58.594,-1.953,-33.691,-127.930
1687767976.125,-62.988,-53.223,-3.418,-37.109,-70.801
1687767976.129,-58.105,-42.969,-4.395,-37.598,-61.523
1687767976.133,-36.133,-48.828,-3.418,-41.992,-118.652
1687767976.120,-37.109,-52.246,-3.418,-36.621,-164.551
1687767976.124,-58.105,-47.852,-15.137,-35.645,-64.941
1687767976.128,-69.824,-52.246,-25.391,-40.039,8.789
1687767976.132,-68.848,-57.129,-22.949,-48.340,-103.027
1687767976.136,-60.059,-63.965,-20.996,-46.875,-86.426
1687767976.140,-48.828,-53.711,-25.879,-41.016,85.449
1687767976.144,-51.270,-43.945,-26.855,-42.969,96.191
1687767976.147,-62.988,-49.316,-21.973,-40.039,-14.160
1687767976.151,-72.754,-53.223,-19.531,-45.898,-89.355
1687767976.155,-63.477,-40.527,-18.066,-34.668,82.031
1687767976.159,-56.641,-33.203,-17.578,-25.391,339.355
1687767976.163,-55.664,-34.180,-19.043,-39.062,49.805
1687767976.180,-50.781,-38.086,-20.508,-47.363,-127.930
1687767976.184,-56.152,-45.898,-28.809,-39.551,95.215
1687767976.188,-54.688,-47.852,-28.809,-39.062,-15.137
1687767976.192,-41.016,-51.270,-27.832,-43.457,-219.238
1687767976.196,-47.852,-49.805,-34.180,-44.434,-130.371
1687767976.200,-62.500,-37.109,-31.738,-50.781,31.738
1687767976.204,-57.617,-26.367,-22.949,-44.434,30.762
1687767976.207,-41.992,-28.320,-21.973,-45.898,-52.734
1687767976.211,-26.367,-40.039,-17.578,-32.715,-64.941
1687767976.215,-34.180,-26.367,-16.113,-18.066,157.715
1687767976.219,-56.152,-23.438,-20.996,-33.691,71.289
1687767976.223,-57.617,-44.434,-25.879,-39.062,-124.023
1687767976.225,-43.945,-39.062,-20.508,-33.203,-79.590
1687767976.229,-33.691,-20.996,-15.137,-25.391,-97.168
1687767976.233,-35.156,-22.949,-22.461,-36.133,-152.344
1687767976.237,-49.805,-37.109,-29.297,-55.176,-161.133
1687767976.241,-53.223,-37.109,-24.414,-44.922,-76.660
1687767976.245,-37.109,-24.902,-19.043,-27.344,112.305
1687767976.249,-29.297,-33.203,-22.461,-33.203,119.141
1687767976.252,-36.621,-37.598,-23.438,-36.621,-36.621
1687767976.256,-53.223,-34.180,-26.855,-39.062,105.469
1687767976.260,-60.547,-29.785,-29.785,-34.668,317.871
1687767976.264,-55.664,-30.762,-27.832,-36.133,2.441
1687767976.268,-41.504,-31.738,-32.227,-42.480,-115.723
1687767976.270,-45.410,-23.926,-37.109,-39.062,-4.883
1687767976.274,-69.824,-30.762,-34.668,-42.969,-88.379
1687767976.278,-80.078,-38.574,-29.785,-54.199,-208.496
1687767976.282,-64.941,-39.551,-27.832,-44.922,-148.438
1687767976.286,-50.293,-34.668,-20.020,-27.344,-34.668
1687767976.290,-47.363,-49.805,-15.625,-27.832,-62.988
1687767976.294,-55.664,-58.594,-31.738,-34.180,-20.996
1687767976.297,-70.801,-26.855,-45.898,-49.805,19.531
1687767976.301,-59.082,-15.137,-37.109,-51.270,168.945
1687767976.305,-30.762,-29.297,-32.715,-41.504,177.734
1687767976.309,-40.527,-34.668,-27.344,-46.875,-68.359
1687767976.313,-64.941,-41.992,-31.738,-51.758,-99.609
1687767976.315,-65.430,-39.551,-39.062,-51.758,-153.320
1687767976.319,-55.176,-23.438,-32.227,-45.898,-193.359
1687767976.323,-42.480,-31.738,-29.785,-34.668,-140.137
1687767976.327,-32.715,-36.621,-29.297,-28.320,-90.820
1687767976.331,-41.504,-30.273,-29.297,-31.738,-121.094
1687767976.335,-48.340,-31.738,-31.250,-31.738,-96.680
1687767976.339,-48.828,-31.250,-24.902,-30.273,-47.363
1687767976.342,-43.457,-31.738,-22.949,-27.832,41.504
1687767976.346,-37.109,-43.457,-32.715,-20.996,323.730
1687767976.350,-32.227,-40.527,-30.273,-25.879,128.906
1687767976.354,-39.062,-29.785,-34.180,-42.969,-197.754
1687767976.358,-43.457,-41.992,-38.574,-39.062,-78.125
1687767976.360,-26.367,-38.574,-27.832,-22.949,-51.270
1687767976.364,-18.555,-36.133,-28.320,-24.414,-132.812
1687767976.368,-32.715,-50.293,-28.320,-33.203,-126.953
1687767976.372,-50.781,-45.898,-33.691,-45.898,-159.180
1687767976.376,-46.875,-41.504,-39.062,-41.992,-157.227
1687767976.380,-25.879,-42.969,-33.203,-22.461,-104.980
1687767976.384,-20.996,-48.340,-34.668,-30.762,-14.648
1687767976.387,-38.574,-40.039,-29.297,-35.645,207.031
1687767976.391,-55.176,-17.090,-22.461,-39.551,118.164
1687767976.395,-53.711,-30.273,-31.250,-52.734,-99.121
1687767976.399,-43.945,-48.340,-34.668,-48.340,-51.270
1687767976.403,-29.297,-37.598,-33.203,-36.133,58.594
1687767976.405,-29.297,-45.410,-42.480,-40.527,-31.250
1687767976.409,-52.246,-50.293,-39.062,-54.199,-130.859
1687767976.413,-60.547,-31.250,-36.133,-59.082,-93.262
1687767976.417,-54.688,-35.645,-39.062,-61.523,-116.211
1687767976.421,-39.551,-55.176,-32.715,-49.316,-73.730
1687767976.425,-32.715,-46.875,-32.227,-43.945,-61.035
1687767976.429,-34.668,-27.344,-29.297,-47.852,110.840
1687767976.432,-39.551,-29.297,-20.508,-38.574,254.883
1687767976.436,-45.898,-42.480,-15.625,-46.875,18.066
1687767976.440,-41.992,-50.781,-18.066,-50.293,-70.801
1687767976.444,-31.738,-42.969,-28.809,-30.762,63.965
1687767976.448,-40.039,-29.297,-26.855,-32.715,18.555
1687767976.451,-50.781,-27.832,-20.508,-50.781,-141.113
1687767976.455,-37.598,-35.156,-11.719,-39.062,-188.965
1687767976.459,-35.156,-25.879,-7.812,-20.020,-56.152
1687767976.463,-38.086,-29.297,-20.508,-26.367,-111.816
1687767976.467,-39.062,-44.922,-28.320,-47.852,-262.695
1687767976.471,-46.875,-48.340,-26.367,-51.270,-87.402
1687767976.475,-37.598,-41.504,-20.508,-32.227,255.371
1687767976.478,-20.996,-31.250,-20.508,-32.227,135.742
1687767976.482,-26.855,-34.180,-24.902,-39.551,-129.395
1687767976.486,-45.410,-28.320,-26.855,-38.086,-107.910
1687767976.490,-42.969,-28.809,-25.879,-33.203,-123.047
1687767976.494,-28.809,-48.340,-18.555,-31.250,-149.902
1687767976.511,-21.484,-33.691,-20.508,-38.086,-106.934
1687767976.515,-27.832,-23.438,-24.902,-52.246,-48.828
1687767976.519,-49.805,-24.414,-26.855,-54.199,9.766
1687767976.523,-62.500,-25.391,-29.297,-50.293,-39.551
1687767976.527,-53.711,-34.180,-27.832,-48.828,-203.125
1687767976.531,-41.504,-42.969,-33.203,-49.316,-35.156
1687767976.535,-41.016,-36.621,-43.945,-48.340,347.168
1687767976.538,-40.527,-36.133,-40.527,-48.340,43.945
1687767976.542,-40.527,-42.969,-21.484,-49.805,-224.121
1687767976.546,-43.457,-48.340,-19.043,-57.129,-9.766
1687767976.550,-38.574,-33.691,-21.484,-53.711,74.707
1687767976.554,-30.762,-34.180,-23.438,-38.574,-148.438
1687767976.555,-34.668,-46.387,-27.832,-39.062,-152.344
1687767976.559,-51.270,-34.180,-26.855,-51.758,-61.035
1687767976.563,-48.828,-30.762,-35.645,-51.758,-57.617
1687767976.567,-34.668,-32.227,-28.809,-54.199,-121.582
1687767976.571,-27.344,-29.785,-19.531,-49.316,-104.492
1687767976.575,-32.715,-25.879,-31.250,-54.688,44.434
1687767976.579,-56.152,-33.203,-32.715,-73.242,-15.625
1687767976.582,-55.664,-36.133,-29.785,-63.965,-116.211
1687767976.586,-36.133,-34.668,-28.320,-51.758,-108.398
1687767976.590,-28.320,-34.668,-31.738,-46.387,160.645
1687767976.594,-30.273,-28.320,-28.320,-43.945,99.609
1687767976.598,-39.551,-26.855,-21.973,-55.664,-147.949
1687767976.600,-47.852,-33.203,-26.367,-61.035,-83.008
1687767976.604,-45.898,-47.852,-30.762,-61.523,-65.918
1687767976.608,-31.738,-45.898,-24.902,-51.270,-159.180
1687767976.612,-32.227,-39.062,-27.832,-46.875,-175.781
1687767976.616,-47.852,-41.016,-34.180,-58.594,-72.266
1687767976.620,-62.012,-34.668,-30.273,-68.848,-46.875
1687767976.624,-49.316,-31.738,-28.320,-64.453,-2.930
1687767976.627,-24.414,-31.250,-24.902,-58.594,-62.988
1687767976.631,-32.715,-28.809,-21.484,-53.223,85.938
1687767976.635,-39.551,-28.320,-25.391,-44.922,405.273
1687767976.639,-35.645,-32.715,-22.461,-49.316,82.031
1687767976.643,-42.969,-39.062,-16.602,-53.711,-196.289
1687767976.645,-33.203,-38.574,-18.555,-44.434,8.789
1687767976.649,-20.996,-35.156,-23.926,-44.922,-72.754
1687767976.653,-45.410,-43.945,-30.273,-62.988,-215.820
1687767976.657,-62.012,-38.086,-30.273,-57.617,-171.875
1687767976.661,-52.246,-28.809,-34.180,-54.688,-77.637
1687767976.665,-32.715,-26.855,-22.461,-52.246,-94.238
1687767976.669,-22.461,-22.949,-20.020,-47.363,-109.863
1687767976.672,-40.527,-35.156,-36.133,-63.477,-105.469
1687767976.676,-57.129,-42.480,-39.551,-67.383,87.402
1687767976.680,-40.039,-38.086,-34.180,-56.641,9.766
1687767976.684,-24.414,-33.691,-32.227,-58.105,-189.941
1687767976.688,-34.180,-35.156,-34.180,-63.965,-110.352
1687767976.690,-42.969,-41.016,-33.691,-61.523,-10.254
1687767976.694,-51.758,-32.715,-29.297,-66.406,-123.535
1687767976.698,-55.176,-29.297,-28.320,-64.453,-231.934
1687767976.702,-41.504,-30.273,-31.738,-57.129,-171.875
1687767976.706,-26.367,-26.855,-32.715,-60.059,-93.262
1687767976.710,-43.457,-29.785,-29.785,-56.152,-2.930
1687767976.714,-66.895,-36.621,-29.785,-62.012,-59.082
1687767976.717,-51.758,-33.203,-26.367,-59.082,17.090
1687767976.721,-39.551,-31.250,-23.438,-52.734,300.781
1687767976.725,-36.133,-31.250,-17.578,-48.828,91.797
1687767976.729,-36.133,-36.621,-16.602,-52.246,-168.945
1687767976.733,-59.570,-36.621,-23.926,-66.895,44.922
1687767976.735,-64.941,-29.297,-26.367,-77.637,177.734
1687767976.739,-49.805,-29.785,-24.902,-71.777,-87.891
1687767976.743,-44.922,-32.227,-29.297,-66.895,-134.766
1687767976.747,-43.457,-34.180,-27.832,-62.500,-56.641
1687767976.751,-42.480,-34.668,-15.625,-55.176,-96.680
1687767976.755,-57.129,-32.715,-17.578,-63.965,-46.875
1687767976.759,-69.336,-40.039,-38.086,-77.148,75.684
1687767976.762,-54.688,-41.992,-38.086,-67.871,226.074
1687767976.766,-54.688,-36.621,-24.414,-62.012,109.375
1687767976.770,-75.684,-48.828,-20.508,-75.684,-108.398
1687767976.774,-65.918,-53.223,-26.367,-63.965,-145.996
1687767976.778,-38.086,-25.879,-27.344,-56.641,-162.598
1687767976.781,-40.039,-15.625,-28.320,-77.148,-126.953
1687767976.785,-48.828,-29.297,-32.715,-82.520,-91.797
1687767976.789,-55.664,-20.020,-37.598,-77.637,-86.426
1687767976.793,-64.941,-8.789,-40.527,-83.984,-67.383
1687767976.797,-57.617,-20.996,-39.551,-87.402,-123.535
1687767976.801,-43.945,-27.832,-45.898,-80.566,-97.168
1687767976.805,-41.016,-27.832,-53.711,-73.242,62.012
1687767976.808,-56.641,-25.391,-55.176,-72.754,158.203
1687767976.812,-57.617,-22.461,-58.594,-86.426,-44.434
1687767976.816,-48.828,-18.066,-61.523,-102.539,-88.867
1687767976.820,-45.898,-11.719,-57.617,-89.355,72.754
1687767976.824,-39.551,-28.809,-54.199,-73.242,-26.367
1687767976.825,-46.387,-34.180,-54.199,-81.055,-236.816
1687767976.829,-58.594,-7.812,-57.129,-86.914,-150.391
1687767976.833,-55.176,-0.488,-58.594,-90.332,-27.344
1687767976.837,-33.691,-7.324,-63.965,-81.055,-83.008
1687767976.841,-28.320,-4.395,-63.965,-74.707,-124.512
1687767976.845,-40.039,-0.977,-65.430,-84.961,-41.016
1687767976.849,-50.293,-2.441,-71.777,-83.008,340.820
1687767976.852,-49.805,-2.930,-69.336,-78.613,287.598
1687767976.856,-28.320,-4.395,-62.988,-75.195,-164.551
1687767976.860,-19.531,0.000,-61.523,-74.219,-150.879
1687767976.864,-31.738,-2.441,-62.500,-80.078,-105.469
1687767976.868,-54.199,-7.324,-69.824,-87.891,-224.121
1687767976.870,-50.293,1.953,-71.777,-85.938,-262.695
1687767976.874,-21.484,4.395,-63.965,-77.637,-234.863
1687767976.878,-16.602,-5.371,-62.500,-80.566,-181.641
1687767976.882,-26.855,-1.953,-62.012,-74.219,-176.758
1687767976.886,-37.109,-2.441,-58.594,-78.613,-224.609
1687767976.890,-30.762,-10.742,-55.664,-70.801,-15.625
1687767976.894,-25.879,-7.812,-54.688,-59.082,192.871
1687767976.897,-23.926,-4.395,-57.129,-66.406,60.547
1687767976.901,-21.973,-7.324,-58.594,-71.289,-57.617
1687767976.905,-28.809,-4.883,-56.152,-69.336,149.414
1687767976.909,-24.414,-5.371,-60.059,-72.266,364.746
1687767976.913,-8.789,-4.395,-65.918,-84.961,-0.977
1687767976.930,1.465,1.465,-57.617,-74.707,-183.594
1687767976.934,-4.395,-1.953,-51.758,-68.359,-55.664
1687767976.938,-21.973,-6.836,-52.246,-71.777,-97.168
1687767976.942,-30.273,-10.742,-51.270,-67.871,-194.824
1687767976.946,-29.785,-13.184,-49.805,-79.590,-174.316
1687767976.950,-30.273,-18.066,-52.246,-88.379,-2.930
1687767976.954,-35.645,-10.254,-54.688,-90.332,-26.855
1687767976.957,-37.109,-9.277,-48.828,-89.844,-142.578
1687767976.961,-41.504,-22.461,-43.457,-88.867,-66.406
1687767976.965,-43.457,-6.836,-43.945,-81.055,284.180
1687767976.969,-28.809,-3.418,-46.387,-83.008,197.266
1687767976.973,-15.137,-16.602,-42.480,-83.008,-102.051
1687767976.975,-30.762,-12.207,-37.109,-71.777,-114.258
1687767976.979,-51.270,-15.137,-40.039,-69.824,-158.203
1687767976.983,-40.527,-5.859,-38.574,-62.500,-167.969
1687767976.987,-18.555,-3.906,-37.598,-58.105,-131.348
1687767976.991,-27.344,-17.090,-37.109,-65.918,-94.727
1687767976.995,-56.641,-16.602,-35.645,-70.312,11.230
1687767976.999,-66.895,-18.066,-36.133,-71.289,0.488
1687767977.002,-60.059,-31.250,-33.203,-67.383,-91.797
1687767977.006,-50.293,-28.809,-35.645,-57.129,98.633
1687767977.010,-44.922,-29.297,-42.969,-54.688,395.508
1687767977.014,-53.711,-26.367,-42.969,-71.289,83.008
1687767977.018,-64.453,-20.996,-40.039,-75.195,-139.648
1687767977.022,-54.199,-30.762,-39.062,-54.688,52.734
1687767977.026,-41.016,-31.250,-38.086,-56.152,-47.363
1687767977.030,-30.273,-29.297,-37.109,-60.547,-160.156
1687767977.034,-26.367,-28.809,-34.180,-49.316,-107.910
1687767977.038,-46.875,-28.320,-33.691,-54.688,-86.426
1687767977.042,-58.105,-24.414,-34.180,-67.871,-61.035
1687767977.046,-39.551,-24.902,-30.273,-64.453,-59.082
1687767977.049,-25.879,-33.691,-33.203,-59.082,-96.191
1687767977.053,-33.203,-40.039,-36.133,-61.523,97.656
1687767977.057,-45.898,-34.668,-36.621,-61.523,-14.648
1687767977.061,-52.734,-26.367,-40.527,-62.500,-188.477
1687767977.065,-40.039,-30.762,-43.457,-67.383,-85.449
1687767977.067,-29.785,-34.180,-42.480,-59.082,-119.141
1687767977.071,-38.574,-28.809,-35.156,-64.453,-104.980
1687767977.075,-53.223,-32.715,-26.855,-68.359,-101.562
1687767977.079,-47.363,-33.691,-32.715,-65.918,-121.094
1687767977.083,-44.434,-37.598,-42.480,-57.617,-77.637
1687767977.087,-47.363,-51.758,-41.504,-48.340,-113.281
1687767977.091,-44.922,-46.875,-38.086,-53.223,-89.844
1687767977.094,-47.852,-34.668,-38.086,-61.035,47.363
1687767977.098,-51.758,-37.109,-39.062,-53.711,207.520
1687767977.102,-38.086,-39.062,-34.668,-45.898,1.465
1687767977.106,-19.043,-34.180,-31.738,-43.457,-125.000
1687767977.110,-31.738,-34.668,-30.762,-44.434,76.172
1687767977.111,-48.340,-38.574,-32.715,-53.223,37.598
1687767977.115,-50.293,-22.949,-34.180,-61.523,-94.727
1687767977.119,-34.180,-25.391,-35.645,-56.641,-150.391
1687767977.123,-21.973,-41.992,-36.133,-42.480,-88.379
1687767977.127,-22.461,-43.945,-37.109,-39.551,17.578
1687767977.131,-37.598,-44.434,-43.457,-49.316,-7.324
1687767977.135,-51.270,-35.645,-41.016,-53.711,-62.988
1687767977.138,-34.668,-34.668,-36.133,-41.992,174.805
1687767977.142,-16.113,-42.969,-39.551,-35.156,200.684
1687767977.146,-14.648,-32.715,-39.062,-42.969,-110.840
1687767977.150,-21.484,-30.273,-34.180,-40.039,-94.238
1687767977.154,-27.832,-36.133,-34.668,-42.969,-73.730
1687767977.156,-32.715,-31.250,-41.992,-55.176,-145.996
1687767977.160,-28.809,-39.062,-46.875,-53.223,-131.836
1687767977.164,-21.973,-43.945,-41.992,-52.246,-37.598
1687767977.168,-33.203,-42.480,-37.598,-52.246,-62.012
1687767977.172,-52.734,-41.016,-42.480,-56.152,-187.012
1687767977.176,-45.410,-38.574,-42.969,-62.012,-183.105
1687767977.180,-24.414,-42.969,-40.527,-48.340,10.742
1687767977.183,-16.602,-44.434,-40.527,-34.180,312.988
1687767977.187,-32.227,-30.273,-42.480,-49.316,43.457
1687767977.191,-44.434,-23.926,-37.109,-60.547,-165.039
1687767977.195,-34.180,-35.156,-35.156,-45.410,62.500
1687767977.199,-34.180,-43.945,-35.645,-45.410,86.426
1687767977.201,-34.180,-42.969,-30.762,-55.664,-133.301
1687767977.205,-36.621,-41.992,-31.738,-52.734,-157.715
1687767977.209,-53.711,-36.621,-31.738,-48.828,-103.027
1687767977.213,-45.898,-38.086,-35.645,-41.504,-150.391
1687767977.217,-29.297,-38.574,-37.109,-42.969,-231.934
1687767977.221,-16.113,-25.879,-29.297,-45.410,-31.738
1687767977.225,-16.602,-32.227,-31.738,-34.668,232.910
1687767977.228,-31.738,-44.434,-38.574,-44.434,107.422
1687767977.232,-44.434,-34.668,-36.133,-56.641,-156.738
1687767977.236,-30.762,-31.738,-34.668,-29.297,-133.789
1687767977.240,-21.484,-30.762,-37.109,-26.367,3.906
1687767977.244,-33.691,-30.273,-39.062,-45.898,-82.520
1687767977.246,-29.785,-30.273,-34.668,-50.293,-184.570
1687767977.250,-27.344,-29.297,-33.691,-47.363,-221.680
1687767977.254,-27.344,-34.668,-35.156,-41.016,-197.266
1687767977.258,-15.137,-36.621,-33.203,-34.668,-129.395
1687767977.262,-18.555,-37.598,-38.574,-36.621,-163.086
1687767977.266,-40.527,-36.133,-39.551,-41.504,-89.355
1687767977.270,-45.410,-41.504,-40.039,-50.293,76.660
1687767977.273,-23.926,-34.668,-51.758,-51.758,-49.316
1687767977.277,13.184,-14.160,-55.664,-16.602,-120.605
1687767977.281,17.090,-14.160,-46.387,6.348,124.023
1687767977.285,-33.691,-41.016,-27.832,-9.277,159.180
1687767977.289,-56.641,-53.711,-28.320,-37.598,-149.414
1687767977.306,-44.434,-45.898,-36.621,-53.711,-212.402
1687767977.310,-39.551,-53.711,-28.320,-45.898,26.367
1687767977.314,-46.875,-60.547,-22.949,-42.969,3.906
1687767977.318,-62.012,-51.758,-24.902,-45.898,-182.129
1687767977.322,-69.336,-57.129,-22.461,-39.062,-119.629
1687767977.326,-77.148,-68.359,-21.973,-47.852,-17.578
1687767977.330,-63.965,-68.359,-22.949,-55.664,-88.379
1687767977.333,-53.223,-69.336,-20.020,-52.246,-157.227
1687767977.337,-76.172,-68.848,-20.020,-49.316,-58.105
1687767977.341,-91.309,-67.383,-17.090,-46.387,191.406
1687767977.345,-88.867,-64.941,-11.230,-50.293,68.848
1687767977.349,-74.219,-71.777,-11.719,-50.781,-96.680
1687767977.351,-65.918,-76.172,-9.277,-41.992,-57.617
1687767977.355,-91.309,-79.102,-7.324,-47.852,-40.527
1687767977.359,-101.562,-79.102,-10.742,-51.758,-76.660
1687767977.363,-87.891,-77.637,-7.812,-49.805,-135.742
1687767977.367,-82.520,-76.660,-1.953,-41.992,-45.898
1687767977.371,-85.449,-69.824,2.930,-33.691,15.137
1687767977.375,-90.332,-70.801,2.441,-41.992,8.789
1687767977.378,-91.797,-71.289,1.953,-47.852,-72.266
1687767977.382,-95.215,-72.754,0.000,-48.340,31.738
1687767977.386,-90.820,-79.102,-6.836,-43.457,360.352
1687767977.390,-77.637,-74.219,0.000,-41.992,63.477
1687767977.394,-91.309,-69.824,7.324,-46.387,-144.043
1687767977.395,-107.910,-66.406,8.789,-54.199,-47.852
1687767977.399,-98.145,-66.406,7.324,-54.199,-85.938
1687767977.403,-80.078,-70.801,10.254,-38.574,-157.715
1687767977.407,-73.730,-61.523,5.859,-36.133,-156.738
1687767977.411,-81.055,-59.570,0.977,-38.086,92.773
1687767977.415,-79.590,-68.848,-4.883,-39.062,107.910
1687767977.419,-72.266,-64.453,-8.789,-40.039,20.996
1687767977.422,-52.246,-52.246,-1.465,-30.273,-14.160
1687767977.426,-36.133,-56.641,-6.836,-25.391,206.543
1687767977.430,-42.969,-60.059,-8.301,-28.809,127.441
1687767977.434,-62.012,-50.293,-7.324,-31.738,-104.980
1687767977.438,-67.383,-48.340,-5.859,-32.715,-91.797
1687767977.440,-53.223,-50.781,-15.137,-43.945,-98.633
1687767977.444,-38.086,-48.340,-21.484,-33.203,-173.340
1687767977.448,-38.086,-52.734,-16.113,-9.766,-158.203
1687767977.452,-43.457,-46.875,-15.625,-17.578,-57.617
1687767977.456,-39.062,-35.645,-15.625,-24.902,-52.246
1687767977.460,-35.645,-40.039,-14.648,-25.391,-10.742
1687767977.464,-26.855,-49.805,-14.160,-26.367,26.855
1687767977.467,-21.973,-49.316,-12.695,-21.484,66.895
1687767977.471,-40.039,-44.922,-10.742,-7.812,375.000
1687767977.475,-43.457,-44.922,-7.324,-8.301,214.355
1687767977.479,-34.180,-40.527,-12.695,-19.043,-142.090
1687767977.483,-23.438,-39.062,-17.090,-10.742,38.574
1687767977.500,-12.695,-50.781,-20.020,-14.160,-26.855
1687767977.504,-32.715,-57.617,-20.508,-18.555,-197.266
1687767977.508,-51.758,-41.016,-19.043,-19.531,-170.410
1687767977.512,-50.293,-34.180,-25.391,-16.602,-182.129
1687767977.516,-36.621,-45.410,-29.785,-3.418,-124.512
1687767977.520,-33.203,-46.875,-24.414,-10.742,-33.203
1687767977.524,-45.410,-38.574,-20.996,-19.043,19.531
1687767977.527,-39.062,-35.156,-20.508,-15.625,128.418
1687767977.531,-27.344,-35.156,-19.531,-14.648,22.461
1687767977.535,-28.809,-29.785,-17.090,-17.090,-155.762
1687767977.539,-30.762,-23.926,-24.902,-12.207,-151.367
1687767977.543,-34.668,-23.438,-28.809,-2.441,-38.574
1687767977.530,-42.969,-31.250,-18.066,-6.836,-70.312
1687767977.534,-47.852,-33.203,-21.484,-13.184,-174.805
1687767977.538,-30.273,-27.344,-29.785,-10.254,-81.055
1687767977.542,-25.879,-28.809,-27.832,-8.789,-73.242
1687767977.546,-37.598,-37.598,-28.320,-13.672,-163.574
1687767977.550,-49.316,-38.086,-32.227,-23.926,-75.195
1687767977.554,-67.871,-42.969,-36.133,-32.227,99.121
1687767977.557,-50.293,-39.551,-27.832,-24.902,37.598
1687767977.561,-27.832,-33.691,-20.020,-20.996,-20.020
1687767977.565,-42.480,-37.598,-33.203,-36.133,-24.414
1687767977.569,-66.406,-30.762,-40.039,-41.992,72.266
1687767977.573,-69.336,-23.926,-41.504,-34.668,353.516
1687767977.576,-46.875,-29.297,-45.410,-39.551,169.922
1687767977.580,-21.484,-35.156,-37.109,-48.828,-69.824
1687767977.584,-40.527,-41.016,-41.992,-56.152,-32.227
1687767977.588,-59.570,-42.480,-49.805,-62.988,-119.629
1687767977.592,-46.387,-36.133,-41.992,-59.570,-197.754
1687767977.596,-39.551,-30.273,-30.762,-51.270,14.648
1687767977.600,-32.715,-24.414,-27.344,-41.504,297.363
1687767977.603,-25.391,-26.855,-36.621,-42.480,101.562
1687767977.607,-41.504,-26.855,-38.086,-41.504,-218.750
1687767977.611,-62.500,-28.809,-37.109,-37.109,-219.727
1687767977.615,-47.852,-29.297,-37.598,-39.062,-142.090
1687767977.619,-36.133,-30.273,-37.598,-40.527,-135.254
1687767977.621,-33.203,-38.086,-31.738,-36.133,-147.949
1687767977.625,-30.273,-33.691,-26.855,-26.367,-40.527
1687767977.629,-40.039,-35.156,-26.367,-30.273,39.551
1687767977.633,-43.945,-42.480,-26.367,-32.715,-88.379
1687767977.637,-21.484,-41.016,-28.809,-24.414,-163.574
1687767977.641,-20.020,-38.086,-29.785,-12.695,40.527
1687767977.645,-47.363,-36.133,-27.832,-18.555,98.633
1687767977.648,-68.359,-36.133,-28.809,-43.457,-30.762
1687767977.652,-63.477,-45.410,-36.621,-45.898,-154.297
1687767977.656,-36.133,-42.480,-36.133,-33.203,60.059
1687767977.660,-24.414,-34.668,-29.297,-25.391,242.676
1687767977.664,-35.645,-38.574,-25.879,-32.715,-159.668
1687767977.680,-48.828,-39.062,-30.762,-44.434,-249.023
1687767977.684,-46.387,-32.715,-29.297,-41.504,-75.195
1687767977.688,-34.668,-45.898,-30.273,-35.156,-48.828
1687767977.692,-30.273,-54.688,-37.598,-40.039,-22.949
1687767977.696,-39.062,-42.480,-33.691,-42.969,-109.863
1687767977.700,-43.457,-35.645,-30.273,-28.809,161.133
1687767977.704,-44.434,-36.133,-32.227,-29.785,192.871
1687767977.707,-46.387,-39.551,-35.645,-51.758,-85.938
1687767977.711,-41.016,-43.457,-43.457,-49.805,-106.934
1687767977.715,-54.199,-38.574,-45.898,-41.504,79.102
1687767977.719,-67.871,-43.945,-43.457,-55.664,-39.062
1687767977.723,-51.758,-49.805,-35.156,-56.152,-222.656
1687767977.725,-34.180,-43.457,-32.227,-46.875,-168.945
1687767977.729,-32.715,-39.551,-30.273,-50.293,-121.094
1687767977.733,-37.598,-42.969,-35.156,-58.594,-167.480
1687767977.737,-38.574,-43.945,-39.062,-63.477,-185.547
1687767977.741,-28.809,-39.551,-30.273,-43.457,-88.379
1687767977.745,-26.367,-39.062,-37.598,-33.691,-37.109
1687767977.749,-25.391,-40.039,-49.805,-39.062,-29.785
1687767977.752,-35.645,-37.109,-45.410,-35.156,-70.312
1687767977.756,-54.688,-36.621,-39.062,-35.156,47.852
1687767977.760,-52.246,-35.645,-36.133,-26.367,374.512
1687767977.764,-43.457,-45.898,-35.645,-24.902,159.668
1687767977.768,-40.527,-44.922,-32.227,-39.551,-95.215
1687767977.770,-40.527,-31.738,-31.738,-42.480,14.160
1687767977.774,-52.246,-38.574,-36.621,-42.969,-92.285
1687767977.778,-57.129,-47.363,-38.574,-56.152,-195.801
1687767977.782,-45.410,-37.109,-39.551,-63.965,-143.066
1687767977.786,-46.387,-30.273,-40.527,-51.758,-107.422
1687767977.790,-37.109,-29.785,-35.645,-51.270,-81.543
1687767977.794,-43.457,-25.391,-32.227,-55.664,-46.387
1687767977.797,-59.082,-27.832,-33.691,-61.035,-63.965
1687767977.801,-54.688,-38.574,-36.621,-51.758,164.551
1687767977.805,-41.992,-43.945,-38.574,-42.480,184.082
1687767977.809,-36.133,-31.738,-29.297,-50.781,-88.379
1687767977.813,-43.945,-26.855,-25.391,-58.105,-173.340
1687767977.816,-51.270,-30.762,-31.738,-56.152,-147.949
1687767977.820,-45.898,-28.809,-30.762,-54.199,-135.742
1687767977.824,-38.574,-28.320,-30.762,-50.293,-181.641
1687767977.828,-37.109,-26.855,-32.227,-49.805,-117.676
1687767977.832,-46.387,-24.414,-35.156,-58.594,-69.824
1687767977.836,-62.500,-23.438,-35.645,-60.547,-97.168
1687767977.840,-49.316,-33.203,-31.738,-52.246,-144.043
1687767977.843,-31.738,-45.410,-28.320,-35.645,5.859
1687767977.847,-25.879,-40.039,-23.438,-27.832,189.453
1687767977.851,-34.180,-29.297,-28.320,-45.898,49.805
1687767977.855,-51.758,-34.180,-35.156,-53.711,-28.320
1687767977.859,-57.617,-31.250,-39.551,-55.176,71.289
1687767977.861,-51.270,-26.367,-40.527,-49.316,137.207
1687767977.865,-43.457,-29.297,-42.969,-51.758,-80.078
1687767977.869,-51.270,-34.180,-45.898,-59.082,-143.555
1687767977.873,-58.105,-44.434,-37.109,-60.059,-115.723
1687767977.877,-52.734,-39.551,-30.762,-56.152,-140.625
1687767977.881,-38.086,-34.180,-31.738,-49.316,-26.855
1687767977.885,-34.668,-41.504,-30.762,-41.992,1.465
1687767977.888,-45.898,-43.945,-36.133,-38.574,136.230
1687767977.892,-62.500,-36.133,-40.039,-50.293,39.551
1687767977.896,-70.801,-38.574,-35.156,-55.664,-226.074
1687767977.900,-59.082,-34.180,-24.902,-43.945,-110.352
1687767977.904,-36.133,-30.762,-21.973,-33.691,-45.410
1687767977.907,-37.109,-33.203,-28.320,-43.457,-121.094
1687767977.911,-60.547,-32.227,-32.227,-52.246,-153.320
1687767977.915,-60.547,-33.203,-32.227,-49.316,-111.328
1687767977.919,-56.152,-36.133,-29.297,-51.270,35.645
1687767977.923,-42.480,-37.598,-30.273,-47.852,-7.812
1687767977.927,-39.062,-33.203,-35.645,-46.387,-88.867
1687767977.931,-62.012,-38.574,-36.133,-51.270,42.969
1687767977.934,-65.430,-44.434,-31.250,-49.805,150.391
1687767977.938,-52.246,-37.598,-39.062,-51.758,-34.180
1687767977.942,-39.062,-33.691,-44.434,-46.387,-80.566
1687767977.946,-41.504,-39.551,-33.691,-34.668,64.453
1687767977.950,-52.734,-34.180,-35.156,-41.992,53.711
1687767977.952,-47.363,-26.367,-41.992,-53.223,-101.074
1687767977.956,-35.156,-30.762,-37.598,-49.316,-92.773
1687767977.960,-29.785,-37.109,-28.320,-39.062,-34.180
1687767977.964,-35.645,-35.645,-34.180,-40.039,-36.133
1687767977.968,-42.969,-33.203,-39.551,-46.387,-64.453
1687767977.972,-45.898,-33.691,-37.109,-47.852,-48.340
1687767977.976,-52.246,-28.809,-41.504,-49.805,186.035
1687767977.979,-39.551,-34.668,-39.062,-36.133,228.027
1687767977.983,-28.809,-37.598,-36.621,-31.250,-81.055
1687767977.987,-45.898,-34.668,-44.434,-54.688,-148.438
1687767977.991,-50.781,-32.715,-46.387,-61.523,-98.145
1687767977.995,-48.828,-39.062,-47.852,-61.523,-111.816
1687767977.995,-39.551,-40.527,-44.922,-62.500,-211.426
1687767977.999,-29.297,-34.668,-41.992,-56.152,-101.562
1687767978.003,-49.316,-48.340,-44.922,-57.129,-40.527
1687767978.007,-64.941,-45.898,-42.969,-56.152,-86.426
1687767978.011,-47.852,-39.551,-41.992,-55.664,-130.859
1687767978.015,-42.969,-50.293,-38.574,-61.035,19.531
1687767978.019,-52.246,-47.363,-36.621,-63.965,173.340
1687767978.022,-56.641,-40.039,-40.527,-63.965,29.785
1687767978.026,-78.613,-39.062,-38.574,-69.824,-184.082
1687767978.030,-70.801,-32.715,-34.668,-59.570,-65.430
1687767978.034,-51.270,-37.598,-37.598,-39.551,231.934
1687767978.038,-48.828,-38.574,-37.598,-45.898,0.977
1687767978.056,-53.223,-33.203,-30.273,-62.500,-172.852
1687767978.060,-67.871,-37.109,-32.227,-69.824,-142.578
1687767978.064,-65.430,-44.434,-40.527,-66.406,-141.113
1687767978.068,-50.293,-47.852,-43.945,-66.895,-182.617
1687767978.072,-41.992,-41.504,-47.852,-63.477,-115.723
1687767978.076,-44.434,-36.133,-47.852,-56.152,102.539
1687767978.080,-61.035,-39.062,-44.922,-66.895,30.273
1687767978.083,-66.895,-39.551,-43.457,-63.965,-165.039
1687767978.087,-44.922,-36.621,-41.016,-48.340,-79.590
1687767978.091,-34.668,-40.039,-41.992,-45.410,227.539
1687767978.095,-41.992,-41.504,-51.270,-52.734,149.414
1687767978.099,-59.570,-36.133,-54.199,-55.176,-74.707
1687767978.100,-70.312,-36.133,-44.922,-58.594,-124.512
1687767978.104,-43.945,-40.039,-41.504,-62.012,-98.145
1687767978.108,-34.180,-41.992,-45.898,-51.758,-66.895
1687767978.112,-38.574,-39.551,-45.898,-52.246,-109.375
1687767978.116,-47.363,-39.062,-44.434,-62.012,-118.652
1687767978.120,-56.152,-36.133,-37.598,-59.082,-18.555
1687767978.124,-57.129,-29.785,-32.715,-57.129,-18.555
1687767978.127,-47.852,-36.621,-48.340,-67.383,-70.312
1687767978.131,-37.598,-42.480,-53.711,-58.105,-12.207
1687767978.135,-56.152,-36.133,-41.504,-45.410,250.000
1687767978.139,-64.941,-40.527,-46.875,-62.500,36.133
1687767978.143,-45.410,-48.340,-47.363,-62.988,-198.730
1687767978.146,-36.133,-46.387,-45.898,-58.594,-36.133
1687767978.150,-35.156,-38.086,-39.551,-51.270,2.441
1687767978.154,-44.434,-38.574,-37.109,-52.734,-158.203
1687767978.158,-53.711,-38.086,-40.527,-69.336,-95.703
1687767978.162,-44.434,-29.785,-36.133,-64.453,-39.062
1687767978.166,-40.039,-38.574,-34.180,-53.223,-26.855
1687767978.170,-49.316,-38.574,-31.250,-56.152,62.500
1687767978.173,-65.430,-37.598,-31.250,-62.988,19.043
1687767978.177,-56.641,-54.199,-31.250,-44.922,196.777
1687767978.181,-28.809,-42.480,-32.715,-26.367,155.762
1687767978.185,-27.832,-25.879,-43.457,-46.387,-92.285
1687767978.189,-35.645,-32.227,-46.387,-66.406,-44.434
1687767978.191,-42.969,-25.391,-47.363,-62.500,37.109
1687767978.195,-54.688,-18.066,-48.340,-63.477,-80.078
1687767978.199,-55.176,-16.602,-51.758,-69.336,-238.770
1687767978.203,-45.410,-16.602,-52.246,-64.453,-142.090
1687767978.207,-36.133,-25.879,-58.105,-70.312,-43.945
1687767978.211,-38.574,-25.391,-63.965,-78.613,-26.367
1687767978.215,-52.734,-20.996,-66.406,-91.309,0.000
1687767978.218,-60.547,-18.555,-66.895,-96.191,31.250
1687767978.222,-42.480,-19.531,-63.965,-75.684,177.734
1687767978.226,-28.809,-13.184,-63.965,-67.383,10.742
1687767978.230,-36.621,-15.625,-66.406,-77.148,-124.512
1687767978.234,-43.945,-18.555,-68.848,-87.402,-20.996
1687767978.238,-41.992,-8.789,-67.383,-83.496,-29.785
1687767978.242,-28.320,-17.090,-69.824,-82.520,-135.254
1687767978.246,-27.832,-16.113,-71.777,-83.008,-47.852
1687767978.250,-38.574,-9.277,-68.848,-75.684,45.410
1687767978.254,-45.410,-12.207,-67.871,-82.031,-48.340
1687767978.258,-41.992,-5.371,-70.312,-81.055,-22.461
1687767978.262,-26.855,-0.977,-69.336,-76.172,-0.977
1687767978.265,-19.531,-11.719,-71.777,-71.289,205.078
1687767978.269,-20.508,-14.648,-74.707,-80.078,73.730
1687767978.273,-24.414,-10.254,-73.730,-96.191,-238.281
1687767978.277,-17.090,-8.301,-71.289,-90.820,-142.090
1687767978.281,-14.648,-5.371,-67.871,-77.637,-64.941
1687767978.280,-7.324,-16.113,-65.430,-68.359,-114.746
1687767978.284,2.930,-17.578,-64.941,-69.824,-153.320
1687767978.288,-17.090,-8.789,-65.430,-80.566,-121.582
1687767978.292,-25.391,-14.648,-64.453,-86.914,-102.051
1687767978.296,-14.648,-16.113,-68.848,-79.102,-71.777
1687767978.300,3.418,-10.742,-71.777,-77.637,-0.488
1687767978.304,6.836,-6.836,-68.359,-82.520,113.770
1687767978.307,-17.090,0.488,-67.871,-71.289,344.238
1687767978.311,-28.320,-5.859,-69.336,-61.523,89.355
1687767978.315,-25.879,-14.160,-65.430,-73.242,-163.574
1687767978.319,-13.184,-8.789,-62.500,-66.406,44.434
1687767978.323,2.930,-0.977,-55.664,-53.711,76.172
1687767978.325,-2.930,-1.465,-53.223,-62.012,-166.016
1687767978.329,-8.301,-14.160,-57.129,-63.477,-209.473
1687767978.333,0.000,-12.207,-57.129,-61.035,-136.230
1687767978.337,-9.766,-12.695,-56.641,-59.082,-164.062
1687767978.341,-13.184,-11.230,-56.641,-52.246,-205.078
1687767978.345,-25.391,-9.277,-51.270,-61.523,-129.395
1687767978.349,-39.551,-17.578,-50.781,-67.383,153.809
1687767978.352,-28.809,-22.461,-52.246,-71.777,194.336
1687767978.356,-31.250,-32.227,-49.805,-81.543,-107.422
1687767978.360,-31.738,-24.902,-50.293,-67.383,-142.090
1687767978.364,-41.016,-13.672,-52.246,-69.824,5.371
1687767978.368,-55.176,-20.020,-51.758,-82.520,-59.082
1687767978.370,-49.805,-22.461,-53.711,-77.148,-80.566
1687767978.374,-32.227,-22.461,-52.734,-70.801,-44.922
1687767978.378,-22.461,-20.020,-48.340,-71.289,-7.324
1687767978.382,-26.367,-23.438,-48.340,-86.914,-92.773
1687767978.386,-45.410,-24.414,-46.875,-90.332,-159.180
1687767978.390,-52.734,-18.066,-43.945,-83.984,4.883
1687767978.394,-41.504,-18.066,-45.898,-83.008,132.324
1687767978.397,-30.273,-23.438,-50.781,-80.566,-53.223
1687767978.401,-34.180,-23.438,-48.828,-69.824,-264.648
1687767978.405,-44.434,-27.832,-47.363,-74.219,41.504
1687767978.409,-44.922,-22.949,-46.875,-72.754,431.641
1687767978.413,-32.715,-23.926,-44.922,-56.641,27.832
1687767978.430,-18.555,-37.598,-51.758,-54.688,-228.516
1687767978.434,-19.043,-31.250,-52.734,-54.688,-120.605
1687767978.438,-40.039,-30.273,-45.410,-64.453,-194.336
1687767978.442,-46.875,-45.898,-44.434,-69.824,-266.113
1687767978.446,-39.551,-40.039,-47.363,-56.641,-178.711
1687767978.450,-32.227,-37.598,-43.945,-49.805,42.480
1687767978.454,-36.133,-41.504,-41.504,-46.387,86.426
1687767978.457,-51.758,-33.691,-41.992,-61.523,-91.309
1687767978.461,-47.852,-31.250,-44.434,-75.684,-134.766
1687767978.465,-35.645,-32.715,-40.039,-56.641,130.371
1687767978.469,-23.926,-33.203,-30.273,-48.828,18.555
1687767978.473,-24.414,-26.855,-35.156,-61.035,-111.328
1687767978.475,-47.363,-23.926,-39.551,-69.824,5.859
1687767978.479,-58.594,-32.227,-37.598,-70.312,30.273
1687767978.483,-45.410,-38.574,-34.668,-71.289,-137.207
1687767978.487,-23.438,-28.809,-32.715,-59.570,-175.293
1687767978.491,-21.973,-21.973,-37.598,-68.848,-54.199
1687767978.495,-43.945,-24.414,-41.016,-75.684,16.113
1687767978.499,-56.641,-26.855,-40.527,-75.195,3.906
1687767978.502,-49.316,-34.668,-40.527,-72.266,-145.996
1687767978.506,-35.156,-41.504,-39.551,-62.500,-22.461
1687767978.510,-39.062,-43.945,-37.109,-64.453,331.543
1687767978.514,-50.781,-47.852,-36.621,-79.590,45.410
1687767978.518,-61.523,-45.898,-35.156,-79.590,-203.125
1687767978.521,-56.641,-37.109,-34.668,-69.824,-133.301
1687767978.525,-41.016,-44.434,-39.062,-67.383,-126.465
1687767978.529,-36.621,-41.992,-37.598,-58.594,-100.098
1687767978.533,-41.016,-28.320,-30.273,-57.129,-149.414
1687767978.537,-46.875,-38.574,-31.738,-69.336,25.879
1687767978.541,-43.457,-50.781,-33.203,-76.172,81.543
1687767978.545,-33.691,-50.293,-35.645,-76.660,-45.410
1687767978.548,-31.250,-44.922,-37.598,-66.406,-30.762
1687767978.552,-23.926,-40.527,-32.715,-53.223,126.953
1687767978.556,-23.438,-37.109,-35.645,-68.359,42.969
1687767978.560,-24.902,-34.668,-43.457,-90.332,-145.996
1687767978.564,-12.695,-39.551,-44.922,-79.102,-71.289
1687767978.565,-21.484,-31.250,-41.504,-64.941,-134.277
1687767978.569,-30.762,-28.320,-42.480,-62.500,-155.273
1687767978.573,-40.527,-25.391,-43.457,-56.152,-131.836
1687767978.577,-50.781,-27.344,-42.480,-53.711,-107.910
1687767978.581,-38.574,-43.945,-42.969,-52.246,41.016
1687767978.585,-22.461,-50.293,-40.527,-42.969,55.176
1687767978.589,-27.344,-36.133,-44.434,-54.688,10.742
1687767978.592,-48.340,-25.879,-39.551,-63.965,41.504
1687767978.596,-58.105,-25.879,-32.227,-51.270,325.684
1687767978.600,-46.875,-31.250,-34.180,-52.246,228.516
1687767978.604,-35.156,-31.738,-36.621,-55.176,-114.746
1687767978.608,-36.133,-34.668,-34.180,-50.781,-41.992
1687767978.610,-51.270,-38.086,-35.645,-62.500,4.395
1687767978.614,-53.711,-30.762,-39.062,-73.242,-175.781
1687767978.618,-39.062,-28.809,-32.715,-57.617,-187.988
1687767978.622,-32.715,-31.250,-34.668,-44.922,-99.609
1687767978.626,-39.551,-35.645,-35.156,-45.410,-160.156
1687767978.630,-63.477,-35.645,-37.598,-62.012,-231.445
1687767978.634,-58.594,-26.367,-52.246,-69.336,-114.258
1687767978.637,-20.508,-14.160,-59.082,-25.879,212.891
1687767978.641,-24.414,-25.391,-40.039,-12.695,175.293
1687767978.645,-55.664,-48.340,-19.531,-44.922,-176.758
1687767978.649,-66.406,-45.898,-23.438,-50.781,-187.012
1687767978.653,-79.590,-36.621,-28.320,-42.480,-93.262
1687767978.655,-86.426,-47.363,-24.414,-45.410,-146.484
1687767978.659,-74.707,-57.617,-23.926,-48.828,-180.176
1687767978.663,-72.754,-56.152,-25.391,-45.898,-125.488
1687767978.667,-83.496,-59.570,-19.531,-37.598,-92.773
1687767978.671,-94.727,-56.152,-15.625,-52.246,-144.531
1687767978.675,-89.844,-55.664,-19.043,-60.547,-156.250
1687767978.679,-80.566,-62.988,-23.926,-48.828,65.918
1687767978.682,-75.684,-62.500,-21.973,-36.621,241.699
1687767978.686,-81.543,-68.359,-9.277,-42.480,-15.625
1687767978.690,-92.285,-72.754,-10.254,-49.805,-102.539
1687767978.694,-88.867,-70.312,-11.719,-34.180,173.340
1687767978.698,-73.730,-67.383,-1.953,-26.855,164.551
1687767978.700,-73.730,-72.266,-4.395,-40.527,-125.000
1687767978.704,-90.820,-81.543,-14.648,-44.922,-164.062
1687767978.708,-98.633,-78.125,-10.742,-45.410,-150.879
1687767978.712,-95.703,-68.359,3.906,-45.410,-168.945
1687767978.716,-83.984,-68.848,3.906,-29.297,-133.301
1687767978.720,-70.801,-78.125,-0.977,-27.344,-26.855
1687767978.724,-81.543,-78.613,-3.418,-42.969,237.793
1687767978.727,-108.398,-78.125,-2.441,-49.805,103.027
1687767978.731,-111.816,-78.125,4.883,-47.363,-130.371
1687767978.735,-82.520,-73.730,4.395,-32.715,-129.883
1687767978.739,-62.988,-73.242,7.812,-19.043,-103.516
1687767978.743,-66.406,-61.035,15.137,-17.090,-88.867
1687767978.746,-73.730,-62.500,9.277,-32.227,-117.676
1687767978.750,-70.801,-66.406,2.441,-32.227,-86.914
1687767978.754,-49.805,-59.570,6.836,-14.160,-39.551
1687767978.758,-46.387,-65.430,10.742,-26.855,-94.727
1687767978.762,-60.547,-64.453,12.207,-36.133,-130.859
1687767978.766,-68.848,-61.035,4.883,-24.902,-29.785
1687767978.770,-62.988,-62.500,-9.277,-23.926,68.359
1687767978.773,-55.176,-58.594,-14.648,-27.832,-41.016
1687767978.777,-50.781,-56.152,-13.184,-23.926,-147.949
1687767978.781,-49.316,-54.199,-14.648,-23.926,56.641
1687767978.785,-63.477,-50.293,-19.043,-26.367,234.863
1687767978.789,-60.059,-51.758,-12.695,-28.809,-73.730
1687767978.805,-41.016,-54.199,-14.160,-23.438,-175.781
1687767978.809,-25.391,-54.688,-23.438,-5.859,-6.836
1687767978.813,-34.668,-55.664,-20.508,-9.766,-27.344
1687767978.817,-49.805,-55.176,-16.113,-23.926,-127.930
1687767978.821,-49.805,-56.641,-18.066,-25.879,-78.125
1687767978.825,-49.316,-49.805,-12.207,-19.043,184.082
1687767978.829,-34.668,-51.758,-3.906,-12.695,102.051
1687767978.832,-27.832,-57.617,-6.836,-7.812,-129.883
1687767978.836,-42.480,-41.016,-24.902,-9.277,-94.238
1687767978.840,-56.152,-31.738,-25.879,-13.672,48.340
1687767978.844,-45.898,-46.875,-23.926,-16.113,7.812
1687767978.848,-36.133,-56.641,-33.691,-17.090,-92.285
1687767978.850,-45.410,-54.199,-33.203,-21.973,-125.488
1687767978.854,-58.105,-40.527,-24.414,-24.902,-117.676
1687767978.858,-59.082,-37.109,-27.832,-27.344,-162.598
1687767978.862,-46.875,-43.457,-31.738,-29.297,-147.461
1687767978.866,-30.273,-40.039,-27.344,-23.438,37.598
1687767978.870,-32.715,-39.062,-33.203,-18.555,166.992
1687767978.874,-32.715,-42.969,-34.180,-25.391,39.551
1687767978.877,-42.969,-46.875,-26.367,-33.203,-145.996
1687767978.881,-56.641,-51.758,-28.320,-38.574,-12.207
1687767978.885,-47.363,-49.316,-27.832,-17.090,384.766
1687767978.889,-39.551,-43.945,-22.461,-16.602,149.414
1687767978.893,-39.551,-43.457,-20.020,-18.066,-158.691
1687767978.895,-45.410,-42.969,-21.484,-7.812,-119.141
1687767978.899,-35.645,-50.781,-25.879,-20.996,-130.371
1687767978.903,-30.762,-54.199,-30.762,-26.855,-152.832
1687767978.907,-21.973,-42.969,-31.738,-23.438,-156.738
1687767978.911,-19.531,-35.645,-26.855,-18.555,-100.586
1687767978.915,-41.016,-27.832,-21.484,-16.113,-39.551
1687767978.919,-46.875,-18.555,-19.531,-17.090,7.812
1687767978.922,-24.902,-24.902,-16.602,-4.883,-4.395
1687767978.926,-18.066,-41.504,-17.090,-5.371,183.594
1687767978.930,-23.926,-44.434,-31.738,-17.090,204.102
1687767978.934,-21.484,-38.086,-29.297,-19.531,-137.207
1687767978.938,-29.785,-38.574,-19.043,-25.391,-190.918
1687767978.940,-26.367,-37.598,-24.902,-30.273,-105.957
1687767978.944,-14.648,-33.203,-23.926,-25.879,-105.957
1687767978.948,-25.879,-30.273,-20.996,-34.668,-93.262
1687767978.952,-43.945,-28.809,-21.484,-47.852,-53.223
1687767978.956,-47.363,-33.691,-17.090,-53.223,-81.543
1687767978.960,-49.805,-43.945,-30.273,-54.688,-33.691
1687767978.964,-37.598,-45.410,-37.598,-50.781,-15.137
1687767978.967,-32.715,-31.738,-29.297,-44.922,0.000
1687767978.971,-43.945,-28.809,-25.391,-37.109,249.023
1687767978.975,-51.270,-37.598,-25.879,-41.016,20.996
1687767978.979,-38.574,-35.645,-27.832,-35.156,-222.168
1687767978.983,-4.395,-31.250,-27.832,-14.648,-26.367
1687767978.985,-21.484,-37.598,-28.809,-27.344,86.426
1687767978.989,-61.523,-40.527,-26.855,-55.664,-131.836
1687767978.993,-69.824,-46.387,-22.949,-63.477,-211.426
1687767978.997,-53.711,-41.016,-22.949,-59.570,-111.328
1687767979.001,-34.180,-36.133,-29.785,-61.035,-98.633
1687767979.005,-28.809,-43.457,-41.504,-65.918,-98.145
1687767979.009,-36.621,-46.875,-41.992,-60.059,39.062
1687767979.012,-47.363,-41.992,-36.133,-58.594,231.934
1687767979.016,-54.688,-32.715,-41.016,-59.082,78.125
1687767979.020,-41.992,-35.156,-40.527,-47.852,-91.797
1687767979.024,-32.715,-45.410,-35.156,-36.621,-58.594
1687767979.028,-39.551,-47.363,-32.715,-31.738,-49.316
1687767979.030,-48.340,-45.410,-28.320,-35.156,-85.938
1687767979.034,-41.992,-39.062,-30.273,-45.410,-124.512
1687767979.038,-26.855,-34.668,-36.621,-50.293,-94.727
1687767979.042,-16.602,-37.598,-30.273,-39.062,-56.152
1687767979.046,-31.738,-42.480,-26.367,-35.645,-86.426
1687767979.050,-56.641,-41.992,-39.551,-52.734,-47.363
1687767979.054,-54.199,-34.180,-40.527,-48.828,140.137
1687767979.057,-32.715,-31.250,-33.203,-24.414,308.105
1687767979.061,-18.066,-35.156,-30.273,-24.902,1.953
1687767979.065,-35.645,-38.574,-28.320,-38.086,-92.773
1687767979.069,-49.316,-34.180,-29.297,-36.133,6.348
1687767979.073,-41.504,-24.414,-28.809,-34.668,-67.383
1687767979.076,-33.203,-26.855,-29.297,-36.133,-130.371
1687767979.080,-22.949,-33.203,-29.297,-41.992,-160.156
1687767979.084,-27.344,-33.691,-24.414,-31.738,-14.160
1687767979.088,-42.969,-37.598,-25.391,-24.414,47.363
1687767979.092,-40.527,-37.598,-25.391,-37.109,-174.316
1687767979.096,-29.297,-46.387,-24.902,-39.062,-63.965
1687767979.100,-21.484,-37.598,-22.949,-36.621,250.488
1687767979.103,-29.785,-23.926,-18.555,-40.527,83.984
1687767979.107,-48.340,-28.809,-20.508,-46.875,-179.688
1687767979.111,-52.734,-28.320,-23.926,-45.898,-133.789
1687767979.115,-48.828,-34.180,-30.273,-37.598,-95.703
1687767979.119,-41.504,-29.785,-29.297,-33.691,-165.527
1687767979.120,-42.969,-23.926,-17.578,-44.434,-180.176
1687767979.124,-64.941,-29.785,-20.508,-61.035,-189.941
1687767979.128,-71.777,-41.016,-33.203,-62.012,-137.695
1687767979.132,-51.270,-42.480,-31.738,-44.922,-20.508
1687767979.136,-36.133,-39.551,-33.203,-38.086,-122.070
1687767979.140,-37.109,-45.898,-41.504,-41.016,34.180
1687767979.144,-55.176,-48.340,-38.086,-37.109,384.277
1687767979.147,-67.383,-46.875,-27.344,-47.363,83.984
1687767979.151,-57.617,-42.480,-25.391,-50.781,-153.320
1687767979.155,-48.340,-37.109,-32.715,-44.922,-8.789
1687767979.159,-47.852,-34.668,-33.691,-38.086,20.020
1687767979.163,-54.199,-36.621,-34.180,-34.668,-158.691
1687767979.180,-43.945,-32.227,-30.762,-38.574,-249.023
1687767979.184,-31.250,-31.250,-26.855,-33.691,-145.996
1687767979.188,-34.180,-40.039,-32.715,-40.527,-77.148
1687767979.192,-43.457,-47.852,-39.551,-53.223,-152.344
1687767979.196,-52.246,-50.781,-39.551,-57.129,-136.719
1687767979.200,-52.734,-40.039,-29.297,-62.500,-8.301
1687767979.204,-41.016,-31.738,-28.809,-63.965,115.723
1687767979.207,-35.645,-40.039,-32.715,-55.176,73.730
1687767979.211,-41.992,-32.715,-28.809,-48.340,-56.641
1687767979.215,-58.594,-29.297,-24.414,-45.898,205.078
1687767979.219,-66.406,-35.645,-18.555,-55.176,133.301
1687767979.223,-52.246,-32.227,-19.043,-68.848,-113.770
1687767979.225,-45.898,-45.898,-23.438,-60.059,-99.609
1687767979.229,-44.922,-54.688,-27.832,-52.734,-95.215
1687767979.233,-38.086,-47.852,-28.320,-51.758,-88.379
1687767979.237,-51.758,-31.250,-23.438,-56.152,-158.691
1687767979.241,-53.223,-23.926,-15.625,-51.758,-200.684
1687767979.245,-39.062,-34.180,-18.555,-46.387,-7.324
1687767979.249,-37.598,-42.480,-23.926,-42.969,83.984
1687767979.252,-43.945,-31.738,-21.973,-55.664,-39.551
1687767979.256,-45.410,-27.832,-20.996,-62.012,77.637
1687767979.260,-57.129,-39.551,-20.508,-54.199,342.285
1687767979.264,-53.223,-32.715,-22.949,-54.688,25.879
1687767979.268,-45.898,-43.457,-22.949,-62.012,-129.883
1687767979.270,-62.988,-50.781,-23.926,-56.641,99.121
1687767979.274,-72.266,-31.738,-24.902,-50.293,220.703
1687767979.278,-68.848,-27.832,-23.926,-62.012,-70.801
1687767979.282,-61.523,-26.855,-24.414,-65.918,-249.512
1687767979.286,-50.781,-24.902,-35.645,-72.266,-157.227
1687767979.290,-46.387,-26.855,-36.621,-84.473,-15.625
1687767979.294,-62.012,-34.180,-37.109,-84.961,-23.438
1687767979.297,-69.824,-39.551,-41.992,-77.148,-62.012
1687767979.301,-53.223,-36.133,-28.809,-55.664,108.398
1687767979.305,-44.434,-31.250,-26.367,-57.617,51.758
1687767979.309,-55.176,-32.715,-32.227,-70.801,-50.293
1687767979.313,-63.965,-32.227,-27.832,-63.477,-62.988
1687767979.315,-59.082,-30.762,-28.320,-47.852,-51.270
1687767979.319,-28.320,-32.715,-28.320,-45.410,-104.980
1687767979.323,-10.742,-32.227,-26.367,-52.246,-132.324
1687767979.327,-33.203,-35.645,-27.344,-55.664,-94.727
1687767979.331,-57.129,-43.945,-33.203,-61.035,-142.578
1687767979.335,-58.594,-43.945,-26.855,-53.711,-85.449
1687767979.339,-50.293,-35.156,-24.902,-54.688,-39.062
1687767979.342,-46.875,-31.250,-29.785,-59.570,4.883
1687767979.346,-47.363,-32.227,-29.785,-57.617,198.730
1687767979.350,-56.152,-33.691,-34.180,-68.848,85.449
1687767979.354,-56.641,-34.180,-27.832,-74.219,-79.102
1687767979.358,-51.270,-30.273,-25.391,-71.289,62.988
1687767979.361,-43.457,-35.645,-22.949,-62.988,99.609
1687767979.365,-41.992,-47.363,-27.832,-62.988,-95.703
1687767979.369,-49.805,-44.922,-30.762,-61.035,-148.438
1687767979.373,-66.406,-35.645,-27.344,-54.199,-72.266
1687767979.377,-65.430,-24.414,-31.250,-48.828,-125.000
1687767979.381,-46.387,-26.855,-31.250,-43.457,-119.141
1687767979.385,-37.598,-35.156,-21.484,-43.945,-68.848
1687767979.388,-53.711,-38.086,-15.625,-44.922,119.141
1687767979.392,-61.035,-34.668,-15.137,-55.664,50.781
1687767979.396,-53.711,-29.785,-23.926,-60.059,-218.750
1687767979.400,-45.410,-24.414,-26.855,-52.734,-223.145
1687767979.404,-37.109,-25.391,-20.020,-52.246,-162.109
1687767979.405,-44.922,-28.320,-15.625,-51.270,-121.582
1687767979.409,-55.176,-27.344,-21.484,-54.199,-70.801
1687767979.413,-52.246,-27.344,-28.809,-57.617,-20.508
1687767979.417,-37.598,-26.855,-22.949,-53.223,-84.961
1687767979.421,-37.598,-25.879,-19.043,-58.594,-133.789
1687767979.425,-47.852,-27.832,-20.020,-55.664,-23.438
1687767979.429,-61.035,-33.691,-20.508,-48.828,58.594
1687767979.432,-69.336,-33.203,-23.438,-49.316,232.910
1687767979.436,-61.523,-45.898,-32.227,-60.547,35.156
1687767979.440,-43.945,-43.945,-31.250,-48.828,-78.125
1687767979.444,-42.969,-29.297,-31.738,-42.480,64.453
1687767979.448,-56.641,-27.832,-36.133,-56.641,-23.438
1687767979.450,-51.270,-33.691,-31.738,-58.594,-134.277
1687767979.454,-41.016,-35.645,-28.320,-56.641,-42.969
1687767979.458,-31.250,-33.203,-32.715,-47.363,-54.199
1687767979.462,-33.203,-26.367,-32.715,-45.410,-99.121
1687767979.466,-43.457,-25.391,-28.320,-48.340,-163.574
1687767979.470,-51.758,-35.645,-30.273,-47.363,-137.207
1687767979.474,-47.852,-35.645,-28.320,-41.016,170.410
1687767979.477,-25.391,-28.320,-27.344,-30.762,142.578
1687767979.481,-18.555,-25.391,-28.809,-23.926,-95.215
1687767979.485,-41.992,-21.973,-29.297,-29.297,-70.312
1687767979.489,-46.387,-25.391,-32.715,-36.621,65.918
1687767979.493,-31.738,-42.969,-37.109,-42.969,-35.156
1687767979.495,-24.414,-39.551,-26.855,-38.574,-156.738
1687767979.499,-28.809,-29.785,-25.879,-30.762,-160.156
1687767979.503,-41.504,-36.621,-29.297,-42.969,-118.164
1687767979.507,-43.945,-41.016,-26.855,-40.527,-124.512
1687767979.511,-34.180,-35.645,-28.320,-43.457,-148.438
1687767979.515,-22.461,-34.180,-29.297,-46.387,-10.254
1687767979.519,-18.066,-30.273,-30.273,-33.203,119.629
1687767979.522,-29.297,-31.738,-25.879,-28.320,8.301
1687767979.526,-38.574,-30.762,-20.020,-39.062,-154.297
1687767979.530,-32.715,-18.555,-16.113,-40.527,21.973
1687767979.534,-24.414,-22.949,-22.461,-20.020,319.336
1687767979.538,-19.043,-27.832,-22.461,-18.066,-6.348
1687767979.555,-20.508,-31.738,-20.508,-36.133,-171.387
1687767979.559,-29.297,-35.645,-24.902,-40.039,-58.594
1687767979.563,-24.902,-29.297,-23.926,-34.180,-88.867
1687767979.567,-19.531,-37.109,-26.855,-34.668,-115.234
1687767979.571,-26.367,-37.109,-27.832,-31.250,-105.957
1687767979.575,-33.203,-26.367,-25.391,-29.297,41.016
1687767979.579,-44.434,-22.461,-24.902,-46.875,99.121
1687767979.582,-53.223,-29.785,-24.902,-46.387,-25.391
1687767979.586,-49.316,-37.109,-26.367,-31.738,-42.480
1687767979.590,-38.086,-35.156,-26.855,-28.320,173.828
1687767979.594,-46.387,-42.969,-30.273,-38.086,116.211
1687767979.598,-67.871,-48.340,-25.879,-49.805,-139.160
1687767979.600,-57.617,-40.039,-23.926,-45.898,-105.957
1687767979.604,-34.180,-35.156,-26.855,-39.062,3.418
1687767979.608,-24.902,-33.691,-25.879,-37.109,-70.312
1687767979.612,-25.391,-34.668,-19.531,-30.273,-87.891
1687767979.616,-47.852,-34.180,-25.879,-39.062,-92.773
1687767979.620,-54.199,-22.949,-26.855,-46.875,-30.762
1687767979.624,-41.504,-28.809,-26.855,-39.062,56.641
1687767979.627,-31.738,-42.480,-34.180,-42.480,-74.219
1687767979.631,-30.762,-34.180,-30.762,-37.109,23.926
1687767979.635,-45.410,-26.855,-33.203,-17.090,378.418
1687767979.639,-49.316,-39.062,-34.668,-36.621,105.469
1687767979.643,-39.062,-42.969,-27.344,-50.293,-169.434
1687767979.645,-32.227,-36.133,-30.762,-40.039,-1.465
1687767979.649,-37.598,-34.180,-35.156,-33.691,-47.852
1687767979.653,-44.434,-40.039,-26.367,-25.391,-177.246
1687767979.657,-29.297,-33.691,-33.203,-15.625,-182.617
1687767979.661,-16.113,-28.320,-41.992,-25.391,-59.082
1687767979.665,-7.812,-14.648,-37.598,-33.691,38.086
1687767979.669,-23.438,-7.812,-35.645,-32.715,-28.320
1687767979.672,-37.109,-12.695,-35.645,-39.062,-81.055
1687767979.676,-37.598,-11.719,-39.062,-38.086,108.887
1687767979.680,-39.062,-7.812,-45.898,-37.598,45.898
1687767979.684,-27.344,-7.812,-46.387,-38.086,-111.816
1687767979.688,-40.039,-19.043,-54.688,-51.270,-100.098
1687767979.691,-56.641,-28.809,-61.035,-56.641,-88.867
1687767979.695,-47.852,-26.855,-62.500,-53.223,-132.324
1687767979.699,-42.480,-19.043,-65.918,-62.500,-98.633
1687767979.703,-45.898,-14.648,-67.871,-68.848,-22.461
1687767979.707,-32.715,-14.160,-61.523,-63.965,29.297
1687767979.711,-36.621,-15.625,-55.176,-53.711,6.348
1687767979.715,-53.711,-19.043,-59.082,-67.383,-35.645
1687767979.718,-40.039,-16.602,-60.059,-68.848,46.875
1687767979.722,-30.762,-18.066,-60.547,-49.316,166.016
1687767979.726,-28.320,-16.113,-64.453,-49.316,35.645
1687767979.730,-33.203,-11.230,-68.359,-61.523,-92.285
1687767979.734,-44.434,-12.695,-69.336,-74.707,-0.977
1687767979.735,-45.898,-6.348,-69.824,-70.801,-55.176
1687767979.739,-39.551,-13.184,-69.824,-59.082,-213.867
1687767979.743,-32.715,-23.926,-69.824,-58.594,-193.359
1687767979.747,-36.133,-18.555,-68.359,-58.105,-74.707
1687767979.751,-36.621,-13.184,-67.871,-61.035,-113.770
1687767979.755,-26.855,-18.555,-66.895,-62.988,-89.844
1687767979.759,-15.625,-16.602,-64.453,-61.523,23.438
1687767979.762,-18.066,-4.883,-66.895,-56.152,209.961
1687767979.766,-25.879,-2.930,-65.918,-47.852,212.891
1687767979.770,-31.738,-5.859,-65.430,-65.918,-97.168
1687767979.774,-26.367,-12.695,-60.547,-61.523,-142.578
1687767979.778,-12.207,-14.648,-54.199,-49.316,-84.473
1687767979.780,-7.324,-22.461,-57.617,-53.711,-92.773
1687767979.784,-2.441,-26.855,-56.152,-51.270,-133.301
1687767979.788,-18.066,-14.648,-52.246,-50.293,-145.508
1687767979.792,-34.668,-6.348,-55.176,-59.082,-122.070
1687767979.796,-18.555,-3.906,-54.688,-55.176,-158.203
1687767979.800,-4.883,-14.160,-51.270,-47.363,-104.980
1687767979.804,-5.371,-21.484,-48.340,-48.828,83.984
1687767979.807,-28.809,-12.695,-41.504,-48.340,207.520
1687767979.811,-41.992,-11.230,-43.945,-53.223,-62.012
1687767979.815,-13.672,-13.184,-42.969,-46.875,-142.090
1687767979.819,0.488,-18.066,-39.062,-37.598,41.504
1687767979.823,-7.812,-15.137,-40.527,-28.320,148.926
1687767979.825,-29.785,-23.926,-41.992,-36.133,-62.012
1687767979.829,-37.598,-21.973,-43.457,-49.805,-139.648
1687767979.833,-23.438,-7.812,-41.016,-41.992,-39.062
1687767979.837,-15.625,-15.625,-41.016,-34.668,-117.676
1687767979.841,-14.160,-18.555,-38.086,-32.715,-146.484
1687767979.845,-22.461,-14.648,-36.133,-34.180,-25.879
1687767979.849,-34.180,-11.230,-36.133,-26.855,241.211
1687767979.852,-33.203,-13.672,-39.062,-31.738,97.168
1687767979.856,-14.160,-17.090,-41.016,-34.180,-178.223
1687767979.860,-12.695,-13.184,-41.992,-30.762,-60.059
1687767979.864,-35.156,-13.184,-41.992,-37.598,73.730
1687767979.868,-42.969,-14.160,-42.969,-52.734,-132.324
1687767979.870,-43.457,-21.484,-43.457,-53.711,-169.434
1687767979.874,-44.922,-24.902,-41.504,-36.133,-29.297
1687767979.878,-35.645,-27.832,-38.086,-27.344,-96.680
1687767979.882,-32.715,-25.391,-34.180,-26.855,-185.547
1687767979.886,-48.340,-19.531,-33.691,-33.691,-171.387
1687767979.890,-31.738,-16.113,-31.738,-22.949,-30.273
1687767979.894,-5.371,-16.113,-30.273,-20.020,131.348
1687767979.897,-9.766,-18.555,-32.227,-36.621,-29.785
1687767979.901,-38.574,-14.160,-34.180,-38.574,-177.734
1687767979.905,-73.730,-15.625,-37.598,-39.062,37.109
1687767979.909,-76.660,-23.438,-41.504,-37.598,152.832
1687767979.913,-51.758,-27.344,-38.086,-37.109,-71.777
1687767979.931,-40.039,-33.691,-39.062,-41.504,-32.227
1687767979.935,-55.176,-35.645,-40.039,-41.992,105.957
1687767979.939,-69.336,-30.273,-34.668,-40.039,43.457
1687767979.943,-65.918,-25.391,-34.180,-43.457,-148.926
1687767979.947,-42.969,-22.949,-37.109,-41.504,-157.715
1687767979.951,-37.598,-28.809,-34.668,-37.598,0.488
1687767979.955,-46.387,-35.156,-36.621,-45.410,20.508
1687767979.958,-65.918,-38.574,-43.457,-58.594,-120.605
1687767979.962,-72.754,-36.133,-42.969,-54.199,-101.562
1687767979.966,-57.129,-27.832,-43.457,-31.738,160.156
1687767979.970,-45.410,-28.809,-39.062,-31.738,3.906
1687767979.974,-50.293,-34.668,-34.180,-45.898,-179.688
1687767979.976,-49.805,-46.387,-29.297,-41.504,-160.645
1687767979.980,-55.664,-45.410,-25.391,-37.109,-178.223
1687767979.984,-59.082,-30.273,-33.691,-34.668,-130.371
1687767979.988,-42.480,-24.902,-40.527,-26.367,-120.605
1687767979.992,-33.203,-31.738,-34.180,-28.320,-94.238
1687767979.996,-48.828,-36.621,-27.344,-24.414,8.301
1687767980.000,-54.199,-39.062,-32.715,-25.879,-19.043
1687767980.003,-44.922,-34.668,-41.992,-37.598,-168.457
1687767980.007,-37.109,-29.785,-46.387,-29.297,22.949
1687767980.011,-40.527,-39.551,-43.457,-3.418,379.883
1687767980.015,-47.363,-37.598,-36.133,-20.020,79.102
1687767980.019,-61.523,-31.250,-35.645,-41.992,-192.383
1687767980.021,-63.965,-30.273,-36.133,-33.203,-88.867
1687767980.025,-49.316,-30.762,-38.574,-20.996,-136.719
1687767980.029,-53.223,-35.156,-42.969,-30.762,-229.492
1687767980.033,-55.176,-33.203,-41.016,-39.551,-162.598
1687767980.037,-51.270,-29.785,-37.598,-37.109,-8.789
1687767980.041,-50.293,-28.809,-34.180,-28.809,33.203
1687767980.045,-46.387,-32.227,-36.621,-27.344,-55.664
1687767980.048,-44.434,-40.527,-41.504,-33.691,-106.445
1687767980.052,-55.664,-37.598,-40.039,-32.715,133.301
1687767980.056,-70.312,-29.297,-39.062,-41.504,91.309
1687767980.060,-62.012,-24.902,-37.598,-49.316,-166.016
1687767980.064,-46.875,-18.555,-33.691,-43.457,-111.328
1687767980.066,-43.457,-21.973,-32.715,-36.133,-90.820
1687767980.070,-55.664,-22.461,-32.227,-44.434,-73.242
1687767980.074,-72.266,-24.902,-39.551,-62.988,-92.285
1687767980.078,-43.457,-23.926,-49.805,-33.203,-137.695
1687767980.082,-6.836,-12.207,-56.152,-10.254,-145.996
1687767980.086,-15.137,-16.602,-46.875,-22.949,-51.270
1687767980.090,-42.969,-48.828,-23.438,-28.320,-11.230
1687767980.093,-56.641,-56.641,-24.902,-32.227,38.086
1687767980.097,-59.570,-48.340,-31.738,-25.879,353.027
1687767980.101,-60.547,-49.805,-26.855,-27.832,255.371
1687767980.105,-51.758,-49.805,-25.879,-33.691,-129.395
1687767980.109,-50.781,-46.875,-26.855,-34.668,-92.285
1687767980.111,-70.801,-49.805,-25.391,-49.316,-36.621
1687767980.115,-67.871,-56.641,-23.438,-50.293,-144.043
1687767980.119,-59.082,-65.430,-23.438,-46.875,-125.488
1687767980.123,-56.152,-70.801,-17.090,-42.969,-39.062
1687767980.127,-61.035,-69.336,-13.672,-37.109,-117.188
1687767980.131,-73.730,-66.406,-13.184,-41.016,-61.035
1687767980.135,-74.219,-72.754,-8.301,-40.527,40.039
1687767980.138,-71.289,-73.730,-7.812,-33.691,171.875
1687767980.142,-54.688,-62.012,-7.812,-27.832,112.305
1687767980.146,-57.617,-62.500,-6.348,-39.551,-22.949
1687767980.150,-74.219,-68.359,-7.324,-45.898,-111.328
1687767980.154,-74.219,-68.848,-7.812,-48.340,-70.801
1687767980.156,-72.754,-75.684,-12.207,-58.105,-94.238
1687767980.160,-61.035,-71.777,-13.184,-58.594,-123.047
1687767980.164,-48.828,-65.430,-2.441,-46.387,-60.547
1687767980.168,-61.035,-66.895,0.488,-48.340,-84.961
1687767980.172,-66.895,-65.430,2.930,-53.711,-104.980
1687767980.176,-69.824,-66.895,1.953,-45.898,-118.652
1687767980.180,-71.289,-65.918,-6.348,-26.367,51.758
1687767980.183,-71.289,-76.660,0.000,-13.672,235.840
1687767980.187,-85.938,-67.871,8.789,-23.438,-8.301
1687767980.191,-81.055,-59.570,10.254,-29.297,-47.363
1687767980.195,-63.965,-62.500,8.789,-28.320,11.230
1687767980.199,-59.082,-66.895,8.301,-27.832,46.387
1687767980.201,-64.941,-73.242,5.371,-33.691,-140.625
1687767980.205,-81.055,-65.430,4.395,-31.250,-229.004
1687767980.209,-89.355,-62.500,3.906,-26.367,-72.754
1687767980.213,-79.102,-60.059,3.418,-20.996,-44.922
1687767980.217,-59.570,-58.105,-0.488,-18.555,-156.250
1687767980.221,-46.387,-56.152,-3.418,-14.648,-60.059
1687767980.225,-45.898,-61.523,-2.441,-14.648,271.484
1687767980.228,-53.223,-67.383,-3.418,-27.344,96.191
1687767980.232,-52.734,-60.059,-8.789,-32.715,-219.238
1687767980.236,-47.852,-52.246,-17.578,-26.367,-74.707
1687767980.240,-41.504,-44.922,-17.090,-26.367,-17.090
1687767980.244,-49.805,-43.945,-12.207,-31.738,-173.828
1687767980.247,-62.500,-45.410,-15.625,-30.762,-204.590
1687767980.251,-57.129,-43.945,-15.625,-30.273,-123.535
1687767980.255,-40.039,-44.434,-14.160,-29.785,-32.715
1687767980.259,-38.574,-46.875,-16.113,-24.902,-157.715
1687767980.263,-50.781,-56.152,-19.531,-25.391,-154.297
1687767980.267,-63.965,-54.688,-17.090,-30.762,107.910
1687767980.271,-62.988,-51.758,-13.184,-22.949,181.152
1687767980.274,-48.828,-55.176,-17.578,-19.043,-39.551
1687767980.278,-48.828,-48.340,-16.602,-21.484,-145.508
1687767980.282,-63.965,-41.992,-19.531,-22.949,96.191
1687767980.286,-73.730,-40.039,-25.391,-30.273,162.109
1687767980.290,-57.129,-38.086,-26.367,-30.273,-179.688
1687767980.305,-34.180,-35.645,-33.203,-23.438,-200.684
1687767980.309,-36.133,-34.668,-36.621,-31.250,-50.781
1687767980.313,-44.434,-46.387,-28.809,-33.203,-102.051
1687767980.317,-42.480,-53.223,-17.578,-24.902,-170.410
1687767980.321,-40.527,-36.621,-17.090,-26.855,-142.578
1687767980.325,-34.668,-29.297,-27.344,-21.484,170.410
1687767980.329,-30.762,-35.156,-26.855,-15.137,195.801
1687767980.332,-32.227,-30.273,-23.926,-24.414,-143.066
1687767980.336,-44.922,-27.832,-25.391,-39.062,-137.207
1687767980.340,-46.875,-29.297,-20.508,-38.086,3.418
1687767980.344,-39.062,-29.785,-22.461,-35.156,-98.145
1687767980.348,-24.414,-24.414,-25.391,-27.832,-143.555
1687767980.350,-21.973,-29.297,-20.020,-25.391,-96.680
1687767980.354,-40.039,-43.457,-19.531,-31.738,-107.910
1687767980.358,-41.504,-39.551,-19.531,-25.879,-152.344
1687767980.362,-22.461,-27.832,-19.043,-14.160,-145.996
1687767980.366,-18.555,-31.738,-23.926,-15.137,-34.180
1687767980.370,-16.113,-36.133,-27.832,-17.578,-1.465
1687767980.374,-21.973,-32.227,-28.809,-22.949,0.488
1687767980.377,-41.016,-33.691,-27.832,-29.297,-0.488
1687767980.381,-32.715,-38.086,-23.438,-17.090,80.078
1687767980.385,-29.785,-39.551,-27.832,-11.230,405.762
1687767980.389,-38.086,-30.762,-33.203,-19.531,265.137
1687767980.393,-44.434,-35.156,-30.273,-28.320,-66.406
1687767980.410,-49.805,-36.133,-27.344,-31.250,-42.480
1687767980.414,-40.527,-28.809,-21.973,-29.297,-78.613
1687767980.418,-27.344,-24.902,-15.625,-26.367,-117.188
1687767980.422,-19.043,-31.738,-20.508,-22.949,-79.590
1687767980.426,-32.715,-48.340,-31.738,-34.180,-34.180
1687767980.430,-44.434,-46.387,-34.180,-37.598,-34.180
1687767980.434,-39.551,-40.527,-33.203,-26.855,-86.426
1687767980.437,-23.438,-37.109,-36.133,-23.438,-137.695
1687767980.441,-5.371,-20.996,-31.738,-13.184,164.551
1687767980.445,-12.695,-14.648,-20.508,-11.719,205.566
1687767980.449,-32.227,-26.367,-20.020,-23.438,-142.090
1687767980.453,-31.738,-29.785,-30.273,-20.508,-138.184
1687767980.440,-11.230,-31.250,-37.598,-20.020,-44.434
1687767980.444,-6.348,-31.738,-36.133,-22.461,-125.000
1687767980.448,-23.926,-33.203,-33.691,-23.926,-175.293
1687767980.452,-43.457,-30.762,-36.133,-37.598,-85.449
1687767980.456,-45.898,-29.297,-39.062,-43.457,-51.758
1687767980.460,-34.180,-37.598,-43.457,-38.086,-95.703
1687767980.464,-21.484,-32.227,-49.805,-34.668,-33.691
1687767980.467,-28.809,-23.926,-37.109,-33.691,82.031
1687767980.471,-43.457,-28.809,-29.785,-40.039,21.484
1687767980.475,-45.410,-31.738,-40.527,-46.875,-126.465
1687767980.479,-39.062,-36.621,-41.016,-54.688,-123.535
1687767980.483,-22.461,-41.016,-36.133,-43.457,83.008
1687767980.485,-21.973,-29.297,-30.273,-22.949,296.875
1687767980.489,-23.926,-23.926,-26.855,-17.578,112.793
1687767980.493,-23.438,-26.855,-30.273,-25.879,-165.039
1687767980.497,-44.434,-35.645,-20.508,-48.340,-159.180
1687767980.501,-45.898,-39.551,-14.648,-62.988,-95.215
1687767980.505,-47.852,-40.039,-22.949,-64.941,-83.008
1687767980.509,-60.059,-39.551,-26.855,-69.336,-76.172
1687767980.512,-60.547,-34.180,-26.855,-59.082,146.973
1687767980.516,-44.922,-27.344,-21.973,-40.527,68.359
1687767980.520,-40.039,-31.738,-22.461,-45.898,-123.047
1687767980.524,-48.340,-48.340,-31.250,-58.594,-50.293
1687767980.528,-51.758,-38.086,-32.227,-55.664,-103.516
1687767980.531,-58.594,-30.762,-28.809,-55.176,-177.734
1687767980.535,-58.105,-35.645,-24.414,-52.246,-90.332
1687767980.539,-39.551,-29.785,-24.902,-40.039,-47.363
1687767980.543,-36.133,-31.738,-33.691,-43.945,14.648
1687767980.547,-57.129,-36.133,-34.180,-53.711,-98.145
1687767980.551,-62.500,-37.598,-30.273,-51.270,-170.410
1687767980.555,-56.152,-44.434,-32.715,-47.363,12.695
1687767980.558,-42.969,-41.992,-32.227,-42.969,201.172
1687767980.562,-39.062,-38.086,-33.691,-39.551,15.625
1687767980.566,-60.059,-48.340,-35.645,-43.945,-123.047
1687767980.570,-60.547,-47.852,-28.809,-48.828,-23.926
1687767980.574,-47.363,-43.457,-23.438,-37.598,26.855
1687767980.575,-39.062,-39.551,-29.297,-31.250,-119.141
1687767980.579,-26.855,-25.879,-31.250,-27.344,-135.742
1687767980.583,-41.504,-23.438,-22.461,-21.484,-35.645
1687767980.587,-58.105,-32.227,-28.809,-35.645,-39.551
1687767980.591,-53.711,-33.203,-34.668,-39.551,-144.043
1687767980.595,-36.621,-41.992,-25.879,-26.367,-122.559
1687767980.599,-29.297,-49.316,-27.344,-17.090,275.879
1687767980.602,-35.645,-42.480,-30.762,-22.461,287.598
1687767980.606,-37.598,-40.527,-27.344,-33.691,-153.809
1687767980.610,-38.574,-38.574,-26.855,-29.785,-172.363
1687767980.614,-31.738,-28.320,-26.855,-29.297,-98.633
1687767980.618,-21.484,-35.645,-27.344,-25.391,-117.676
1687767980.620,-27.344,-35.645,-26.855,-25.879,-119.629
1687767980.624,-46.387,-24.902,-25.391,-33.691,-151.855
1687767980.628,-47.852,-30.762,-25.391,-36.621,-160.156
1687767980.632,-35.645,-32.227,-26.367,-29.785,-137.207
1687767980.636,-19.531,-32.715,-27.832,-26.367,-140.625
1687767980.640,-18.066,-41.992,-29.297,-25.879,-63.477
1687767980.644,-42.480,-40.039,-33.203,-25.879,68.848
1687767980.647,-51.758,-35.645,-33.203,-42.969,96.680
1687767980.651,-41.992,-35.645,-20.020,-54.688,60.547
1687767980.655,-28.809,-28.320,-13.184,-40.039,145.020
1687767980.659,-33.203,-30.762,-22.461,-29.785,387.695
1687767980.663,-60.059,-30.273,-27.344,-48.828,83.984
1687767980.695,-62.012,-19.043,-21.484,-52.246,-188.965
1687767980.699,-47.852,-15.625,-19.043,-44.434,-77.637
1687767980.703,-38.086,-15.137,-19.531,-48.340,-19.531
1687767980.707,-35.645,-15.137,-20.508,-49.805,-67.871
1687767980.711,-50.293,-28.809,-30.273,-54.199,-169.434
1687767980.715,-52.734,-22.949,-34.180,-53.711,-57.129
1687767980.719,-48.828,-18.555,-26.855,-53.223,-40.527
1687767980.722,-41.504,-31.250,-31.738,-57.617,-87.891
1687767980.726,-41.504,-34.180,-33.691,-53.223,-10.742
1687767980.730,-46.387,-36.621,-33.691,-40.039,191.406
1687767980.734,-56.152,-33.691,-36.133,-46.875,121.094
1687767980.738,-45.898,-26.367,-27.344,-51.758,-131.836
1687767980.725,-25.879,-26.855,-16.602,-42.969,-114.746
1687767980.729,-24.414,-32.227,-21.973,-42.480,-71.289
1687767980.733,-39.551,-38.086,-33.691,-50.781,-132.812
1687767980.737,-46.387,-36.621,-32.715,-53.711,-149.414
1687767980.741,-34.668,-31.250,-27.832,-46.387,-108.398
1687767980.745,-20.996,-31.250,-28.809,-42.969,-62.012
1687767980.749,-16.602,-31.738,-29.297,-43.457,-16.602
1687767980.752,-33.203,-33.691,-23.926,-47.852,-38.086
1687767980.756,-38.574,-27.832,-25.391,-49.316,-6.836
1687767980.760,-35.156,-18.066,-28.320,-41.016,95.703
1687767980.764,-32.227,-23.438,-18.066,-35.645,32.715
1687767980.768,-27.344,-31.250,-23.438,-43.945,-97.656
1687767980.770,-31.738,-26.855,-28.320,-44.434,63.477
1687767980.774,-45.410,-25.391,-28.809,-34.668,409.668
1687767980.778,-46.387,-26.367,-27.832,-44.434,212.402
1687767980.782,-37.598,-33.691,-24.902,-52.734,-11.719
1687767980.786,-32.227,-36.133,-26.367,-49.805,17.578
1687767980.790,-36.621,-29.785,-28.320,-45.410,-66.895
1687767980.794,-49.316,-27.344,-31.250,-47.852,-152.344
1687767980.797,-52.246,-27.344,-26.367,-53.711,-195.801
1687767980.801,-38.574,-33.691,-26.367,-36.621,-18.555
1687767980.805,-25.391,-36.621,-29.785,-37.598,-39.551
1687767980.809,-33.691,-36.621,-27.344,-56.152,-148.438
1687767980.813,-50.293,-41.016,-30.273,-54.688,-140.625
1687767980.816,-55.664,-43.457,-34.668,-59.082,-90.332
1687767980.820,-41.992,-44.922,-32.227,-51.270,-58.105
1687767980.824,-27.832,-43.945,-29.297,-41.016,-141.113
1687767980.828,-46.875,-44.434,-38.086,-51.270,-114.746
1687767980.832,-64.941,-41.992,-42.969,-56.641,-27.344
1687767980.836,-59.082,-36.621,-33.691,-50.293,-56.641
1687767980.840,-43.945,-32.227,-29.297,-42.969,-108.887
1687767980.843,-31.250,-28.320,-28.320,-30.273,-15.625
1687767980.847,-25.391,-23.926,-20.508,-24.902,218.750
1687767980.851,-46.387,-37.598,-20.996,-46.875,19.043
1687767980.855,-60.547,-39.062,-28.809,-49.316,-208.008
1687767980.859,-42.480,-29.785,-31.738,-39.062,11.719
1687767980.860,-33.203,-28.320,-31.738,-42.480,48.828
1687767980.864,-40.527,-32.715,-27.344,-42.969,-136.230
1687767980.868,-60.059,-36.621,-28.809,-42.480,-148.438
1687767980.872,-60.059,-30.273,-27.344,-40.039,-11.719
1687767980.876,-51.758,-26.855,-20.996,-37.109,-47.852
1687767980.880,-43.457,-33.691,-21.973,-41.016,-70.801
1687767980.884,-41.016,-48.340,-28.320,-38.574,6.836
1687767980.887,-53.223,-54.199,-26.855,-26.367,149.414
1687767980.891,-62.500,-50.781,-24.902,-40.039,107.422
1687767980.895,-54.688,-48.340,-31.250,-49.316,-162.598
1687767980.899,-39.062,-38.086,-34.180,-33.691,-174.805
1687767980.903,-38.574,-29.785,-35.645,-38.574,-137.695
1687767980.905,-56.641,-25.879,-34.668,-41.016,-141.602
1687767980.909,-65.430,-23.926,-30.273,-33.691,-152.832
1687767980.913,-53.711,-23.926,-26.855,-32.715,-145.020
1687767980.917,-45.898,-28.809,-30.762,-34.668,-95.703
1687767980.921,-43.945,-36.621,-31.250,-41.504,-18.066
1687767980.925,-48.828,-42.480,-26.855,-48.340,51.270
1687767980.929,-56.641,-42.969,-26.855,-52.246,172.363
1687767980.932,-55.176,-41.016,-20.020,-37.109,355.469
1687767980.936,-46.875,-32.715,-19.043,-44.922,121.094
1687767980.940,-51.270,-30.273,-25.879,-61.523,-41.992
1687767980.944,-54.688,-27.832,-21.484,-51.270,45.410
1687767980.948,-53.223,-18.066,-18.555,-49.805,23.926
1687767980.950,-48.340,-15.137,-23.438,-57.617,-110.352
1687767980.954,-31.738,-16.113,-20.996,-45.898,-120.605
1687767980.958,-26.367,-26.855,-19.531,-42.480,-120.117
1687767980.962,-28.809,-32.227,-19.043,-47.363,-172.852
1687767980.966,-26.855,-27.344,-20.508,-50.293,-194.336
1687767980.970,-32.227,-32.227,-23.926,-54.199,-73.730
1687767980.974,-24.414,-31.738,-18.555,-50.293,285.645
1687767980.977,-14.160,-28.809,-20.508,-39.062,224.121
1687767980.981,-29.297,-30.762,-26.855,-55.176,-98.633
1687767980.985,-34.180,-39.062,-21.484,-52.246,-109.375
1687767980.989,-13.672,-29.785,-23.438,-22.949,-5.859
1687767980.993,-15.137,-12.207,-28.809,-35.156,-136.719
1687767980.995,-31.738,-16.113,-30.273,-43.457,-184.082
1687767980.999,-38.086,-24.414,-33.203,-38.574,-101.074
1687767981.003,-44.434,-22.949,-38.086,-46.387,-36.133
1687767981.007,-46.875,-24.902,-42.969,-57.617,-71.777
1687767981.011,-36.621,-28.809,-46.875,-54.688,-151.367
1687767981.015,-39.551,-30.762,-47.852,-52.734,31.738
1687767981.019,-41.016,-26.367,-46.387,-52.246,205.078
1687767981.022,-47.852,-29.785,-49.316,-57.129,-39.551
1687767981.026,-57.129,-25.879,-58.105,-61.523,-158.691
1687767981.030,-43.457,-18.066,-58.594,-57.617,98.633
1687767981.034,-34.668,-20.020,-59.570,-49.805,399.902
1687767981.038,-29.297,-18.555,-75.195,-54.199,115.234
1687767981.055,-33.203,-23.926,-76.660,-64.941,-167.480
1687767981.059,-39.062,-20.508,-64.941,-71.777,-130.371
1687767981.063,-37.109,-19.531,-65.430,-74.219,-111.328
1687767981.067,-22.461,-20.020,-65.918,-67.383,-138.184
1687767981.071,-12.207,-10.742,-68.359,-66.895,-117.676
1687767981.075,-27.832,-8.789,-72.754,-74.707,21.484
1687767981.079,-46.387,-14.648,-73.730,-73.730,-43.945
1687767981.082,-32.227,-14.160,-73.242,-67.871,-147.949
1687767981.086,-8.789,-2.441,-72.754,-58.105,-86.426
1687767981.090,-6.348,-5.859,-72.754,-47.852,123.047
1687767981.094,-30.273,-17.090,-72.754,-65.918,-0.488
1687767981.098,-42.480,-5.371,-65.918,-76.172,-190.430
1687767981.100,-29.785,-5.371,-58.105,-62.500,-56.152
1687767981.104,-16.113,-19.043,-62.988,-57.129,24.414
1687767981.108,-13.184,-16.113,-65.918,-61.523,-54.199
1687767981.112,-22.949,-18.555,-61.035,-62.012,-72.266
1687767981.116,-34.668,-22.461,-60.547,-63.965,-82.031
1687767981.120,-38.086,-21.973,-51.270,-68.359,-39.062
1687767981.124,-17.090,-28.809,-47.852,-60.547,44.922
1687767981.127,-13.184,-28.320,-54.688,-63.477,-158.203
1687767981.131,-30.273,-6.836,-56.641,-70.801,-55.664
1687767981.135,-45.898,3.418,-57.129,-69.336,448.730
1687767981.139,-39.551,-13.184,-60.059,-64.453,98.633
1687767981.143,-24.902,-9.277,-59.082,-63.477,-227.539
1687767981.147,-19.043,0.000,-50.781,-64.453,-41.016
1687767981.151,-23.438,-9.277,-44.434,-56.152,-81.543
1687767981.155,-34.180,-18.555,-48.340,-55.176,-108.887
1687767981.159,-45.410,-20.020,-51.758,-64.941,-113.281
1687767981.163,-28.809,-14.160,-46.875,-51.270,-4.883
1687767981.167,-18.066,-5.859,-42.480,-43.945,36.621
1687767981.171,-16.113,-8.789,-39.551,-46.875,-22.949
1687767981.174,-21.484,-16.602,-44.922,-56.641,-96.191
1687767981.178,-37.598,-20.508,-50.293,-53.223,101.562
1687767981.182,-22.949,-15.625,-36.621,-32.227,101.074
1687767981.186,-5.371,-13.672,-29.297,-34.180,-120.605
1687767981.190,-3.418,-20.996,-30.273,-39.062,-86.914
1687767981.190,-24.414,-21.484,-32.227,-43.457,-123.047
1687767981.194,-40.039,-16.113,-27.344,-50.293,-177.734
1687767981.198,-25.391,-14.648,-23.438,-46.875,-156.738
1687767981.202,-22.949,-14.160,-32.715,-40.527,-106.445
1687767981.206,-27.832,-20.020,-39.551,-46.875,-47.852
1687767981.210,-28.320,-20.508,-31.250,-56.641,-64.941
1687767981.214,-38.086,-21.973,-30.762,-60.547,-79.590
1687767981.217,-26.367,-24.902,-33.203,-54.688,32.715
1687767981.221,-4.883,-16.602,-28.809,-35.156,240.723
1687767981.225,-10.254,-20.020,-31.738,-35.156,168.945
1687767981.229,-29.785,-29.785,-40.039,-49.316,-136.719
1687767981.233,-43.457,-22.949,-45.410,-63.477,-94.727
1687767981.235,-43.457,-22.949,-44.434,-65.430,-69.824
1687767981.239,-28.320,-25.879,-38.086,-55.664,-184.570
1687767981.243,-20.508,-14.160,-35.645,-47.363,-50.293
1687767981.247,-22.949,-18.066,-37.109,-50.781,34.180
1687767981.251,-32.715,-30.273,-33.691,-54.688,-91.309
1687767981.255,-33.203,-27.832,-33.691,-45.898,-62.012
1687767981.259,-14.160,-18.555,-36.621,-46.387,9.277
1687767981.262,-7.324,-32.227,-34.668,-51.758,191.895
1687767981.266,-17.090,-47.363,-36.133,-46.875,210.449
1687767981.270,-13.184,-35.645,-35.645,-47.363,-125.000
1687767981.274,-17.578,-23.926,-36.621,-50.293,-193.359
1687767981.278,-22.949,-28.320,-40.527,-56.641,-122.559
1687767981.280,-15.137,-30.273,-35.645,-54.199,-132.324
1687767981.284,-17.090,-25.391,-30.762,-41.016,-170.898
1687767981.288,-42.480,-32.715,-34.668,-54.688,-127.930
1687767981.292,-33.203,-30.273,-40.039,-62.012,-80.078
1687767981.296,-14.648,-12.207,-36.621,-53.711,-152.832
1687767981.300,-26.855,-21.973,-34.668,-50.781,-136.230
1687767981.304,-32.715,-36.133,-39.551,-39.551,101.074
1687767981.307,-41.504,-33.691,-42.480,-49.805,278.809
1687767981.311,-41.992,-24.902,-39.062,-77.148,41.016
1687767981.315,-15.137,-21.484,-30.762,-71.777,-118.164
1687767981.319,-16.602,-18.066,-35.156,-48.828,97.168
1687767981.323,-22.949,-17.578,-35.645,-43.457,207.520
1687767981.325,-20.996,-19.531,-30.762,-66.406,-87.891
1687767981.329,-36.133,-23.926,-32.715,-53.711,-195.312
1687767981.333,-41.016,-30.762,-35.645,-51.270,-138.184
1687767981.337,-31.738,-33.691,-39.062,-58.105,-173.828
1687767981.341,-20.020,-24.902,-35.645,-59.082,-212.402
1687767981.345,-14.160,-27.344,-27.344,-57.129,-57.129
1687767981.349,-36.133,-39.062,-28.320,-58.594,229.004
1687767981.352,-41.016,-29.785,-33.691,-59.082,104.004
1687767981.356,-23.926,-21.484,-32.227,-59.570,-137.207
1687767981.360,-23.438,-33.203,-33.203,-57.617,-109.375
1687767981.364,-38.574,-36.133,-38.086,-60.059,-97.168
1687767981.368,-41.992,-24.902,-34.668,-62.012,-115.234
1687767981.371,-26.367,-24.902,-30.273,-55.176,-72.754
1687767981.375,-12.695,-36.621,-37.598,-60.547,-44.922
1687767981.379,-18.555,-43.945,-41.504,-54.688,37.598
1687767981.383,-34.180,-34.180,-33.203,-53.711,-23.438
1687767981.387,-44.434,-31.250,-36.133,-69.336,-157.227
1687767981.391,-40.039,-32.227,-45.410,-72.266,26.367
1687767981.395,-20.996,-26.367,-36.621,-52.246,217.285
1687767981.398,-18.555,-19.531,-27.832,-51.270,-74.219
1687767981.402,-35.645,-27.832,-31.250,-63.965,-187.988
1687767981.406,-48.828,-38.574,-36.133,-65.918,42.969
1687767981.410,-44.434,-37.109,-33.691,-54.199,158.691
1687767981.414,-19.043,-37.598,-33.203,-44.434,-83.984
1687767981.431,5.859,-32.227,-34.180,-52.734,-151.367
1687767981.435,-10.742,-23.926,-32.227,-51.270,-34.668
1687767981.439,-38.574,-27.832,-31.738,-54.199,-29.785
1687767981.443,-29.785,-25.391,-32.227,-59.082,-88.379
1687767981.447,-1.953,-17.578,-26.855,-51.758,-103.027
1687767981.451,0.488,-22.461,-24.902,-47.363,185.547
1687767981.455,-32.715,-29.297,-31.738,-53.223,224.609
1687767981.458,-54.199,-28.809,-43.457,-69.824,-145.020
1687767981.462,-28.320,-19.531,-55.176,-58.105,-130.859
1687767981.466,4.395,-11.719,-38.086,-22.949,41.992
1687767981.470,4.395,-25.391,-13.672,-17.578,-47.363
1687767981.474,-23.926,-40.039,-23.926,-38.574,-83.496
1687767981.475,-50.293,-36.621,-30.273,-53.711,-119.141
1687767981.479,-58.594,-38.086,-26.367,-65.918,-155.762
1687767981.483,-47.852,-45.898,-22.949,-62.500,-138.184
1687767981.487,-45.898,-46.387,-18.066,-60.059,-133.789
1687767981.491,-56.641,-41.016,-12.695,-62.012,-18.555
1687767981.495,-59.570,-47.852,-8.301,-62.988,102.051
1687767981.499,-65.430,-53.223,-3.906,-73.730,43.945
1687767981.502,-59.570,-53.711,-8.301,-74.707,-64.453
1687767981.506,-61.523,-56.152,-9.277,-70.312,-49.805
1687767981.510,-80.566,-57.617,-4.395,-70.312,312.988
1687767981.514,-98.145,-55.176,-7.812,-80.078,228.027
1687767981.518,-92.285,-54.688,-8.789,-81.055,-135.254
1687767981.520,-63.965,-54.199,-5.371,-62.012,-154.297
1687767981.524,-62.500,-59.570,0.977,-59.570,-149.902
1687767981.528,-85.938,-63.477,-0.977,-73.242,-164.551
1687767981.532,-93.750,-70.312,-8.301,-72.266,-187.012
1687767981.536,-95.703,-77.637,0.000,-57.617,-127.441
1687767981.540,-86.914,-74.707,2.930,-46.387,-95.703
1687767981.544,-63.965,-66.895,4.395,-36.621,-50.293
1687767981.547,-46.875,-68.848,8.301,-30.273,-24.414
1687767981.551,-64.941,-76.660,3.418,-20.508,180.664
1687767981.555,-85.449,-75.684,5.371,-19.043,177.246
1687767981.559,-66.406,-83.008,8.789,-34.180,-115.723
1687767981.563,-49.316,-90.332,0.488,-36.621,-151.855
1687767981.565,-58.105,-82.031,0.977,-17.578,-121.582
1687767981.569,-72.266,-75.195,9.766,-28.809,-157.715
1687767981.573,-76.172,-73.242,6.348,-31.250,-124.512
1687767981.577,-68.359,-77.148,2.930,-16.602,-107.910
1687767981.581,-45.410,-74.219,10.742,-20.996,-134.766
1687767981.585,-36.133,-70.801,10.742,-17.578,13.672
1687767981.589,-43.945,-77.148,12.695,-11.719,52.734
1687767981.592,-64.453,-80.078,13.184,-10.254,68.848
1687767981.596,-74.219,-77.637,4.395,-10.254,231.934
1687767981.600,-51.270,-71.289,5.859,-9.766,83.984
1687767981.604,-34.668,-74.219,2.930,-9.277,-65.430
1687767981.608,-31.738,-76.660,-0.488,5.371,-30.762
1687767981.610,-38.086,-72.266,0.488,13.672,45.898
1687767981.614,-41.504,-70.801,-2.441,-1.953,-66.406
1687767981.618,-27.344,-66.406,-3.418,1.465,-140.625
1687767981.622,-21.973,-71.777,-11.230,8.301,-147.461
1687767981.626,-35.156,-63.965,-23.926,-8.789,-160.156
1687767981.630,-43.457,-54.199,-23.438,-9.277,-58.594
1687767981.634,-40.039,-53.711,-11.719,2.930,70.801
1687767981.637,-32.715,-48.828,-5.371,0.000,186.523
1687767981.641,-10.254,-45.410,-4.395,0.000,95.703
1687767981.645,-7.812,-47.363,-9.277,0.977,-94.727
1687767981.649,-24.902,-52.246,-17.090,-14.160,-94.727
1687767981.653,-33.691,-50.781,-16.602,-22.461,-120.605
1687767981.655,-22.461,-42.969,-14.160,-11.719,-156.250
1687767981.659,-8.789,-39.062,-16.602,-7.324,-140.625
1687767981.663,-14.160,-45.898,-20.508,-7.324,-103.516
1687767981.667,-31.738,-44.434,-16.602,1.465,-2.441
1687767981.671,-39.062,-41.016,-16.602,-4.883,-59.570
1687767981.675,-22.461,-49.805,-24.414,-9.766,-86.914
1687767981.679,-10.742,-46.875,-21.484,-9.277,82.031
1687767981.682,-26.367,-37.598,-23.438,-6.348,226.074
1687767981.686,-36.133,-29.785,-24.414,0.977,-3.906
1687767981.690,-40.039,-20.508,-24.902,-18.066,-154.297
1687767981.694,-31.738,-28.320,-25.391,-20.020,-59.570
1687767981.698,-8.301,-32.715,-20.508,-2.441,-13.672
1687767981.702,-9.277,-36.621,-25.879,-11.719,-152.344
1687767981.706,-37.109,-41.504,-38.086,-33.203,-174.316
1687767981.710,-49.316,-36.133,-32.715,-39.551,-9.766
1687767981.714,-27.832,-37.109,-17.578,-18.555,-39.551
1687767981.718,-7.324,-42.480,-20.508,-6.348,-179.688
1687767981.722,-18.555,-43.945,-31.738,-18.555,-83.496
1687767981.726,-40.527,-39.062,-29.785,-19.531,170.898
1687767981.729,-46.387,-36.621,-25.391,-22.949,58.105
1687767981.733,-35.156,-42.480,-29.785,-31.250,-193.848
1687767981.737,-24.902,-40.039,-29.297,-12.695,-177.246
1687767981.741,-22.461,-37.598,-27.344,-6.348,-94.238
1687767981.745,-22.949,-38.086,-30.762,-13.184,-116.211
1687767981.745,-30.273,-35.645,-32.227,-13.672,-173.340
1687767981.749,-25.879,-32.715,-31.250,-10.254,-173.340
1687767981.753,-4.883,-27.344,-23.926,0.000,-166.504
1687767981.757,-11.719,-31.250,-18.555,-12.695,-121.582
1687767981.761,-32.227,-37.598,-21.484,-33.203,-62.012
1687767981.765,-41.016,-38.574,-21.484,-32.715,57.617
1687767981.769,-25.879,-34.180,-22.461,-16.113,306.152
1687767981.772,-0.977,-29.297,-35.156,-6.836,47.363
1687767981.776,1.465,-30.762,-37.109,-18.066,-189.941
1687767981.780,-27.832,-26.855,-19.531,-44.922,10.742
1687767981.784,-46.875,-28.809,-17.578,-51.758,57.129
1687767981.788,-44.434,-37.598,-25.391,-46.875,-167.969
1687767981.805,-39.062,-33.691,-26.367,-41.016,-167.480
1687767981.809,-29.785,-37.598,-27.832,-35.645,-68.848
1687767981.813,-43.945,-52.734,-27.344,-35.156,-91.309
1687767981.817,-60.059,-45.410,-23.926,-30.273,-95.215
1687767981.821,-44.922,-29.785,-23.926,-29.785,-83.984
1687767981.825,-32.715,-18.066,-25.391,-35.645,13.184
1687767981.829,-38.086,-15.137,-23.438,-31.250,100.098
1687767981.832,-50.781,-28.320,-30.762,-33.691,28.320
1687767981.836,-55.176,-32.227,-36.621,-40.039,-26.855
1687767981.840,-59.570,-37.109,-36.621,-31.250,187.988
1687767981.844,-57.617,-32.227,-36.133,-25.879,148.438
1687767981.848,-38.574,-28.320,-30.762,-20.508,-100.586
1687767981.850,-36.621,-33.203,-28.320,-40.039,-95.703
1687767981.854,-58.105,-34.668,-29.785,-61.523,-28.809
1687767981.858,-50.293,-34.180,-33.203,-50.293,-84.961
1687767981.862,-45.898,-34.668,-39.551,-46.387,-105.469
1687767981.866,-35.156,-33.691,-35.156,-47.852,-21.973
1687767981.870,-22.461,-28.809,-23.438,-39.551,96.191
1687767981.874,-33.691,-24.902,-17.090,-34.668,60.059
1687767981.877,-51.758,-35.156,-22.461,-42.969,-136.719
1687767981.881,-47.363,-37.598,-28.809,-36.621,-74.707
1687767981.885,-38.574,-24.902,-25.879,-17.578,392.578
1687767981.889,-41.992,-30.762,-29.785,-33.691,287.109
1687767981.893,-47.852,-33.203,-26.367,-43.945,-119.629
1687767981.895,-52.246,-29.785,-25.391,-40.527,-89.844
1687767981.899,-35.645,-30.762,-31.250,-43.457,-64.453
1687767981.903,-24.902,-29.297,-33.203,-41.504,-120.605
1687767981.907,-40.527,-36.133,-40.039,-43.945,-104.004
1687767981.911,-42.969,-39.062,-37.598,-43.945,-24.902
1687767981.915,-46.387,-32.715,-30.273,-48.340,-66.895
1687767981.919,-54.688,-38.574,-32.227,-51.758,-95.215
1687767981.922,-38.086,-39.551,-33.203,-42.969,7.324
1687767981.926,-33.203,-33.203,-27.344,-35.156,165.527
1687767981.930,-41.504,-41.992,-25.391,-39.062,17.578
1687767981.934,-56.641,-46.875,-29.297,-46.875,-199.219
1687767981.938,-60.059,-37.109,-33.691,-46.387,-61.035
1687767981.941,-38.086,-33.691,-28.809,-42.969,97.656
1687767981.945,-31.738,-31.738,-25.879,-44.434,-25.879
1687767981.949,-41.992,-25.391,-28.809,-42.969,-118.652
1687767981.953,-42.480,-30.273,-26.367,-36.133,-159.668
1687767981.957,-20.996,-41.016,-20.996,-29.297,-171.387
1687767981.961,-8.301,-34.668,-24.414,-22.461,-12.695
1687767981.965,-21.484,-20.996,-32.227,-35.645,-42.969
1687767981.968,-39.551,-25.879,-34.668,-35.645,-30.762
1687767981.972,-44.922,-34.668,-29.785,-25.879,204.590
1687767981.976,-37.598,-39.551,-31.738,-45.410,37.109
1687767981.980,-36.133,-41.992,-35.645,-45.898,-213.867
1687767981.984,-31.738,-37.109,-33.691,-27.344,-104.980
1687767982.002,-31.738,-31.250,-29.785,-22.949,-0.977
1687767982.006,-37.109,-29.297,-27.832,-35.645,-142.090
1687767982.010,-34.668,-23.926,-27.832,-32.227,-198.730
1687767982.014,-28.809,-26.367,-34.180,-28.320,-64.941
1687767982.018,-11.719,-31.738,-32.715,-22.461,-95.215
1687767982.022,-12.207,-38.574,-30.273,-20.020,-150.879
1687767982.026,-33.203,-39.551,-40.527,-34.180,-66.895
1687767982.029,-29.785,-39.551,-37.598,-23.926,111.816
1687767982.033,-18.555,-29.297,-32.715,-13.672,111.328
1687767982.037,-13.672,-24.902,-36.133,-28.320,-110.352
1687767982.041,-20.508,-35.645,-38.086,-30.762,-142.578
1687767982.045,-36.133,-33.203,-28.320,-24.902,-86.914
1687767982.031,-35.645,-32.227,-27.344,-28.809,-113.281
1687767982.035,-20.508,-26.367,-24.902,-29.297,-187.012
1687767982.039,-21.973,-34.180,-24.414,-22.461,-134.277
1687767982.043,-20.020,-43.457,-33.691,-16.113,53.711
1687767982.047,-33.691,-36.621,-40.039,-25.879,30.273
1687767982.051,-50.293,-38.086,-34.668,-36.133,-61.035
1687767982.055,-37.109,-41.016,-28.320,-27.344,16.602
1687767982.058,-23.438,-40.527,-31.250,-27.832,7.812
1687767982.062,-27.832,-38.574,-30.273,-31.250,-74.219
1687767982.066,-33.691,-30.762,-24.902,-21.484,-69.336
1687767982.070,-30.762,-25.879,-24.414,-17.578,7.324
1687767982.074,-34.668,-27.344,-28.320,-8.789,322.754
1687767982.076,-26.367,-28.320,-32.715,-4.395,187.012
1687767982.080,-30.273,-29.297,-37.109,-19.043,-145.020
1687767982.084,-38.086,-28.320,-31.250,-24.414,-114.258
1687767982.088,-37.598,-33.203,-31.738,-26.855,-104.980
1687767982.092,-34.180,-47.363,-34.668,-32.227,-155.762
1687767982.096,-26.367,-39.551,-35.645,-30.762,-143.066
1687767982.100,-35.156,-24.414,-40.527,-32.227,143.555
1687767982.103,-41.992,-33.203,-38.574,-23.926,132.324
1687767982.107,-37.109,-26.367,-28.809,-15.137,-208.008
1687767982.111,-30.762,-18.066,-32.227,-12.695,-204.590
1687767982.115,-8.301,-22.949,-30.273,-1.465,-38.574
1687767982.119,-3.418,-21.973,-19.531,2.930,-85.938
1687767982.121,-28.320,-22.461,-27.344,-13.184,-176.270
1687767982.125,-32.227,-32.227,-36.621,-19.531,-87.402
1687767982.129,-21.973,-48.340,-32.227,-16.602,-57.617
1687767982.133,-18.555,-47.363,-30.273,-11.719,-127.930
1687767982.137,-15.137,-30.762,-32.715,-13.672,-166.992
1687767982.141,-15.137,-31.738,-35.156,-15.137,-64.941
1687767982.145,-27.832,-32.227,-36.621,-22.949,71.289
1687767982.148,-22.461,-29.785,-31.250,-29.785,-38.574
1687767982.152,-19.043,-39.062,-29.297,-26.855,-52.246
1687767982.156,-32.715,-37.109,-35.156,-26.367,150.391
1687767982.160,-35.156,-32.715,-30.762,-15.625,349.609
