timestamps,TP9,AF7,AF8,TP10,Right AUX
1687767907.646,-38.574,-32.715,-10.742,-19.531,-137.695
1687767907.650,-25.879,-32.227,-10.742,-9.766,-217.285
1687767907.654,-36.133,-35.156,-13.184,4.395,-59.082
1687767907.658,-35.645,-28.320,-3.906,-13.672,-84.473
1687767907.662,-38.086,-22.949,-6.836,-15.137,-170.410
1687767907.666,-42.969,-27.832,-14.160,-2.930,-69.824
1687767907.670,-32.227,-33.203,-16.602,5.371,242.676
1687767907.673,-21.484,-36.621,-20.996,12.207,205.566
1687767907.677,-21.973,-33.691,-15.625,1.465,-44.922
1687767907.681,-38.574,-25.879,-18.555,0.488,-97.656
1687767907.685,-41.992,-20.020,-27.344,4.395,-113.770
1687767907.689,-20.508,-24.414,-20.508,11.719,-95.703
1687767907.691,-15.137,-26.367,-14.160,10.254,-73.242
1687767907.695,-29.785,-25.391,-13.184,10.254,-85.449
1687767907.699,-51.758,-27.832,-14.648,5.371,-49.316
1687767907.703,-60.059,-35.156,-24.902,-3.906,-120.117
1687767907.707,-39.062,-36.133,-32.227,8.301,-175.293
1687767907.711,-29.297,-26.367,-33.203,9.766,-23.438
1687767907.715,-33.691,-25.391,-25.879,13.184,98.145
1687767907.718,-38.086,-36.133,-14.648,4.395,-74.219
1687767907.722,-40.039,-36.621,-19.043,-12.207,-247.070
1687767907.726,-27.344,-29.297,-24.902,-0.488,-63.965
1687767907.730,-27.344,-36.621,-28.320,12.207,179.688
1687767907.734,-37.598,-41.504,-30.762,4.395,-72.754
1687767907.751,-31.250,-38.086,-32.715,-16.113,-196.289
1687767907.755,-32.715,-39.551,-24.902,-15.137,-125.977
1687767907.759,-41.016,-41.016,-15.625,1.953,-70.801
1687767907.763,-34.180,-37.109,-22.461,-10.742,-130.371
1687767907.767,-35.645,-31.250,-29.297,-12.695,-237.305
1687767907.771,-49.316,-27.344,-26.855,7.324,148.926
1687767907.775,-44.922,-34.180,-29.297,-0.488,289.551
1687767907.778,-30.273,-35.156,-36.133,-18.555,-97.656
1687767907.782,-22.461,-23.926,-39.062,-6.348,-178.223
1687767907.786,-17.578,-14.648,-30.762,14.160,-19.531
1687767907.790,-33.691,-29.785,-27.344,-2.441,-50.781
1687767907.794,-47.363,-40.527,-29.297,-21.484,-148.438
1687767907.795,-49.805,-32.715,-29.785,-23.438,-153.320
1687767907.799,-37.109,-32.715,-32.227,-12.207,-42.969
1687767907.803,-30.762,-37.598,-29.785,-4.395,-1.465
1687767907.807,-55.176,-41.504,-27.344,-16.602,-79.590
1687767907.811,-66.895,-34.180,-23.926,-23.438,-57.617
1687767907.815,-50.781,-29.297,-28.320,-28.809,24.414
1687767907.819,-33.691,-37.109,-30.273,-21.484,46.387
1687767907.822,-30.762,-36.133,-19.531,-12.695,-49.316
1687767907.826,-37.109,-34.668,-18.555,-24.414,-48.340
1687767907.830,-60.059,-40.527,-29.785,-21.973,299.316
1687767907.834,-65.430,-40.527,-41.504,-32.227,187.988
1687767907.838,-49.805,-41.504,-42.480,-40.527,-116.211
1687767907.840,-47.852,-49.316,-38.574,-35.156,-97.168
1687767907.844,-59.082,-47.363,-38.086,-43.945,-82.031
1687767907.848,-77.148,-48.340,-33.691,-50.781,-129.395
1687767907.852,-67.871,-64.453,-29.785,-40.039,-154.297
1687767907.856,-31.250,-69.336,-32.715,-18.066,-78.125
1687767907.860,-25.391,-45.410,-40.039,-17.578,56.152
1687767907.864,-40.527,-21.973,-48.828,-29.785,-7.324
1687767907.867,-53.711,-25.391,-49.805,-48.828,-129.883
1687767907.871,-63.477,-28.809,-53.711,-42.969,113.770
1687767907.875,-54.199,-19.043,-58.105,-27.344,203.613
1687767907.879,-50.293,-14.160,-62.012,-48.828,-62.988
1687767907.883,-61.035,-20.508,-69.824,-63.477,-106.934
1687767907.885,-64.453,-23.926,-72.754,-62.012,-108.887
1687767907.889,-55.176,-16.113,-76.660,-69.824,-199.219
1687767907.893,-39.062,-12.207,-79.102,-65.918,-238.281
1687767907.897,-28.320,-7.812,-79.102,-53.711,-148.926
1687767907.901,-29.785,-10.742,-79.102,-55.664,-102.051
1687767907.905,-46.875,-22.461,-80.078,-56.641,-56.641
1687767907.909,-45.410,-20.996,-83.496,-61.035,-46.875
1687767907.912,-32.227,-16.113,-86.426,-54.199,-83.984
1687767907.916,-20.508,-21.973,-86.426,-31.738,150.879
1687767907.920,-23.926,-22.461,-88.867,-47.363,92.773
1687767907.924,-38.086,-18.066,-93.750,-57.617,-60.059
1687767907.928,-42.480,-14.648,-92.285,-53.711,-19.043
1687767907.930,-36.133,-11.230,-88.867,-52.734,92.773
1687767907.934,-18.555,-11.719,-90.332,-49.316,-69.824
1687767907.938,-22.461,-15.625,-90.820,-53.711,-124.512
1687767907.942,-40.039,-20.020,-90.820,-63.965,-91.309
1687767907.946,-40.039,-15.625,-92.285,-61.523,-202.148
1687767907.950,-29.785,-14.160,-87.402,-51.270,-101.074
1687767907.954,-20.508,-17.090,-80.566,-37.598,57.617
1687767907.957,-23.438,-21.484,-79.102,-26.367,210.449
1687767907.961,-17.090,-21.973,-74.707,-29.297,148.926
1687767907.965,-29.297,-20.996,-70.312,-38.086,-139.648
1687767907.969,-37.598,-20.508,-62.500,-23.926,-177.734
1687767907.973,-20.996,-20.508,-62.988,-23.438,-25.391
1687767907.975,-13.184,-21.973,-69.824,-28.320,-7.812
1687767907.979,-17.578,-17.090,-65.918,-19.043,-190.918
1687767907.983,-25.391,-8.789,-59.570,-18.555,-118.164
1687767907.987,-23.438,-14.648,-59.082,-24.414,64.453
1687767907.991,-6.836,-20.508,-63.477,-23.926,-51.270
1687767907.995,-5.859,-21.973,-60.547,-24.414,-121.582
1687767907.999,-17.090,-19.043,-58.594,-27.344,-37.598
1687767908.002,-19.043,-19.043,-61.523,-18.555,162.109
1687767908.006,-16.602,-19.043,-54.688,-18.555,-25.879
1687767908.010,-1.953,-12.695,-43.945,-20.020,-186.523
1687767908.014,-0.977,-10.254,-40.039,-12.695,-15.625
1687767908.018,-11.719,-15.625,-43.457,-10.254,8.789
1687767908.021,-22.949,-23.926,-45.898,-29.297,-149.902
1687767908.025,-22.949,-25.391,-42.480,-42.480,-152.832
1687767908.029,-9.766,-27.832,-44.434,-36.133,-7.812
1687767908.033,-8.301,-27.832,-45.410,-30.762,-33.691
1687767908.037,-14.648,-24.902,-41.016,-23.438,-50.781
1687767908.041,-24.414,-35.156,-40.527,-22.461,47.852
1687767908.045,-23.926,-28.809,-42.969,-27.344,191.406
1687767908.048,-8.789,-17.578,-41.016,-24.414,74.707
1687767908.052,0.000,-17.090,-41.016,-29.785,-159.180
1687767908.056,-2.441,-17.578,-43.457,-45.410,-134.277
1687767908.060,-16.113,-22.461,-42.480,-47.363,-67.871
1687767908.064,-26.367,-20.508,-39.551,-51.270,-123.535
1687767908.065,-15.137,-21.973,-41.992,-46.875,-179.688
1687767908.069,2.441,-27.344,-37.109,-47.363,-196.289
1687767908.073,-7.324,-21.484,-35.156,-59.570,-161.133
1687767908.077,-34.668,-18.066,-38.086,-67.871,-123.047
1687767908.081,-36.133,-25.879,-40.527,-71.289,-81.055
1687767908.085,-21.484,-32.715,-41.016,-66.895,46.387
1687767908.089,-12.695,-28.809,-35.645,-52.734,347.656
1687767908.092,-13.672,-28.320,-34.668,-53.711,123.535
1687767908.096,-24.414,-24.902,-37.109,-72.266,-175.293
1687767908.100,-33.203,-30.273,-41.992,-77.148,-39.551
1687767908.104,-27.832,-35.645,-40.039,-80.078,-40.527
1687767908.108,-32.227,-36.133,-39.551,-85.938,-143.066
1687767908.125,-36.621,-31.738,-35.645,-84.473,-130.371
1687767908.129,-44.922,-33.691,-31.250,-87.891,-89.844
1687767908.133,-50.293,-37.109,-34.180,-91.797,-81.543
1687767908.137,-37.598,-31.738,-38.574,-92.285,-87.402
1687767908.141,-28.809,-31.250,-38.086,-88.379,-41.992
1687767908.145,-17.090,-41.016,-32.715,-73.730,119.141
1687767908.149,-21.973,-44.922,-39.551,-75.195,26.367
1687767908.152,-43.457,-35.156,-42.480,-91.309,-13.184
1687767908.156,-47.363,-19.531,-30.273,-95.215,-33.691
1687767908.160,-44.434,-31.250,-31.250,-92.773,196.777
1687767908.164,-46.387,-45.898,-35.156,-96.680,225.586
1687767908.168,-45.898,-42.480,-35.156,-107.422,-86.426
1687767908.170,-51.758,-34.668,-34.668,-110.840,-72.754
1687767908.174,-46.387,-23.926,-33.691,-100.098,-74.707
1687767908.178,-24.902,-31.738,-34.180,-92.285,-142.090
1687767908.182,-27.832,-38.086,-32.715,-93.262,-122.070
1687767908.186,-41.016,-34.180,-35.645,-91.797,-108.398
1687767908.190,-50.293,-35.156,-35.645,-86.914,-94.727
1687767908.194,-46.875,-32.715,-30.762,-89.844,6.348
1687767908.197,-29.297,-27.832,-26.855,-88.379,-85.449
1687767908.201,-33.203,-36.133,-31.738,-82.031,-40.039
1687767908.205,-61.035,-39.551,-36.621,-74.219,442.871
1687767908.209,-67.871,-41.992,-38.574,-85.938,238.770
1687767908.213,-55.176,-48.828,-39.062,-89.844,-170.898
1687767908.215,-44.922,-33.691,-33.691,-81.055,-36.133
1687767908.219,-41.016,-20.996,-29.297,-75.684,-13.672
1687767908.223,-47.363,-26.367,-28.320,-79.590,-198.730
1687767908.227,-53.711,-37.109,-27.832,-77.148,-175.293
1687767908.231,-50.293,-38.086,-28.320,-69.336,-79.590
1687767908.235,-43.945,-32.227,-32.227,-71.289,-62.012
1687767908.239,-37.598,-41.992,-33.203,-64.941,-45.410
1687767908.242,-37.598,-39.551,-29.785,-66.406,-125.000
1687767908.246,-47.852,-28.809,-28.320,-65.430,44.922
1687767908.250,-46.875,-35.156,-32.227,-64.941,86.426
1687767908.254,-30.762,-38.086,-31.250,-64.453,-160.156
1687767908.258,-25.879,-33.203,-31.738,-66.406,-122.070
1687767908.260,-39.551,-31.250,-35.645,-67.871,-36.133
1687767908.264,-55.176,-36.133,-24.414,-64.453,-172.363
1687767908.268,-44.922,-35.645,-20.020,-64.941,-198.730
1687767908.272,-23.438,-31.738,-29.297,-61.523,-150.391
1687767908.276,-22.461,-31.738,-32.227,-59.570,-130.371
1687767908.280,-22.949,-29.785,-23.926,-62.012,-62.500
1687767908.284,-30.273,-37.598,-22.949,-68.848,-40.039
1687767908.287,-33.691,-35.645,-26.367,-68.359,6.348
1687767908.291,-32.227,-32.227,-27.344,-57.129,200.684
1687767908.295,-36.133,-35.645,-33.691,-62.500,-5.859
1687767908.299,-42.969,-28.320,-34.668,-68.359,-183.105
1687767908.303,-53.711,-26.855,-30.762,-73.730,-48.340
1687767908.308,-55.176,-22.949,-26.367,-70.801,5.371
1687767908.312,-49.316,-26.367,-24.902,-62.988,-28.809
1687767908.316,-39.551,-35.156,-28.809,-69.336,-67.871
1687767908.320,-36.133,-34.180,-28.320,-72.266,40.039
1687767908.324,-49.805,-30.273,-24.414,-81.055,6.836
1687767908.328,-49.805,-27.344,-18.555,-89.355,-64.941
1687767908.332,-44.434,-29.297,-18.555,-91.309,29.785
1687767908.335,-47.852,-31.250,-25.879,-81.055,162.598
1687767908.339,-49.316,-30.273,-31.250,-80.566,101.562
1687767908.343,-51.270,-31.738,-33.203,-84.473,-124.023
1687767908.347,-54.688,-34.180,-38.574,-86.914,-88.867
1687767908.351,-53.223,-34.668,-45.410,-85.938,-46.387
1687767908.350,-37.109,-32.227,-41.504,-76.660,-105.957
1687767908.354,-27.344,-26.855,-33.691,-71.777,-124.512
1687767908.358,-41.016,-35.156,-27.344,-73.730,-98.145
1687767908.362,-57.617,-38.086,-27.344,-75.684,-54.199
1687767908.366,-53.711,-36.133,-27.344,-73.242,-56.641
1687767908.370,-37.598,-36.621,-24.414,-68.359,-78.613
1687767908.374,-36.621,-37.109,-29.297,-62.012,56.152
1687767908.377,-42.969,-34.668,-30.762,-52.734,230.469
1687767908.381,-49.316,-29.297,-28.809,-59.082,82.520
1687767908.385,-43.457,-33.203,-26.855,-65.918,-62.988
1687767908.389,-39.551,-33.203,-23.438,-56.641,-16.113
1687767908.393,-43.457,-39.551,-22.461,-52.734,7.812
1687767908.395,-44.922,-44.434,-23.438,-58.594,-169.922
1687767908.399,-57.617,-36.133,-26.367,-64.453,-171.875
1687767908.403,-55.664,-31.738,-24.902,-62.500,-60.059
1687767908.407,-44.434,-35.156,-25.391,-60.547,-105.469
1687767908.411,-43.945,-31.738,-30.273,-60.059,-130.371
1687767908.415,-56.641,-32.715,-27.832,-60.059,-1.465
1687767908.419,-62.012,-32.715,-19.531,-55.664,291.504
1687767908.422,-59.082,-29.297,-13.672,-55.664,236.816
1687767908.426,-53.223,-37.109,-18.066,-64.453,-76.172
1687767908.430,-46.875,-36.133,-23.926,-62.988,-35.645
1687767908.434,-46.387,-26.367,-20.020,-49.805,212.891
1687767908.438,-54.688,-28.809,-18.066,-56.152,25.879
1687767908.440,-50.293,-27.344,-20.020,-63.477,-203.125
1687767908.444,-39.062,-20.996,-29.297,-61.035,-147.949
1687767908.448,-35.645,-24.902,-29.297,-64.453,-83.984
1687767908.452,-38.574,-26.855,-22.461,-61.035,-127.930
1687767908.456,-50.293,-23.438,-21.484,-55.664,-183.105
1687767908.460,-57.129,-27.832,-19.531,-53.223,12.695
1687767908.464,-41.504,-26.855,-16.113,-35.645,161.133
1687767908.467,-34.668,-30.762,-20.508,-36.621,-4.395
1687767908.471,-42.969,-33.203,-26.367,-48.828,-136.719
1687767908.475,-53.711,-19.531,-22.461,-42.480,8.301
1687767908.479,-65.918,-18.066,-21.973,-41.992,279.297
1687767908.483,-55.664,-25.879,-25.879,-45.410,10.254
1687767908.500,-29.297,-22.949,-29.785,-43.945,-187.012
1687767908.504,-38.574,-23.926,-32.227,-39.551,-40.039
1687767908.508,-59.082,-30.762,-32.715,-46.875,-84.961
1687767908.512,-69.824,-37.109,-33.691,-51.758,-213.379
1687767908.516,-60.547,-34.180,-35.156,-43.945,-185.547
1687767908.520,-47.852,-29.297,-31.738,-40.527,78.125
1687767908.524,-55.664,-34.668,-33.691,-40.527,164.551
1687767908.527,-75.195,-41.504,-38.086,-39.062,-23.926
1687767908.531,-81.543,-42.480,-35.156,-39.551,-187.988
1687767908.535,-72.754,-33.691,-30.762,-36.133,1.953
1687767908.539,-68.359,-28.320,-34.180,-27.344,-8.301
1687767908.543,-68.848,-32.227,-41.504,-29.785,-184.570
1687767908.545,-81.055,-36.621,-43.945,-39.062,-127.441
1687767908.549,-83.008,-36.621,-37.109,-33.203,-31.738
1687767908.553,-74.707,-39.062,-34.180,-24.414,-70.312
1687767908.557,-74.219,-40.527,-40.527,-30.762,-96.680
1687767908.561,-68.848,-44.922,-47.852,-33.203,-90.820
1687767908.565,-74.707,-49.316,-44.922,-31.250,41.504
1687767908.569,-85.938,-45.410,-41.016,-34.668,20.996
1687767908.572,-83.008,-49.316,-41.016,-35.645,-165.039
1687767908.576,-77.148,-39.551,-33.691,-21.973,15.137
1687767908.580,-73.730,-33.691,-28.809,-4.883,431.152
1687767908.584,-72.266,-43.457,-27.832,-10.254,214.355
1687767908.588,-74.707,-37.109,-27.344,-16.602,-115.234
1687767908.590,-75.195,-35.645,-32.227,-7.812,-83.984
1687767908.594,-64.941,-39.551,-35.645,-2.441,-22.949
1687767908.598,-52.246,-39.551,-30.273,-11.230,-119.629
1687767908.602,-54.199,-35.156,-24.902,-11.230,-138.184
1687767908.606,-67.383,-33.691,-29.785,-11.230,13.672
1687767908.610,-70.801,-36.621,-37.598,-7.812,-9.766
1687767908.614,-47.852,-34.180,-29.297,3.418,-85.938
1687767908.617,-39.062,-48.828,-26.855,9.277,-77.637
1687767908.621,-45.898,-47.852,-33.691,17.578,157.715
1687767908.625,-53.711,-31.250,-33.203,10.254,112.793
1687767908.629,-55.664,-30.273,-32.715,0.000,-117.188
1687767908.633,-45.410,-36.621,-34.180,-0.977,-91.797
1687767908.636,-40.039,-39.062,-36.133,-4.883,-46.875
1687767908.640,-45.410,-36.621,-36.621,-14.648,-27.344
1687767908.644,-53.223,-38.574,-37.598,-21.973,-109.375
1687767908.648,-55.664,-34.180,-38.086,-26.367,-60.059
1687767908.652,-51.758,-32.715,-41.992,-20.996,32.715
1687767908.656,-42.480,-37.598,-37.109,-14.160,-43.457
1687767908.660,-38.086,-37.598,-34.180,-19.043,-57.129
1687767908.663,-50.293,-39.062,-42.480,-27.832,-64.453
1687767908.667,-59.082,-38.086,-42.969,-26.367,177.246
1687767908.671,-41.992,-32.227,-34.180,-21.484,58.105
1687767908.675,-25.879,-28.809,-31.738,-22.949,-202.148
1687767908.679,-33.203,-38.086,-39.551,-29.297,-106.934
1687767908.681,-49.316,-33.691,-40.527,-41.992,-93.262
1687767908.685,-61.035,-24.414,-40.527,-46.387,-196.289
1687767908.689,-59.570,-37.598,-40.527,-41.016,-223.145
1687767908.693,-46.875,-42.480,-39.551,-42.969,-51.270
1687767908.697,-48.828,-36.133,-41.992,-42.480,-13.672
1687767908.701,-60.547,-30.762,-39.551,-43.457,-124.512
1687767908.705,-67.383,-27.344,-39.062,-48.340,-64.941
1687767908.708,-62.988,-29.297,-38.086,-37.109,147.949
1687767908.712,-38.086,-35.156,-34.668,-32.227,208.008
1687767908.716,-23.926,-37.109,-40.039,-41.992,-72.754
1687767908.720,-27.832,-32.227,-36.621,-38.086,-180.176
1687767908.724,-56.641,-28.809,-35.645,-41.016,-139.160
1687767908.741,-57.617,-36.621,-36.621,-44.434,-124.023
1687767908.745,-26.855,-40.039,-35.156,-36.133,-127.930
1687767908.749,-17.090,-30.273,-33.203,-38.086,-99.609
1687767908.753,-30.762,-28.320,-33.691,-49.316,-52.246
1687767908.757,-39.551,-41.016,-36.621,-36.133,-84.473
1687767908.761,-29.785,-45.410,-35.645,-17.090,-75.684
1687767908.765,-18.066,-35.156,-32.715,-19.043,63.477
1687767908.768,-17.090,-20.996,-34.668,-20.020,231.934
1687767908.772,-13.184,-26.367,-37.598,-25.879,28.809
1687767908.776,-20.508,-36.621,-35.645,-35.156,-167.969
1687767908.780,-29.297,-39.551,-30.762,-35.156,-32.227
1687767908.784,-29.785,-34.180,-33.203,-29.785,167.969
1687767908.772,-25.879,-24.902,-36.621,-27.344,-2.441
1687767908.776,-30.762,-29.297,-34.180,-33.691,-176.270
1687767908.780,-41.992,-31.250,-37.598,-34.668,-175.293
1687767908.784,-35.645,-34.180,-35.156,-33.203,-133.789
1687767908.788,-20.508,-29.297,-32.227,-33.691,-81.543
1687767908.792,-15.625,-17.090,-30.762,-35.645,9.277
1687767908.796,-24.902,-25.879,-23.926,-28.809,129.883
1687767908.799,-33.203,-25.391,-22.461,-28.320,22.461
1687767908.803,-24.902,-19.531,-20.996,-26.367,-176.270
1687767908.807,-13.672,-26.855,-18.066,-25.391,-183.105
1687767908.811,-20.508,-32.715,-29.785,-25.879,185.059
1687767908.815,-27.344,-33.203,-35.156,-22.949,270.996
1687767908.827,-31.250,-34.180,-25.879,-36.133,-78.125
1687767908.831,-35.645,-34.668,-24.902,-40.527,-192.871
1687767908.835,-29.297,-28.320,-31.250,-27.344,-113.770
1687767908.839,-19.043,-20.996,-33.203,-28.320,-76.660
1687767908.843,-28.809,-21.973,-32.715,-41.016,-70.312
1687767908.847,-43.457,-22.461,-32.227,-51.270,20.996
1687767908.851,-49.316,-13.672,-36.133,-55.664,188.477
1687767908.854,-25.879,-20.020,-40.527,-50.293,38.574
1687767908.858,-6.836,-31.250,-34.180,-41.504,-162.598
1687767908.862,-27.832,-24.902,-26.367,-50.781,-13.184
1687767908.866,-51.758,-25.391,-22.461,-42.480,128.906
1687767908.870,-53.223,-28.809,-24.414,-42.969,-136.719
1687767908.868,-32.227,-30.762,-20.996,-38.086,-220.703
1687767908.872,-25.879,-35.156,-15.625,-30.762,-16.602
1687767908.876,-29.297,-39.062,-15.137,-32.227,-33.203
1687767908.880,-38.086,-40.039,-10.742,-35.645,-129.395
1687767908.884,-51.758,-39.062,-3.906,-42.480,-97.168
1687767908.888,-39.551,-42.969,-4.883,-32.715,13.184
1687767908.892,-29.785,-41.016,-5.859,-32.227,37.598
1687767908.895,-35.156,-44.434,-8.301,-42.480,-118.164
1687767908.899,-48.340,-55.176,-9.766,-47.852,-165.527
1687767908.903,-54.688,-48.340,-4.883,-41.992,48.340
1687767908.907,-40.039,-47.363,0.977,-38.086,-31.738
1687767908.911,-33.203,-54.199,3.906,-41.504,-239.746
1687767908.922,-27.344,-48.828,1.465,-36.621,-199.707
1687767908.926,-39.062,-41.992,-0.977,-33.203,-163.574
1687767908.930,-65.918,-47.363,-2.930,-38.574,-160.156
1687767908.934,-57.617,-52.734,4.883,-39.551,-110.840
1687767908.938,-31.738,-48.340,14.648,-34.668,-43.945
1687767908.942,-24.414,-51.758,10.254,-29.297,152.344
1687767908.946,-34.668,-51.758,4.883,-30.762,82.031
1687767908.949,-53.711,-48.828,-2.441,-41.504,-124.512
1687767908.953,-49.805,-49.805,1.465,-36.133,-46.875
1687767908.957,-41.992,-54.199,19.043,-20.996,288.574
1687767908.961,-37.598,-49.316,22.461,-17.578,103.027
1687767908.965,-28.320,-41.504,17.090,-13.184,-142.090
1687767908.965,-38.574,-47.852,9.766,-24.414,-106.445
1687767908.969,-58.594,-51.270,0.977,-40.527,-141.602
1687767908.973,-44.922,-50.293,-4.883,-34.668,-119.629
1687767908.977,-34.668,-49.805,-9.277,-26.367,-132.324
1687767908.981,-31.250,-42.969,-10.742,-27.344,-41.016
1687767908.985,-52.246,-43.457,-2.441,-41.016,86.914
1687767908.989,-59.570,-45.898,14.160,-36.133,16.113
1687767908.992,-38.086,-42.969,10.254,-34.668,-47.363
1687767908.996,-30.273,-46.387,2.930,-29.785,107.422
1687767909.000,-31.738,-48.828,6.836,-32.715,71.777
1687767909.004,-45.410,-43.945,3.906,-49.805,-189.453
1687767909.008,-59.570,-44.922,0.488,-52.246,-160.645
1687767909.010,-62.012,-42.969,3.906,-57.129,7.324
1687767909.014,-40.527,-38.086,3.418,-48.828,-65.918
1687767909.018,-40.527,-42.969,-4.395,-42.480,-159.180
1687767909.022,-51.758,-43.457,-9.277,-41.992,-105.469
1687767909.026,-52.246,-38.574,-6.836,-37.109,-29.297
1687767909.030,-60.059,-36.621,-10.254,-35.645,38.574
1687767909.034,-50.293,-32.227,-15.625,-37.598,4.395
1687767909.037,-41.504,-30.762,-9.766,-41.992,66.406
1687767909.041,-58.594,-38.574,-11.230,-43.457,369.141
1687767909.045,-72.266,-37.109,-17.090,-60.059,191.895
1687767909.049,-51.270,-26.367,-8.301,-56.641,-119.629
1687767909.053,-20.020,-27.344,-3.906,-31.250,-81.543
1687767909.055,-20.020,-30.273,-6.836,-31.250,-5.371
1687767909.059,-34.668,-26.367,-19.043,-45.898,-53.711
1687767909.063,-35.156,-23.438,-24.414,-62.988,-72.754
1687767909.067,-33.691,-26.367,-5.859,-66.406,-47.363
1687767909.071,-22.949,-30.273,0.000,-51.758,-71.777
1687767909.075,-15.137,-29.297,-16.602,-39.062,-72.754
1687767909.079,-31.738,-23.438,-17.578,-45.898,1.465
1687767909.082,-45.898,-28.809,-10.254,-41.016,157.227
1687767909.086,-41.016,-27.832,-9.766,-38.086,99.121
1687767909.090,-28.320,-20.996,-19.043,-34.180,-123.047
1687767909.094,-18.066,-21.484,-18.066,-24.902,-93.750
1687767909.098,-10.742,-17.578,-12.695,-28.809,10.254
1687767909.100,-35.645,-33.203,-10.742,-44.922,-113.281
1687767909.104,-48.340,-38.086,-0.977,-39.062,-232.422
1687767909.108,-26.855,-22.461,0.488,-24.414,-154.785
1687767909.112,-13.672,-21.973,-9.766,-30.273,-95.703
1687767909.116,-22.949,-25.391,-10.254,-41.016,-129.395
1687767909.120,-39.551,-23.438,-11.230,-36.621,-132.324
1687767909.124,-33.203,-19.531,-17.090,-24.414,-13.672
1687767909.127,-24.414,-11.230,-20.508,-12.695,207.520
1687767909.131,-28.320,-26.855,-25.391,-24.414,-33.203
1687767909.135,-34.668,-37.109,-18.066,-38.574,-138.672
1687767909.139,-55.176,-24.414,-7.324,-38.574,8.789
1687767909.143,-59.082,-25.879,-12.207,-40.039,6.348
1687767909.147,-41.504,-31.250,-14.160,-36.621,-93.262
1687767909.151,-26.367,-21.973,-9.766,-26.855,-195.312
1687767909.155,-20.508,-17.578,-9.766,-15.625,-68.848
1687767909.159,-38.086,-20.508,-22.949,-27.832,-51.270
1687767909.163,-36.621,-19.531,-26.367,-41.992,-136.230
1687767909.167,-20.020,-27.832,-20.508,-33.691,10.742
1687767909.171,-21.973,-33.203,-20.020,-20.996,312.500
1687767909.174,-36.621,-34.180,-13.672,-16.113,213.379
1687767909.178,-42.969,-31.250,-16.602,-35.645,-119.141
1687767909.182,-38.086,-29.297,-20.996,-38.574,-158.691
1687767909.186,-35.645,-32.227,-20.508,-20.020,-98.633
1687767909.190,-25.879,-33.203,-14.160,-12.207,-112.793
1687767909.205,-23.926,-34.668,-21.484,-20.508,-111.328
1687767909.209,-45.410,-32.227,-27.344,-35.645,-112.305
1687767909.213,-57.129,-29.297,-24.414,-20.996,-92.285
1687767909.217,-35.645,-24.414,-27.344,-16.113,-61.035
1687767909.221,-24.902,-21.973,-22.461,-13.184,-56.641
1687767909.225,-37.598,-30.273,-21.973,-6.348,115.234
1687767909.229,-53.223,-40.039,-30.273,1.465,402.344
1687767909.232,-59.082,-39.062,-27.832,1.465,200.684
1687767909.236,-40.039,-30.273,-19.531,-17.090,-118.164
1687767909.240,-27.832,-25.879,-16.602,-9.277,21.973
1687767909.244,-29.785,-27.344,-25.391,4.395,26.367
1687767909.248,-37.598,-22.949,-29.297,-7.812,-201.172
1687767909.250,-46.387,-30.273,-26.855,-18.066,-175.781
1687767909.254,-36.621,-37.598,-23.438,-8.789,-90.820
1687767909.258,-22.461,-29.785,-24.414,11.230,-124.023
1687767909.262,-19.531,-20.996,-34.180,13.184,-200.195
1687767909.266,-25.879,-22.949,-35.156,4.395,-178.223
1687767909.270,-33.691,-30.273,-33.203,7.324,29.297
1687767909.274,-36.133,-31.250,-36.133,0.977,62.012
1687767909.277,-32.227,-30.762,-35.645,1.953,-88.379
1687767909.281,-23.438,-29.297,-31.738,11.719,-98.145
1687767909.285,-20.020,-27.832,-24.414,18.555,108.398
1687767909.289,-19.531,-33.691,-24.414,14.160,64.941
1687767909.293,-18.555,-35.156,-20.996,13.184,-173.340
1687767909.295,-2.441,-30.762,-15.137,11.230,-194.336
1687767909.299,-9.277,-31.250,-16.113,10.742,-69.824
1687767909.303,-40.527,-44.922,-15.137,4.395,-58.105
1687767909.307,-27.344,-61.035,-10.742,13.184,-187.988
1687767909.311,-6.836,-49.805,-14.648,24.902,-106.445
1687767909.315,-14.160,-27.344,-30.762,0.488,78.125
1687767909.319,-10.254,-25.879,-38.574,-11.230,58.105
1687767909.322,-10.254,-31.738,-40.527,-11.230,-55.664
1687767909.326,-41.504,-29.785,-45.898,-22.949,-8.789
1687767909.330,-57.617,-25.879,-51.270,-27.344,383.789
1687767909.334,-38.086,-29.297,-57.617,-26.367,300.781
1687767909.338,-20.996,-36.621,-62.012,-30.762,-124.023
1687767909.340,-23.438,-30.273,-59.570,-41.504,-181.152
1687767909.344,-36.621,-23.926,-59.570,-45.898,-168.457
1687767909.348,-36.621,-28.320,-65.430,-40.039,-203.125
1687767909.352,-22.949,-22.949,-71.289,-38.086,-196.289
1687767909.356,-13.672,-18.066,-76.660,-39.551,-131.836
1687767909.360,-11.230,-25.879,-75.684,-40.039,-14.160
1687767909.364,-11.230,-20.508,-74.219,-44.434,20.508
1687767909.367,-27.344,-9.277,-84.473,-54.199,-91.797
1687767909.371,-26.367,-11.230,-89.355,-40.527,52.734
1687767909.375,-13.672,-21.484,-86.914,-37.109,155.762
1687767909.379,-20.996,-16.113,-85.938,-59.570,-152.344
1687767909.383,-24.414,-8.301,-83.984,-69.336,-171.875
1687767909.386,-23.438,-19.043,-85.449,-62.012,36.133
1687767909.390,-23.926,-16.602,-81.543,-62.012,-139.160
1687767909.394,-7.812,-17.090,-79.590,-52.246,-216.797
1687767909.398,-9.766,-23.438,-82.520,-48.340,-114.746
1687767909.402,-20.508,-14.648,-79.590,-56.152,-82.031
1687767909.406,-22.949,-4.395,-76.172,-54.688,-25.391
1687767909.410,-37.109,-5.859,-79.102,-59.570,-80.566
1687767909.413,-15.625,-16.602,-79.590,-50.293,-19.531
1687767909.417,-8.301,-22.461,-75.195,-46.387,248.047
1687767909.421,-34.668,-11.719,-74.219,-65.918,117.188
1687767909.425,-35.156,-1.953,-73.242,-73.730,-150.391
1687767909.429,-16.602,-13.184,-76.172,-59.082,-22.461
1687767909.431,-8.301,-17.090,-77.148,-31.250,216.309
1687767909.435,-4.395,-11.719,-68.848,-39.062,-54.199
1687767909.439,-13.672,-13.672,-59.570,-49.316,-167.969
1687767909.443,-27.832,-14.160,-54.199,-40.527,-30.273
1687767909.447,-22.949,-20.508,-58.594,-36.621,-61.523
1687767909.451,-1.465,-25.879,-60.059,-20.508,-75.684
1687767909.455,2.441,-25.879,-58.594,-14.648,-21.484
1687767909.458,-13.672,-16.602,-59.570,-31.738,135.254
1687767909.462,-15.625,-14.648,-55.176,-43.945,62.500
1687767909.466,-8.789,-19.531,-50.293,-41.016,-210.449
1687767909.470,-3.418,-18.555,-49.805,-32.227,-125.000
1687767909.474,5.371,-24.414,-47.852,-25.879,-7.324
1687767909.477,-7.812,-20.508,-44.434,-28.320,-124.023
1687767909.481,-29.297,-20.508,-45.898,-42.969,-160.645
1687767909.485,-22.461,-27.344,-41.992,-38.574,-62.988
1687767909.489,-10.742,-35.156,-40.039,-23.438,16.602
1687767909.493,-14.160,-44.434,-42.969,-21.484,-12.207
1687767909.497,-15.137,-38.086,-40.039,-28.809,3.906
1687767909.501,-27.344,-37.598,-33.203,-29.785,41.992
1687767909.504,-40.527,-37.109,-35.645,-19.531,184.082
1687767909.508,-24.414,-20.996,-37.109,-14.648,15.137
1687767909.512,-11.719,-17.090,-36.133,-30.273,-74.707
1687767909.516,-8.301,-24.414,-35.156,-33.691,4.883
1687767909.520,-18.066,-29.785,-32.715,-26.367,-38.086
1687767909.521,-37.598,-30.762,-34.668,-31.738,-143.066
1687767909.525,-36.621,-41.992,-37.109,-36.133,-180.176
1687767909.529,-14.160,-48.828,-36.621,-32.227,-140.625
1687767909.533,-19.043,-41.504,-42.969,-34.180,-131.836
1687767909.537,-41.016,-37.598,-42.480,-41.016,-68.359
1687767909.541,-40.527,-30.762,-36.133,-45.898,-21.484
1687767909.545,-31.738,-29.297,-41.504,-36.133,268.066
1687767909.548,-23.438,-30.273,-44.434,-21.973,334.961
1687767909.552,-22.949,-32.715,-37.109,-39.551,-66.406
1687767909.556,-26.367,-33.691,-30.762,-41.016,-155.273
1687767909.560,-32.715,-32.715,-32.227,-30.273,-69.824
1687767909.564,-41.016,-33.203,-34.668,-41.016,-120.117
1687767909.566,-40.527,-40.527,-39.551,-47.852,-134.766
1687767909.570,-33.691,-37.598,-39.062,-51.270,-93.262
1687767909.574,-39.551,-35.156,-36.133,-47.852,-102.539
1687767909.578,-51.758,-40.039,-55.176,-55.664,-135.254
1687767909.582,-33.691,-30.273,-49.316,-52.734,-124.023
1687767909.586,-17.578,-29.297,-31.738,-38.086,25.391
1687767909.590,-14.648,-24.414,-40.039,-34.668,140.625
1687767909.593,-32.715,-22.949,-29.785,-43.945,20.020
1687767909.597,-66.895,-35.156,-19.531,-62.988,-105.469
1687767909.601,-62.012,-35.156,-23.438,-63.477,-13.184
1687767909.605,-40.527,-34.180,-27.832,-46.387,258.301
1687767909.609,-32.227,-37.598,-23.438,-40.527,101.562
1687767909.626,-46.387,-38.086,-22.949,-53.223,-143.555
1687767909.630,-55.176,-33.691,-34.180,-61.523,-119.629
1687767909.634,-37.109,-22.461,-33.691,-49.805,-146.973
1687767909.638,-26.367,-29.785,-26.855,-38.086,-145.996
1687767909.642,-22.949,-34.668,-24.414,-33.691,-77.148
1687767909.646,-32.715,-26.367,-32.715,-39.062,56.641
1687767909.650,-49.805,-37.109,-31.250,-49.316,-11.719
1687767909.653,-48.828,-39.551,-25.879,-47.363,-183.594
1687767909.657,-35.156,-34.668,-26.367,-38.574,-117.676
1687767909.661,-33.691,-37.598,-29.785,-27.832,239.258
1687767909.665,-45.898,-39.551,-28.320,-18.555,214.844
1687767909.669,-57.617,-36.621,-28.320,-31.738,-84.473
1687767909.671,-49.316,-25.391,-24.902,-32.227,-128.906
1687767909.675,-34.180,-30.273,-21.973,-19.531,-89.355
1687767909.679,-32.227,-36.621,-32.227,-18.555,-76.660
1687767909.683,-41.016,-35.156,-41.504,-20.508,-113.770
1687767909.687,-58.105,-43.945,-41.016,-37.598,-85.449
1687767909.691,-52.246,-43.457,-28.809,-45.898,-39.062
1687767909.695,-33.203,-35.156,-21.484,-41.992,-37.598
1687767909.698,-21.484,-29.785,-31.250,-42.969,-123.047
1687767909.702,-19.043,-28.809,-33.691,-33.691,-64.453
1687767909.706,-31.738,-34.180,-35.645,-21.973,321.289
1687767909.710,-35.645,-38.086,-35.645,-24.902,82.520
1687767909.714,-25.391,-29.785,-34.668,-29.297,-212.891
1687767909.716,-28.320,-31.738,-41.504,-32.715,-74.707
1687767909.720,-37.598,-45.898,-37.598,-33.691,-10.254
1687767909.724,-39.551,-41.992,-32.715,-37.598,-141.602
1687767909.728,-43.457,-34.668,-29.785,-35.645,-181.641
1687767909.732,-41.016,-40.527,-25.879,-27.832,-67.871
1687767909.736,-31.738,-40.039,-37.109,-34.180,-65.918
1687767909.740,-37.598,-42.480,-42.969,-37.109,-31.250
1687767909.743,-50.293,-46.875,-38.574,-38.574,-51.270
1687767909.747,-54.199,-39.062,-33.203,-33.691,132.324
1687767909.751,-43.945,-39.551,-29.785,-30.762,113.281
1687767909.755,-30.273,-47.852,-36.621,-29.785,-114.258
1687767909.759,-31.738,-46.875,-42.480,-16.113,-71.289
1687767909.762,-46.387,-48.828,-39.551,-17.090,-66.406
1687767909.766,-56.152,-45.898,-36.133,-33.203,-63.965
1687767909.770,-44.434,-40.527,-34.180,-34.180,-69.336
1687767909.774,-27.832,-38.574,-38.574,-31.250,-111.816
1687767909.778,-30.762,-38.574,-38.086,-31.738,10.742
1687767909.782,-44.434,-35.156,-40.039,-28.809,102.539
1687767909.786,-59.570,-30.273,-46.387,-24.902,-0.977
1687767909.789,-51.758,-32.715,-41.016,-32.715,-36.621
1687767909.793,-25.879,-36.621,-40.527,-25.879,314.941
1687767909.797,-23.438,-29.785,-43.945,-27.344,165.527
1687767909.801,-35.156,-30.762,-39.551,-36.133,-193.359
1687767909.805,-48.828,-33.691,-36.133,-33.203,-84.961
1687767909.806,-48.340,-28.320,-32.227,-29.785,-43.945
1687767909.810,-28.320,-26.855,-30.762,-27.344,-150.391
1687767909.814,-18.555,-31.738,-34.180,-26.367,-120.605
1687767909.818,-27.832,-31.738,-30.273,-20.996,-84.473
1687767909.822,-37.598,-27.832,-27.832,-21.973,-68.359
1687767909.826,-35.645,-28.809,-31.250,-26.855,-52.246
1687767909.830,-21.973,-27.832,-33.691,-21.484,10.254
1687767909.833,-14.648,-24.902,-29.785,-5.371,217.773
1687767909.837,-26.367,-32.715,-28.320,0.000,288.574
1687767909.841,-36.621,-34.668,-28.809,-9.277,-24.902
1687767909.845,-38.086,-32.715,-32.715,-18.555,-235.840
1687767909.849,-36.133,-41.992,-36.621,-18.066,-170.898
1687767909.851,-21.484,-42.480,-29.297,-10.742,-93.750
1687767909.855,-30.273,-36.133,-33.691,-13.672,-113.281
1687767909.859,-46.387,-32.715,-36.621,-25.879,-70.312
1687767909.863,-47.852,-28.320,-31.738,-38.086,-74.219
1687767909.867,-35.645,-25.391,-32.715,-30.762,-49.805
1687767909.871,-21.973,-19.043,-30.273,-20.508,42.969
1687767909.875,-22.461,-24.902,-37.109,-23.438,72.754
1687767909.878,-25.879,-24.414,-42.969,-20.996,346.191
1687767909.882,-39.062,-20.996,-44.434,-46.875,173.340
1687767909.886,-38.574,-27.832,-47.852,-62.012,-64.453
1687767909.890,-23.438,-36.133,-42.969,-44.434,-28.320
1687767909.894,-35.645,-41.992,-39.551,-35.645,-5.371
1687767909.896,-52.246,-36.133,-43.457,-50.781,-99.609
1687767909.900,-53.711,-29.785,-42.480,-56.641,-149.902
1687767909.904,-42.480,-39.062,-38.574,-47.852,-46.387
1687767909.908,-27.344,-32.715,-36.621,-43.457,-35.156
1687767909.912,-31.738,-21.973,-39.551,-41.016,-93.750
1687767909.916,-43.945,-39.062,-44.434,-39.551,-36.133
1687767909.920,-51.270,-38.574,-42.480,-41.504,165.527
1687767909.923,-47.363,-26.367,-41.992,-47.363,98.145
1687767909.927,-39.551,-25.879,-43.945,-53.223,-137.695
1687767909.931,-39.062,-19.531,-34.668,-46.875,-25.879
1687767909.935,-50.293,-20.508,-29.297,-39.062,46.875
1687767909.939,-61.523,-35.645,-34.180,-56.152,-166.504
1687767909.941,-46.387,-39.062,-32.715,-50.781,-231.934
1687767909.945,-16.113,-33.203,-31.738,-40.527,-124.512
1687767909.949,-18.066,-29.785,-36.133,-42.480,-76.660
1687767909.953,-37.109,-31.738,-38.086,-47.852,-133.789
1687767909.957,-54.199,-33.203,-42.969,-60.547,-161.621
1687767909.961,-59.082,-36.133,-41.016,-59.082,-75.684
1687767909.965,-44.434,-35.645,-34.668,-52.246,40.039
1687767909.968,-32.715,-27.344,-37.598,-55.176,32.227
1687767909.972,-29.785,-24.414,-30.762,-54.688,-109.375
1687767909.976,-45.410,-29.785,-30.273,-53.223,-47.363
1687767909.980,-55.176,-29.785,-34.668,-47.363,254.883
1687767909.984,-41.016,-39.551,-42.480,-52.734,168.457
1687767909.987,-21.973,-48.340,-42.480,-55.664,-85.449
1687767909.991,-24.902,-40.527,-28.809,-45.898,-62.988
1687767909.995,-40.039,-37.598,-31.738,-53.711,-54.688
1687767909.999,-39.062,-34.180,-40.039,-55.664,-186.523
1687767910.003,-5.859,-23.438,-42.969,-39.062,-165.527
1687767910.007,8.789,-22.461,-32.227,-26.855,74.707
1687767910.011,-23.926,-26.855,-26.367,-39.062,118.652
1687767910.014,-43.945,-28.809,-23.926,-48.828,-83.008
1687767910.018,-36.133,-28.809,-14.160,-52.734,-146.973
1687767910.022,-20.508,-29.297,-13.184,-40.039,95.215
1687767910.026,-14.648,-37.598,-16.113,-43.457,32.227
1687767910.030,-14.160,-44.922,-15.137,-52.734,-179.688
1687767910.046,-21.973,-43.945,-9.277,-39.062,-131.836
1687767910.050,-48.828,-46.875,-9.277,-49.316,-42.480
1687767910.054,-36.133,-45.410,-7.324,-40.039,-98.633
1687767910.058,-19.531,-41.992,-0.977,-29.785,-244.141
1687767910.062,-31.738,-44.922,1.465,-25.879,-129.395
1687767910.066,-40.527,-48.828,-0.977,-20.996,173.340
1687767910.070,-44.434,-48.828,-4.883,-31.250,92.773
1687767910.073,-43.945,-45.898,0.488,-31.250,-185.547
1687767910.077,-27.832,-48.340,2.930,-17.578,-138.184
1687767910.081,-23.438,-48.340,-0.488,-12.207,207.520
1687767910.085,-36.133,-43.457,-0.977,-31.738,55.176
1687767910.089,-40.527,-40.039,12.207,-39.062,-189.941
1687767910.091,-31.250,-41.504,17.090,-19.043,-124.023
1687767910.095,-17.578,-41.504,10.254,-11.719,-91.797
1687767910.099,-18.066,-40.039,14.160,-20.508,-86.914
1687767910.103,-38.574,-52.246,12.695,-29.297,-77.148
1687767910.107,-60.059,-58.594,0.488,-29.785,-28.809
1687767910.111,-58.594,-53.711,-1.953,-31.738,-14.648
1687767910.115,-40.527,-54.199,0.000,-34.668,-25.391
1687767910.118,-28.809,-52.734,-1.953,-36.133,-89.355
1687767910.122,-31.738,-45.410,4.883,-36.621,77.637
1687767910.126,-47.852,-53.711,4.883,-48.340,91.309
1687767910.130,-51.758,-54.199,-3.906,-46.875,-99.121
1687767910.134,-36.621,-46.875,-7.812,-34.668,-116.699
1687767910.136,-38.574,-46.875,-5.371,-43.945,-85.449
1687767910.140,-53.711,-52.734,2.930,-55.664,-135.742
1687767910.144,-61.035,-61.035,3.418,-62.012,-253.906
1687767910.148,-54.199,-54.199,6.348,-45.898,-183.105
1687767910.152,-27.344,-45.410,12.207,-27.832,-90.820
1687767910.156,-24.414,-46.387,-4.883,-28.809,-34.180
1687767910.160,-40.039,-47.363,-9.277,-39.062,-15.137
1687767910.163,-55.176,-46.387,5.371,-49.805,16.113
1687767910.167,-65.430,-48.828,4.883,-34.180,296.875
1687767910.171,-57.129,-52.246,-4.883,-27.344,229.004
1687767910.175,-45.410,-45.898,-12.695,-43.945,-68.848
1687767910.179,-51.270,-42.969,-14.160,-54.688,-59.082
1687767910.181,-66.406,-41.992,0.488,-61.035,-42.969
1687767910.185,-68.848,-40.039,3.418,-58.594,-103.027
1687767910.189,-48.828,-38.574,-8.301,-45.410,-124.512
1687767910.193,-40.039,-33.203,-5.859,-36.133,-69.824
1687767910.197,-44.922,-35.156,-6.348,-38.086,-138.672
1687767910.201,-55.664,-37.598,-8.301,-43.457,-170.898
1687767910.205,-62.988,-39.551,-5.859,-55.664,-74.707
1687767910.208,-48.340,-36.621,-10.742,-49.316,167.480
1687767910.212,-31.738,-34.668,-23.438,-34.668,398.438
1687767910.216,-45.898,-33.203,-24.414,-37.109,-1.953
1687767910.220,-69.824,-34.180,-19.043,-44.922,-177.734
1687767910.224,-68.848,-36.133,-12.207,-52.734,-53.711
1687767910.225,-53.711,-40.527,-10.254,-51.758,-203.613
1687767910.229,-45.898,-37.109,-16.113,-43.457,-265.137
1687767910.233,-53.223,-34.180,-19.043,-49.316,-235.352
1687767910.237,-66.406,-39.551,-26.855,-49.316,-205.078
1687767910.241,-68.359,-39.062,-36.621,-36.133,-135.742
1687767910.245,-65.430,-37.109,-38.086,-47.852,-58.594
1687767910.249,-57.129,-41.504,-31.250,-60.059,44.922
1687767910.252,-58.594,-44.922,-16.113,-51.270,261.719
1687767910.256,-72.266,-45.410,-18.066,-56.641,126.953
1687767910.260,-83.008,-45.898,-28.809,-70.312,-111.328
1687767910.264,-79.102,-41.016,-32.715,-59.082,42.969
1687767910.268,-62.012,-42.480,-29.297,-39.551,238.770
1687767910.271,-50.781,-37.598,-24.902,-31.250,-62.988
1687767910.275,-54.688,-30.273,-31.250,-39.551,-222.168
1687767910.279,-61.523,-36.133,-37.598,-55.176,-144.531
1687767910.283,-66.406,-39.062,-37.598,-52.246,-141.602
1687767910.287,-58.105,-35.645,-30.762,-34.668,-116.699
1687767910.291,-42.969,-31.738,-32.715,-26.855,-77.148
1687767910.295,-43.945,-35.645,-40.527,-30.273,204.590
1687767910.298,-52.734,-38.086,-29.297,-35.645,189.941
1687767910.302,-53.711,-34.668,-27.832,-43.945,-178.711
1687767910.306,-38.086,-31.250,-31.738,-35.645,-139.648
1687767910.310,-27.832,-27.832,-34.180,-30.762,-51.270
1687767910.314,-42.480,-31.738,-32.715,-31.250,-138.184
1687767910.317,-59.082,-38.086,-27.832,-36.133,-175.781
1687767910.321,-48.828,-34.668,-35.156,-32.715,-91.797
1687767910.325,-36.621,-28.320,-46.387,-7.812,-9.277
1687767910.329,-28.809,-22.949,-34.180,-6.348,-105.957
1687767910.333,-33.203,-21.973,-24.414,-14.648,-203.125
1687767910.337,-56.641,-24.902,-33.691,-11.230,-97.656
1687767910.341,-63.477,-31.250,-32.227,-9.766,95.215
1687767910.344,-42.969,-34.668,-25.391,-13.184,10.742
1687767910.348,-22.461,-28.320,-36.621,-13.672,-147.949
1687767910.352,-33.691,-26.855,-45.410,-7.812,-60.547
1687767910.356,-60.059,-29.297,-33.691,-4.395,207.031
1687767910.360,-64.453,-31.250,-29.297,-14.160,4.395
1687767910.376,-48.340,-38.086,-34.668,-23.438,-181.641
1687767910.380,-32.227,-40.527,-38.574,-20.996,-56.152
1687767910.384,-37.598,-31.250,-32.715,-25.879,-104.492
1687767910.388,-56.152,-27.344,-35.645,-36.621,-148.438
1687767910.392,-59.082,-32.227,-39.551,-44.434,-122.559
1687767910.396,-53.223,-34.668,-35.156,-31.738,133.789
1687767910.400,-45.410,-36.621,-37.109,-8.301,224.121
1687767910.403,-49.316,-39.551,-44.434,-18.555,-93.750
1687767910.407,-55.664,-38.086,-44.922,-37.598,-133.789
1687767910.411,-51.758,-35.645,-40.527,-34.180,44.434
1687767910.415,-40.527,-42.969,-39.551,-20.020,-20.020
1687767910.419,-30.762,-38.574,-38.574,-18.555,-133.301
1687767910.421,-27.344,-27.344,-35.156,-20.508,-129.883
1687767910.425,-46.875,-28.320,-25.391,-28.809,-17.578
1687767910.429,-68.359,-38.574,-24.414,-35.645,-58.594
1687767910.433,-44.922,-49.316,-24.414,-9.766,-79.102
1687767910.437,-13.184,-49.316,-23.438,5.859,-60.547
1687767910.441,-19.531,-20.508,-35.156,-12.207,-37.598
1687767910.445,-40.039,-8.789,-42.969,-25.391,70.801
1687767910.448,-44.434,-23.438,-44.434,-36.133,24.414
1687767910.452,-39.551,-23.926,-52.734,-36.133,0.000
1687767910.456,-26.855,-23.926,-59.082,-23.438,418.945
1687767910.460,-17.578,-24.902,-63.965,-24.902,377.441
1687767910.464,-45.898,-20.508,-66.895,-53.223,-41.992
1687767910.466,-69.336,-19.531,-66.406,-72.266,5.371
1687767910.470,-53.711,-20.020,-68.359,-70.312,-20.996
1687767910.474,-29.785,-19.531,-70.801,-57.617,-114.258
1687767910.478,-21.973,-16.602,-67.871,-57.617,-87.891
1687767910.482,-38.574,-17.090,-79.102,-74.219,-36.621
1687767910.486,-54.199,-26.855,-87.891,-71.289,-7.812
1687767910.490,-45.410,-31.738,-93.750,-70.312,-45.898
1687767910.493,-33.691,-29.785,-101.074,-68.848,-131.836
1687767910.497,-33.203,-29.297,-99.121,-54.199,81.055
1687767910.501,-46.875,-26.367,-93.262,-62.012,294.434
1687767910.505,-49.805,-20.508,-94.727,-81.055,-46.875
1687767910.509,-46.875,-19.531,-93.262,-85.449,-155.273
1687767910.511,-36.621,-12.695,-85.449,-81.055,16.602
1687767910.515,-21.484,-3.418,-83.008,-69.336,-47.363
1687767910.519,-22.949,-11.719,-94.727,-79.102,-168.457
1687767910.523,-38.086,-23.438,-101.562,-83.008,-154.297
1687767910.527,-48.828,-24.414,-100.586,-79.590,-86.914
1687767910.531,-39.062,-16.113,-95.215,-80.078,-38.574
1687767910.535,-32.715,-18.066,-94.238,-89.844,-96.680
1687767910.538,-39.551,-28.809,-99.609,-100.586,-102.051
1687767910.542,-39.551,-33.203,-95.215,-85.938,179.688
1687767910.546,-30.273,-27.832,-89.355,-73.242,110.840
1687767910.550,-19.531,-20.996,-83.984,-66.895,-129.395
1687767910.554,-4.395,-17.090,-72.266,-49.316,-6.348
1687767910.557,-10.254,-20.508,-72.266,-33.691,164.551
1687767910.561,-29.297,-25.391,-83.496,-48.828,-50.781
1687767910.565,-37.598,-27.832,-81.055,-62.500,-196.289
1687767910.569,-25.391,-28.809,-75.195,-57.129,-123.047
1687767910.573,-14.160,-32.715,-72.266,-44.434,-71.289
1687767910.577,-20.508,-41.016,-77.148,-37.109,-48.340
1687767910.581,-40.039,-33.691,-80.566,-50.293,46.387
1687767910.584,-47.852,-26.855,-74.707,-63.477,224.609
1687767910.588,-35.156,-25.391,-66.406,-58.105,143.066
1687767910.592,-17.578,-30.762,-62.988,-48.828,-125.488
1687767910.596,-20.020,-34.668,-65.918,-52.246,-118.652
1687767910.600,-35.645,-32.227,-65.430,-54.199,-37.598
1687767910.602,-40.039,-30.273,-60.059,-49.805,-52.246
1687767910.606,-31.250,-28.809,-57.129,-41.992,-176.758
1687767910.610,-20.996,-33.203,-59.570,-36.621,-107.910
1687767910.614,-18.555,-36.621,-63.965,-34.180,-28.320
1687767910.618,-26.367,-24.414,-56.641,-20.996,-99.121
1687767910.622,-28.809,-23.926,-49.316,-20.020,-66.895
1687767910.626,-30.273,-39.551,-56.641,-33.203,41.016
1687767910.629,-26.367,-41.016,-62.500,-29.785,281.250
1687767910.633,-22.949,-38.086,-60.547,-29.297,125.488
1687767910.637,-36.133,-35.156,-62.012,-37.598,-144.043
1687767910.641,-35.645,-27.344,-57.129,-33.691,-130.371
1687767910.645,-24.414,-31.738,-51.270,-28.809,-21.973
1687767910.646,-21.484,-38.086,-50.781,-28.320,-142.090
1687767910.650,-16.602,-27.344,-42.969,-18.066,-190.430
1687767910.654,-32.715,-27.832,-46.875,-25.879,-47.363
1687767910.658,-52.246,-37.109,-48.340,-40.527,-99.609
1687767910.662,-47.852,-36.621,-45.410,-36.133,-167.969
1687767910.666,-39.551,-40.039,-57.617,-45.410,-29.297
1687767910.670,-31.250,-35.156,-52.734,-41.016,270.020
1687767910.673,-32.715,-29.297,-48.828,-29.297,331.543
1687767910.677,-34.180,-21.484,-51.758,-45.898,-78.613
1687767910.681,-37.598,-22.949,-49.316,-54.688,-190.430
1687767910.685,-45.898,-29.297,-50.293,-38.574,-78.613
1687767910.689,-43.945,-24.414,-47.852,-24.902,-154.785
1687767910.690,-52.734,-29.297,-47.852,-39.551,-150.391
1687767910.694,-67.871,-37.109,-55.664,-51.270,-136.230
1687767910.698,-75.684,-38.574,-59.570,-53.223,-175.293
1687767910.702,-68.359,-35.156,-62.500,-56.152,-136.230
1687767910.706,-49.805,-29.785,-59.082,-54.688,-63.965
1687767910.710,-51.270,-34.668,-51.270,-53.223,36.621
1687767910.714,-65.430,-36.621,-45.410,-41.992,213.867
1687767910.717,-71.777,-36.621,-45.410,-38.574,116.211
1687767910.721,-62.500,-34.180,-49.805,-46.875,-146.973
1687767910.725,-54.688,-30.273,-47.852,-40.527,-23.438
1687767910.729,-70.801,-37.598,-47.363,-27.832,262.695
1687767910.733,-72.754,-54.688,-43.945,-24.902,-47.852
1687767910.750,-62.500,-50.293,-36.133,-25.391,-270.020
1687767910.754,-57.129,-27.344,-35.156,-37.109,-133.789
1687767910.758,-65.430,-27.344,-40.039,-55.664,-105.957
1687767910.762,-76.172,-28.320,-38.574,-45.898,-167.480
1687767910.766,-84.473,-36.133,-37.109,-44.922,-131.348
1687767910.770,-86.426,-39.551,-33.203,-55.176,44.922
1687767910.774,-83.008,-34.180,-38.574,-43.457,38.574
1687767910.777,-70.312,-34.668,-46.875,-36.621,-64.453
1687767910.781,-58.105,-33.203,-45.410,-41.016,-130.371
1687767910.785,-72.754,-33.203,-45.898,-38.086,93.750
1687767910.789,-87.891,-33.203,-44.434,-36.133,124.512
1687767910.793,-84.961,-32.227,-38.574,-35.156,-134.277
1687767910.795,-84.473,-31.738,-39.551,-41.016,-177.246
1687767910.799,-66.895,-23.438,-32.715,-34.668,-82.520
1687767910.803,-69.336,-23.926,-32.227,-45.898,-88.867
1687767910.807,-83.984,-34.668,-35.156,-58.105,-136.719
1687767910.811,-73.730,-27.832,-32.715,-41.016,-44.434
1687767910.815,-71.289,-25.879,-38.086,-38.086,80.566
1687767910.819,-70.312,-29.297,-40.039,-45.410,51.270
1687767910.822,-71.289,-27.832,-35.645,-53.711,-91.797
1687767910.826,-85.938,-36.621,-38.574,-61.035,-53.711
1687767910.830,-83.008,-48.340,-36.621,-41.016,298.828
1687767910.834,-64.941,-44.434,-28.809,-29.297,206.055
1687767910.838,-54.199,-32.715,-23.926,-35.156,-174.316
1687767910.840,-56.641,-28.809,-17.578,-31.250,-130.859
1687767910.844,-60.059,-26.855,-26.367,-31.250,118.164
1687767910.848,-63.965,-27.832,-37.109,-45.898,-77.637
1687767910.852,-48.828,-36.133,-27.832,-41.504,-214.355
1687767910.856,-26.367,-35.645,-24.902,-30.273,-89.355
1687767910.860,-27.344,-30.762,-34.180,-41.504,-34.668
1687767910.864,-41.016,-40.039,-34.668,-44.434,-34.180
1687767910.867,-40.039,-42.480,-28.809,-34.180,-89.844
1687767910.871,-26.367,-30.762,-29.297,-26.367,104.980
1687767910.875,-21.973,-26.367,-30.762,-35.156,101.562
1687767910.879,-18.066,-23.926,-29.785,-44.434,-170.898
1687767910.883,-22.461,-20.996,-33.203,-48.828,-154.785
1687767910.885,-32.715,-22.461,-29.297,-44.434,-33.203
1687767910.889,-28.809,-20.996,-29.297,-45.410,-107.422
1687767910.893,-16.602,-24.902,-29.297,-42.480,-140.137
1687767910.897,-25.391,-34.668,-30.762,-39.062,-118.652
1687767910.901,-46.387,-34.668,-37.598,-45.898,-77.637
1687767910.905,-52.246,-42.969,-35.156,-49.805,-106.934
1687767910.909,-40.039,-49.316,-26.367,-53.711,-90.820
1687767910.912,-20.020,-40.039,-25.879,-48.340,12.207
1687767910.916,-23.926,-27.344,-28.320,-35.156,227.539
1687767910.920,-36.133,-31.250,-27.344,-31.250,125.977
1687767910.924,-39.062,-40.039,-26.855,-44.434,-201.172
1687767910.928,-33.691,-32.715,-21.484,-50.293,-176.270
1687767910.931,-23.926,-33.691,-20.508,-44.922,-1.465
1687767910.935,-21.973,-43.945,-28.809,-41.992,-112.305
1687767910.939,-32.227,-42.480,-36.133,-43.945,-102.539
1687767910.943,-43.945,-32.715,-35.156,-41.504,59.570
1687767910.947,-23.438,-26.855,-32.715,-41.992,4.883
1687767910.951,-7.812,-23.926,-37.109,-35.645,-28.809
1687767910.955,-21.484,-28.320,-33.203,-29.297,35.156
1687767910.958,-30.762,-34.180,-38.574,-27.344,169.434
1687767910.962,-34.668,-29.297,-45.898,-22.461,121.094
1687767910.966,-27.832,-44.922,-38.574,-36.133,-151.367
1687767910.970,-13.672,-54.199,-30.273,-40.039,-182.129
1687767910.974,-13.184,-30.762,-31.250,-37.109,-133.789
1687767910.990,-20.020,-14.160,-30.273,-47.852,-183.105
1687767910.994,-29.297,-17.090,-28.809,-53.223,-233.887
1687767910.998,-27.832,-21.973,-31.250,-41.504,-160.156
1687767911.002,-14.648,-16.602,-25.391,-37.598,-25.879
1687767911.006,-23.926,-22.461,-26.367,-47.852,40.039
1687767911.010,-39.062,-26.855,-28.320,-55.664,-39.062
1687767911.014,-46.387,-32.227,-27.832,-58.594,25.391
1687767911.017,-45.410,-40.039,-32.227,-51.270,240.723
1687767911.021,-32.227,-30.762,-29.785,-48.340,105.957
1687767911.025,-30.273,-28.320,-30.273,-60.059,-58.594
1687767911.029,-41.504,-33.691,-30.273,-62.012,-42.969
1687767911.033,-49.316,-33.203,-29.297,-59.570,12.207
1687767911.020,-59.570,-38.574,-39.062,-74.219,-152.832
1687767911.024,-54.199,-42.969,-44.922,-73.242,-205.566
1687767911.028,-30.273,-38.086,-40.039,-53.711,-122.559
1687767911.032,-34.180,-35.156,-36.133,-50.781,-107.422
1687767911.036,-48.828,-31.250,-38.574,-61.035,-156.250
1687767911.040,-41.504,-32.227,-39.551,-61.035,-145.020
1687767911.044,-42.480,-39.551,-39.062,-61.035,-10.254
1687767911.047,-36.621,-35.645,-40.039,-57.129,38.574
1687767911.051,-34.180,-32.227,-41.504,-44.434,-33.691
1687767911.055,-49.316,-36.133,-32.227,-46.387,-116.699
1687767911.059,-52.734,-33.691,-25.391,-41.992,118.164
1687767911.063,-41.992,-25.391,-26.367,-32.715,206.055
1687767911.065,-30.273,-21.484,-22.461,-34.668,-78.125
1687767911.069,-40.527,-33.691,-21.973,-37.109,-125.000
1687767911.073,-41.016,-36.133,-29.785,-40.527,-86.914
1687767911.077,-41.504,-19.531,-32.715,-41.016,-132.324
1687767911.081,-45.898,-15.137,-26.367,-41.992,-164.551
1687767911.085,-34.180,-20.508,-29.297,-44.922,13.184
1687767911.089,-27.832,-17.090,-37.598,-43.457,207.031
1687767911.092,-41.504,-21.973,-32.715,-47.363,1.953
1687767911.096,-48.340,-23.438,-32.227,-50.781,-117.188
1687767911.100,-42.969,-20.508,-39.551,-48.340,70.312
1687767911.104,-30.273,-26.855,-32.715,-32.715,373.535
1687767911.108,-23.926,-39.062,-32.227,-35.156,141.602
1687767911.125,-36.133,-40.039,-39.062,-49.805,-197.266
1687767911.129,-38.086,-20.996,-38.574,-48.828,-119.629
1687767911.133,-26.855,-9.766,-40.527,-38.574,-113.770
1687767911.137,-23.438,-20.020,-40.527,-35.645,-162.109
1687767911.141,-23.926,-38.086,-37.598,-38.086,-89.844
1687767911.145,-25.879,-36.133,-35.156,-31.738,13.184
1687767911.149,-33.691,-24.414,-36.133,-38.086,-25.879
1687767911.152,-20.996,-22.949,-39.551,-41.992,-108.887
1687767911.156,-2.930,-32.227,-41.504,-23.926,-110.840
1687767911.160,-13.184,-41.016,-27.832,-21.973,90.332
1687767911.164,-42.969,-41.504,-18.066,-47.852,89.355
1687767911.168,-40.527,-38.086,-23.438,-49.805,-105.469
1687767911.170,-37.109,-33.203,-21.973,-28.809,-64.941
1687767911.174,-35.645,-37.109,-21.484,-37.109,59.082
1687767911.178,-28.809,-41.504,-20.996,-35.156,5.859
1687767911.182,-41.992,-52.734,-20.020,-24.414,-112.793
1687767911.186,-45.410,-54.688,-19.043,-31.250,-134.277
1687767911.190,-42.969,-47.363,-22.461,-36.621,-63.965
1687767911.194,-38.574,-49.316,-24.414,-36.621,-10.742
1687767911.197,-38.086,-55.664,-10.742,-29.297,-96.680
1687767911.201,-51.270,-55.664,-6.836,-33.691,-20.996
1687767911.205,-48.828,-54.688,-2.930,-33.203,360.352
1687767911.209,-50.781,-61.523,-3.418,-22.949,186.523
1687767911.213,-46.387,-56.152,-8.301,-31.250,-160.645
1687767911.216,-26.367,-47.363,4.395,-30.273,-112.305
1687767911.220,-37.598,-47.363,7.324,-26.367,-73.242
1687767911.224,-58.105,-53.223,-16.113,-30.273,-52.734
1687767911.228,-47.363,-59.082,-10.254,-28.320,-77.148
1687767911.232,-36.621,-57.617,8.301,-25.391,7.324
1687767911.236,-30.273,-50.781,6.836,-21.484,62.988
1687767911.240,-27.344,-51.270,2.441,-16.602,39.062
1687767911.243,-45.898,-52.246,1.953,-25.391,-149.902
1687767911.247,-49.316,-47.852,2.930,-21.973,9.766
1687767911.251,-46.387,-51.758,2.441,-20.508,105.957
1687767911.255,-58.594,-58.105,0.977,-18.066,-143.066
1687767911.259,-52.734,-48.340,6.348,-25.879,-46.875
1687767911.260,-59.570,-44.922,7.324,-42.480,-35.156
1687767911.264,-68.359,-46.875,0.000,-33.203,-167.480
1687767911.268,-57.617,-47.363,-4.395,-38.086,-170.898
1687767911.272,-47.852,-54.688,7.812,-36.621,-41.016
1687767911.276,-43.457,-58.105,5.859,-21.973,37.109
1687767911.280,-62.012,-52.734,-3.906,-43.457,33.691
1687767911.284,-75.195,-47.852,-1.953,-50.293,-18.555
1687767911.287,-49.316,-48.828,-8.789,-37.598,-62.500
1687767911.291,-30.273,-54.688,-10.254,-23.926,263.672
1687767911.295,-33.691,-51.270,-11.230,-25.391,193.359
1687767911.299,-42.969,-46.875,-12.695,-31.250,-150.391
1687767911.303,-55.176,-41.992,-7.812,-36.133,-102.539
1687767911.305,-51.270,-35.156,5.371,-42.969,-86.914
1687767911.309,-40.527,-36.621,12.695,-40.527,-203.613
1687767911.313,-35.645,-41.016,-1.465,-41.504,-193.359
1687767911.317,-54.199,-39.062,-7.324,-38.086,-127.441
1687767911.321,-69.824,-40.527,-1.465,-44.922,-129.395
1687767911.325,-64.941,-44.434,-3.418,-54.199,-120.605
1687767911.329,-48.828,-41.504,-10.742,-45.410,-67.383
1687767911.332,-39.062,-44.434,-12.207,-27.832,250.488
1687767911.336,-59.570,-49.805,-17.578,-31.738,337.891
1687767911.340,-67.871,-45.898,-25.879,-66.406,-49.805
1687767911.344,-53.711,-41.992,-17.090,-68.848,-67.383
1687767911.348,-39.062,-37.598,-5.371,-51.270,-56.152
1687767911.350,-40.039,-39.551,-16.113,-50.781,-132.324
1687767911.354,-49.805,-41.016,-31.738,-59.082,-108.398
1687767911.358,-49.316,-36.621,-35.156,-56.641,-74.219
1687767911.362,-45.410,-42.480,-29.785,-48.340,10.742
1687767911.366,-48.340,-47.852,-24.902,-50.293,-18.066
1687767911.370,-43.945,-45.898,-32.227,-53.223,-34.668
1687767911.374,-38.574,-45.410,-39.551,-55.176,54.199
1687767911.377,-51.270,-41.992,-32.227,-56.152,232.910
1687767911.381,-47.852,-38.574,-27.832,-61.523,-18.555
1687767911.385,-37.598,-45.410,-28.320,-62.012,-165.039
1687767911.389,-38.574,-46.875,-27.832,-59.570,-5.859
1687767911.393,-42.969,-43.457,-29.297,-59.082,163.086
1687767911.395,-52.246,-40.527,-30.762,-62.988,-54.199
1687767911.399,-59.082,-39.062,-34.180,-57.617,-165.039
1687767911.403,-52.246,-40.039,-43.457,-55.664,-19.531
1687767911.407,-34.668,-32.715,-35.645,-60.059,-94.238
1687767911.411,-20.508,-31.738,-25.391,-44.922,-151.367
1687767911.415,-35.645,-35.645,-37.598,-55.176,-40.039
1687767911.419,-53.711,-38.574,-32.715,-58.594,185.059
1687767911.422,-45.410,-48.340,-21.484,-40.527,217.285
1687767911.426,-35.156,-46.387,-28.809,-53.711,-67.871
1687767911.430,-29.785,-35.645,-36.133,-69.336,-140.137
1687767911.434,-22.949,-29.785,-20.996,-61.523,-47.363
1687767911.438,-24.902,-31.250,-15.625,-61.035,-6.836
1687767911.441,-29.297,-34.668,-30.762,-68.848,-153.320
1687767911.445,-22.461,-40.039,-28.809,-67.871,-193.359
1687767911.449,-24.414,-38.086,-24.902,-52.734,-61.035
1687767911.453,-41.016,-30.762,-28.809,-57.129,-125.977
1687767911.457,-58.105,-32.715,-29.297,-72.266,-196.289
1687767911.461,-54.199,-39.551,-24.902,-67.383,-32.227
1687767911.465,-43.945,-46.875,-31.250,-54.688,151.855
1687767911.468,-40.527,-42.969,-39.062,-55.176,1.465
1687767911.472,-44.434,-34.180,-40.527,-68.359,-197.266
1687767911.476,-56.152,-38.086,-42.969,-67.383,-43.945
1687767911.480,-51.270,-41.016,-43.457,-52.246,220.215
1687767911.484,-28.320,-36.621,-42.969,-45.898,-33.203
1687767911.500,-24.902,-34.668,-39.062,-50.293,-168.945
1687767911.504,-42.480,-40.039,-32.227,-63.965,45.410
1687767911.508,-53.223,-40.039,-26.367,-77.637,3.418
1687767911.512,-42.480,-38.086,-30.762,-83.008,-144.043
1687767911.516,-28.809,-42.480,-37.109,-87.402,-146.973
1687767911.520,-32.227,-43.457,-37.598,-81.055,16.113
1687767911.524,-40.039,-41.016,-38.086,-65.430,75.684
1687767911.527,-40.039,-33.203,-33.203,-62.500,-85.449
1687767911.531,-35.156,-30.762,-34.180,-67.383,-129.883
1687767911.535,-28.320,-34.180,-34.668,-58.594,47.852
1687767911.539,-26.367,-37.109,-34.180,-62.012,10.254
1687767911.543,-29.785,-40.039,-44.434,-76.172,-152.344
1687767911.545,-28.320,-42.969,-41.016,-72.266,-93.262
1687767911.549,-34.180,-46.387,-35.156,-74.707,-47.363
1687767911.553,-33.203,-44.434,-34.668,-71.777,-122.559
1687767911.557,-25.879,-43.457,-29.785,-56.152,-138.184
1687767911.561,-35.156,-40.039,-21.484,-62.988,-19.531
1687767911.565,-45.898,-33.203,-17.090,-71.289,236.816
1687767911.569,-34.668,-26.855,-21.973,-74.707,66.406
1687767911.572,-25.879,-33.691,-25.391,-77.637,-201.172
1687767911.576,-20.020,-40.039,-23.438,-60.547,-19.531
1687767911.580,-23.438,-33.691,-29.297,-54.199,348.633
1687767911.584,-55.664,-31.250,-39.062,-70.312,162.109
1687767911.588,-68.359,-31.250,-37.598,-74.707,-123.047
1687767911.590,-48.828,-28.809,-35.156,-68.848,-140.137
1687767911.594,-38.574,-27.832,-33.691,-65.918,-152.344
1687767911.598,-39.062,-28.320,-31.738,-72.754,-182.617
1687767911.602,-50.781,-34.668,-29.297,-75.195,-188.477
1687767911.606,-47.363,-31.250,-26.367,-66.895,-90.332
1687767911.610,-41.992,-29.785,-30.273,-66.895,-20.020
1687767911.614,-50.293,-47.363,-32.715,-62.988,-64.941
1687767911.617,-41.016,-59.082,-34.668,-46.387,-59.082
1687767911.621,-29.785,-58.594,-27.344,-20.996,153.320
1687767911.625,-36.621,-41.016,-35.156,-24.414,251.953
1687767911.629,-30.273,-23.438,-55.176,-55.176,-86.426
1687767911.633,-18.066,-20.508,-51.758,-46.875,-101.074
1687767911.635,-27.344,-23.926,-52.734,-42.480,-27.344
1687767911.639,-36.133,-23.926,-56.152,-51.758,-159.180
1687767911.643,-40.039,-20.020,-53.711,-46.387,-208.008
1687767911.647,-30.762,-19.531,-55.664,-37.598,-149.414
1687767911.651,-14.160,-28.320,-61.523,-45.410,-43.457
1687767911.655,-18.555,-26.855,-68.848,-60.547,-14.648
1687767911.659,-39.062,-24.414,-75.195,-62.988,-47.363
1687767911.662,-38.086,-28.320,-79.590,-53.711,-69.824
1687767911.666,-23.926,-22.461,-75.684,-26.855,242.676
1687767911.670,-23.438,-21.973,-75.684,-29.297,151.367
1687767911.674,-10.254,-20.996,-84.473,-43.945,-146.973
1687767911.678,-20.020,-18.066,-91.797,-42.969,-105.469
1687767911.680,-43.457,-26.855,-95.215,-49.805,15.137
1687767911.684,-33.203,-24.414,-94.238,-71.777,-142.578
1687767911.688,-22.461,-18.555,-89.844,-75.684,-209.961
1687767911.692,-18.066,-22.461,-79.590,-47.852,-20.508
1687767911.696,-21.973,-16.113,-74.707,-37.598,7.812
1687767911.700,-42.969,-17.090,-87.402,-58.105,-65.918
1687767911.704,-30.273,-22.461,-91.309,-58.594,1.465
1687767911.707,-10.254,-19.043,-87.402,-38.086,174.316
1687767911.711,-8.789,-11.230,-82.520,-30.273,141.602
1687767911.715,-21.973,-10.742,-83.496,-50.781,-184.570
1687767911.719,-35.156,-12.207,-82.031,-65.918,-190.430
1687767911.723,-32.715,-20.508,-83.984,-69.336,-15.625
1687767911.725,-20.020,-26.855,-87.891,-60.059,-164.551
1687767911.729,-18.066,-25.879,-87.891,-45.898,-198.730
1687767911.733,-28.320,-22.461,-81.055,-55.176,-67.871
1687767911.737,-30.273,-18.066,-69.824,-60.547,-76.172
1687767911.741,-24.902,-22.461,-62.988,-49.316,-95.703
1687767911.745,-10.254,-16.113,-59.570,-31.250,-42.969
1687767911.749,-8.301,-14.648,-57.129,-31.250,114.258
1687767911.752,-14.648,-20.996,-58.594,-29.785,323.730
1687767911.756,-31.250,-18.066,-57.129,-32.715,149.414
1687767911.760,-43.457,-19.043,-51.270,-38.574,2.441
1687767911.764,-29.785,-24.902,-49.805,-34.180,90.820
1687767911.768,-14.160,-23.926,-50.293,-28.320,91.797
1687767911.771,-16.602,-21.484,-51.270,-26.367,-54.199
1687767911.775,-25.391,-19.531,-53.711,-26.367,-95.215
1687767911.779,-25.879,-20.020,-55.176,-25.391,-28.809
1687767911.783,-25.391,-32.715,-53.711,-23.926,-85.449
1687767911.787,-16.113,-33.691,-52.246,-24.414,-247.070
1687767911.791,-16.113,-21.484,-54.688,-25.879,-184.082
1687767911.795,-29.785,-25.879,-51.758,-17.090,85.449
1687767911.798,-33.203,-32.715,-52.246,-21.484,72.266
1687767911.802,-31.250,-41.504,-58.594,-30.273,-169.434
1687767911.806,-19.043,-45.410,-54.688,-24.902,-197.266
1687767911.810,-15.625,-37.109,-47.852,-29.785,-103.516
1687767911.814,-34.180,-29.785,-46.875,-37.598,-155.273
1687767911.815,-40.527,-32.227,-47.852,-41.016,-165.039
1687767911.819,-29.785,-30.762,-47.852,-28.320,-150.391
1687767911.823,-20.020,-31.250,-49.805,-17.578,-174.805
1687767911.827,-28.809,-42.969,-52.246,-34.180,-176.758
1687767911.831,-38.574,-36.133,-48.340,-44.434,-235.352
1687767911.835,-47.363,-28.809,-45.898,-42.969,-140.137
1687767911.839,-51.270,-27.832,-46.387,-37.109,210.938
1687767911.842,-34.668,-24.902,-42.969,-38.574,79.590
1687767911.846,-15.137,-20.508,-33.203,-36.621,-184.082
1687767911.850,-20.508,-20.508,-33.691,-38.574,8.301
1687767911.854,-39.062,-32.227,-42.480,-43.945,156.250
1687767911.858,-41.992,-36.133,-40.527,-40.039,-57.129
1687767911.875,-33.203,-27.832,-47.363,-32.227,-172.363
1687767911.879,-25.391,-29.785,-50.293,-26.855,-108.887
1687767911.883,-26.367,-38.086,-36.621,-25.391,-127.441
1687767911.887,-46.387,-41.504,-34.668,-33.203,-123.047
1687767911.891,-36.133,-31.738,-41.016,-38.086,-37.598
1687767911.895,-26.367,-26.855,-35.156,-33.691,94.727
1687767911.899,-34.668,-31.738,-34.180,-29.785,57.617
1687767911.902,-40.039,-34.668,-39.551,-33.203,-31.250
1687767911.906,-52.734,-38.086,-39.062,-40.527,-54.199
1687767911.910,-54.199,-41.016,-49.316,-35.156,104.004
1687767911.914,-33.691,-34.668,-40.039,-19.043,155.762
1687767911.918,-10.742,-25.391,-25.391,-25.879,-49.805
1687767911.920,-18.555,-33.691,-36.133,-38.574,-100.098
1687767911.924,-38.574,-46.387,-48.340,-39.062,-78.125
1687767911.928,-41.016,-41.016,-47.363,-35.645,-102.051
1687767911.932,-26.855,-32.715,-41.016,-40.039,-146.973
1687767911.936,-25.391,-38.086,-41.016,-29.785,-81.543
1687767911.940,-30.273,-34.180,-41.016,-18.555,46.875
1687767911.944,-31.738,-30.273,-37.109,-31.250,-38.574
1687767911.947,-40.039,-35.156,-36.621,-39.062,-125.977
1687767911.951,-34.180,-36.621,-36.133,-30.273,-18.066
1687767911.955,-29.785,-34.180,-33.691,-19.531,339.844
1687767911.959,-33.203,-29.785,-34.180,-23.438,335.449
1687767911.963,-39.062,-31.250,-36.133,-34.668,-97.168
1687767911.965,-42.969,-34.180,-27.832,-50.293,-133.301
1687767911.969,-31.250,-29.297,-21.973,-46.875,-61.035
1687767911.973,-20.020,-34.180,-24.414,-32.227,-85.449
1687767911.977,-28.809,-35.156,-31.250,-35.156,-85.449
1687767911.981,-44.922,-29.297,-37.598,-44.434,-17.578
1687767911.985,-49.805,-35.645,-36.621,-41.504,-17.090
1687767911.989,-47.363,-37.109,-36.133,-41.504,-28.320
1687767911.992,-41.016,-35.156,-36.621,-49.316,-50.293
1687767911.996,-38.086,-34.668,-42.480,-43.457,127.441
1687767912.000,-47.852,-29.297,-35.645,-37.109,173.828
1687767912.004,-55.176,-28.320,-26.855,-45.410,-125.000
1687767912.008,-41.016,-31.250,-29.785,-31.738,-148.926
1687767912.010,-26.367,-26.855,-30.273,-12.695,43.945
1687767912.014,-22.949,-21.484,-23.926,-19.043,-36.133
1687767912.018,-36.133,-28.809,-18.555,-24.902,-151.855
1687767912.022,-47.852,-33.691,-24.414,-29.297,-142.090
1687767912.026,-41.992,-40.527,-34.180,-37.109,-91.797
1687767912.030,-31.738,-48.828,-45.898,-32.227,44.434
1687767912.034,-27.832,-42.480,-45.410,-31.250,-0.488
1687767912.037,-41.504,-42.480,-29.785,-30.273,-45.410
1687767912.041,-66.406,-29.297,-27.344,-19.531,230.469
1687767912.045,-58.594,-29.785,-34.180,-28.320,118.164
1687767912.049,-34.668,-38.086,-32.715,-26.855,-142.578
1687767912.053,-40.527,-31.250,-32.715,-19.531,-66.895
1687767912.056,-50.293,-29.297,-30.762,-14.160,69.824
1687767912.060,-59.570,-29.785,-29.785,-20.020,-63.477
1687767912.064,-55.664,-33.691,-28.320,-19.531,-177.734
1687767912.068,-47.363,-29.297,-32.715,-21.973,6.348
1687767912.072,-48.340,-25.391,-38.574,-31.738,21.484
1687767912.076,-52.734,-32.227,-37.109,-28.320,-106.934
1687767912.080,-65.430,-41.992,-42.969,-36.133,-56.152
1687767912.083,-64.941,-32.227,-34.668,-22.949,155.762
1687767912.087,-50.781,-24.414,-27.344,-7.324,174.316
1687767912.091,-45.898,-36.621,-40.527,-33.203,-99.121
1687767912.095,-56.641,-40.039,-48.828,-56.641,-138.672
1687767912.099,-81.543,-38.086,-50.781,-49.316,-87.891
1687767912.101,-88.379,-41.992,-43.457,-46.387,-137.695
1687767912.105,-78.125,-53.711,-47.852,-52.246,-114.258
1687767912.109,-74.219,-55.176,-61.035,-68.848,-61.523
1687767912.113,-82.520,-37.598,-52.246,-73.730,47.363
1687767912.117,-111.816,-38.574,-48.828,-90.332,-48.340
1687767912.121,-115.723,-45.410,-54.688,-99.609,-113.281
1687767912.125,-99.609,-39.551,-50.781,-89.844,22.949
1687767912.128,-102.051,-38.086,-50.781,-84.961,261.719
1687767912.132,-105.469,-41.992,-51.758,-99.121,104.980
1687767912.136,-107.910,-46.387,-55.176,-114.746,-135.254
1687767912.140,-106.934,-37.109,-54.688,-98.633,-87.402
1687767912.144,-94.238,-29.297,-49.316,-98.145,12.695
1687767912.145,-80.566,-37.598,-56.152,-114.258,-99.121
1687767912.149,-74.707,-26.855,-57.617,-108.398,-191.406
1687767912.153,-81.055,-24.902,-56.641,-91.309,-115.723
1687767912.157,-90.820,-37.109,-53.223,-94.727,-122.559
1687767912.161,-79.590,-32.715,-46.875,-102.051,-212.402
1687767912.165,-67.383,-38.086,-55.664,-107.910,-114.258
1687767912.169,-67.871,-46.387,-61.035,-103.027,264.160
1687767912.172,-87.402,-39.062,-61.523,-99.121,330.078
1687767912.176,-90.332,-38.086,-61.035,-102.539,-26.367
1687767912.180,-73.242,-47.363,-58.594,-98.145,-96.680
1687767912.184,-49.805,-42.480,-55.176,-85.449,-32.715
1687767912.188,-44.922,-40.039,-61.035,-93.750,-145.020
1687767912.190,-46.875,-33.691,-59.082,-90.820,-133.301
1687767912.194,-51.758,-28.809,-54.199,-81.543,-77.637
1687767912.198,-31.250,-35.645,-55.664,-66.406,-91.797
1687767912.202,-9.277,-28.320,-51.270,-56.641,-107.422
1687767912.206,-26.367,-23.926,-48.340,-58.594,-161.621
1687767912.210,-56.641,-33.203,-48.340,-54.199,-42.480
1687767912.214,-70.312,-34.668,-55.176,-59.082,175.293
1687767912.217,-59.082,-35.645,-55.664,-62.012,-1.465
1687767912.221,-33.203,-40.039,-47.852,-55.664,-176.270
1687767912.225,-4.395,-31.250,-42.969,-37.109,-13.184
1687767912.229,-1.465,-25.879,-48.828,-24.902,280.762
1687767912.233,-15.137,-37.109,-55.664,-32.227,56.641
1687767912.250,-9.277,-33.691,-50.293,-29.297,-193.359
1687767912.254,2.930,-33.691,-44.434,-20.508,-105.957
1687767912.258,7.324,-30.762,-46.875,-22.949,-66.895
1687767912.262,4.883,-21.484,-51.758,-31.250,-114.258
1687767912.266,-10.742,-24.414,-55.664,-41.504,-121.094
1687767912.270,1.465,-29.785,-56.152,-40.039,7.812
1687767912.274,18.555,-30.273,-50.293,-31.250,21.973
1687767912.277,24.414,-31.250,-57.129,-34.180,-28.320
1687767912.281,26.855,-30.762,-59.570,-38.574,-96.191
1687767912.285,-6.348,-32.715,-58.594,-45.410,166.016
1687767912.289,-19.043,-35.645,-59.082,-37.109,323.242
1687767912.293,4.395,-33.203,-53.223,-29.297,-75.684
1687767912.295,16.602,-27.832,-52.734,-30.762,-153.809
1687767912.299,3.906,-31.738,-56.641,-33.203,-106.934
1687767912.303,-15.625,-37.598,-62.988,-43.457,-129.395
1687767912.307,-9.277,-23.438,-61.523,-44.922,-120.605
1687767912.311,11.230,-14.648,-59.570,-40.039,-39.062
1687767912.315,17.090,-25.391,-64.453,-38.574,38.086
1687767912.319,8.301,-34.180,-54.199,-28.320,75.684
1687767912.322,-1.465,-31.250,-50.293,-24.902,-23.438
1687767912.326,-6.348,-31.738,-55.664,-33.691,-6.348
1687767912.330,2.930,-37.109,-54.199,-25.391,411.621
1687767912.334,18.066,-37.109,-50.781,-12.207,228.516
1687767912.338,15.625,-37.598,-49.316,-18.555,-130.859
1687767912.340,-1.465,-40.527,-53.711,-33.203,32.715
1687767912.344,-6.836,-39.551,-50.293,-26.367,47.852
1687767912.348,12.207,-39.062,-43.945,-27.344,-101.562
1687767912.352,30.762,-38.086,-49.316,-30.273,-84.961
1687767912.356,31.738,-27.832,-52.734,-29.785,21.484
1687767912.360,18.066,-26.367,-49.805,-39.062,71.289
1687767912.364,16.602,-13.672,-43.457,-33.691,2.441
1687767912.367,33.691,-3.418,-29.785,-18.555,-76.660
1687767912.371,39.062,-17.578,-41.992,-10.742,76.172
1687767912.375,31.250,-29.297,-51.270,-35.156,-4.883
1687767912.379,22.461,-22.461,-41.992,-43.945,-160.156
1687767912.383,9.277,-21.484,-56.641,-45.898,-102.051
1687767912.386,6.348,-27.832,-52.246,-39.551,102.539
1687767912.390,17.578,-14.160,-25.879,-24.414,27.832
1687767912.394,23.926,0.000,-18.555,-33.691,-51.270
1687767912.398,-2.930,-8.301,-33.691,-48.340,-7.324
1687767912.402,-27.344,-8.789,-36.133,-62.012,-0.488
1687767912.406,-27.344,0.488,-22.461,-73.242,-10.254
1687767912.410,-23.926,5.371,-14.648,-70.801,-9.277
1687767912.413,-41.992,0.488,-13.184,-82.520,62.012
1687767912.417,-58.105,5.371,-11.719,-87.891,276.855
1687767912.421,-67.871,17.578,-12.695,-99.609,181.152
1687767912.425,-84.473,20.020,-13.672,-119.629,-126.465
1687767912.429,-86.426,13.184,-12.207,-116.211,-121.094
1687767912.430,-77.148,1.953,-14.648,-121.094,5.859
1687767912.434,-90.820,-0.977,-14.160,-135.254,-132.324
1687767912.438,-100.098,14.160,-9.277,-132.812,-193.848
1687767912.442,-92.773,15.137,-10.254,-116.211,-144.531
1687767912.446,-105.469,0.977,-7.812,-113.770,-92.773
1687767912.450,-97.168,0.977,-10.742,-129.883,6.348
1687767912.454,-82.031,1.465,-19.531,-134.766,-48.340
1687767912.457,-112.305,2.930,-22.949,-134.766,83.984
1687767912.461,-121.094,11.230,-22.949,-137.207,253.906
1687767912.465,-91.797,10.742,-19.043,-138.184,-82.520
1687767912.469,-87.402,2.441,-22.461,-144.043,-178.223
1687767912.473,-97.656,-9.277,-25.879,-145.996,-57.617
1687767912.475,-105.469,-7.812,-22.461,-135.254,-85.938
1687767912.479,-103.516,5.859,-30.762,-145.996,-173.828
1687767912.483,-87.402,1.465,-33.691,-141.113,-110.352
1687767912.487,-69.824,-6.348,-28.320,-131.836,-48.340
1687767912.491,-77.637,-3.906,-22.461,-126.953,-113.770
1687767912.495,-107.910,-5.371,-23.926,-125.000,-59.570
1687767912.499,-120.605,-12.695,-24.902,-125.000,46.387
1687767912.502,-124.512,-15.625,-28.809,-104.004,275.391
1687767912.506,-114.746,-20.508,-30.762,-87.402,149.414
1687767912.510,-91.797,-26.367,-29.785,-84.961,-102.051
1687767912.514,-105.957,-28.809,-37.109,-70.312,47.852
1687767912.518,-137.695,-41.992,-42.969,-73.730,155.762
1687767912.520,-112.793,-46.387,-42.969,-76.172,-135.254
1687767912.524,-76.172,-42.480,-46.387,-61.523,-257.324
1687767912.528,-74.707,-45.410,-58.594,-63.965,-147.461
1687767912.532,-81.055,-44.922,-58.594,-72.266,-113.770
1687767912.536,-87.891,-53.711,-56.641,-60.059,-113.770
1687767912.540,-80.566,-62.012,-64.941,-43.457,-88.867
1687767912.544,-61.523,-52.246,-65.918,-30.273,172.363
1687767912.547,-54.199,-56.152,-69.336,-29.297,225.098
1687767912.551,-56.152,-62.500,-76.660,-32.715,-83.496
1687767912.555,-68.848,-58.594,-74.219,-29.297,-48.828
1687767912.559,-72.754,-59.570,-73.242,-23.438,62.012
1687767912.563,-48.340,-52.246,-72.266,-13.672,-107.422
1687767912.565,-35.156,-46.387,-72.754,-7.812,-234.375
1687767912.569,-52.734,-55.176,-75.684,-16.602,-160.156
1687767912.573,-68.359,-64.941,-76.172,-28.320,-85.449
1687767912.577,-61.035,-54.688,-78.613,-32.227,-71.777
1687767912.581,-43.945,-41.992,-73.730,-31.250,-139.160
1687767912.585,-41.016,-57.617,-70.312,-21.973,-82.031
1687767912.589,-35.156,-69.824,-64.941,2.930,191.895
1687767912.592,-31.738,-53.223,-60.547,-0.488,-66.895
1687767912.596,-40.527,-46.387,-68.359,-17.090,-241.699
1687767912.600,-35.156,-64.453,-69.824,-6.836,55.664
1687767912.604,-24.902,-61.523,-74.707,2.441,174.316
1687767912.608,-26.367,-50.781,-68.848,7.324,-0.977
1687767912.611,-30.273,-58.105,-58.105,10.742,-140.137
1687767912.615,-21.973,-48.340,-50.781,12.207,-79.590
1687767912.619,-14.160,-42.480,-50.781,10.742,-49.316
1687767912.623,-4.395,-41.504,-52.246,3.418,-162.598
1687767912.627,-5.371,-50.781,-56.152,7.324,-108.398
1687767912.631,-28.809,-62.988,-64.941,5.371,151.367
1687767912.635,-30.762,-48.340,-60.059,3.418,103.027
1687767912.638,-5.859,-41.504,-53.711,13.184,-98.145
1687767912.642,4.883,-50.293,-42.969,24.414,-127.441
1687767912.646,-2.441,-49.316,-38.086,30.273,70.312
1687767912.650,-19.531,-39.062,-44.434,19.531,58.594
1687767912.654,-28.809,-40.039,-46.387,0.488,-97.168
1687767912.671,-18.066,-46.387,-41.992,10.254,-113.281
1687767912.675,-9.766,-47.852,-42.480,12.207,-11.719
1687767912.679,-16.113,-46.387,-49.805,-8.789,53.711
1687767912.683,-34.180,-43.945,-52.734,-22.949,-136.719
1687767912.687,-37.598,-44.922,-54.199,-21.973,-125.977
1687767912.691,-22.461,-43.457,-52.246,2.930,229.980
1687767912.695,-13.672,-46.875,-47.363,14.160,118.164
1687767912.698,-9.766,-51.758,-41.992,17.578,-144.531
1687767912.702,-23.438,-44.434,-36.133,13.672,-69.336
1687767912.706,-43.457,-42.480,-34.668,11.230,326.172
1687767912.710,-36.133,-40.039,-33.691,12.695,148.926
1687767912.714,-31.250,-42.969,-45.410,2.441,-188.477
1687767912.715,-24.902,-48.828,-55.176,-12.695,-118.652
1687767912.719,-20.020,-39.551,-44.434,-13.672,-96.191
1687767912.723,-35.156,-30.762,-39.062,-5.859,-198.730
1687767912.727,-32.715,-24.414,-38.574,-7.324,-188.965
1687767912.731,-8.301,-25.879,-40.527,-1.465,25.391
1687767912.735,-6.836,-32.227,-37.109,6.836,51.270
1687767912.739,-16.602,-35.156,-33.203,3.418,-55.664
1687767912.742,-25.391,-38.574,-35.645,0.488,-95.215
1687767912.746,-25.879,-41.992,-39.062,1.465,62.988
1687767912.750,-6.836,-44.434,-39.062,4.395,119.141
1687767912.754,1.465,-43.945,-34.180,-0.488,-142.090
1687767912.758,-7.812,-35.645,-31.250,0.977,-124.023
1687767912.760,-36.133,-36.133,-36.133,-2.441,-111.328
1687767912.764,-49.805,-41.016,-41.016,1.953,-195.312
1687767912.768,-27.344,-44.434,-46.387,4.883,-138.672
1687767912.772,-19.531,-43.457,-47.852,3.418,-124.023
1687767912.776,-38.086,-38.574,-49.805,1.465,-84.961
1687767912.780,-49.316,-38.086,-47.852,-18.066,-78.125
1687767912.784,-37.109,-39.062,-44.922,-22.461,-111.328
1687767912.787,-26.855,-40.527,-43.457,-17.578,-20.020
1687767912.791,-34.668,-40.527,-38.086,-12.207,313.477
1687767912.795,-41.504,-35.156,-42.480,-19.531,274.414
1687767912.799,-37.598,-26.855,-50.781,-31.738,-99.609
1687767912.803,-28.809,-34.180,-47.363,-23.438,-101.562
1687767912.806,-16.602,-39.062,-28.809,-15.137,-25.391
1687767912.810,-22.461,-36.621,-18.066,-18.555,-132.324
1687767912.814,-41.016,-45.410,-14.160,-24.414,-115.234
1687767912.818,-45.898,-43.457,-7.324,-28.809,-53.711
1687767912.822,-47.852,-41.016,-3.906,-23.926,-89.844
1687767912.826,-53.223,-47.363,-6.836,-24.902,-38.086
1687767912.830,-37.109,-52.734,-5.371,-27.344,-16.602
1687767912.833,-43.457,-55.664,0.000,-15.625,120.117
1687767912.837,-66.895,-54.199,0.977,-16.602,136.230
1687767912.841,-68.848,-54.199,1.465,-20.996,-117.676
1687767912.845,-58.105,-61.523,1.465,-14.648,-145.996
1687767912.849,-47.363,-65.430,1.953,0.000,39.062
1687767912.866,-39.062,-62.988,1.465,-3.906,-16.602
1687767912.870,-56.152,-64.453,1.953,-18.066,-139.160
1687767912.874,-69.824,-60.547,7.812,-14.648,-82.520
1687767912.878,-49.316,-61.523,3.906,-8.789,-90.820
1687767912.882,-39.551,-61.035,-0.488,-7.812,-112.793
1687767912.886,-41.016,-55.664,9.277,-6.348,-30.273
1687767912.890,-40.039,-54.199,19.531,5.859,55.176
1687767912.893,-42.969,-54.688,24.902,12.695,177.734
1687767912.897,-43.457,-58.594,17.090,0.977,49.805
1687767912.901,-37.598,-58.105,12.695,-2.441,-88.867
1687767912.905,-33.691,-62.988,12.207,8.789,-74.707
1687767912.909,-44.922,-63.477,8.789,3.418,30.273
1687767912.896,-53.711,-56.152,12.695,-0.977,-129.883
1687767912.900,-40.039,-57.129,20.508,8.789,-216.797
1687767912.904,-17.090,-58.594,20.996,13.672,-36.133
1687767912.908,-18.555,-57.129,16.113,8.789,45.898
1687767912.912,-45.898,-59.082,4.883,-6.836,-72.754
1687767912.916,-57.617,-52.246,-4.395,-15.137,-27.344
1687767912.920,-53.223,-57.617,-4.883,-8.301,97.656
1687767912.923,-38.574,-61.523,8.301,7.812,3.418
1687767912.927,-24.414,-53.711,19.531,19.043,-76.172
1687767912.931,-17.578,-51.270,7.812,20.020,-82.031
1687767912.935,-25.879,-44.434,1.953,2.930,97.168
1687767912.939,-20.508,-34.180,0.488,-6.348,145.996
1687767912.943,8.301,-34.180,-6.348,-6.836,-120.117
1687767912.947,20.020,-43.457,-3.418,-15.625,-46.387
1687767912.951,11.230,-39.551,6.836,-21.973,33.203
1687767912.955,6.348,-34.668,0.977,-34.180,-146.973
1687767912.959,9.766,-41.992,-2.930,-42.969,-166.992
1687767912.963,17.090,-44.922,-1.465,-28.320,0.488
1687767912.967,17.090,-36.133,-1.465,-20.020,140.625
1687767912.970,15.625,-35.156,-4.883,-29.297,-42.480
1687767912.974,6.348,-41.992,-15.625,-38.574,-169.922
1687767912.978,1.465,-39.551,-16.113,-30.273,25.391
1687767912.982,11.719,-35.156,-11.719,-18.066,69.824
1687767912.986,19.531,-37.598,-7.324,-23.438,-106.934
1687767913.001,15.137,-37.109,-13.184,-27.344,-188.477
1687767913.005,-3.906,-38.574,-30.273,-26.855,-33.203
1687767913.009,-6.836,-40.527,-28.320,-30.762,119.629
1687767913.013,10.742,-34.180,-18.555,-30.273,-16.113
1687767913.017,23.438,-33.691,-17.578,-28.809,-112.793
1687767913.021,29.297,-36.621,-21.484,-18.066,136.719
1687767913.025,18.066,-35.156,-22.461,-27.832,267.578
1687767913.028,-7.324,-39.551,-23.926,-49.316,-141.602
1687767913.032,-7.812,-40.039,-22.461,-34.668,-291.016
1687767913.036,2.930,-41.504,-22.949,-24.902,-34.180
1687767913.040,-1.465,-44.922,-18.066,-39.062,-91.797
1687767913.044,-11.230,-43.945,-12.695,-53.711,-214.355
1687767913.046,-10.254,-42.969,-21.973,-62.500,-136.230
1687767913.050,-3.906,-44.922,-24.414,-52.734,-73.730
1687767913.054,2.441,-46.387,-31.250,-39.062,-128.418
1687767913.058,2.930,-43.945,-38.574,-42.969,-168.945
1687767913.062,-2.441,-40.039,-27.344,-45.898,-142.578
1687767913.066,-16.113,-36.621,-25.879,-52.734,-91.309
1687767913.070,-17.090,-38.086,-29.297,-58.594,-36.621
1687767913.073,5.371,-30.762,-20.996,-38.574,-57.129
1687767913.077,12.207,-35.645,-23.438,-30.273,-25.879
1687767913.081,0.488,-44.434,-35.645,-39.551,347.656
1687767913.085,-17.578,-43.945,-32.227,-41.992,342.773
1687767913.089,-24.902,-41.992,-21.973,-36.621,-82.031
1687767913.091,-10.254,-37.598,-24.414,-37.598,-140.625
1687767913.095,3.906,-33.203,-25.879,-38.574,-110.840
1687767913.099,0.977,-37.109,-23.926,-34.668,-144.531
1687767913.103,-9.766,-30.762,-23.438,-34.180,-153.809
1687767913.107,-0.977,-19.531,-30.273,-31.738,-91.309
1687767913.111,7.324,-22.461,-28.320,-18.066,31.250
1687767913.115,21.484,-28.809,-20.996,-10.254,-17.578
1687767913.118,19.531,-32.715,-24.414,-32.227,-161.621
1687767913.122,-7.812,-36.621,-26.855,-25.879,186.035
1687767913.126,-13.184,-41.016,-28.809,-9.766,344.238
1687767913.130,2.930,-38.086,-28.320,-27.832,-9.277
1687767913.134,11.230,-27.344,-19.043,-23.438,-113.770
1687767913.136,1.953,-32.227,-19.043,-12.695,22.949
1687767913.140,-9.766,-31.250,-26.367,-24.414,-9.277
1687767913.144,0.977,-26.855,-29.297,-41.992,-99.121
1687767913.148,3.418,-32.715,-26.855,-35.645,-94.238
1687767913.152,-2.441,-35.156,-25.391,-13.184,-41.016
1687767913.156,-3.906,-41.504,-27.344,-10.742,-13.672
1687767913.160,-16.602,-43.945,-29.297,-25.391,-60.547
1687767913.163,-34.668,-46.875,-41.992,-36.133,-26.855
1687767913.167,-29.297,-39.062,-33.203,-26.855,206.055
1687767913.171,-18.555,-34.180,-18.066,-13.184,145.508
1687767913.175,-11.230,-43.945,-8.789,0.488,-79.590
1687767913.179,12.207,-39.062,0.000,13.672,0.000
1687767913.181,11.230,-13.672,-14.648,9.277,154.785
1687767913.185,-1.465,-7.324,-40.039,-20.508,-66.895
1687767913.189,11.230,-20.996,-44.922,-31.250,-151.855
1687767913.193,0.977,-30.273,-40.039,-39.062,-54.199
1687767913.197,-29.785,-33.691,-45.410,-54.199,-73.730
1687767913.201,-30.762,-25.391,-57.129,-53.711,-69.824
1687767913.205,-19.043,-25.391,-60.547,-50.781,-77.637
1687767913.208,-18.066,-31.738,-60.547,-41.016,56.152
1687767913.212,-17.090,-27.344,-67.871,-41.992,183.594
1687767913.216,-15.137,-32.227,-74.219,-57.617,-53.711
1687767913.220,-20.996,-28.809,-76.172,-63.965,-115.723
1687767913.224,-19.043,-15.137,-80.566,-70.312,-51.270
1687767913.227,-4.883,-18.066,-78.125,-62.500,-79.590
1687767913.231,0.977,-17.578,-76.172,-59.570,-52.734
1687767913.235,-18.555,-16.602,-86.426,-77.637,-67.383
1687767913.239,-41.016,-15.137,-94.238,-78.613,20.508
1687767913.243,-24.414,-9.766,-89.355,-70.312,-29.785
1687767913.247,-1.953,-4.883,-91.797,-65.430,-62.012
1687767913.251,-11.230,-3.906,-98.145,-72.266,74.219
1687767913.254,-22.461,-12.207,-92.285,-67.383,168.457
1687767913.258,-15.625,-15.137,-85.449,-66.895,-20.996
1687767913.262,-4.883,-17.578,-83.496,-75.684,-47.363
1687767913.266,0.977,-20.020,-90.332,-65.430,54.199
1687767913.270,1.465,-16.113,-96.191,-69.336,65.918
1687767913.271,-14.648,-2.930,-93.750,-83.008,-93.262
1687767913.275,-29.785,1.465,-95.703,-91.309,-164.062
1687767913.279,-15.625,-4.883,-89.355,-88.379,-110.352
1687767913.283,2.441,-7.812,-75.684,-74.219,-88.867
1687767913.287,9.277,-17.090,-71.777,-63.477,-155.273
1687767913.291,-8.301,-27.344,-77.148,-69.824,-106.445
1687767913.295,-23.438,-23.438,-69.336,-55.664,187.012
1687767913.298,-11.719,-11.719,-53.223,-32.227,338.867
1687767913.302,-4.883,-16.602,-58.594,-49.316,-35.156
1687767913.306,0.977,-28.320,-62.012,-57.129,-157.715
1687767913.310,4.883,-27.344,-58.105,-45.898,-57.617
1687767913.314,-7.812,-13.184,-58.594,-49.805,-178.711
1687767913.316,-18.066,-6.348,-53.711,-53.711,-190.918
1687767913.320,-26.367,-5.371,-56.152,-69.336,-133.301
1687767913.324,-14.648,-23.926,-54.199,-62.500,-134.766
1687767913.328,-17.090,-28.320,-52.246,-49.805,-145.020
1687767913.332,-35.645,-20.508,-59.570,-60.059,-209.473
1687767913.336,-20.508,-29.297,-59.570,-57.129,-128.418
1687767913.340,-6.836,-25.391,-54.688,-45.410,159.180
1687767913.343,-11.719,-36.621,-52.246,-55.664,24.414
1687767913.347,-13.184,-34.180,-48.828,-48.828,-170.410
1687767913.351,-14.648,-20.020,-40.527,-42.480,-7.812
1687767913.355,-32.227,-34.668,-37.598,-41.992,216.309
1687767913.359,-33.203,-31.738,-38.574,-38.574,77.148
1687767913.376,-5.859,-21.973,-39.062,-36.133,-161.621
1687767913.380,6.348,-20.508,-40.039,-31.738,-139.160
1687767913.384,-16.113,-26.367,-37.109,-37.598,-61.035
1687767913.388,-36.621,-32.227,-39.062,-45.898,-116.211
1687767913.392,-22.949,-33.203,-40.527,-57.129,-85.938
1687767913.396,9.766,-34.180,-33.691,-46.387,129.883
1687767913.400,5.371,-25.879,-34.180,-27.344,87.891
1687767913.403,-7.812,-27.344,-35.156,-27.344,-88.867
1687767913.407,-4.395,-34.668,-33.203,-30.762,-115.723
1687767913.411,-3.906,-29.785,-41.016,-47.363,139.648
1687767913.415,-4.883,-27.832,-46.387,-49.316,222.168
1687767913.419,-21.484,-33.691,-35.645,-51.270,-145.996
1687767913.421,-10.254,-28.809,-20.508,-56.152,-188.477
1687767913.425,2.930,-22.461,-28.320,-37.598,-64.941
1687767913.429,-16.113,-28.320,-33.203,-32.715,-81.055
1687767913.433,-21.484,-38.086,-22.461,-49.805,-132.812
1687767913.437,-16.113,-20.508,-30.762,-41.016,-75.684
1687767913.441,-16.602,-16.602,-32.715,-40.527,15.625
1687767913.445,-17.578,-32.715,-21.484,-47.363,-27.344
1687767913.448,-20.508,-24.414,-26.367,-40.039,-124.023
1687767913.452,-4.395,-14.648,-39.551,-38.574,-73.730
1687767913.456,6.348,-17.090,-37.598,-29.297,235.840
1687767913.460,12.695,-26.855,-29.297,-20.508,187.012
1687767913.464,1.953,-20.508,-31.738,-39.551,-146.484
1687767913.466,2.441,-14.160,-33.691,-47.363,-109.375
1687767913.470,-12.695,-12.695,-21.484,-58.594,-12.207
1687767913.474,-18.555,-9.277,-26.367,-58.105,-112.793
1687767913.478,-10.742,-13.184,-40.527,-54.199,-194.824
1687767913.482,-30.273,-3.906,-36.133,-59.570,-108.887
1687767913.486,-34.180,-9.277,-37.109,-65.918,0.977
1687767913.490,-4.395,-31.250,-35.156,-69.336,-54.199
1687767913.493,8.301,-27.832,-34.180,-60.059,-128.418
1687767913.497,-11.719,-20.996,-36.133,-52.734,74.707
1687767913.501,-13.672,-14.648,-35.156,-67.871,156.738
1687767913.505,-7.324,-15.625,-32.227,-82.520,-86.426
1687767913.509,0.977,-25.879,-28.809,-63.477,-145.508
1687767913.511,-1.465,-12.695,-28.809,-58.105,-18.066
1687767913.515,-5.371,-16.602,-31.738,-62.012,-82.520
1687767913.519,-11.719,-29.785,-29.297,-69.336,-160.156
1687767913.523,-28.320,-21.973,-25.879,-81.543,-29.297
1687767913.527,13.672,-24.902,-30.762,-43.457,84.961
1687767913.531,8.301,-17.578,-28.809,-43.457,-5.859
1687767913.535,6.836,-10.742,-21.973,-55.176,-39.551
1687767913.538,24.902,-11.230,-23.438,-33.203,27.832
1687767913.542,-8.789,-10.742,-28.809,-37.109,276.855
1687767913.546,-13.184,-24.414,-29.785,-54.199,146.484
1687767913.550,0.488,-33.691,-31.738,-56.152,-215.820
1687767913.554,8.789,-16.602,-35.156,-63.965,-98.145
1687767913.557,14.648,-11.230,-25.879,-49.316,57.129
1687767913.561,14.648,-31.738,-24.414,-20.996,-121.582
1687767913.565,29.297,-19.531,-30.762,-25.391,-137.695
1687767913.569,45.410,-15.625,-27.344,-18.555,72.754
1687767913.573,25.391,-27.832,-21.973,-23.438,64.453
1687767913.577,-7.324,-11.230,-16.113,-55.176,-62.500
1687767913.581,-19.531,-20.508,-21.973,-48.828,-147.461
1687767913.584,-1.953,-23.438,-29.297,-41.016,96.680
1687767913.588,33.691,-31.250,-16.113,-28.320,253.906
1687767913.592,62.012,-38.574,-20.996,-14.648,-41.504
1687767913.596,36.133,-19.043,-30.273,-20.996,-201.172
1687767913.600,4.395,-20.020,-25.391,-36.133,-130.371
1687767913.601,8.301,-15.625,-27.832,-30.762,-162.109
1687767913.605,33.691,-27.344,-19.531,-27.344,-266.602
1687767913.609,44.922,-36.621,-20.020,-43.945,-196.777
1687767913.613,31.738,-43.945,-24.414,-26.367,-68.848
1687767913.617,16.113,-36.621,-18.555,-18.066,-114.258
1687767913.621,20.020,-13.184,-16.602,-36.133,-178.223
1687767913.625,58.594,-36.133,-14.160,-13.672,-10.742
1687767913.628,64.941,-50.781,-19.043,6.348,391.602
1687767913.632,12.695,-24.414,-30.273,-28.320,195.801
1687767913.636,-35.645,-9.766,-32.715,-46.387,-102.539
1687767913.640,-12.695,-27.344,-35.645,-20.020,-84.473
1687767913.644,28.809,-42.480,-32.227,0.977,-22.461
1687767913.646,38.574,-38.574,-22.461,10.742,-51.758
1687767913.650,10.254,-29.785,-26.367,4.395,-99.121
1687767913.654,3.418,-24.902,-26.855,-4.395,-67.871
1687767913.658,4.883,-32.227,-28.809,-16.113,-127.441
1687767913.662,-7.324,-32.227,-15.625,-23.438,-235.352
1687767913.666,25.391,-40.039,-17.090,-1.465,-154.785
1687767913.670,37.598,-39.551,-21.484,-3.418,118.164
1687767913.673,-3.418,-19.043,-30.273,-32.227,154.785
1687767913.677,-24.902,-14.160,-30.273,-27.344,-111.328
1687767913.681,11.719,-43.945,-18.555,3.906,-109.863
1687767913.685,35.156,-34.180,-24.414,13.184,83.496
1687767913.689,36.621,-35.645,-14.648,19.531,-39.062
1687767913.691,28.809,-41.016,-14.160,13.184,-223.633
1687767913.695,-9.766,-21.973,-23.438,5.371,-190.918
1687767913.699,-25.391,-30.762,-22.949,14.648,-57.617
1687767913.703,25.391,-31.738,-24.902,17.578,-83.984
1687767913.707,17.578,-15.137,-27.344,-7.324,-160.645
1687767913.711,-4.883,-31.738,-32.715,-20.020,-37.109
1687767913.715,21.973,-34.668,-29.785,-1.465,209.473
1687767913.718,29.785,-31.250,-22.949,-0.488,-37.598
1687767913.722,45.898,-35.645,-8.789,6.836,-263.672
1687767913.726,31.738,-21.973,-13.672,7.812,-26.367
1687767913.730,-10.254,-24.414,-19.531,2.441,334.473
1687767913.734,-1.953,-29.785,-16.602,-3.906,20.020
1687767913.751,-12.695,-17.090,-26.367,-17.578,-229.980
1687767913.755,-18.555,-29.785,-21.484,-0.488,-96.680
1687767913.759,-30.273,-47.363,-15.137,11.230,-49.805
1687767913.763,-41.992,-21.973,-28.809,-13.184,-125.488
1687767913.767,-16.602,-16.602,-31.738,-22.461,-173.828
1687767913.771,-0.977,-55.176,-26.367,-5.371,-20.020
1687767913.775,-6.836,-55.664,-22.461,-5.371,125.488
1687767913.778,14.648,-40.039,-20.020,-5.371,-50.293
1687767913.782,-6.348,-32.715,-12.695,-8.789,-135.742
1687767913.786,-34.180,-34.180,-16.113,2.441,95.215
1687767913.790,-21.973,-44.434,-21.973,27.344,-1.465
1687767913.794,-7.812,-46.875,-26.367,27.344,-190.430
1687767913.796,3.418,-51.758,-26.367,13.672,-29.785
1687767913.800,-8.789,-48.828,-22.949,4.883,96.680
1687767913.804,-40.527,-29.785,-27.344,-4.395,-82.520
1687767913.808,-74.707,-9.766,-27.344,-22.949,-197.754
1687767913.812,-46.875,-38.086,-27.832,-12.695,-169.922
1687767913.816,0.977,-48.828,-39.551,-8.301,-70.312
1687767913.820,-14.160,-35.645,-36.621,-19.531,0.488
1687767913.823,-30.762,-34.668,-17.090,-16.602,-105.469
1687767913.827,-24.902,-38.574,-18.066,2.441,-62.012
1687767913.831,-4.883,-39.551,-17.090,26.855,350.586
1687767913.835,15.625,-44.922,-18.555,22.949,185.547
1687767913.839,-2.930,-41.992,-30.762,0.977,-208.008
1687767913.842,-2.441,-28.320,-25.879,0.977,-177.246
1687767913.846,-11.230,-40.527,-24.414,-5.859,-161.133
1687767913.850,-31.738,-40.527,-30.273,-13.672,-144.043
1687767913.854,-10.742,-40.039,-28.320,-5.371,-133.789
1687767913.858,-26.855,-27.344,-32.227,-15.137,-50.781
1687767913.862,-43.945,-24.414,-25.391,-37.109,82.520
1687767913.866,-42.480,-27.344,-18.555,-25.879,-49.316
1687767913.869,-18.066,-22.949,-24.414,0.000,-186.523
1687767913.873,8.301,-40.039,-21.484,6.348,43.457
1687767913.877,23.438,-43.945,-23.438,11.230,135.254
1687767913.881,-5.371,-31.250,-19.531,-0.977,-91.309
1687767913.885,-28.320,-38.574,-26.367,-10.742,-91.797
1687767913.886,-30.273,-43.945,-33.691,-6.836,-68.359
1687767913.890,-16.113,-38.086,-28.320,6.836,-119.629
1687767913.894,-18.066,-34.180,-31.250,9.277,-110.840
1687767913.898,-22.461,-45.410,-26.855,1.465,-82.520
1687767913.902,-34.668,-36.133,-22.461,-0.977,-30.273
1687767913.906,-71.777,-10.742,-32.227,-15.625,-40.039
1687767913.910,-10.742,-23.926,-25.879,2.930,-86.426
1687767913.913,19.531,-46.387,-22.461,29.297,-83.008
1687767913.917,-18.066,-36.133,-26.367,18.066,208.984
1687767913.921,-25.879,-38.086,-17.578,20.996,305.176
1687767913.925,-10.254,-41.016,-20.996,43.457,-78.125
1687767913.929,-9.277,-30.762,-22.461,32.227,-164.551
1687767913.931,-2.441,-38.574,-21.484,27.344,-44.922
1687767913.935,-8.789,-37.598,-26.855,27.832,-107.910
1687767913.939,-23.926,-35.645,-25.879,6.836,-188.477
1687767913.943,-8.789,-42.480,-24.902,3.906,-143.066
1687767913.947,8.301,-43.457,-20.508,6.836,-131.836
1687767913.951,10.254,-39.551,-28.809,8.789,-128.906
1687767913.955,-15.625,-15.625,-30.762,0.000,-12.207
1687767913.958,-49.316,3.906,-22.461,-16.602,264.160
1687767913.962,-41.504,-8.789,-23.926,3.418,324.219
1687767913.966,-30.762,-38.086,-15.625,25.879,-36.133
1687767913.970,-6.348,-49.316,-10.742,21.484,-106.445
1687767913.974,-10.742,-44.434,-16.602,13.184,-80.078
1687767913.976,-29.297,-41.992,-20.508,4.883,-173.828
1687767913.980,-29.785,-37.109,-27.344,-5.371,-203.125
1687767913.984,-17.578,-33.691,-21.973,1.953,-124.023
1687767913.988,-11.230,-26.855,-20.508,13.672,-50.293
1687767913.992,-24.902,-31.250,-26.367,6.836,-104.980
1687767913.996,-34.668,-41.016,-22.949,5.859,-103.027
1687767914.000,-34.180,-41.992,-18.066,7.812,29.297
1687767914.003,-40.039,-20.996,-46.875,6.348,223.633
1687767914.007,-33.691,-23.926,-45.410,-3.418,53.223
1687767914.011,-25.391,-30.273,-27.344,-19.531,-110.840
1687767914.015,-20.996,-36.621,-30.762,-5.371,-24.414
1687767914.019,-36.133,-35.156,-31.738,4.395,110.840
1687767914.021,-33.203,-35.645,-27.832,-12.207,-54.688
1687767914.025,-11.230,-43.457,-22.461,-3.418,-145.508
1687767914.029,-1.465,-37.598,-22.461,11.230,-62.988
1687767914.033,-16.602,-36.133,-26.855,5.859,-93.750
1687767914.037,-27.344,-34.668,-28.809,-4.883,-102.539
1687767914.041,-20.508,-35.645,-21.973,3.418,-0.977
1687767914.045,0.977,-46.875,-17.090,24.414,147.949
1687767914.048,0.488,-29.297,-21.484,12.695,137.695
1687767914.052,-22.949,-10.254,-24.414,-6.348,-143.066
1687767914.056,-18.555,-27.344,-12.207,0.488,-193.848
1687767914.060,-6.348,-37.598,-14.160,11.230,-137.207
1687767914.064,9.277,-37.598,-21.973,16.113,-162.598
1687767914.067,5.371,-26.855,-24.902,21.484,-162.598
1687767914.071,-11.719,-24.414,-25.391,20.508,-152.832
1687767914.075,-45.410,-21.973,-21.484,-8.301,-67.383
1687767914.079,-50.781,-39.062,-11.230,-6.348,-108.887
1687767914.083,-7.324,-31.738,-8.789,15.625,-154.785
1687767914.087,9.277,-25.391,-11.230,27.832,5.859
1687767914.091,-33.691,-22.949,-10.742,7.324,291.992
1687767914.094,-48.340,-44.434,-3.418,-3.906,1.465
1687767914.098,-27.344,-38.086,-2.930,3.906,-216.797
1687767914.102,-6.836,-49.316,-0.977,14.648,41.992
1687767914.106,7.812,-62.012,6.348,39.551,201.660
1687767914.110,-27.344,-56.152,8.789,39.551,3.906
1687767914.112,-52.246,-56.152,7.324,5.859,-161.621
1687767914.116,-28.809,-53.711,9.766,-6.348,-93.262
1687767914.120,-11.230,-55.664,14.648,10.742,68.359
1687767914.124,-21.973,-56.641,15.625,18.555,-27.344
1687767914.128,-47.852,-49.805,0.000,-4.395,-166.992
1687767914.132,-59.570,-53.711,-0.488,-13.184,88.867
1687767914.136,-70.312,-48.340,6.348,-18.555,250.488
1687767914.139,-41.016,-67.871,10.742,0.488,-61.523
1687767914.143,-17.578,-75.684,6.348,19.043,-132.324
1687767914.147,-42.480,-62.500,2.930,14.160,76.172
1687767914.151,-57.617,-56.641,9.277,1.953,-6.348
1687767914.155,-63.477,-56.152,13.184,0.000,-108.398
1687767914.171,-45.410,-45.898,18.066,10.742,-72.754
1687767914.175,-20.020,-49.805,16.113,23.438,-87.891
1687767914.179,-21.973,-50.293,16.602,20.020,-133.789
1687767914.183,-41.016,-46.875,25.879,-1.465,-114.258
1687767914.187,-37.109,-54.199,26.367,13.184,11.230
1687767914.191,-33.203,-39.062,17.578,23.926,203.613
1687767914.195,-14.648,-40.527,21.973,8.789,154.297
1687767914.198,-21.484,-52.734,19.531,2.441,-74.219
1687767914.202,-39.062,-51.758,12.207,0.488,-62.500
1687767914.206,-28.320,-45.898,14.160,10.254,260.254
1687767914.210,-28.320,-43.457,13.184,8.789,84.473
1687767914.214,-29.297,-42.969,8.301,2.441,-185.547
1687767914.216,-18.066,-48.828,14.648,7.324,-136.230
1687767914.220,-17.578,-47.363,8.789,9.277,-148.926
1687767914.224,-36.621,-39.062,-10.254,3.906,-158.203
1687767914.228,-29.297,-42.969,-4.883,-11.719,-145.020
1687767914.232,-41.016,-39.551,17.578,-15.137,-73.242
1687767914.236,-52.246,-45.898,26.855,-13.672,-19.043
1687767914.240,-38.574,-47.852,16.602,-7.812,-30.762
1687767914.243,-41.504,-31.250,7.812,-6.836,-62.500
1687767914.247,-33.203,-37.598,12.695,-8.301,149.414
1687767914.251,-21.484,-42.969,1.953,-3.418,298.828
1687767914.255,-33.691,-33.691,-8.301,-17.090,-15.137
1687767914.259,-33.691,-29.297,-4.395,-21.484,-74.707
1687767914.261,-36.621,-9.766,-7.812,-28.809,-55.664
1687767914.265,-39.551,-29.297,-7.812,-36.621,-121.094
1687767914.269,-20.508,-36.621,0.000,-27.344,-59.082
1687767914.273,-14.648,-23.926,0.488,-29.785,-40.039
1687767914.277,-38.086,-34.180,-15.137,-34.668,-59.570
1687767914.281,-52.734,-37.109,-32.715,-39.062,32.715
1687767914.285,-48.828,-30.273,-24.414,-41.504,-16.602
1687767914.288,-37.109,-37.598,-14.648,-26.367,6.348
1687767914.292,-35.645,-28.320,-11.230,-11.719,285.156
1687767914.296,-30.762,-17.090,-13.184,-29.785,157.715
1687767914.300,-33.203,-32.227,-19.531,-53.223,-36.621
1687767914.304,-51.758,-40.039,-18.066,-49.316,20.508
1687767914.306,-33.203,-35.645,-18.555,-26.367,241.211
1687767914.310,-14.648,-20.508,-23.438,-19.531,-5.371
1687767914.314,-28.809,-20.020,-21.484,-22.949,-147.949
1687767914.318,-57.617,-31.738,-16.602,-33.691,-17.090
1687767914.322,-66.406,-24.902,-16.113,-46.875,-29.297
1687767914.326,-41.504,-30.762,-14.160,-36.621,-4.395
1687767914.330,-39.062,-42.480,-13.184,-28.320,-55.664
1687767914.333,-46.875,-43.945,-18.555,-24.902,63.965
1687767914.337,-45.410,-46.387,-31.738,-20.996,131.836
1687767914.341,-57.129,-39.551,-38.086,-37.109,-86.426
1687767914.345,-58.594,-28.320,-34.668,-39.551,-73.242
1687767914.349,-25.391,-34.180,-29.297,-35.156,19.043
1687767914.350,-22.461,-40.527,-21.973,-42.969,-58.105
1687767914.354,-39.062,-26.855,-23.926,-49.805,-116.211
1687767914.358,-43.945,-20.996,-22.949,-32.227,-73.730
1687767914.362,-33.691,-28.809,-31.250,-19.531,-52.246
1687767914.366,-14.160,-48.340,-29.297,-20.508,-104.492
1687767914.370,-32.715,-41.016,-23.438,-40.039,-92.285
1687767914.374,-56.152,-37.598,-20.020,-44.922,14.648
1687767914.377,-63.965,-39.551,-25.879,-34.668,251.953
1687767914.381,-46.875,-30.762,-31.738,-28.809,95.703
1687767914.385,-26.367,-28.320,-20.508,-23.438,-104.004
1687767914.389,-31.738,-33.203,-18.555,-26.367,-50.293
1687767914.393,-59.570,-22.461,-26.855,-41.992,45.898
1687767914.396,-69.336,-33.203,-21.484,-56.641,-94.727
1687767914.400,-57.617,-46.387,-24.414,-59.082,-181.641
1687767914.404,-36.621,-33.203,-33.203,-53.711,-12.207
1687767914.408,-46.875,-24.414,-35.156,-54.199,-11.230
1687767914.412,-74.707,-25.879,-41.504,-68.359,-137.695
1687767914.416,-73.242,-39.551,-41.016,-70.312,-90.332
1687767914.420,-55.664,-35.156,-34.668,-55.664,168.945
1687767914.423,-32.227,-33.691,-40.527,-50.781,219.238
1687767914.427,-29.785,-49.805,-41.016,-45.898,-107.422
1687767914.431,-60.547,-42.969,-33.203,-59.570,-153.809
1687767914.435,-68.848,-49.316,-32.715,-66.895,-138.184
1687767914.439,-27.344,-52.246,-31.250,-48.828,-166.016
1687767914.440,-20.020,-28.320,-43.945,-45.898,-105.469
1687767914.444,-33.203,-45.898,-47.852,-45.410,-120.605
1687767914.448,-46.387,-52.734,-46.875,-47.852,-96.680
1687767914.452,-44.922,-35.156,-62.988,-66.895,-56.641
1687767914.456,-48.340,-28.320,-66.406,-73.242,-63.477
1687767914.460,-55.176,-26.855,-64.941,-83.496,-56.152
1687767914.464,-42.480,-24.414,-70.801,-77.148,224.609
1687767914.467,-73.730,10.254,-83.984,-87.402,158.203
1687767914.471,-77.637,-16.113,-83.984,-109.863,-164.551
1687767914.475,-12.207,-45.410,-66.895,-87.891,-17.090
1687767914.479,-18.066,-26.367,-74.707,-92.285,128.418
1687767914.483,-39.062,-20.020,-95.215,-93.262,-83.496
1687767914.515,-9.277,-24.902,-87.891,-82.520,-162.598
1687767914.519,-27.344,-31.738,-77.148,-82.031,-50.293
1687767914.523,-43.457,-26.367,-89.844,-95.703,-8.789
1687767914.527,-23.926,-16.602,-102.051,-85.938,-143.555
1687767914.531,-17.578,-21.484,-100.098,-74.219,-166.016
1687767914.535,-38.574,-15.625,-104.004,-102.051,25.879
1687767914.539,-43.945,-36.133,-94.727,-98.145,44.434
1687767914.542,-51.758,-20.508,-95.703,-111.816,-13.184
1687767914.546,-57.129,1.953,-105.469,-115.234,-83.496
1687767914.550,-36.133,-11.230,-102.051,-103.027,82.520
1687767914.554,-48.340,-8.301,-106.934,-114.746,170.898
1687767914.558,-42.480,-39.551,-97.656,-122.559,-168.945
1687767914.545,-50.781,-51.758,-84.961,-142.578,-237.793
1687767914.549,-45.410,-20.996,-97.656,-119.629,-103.027
1687767914.553,-44.434,-7.324,-99.121,-94.727,-135.254
1687767914.557,-62.500,-17.090,-84.961,-118.652,-145.996
1687767914.561,-56.641,-26.855,-100.098,-120.117,-113.770
1687767914.565,-51.270,-39.062,-96.191,-89.355,2.441
1687767914.569,-40.527,-28.320,-86.426,-100.586,10.742
1687767914.572,-40.039,-22.461,-72.754,-156.250,-117.188
1687767914.576,-47.363,-51.270,-43.945,-148.438,-91.797
1687767914.580,-35.645,-38.574,-73.242,-85.449,24.902
1687767914.584,-52.734,-35.156,-92.773,-64.453,-13.184
1687767914.588,-57.129,-48.828,-79.102,-101.074,-156.250
1687767914.590,-3.418,-41.992,-45.898,-93.262,-129.883
1687767914.594,-0.488,-36.621,-49.316,-62.012,257.812
1687767914.598,-13.184,-13.672,-74.707,-59.570,253.906
1687767914.602,-48.828,2.930,-58.594,-97.656,-126.465
1687767914.606,-25.391,-15.137,-64.941,-114.746,-104.980
1687767914.610,-12.695,-20.996,-48.340,-83.008,-39.062
1687767914.614,-11.719,-18.066,-31.738,-39.062,-87.891
1687767914.617,7.324,-40.527,-37.109,-27.344,-159.180
1687767914.621,-0.977,-40.527,-36.133,-31.250,45.898
1687767914.625,-36.133,-21.484,-38.574,-20.996,123.535
1687767914.629,-11.230,-44.922,-32.227,-45.410,-118.164
1687767914.633,13.672,-36.621,-36.621,-33.691,-23.438
1687767914.635,-11.719,-32.227,-26.367,-28.809,81.055
1687767914.639,-17.090,-26.855,-21.973,-40.527,-69.824
1687767914.643,-20.508,0.000,-30.273,-50.293,-152.344
1687767914.647,-4.883,-24.902,-29.297,-55.176,-148.926
1687767914.651,21.484,-40.527,-28.320,-34.180,-70.801
1687767914.655,16.113,-27.832,-38.574,-5.371,91.309
1687767914.659,-17.090,-20.508,-33.203,-19.043,-6.836
1687767914.662,-43.945,-12.207,-25.879,-28.809,-97.168
1687767914.666,7.324,-33.691,-37.598,12.207,191.895
1687767914.670,36.621,-57.129,-20.996,54.688,89.355
1687767914.674,10.742,-53.223,-1.465,41.504,-195.312
1687767914.678,-26.367,-26.367,-30.762,1.465,-109.375
1687767914.681,-41.504,-10.742,-36.621,-12.207,5.371
1687767914.685,-4.395,-24.414,-25.391,38.574,-79.102
1687767914.689,-2.441,-25.391,-27.832,51.758,-159.668
1687767914.693,10.742,-25.391,-10.254,14.648,-124.512
1687767914.697,-9.277,-21.973,-3.418,23.438,-55.664
1687767914.701,-39.551,-15.137,-18.066,36.133,-0.977
1687767914.705,-16.113,-41.504,-25.391,29.297,-105.469
1687767914.708,2.441,-32.227,-20.996,38.086,-35.645
1687767914.712,-0.977,-12.207,-15.137,72.266,75.684
1687767914.716,-20.020,-16.602,-19.531,75.684,-143.555
1687767914.720,-29.297,-30.762,-10.742,39.062,-136.719
1687767914.724,-5.371,-34.668,-23.438,59.082,-18.066
1687767914.725,2.441,-43.457,-28.320,62.988,-65.430
1687767914.729,-1.953,-44.922,-22.461,48.340,-110.352
1687767914.733,-2.441,-13.672,-22.461,59.082,-96.191
1687767914.737,-6.836,-6.836,-18.066,65.430,12.695
1687767914.741,-13.184,-29.785,-21.973,73.242,24.414
1687767914.745,2.441,-25.391,-29.785,68.359,-59.082
1687767914.749,-37.109,1.465,-33.691,57.617,46.387
1687767914.752,-47.852,-25.879,-19.531,54.688,256.348
1687767914.756,-8.301,-55.664,-8.789,61.035,80.078
1687767914.760,-3.418,-49.805,-5.371,53.223,-144.531
1687767914.764,-15.137,-21.973,0.488,73.730,-47.363
1687767914.768,-16.602,-12.207,-17.090,89.355,43.945
1687767914.771,-29.785,-41.016,-15.625,62.988,-110.352
1687767914.775,-41.992,-43.457,-5.859,88.379,-245.117
1687767914.779,-13.672,-32.715,-11.230,106.445,-130.859
1687767914.783,-1.465,-26.367,-10.254,88.379,-90.820
1687767914.787,-19.043,-38.574,-5.371,88.379,-102.539
1687767914.791,-24.902,-41.016,-7.324,79.590,-10.742
1687767914.795,-36.621,-27.344,-12.207,71.777,191.895
1687767914.798,-26.367,-29.297,-10.742,104.980,303.711
1687767914.802,-20.996,-10.254,-14.160,78.125,-35.156
1687767914.806,-4.395,-22.461,-9.766,81.055,-188.477
1687767914.810,0.488,-51.270,-7.812,104.492,-25.879
1687767914.814,-37.109,-35.645,-22.949,58.594,-33.691
1687767914.816,-43.457,-30.273,-26.855,64.453,-104.004
1687767914.820,-31.250,-30.273,-21.484,88.867,-83.008
1687767914.824,-33.203,-32.715,-14.160,88.379,-46.387
1687767914.828,-29.297,-35.156,-5.371,82.520,-50.781
1687767914.832,-40.039,-26.367,-16.602,80.078,-197.754
1687767914.836,-33.203,-36.133,-25.391,84.473,-120.117
1687767914.840,-15.137,-31.738,-21.484,85.938,220.215
1687767914.843,-25.391,-29.297,-22.461,72.754,27.344
1687767914.847,-35.645,-31.250,-27.832,61.035,-205.078
1687767914.851,-48.828,-24.902,-25.879,50.293,-104.492
1687767914.855,-57.129,-38.086,-25.391,59.570,119.629
1687767914.859,-42.969,-31.738,-23.926,63.965,-79.590
1687767914.875,1.465,-47.852,-20.020,74.707,-299.805
1687767914.879,8.789,-60.059,-20.508,88.379,-225.098
1687767914.883,-46.387,-39.551,-20.020,67.871,-206.543
1687767914.887,-17.578,-36.133,-20.996,65.430,-263.184
1687767914.891,4.395,-35.645,-21.973,84.473,-223.145
1687767914.895,-17.090,-30.273,-24.902,80.078,24.414
1687767914.899,-20.020,-28.320,-24.902,75.195,37.109
1687767914.902,-35.156,-34.668,-24.414,66.895,-112.793
1687767914.906,-29.297,-41.992,-25.879,51.758,-157.715
1687767914.910,-21.973,-41.992,-28.809,62.500,53.223
1687767914.914,-14.160,-30.273,-20.996,75.684,156.738
1687767914.918,-13.184,-29.297,-18.066,58.594,-47.363
1687767914.920,-33.203,-40.039,-20.508,56.641,-120.605
1687767914.924,-38.086,-31.250,-13.184,67.383,-47.852
1687767914.928,-24.414,-26.367,-15.625,62.988,-102.051
1687767914.932,-10.254,-35.156,-24.902,62.012,-236.816
1687767914.936,-16.602,-21.973,-28.320,60.059,-221.680
1687767914.940,-36.133,-23.926,-24.414,57.617,-105.469
1687767914.944,-62.500,-37.598,-25.391,41.504,-39.551
1687767914.947,-52.246,-43.945,-27.344,38.574,-134.277
1687767914.951,-37.598,-37.598,-26.855,53.223,-162.598
1687767914.955,-48.340,-38.574,-27.832,57.617,173.340
1687767914.959,-58.105,-41.992,-24.414,47.363,143.066
1687767914.963,-60.547,-34.668,-18.066,34.668,-175.781
1687767914.965,-42.969,-38.086,-14.160,47.852,-166.016
1687767914.969,-28.809,-46.875,-14.648,51.270,-124.023
1687767914.973,-27.344,-32.227,-9.277,48.828,-170.410
1687767914.977,-49.316,-21.484,-6.836,43.457,-199.219
1687767914.981,-67.383,-23.926,-17.090,32.715,-116.211
1687767914.985,-54.688,-21.484,-25.879,41.504,-54.199
1687767914.989,-37.598,-19.531,-23.438,53.223,-45.898
1687767914.992,-31.250,-24.902,-23.438,45.410,-76.172
1687767914.996,-46.387,-26.367,-26.855,43.457,21.484
1687767915.000,-67.383,-31.250,-31.738,49.316,88.867
1687767915.004,-55.664,-31.250,-29.785,43.457,-104.980
1687767915.008,-36.133,-25.391,-26.855,44.922,-87.402
1687767915.010,-34.668,-38.086,-30.762,59.570,-61.523
1687767915.014,-47.363,-40.527,-29.297,56.152,-106.445
1687767915.018,-50.781,-32.715,-24.902,46.875,-138.672
1687767915.022,-40.527,-34.180,-28.320,54.199,-124.023
1687767915.026,-41.016,-32.715,-27.832,63.477,-11.719
1687767915.030,-46.875,-22.949,-30.273,61.523,56.641
1687767915.034,-42.969,-17.090,-41.504,51.758,-7.324
1687767915.037,-59.082,-24.414,-41.504,34.180,-70.801
1687767915.041,-62.500,-27.832,-32.715,30.762,166.992
1687767915.045,-51.270,-24.902,-30.762,28.320,192.871
1687767915.049,-38.574,-21.484,-31.250,27.344,-121.582
1687767915.053,-36.133,-34.668,-29.785,38.086,-138.672
1687767915.055,-54.199,-50.293,-32.715,28.809,31.738
1687767915.059,-44.922,-31.250,-34.180,13.184,-126.953
1687767915.063,-41.016,-23.926,-29.297,16.602,-177.734
1687767915.067,-52.734,-16.113,-33.203,17.090,-72.754
1687767915.071,-55.176,-17.090,-31.738,16.113,-113.281
1687767915.075,-60.059,-38.086,-23.926,19.043,-139.160
1687767915.079,-76.660,-37.109,-30.273,-0.488,-59.082
1687767915.082,-72.266,-34.668,-38.574,-3.418,101.562
1687767915.086,-40.527,-30.273,-25.391,20.996,279.297
1687767915.090,-41.504,-32.227,-17.090,11.230,-20.996
1687767915.094,-61.523,-23.926,-25.391,0.000,-192.383
1687767915.098,-57.617,-21.973,-32.227,-13.184,-135.254
1687767915.100,-48.340,-28.320,-25.879,-15.625,-155.273
1687767915.104,-46.875,-28.320,-21.484,-6.836,-86.426
1687767915.108,-39.551,-40.039,-23.926,-8.301,-31.738
1687767915.112,-47.363,-29.297,-21.973,-8.789,12.695
1687767915.116,-44.922,-20.508,-14.160,-7.324,-91.797
1687767915.120,-43.945,-33.691,-13.184,-7.324,-35.156
1687767915.124,-39.062,-35.645,-17.578,-11.719,162.109
1687767915.127,-34.668,-33.203,-20.020,-8.301,296.875
1687767915.131,-42.969,-31.250,-22.461,-8.789,138.672
1687767915.135,-54.199,-27.832,-16.113,-25.391,-104.980
1687767915.139,-55.664,-40.527,-7.324,-27.344,-42.480
1687767915.143,-41.504,-37.598,-5.859,-5.859,146.484
1687767915.145,-34.180,-31.250,-12.207,-10.742,-42.480
1687767915.149,-45.898,-38.086,-14.648,-18.555,-214.355
1687767915.153,-53.223,-32.227,-18.066,-19.043,-97.656
1687767915.157,-31.250,-36.133,-15.625,-4.883,-51.758
1687767915.161,-16.113,-40.039,-4.395,13.672,-107.910
1687767915.165,-20.020,-32.227,0.488,7.812,-79.590
1687767915.169,-34.180,-30.762,-6.348,-6.836,180.176
1687767915.172,-37.598,-28.809,-13.184,-8.301,209.961
1687767915.176,-32.227,-30.762,-7.812,-11.719,-132.324
1687767915.180,-20.996,-44.434,-2.441,-13.184,-107.910
1687767915.184,-2.930,-40.039,-3.418,-9.766,83.984
1687767915.188,-29.297,-32.227,-7.324,-23.926,-93.750
1687767915.190,-52.246,-41.016,-8.301,-35.645,-157.715
1687767915.194,-40.039,-36.133,-9.766,-36.133,-47.852
1687767915.198,-29.785,-30.762,-15.137,-36.621,-56.641
1687767915.202,-23.926,-32.227,-9.766,-37.109,-88.867
1687767915.206,-10.254,-25.391,-0.977,-43.457,-103.516
1687767915.210,-17.578,-20.996,-7.324,-49.316,25.879
1687767915.214,-38.574,-34.668,-13.184,-47.363,238.281
1687767915.217,-47.852,-45.898,-22.461,-53.223,53.223
1687767915.221,-50.293,-38.574,-25.879,-56.641,-90.820
1687767915.225,-57.129,-35.156,-16.113,-55.176,94.727
1687767915.229,-63.965,-37.109,-14.648,-52.246,208.496
1687767915.233,-64.453,-35.645,-14.648,-43.945,-45.898
1687767915.236,-62.500,-37.598,-17.090,-45.898,-105.957
1687767915.240,-53.223,-32.715,-15.625,-54.199,-21.973
1687767915.244,-67.383,-29.297,-15.137,-65.430,-52.246
1687767915.248,-81.543,-33.691,-19.531,-78.613,-137.695
1687767915.252,-83.984,-40.039,-18.066,-77.637,-163.574
1687767915.256,-74.219,-41.992,-13.672,-66.895,-42.969
1687767915.260,-62.012,-45.898,-22.461,-63.477,40.527
1687767915.263,-73.242,-46.875,-32.715,-60.059,-31.738
1687767915.267,-88.867,-48.340,-24.414,-78.613,-125.000
1687767915.271,-94.727,-54.688,-18.066,-90.820,7.812
1687767915.275,-84.961,-47.363,-28.809,-96.680,33.203
1687767915.279,-62.988,-40.039,-37.109,-106.445,-114.746
1687767915.297,-55.664,-35.645,-32.715,-96.680,-109.863
1687767915.301,-73.730,-29.297,-26.855,-95.215,-124.512
1687767915.305,-84.473,-32.715,-26.367,-104.980,-149.414
1687767915.309,-62.012,-32.227,-27.344,-90.332,-180.176
1687767915.313,-42.480,-36.133,-30.762,-75.684,-98.145
1687767915.317,-45.410,-40.039,-30.762,-78.613,189.941
1687767915.321,-46.875,-23.438,-19.531,-77.637,64.453
1687767915.324,-50.293,-26.855,-12.695,-82.031,-187.012
1687767915.328,-49.805,-35.645,-14.160,-80.566,-125.488
1687767915.332,-26.855,-18.555,-11.719,-59.570,269.531
1687767915.336,-24.902,-11.230,-8.301,-56.152,86.914
1687767915.340,-45.410,-12.207,-4.883,-68.359,-217.773
1687767915.340,-57.129,-14.648,-8.301,-75.684,-85.449
1687767915.344,-51.270,-16.602,-13.672,-77.637,-119.629
1687767915.348,-41.016,-17.090,-17.090,-71.777,-139.160
1687767915.352,-41.504,-17.578,-17.090,-71.289,-52.734
1687767915.356,-55.664,-17.578,-20.508,-73.242,5.371
1687767915.360,-67.871,-26.855,-19.043,-82.520,-42.480
1687767915.364,-66.406,-34.668,-20.508,-85.449,-8.301
1687767915.367,-43.945,-19.043,-26.855,-79.102,23.438
1687767915.371,-36.133,-12.207,-30.273,-77.637,42.480
1687767915.375,-43.457,-20.508,-31.738,-72.754,202.148
1687767915.379,-47.363,-21.973,-35.645,-92.773,-93.750
1687767915.383,-51.758,-24.414,-32.715,-96.191,-216.797
1687767915.385,-49.805,-28.320,-31.738,-78.613,-86.914
1687767915.389,-35.156,-21.484,-37.598,-71.289,-99.609
1687767915.393,-31.250,-22.949,-38.086,-77.148,-148.926
1687767915.397,-49.805,-27.832,-30.762,-79.590,-147.461
1687767915.401,-56.152,-32.227,-31.738,-80.566,-72.754
1687767915.405,-34.668,-28.320,-34.668,-76.172,22.461
1687767915.409,-16.113,-28.809,-27.344,-71.777,-4.395
1687767915.412,-14.648,-21.973,-23.438,-67.383,-77.148
1687767915.416,-34.668,-14.160,-24.902,-53.223,235.840
1687767915.420,-34.180,-22.949,-30.762,-51.758,308.105
1687767915.424,-21.484,-30.273,-35.645,-52.246,-50.293
1687767915.428,-22.461,-28.809,-29.785,-43.945,-46.387
1687767915.430,-28.809,-26.855,-22.949,-44.434,33.203
1687767915.434,-46.387,-34.180,-32.227,-63.477,-131.348
1687767915.438,-41.992,-39.551,-35.645,-75.195,-163.086
1687767915.442,-23.926,-30.762,-36.621,-76.172,-70.801
1687767915.446,-22.949,-22.949,-38.574,-69.336,-113.281
1687767915.450,-27.344,-26.855,-37.598,-62.012,-78.613
1687767915.454,-37.109,-30.273,-34.180,-66.895,-28.809
1687767915.457,-39.062,-25.391,-35.645,-58.594,71.777
1687767915.461,-21.484,-24.414,-37.109,-48.828,114.746
1687767915.465,-12.207,-27.832,-37.598,-60.547,-76.660
1687767915.469,-32.227,-29.297,-31.738,-63.965,-50.293
1687767915.473,-49.316,-30.762,-25.391,-56.641,81.543
1687767915.475,-51.758,-30.273,-36.133,-74.219,-96.680
1687767915.479,-41.992,-32.227,-41.992,-72.266,-249.023
1687767915.483,-22.461,-38.086,-41.504,-49.316,-108.398
1687767915.487,-21.973,-41.504,-38.574,-51.758,-7.324
1687767915.491,-45.898,-36.621,-36.133,-69.336,-83.008
1687767915.495,-53.711,-33.203,-39.551,-68.848,-62.012
1687767915.499,-39.062,-35.645,-41.992,-58.105,95.703
1687767915.502,-33.691,-28.809,-43.457,-48.828,244.141
1687767915.506,-26.367,-24.902,-41.504,-39.551,58.594
1687767915.510,-28.809,-35.156,-33.691,-44.434,-162.109
1687767915.514,-49.805,-37.109,-31.738,-57.617,-127.441
1687767915.518,-56.152,-39.062,-36.621,-59.082,34.180
1687767915.521,-41.016,-46.387,-35.156,-51.270,-57.617
1687767915.525,-31.738,-36.133,-37.598,-50.781,-188.965
1687767915.529,-39.062,-26.855,-32.715,-45.898,-90.820
1687767915.533,-53.711,-35.645,-25.391,-51.270,-62.988
1687767915.537,-54.688,-42.480,-33.203,-73.730,-166.016
1687767915.541,-41.016,-37.598,-34.180,-76.172,-51.270
1687767915.545,-38.574,-28.809,-40.039,-76.172,178.223
1687767915.548,-44.922,-28.809,-43.457,-71.289,148.926
1687767915.552,-61.523,-36.133,-37.598,-77.637,-157.715
1687767915.556,-62.988,-33.203,-46.875,-81.055,-214.355
1687767915.560,-42.969,-38.086,-53.223,-69.824,-150.391
1687767915.564,-39.551,-49.316,-41.504,-73.242,-137.695
1687767915.567,-61.523,-44.434,-34.180,-79.102,-138.672
1687767915.571,-78.125,-42.969,-33.203,-87.891,-131.836
1687767915.575,-72.266,-44.922,-36.621,-83.008,7.812
1687767915.579,-58.594,-44.922,-28.809,-64.941,0.488
1687767915.583,-61.523,-46.387,-23.438,-71.777,-103.027
1687767915.587,-62.500,-53.711,-22.461,-67.871,6.836
1687767915.591,-73.730,-57.617,-14.160,-54.688,360.840
1687767915.594,-85.449,-62.012,-17.578,-74.219,199.219
1687767915.598,-71.289,-67.871,-19.043,-85.938,-92.285
1687767915.602,-63.965,-62.012,-10.742,-69.336,81.543
1687767915.606,-69.824,-55.176,-12.207,-64.453,139.648
1687767915.610,-75.684,-59.082,-17.090,-65.918,-83.496
1687767915.611,-67.383,-53.711,-11.230,-63.965,-135.742
1687767915.615,-54.688,-49.805,-4.883,-60.059,-75.195
1687767915.619,-53.223,-55.664,0.000,-46.875,-72.266
1687767915.623,-65.430,-59.570,-2.930,-54.688,-100.586
1687767915.627,-77.148,-61.523,2.441,-65.430,-163.574
1687767915.631,-84.473,-64.453,10.742,-58.594,104.492
1687767915.635,-76.172,-66.406,4.395,-53.223,316.406
1687767915.638,-59.570,-63.477,5.371,-54.688,-56.641
1687767915.642,-70.801,-58.594,3.418,-61.035,-189.941
1687767915.646,-84.473,-50.781,3.418,-62.988,-22.461
1687767915.650,-82.520,-49.805,8.301,-58.105,-116.211
1687767915.654,-77.637,-56.152,8.301,-61.523,-210.938
1687767915.671,-60.059,-52.734,10.742,-42.480,-112.793
1687767915.675,-51.758,-47.852,16.602,-34.668,-50.781
1687767915.679,-70.312,-50.781,14.648,-57.129,-73.730
1687767915.683,-77.637,-59.570,-0.488,-72.754,-136.230
1687767915.687,-75.195,-61.523,-8.301,-68.848,-65.918
1687767915.691,-73.242,-55.664,1.953,-50.781,153.320
1687767915.695,-65.430,-50.781,17.578,-44.434,87.402
1687767915.698,-69.824,-52.734,9.766,-57.129,-79.102
1687767915.702,-83.496,-52.246,-3.906,-69.824,-12.695
1687767915.706,-79.102,-48.828,-5.371,-61.035,312.988
1687767915.710,-59.082,-46.875,0.000,-38.574,310.059
1687767915.714,-36.621,-43.457,0.977,-39.551,-142.090
1687767915.716,-42.480,-41.992,-2.930,-46.387,-225.586
1687767915.720,-65.430,-41.504,-4.883,-41.504,-169.922
1687767915.724,-59.570,-39.551,-5.859,-56.152,-189.453
1687767915.728,-35.645,-39.551,-5.859,-60.547,-128.418
1687767915.732,-32.715,-41.504,-1.465,-54.199,-59.082
1687767915.736,-57.129,-42.480,-3.906,-53.711,13.184
1687767915.740,-72.754,-40.039,-7.324,-49.805,63.477
1687767915.743,-66.406,-36.621,-5.859,-65.430,-30.762
1687767915.747,-58.105,-40.039,-12.695,-64.941,102.051
1687767915.751,-46.387,-40.039,-19.531,-47.852,299.316
1687767915.755,-42.969,-30.273,-17.578,-54.688,-101.562
1687767915.759,-58.105,-29.785,-18.066,-64.453,-205.566
1687767915.761,-63.965,-30.273,-22.949,-62.500,-20.996
1687767915.765,-54.688,-29.785,-16.602,-51.270,-92.285
1687767915.769,-43.945,-29.785,-12.695,-49.316,-115.234
1687767915.773,-49.316,-29.785,-20.996,-54.199,-69.336
1687767915.777,-60.547,-24.414,-16.602,-60.059,-87.402
1687767915.781,-61.035,-30.762,-17.578,-60.059,-81.543
1687767915.785,-48.828,-32.227,-30.762,-52.734,-12.695
1687767915.788,-47.852,-26.367,-26.855,-58.594,22.461
1687767915.792,-48.828,-30.762,-19.531,-56.641,224.609
1687767915.796,-61.523,-27.832,-19.531,-66.406,147.949
1687767915.800,-77.148,-26.367,-16.113,-84.961,-137.207
1687767915.804,-64.453,-24.902,-18.555,-71.289,-46.875
1687767915.806,-45.898,-22.461,-17.578,-53.223,216.797
1687767915.810,-50.293,-27.344,-13.184,-57.617,-23.926
1687767915.814,-68.359,-26.855,-14.648,-63.965,-196.777
1687767915.818,-68.359,-27.344,-14.648,-73.242,-91.309
1687767915.822,-52.246,-33.691,-18.066,-80.566,-108.398
1687767915.826,-39.062,-38.574,-18.066,-74.707,-89.355
1687767915.830,-41.016,-35.645,-21.484,-62.988,-1.953
1687767915.833,-44.922,-33.691,-25.391,-53.711,115.723
1687767915.837,-55.664,-35.645,-25.391,-62.012,140.625
1687767915.841,-48.828,-30.762,-20.508,-71.777,-140.625
1687767915.845,-28.809,-38.086,-16.113,-64.941,-174.805
1687767915.849,-19.043,-39.062,-29.297,-69.824,-96.680
1687767915.852,-32.227,-32.227,-28.809,-73.242,-241.211
1687767915.856,-58.105,-33.203,-15.137,-70.312,-233.887
1687767915.860,-54.199,-33.203,-18.555,-62.988,-54.199
1687767915.864,-43.945,-34.668,-26.855,-52.734,62.500
1687767915.868,-46.387,-32.227,-24.902,-58.105,-60.547
1687767915.872,-54.688,-28.809,-30.762,-69.336,-60.059
1687767915.876,-66.406,-27.832,-36.133,-68.848,20.020
1687767915.879,-70.312,-28.809,-24.414,-64.941,137.207
1687767915.883,-57.617,-33.203,-26.855,-72.266,21.484
1687767915.887,-42.480,-32.227,-32.227,-60.547,-87.402
1687767915.891,-52.734,-32.715,-30.762,-56.152,-7.324
1687767915.895,-67.383,-37.598,-32.227,-69.336,71.289
1687767915.896,-58.105,-34.180,-33.691,-75.195,-84.961
1687767915.900,-47.852,-31.738,-33.691,-67.871,-176.758
1687767915.904,-43.457,-31.738,-29.297,-62.012,-132.324
1687767915.908,-46.875,-26.367,-30.273,-62.012,-66.895
1687767915.912,-54.688,-24.902,-39.551,-62.012,41.992
1687767915.916,-54.688,-30.273,-35.156,-72.754,-44.434
1687767915.920,-49.805,-34.668,-33.691,-66.895,80.078
1687767915.923,-49.316,-30.762,-37.109,-54.688,289.062
1687767915.927,-59.570,-35.156,-36.133,-62.500,-59.570
1687767915.931,-68.359,-33.203,-25.879,-81.543,-178.711
1687767915.935,-62.500,-26.367,-18.555,-78.125,-51.758
1687767915.939,-41.992,-27.344,-29.785,-67.383,-84.473
1687767915.941,-44.434,-35.645,-32.227,-79.102,-78.125
1687767915.945,-52.246,-42.480,-22.461,-82.520,-45.410
1687767915.949,-35.645,-49.316,-24.902,-75.684,-60.547
1687767915.953,-36.133,-49.805,-34.180,-80.078,-83.984
1687767915.957,-37.109,-24.414,-37.598,-87.891,-171.875
1687767915.961,-19.531,-11.719,-46.387,-81.055,-14.160
1687767915.965,-30.762,-24.902,-47.363,-79.590,258.301
1687767915.968,-59.570,-27.344,-47.363,-87.891,99.121
1687767915.972,-57.617,-25.391,-55.664,-86.426,-51.758
1687767915.976,-43.945,-24.414,-50.781,-79.590,103.027
1687767915.980,-33.203,-21.973,-50.293,-74.219,323.242
1687767915.984,-37.598,-25.879,-62.500,-89.355,68.359
1687767915.986,-55.664,-21.484,-63.965,-101.562,-253.418
1687767915.990,-60.059,-21.484,-65.430,-101.074,-210.449
1687767915.994,-49.805,-24.414,-73.730,-98.145,-184.570
1687767915.998,-34.668,-27.344,-82.520,-93.262,-219.238
1687767916.002,-33.691,-27.832,-83.496,-94.727,-183.105
1687767916.006,-41.504,-17.578,-78.613,-101.562,-7.812
1687767916.010,-46.387,-20.996,-84.961,-105.957,67.871
1687767916.013,-39.551,-29.297,-89.355,-102.051,-105.469
1687767916.017,-22.461,-20.996,-83.008,-98.145,-154.785
1687767916.021,-19.043,-17.090,-79.590,-86.426,145.508
1687767916.025,-39.062,-14.160,-75.684,-75.195,193.359
1687767916.029,-54.199,-7.812,-76.660,-96.680,-170.410
1687767916.046,-48.828,-12.695,-81.055,-105.469,-172.852
1687767916.050,-29.785,-19.043,-79.102,-93.750,-90.332
1687767916.054,-10.742,-11.230,-75.195,-89.355,-114.746
1687767916.058,-24.414,-8.789,-82.031,-92.773,-107.910
1687767916.062,-52.734,-19.531,-90.332,-94.727,-74.219
1687767916.066,-51.758,-20.508,-86.426,-99.121,63.965
1687767916.070,-34.180,-18.066,-84.961,-90.332,11.230
1687767916.073,-36.621,-23.438,-84.961,-80.566,-85.449
1687767916.077,-41.016,-21.973,-76.172,-77.148,-57.617
1687767916.081,-43.945,-14.160,-64.453,-69.824,302.734
1687767916.085,-45.410,-19.043,-70.801,-82.520,181.152
1687767916.089,-30.762,-22.949,-74.219,-85.449,-49.316
1687767916.091,-25.391,-23.438,-70.312,-78.613,39.551
1687767916.095,-29.297,-28.320,-67.871,-69.824,14.160
1687767916.099,-43.945,-27.344,-63.477,-65.430,-109.863
1687767916.103,-41.016,-22.461,-56.641,-58.105,-150.391
1687767916.107,-22.949,-27.832,-60.059,-58.594,-34.668
1687767916.111,-19.043,-33.691,-56.152,-59.570,96.191
1687767916.115,-33.203,-30.762,-50.781,-58.105,121.094
1687767916.118,-41.992,-27.344,-50.293,-71.777,-41.992
1687767916.122,-40.039,-32.227,-46.875,-74.219,36.621
1687767916.126,-36.133,-39.551,-55.176,-65.430,141.113
1687767916.130,-28.320,-36.133,-56.152,-64.453,-116.211
1687767916.134,-25.391,-32.227,-45.898,-62.500,-138.184
1687767916.136,-42.480,-36.133,-50.293,-67.871,-9.277
1687767916.140,-49.805,-35.645,-52.246,-73.730,24.902
1687767916.144,-30.762,-24.902,-41.016,-58.105,-124.512
1687767916.148,-22.949,-27.832,-36.621,-41.992,-143.555
1687767916.152,-26.367,-41.016,-42.480,-50.293,37.109
1687767916.156,-38.574,-37.109,-42.480,-66.895,-32.227
1687767916.160,-35.645,-27.832,-41.992,-69.336,-138.672
1687767916.163,-22.461,-31.250,-43.945,-53.711,-51.758
1687767916.167,-20.020,-30.273,-40.527,-41.504,203.613
1687767916.171,-21.973,-34.668,-38.574,-43.457,57.617
1687767916.175,-25.391,-45.410,-42.969,-55.664,-214.355
1687767916.179,-31.738,-42.480,-43.945,-61.035,-171.387
1687767916.181,-38.086,-31.738,-39.551,-50.781,35.645
1687767916.185,-30.273,-32.227,-43.945,-54.199,-89.844
1687767916.189,-22.949,-43.457,-46.387,-62.988,-174.805
1687767916.193,-35.645,-45.410,-42.969,-62.012,-71.289
1687767916.197,-47.852,-42.969,-44.434,-65.918,-102.051
1687767916.201,-34.668,-40.039,-40.039,-52.734,-105.469
1687767916.205,-21.973,-36.133,-34.180,-46.387,-114.258
1687767916.208,-26.855,-39.062,-39.062,-51.270,32.227
1687767916.212,-39.062,-35.645,-36.133,-45.898,168.945
1687767916.216,-49.805,-37.109,-32.227,-49.805,-100.586
1687767916.220,-49.316,-45.410,-42.969,-59.082,-208.984
1687767916.224,-27.344,-29.297,-49.805,-57.129,-100.586
1687767916.226,-22.461,-22.461,-48.828,-54.199,-123.535
