timestamps,TP9,AF7,AF8,TP10,Right AUX
1687734334.591,-67.383,-32.715,-31.738,-59.082,-112.305
1687734334.595,-80.078,-37.109,-36.133,-62.988,-133.789
1687734334.599,-28.320,-37.598,-30.762,-52.246,-57.617
1687734334.603,-5.371,-37.109,-34.180,-49.316,-29.297
1687734334.607,-30.762,-35.156,-41.016,-55.176,-115.234
1687734334.611,-71.777,-41.016,-36.621,-58.105,-67.383
1687734334.615,-88.379,-45.898,-38.574,-57.617,139.160
1687734334.618,-38.086,-42.969,-39.551,-48.340,326.172
1687734334.622,-6.836,-39.062,-37.598,-47.363,157.715
1687734334.626,-23.926,-34.180,-34.180,-51.270,-110.840
1687734334.630,-61.523,-33.691,-31.738,-48.340,23.438
1687734334.634,-86.426,-35.645,-38.086,-47.852,102.539
1687734334.634,-86.426,-35.645,-38.086,-47.852,102.539
1687734334.636,-42.480,-33.691,-40.527,-43.457,-161.621
1687734334.640,-4.395,-37.109,-37.598,-42.480,-121.582
1687734334.644,-21.484,-38.086,-40.039,-55.664,-96.680
1687734334.648,-62.988,-38.574,-40.527,-69.336,-165.039
1687734334.652,-93.262,-39.062,-41.016,-72.754,-184.570
1687734334.656,-56.641,-39.062,-41.016,-58.594,-96.680
1687734334.660,-10.254,-39.062,-38.574,-48.828,253.906
1687734334.663,-13.672,-34.668,-38.574,-52.734,171.875
1687734334.667,-51.758,-33.203,-41.504,-62.012,-146.973
1687734334.671,-84.961,-34.180,-41.504,-62.988,-110.840
1687734334.675,-57.129,-33.203,-36.621,-51.758,-5.371
1687734334.679,-15.625,-39.062,-36.621,-52.734,-34.180
1687734334.681,-17.578,-42.480,-36.621,-61.523,-119.141
1687734334.685,-46.875,-38.086,-34.180,-59.570,-76.172
1687734334.689,-79.102,-31.738,-32.227,-47.363,-71.777
1687734334.693,-59.082,-33.203,-32.227,-44.922,-106.445
1687734334.697,-4.883,-37.598,-32.227,-42.969,-108.887
1687734334.701,0.488,-36.621,-30.273,-36.621,26.855
1687734334.705,-37.109,-28.320,-28.809,-40.039,118.652
1687734334.708,-83.984,-30.762,-28.320,-54.199,-5.371
1687734334.712,-77.637,-35.156,-28.809,-57.129,-79.590
1687734334.716,-27.344,-32.227,-35.645,-46.387,18.555
1687734334.720,-21.973,-37.109,-39.551,-45.898,150.879
1687734334.724,-39.551,-38.086,-35.156,-45.898,33.203
1687734334.741,-75.195,-35.645,-31.250,-43.945,-29.297
1687734334.745,-79.590,-36.133,-27.344,-41.016,41.992
1687734334.749,-23.926,-39.551,-28.809,-33.203,27.832
1687734334.753,-10.742,-37.109,-33.691,-35.645,-153.320
1687734334.757,-39.062,-39.062,-34.668,-41.016,-217.285
1687734334.761,-80.078,-40.039,-38.086,-49.805,-124.512
1687734334.765,-86.426,-33.691,-39.551,-56.641,-92.285
1687734334.768,-24.414,-28.320,-35.156,-54.688,-160.645
1687734334.772,-7.324,-28.809,-41.992,-56.641,-120.605
1687734334.776,-34.180,-27.832,-42.480,-47.363,60.059
1687734334.780,-72.266,-24.414,-35.156,-55.176,-15.625
1687734334.784,-91.309,-24.902,-37.598,-68.359,-89.844
1687734334.786,-40.039,-27.344,-36.621,-56.641,-18.555
1687734334.790,-16.602,-37.109,-41.504,-61.035,26.855
1687734334.794,-40.039,-41.504,-42.969,-66.406,-51.758
1687734334.798,-81.543,-38.086,-40.039,-73.242,-147.461
1687734334.802,-107.910,-37.109,-38.574,-71.777,-45.898
1687734334.806,-55.664,-34.668,-35.156,-55.664,77.637
1687734334.810,-17.578,-33.691,-36.133,-51.270,-11.230
1687734334.813,-27.832,-36.621,-37.109,-51.758,-91.309
1687734334.817,-63.477,-37.598,-37.109,-52.246,65.918
1687734334.821,-95.703,-35.156,-37.598,-51.270,318.359
1687734334.825,-62.988,-39.062,-39.551,-49.805,164.551
1687734334.829,-21.484,-45.898,-48.340,-49.805,-137.207
1687734334.831,-33.691,-47.852,-51.270,-46.875,-156.738
1687734334.835,-70.801,-47.852,-41.504,-53.223,-95.215
1687734334.839,-96.680,-45.898,-40.039,-63.965,-103.516
1687734334.843,-66.895,-40.527,-43.457,-60.547,-66.406
1687734334.847,-20.996,-34.668,-40.039,-49.805,29.297
1687734334.851,-28.320,-36.133,-35.156,-56.641,-1.953
1687734334.855,-62.988,-43.945,-39.062,-70.801,-69.824
1687734334.858,-96.680,-43.945,-41.992,-73.242,-120.605
1687734334.862,-80.566,-40.527,-43.457,-65.430,83.984
1687734334.866,-29.297,-39.551,-45.410,-63.477,106.445
1687734334.870,-19.531,-37.109,-40.527,-65.430,-191.406
1687734334.874,-52.734,-41.504,-37.598,-68.848,-207.520
1687734334.876,-98.145,-45.898,-40.039,-71.777,-76.660
1687734334.880,-83.008,-35.645,-42.969,-68.848,-99.121
1687734334.884,-28.320,-32.227,-40.039,-65.430,-126.953
1687734334.888,-19.531,-35.156,-34.180,-66.895,-119.629
1687734334.892,-56.641,-39.062,-35.645,-76.172,-109.375
1687734334.896,-89.355,-42.480,-38.086,-78.125,-33.203
1687734334.900,-77.637,-41.504,-41.016,-72.754,10.254
1687734334.903,-25.879,-38.574,-41.992,-60.547,102.539
1687734334.907,-7.812,-38.086,-36.133,-53.223,405.273
1687734334.911,-39.551,-38.574,-35.645,-62.012,253.418
1687734334.915,-82.031,-38.086,-38.574,-69.336,-154.297
1687734334.919,-81.055,-43.457,-39.551,-72.754,-120.605
1687734334.921,-16.113,-38.574,-39.062,-73.242,-105.957
1687734334.925,12.695,-30.273,-31.738,-67.871,-156.738
1687734334.929,-9.766,-33.203,-28.809,-67.383,-154.297
1687734334.933,-46.387,-33.691,-36.621,-78.125,-140.625
1687734334.937,-52.734,-32.227,-41.504,-84.961,-114.746
1687734334.941,0.977,-34.180,-41.016,-72.754,-26.855
1687734334.945,16.113,-33.203,-38.086,-62.500,3.418
1687734334.948,-18.066,-32.227,-34.180,-54.199,170.898
1687734334.952,-67.871,-41.992,-39.062,-65.430,174.805
1687734334.956,-98.145,-48.828,-41.016,-74.219,-132.812
1687734334.960,-50.781,-41.504,-38.086,-55.176,-123.047
1687734334.964,-13.184,-31.738,-38.574,-54.688,9.277
1687734334.966,-35.156,-29.785,-41.992,-65.430,-82.520
1687734334.970,-82.520,-36.133,-44.922,-69.824,-151.855
1687734334.974,-105.957,-36.621,-43.945,-67.871,-95.703
1687734334.978,-63.965,-37.598,-43.945,-66.895,-37.598
1687734334.982,-25.879,-38.574,-36.133,-66.406,-84.961
1687734334.986,-35.156,-36.621,-34.180,-60.547,-92.285
1687734334.990,-74.219,-41.504,-38.574,-67.871,147.461
1687734334.993,-98.145,-41.016,-35.156,-56.152,391.113
1687734334.997,-56.641,-37.109,-30.273,-37.109,93.262
1687734335.001,-17.090,-34.180,-31.738,-41.016,-226.562
1687734335.005,-28.320,-33.203,-32.227,-41.992,6.836
1687734335.009,-60.547,-32.227,-31.738,-46.387,97.656
1687734335.011,-91.797,-32.715,-35.645,-57.129,-192.871
1687734335.015,-71.777,-37.109,-38.574,-48.828,-165.527
1687734335.019,-29.297,-40.527,-36.621,-39.062,-114.746
1687734335.023,-30.762,-37.109,-37.598,-41.504,-136.230
1687734335.027,-64.941,-37.109,-41.504,-50.293,-161.133
1687734335.031,-99.121,-36.133,-40.039,-55.176,-100.098
1687734335.035,-77.637,-28.320,-35.645,-44.922,221.680
1687734335.038,-28.809,-29.297,-35.645,-40.527,194.824
1687734335.042,-20.996,-35.645,-34.180,-46.387,-193.848
1687734335.046,-48.828,-37.598,-34.180,-57.129,-176.270
1687734335.050,-84.961,-33.691,-34.180,-60.059,-52.246
1687734335.054,-75.195,-36.133,-39.062,-55.664,-63.965
1687734335.057,-24.902,-38.574,-42.480,-56.152,-136.230
1687734335.061,-14.648,-37.109,-38.086,-47.852,-4.883
1687734335.065,-41.504,-33.203,-36.133,-47.363,59.570
1687734335.069,-80.078,-35.156,-34.668,-60.059,-120.117
1687734335.073,-76.660,-38.574,-35.645,-61.523,-101.074
1687734335.077,-22.461,-35.645,-32.227,-53.711,45.898
1687734335.081,-14.160,-37.109,-35.156,-51.758,109.375
1687734335.084,-38.086,-36.621,-34.180,-58.105,29.785
1687734335.088,-74.707,-35.645,-34.668,-76.660,-79.590
1687734335.092,-80.078,-36.133,-37.109,-72.266,35.156
1687734335.096,-22.461,-35.156,-37.109,-50.293,208.984
1687734335.100,1.465,-34.668,-40.039,-52.246,-12.695
1687734335.116,-13.184,-34.180,-35.645,-47.852,-176.758
1687734335.120,-53.711,-39.551,-32.227,-54.199,-130.859
1687734335.124,-69.336,-43.457,-29.297,-54.199,-106.445
1687734335.128,-17.090,-40.039,-32.227,-45.410,-102.051
1687734335.132,6.836,-38.086,-40.527,-49.805,-118.164
1687734335.136,-13.184,-34.180,-40.527,-44.922,110.352
1687734335.140,-56.641,-33.691,-37.598,-47.852,187.012
1687734335.143,-77.637,-36.621,-30.762,-50.781,-131.348
1687734335.147,-26.367,-33.203,-26.367,-46.875,-170.410
1687734335.151,5.371,-34.668,-34.668,-46.875,-25.879
1687734335.155,-19.531,-40.039,-41.016,-53.711,-42.480
1687734335.159,-53.711,-35.156,-41.504,-60.059,-150.879
1687734335.161,-75.195,-33.203,-43.945,-61.035,-92.773
1687734335.165,-33.691,-41.016,-43.945,-54.688,-20.996
1687734335.169,8.301,-38.086,-41.016,-48.340,-79.102
1687734335.173,-2.930,-29.785,-41.016,-47.363,-101.562
1687734335.177,-39.551,-27.344,-43.945,-47.852,-38.086
1687734335.181,-70.801,-31.250,-43.457,-47.363,47.852
1687734335.185,-42.969,-38.574,-40.527,-45.898,-3.906
1687734335.188,0.000,-34.180,-32.715,-37.109,-100.098
1687734335.192,-3.906,-29.785,-29.297,-33.203,76.660
1687734335.196,-44.434,-33.203,-33.203,-35.645,425.293
1687734335.200,-86.426,-29.297,-35.645,-45.410,228.027
1687734335.204,-70.801,-30.273,-34.668,-50.293,-98.145
1687734335.206,-20.996,-34.180,-34.180,-41.992,-145.996
1687734335.210,-17.090,-32.715,-32.715,-40.527,-213.867
1687734335.214,-50.781,-32.715,-26.855,-44.922,-218.262
1687734335.218,-88.867,-31.250,-28.320,-52.734,-171.875
1687734335.222,-75.195,-37.109,-29.297,-46.875,-99.609
1687734335.226,-20.020,-41.504,-27.832,-32.715,-11.719
1687734335.230,-13.672,-41.016,-33.691,-39.551,-8.789
1687734335.233,-41.504,-37.109,-39.062,-49.805,-115.234
1687734335.237,-73.242,-33.203,-37.109,-42.969,126.465
1687734335.241,-68.848,-32.715,-33.691,-34.180,260.254
1687734335.245,-13.672,-33.691,-33.691,-34.668,-77.148
1687734335.249,4.395,-36.621,-31.738,-40.039,-121.582
1687734335.251,-27.344,-38.574,-29.785,-41.016,-59.570
1687734335.255,-74.219,-37.598,-34.180,-41.016,-134.277
1687734335.259,-78.125,-35.645,-37.598,-45.898,-128.906
1687734335.263,-22.949,-36.133,-37.598,-41.504,-52.246
1687734335.267,-3.906,-33.691,-37.598,-43.457,39.062
1687734335.271,-28.809,-34.180,-33.691,-54.199,59.082
1687734335.275,-70.801,-41.992,-39.551,-59.570,19.043
1687734335.278,-82.520,-48.340,-40.039,-54.688,105.957
1687734335.282,-32.715,-46.387,-33.203,-39.062,355.957
1687734335.286,-3.418,-40.039,-33.203,-41.504,128.418
1687734335.290,-21.484,-38.574,-37.598,-55.176,-143.555
1687734335.294,-59.570,-37.109,-35.645,-58.105,-18.555
1687734335.296,-71.777,-31.738,-31.738,-56.641,-70.801
1687734335.300,-25.879,-31.738,-33.203,-54.199,-213.867
1687734335.304,5.371,-33.691,-37.109,-50.293,-194.336
1687734335.308,-15.137,-28.320,-34.668,-48.828,-133.789
1687734335.312,-61.035,-30.762,-30.273,-52.734,-106.445
1687734335.316,-83.496,-35.156,-28.320,-52.734,-19.043
1687734335.320,-32.715,-29.297,-23.438,-35.156,-68.359
1687734335.323,4.883,-32.227,-25.391,-20.996,76.172
1687734335.327,-18.555,-41.992,-31.738,-28.320,72.266
1687734335.331,-55.664,-42.969,-31.250,-35.645,-197.266
1687734335.335,-77.148,-36.621,-26.855,-32.227,-86.914
1687734335.339,-40.527,-32.227,-29.297,-27.344,-16.113
1687734335.342,6.348,-34.668,-29.297,-22.949,-101.562
1687734335.346,2.441,-32.227,-26.855,-29.297,-104.492
1687734335.350,-40.527,-30.273,-31.250,-38.086,-51.758
1687734335.354,-74.707,-37.109,-31.738,-39.551,-18.066
1687734335.358,-41.016,-40.039,-30.762,-35.156,-133.301
1687734335.362,0.977,-38.574,-30.273,-32.715,-146.973
1687734335.366,-1.953,-38.086,-29.297,-32.227,20.020
1687734335.369,-36.133,-39.062,-30.762,-37.598,282.227
1687734335.373,-77.637,-40.039,-32.715,-49.316,95.703
1687734335.377,-56.152,-41.504,-34.668,-45.410,-205.078
1687734335.381,-9.277,-43.457,-34.668,-37.598,-59.570
1687734335.385,-8.789,-40.527,-33.691,-40.039,-3.418
1687734335.386,-35.645,-37.109,-31.250,-45.410,-149.902
1687734335.390,-69.824,-35.645,-26.855,-42.480,-151.855
1687734335.394,-56.152,-36.621,-25.879,-36.133,-115.234
1687734335.398,-5.371,-36.621,-26.367,-33.691,-68.359
1687734335.402,-2.441,-41.016,-28.809,-39.062,-65.918
1687734335.406,-35.645,-39.551,-29.297,-52.246,-111.328
1687734335.410,-79.590,-37.109,-27.832,-54.688,170.898
1687734335.413,-76.660,-37.598,-27.832,-47.852,247.070
1687734335.417,-20.020,-35.156,-28.809,-52.734,-102.539
1687734335.421,-9.277,-38.086,-31.250,-60.059,-153.320
1687734335.425,-43.945,-39.062,-28.809,-56.152,-140.137
1687734335.429,-93.262,-39.062,-29.785,-57.129,-125.488
1687734335.431,-98.633,-39.062,-32.227,-52.246,-137.695
1687734335.435,-35.156,-39.551,-30.273,-36.621,-62.012
1687734335.439,-15.137,-42.969,-31.738,-37.598,-20.508
1687734335.443,-40.527,-42.480,-36.621,-39.062,-131.348
1687734335.447,-79.102,-43.945,-38.086,-42.480,-153.809
1687734335.451,-98.633,-46.387,-41.992,-44.922,63.965
1687734335.455,-47.852,-40.039,-42.480,-39.551,194.336
1687734335.458,-13.672,-39.062,-41.016,-44.922,14.648
1687734335.462,-34.668,-41.992,-41.992,-50.293,-85.938
1687734335.466,-81.055,-39.062,-38.086,-52.734,38.574
1687734335.470,-102.051,-35.156,-35.156,-49.805,275.879
1687734335.474,-60.059,-38.574,-39.062,-53.223,83.496
1687734335.491,-32.715,-41.992,-43.457,-59.570,-168.457
1687734335.495,-54.199,-39.062,-41.504,-64.453,-173.340
1687734335.499,-94.727,-40.039,-41.016,-70.801,-192.383
1687734335.503,-112.793,-38.574,-41.992,-62.500,-185.547
1687734335.507,-66.895,-33.691,-41.016,-58.594,-66.406
1687734335.511,-33.203,-34.668,-41.504,-62.988,55.664
1687734335.515,-50.293,-40.527,-43.457,-69.336,79.590
1687734335.518,-87.891,-41.504,-41.016,-76.660,54.688
1687734335.522,-122.559,-42.480,-41.504,-78.125,7.324
1687734335.526,-85.449,-43.457,-43.457,-63.965,-6.836
1687734335.530,-39.062,-42.480,-42.969,-57.617,-98.633
1687734335.534,-48.340,-45.898,-44.922,-67.383,-171.875
1687734335.536,-80.566,-44.434,-45.410,-73.730,-100.586
1687734335.540,-112.305,-45.898,-45.898,-69.336,210.449
1687734335.544,-91.797,-44.922,-51.758,-65.918,159.668
1687734335.548,-42.480,-38.574,-46.875,-63.965,-124.023
1687734335.552,-38.086,-39.062,-42.480,-63.965,-86.426
1687734335.556,-73.242,-42.480,-45.898,-71.777,-4.395
1687734335.560,-105.957,-40.527,-41.992,-74.707,24.902
1687734335.563,-80.078,-36.621,-44.434,-66.406,18.555
1687734335.567,-26.855,-39.551,-46.875,-53.223,-0.977
1687734335.571,-20.020,-46.387,-44.922,-46.387,263.672
1687734335.575,-47.363,-44.922,-50.293,-51.270,192.383
1687734335.579,-88.867,-41.016,-50.293,-60.547,-145.508
1687734335.581,-82.520,-43.945,-44.434,-56.152,-91.309
1687734335.585,-23.438,-47.852,-39.062,-46.875,-108.887
1687734335.589,-9.766,-41.504,-37.109,-47.852,-189.453
1687734335.593,-43.945,-40.527,-41.504,-56.641,-176.270
1687734335.597,-91.309,-50.293,-42.969,-63.477,-135.742
1687734335.601,-94.238,-50.293,-43.457,-60.547,-44.922
1687734335.605,-42.969,-50.293,-45.410,-55.176,-81.055
1687734335.608,-27.344,-48.340,-41.016,-54.199,-162.598
1687734335.612,-53.223,-43.945,-39.551,-60.547,121.582
1687734335.616,-96.680,-41.016,-39.551,-70.312,154.785
1687734335.620,-101.562,-37.598,-39.551,-73.242,-195.801
1687734335.624,-36.621,-37.598,-43.945,-67.871,-132.812
1687734335.626,-6.836,-34.668,-45.898,-62.012,19.531
1687734335.630,-27.832,-34.668,-46.875,-70.801,-37.598
1687734335.634,-59.570,-37.598,-49.805,-83.496,-171.875
1687734335.638,-71.289,-36.621,-49.316,-75.684,-104.492
1687734335.642,-25.391,-34.180,-46.875,-60.547,40.527
1687734335.646,7.324,-33.203,-46.875,-45.410,21.973
1687734335.650,-19.531,-35.156,-42.480,-39.062,-22.949
1687734335.653,-76.660,-37.598,-40.039,-47.852,84.473
1687734335.657,-107.910,-40.527,-44.922,-52.734,378.418
1687734335.661,-66.895,-38.086,-43.457,-51.758,145.020
1687734335.665,-24.414,-39.551,-37.109,-46.875,-139.160
1687734335.669,-41.504,-45.898,-35.645,-50.293,-112.793
1687734335.672,-83.496,-45.410,-39.062,-54.688,-106.445
1687734335.676,-100.586,-41.016,-42.480,-51.270,-145.508
1687734335.680,-58.594,-40.039,-39.062,-44.922,-73.730
1687734335.684,-22.461,-46.875,-39.551,-38.574,64.941
1687734335.688,-34.180,-49.805,-42.969,-44.434,-82.520
1687734335.692,-70.801,-46.875,-38.574,-50.293,-94.727
1687734335.696,-98.145,-44.922,-36.133,-53.711,8.301
1687734335.699,-63.477,-41.504,-38.574,-45.410,161.621
1687734335.703,-20.508,-36.133,-41.016,-39.551,73.242
1687734335.707,-19.531,-37.598,-44.922,-45.410,-209.961
1687734335.711,-50.293,-35.156,-47.852,-49.805,-194.824
1687734335.715,-87.891,-29.297,-43.945,-55.176,-146.484
1687734335.716,-69.824,-34.668,-43.457,-56.152,-117.676
1687734335.720,-25.879,-33.691,-45.410,-59.082,-185.059
1687734335.724,-20.996,-28.809,-45.410,-58.594,-156.738
1687734335.728,-51.758,-28.809,-42.480,-65.430,-95.215
1687734335.732,-96.191,-37.109,-43.945,-73.242,-112.793
1687734335.736,-85.938,-42.969,-51.758,-71.289,-58.105
1687734335.740,-29.785,-41.016,-53.223,-65.918,68.848
1687734335.743,-22.949,-42.480,-54.199,-56.152,364.258
1687734335.747,-48.828,-36.133,-51.270,-57.129,212.402
1687734335.751,-85.449,-38.574,-44.922,-66.406,-156.738
1687734335.755,-88.867,-47.852,-42.969,-66.406,-14.648
1687734335.759,-33.203,-41.992,-40.527,-55.176,11.230
1687734335.763,-16.602,-38.086,-36.133,-46.387,-134.766
1687734335.767,-49.805,-45.898,-40.039,-59.570,-85.449
1687734335.771,-88.867,-45.898,-45.898,-70.312,-109.863
1687734335.775,-87.891,-44.922,-48.340,-61.523,-121.094
1687734335.779,-29.785,-45.410,-46.387,-52.734,-124.023
1687734335.783,-6.348,-43.457,-43.457,-52.734,-104.004
1687734335.787,-27.344,-39.062,-43.457,-49.316,168.457
1687734335.790,-67.871,-36.133,-37.598,-52.734,170.898
1687734335.794,-83.496,-45.410,-36.133,-58.594,-178.223
1687734335.798,-32.227,-45.410,-39.062,-48.828,-165.039
1687734335.802,-3.418,-38.086,-41.016,-44.922,-52.734
1687734335.806,-24.902,-38.574,-42.480,-47.852,-74.707
1687734335.806,-70.312,-39.062,-41.992,-56.152,-125.000
1687734335.810,-90.820,-42.480,-39.551,-56.641,-68.359
1687734335.814,-43.457,-49.316,-41.504,-53.223,-2.930
1687734335.818,-6.348,-45.410,-42.480,-51.758,-113.281
1687734335.822,-24.414,-41.992,-39.551,-54.688,-192.871
1687734335.826,-68.848,-44.434,-37.109,-60.547,57.129
1687734335.830,-87.402,-40.527,-36.133,-48.828,299.805
1687734335.833,-40.039,-35.645,-39.062,-44.434,99.121
1687734335.837,-1.465,-32.227,-40.039,-48.828,-74.707
1687734335.841,-14.648,-25.879,-37.109,-44.922,73.242
1687734335.845,-53.711,-27.344,-37.598,-41.992,334.961
1687734335.849,-84.961,-29.785,-37.109,-51.270,66.895
1687734335.866,-46.875,-31.250,-36.621,-44.434,-172.852
1687734335.870,-3.418,-34.180,-33.691,-36.133,-71.289
1687734335.874,-13.184,-33.203,-34.180,-41.504,-50.293
1687734335.878,-51.270,-34.668,-41.016,-48.340,-190.430
1687734335.882,-84.961,-32.715,-45.898,-49.805,-186.035
1687734335.886,-52.734,-36.621,-41.016,-40.039,-39.062
1687734335.890,-2.441,-36.621,-35.156,-36.621,14.160
1687734335.893,2.441,-28.809,-33.691,-37.109,-80.566
1687734335.897,-34.180,-38.574,-33.203,-43.457,-141.602
1687734335.901,-76.172,-45.410,-36.621,-50.781,76.660
1687734335.905,-54.199,-38.574,-34.180,-36.621,39.551
1687734335.909,3.906,-34.180,-31.738,-22.461,-149.414
1687734335.911,5.371,-31.738,-28.320,-22.949,-66.895
1687734335.915,-35.645,-28.320,-26.855,-29.297,16.602
1687734335.919,-78.613,-28.809,-32.715,-36.133,-74.219
1687734335.923,-76.660,-36.621,-34.668,-38.574,-134.277
1687734335.927,-29.785,-39.062,-33.691,-41.504,-138.672
1687734335.931,-22.461,-38.086,-37.109,-41.992,-76.660
1687734335.935,-53.711,-36.133,-35.156,-41.504,-40.039
1687734335.938,-89.844,-37.598,-31.250,-48.828,-95.703
1687734335.942,-84.473,-41.016,-32.227,-46.387,29.297
1687734335.946,-29.785,-40.527,-36.133,-32.227,318.848
1687734335.950,-12.695,-38.086,-38.086,-32.715,98.145
1687734335.954,-41.992,-35.156,-35.156,-46.387,-145.508
1687734335.957,-83.008,-35.645,-37.598,-45.410,-103.027
1687734335.961,-87.891,-37.598,-37.598,-39.551,-155.762
1687734335.965,-34.180,-38.574,-33.691,-40.039,-118.652
1687734335.969,-16.113,-38.574,-33.203,-41.504,-103.027
1687734335.973,-40.527,-40.527,-33.203,-45.898,-11.719
1687734335.977,-81.055,-45.898,-30.762,-48.828,56.152
1687734335.981,-102.051,-51.270,-39.551,-46.387,-115.234
1687734335.984,-48.828,-45.410,-41.504,-39.062,-185.547
1687734335.988,-14.160,-37.598,-34.180,-25.391,118.652
1687734335.992,-30.762,-37.109,-37.598,-25.391,137.695
1687734335.996,-64.453,-36.133,-37.109,-39.551,-157.715
1687734336.000,-85.449,-35.645,-36.133,-41.504,-119.629
1687734336.001,-36.621,-36.133,-35.645,-32.227,-32.715
1687734336.005,0.000,-35.645,-37.598,-32.227,-102.539
1687734336.009,-15.625,-35.156,-37.598,-38.574,-157.715
1687734336.013,-51.758,-33.691,-36.133,-37.109,-26.367
1687734336.017,-83.496,-39.062,-41.504,-38.086,83.008
1687734336.021,-44.922,-41.992,-45.898,-33.203,48.340
1687734336.025,-1.465,-42.480,-42.480,-34.668,-50.781
1687734336.028,-17.090,-41.992,-37.109,-41.504,130.859
1687734336.032,-61.035,-40.527,-38.574,-40.039,438.477
1687734336.036,-99.609,-45.410,-42.969,-41.504,303.711
1687734336.040,-67.871,-44.922,-40.039,-37.598,-45.898
1687734336.044,-21.973,-43.457,-38.086,-37.598,-139.160
1687734336.046,-26.855,-41.016,-40.527,-44.922,-114.258
1687734336.050,-57.617,-39.062,-38.574,-44.922,-203.125
1687734336.054,-94.238,-37.598,-37.109,-49.316,-199.707
1687734336.058,-75.195,-41.016,-41.992,-50.293,-105.469
1687734336.062,-15.625,-43.457,-37.109,-39.551,-78.125
1687734336.066,-15.137,-40.527,-32.227,-49.316,-63.477
1687734336.070,-53.223,-40.527,-37.598,-64.453,-58.594
1687734336.073,-91.309,-43.457,-36.133,-55.664,233.398
1687734336.077,-75.684,-43.457,-36.133,-42.969,239.746
1687734336.081,-13.184,-39.551,-37.598,-45.410,-139.648
1687734336.085,-8.301,-41.504,-40.039,-56.641,-135.742
1687734336.089,-47.363,-44.922,-47.363,-65.430,-87.891
1687734336.091,-90.820,-44.434,-50.781,-65.430,-146.484
1687734336.095,-85.449,-43.457,-47.363,-57.617,-148.926
1687734336.099,-28.809,-42.969,-45.898,-48.340,-113.770
1687734336.103,-14.160,-42.969,-42.969,-47.852,-140.625
1687734336.107,-42.969,-43.945,-40.039,-53.223,-163.574
1687734336.111,-82.520,-41.016,-42.480,-53.711,-97.168
1687734336.115,-83.984,-41.504,-41.992,-47.852,123.047
1687734336.118,-23.926,-37.598,-42.480,-32.715,334.961
1687734336.122,-5.371,-32.227,-42.969,-33.203,99.609
1687734336.126,-32.227,-38.086,-37.109,-47.852,-121.094
1687734336.130,-75.684,-39.551,-35.645,-47.363,43.945
1687734336.134,-91.309,-40.527,-42.480,-46.387,153.320
1687734336.136,-41.016,-41.992,-40.527,-51.758,-49.316
1687734336.140,-18.066,-41.016,-36.621,-56.152,-152.832
1687734336.144,-41.016,-39.551,-40.527,-58.594,-109.863
1687734336.148,-80.078,-37.598,-42.480,-60.547,-142.090
1687734336.152,-102.539,-35.156,-40.039,-56.641,-209.961
1687734336.156,-52.246,-39.062,-42.480,-51.758,-116.211
1687734336.160,-19.043,-43.457,-47.852,-50.781,186.035
1687734336.163,-35.645,-40.527,-46.387,-50.293,111.328
1687734336.167,-76.172,-41.504,-46.387,-61.523,-160.645
1687734336.171,-108.398,-45.898,-46.387,-62.500,-99.609
1687734336.175,-61.523,-47.363,-45.898,-49.316,16.113
1687734336.179,-9.766,-42.480,-47.852,-39.062,-16.602
1687734336.182,-16.113,-41.504,-44.922,-32.227,-144.531
1687734336.186,-70.312,-45.898,-39.062,-43.457,-83.496
1687734336.190,-104.004,-41.992,-37.598,-47.852,23.926
1687734336.194,-55.176,-41.016,-43.457,-41.016,-68.848
1687734336.198,-10.254,-49.316,-49.805,-37.109,-83.984
1687734336.202,-22.949,-52.246,-50.293,-35.156,20.508
1687734336.206,-62.500,-51.270,-49.805,-40.527,98.633
1687734336.209,-92.773,-48.828,-48.340,-36.621,3.418
1687734336.213,-61.035,-43.457,-45.898,-30.273,-115.234
1687734336.217,-18.066,-45.898,-48.828,-30.762,-2.441
1687734336.221,-21.484,-44.922,-48.828,-24.902,140.137
1687734336.225,-54.199,-39.062,-46.387,-29.297,-109.375
1687734336.241,-93.262,-41.016,-47.852,-35.156,-227.539
1687734336.245,-74.707,-44.434,-45.898,-25.391,-61.523
1687734336.249,-16.602,-40.527,-43.945,-14.648,-19.531
1687734336.253,-15.137,-38.086,-45.898,-20.508,-180.176
1687734336.257,-50.293,-37.109,-49.316,-30.273,-215.820
1687734336.261,-85.449,-36.133,-48.828,-26.367,179.688
1687734336.265,-86.914,-40.527,-49.316,-31.250,291.992
1687734336.268,-38.086,-38.086,-50.781,-37.109,-97.656
1687734336.272,-20.020,-36.133,-47.852,-31.738,-111.328
1687734336.276,-51.758,-40.527,-50.781,-38.574,-7.324
1687734336.280,-93.262,-36.133,-51.270,-45.410,-76.660
1687734336.284,-85.938,-32.715,-48.828,-41.992,-109.375
1687734336.286,-26.367,-33.691,-44.434,-37.598,-53.223
1687734336.290,-9.277,-37.598,-40.527,-38.574,-96.191
1687734336.294,-45.898,-40.527,-43.457,-48.828,-180.664
1687734336.298,-90.332,-37.109,-49.316,-54.199,-155.273
1687734336.302,-89.355,-34.180,-49.316,-45.898,-7.812
1687734336.306,-35.645,-38.086,-43.945,-36.133,105.957
1687734336.310,-8.301,-34.180,-37.598,-30.273,-10.742
1687734336.313,-25.391,-32.227,-39.062,-29.785,-68.848
1687734336.317,-74.707,-39.062,-41.504,-32.227,17.578
1687734336.321,-91.309,-36.133,-39.062,-28.320,288.086
1687734336.325,-31.250,-36.621,-37.109,-20.020,171.875
1687734336.329,-5.371,-44.434,-35.156,-20.996,-101.074
1687734336.331,-32.715,-47.852,-41.016,-31.738,-124.023
1687734336.335,-68.359,-44.434,-45.410,-36.621,-161.621
1687734336.339,-79.102,-42.969,-43.457,-37.598,-138.184
1687734336.343,-20.996,-41.504,-40.527,-31.250,-80.078
1687734336.347,20.508,-38.574,-39.062,-31.250,-36.133
1687734336.351,0.977,-39.062,-39.551,-44.434,-23.926
1687734336.355,-40.039,-38.574,-38.574,-50.781,-5.859
1687734336.358,-75.195,-40.527,-40.039,-46.875,-35.156
1687734336.362,-44.434,-40.039,-40.527,-33.691,125.000
1687734336.366,-7.812,-36.621,-38.574,-23.926,162.109
1687734336.370,-26.855,-36.133,-41.992,-30.762,-177.246
1687734336.374,-71.777,-38.086,-42.969,-46.875,-241.699
1687734336.376,-102.539,-39.551,-42.969,-51.758,-161.621
1687734336.380,-68.359,-43.945,-44.434,-43.457,-139.648
1687734336.384,-21.484,-44.434,-43.945,-38.574,-166.504
1687734336.388,-20.996,-38.574,-39.551,-34.668,-90.332
1687734336.392,-61.035,-38.574,-39.551,-34.180,-9.766
1687734336.396,-101.074,-36.621,-46.387,-39.551,21.484
1687734336.400,-71.289,-35.156,-47.852,-37.109,61.523
1687734336.403,-21.973,-34.180,-44.434,-31.738,117.188
1687734336.407,-23.926,-32.715,-44.922,-27.344,432.129
1687734336.411,-54.199,-35.156,-41.992,-33.691,334.473
1687734336.415,-92.285,-34.668,-42.480,-46.387,-115.234
1687734336.419,-78.613,-32.715,-44.434,-50.781,-121.582
1687734336.421,-27.832,-33.203,-41.992,-54.688,-48.340
1687734336.425,-25.391,-35.156,-43.945,-59.082,-145.020
1687734336.429,-58.105,-38.086,-43.457,-61.523,-154.785
1687734336.433,-102.539,-38.574,-41.504,-62.012,-82.520
1687734336.437,-99.121,-40.039,-47.363,-59.570,-111.816
1687734336.441,-39.551,-45.898,-47.852,-52.246,-91.309
1687734336.445,-26.367,-47.852,-45.410,-50.781,-34.180
1687734336.448,-49.805,-46.387,-46.875,-51.758,86.426
1687734336.452,-90.820,-43.457,-42.480,-59.082,60.059
1687734336.456,-94.727,-41.504,-41.504,-59.082,-141.602
1687734336.460,-29.785,-41.992,-45.898,-42.480,-48.340
1687734336.464,-8.789,-43.457,-42.969,-37.598,196.777
1687734336.466,-35.645,-40.039,-37.598,-40.039,31.250
1687734336.470,-76.660,-39.551,-39.062,-38.086,-195.312
1687734336.474,-89.355,-41.992,-41.992,-38.574,-84.473
1687734336.478,-31.738,-37.598,-39.551,-37.109,-41.504
1687734336.482,-0.977,-36.133,-37.109,-35.645,-50.293
1687734336.486,-25.391,-42.480,-40.527,-42.480,-65.430
1687734336.490,-73.730,-42.969,-41.016,-50.781,40.039
1687734336.493,-93.750,-41.504,-35.645,-36.621,427.246
1687734336.497,-36.621,-39.551,-38.086,-24.902,207.520
1687734336.501,-0.977,-35.645,-39.551,-33.691,-116.699
1687734336.505,-19.043,-36.133,-38.574,-37.598,-76.660
1687734336.509,-62.012,-34.668,-41.016,-47.363,-138.672
1687734336.512,-81.543,-30.762,-39.551,-59.570,-164.062
1687734336.516,-36.133,-30.762,-45.410,-51.758,-88.867
1687734336.520,-3.418,-36.133,-45.410,-39.062,-14.648
1687734336.524,-17.090,-41.992,-41.504,-42.480,-88.379
1687734336.528,-56.641,-39.062,-44.434,-52.246,-145.996
1687734336.532,-85.449,-35.645,-48.828,-56.641,-60.059
1687734336.536,-46.875,-36.133,-47.852,-43.457,201.172
1687734336.539,-4.395,-35.156,-41.992,-32.715,179.199
1687734336.543,-14.648,-30.762,-39.551,-33.203,-126.465
1687734336.547,-50.293,-30.762,-38.086,-35.645,-119.629
1687734336.551,-84.961,-27.344,-34.180,-40.039,-72.266
1687734336.555,-55.176,-29.297,-36.133,-37.109,-104.004
1687734336.556,-0.977,-30.762,-39.551,-30.273,-176.270
1687734336.560,-4.883,-30.273,-41.016,-29.785,-150.391
1687734336.564,-41.992,-31.738,-40.527,-32.715,-106.445
1687734336.568,-79.590,-30.273,-40.039,-36.621,-45.898
1687734336.572,-62.500,-33.691,-37.598,-37.109,-130.371
1687734336.576,-5.371,-36.621,-34.668,-28.809,-60.547
1687734336.580,1.953,-30.273,-39.062,-22.949,273.926
1687734336.583,-32.227,-27.344,-40.039,-34.180,137.695
1687734336.587,-69.824,-29.785,-34.668,-36.621,-123.047
1687734336.591,-52.246,-30.273,-39.062,-28.809,-21.973
1687734336.595,-0.488,-31.250,-46.875,-28.809,112.793
1687734336.599,12.695,-30.762,-40.527,-28.320,-79.102
1687734336.616,-14.648,-26.855,-36.621,-28.809,-109.375
1687734336.620,-70.801,-30.273,-41.504,-41.992,-29.785
1687734336.624,-70.312,-32.227,-44.434,-45.898,-16.602
1687734336.628,-10.254,-28.320,-45.410,-43.945,-62.988
1687734336.632,4.883,-26.367,-45.410,-46.387,-129.883
1687734336.636,-23.438,-30.762,-40.039,-45.410,-60.547
1687734336.640,-65.430,-34.180,-36.133,-45.898,31.250
1687734336.643,-71.777,-33.203,-38.086,-40.039,-17.090
1687734336.647,-15.625,-34.180,-32.715,-31.738,-131.348
1687734336.651,1.465,-37.109,-32.227,-28.320,107.910
1687734336.655,-35.645,-36.133,-35.645,-32.715,179.688
1687734336.659,-80.566,-34.180,-30.273,-42.969,-155.762
1687734336.661,-93.262,-34.180,-32.227,-40.527,-131.348
1687734336.665,-41.016,-35.645,-41.016,-35.645,-35.645
1687734336.669,-10.254,-37.598,-41.992,-37.598,-126.465
1687734336.673,-31.250,-39.062,-39.551,-40.039,-205.078
1687734336.677,-72.266,-36.621,-36.621,-45.410,-79.590
1687734336.681,-89.355,-32.715,-35.645,-43.457,7.324
1687734336.685,-39.551,-32.715,-34.668,-37.109,-6.836
1687734336.688,-5.859,-34.668,-36.621,-46.387,53.711
1687734336.692,-26.855,-37.598,-37.598,-52.246,96.191
1687734336.696,-69.824,-37.109,-36.621,-53.223,291.504
1687734336.700,-94.238,-35.645,-41.504,-58.594,230.957
1687734336.704,-47.363,-36.621,-41.504,-52.246,-104.004
1687734336.706,-12.207,-40.527,-41.016,-48.828,-162.598
1687734336.710,-24.414,-41.992,-44.434,-55.664,-110.352
1687734336.714,-61.035,-42.480,-41.992,-58.594,-159.668
1687734336.718,-93.750,-40.527,-40.039,-61.035,-170.898
1687734336.722,-57.617,-40.527,-41.016,-51.758,-86.914
1687734336.726,-8.301,-37.109,-41.016,-40.527,-45.410
1687734336.730,-16.602,-35.645,-40.039,-44.434,-11.230
1687734336.733,-54.688,-39.062,-40.527,-52.734,-58.105
1687734336.737,-85.449,-38.574,-39.551,-50.293,145.996
1687734336.741,-61.035,-36.621,-37.598,-37.598,171.875
1687734336.745,-12.207,-35.645,-33.691,-32.715,-116.699
1687734336.749,-15.625,-38.086,-31.738,-33.203,-78.613
1687734336.751,-53.223,-36.133,-31.738,-30.762,-37.109
1687734336.755,-89.355,-32.227,-32.227,-31.250,-131.836
1687734336.759,-69.824,-33.203,-31.250,-33.691,-226.074
1687734336.763,-19.531,-41.504,-34.180,-32.715,-167.480
1687734336.767,-17.090,-41.992,-31.250,-39.062,-121.094
1687734336.771,-52.246,-39.062,-34.180,-41.992,-131.348
1687734336.775,-92.285,-37.109,-37.109,-39.062,-48.828
1687734336.778,-79.102,-37.109,-32.227,-39.551,104.004
1687734336.782,-27.832,-40.039,-35.156,-31.738,365.723
1687734336.786,-17.090,-41.016,-39.551,-32.227,136.719
1687734336.790,-45.410,-41.504,-41.016,-44.434,-229.004
1687734336.794,-84.473,-42.969,-42.969,-49.805,-150.391
1687734336.797,-83.008,-39.551,-41.992,-47.363,-70.312
1687734336.801,-28.320,-36.621,-37.109,-42.969,-65.430
1687734336.805,-18.066,-39.551,-41.016,-50.781,-122.070
1687734336.809,-44.434,-41.016,-44.434,-56.152,-79.590
1687734336.813,-83.496,-41.992,-40.527,-59.570,-81.543
1687734336.817,-87.402,-40.527,-38.086,-55.176,-124.023
1687734336.821,-31.250,-39.062,-39.062,-41.016,-77.148
1687734336.824,-9.766,-38.574,-41.504,-41.504,115.723
1687734336.828,-32.227,-33.691,-45.410,-47.852,146.484
1687734336.832,-65.430,-31.738,-42.969,-47.852,-128.418
1687734336.836,-77.637,-30.273,-39.551,-45.898,-74.219
1687734336.840,-37.109,-29.297,-40.527,-47.363,-56.152
1687734336.841,-8.301,-35.645,-42.969,-48.340,-177.246
1687734336.845,-26.367,-40.039,-38.574,-50.781,-125.000
1687734336.849,-73.242,-41.504,-31.738,-55.176,-77.637
1687734336.853,-95.215,-42.480,-34.180,-55.664,-34.180
1687734336.857,-48.340,-42.969,-39.551,-55.664,-46.875
1687734336.861,-6.836,-38.574,-40.039,-55.176,-45.410
1687734336.865,-22.949,-31.250,-34.180,-53.223,59.082
1687734336.868,-64.941,-29.297,-32.227,-48.828,367.676
1687734336.872,-87.402,-32.715,-35.156,-47.363,365.723
1687734336.876,-49.805,-36.621,-35.645,-47.363,-22.461
1687734336.880,-5.859,-38.086,-39.062,-42.969,-126.465
1687734336.884,-18.066,-46.387,-42.480,-45.898,-157.715
1687734336.886,-61.035,-47.852,-41.992,-54.199,-158.691
1687734336.890,-96.191,-39.062,-42.969,-62.500,-115.234
1687734336.894,-63.965,-37.598,-42.969,-56.641,-87.402
1687734336.898,-13.184,-40.527,-37.598,-47.363,-86.914
1687734336.902,-15.625,-35.156,-34.180,-47.363,-88.379
1687734336.906,-49.805,-36.621,-39.062,-53.223,-77.148
1687734336.910,-85.449,-38.086,-38.574,-42.969,249.512
1687734336.913,-59.082,-32.227,-37.109,-28.809,294.434
1687734336.917,-5.371,-32.715,-37.109,-30.762,-99.609
1687734336.921,-7.324,-31.738,-34.180,-40.039,-108.887
1687734336.925,-43.945,-27.832,-37.598,-50.781,15.137
1687734336.929,-86.914,-30.762,-51.270,-58.594,-92.285
1687734336.931,-80.078,-34.180,-54.688,-62.988,-163.574
1687734336.935,-30.762,-31.250,-50.781,-58.594,-87.891
1687734336.939,-22.949,-32.227,-48.340,-59.570,-93.262
1687734336.943,-49.316,-30.273,-46.387,-61.523,-134.766
1687734336.947,-91.797,-28.809,-46.875,-61.035,-131.836
1687734336.951,-93.750,-32.715,-44.922,-57.129,32.715
1687734336.955,-39.551,-33.691,-45.898,-42.480,202.148
1687734336.958,-24.414,-32.715,-42.969,-37.109,-3.418
1687734336.962,-53.711,-39.062,-41.992,-50.781,-142.090
1687734336.966,-89.355,-40.527,-42.969,-46.875,77.148
1687734336.970,-89.355,-35.156,-41.992,-28.809,309.082
1687734336.974,-40.527,-33.203,-45.898,-27.832,20.508
1687734336.991,-18.555,-35.156,-42.480,-32.227,-176.758
1687734336.995,-35.645,-34.180,-40.039,-38.574,-124.023
1687734336.999,-72.266,-28.320,-40.039,-49.316,-122.559
1687734337.003,-85.449,-32.227,-39.551,-51.758,-167.969
1687734337.007,-34.668,-34.668,-43.457,-43.457,-199.707
1687734337.011,-8.789,-33.203,-46.387,-41.504,-67.871
1687734337.015,-35.156,-39.551,-42.969,-44.922,-37.598
1687734337.018,-82.520,-43.945,-41.016,-50.781,-159.668
1687734337.022,-97.656,-36.133,-39.551,-52.246,-240.234
1687734337.026,-40.527,-34.180,-42.969,-44.434,62.988
1687734337.030,-11.230,-39.551,-49.805,-45.898,162.109
1687734337.034,-21.973,-36.621,-45.410,-54.688,-154.785
1687734337.036,-50.293,-32.715,-37.109,-66.895,-136.719
1687734337.040,-70.312,-22.461,-38.574,-66.406,-12.695
1687734337.044,-20.508,-24.902,-42.969,-58.105,-138.184
1687734337.048,23.926,-29.297,-43.457,-56.641,-206.055
1687734337.052,5.859,-24.902,-43.457,-60.547,-91.309
1687734337.056,-44.922,-32.227,-44.434,-63.477,29.297
1687734337.060,-81.543,-37.598,-43.945,-57.617,86.426
1687734337.063,-53.223,-35.645,-44.434,-51.758,44.434
1687734337.067,-17.578,-35.156,-47.852,-48.828,93.262
1687734337.071,-36.133,-40.039,-45.898,-44.434,325.684
1687734337.075,-77.148,-41.992,-42.969,-55.176,114.258
1687734337.079,-103.516,-34.668,-41.016,-67.383,-185.059
1687734337.081,-72.754,-35.156,-41.016,-55.664,-98.633
1687734337.085,-9.766,-32.715,-35.156,-41.016,-61.523
1687734337.089,-12.695,-30.273,-34.180,-49.805,-146.973
1687734337.093,-59.082,-38.086,-37.109,-58.105,-190.430
1687734337.097,-98.633,-42.480,-35.156,-57.129,-154.297
1687734337.101,-81.055,-44.434,-39.551,-52.246,-80.566
1687734337.105,-29.785,-39.062,-41.992,-50.781,-43.945
1687734337.108,-21.973,-33.691,-41.504,-52.734,-129.395
1687734337.112,-52.246,-34.668,-39.062,-50.293,36.621
1687734337.116,-91.797,-34.668,-38.086,-49.805,121.094
1687734337.120,-82.031,-37.109,-41.504,-48.340,-115.234
1687734337.124,-30.762,-39.551,-39.551,-46.875,-97.656
1687734337.127,-16.113,-38.086,-37.598,-47.363,-46.875
1687734337.131,-35.156,-36.621,-36.621,-48.340,-118.164
1687734337.135,-81.055,-37.109,-40.527,-60.059,-147.461
1687734337.139,-82.031,-41.016,-41.504,-59.570,8.301
1687734337.143,-25.879,-41.016,-41.016,-54.199,114.746
1687734337.147,-14.160,-39.062,-44.434,-62.500,60.547
1687734337.151,-39.551,-37.109,-46.387,-63.477,-27.344
1687734337.154,-89.355,-41.016,-50.781,-68.359,17.090
1687734337.158,-101.562,-44.922,-44.922,-60.059,331.055
1687734337.162,-41.504,-41.504,-41.504,-52.246,129.883
1687734337.166,-14.160,-38.574,-36.621,-50.781,-220.215
1687734337.170,-35.156,-36.621,-34.668,-42.969,-166.504
1687734337.172,-79.102,-37.598,-45.410,-50.293,-72.754
1687734337.176,-91.797,-39.062,-47.363,-47.852,-49.805
1687734337.180,-34.180,-44.434,-42.969,-27.832,-37.109
1687734337.184,0.000,-49.316,-36.621,-24.414,-73.242
1687734337.188,-19.531,-42.480,-31.250,-29.297,-132.324
1687734337.192,-58.105,-34.668,-27.344,-29.297,-139.160
1687734337.196,-78.125,-31.738,-26.855,-27.344,-82.520
1687734337.199,-32.715,-33.203,-31.738,-19.043,229.980
1687734337.203,-0.977,-34.180,-38.086,-17.578,347.656
1687734337.207,-20.996,-32.715,-35.156,-29.785,-12.695
1687734337.211,-62.988,-36.133,-36.621,-42.480,-142.090
1687734337.215,-85.938,-36.133,-38.086,-47.363,-66.895
1687734337.216,-39.062,-34.180,-31.250,-41.016,-129.883
1687734337.220,4.395,-32.227,-35.156,-38.086,-130.859
1687734337.224,-1.953,-28.809,-38.574,-41.504,-27.344
1687734337.228,-39.551,-26.855,-35.156,-42.480,-11.719
1687734337.232,-73.730,-30.273,-35.156,-41.504,-58.594
1687734337.236,-40.527,-40.039,-37.109,-44.434,-34.668
1687734337.240,7.812,-43.945,-35.645,-43.457,48.828
1687734337.243,1.953,-43.945,-33.203,-36.133,377.441
1687734337.247,-38.574,-41.016,-30.762,-42.969,340.820
1687734337.251,-73.730,-37.109,-32.715,-57.129,-53.223
1687734337.255,-55.664,-42.969,-37.109,-56.641,-6.348
1687734337.259,-5.371,-41.992,-35.645,-43.457,26.855
1687734337.261,4.883,-36.133,-36.133,-44.922,-221.191
1687734337.265,-31.738,-37.109,-36.621,-52.246,-262.695
1687734337.269,-72.754,-39.551,-34.668,-47.363,-169.922
1687734337.273,-60.059,-37.598,-30.762,-38.574,-145.996
1687734337.277,-10.254,-37.109,-30.273,-24.414,-182.129
1687734337.281,-5.371,-33.203,-33.691,-23.438,-98.633
1687734337.285,-33.691,-29.297,-30.762,-22.949,190.430
1687734337.288,-75.684,-30.762,-31.738,-22.949,189.453
1687734337.292,-72.266,-33.203,-31.738,-28.809,-131.836
1687734337.296,-13.184,-39.062,-27.832,-22.461,-103.027
1687734337.300,-4.883,-35.156,-26.367,-22.461,-27.344
1687734337.304,-36.621,-31.738,-28.320,-24.902,-144.043
1687734337.306,-75.684,-32.715,-26.855,-26.855,-219.727
1687734337.310,-78.613,-36.621,-23.438,-31.738,-160.156
1687734337.314,-27.832,-36.621,-29.785,-31.738,-134.277
1687734337.318,-6.348,-32.715,-25.879,-32.227,-181.152
1687734337.322,-33.203,-30.762,-25.391,-40.527,-177.246
1687734337.326,-80.566,-28.809,-32.227,-47.363,13.672
1687734337.330,-90.332,-27.344,-31.738,-38.574,244.629
1687734337.333,-30.273,-26.855,-26.855,-31.738,105.957
1687734337.337,-1.465,-32.227,-23.438,-38.086,-46.875
1687734337.341,-21.484,-31.738,-20.996,-39.062,-2.930
1687734337.345,-69.336,-29.785,-21.973,-39.551,172.363
1687734337.349,-94.238,-34.180,-30.273,-49.805,32.715
1687734337.381,-37.598,-34.180,-30.762,-48.340,-165.039
1687734337.385,-4.883,-32.227,-29.297,-40.527,-52.734
1687734337.389,-35.645,-38.086,-33.203,-46.875,-78.613
1687734337.393,-84.473,-38.086,-28.320,-47.852,-223.633
1687734337.397,-102.051,-34.180,-23.438,-36.133,-153.320
1687734337.401,-51.270,-38.086,-26.367,-25.879,-6.348
1687734337.405,-13.184,-37.109,-29.785,-27.344,55.664
1687734337.408,-26.367,-38.574,-28.320,-35.156,-79.590
1687734337.412,-62.012,-40.527,-27.832,-39.551,-175.781
1687734337.416,-87.891,-35.156,-27.344,-40.039,45.898
1687734337.420,-51.758,-36.621,-28.320,-35.156,87.402
1687734337.424,-12.695,-41.504,-26.855,-35.645,-116.211
1687734337.401,-26.367,-44.434,-23.926,-41.016,-124.023
1687734337.405,-67.383,-45.898,-28.809,-42.969,-99.609
1687734337.409,-96.680,-41.992,-30.273,-47.363,-28.320
1687734337.413,-61.523,-39.062,-27.344,-43.457,-73.730
1687734337.417,-15.137,-40.527,-29.297,-38.086,-9.766
1687734337.421,-23.926,-41.504,-33.691,-42.969,187.500
1687734337.425,-56.641,-44.434,-31.738,-39.062,16.602
1687734337.428,-92.285,-45.410,-32.227,-40.527,-147.461
1687734337.432,-77.148,-44.922,-37.109,-48.828,-6.348
1687734337.436,-30.762,-38.574,-36.621,-51.758,-15.137
1687734337.440,-32.227,-34.668,-36.133,-50.293,-157.227
1687734337.444,-68.848,-37.109,-36.133,-52.246,-213.867
1687734337.456,-104.980,-35.156,-36.133,-44.922,43.457
1687734337.460,-91.309,-35.645,-34.668,-35.645,178.711
1687734337.464,-34.180,-35.156,-33.691,-35.156,-55.176
1687734337.468,-22.461,-37.598,-36.133,-40.527,-153.809
1687734337.472,-56.152,-39.062,-40.527,-45.410,120.117
1687734337.476,-88.867,-39.062,-36.133,-38.574,397.461
1687734337.480,-83.008,-43.945,-31.738,-35.645,90.820
1687734337.483,-33.203,-41.504,-30.273,-33.691,-155.273
1687734337.487,-15.137,-37.598,-23.438,-28.809,7.324
1687734337.491,-51.758,-41.016,-28.320,-38.574,30.273
1687734337.495,-95.703,-39.062,-34.668,-40.527,-186.035
1687734337.499,-94.238,-32.715,-27.832,-31.250,-135.254
1687734337.501,-39.551,-35.645,-25.879,-35.645,-77.637
1687734337.505,-20.020,-38.574,-33.691,-40.039,-90.332
1687734337.509,-41.504,-32.715,-34.668,-34.180,-159.668
1687734337.513,-83.984,-30.273,-33.203,-45.410,-126.465
1687734337.517,-95.703,-29.785,-33.203,-54.199,-88.379
1687734337.521,-31.738,-31.738,-32.227,-39.062,-50.781
1687734337.525,-5.371,-37.109,-34.668,-35.645,-39.062
1687734337.528,-36.133,-38.574,-30.273,-43.945,21.484
1687734337.532,-80.078,-38.574,-31.738,-37.109,357.910
1687734337.536,-102.051,-34.668,-35.645,-32.227,296.387
1687734337.540,-46.387,-30.762,-30.762,-33.203,-74.707
1687734337.544,-12.695,-36.133,-33.203,-38.574,-103.027
1687734337.546,-39.551,-34.180,-37.109,-50.781,-128.906
1687734337.550,-79.590,-33.203,-42.480,-56.641,-162.109
1687734337.554,-100.586,-40.039,-44.922,-58.105,-91.797
1687734337.558,-53.711,-36.133,-46.875,-52.246,-53.711
1687734337.562,-16.113,-33.203,-51.758,-56.641,-89.355
1687734337.566,-26.855,-29.297,-49.316,-58.105,-119.629
1687734337.570,-62.988,-24.902,-48.340,-57.129,-114.258
1687734337.573,-92.773,-30.273,-45.410,-51.758,120.605
1687734337.577,-58.594,-34.180,-41.504,-43.945,206.543
1687734337.581,-15.137,-31.738,-41.504,-47.852,-44.434
1687734337.585,-19.531,-30.762,-42.480,-46.875,-117.188
1687734337.589,-53.711,-32.227,-44.922,-46.875,-47.363
1687734337.591,-90.332,-32.227,-43.457,-54.688,-134.766
1687734337.595,-65.430,-31.738,-42.969,-51.758,-182.129
1687734337.599,-15.625,-32.227,-40.527,-47.363,-89.844
1687734337.603,-13.672,-32.715,-44.922,-51.758,-131.836
1687734337.607,-41.992,-27.832,-47.363,-53.711,-165.527
1687734337.611,-77.148,-27.832,-45.410,-55.664,-163.086
1687734337.615,-60.059,-32.227,-42.969,-48.828,23.926
1687734337.618,-7.812,-27.832,-41.504,-32.715,350.586
1687734337.622,-4.395,-24.414,-45.410,-38.574,116.699
1687734337.626,-39.062,-26.367,-44.434,-45.410,-208.008
1687734337.630,-79.102,-33.203,-40.039,-44.434,-79.590
1687734337.634,-71.777,-34.668,-40.527,-47.852,42.969
1687734337.636,-19.043,-32.227,-40.527,-45.410,-86.914
1687734337.640,-11.230,-32.227,-40.527,-46.387,-161.621
1687734337.644,-45.410,-33.691,-39.551,-53.711,-42.480
1687734337.648,-89.355,-36.133,-39.551,-60.059,-8.301
1687734337.652,-93.262,-37.598,-43.945,-59.082,-90.820
1687734337.656,-36.621,-36.621,-41.016,-53.223,-83.496
1687734337.660,-21.973,-40.527,-37.598,-48.828,212.891
1687734337.663,-49.316,-40.039,-39.551,-51.270,147.461
1687734337.667,-87.891,-38.086,-41.992,-66.406,-145.996
1687734337.671,-96.191,-40.039,-46.387,-69.824,-104.004
1687734337.675,-41.504,-37.598,-48.340,-63.477,-113.770
1687734337.679,-18.555,-41.016,-42.480,-56.152,-162.109
1687734337.682,-42.480,-43.945,-37.598,-61.035,-255.859
1687734337.686,-84.473,-40.527,-40.527,-62.988,-111.816
1687734337.690,-95.215,-37.598,-36.621,-45.898,76.172
1687734337.694,-43.457,-39.062,-38.574,-36.621,-64.941
1687734337.698,-11.230,-36.133,-39.062,-37.598,-173.340
1687734337.702,-23.926,-33.203,-37.598,-38.086,-4.395
1687734337.706,-67.383,-38.086,-37.598,-41.016,173.340
1687734337.709,-83.008,-40.527,-34.668,-40.039,72.754
1687734337.713,-24.902,-36.621,-35.645,-37.109,-130.859
1687734337.717,13.184,-31.738,-37.598,-36.133,15.625
1687734337.721,0.488,-26.855,-41.992,-39.551,151.367
1687734337.725,-38.574,-27.832,-44.434,-53.711,-103.027
1687734337.741,-66.406,-32.227,-42.969,-53.711,-145.508
1687734337.745,-28.809,-35.645,-43.945,-43.945,-72.754
1687734337.749,3.418,-35.645,-44.922,-43.945,-28.809
1687734337.753,-17.090,-34.180,-46.875,-50.293,-70.801
1687734337.757,-60.059,-30.762,-44.434,-60.547,-56.152
1687734337.761,-101.562,-33.691,-45.898,-64.941,196.289
1687734337.765,-80.078,-39.551,-43.945,-62.012,299.316
1687734337.768,-32.227,-31.250,-37.109,-57.617,-51.270
1687734337.772,-30.762,-24.414,-38.574,-49.805,-125.488
1687734337.776,-67.871,-27.832,-38.574,-48.340,-3.418
1687734337.780,-108.398,-32.715,-36.133,-54.199,-49.805
1687734337.784,-80.566,-35.645,-36.133,-48.340,-57.617
1687734337.786,-25.879,-33.691,-31.250,-41.992,19.043
1687734337.790,-24.902,-34.180,-32.227,-39.551,-62.988
1687734337.794,-58.594,-37.598,-36.621,-39.062,-101.074
1687734337.798,-98.633,-34.180,-30.762,-47.363,-55.664
1687734337.802,-87.891,-36.133,-34.668,-52.246,-2.930
1687734337.806,-35.156,-42.480,-41.504,-43.945,80.078
1687734337.810,-20.020,-39.062,-38.574,-40.039,47.363
1687734337.813,-46.875,-33.691,-38.086,-52.246,-52.734
1687734337.817,-89.844,-29.785,-37.109,-57.129,5.371
1687734337.821,-90.332,-34.180,-34.180,-44.434,381.836
1687734337.825,-33.691,-35.645,-41.016,-41.504,283.203
1687734337.829,-14.160,-37.598,-41.992,-50.293,-101.562
1687734337.831,-41.504,-42.969,-39.551,-49.316,-144.043
1687734337.835,-83.008,-42.480,-37.598,-52.246,-111.328
1687734337.839,-83.984,-39.551,-29.785,-48.340,-143.066
1687734337.843,-30.762,-37.598,-29.297,-36.133,-119.141
1687734337.847,-14.648,-38.574,-33.691,-37.598,-83.496
1687734337.851,-39.062,-39.062,-35.156,-45.410,-62.012
1687734337.855,-83.008,-37.109,-35.156,-52.734,-53.223
1687734337.858,-97.656,-37.109,-39.062,-54.688,-198.242
1687734337.862,-39.551,-41.504,-41.992,-44.922,35.645
1687734337.866,-12.695,-44.922,-42.969,-43.457,211.426
1687734337.870,-30.762,-42.969,-44.922,-51.758,-139.648
1687734337.874,-69.824,-41.504,-42.969,-57.129,-199.707
1687734337.876,-91.309,-40.527,-39.551,-55.664,-108.887
1687734337.880,-37.109,-39.551,-37.598,-45.898,-132.324
1687734337.884,1.953,-31.738,-38.086,-39.551,-177.734
1687734337.888,-20.508,-32.715,-39.551,-42.480,-100.098
1687734337.892,-66.406,-39.551,-36.621,-51.270,-20.996
1687734337.896,-93.262,-47.363,-34.180,-60.059,5.371
1687734337.900,-47.852,-48.340,-33.691,-54.199,-0.488
1687734337.903,-10.742,-42.969,-39.062,-44.434,133.301
1687734337.907,-26.855,-42.480,-39.062,-36.621,407.227
1687734337.911,-64.941,-38.086,-40.039,-45.410,162.109
1687734337.915,-92.285,-34.180,-37.109,-59.570,-163.086
1687734337.919,-46.387,-37.109,-32.715,-44.922,26.855
1687734337.921,-4.395,-41.504,-32.227,-34.180,39.551
1687734337.925,-15.625,-42.480,-32.715,-35.156,-121.582
1687734337.929,-45.410,-39.062,-32.227,-35.156,-116.699
1687734337.933,-75.684,-40.039,-34.180,-39.551,-107.422
1687734337.937,-44.434,-41.992,-34.180,-34.180,-102.051
1687734337.941,5.371,-38.086,-28.809,-27.344,-89.844
1687734337.945,0.977,-37.109,-27.344,-34.668,-9.766
1687734337.948,-35.645,-37.109,-28.320,-31.250,190.918
1687734337.952,-70.801,-34.180,-29.297,-30.273,151.855
1687734337.956,-49.805,-38.086,-30.762,-40.039,-204.102
1687734337.960,-0.977,-37.598,-34.180,-36.133,-246.094
1687734337.964,2.441,-37.109,-36.621,-32.227,-128.418
1687734337.967,-31.250,-37.109,-35.645,-36.133,-160.645
1687734337.971,-74.219,-34.180,-34.668,-48.340,-145.020
1687734337.975,-70.312,-33.691,-41.016,-51.270,-23.438
1687734337.979,-17.090,-35.156,-47.363,-43.457,20.508
1687734337.983,-11.719,-41.504,-47.852,-45.410,-90.332
1687734337.987,-41.504,-42.969,-41.992,-50.293,-80.078
1687734337.991,-77.148,-42.969,-35.156,-51.270,71.777
1687734337.994,-78.613,-47.363,-34.180,-42.480,333.984
1687734337.998,-24.414,-46.387,-38.086,-37.109,130.371
1687734338.002,-11.230,-41.504,-36.621,-38.086,-207.031
1687734338.006,-42.969,-39.062,-37.109,-41.016,-101.074
1687734338.010,-85.938,-40.527,-32.715,-45.898,-61.523
1687734338.011,-87.891,-43.945,-28.320,-43.457,-101.074
1687734338.015,-31.250,-48.340,-35.645,-36.621,-140.137
1687734338.019,-7.812,-45.898,-34.668,-33.203,-118.164
1687734338.023,-28.809,-41.992,-26.855,-42.480,-45.898
1687734338.027,-72.754,-44.434,-27.832,-48.828,-107.910
1687734338.031,-88.379,-45.410,-30.762,-45.898,-93.262
1687734338.035,-35.156,-44.922,-33.203,-33.691,246.582
1687734338.038,-3.906,-43.457,-33.203,-31.738,300.781
1687734338.042,-21.484,-46.387,-34.668,-41.992,-109.863
1687734338.046,-58.105,-46.387,-34.668,-51.758,-133.789
1687734338.050,-81.543,-44.434,-36.133,-55.664,-61.523
1687734338.054,-30.762,-42.969,-36.133,-47.852,-165.039
1687734338.056,4.395,-38.086,-35.645,-45.410,-207.031
1687734338.060,-19.531,-34.180,-38.574,-51.270,-166.504
1687734338.064,-62.500,-34.180,-36.133,-56.641,-169.922
1687734338.068,-93.750,-40.527,-33.691,-54.199,-183.105
1687734338.072,-51.758,-40.527,-36.133,-44.434,-175.781
1687734338.076,-13.672,-38.086,-38.574,-37.598,-37.109
1687734338.080,-23.438,-42.480,-37.598,-32.715,156.250
1687734338.083,-59.570,-47.363,-34.180,-35.156,31.250
1687734338.087,-101.074,-44.922,-37.109,-43.457,-93.262
1687734338.091,-62.988,-43.945,-34.180,-33.203,-22.949
1687734338.095,-11.230,-46.387,-29.297,-23.438,229.492
1687734338.099,-21.484,-43.945,-39.551,-33.691,60.059
1687734338.116,-55.664,-34.180,-42.480,-44.922,-189.941
1687734338.120,-87.402,-35.645,-37.109,-48.340,-88.867
1687734338.124,-63.477,-36.621,-37.109,-43.457,-80.078
1687734338.128,-14.160,-37.598,-39.062,-45.410,-154.297
1687734338.132,-14.648,-43.457,-37.109,-47.852,-160.645
1687734338.136,-50.293,-45.410,-35.645,-44.922,69.824
1687734338.140,-89.355,-48.340,-36.621,-42.480,142.578
1687734338.143,-71.289,-42.480,-32.715,-38.574,-47.852
1687734338.147,-18.555,-41.016,-31.250,-32.715,-58.594
1687734338.151,-8.301,-38.574,-33.203,-26.367,187.500
1687734338.155,-42.480,-39.062,-36.133,-36.133,104.004
1687734338.159,-89.355,-47.852,-41.504,-51.270,-174.805
1687734338.161,-84.473,-41.504,-41.016,-58.105,-83.496
1687734338.165,-30.273,-37.109,-39.062,-62.012,-26.855
1687734338.169,-15.625,-38.086,-43.457,-62.012,-107.910
1687734338.173,-39.551,-37.109,-41.504,-63.965,-180.664
1687734338.177,-74.219,-36.621,-34.180,-65.918,-74.707
1687734338.181,-76.172,-36.621,-35.156,-62.500,104.492
1687734338.185,-28.809,-39.551,-40.039,-60.547,6.836
1687734338.188,-13.672,-37.109,-38.574,-57.617,-91.797
1687734338.192,-41.016,-41.992,-40.039,-55.176,81.055
1687734338.196,-84.961,-43.945,-38.086,-55.664,332.031
1687734338.200,-93.750,-41.016,-35.645,-61.523,159.668
1687734338.204,-37.598,-40.039,-36.621,-59.082,-111.816
1687734338.206,-15.625,-39.551,-39.551,-54.199,-15.625
1687734338.210,-43.457,-48.828,-43.457,-58.594,-51.270
1687734338.214,-84.961,-51.270,-42.480,-67.871,-185.059
1687734338.218,-96.191,-47.363,-40.527,-61.035,-157.715
1687734338.222,-41.504,-43.945,-38.574,-50.293,-105.469
1687734338.226,-16.113,-41.992,-37.109,-54.688,-35.156
1687734338.230,-40.039,-40.039,-40.039,-55.664,-2.441
1687734338.233,-77.148,-35.645,-36.621,-62.012,-127.930
1687734338.237,-94.727,-35.645,-31.738,-55.176,22.949
1687734338.241,-47.852,-35.156,-32.227,-43.457,147.949
1687734338.245,-14.648,-42.969,-33.691,-55.664,-152.344
1687734338.249,-31.738,-43.457,-32.227,-57.129,-167.480
1687734338.251,-68.848,-37.598,-30.273,-61.035,-79.102
1687734338.255,-95.215,-34.668,-28.809,-63.965,-46.875
1687734338.259,-53.223,-35.156,-31.738,-55.176,-93.750
1687734338.263,-5.859,-31.738,-29.785,-43.457,-88.379
1687734338.267,-19.043,-34.180,-23.926,-39.062,-6.836
1687734338.271,-62.500,-35.645,-30.762,-49.316,-24.902
1687734338.275,-96.680,-30.273,-36.621,-53.223,-14.160
1687734338.278,-63.477,-30.273,-39.551,-49.805,136.719
1687734338.282,-15.625,-34.668,-44.434,-41.992,298.340
1687734338.286,-23.926,-41.016,-45.898,-46.875,75.195
1687734338.290,-60.547,-41.016,-41.504,-50.293,-162.598
1687734338.294,-90.332,-41.992,-41.504,-41.992,28.320
1687734338.296,-63.477,-42.480,-43.945,-35.645,117.188
1687734338.300,-10.254,-40.039,-41.504,-37.598,-126.465
1687734338.304,-2.930,-39.062,-39.551,-41.016,-170.898
1687734338.308,-36.133,-37.109,-41.016,-35.645,68.359
1687734338.312,-76.660,-39.551,-41.016,-36.133,83.496
1687734338.316,-64.453,-43.457,-41.016,-42.480,-18.066
1687734338.320,-10.254,-38.086,-40.527,-39.551,-40.527
1687734338.323,-5.859,-35.645,-37.109,-35.156,67.383
1687734338.327,-42.969,-41.992,-33.691,-40.039,145.996
1687734338.331,-85.938,-40.039,-37.109,-49.805,-196.289
1687734338.335,-86.426,-39.551,-41.504,-47.852,-183.105
1687734338.339,-34.668,-40.039,-42.480,-43.945,-76.172
1687734338.341,-18.066,-38.086,-46.875,-49.805,-142.578
1687734338.345,-44.434,-37.598,-42.969,-46.875,-229.980
1687734338.349,-87.891,-37.598,-41.504,-47.852,-205.078
1687734338.353,-87.402,-35.156,-42.480,-48.340,-114.258
1687734338.357,-23.926,-35.156,-35.645,-41.992,-121.094
1687734338.361,-9.766,-40.039,-38.086,-47.363,-52.246
1687734338.365,-40.527,-36.621,-38.086,-53.223,60.547
1687734338.368,-81.055,-35.645,-40.039,-54.199,282.715
1687734338.372,-85.938,-37.109,-40.039,-44.922,99.121
1687734338.376,-31.738,-38.574,-36.133,-38.574,-206.055
1687734338.380,-11.230,-44.434,-41.016,-37.598,16.113
1687734338.384,-31.250,-37.109,-41.992,-33.691,46.387
1687734338.386,-70.312,-30.273,-39.062,-45.898,-208.496
1687734338.390,-87.402,-36.133,-37.109,-48.340,-173.340
1687734338.394,-31.738,-32.715,-33.691,-39.551,-114.258
1687734338.398,4.883,-28.320,-33.691,-34.180,-159.180
1687734338.402,-12.207,-33.203,-36.133,-32.715,-138.184
1687734338.406,-50.293,-38.086,-39.062,-46.387,-104.492
1687734338.410,-69.336,-38.086,-39.551,-43.457,125.488
1687734338.413,-21.484,-38.086,-42.480,-38.574,232.910
1687734338.417,23.438,-38.574,-41.016,-51.270,-60.547
1687734338.421,14.648,-36.621,-36.133,-54.199,-149.902
1687734338.425,-32.227,-34.668,-38.574,-57.617,-72.266
1687734338.429,-76.660,-31.738,-38.086,-58.594,-80.078
1687734338.431,-44.434,-31.738,-33.691,-52.246,-134.277
1687734338.435,0.000,-34.668,-36.133,-47.852,-127.930
1687734338.439,-16.113,-30.273,-41.016,-47.363,-85.449
1687734338.443,-54.199,-23.926,-40.039,-56.152,-127.441
1687734338.447,-88.379,-27.832,-40.527,-63.477,-242.188
1687734338.451,-62.500,-32.227,-43.457,-57.129,-20.020
1687734338.455,-12.207,-31.250,-45.410,-47.363,188.477
1687734338.458,-10.742,-29.297,-48.340,-50.781,10.254
1687734338.462,-47.852,-33.203,-49.805,-61.523,-81.055
1687734338.466,-90.820,-33.691,-48.828,-62.500,-5.371
1687734338.470,-71.289,-29.785,-43.945,-50.781,317.383
1687734338.474,-17.578,-29.785,-40.527,-45.410,203.125
1687734338.491,-11.230,-33.691,-41.016,-49.805,-146.484
1687734338.495,-40.039,-35.645,-38.086,-51.758,-159.180
1687734338.499,-77.637,-37.109,-34.668,-50.293,-89.355
1687734338.503,-67.871,-37.598,-35.156,-45.898,-105.957
1687734338.507,-10.254,-35.156,-32.715,-37.109,-191.895
1687734338.511,1.465,-32.715,-35.156,-37.598,-54.199
1687734338.515,-32.715,-31.250,-41.992,-37.598,64.941
1687734338.518,-75.195,-28.320,-43.457,-39.062,-30.762
1687734338.522,-75.684,-28.809,-41.504,-39.062,-97.656
1687734338.526,-23.926,-34.180,-39.551,-25.391,136.230
1687734338.530,-9.277,-37.109,-36.621,-22.461,52.734
1687734338.534,-37.109,-35.645,-32.227,-28.809,-225.586
1687734338.536,-80.566,-39.062,-33.203,-38.574,-30.762
1687734338.540,-93.262,-41.016,-34.668,-40.039,131.836
1687734338.544,-42.969,-36.133,-35.156,-35.156,-23.438
1687734338.548,-18.555,-37.598,-31.250,-38.574,-156.738
1687734338.552,-42.480,-33.691,-28.320,-45.898,-126.465
1687734338.556,-83.984,-35.156,-32.715,-58.105,-45.898
1687734338.560,-95.215,-40.527,-33.691,-60.547,-18.555
1687734338.563,-44.922,-38.574,-31.738,-57.129,-10.254
1687734338.567,-20.996,-39.062,-34.668,-56.641,49.805
1687734338.571,-41.504,-37.109,-38.086,-52.734,228.027
1687734338.575,-74.219,-29.785,-32.227,-54.688,83.008
1687734338.579,-93.750,-33.691,-34.180,-61.523,-166.992
1687734338.597,-47.363,-42.969,-41.016,-56.152,-121.094
1687734338.601,-8.301,-41.016,-38.086,-47.852,-116.211
1687734338.605,-23.926,-38.086,-36.621,-49.805,-124.023
1687734338.609,-60.547,-36.133,-35.645,-47.852,-83.984
1687734338.613,-90.332,-37.109,-35.645,-48.340,4.883
1687734338.617,-53.223,-39.551,-36.133,-49.805,4.883
1687734338.621,-6.836,-38.086,-33.691,-42.969,-64.453
1687734338.624,-19.043,-38.086,-32.715,-47.363,-108.887
1687734338.628,-63.965,-36.133,-36.621,-55.176,102.051
1687734338.632,-89.355,-29.297,-33.691,-48.828,192.871
1687734338.636,-54.688,-27.344,-23.926,-43.457,-83.496
1687734338.640,-10.254,-27.832,-20.020,-37.109,-115.723
1687734338.626,-8.301,-23.438,-22.461,-37.109,-46.875
1687734338.630,-49.805,-25.391,-26.855,-52.246,-72.754
1687734338.634,-87.402,-28.809,-29.297,-59.082,-112.793
1687734338.638,-57.617,-28.320,-27.832,-50.781,-80.566
1687734338.642,-4.883,-28.809,-28.320,-42.969,-46.387
1687734338.646,-9.277,-30.273,-30.762,-47.363,-73.730
1687734338.650,-42.480,-27.832,-31.250,-55.176,-67.871
1687734338.653,-79.590,-25.879,-33.203,-57.129,107.910
1687734338.657,-62.500,-25.879,-29.297,-52.734,106.934
1687734338.661,-7.812,-25.391,-32.227,-46.875,-55.176
1687734338.665,2.441,-23.926,-33.691,-44.922,-169.434
1687734338.669,-19.531,-21.973,-26.367,-36.133,-84.473
1687734338.671,-60.547,-24.902,-25.879,-32.227,305.664
1687734338.675,-59.082,-28.809,-31.738,-36.621,264.648
1687734338.679,-4.395,-25.879,-32.227,-38.086,-102.539
1687734338.683,8.789,-20.020,-23.926,-36.621,-146.484
1687734338.687,-24.414,-20.508,-18.555,-34.668,-114.258
1687734338.691,-67.383,-21.973,-22.461,-40.039,-121.094
1687734338.695,-72.266,-25.391,-28.320,-37.598,-50.293
1687734338.698,-27.344,-35.156,-29.785,-32.227,235.840
1687734338.702,-13.672,-41.504,-33.203,-32.227,287.109
1687734338.706,-36.133,-37.598,-32.715,-32.715,-113.770
1687734338.710,-79.102,-34.180,-29.297,-37.109,-232.422
1687734338.714,-93.750,-35.645,-29.785,-40.039,-107.422
1687734338.716,-40.039,-37.109,-31.738,-37.109,-141.602
1687734338.720,-15.625,-39.551,-28.320,-42.969,-195.801
1687734338.724,-42.969,-44.434,-29.297,-49.316,-122.070
1687734338.728,-88.379,-45.898,-33.691,-51.270,-90.820
1687734338.732,-111.816,-45.898,-34.180,-59.570,-110.840
1687734338.736,-60.059,-43.945,-35.156,-63.477,-74.219
1687734338.740,-23.926,-41.992,-30.273,-51.270,42.480
1687734338.743,-39.062,-41.504,-33.203,-45.410,330.078
1687734338.747,-87.891,-37.598,-41.016,-60.059,146.484
1687734338.751,-112.305,-35.156,-35.156,-68.359,-162.598
1687734338.755,-56.152,-30.762,-27.832,-58.594,56.152
1687734338.759,-15.137,-30.273,-35.156,-59.082,45.898
1687734338.761,-25.879,-33.203,-36.133,-66.895,-165.039
1687734338.765,-68.848,-32.227,-32.227,-65.918,-188.965
1687734338.769,-96.680,-28.320,-35.645,-56.641,-90.332
1687734338.773,-53.711,-33.691,-40.039,-48.828,-99.121
1687734338.777,-13.672,-37.109,-39.062,-42.969,-161.133
1687734338.781,-20.996,-32.227,-32.227,-45.410,-81.055
1687734338.785,-52.246,-29.297,-28.320,-45.410,146.973
1687734338.788,-83.984,-31.250,-31.250,-39.551,193.359
1687734338.792,-61.035,-35.156,-35.156,-43.945,-25.391
1687734338.796,-11.230,-30.273,-33.691,-36.133,-72.754
1687734338.800,-10.742,-27.832,-31.738,-25.391,-89.355
1687734338.804,-42.969,-32.715,-29.785,-32.715,-52.246
1687734338.807,-72.266,-38.086,-27.832,-41.016,-26.367
1687734338.811,-47.852,-36.621,-24.902,-32.715,-47.852
1687734338.815,2.441,-31.738,-23.926,-25.391,21.973
1687734338.819,-0.488,-33.691,-25.879,-29.785,-73.730
1687734338.823,-34.180,-34.180,-30.273,-44.434,-223.633
1687734338.827,-77.148,-32.715,-31.738,-48.340,-54.688
1687734338.831,-72.266,-34.180,-28.809,-36.621,140.137
1687734338.834,-20.020,-36.621,-30.762,-29.297,-5.371
1687734338.838,-8.789,-34.668,-30.273,-27.344,-125.000
1687734338.842,-37.598,-30.762,-27.832,-32.227,14.160
1687734338.846,-84.473,-30.762,-32.715,-43.457,171.387
1687734338.850,-80.566,-34.668,-35.645,-47.852,-19.043
1687734338.868,-29.297,-35.645,-35.645,-41.504,-108.398
1687734338.872,-17.090,-29.785,-32.227,-42.480,-120.605
1687734338.876,-36.133,-28.320,-26.367,-43.945,-112.793
1687734338.880,-77.148,-29.785,-24.902,-41.992,-60.059
1687734338.884,-78.613,-33.691,-25.879,-44.922,-162.598
1687734338.888,-18.555,-31.738,-23.438,-31.738,108.398
1687734338.892,-4.883,-29.785,-25.879,-28.809,335.449
1687734338.895,-30.762,-33.203,-26.367,-43.945,-68.359
1687734338.899,-74.219,-34.668,-31.738,-53.223,-181.152
1687734338.903,-91.309,-36.133,-37.598,-56.641,-29.297
1687734338.907,-34.180,-33.203,-30.273,-49.805,-48.828
1687734338.911,-10.742,-34.180,-32.227,-48.340,-107.910
1687734338.911,-32.715,-36.621,-39.551,-51.758,-87.891
1687734338.915,-66.406,-33.691,-35.156,-47.363,-101.562
1687734338.919,-88.379,-28.809,-30.762,-45.898,-103.516
1687734338.923,-42.969,-27.344,-33.691,-49.316,-141.602
1687734338.927,-6.348,-28.809,-30.273,-45.410,-99.609
1687734338.931,-25.391,-28.320,-30.273,-41.504,3.418
1687734338.935,-69.824,-29.785,-34.180,-48.340,-64.941
1687734338.938,-94.727,-28.320,-29.785,-49.805,-84.961
1687734338.942,-52.246,-25.879,-28.320,-39.062,60.059
1687734338.946,-14.648,-28.809,-32.227,-32.227,382.812
1687734338.950,-20.508,-28.809,-31.250,-39.062,266.113
1687734338.954,-57.129,-27.832,-30.273,-47.363,-108.887
1687734338.956,-86.426,-27.344,-30.762,-46.875,-145.996
1687734338.960,-45.410,-26.367,-28.320,-40.527,-103.516
1687734338.964,4.395,-28.320,-24.902,-34.668,-108.398
1687734338.968,-1.465,-29.785,-25.879,-31.738,-113.281
1687734338.972,-39.551,-26.855,-30.762,-39.551,-81.543
1687734338.976,-69.336,-27.832,-30.273,-50.781,-9.766
1687734338.980,-43.945,-30.762,-30.762,-43.457,11.719
1687734338.983,-4.395,-21.973,-31.738,-38.574,-38.574
1687734338.987,-4.883,-21.484,-28.320,-31.738,125.488
1687734338.991,-40.527,-31.250,-30.762,-29.297,193.359
1687734338.995,-74.707,-32.227,-30.762,-40.039,-55.664
1687734338.999,-54.199,-32.227,-28.320,-39.551,-108.887
1687734339.001,-0.488,-28.809,-31.738,-34.180,-89.355
1687734339.005,2.930,-31.738,-34.668,-40.039,-146.484
1687734339.009,-29.297,-33.203,-33.203,-40.527,-157.715
1687734339.013,-69.824,-31.250,-29.785,-39.551,-112.305
1687734339.017,-70.801,-36.621,-32.227,-41.016,-92.285
1687734339.021,-19.043,-41.016,-33.203,-34.180,13.672
1687734339.025,-7.812,-44.434,-36.621,-39.551,21.973
1687734339.028,-42.480,-41.504,-38.086,-55.176,12.695
1687734339.032,-83.984,-36.621,-36.133,-50.781,299.316
1687734339.036,-83.496,-36.133,-34.180,-44.922,175.293
1687734339.040,-27.832,-31.738,-33.203,-41.016,-184.082
1687734339.044,-16.602,-29.297,-32.715,-41.504,-102.051
1687734339.046,-40.039,-30.762,-30.762,-40.527,-64.941
1687734339.050,-76.172,-27.832,-35.156,-39.062,-198.242
1687734339.054,-101.562,-24.414,-39.062,-55.664,-162.109
1687734339.058,-57.617,-31.250,-40.039,-57.617,-95.215
1687734339.062,-25.391,-30.762,-40.039,-48.828,-166.016
1687734339.066,-47.852,-26.367,-37.598,-50.781,-122.070
1687734339.070,-85.938,-25.391,-40.527,-57.617,-84.961
1687734339.073,-92.773,-28.809,-40.527,-50.293,150.391
1687734339.077,-36.133,-31.250,-37.598,-35.645,147.949
1687734339.081,-2.930,-22.461,-34.180,-33.203,-118.652
1687734339.085,-29.785,-16.602,-34.180,-38.574,-157.227
1687734339.089,-74.707,-27.832,-34.180,-48.828,-111.816
1687734339.091,-94.727,-31.738,-34.180,-49.805,-31.250
1687734339.095,-50.293,-31.738,-41.016,-52.734,-121.094
1687734339.099,-14.160,-33.691,-39.551,-45.410,-78.125
1687734339.103,-27.344,-29.297,-35.645,-39.551,-19.531
1687734339.107,-67.871,-28.809,-31.738,-41.992,-90.332
1687734339.111,-96.191,-30.273,-26.855,-43.457,-82.031
1687734339.115,-50.293,-30.762,-26.855,-38.574,130.371
1687734339.118,-6.836,-26.367,-25.391,-26.855,473.145
1687734339.122,-14.160,-22.461,-24.414,-31.738,197.754
1687734339.126,-42.480,-24.902,-26.367,-41.504,-184.082
1687734339.130,-69.336,-27.344,-29.297,-45.410,-41.016
1687734339.134,-31.250,-24.902,-31.738,-40.039,-30.762
1687734339.137,12.695,-29.297,-37.598,-41.992,-170.410
1687734339.141,0.488,-30.762,-37.598,-49.316,-106.934
1687734339.145,-40.039,-29.785,-35.156,-45.410,96.191
1687734339.149,-84.961,-32.715,-37.109,-46.387,80.078
1687734339.153,-67.871,-32.227,-35.645,-50.293,-81.055
1687734339.157,-20.020,-33.203,-32.227,-46.387,-118.652
1687734339.161,-20.508,-34.668,-35.156,-42.480,117.676
1687734339.164,-56.152,-36.133,-40.527,-46.875,130.859
1687734339.168,-91.309,-35.156,-39.062,-51.270,-200.195
1687734339.172,-73.730,-33.203,-38.086,-39.062,-149.902
1687734339.176,-27.344,-34.668,-38.086,-35.645,-62.500
1687734339.180,-20.508,-37.109,-39.551,-41.504,-186.035
1687734339.181,-51.758,-38.574,-41.992,-51.758,-255.859
1687734339.185,-94.727,-36.133,-41.504,-57.129,-163.574
1687734339.189,-88.379,-34.668,-37.598,-51.270,-77.148
1687734339.193,-32.715,-37.598,-35.645,-55.664,-108.887
1687734339.197,-15.137,-36.133,-33.203,-54.199,-69.824
1687734339.201,-49.805,-40.527,-32.227,-50.781,61.035
1687734339.205,-94.238,-42.480,-32.715,-45.410,313.477
1687734339.208,-91.797,-41.016,-29.297,-36.621,243.652
1687734339.212,-38.086,-43.945,-24.902,-30.273,-92.773
1687734339.216,-17.090,-41.504,-25.391,-21.973,9.277
1687734339.220,-41.504,-39.551,-32.715,-28.809,41.504
1687734339.224,-84.961,-39.551,-31.738,-38.574,-191.895
1687734339.241,-87.891,-35.645,-26.855,-28.320,-164.062
1687734339.245,-28.809,-33.691,-35.645,-25.391,-62.500
1687734339.249,-6.348,-36.621,-41.992,-38.574,-96.680
1687734339.253,-24.902,-35.645,-35.645,-40.039,-169.434
1687734339.257,-60.547,-31.738,-24.902,-38.574,-166.504
1687734339.261,-76.172,-28.809,-19.531,-39.062,-26.367
1687734339.265,-23.438,-27.832,-18.066,-31.250,52.734
1687734339.268,10.742,-27.832,-19.531,-33.691,-23.438
1687734339.272,-6.348,-29.785,-20.996,-41.016,-152.344
1687734339.276,-45.410,-28.809,-20.020,-39.551,120.605
1687734339.280,-69.824,-23.438,-20.508,-38.574,253.418
1687734339.284,-25.879,-24.902,-23.926,-33.691,-100.586
1687734339.286,5.859,-25.879,-25.879,-32.227,-168.945
1687734339.290,-14.160,-28.809,-26.367,-44.922,-104.980
1687734339.294,-48.828,-29.297,-31.738,-47.852,-163.086
1687734339.298,-76.172,-25.391,-31.738,-42.969,-137.695
1687734339.302,-41.504,-28.809,-26.855,-38.086,-8.789
1687734339.306,0.488,-32.227,-23.926,-33.203,64.941
1687734339.310,-11.719,-28.809,-28.809,-39.062,16.113
1687734339.313,-55.176,-26.367,-31.738,-44.922,-40.039
1687734339.317,-89.844,-27.832,-30.273,-43.945,71.289
1687734339.321,-57.617,-28.320,-29.297,-29.785,333.984
1687734339.325,-4.883,-30.762,-29.785,-17.578,268.555
1687734339.329,-7.812,-31.738,-28.809,-22.461,-68.848
1687734339.331,-46.875,-32.227,-28.320,-23.926,-142.090
1687734339.335,-82.520,-33.691,-26.367,-26.367,-112.305
1687734339.339,-56.152,-30.762,-23.438,-18.066,-108.398
1687734339.343,6.348,-24.902,-20.020,-4.395,-105.469
1687734339.347,2.930,-24.414,-23.926,-16.602,-159.668
1687734339.351,-36.133,-28.809,-27.344,-27.344,-73.730
1687734339.355,-65.430,-25.879,-28.320,-24.902,2.441
1687734339.358,-57.617,-28.320,-27.344,-28.809,-107.910
1687734339.362,-6.836,-31.738,-20.996,-26.855,78.125
1687734339.366,5.371,-27.344,-19.531,-21.973,83.984
1687734339.370,-24.902,-30.762,-22.949,-32.227,-190.918
1687734339.374,-62.988,-30.273,-22.461,-33.203,-89.355
1687734339.376,-54.199,-26.855,-18.066,-22.461,37.598
1687734339.380,-0.488,-25.391,-12.207,-17.578,-39.062
1687734339.384,9.766,-22.949,-18.555,-27.344,-148.926
1687734339.388,-24.902,-29.297,-32.227,-42.480,-72.754
1687734339.392,-70.801,-31.738,-32.715,-44.922,-27.832
1687734339.396,-74.707,-28.809,-30.273,-43.457,-65.430
1687734339.400,-22.949,-24.902,-31.250,-33.691,-97.656
1687734339.403,2.930,-21.973,-23.438,-23.438,-37.598
1687734339.407,-18.555,-24.902,-21.973,-20.508,262.207
1687734339.411,-66.895,-22.461,-29.297,-31.250,199.219
1687734339.415,-82.031,-25.879,-29.297,-42.480,-101.074
1687734339.419,-27.344,-29.297,-25.879,-33.691,-117.188
1687734339.422,-0.977,-30.762,-30.273,-32.715,-148.926
1687734339.426,-23.438,-30.273,-32.227,-41.016,-100.586
1687734339.430,-66.895,-27.344,-28.809,-48.828,-49.316
1687734339.434,-87.891,-23.926,-31.250,-42.480,-11.719
1687734339.438,-38.574,-22.949,-28.320,-31.250,-11.719
1687734339.442,-1.953,-21.973,-20.020,-31.250,-13.672
1687734339.446,-20.020,-19.531,-20.020,-33.691,-44.434
1687734339.449,-59.570,-19.043,-25.391,-27.832,100.586
1687734339.453,-80.078,-23.438,-31.250,-22.949,172.852
1687734339.457,-28.809,-22.949,-30.273,-21.484,-117.676
1687734339.461,6.348,-25.879,-29.785,-25.391,-145.020
1687734339.465,-14.648,-34.668,-35.156,-41.992,-60.547
1687734339.466,-58.105,-36.621,-33.203,-53.223,-115.234
1687734339.470,-93.750,-32.227,-26.367,-52.246,-164.062
1687734339.474,-58.594,-31.738,-24.414,-53.711,-124.512
1687734339.478,-19.043,-37.109,-29.297,-60.059,-63.477
1687734339.482,-25.391,-32.715,-29.785,-56.641,-50.293
1687734339.486,-55.176,-25.879,-21.484,-54.199,-95.215
1687734339.490,-91.309,-27.832,-21.484,-54.199,13.672
1687734339.493,-66.406,-28.809,-22.461,-43.945,425.293
1687734339.497,-19.043,-33.203,-24.414,-42.480,375.977
1687734339.501,-20.020,-38.574,-26.367,-51.270,-136.230
1687734339.505,-53.223,-35.156,-25.879,-56.152,-135.742
1687734339.509,-88.867,-33.691,-27.344,-60.547,-40.039
1687734339.511,-74.707,-32.715,-30.762,-57.129,-139.648
1687734339.515,-26.855,-30.273,-31.738,-52.246,-196.289
1687734339.519,-20.508,-32.227,-28.809,-53.711,-146.484
1687734339.523,-54.199,-34.180,-29.297,-61.523,-109.375
1687734339.527,-99.609,-33.691,-35.156,-62.988,-98.145
1687734339.531,-86.914,-34.180,-34.180,-53.223,-111.816
1687734339.535,-24.902,-35.156,-27.344,-48.828,171.875
1687734339.538,-8.789,-34.180,-26.367,-51.758,268.066
1687734339.542,-35.645,-33.203,-27.344,-57.129,-99.121
1687734339.546,-80.566,-33.691,-30.762,-66.406,-201.660
1687734339.550,-85.938,-34.668,-34.180,-63.477,-32.227
1687734339.554,-34.668,-34.180,-30.762,-58.105,37.598
1687734339.556,-14.160,-36.133,-31.250,-58.105,-125.488
1687734339.560,-35.156,-41.504,-30.273,-54.688,-144.043
1687734339.564,-81.055,-45.410,-29.297,-61.035,-96.191
1687734339.568,-87.891,-40.527,-28.320,-54.688,-127.441
1687734339.572,-33.691,-41.016,-23.438,-41.992,-178.711
1687734339.576,-12.207,-46.387,-25.879,-39.551,68.359
1687734339.580,-26.367,-39.062,-25.391,-39.062,237.305
1687734339.583,-68.848,-37.598,-27.832,-50.293,26.367
1687734339.587,-84.961,-40.039,-30.273,-52.246,-25.391
1687734339.591,-24.414,-31.250,-26.855,-36.621,80.566
1687734339.595,7.324,-34.668,-29.785,-32.227,281.738
1687734339.599,-13.184,-36.621,-30.762,-47.852,51.270
1687734339.616,-61.035,-32.715,-31.738,-60.059,-209.961
1687734339.620,-88.379,-33.203,-31.738,-60.059,-104.492
1687734339.624,-42.969,-31.250,-30.273,-54.199,-98.633
1687734339.628,-4.883,-32.227,-31.738,-45.898,-146.973
1687734339.632,-25.879,-32.227,-28.320,-44.434,-115.234
1687734339.636,-70.312,-33.203,-32.715,-46.875,-61.035
1687734339.640,-91.797,-30.762,-37.109,-50.781,74.219
1687734339.643,-50.293,-28.320,-33.203,-41.992,15.625
1687734339.647,-8.789,-32.715,-28.809,-39.062,-160.156
1687734339.651,-20.996,-32.227,-31.738,-38.574,9.277
1687734339.655,-57.129,-28.809,-30.273,-39.551,100.098
1687734339.659,-88.379,-26.855,-21.973,-43.945,-48.340
1687734339.659,-88.379,-26.855,-21.973,-43.945,-48.340
1687734339.661,-52.734,-22.461,-19.531,-30.762,-95.215
1687734339.665,-7.324,-24.414,-22.461,-25.391,-37.598
1687734339.669,-10.742,-23.926,-19.043,-33.691,-114.746
1687734339.673,-46.875,-24.414,-20.020,-40.527,-175.781
1687734339.677,-86.914,-25.879,-28.809,-43.457,-48.340
1687734339.681,-63.965,-24.414,-31.250,-36.621,75.684
1687734339.685,-16.113,-27.832,-28.809,-35.156,62.500
1687734339.688,-19.043,-30.273,-32.715,-39.551,-59.082
1687734339.692,-52.246,-35.156,-35.156,-41.016,-17.578
1687734339.696,-91.309,-34.668,-30.762,-39.062,289.551
1687734339.700,-76.660,-28.809,-31.738,-37.598,146.973
1687734339.704,-23.438,-28.809,-34.180,-41.504,-152.832
1687734339.707,-15.137,-31.250,-33.203,-46.875,-100.586
1687734339.711,-47.363,-34.668,-36.621,-50.293,-105.957
1687734339.715,-92.285,-40.527,-36.621,-51.270,-155.273
1687734339.719,-83.984,-37.109,-27.344,-45.410,-164.062
1687734339.723,-23.438,-27.832,-25.391,-35.156,-65.918
1687734339.727,-15.137,-26.367,-27.832,-37.109,-53.223
1687734339.731,-42.480,-29.297,-28.320,-45.898,-53.223
1687734339.734,-83.984,-34.180,-37.598,-57.129,-84.473
1687734339.738,-92.773,-33.691,-38.086,-55.664,76.172
1687734339.742,-32.715,-29.785,-29.785,-45.898,220.703
1687734339.746,-15.625,-31.250,-33.203,-52.734,-69.336
1687734339.750,-43.945,-31.738,-30.762,-53.223,-161.621
1687734339.751,-85.449,-34.180,-26.367,-54.688,-67.871
1687734339.755,-92.285,-29.785,-19.531,-57.617,-84.473
1687734339.759,-34.180,-22.461,-15.137,-40.527,-161.621
1687734339.763,-9.277,-26.367,-15.625,-28.809,-10.742
1687734339.767,-33.203,-33.203,-17.578,-32.227,41.504
1687734339.771,-77.637,-36.621,-23.438,-43.457,-70.801
1687734339.775,-91.797,-37.109,-27.832,-41.992,-14.160
1687734339.778,-34.180,-31.250,-30.762,-28.809,13.672
1687734339.782,0.977,-28.320,-31.250,-24.414,271.973
1687734339.786,-21.973,-31.250,-31.250,-34.668,233.887
1687734339.790,-69.336,-36.621,-32.715,-51.758,-117.676
1687734339.794,-94.238,-36.133,-31.738,-56.641,-116.699
1687734339.796,-46.387,-30.273,-31.250,-53.711,-114.258
1687734339.800,-9.766,-31.738,-36.133,-51.758,-151.367
1687734339.804,-29.297,-36.621,-37.109,-60.547,-187.012
1687734339.808,-66.406,-37.598,-34.180,-70.801,-164.062
1687734339.812,-95.215,-38.574,-34.668,-69.824,-114.258
1687734339.816,-50.293,-35.156,-35.645,-62.500,-30.273
1687734339.820,-4.395,-32.227,-38.086,-58.594,-21.484
1687734339.823,-16.113,-31.250,-37.598,-50.293,134.766
1687734339.827,-51.270,-27.832,-31.250,-44.434,199.707
1687734339.831,-90.820,-29.297,-31.738,-57.617,-156.250
1687734339.835,-68.359,-30.273,-36.133,-57.617,-186.035
1687734339.839,-18.555,-30.762,-33.203,-44.922,-123.047
1687734339.841,-24.414,-31.738,-30.762,-43.945,-169.434
1687734339.845,-62.500,-30.273,-33.691,-45.898,-217.285
1687734339.849,-101.562,-30.762,-39.062,-47.363,-176.270
1687734339.853,-79.102,-29.297,-38.086,-42.969,-88.867
1687734339.857,-17.578,-20.508,-35.645,-34.180,-95.703
1687734339.861,-14.160,-18.066,-39.551,-37.109,-87.402
1687734339.865,-60.547,-27.344,-38.086,-45.898,24.902
1687734339.868,-106.445,-35.156,-37.109,-49.805,376.465
1687734339.872,-91.309,-38.574,-39.062,-52.734,272.461
1687734339.876,-32.715,-37.598,-38.574,-53.711,-126.465
1687734339.880,-15.625,-32.715,-40.039,-50.781,-24.414
1687734339.884,-31.738,-27.832,-37.109,-52.246,64.453
1687734339.886,-63.965,-27.344,-34.668,-58.105,-121.094
1687734339.890,-54.688,-29.297,-38.086,-53.223,-134.766
1687734339.894,7.812,-29.297,-37.109,-44.922,-123.535
1687734339.898,26.367,-26.855,-33.203,-46.875,-145.508
1687734339.902,0.977,-26.367,-35.156,-55.176,-171.387
1687734339.906,-50.293,-26.367,-35.156,-56.641,-92.773
1687734339.910,-67.871,-28.320,-34.180,-38.086,254.883
1687734339.913,-19.043,-26.367,-37.598,-28.320,191.406
1687734339.917,3.418,-20.508,-37.109,-34.668,-225.098
1687734339.921,-21.973,-26.367,-30.273,-38.574,-208.008
1687734339.925,-69.824,-29.297,-33.691,-45.410,-60.547
1687734339.929,-87.402,-33.203,-35.645,-43.457,-106.934
1687734339.931,-39.062,-36.621,-35.645,-38.574,-165.527
1687734339.935,-14.648,-34.668,-41.992,-41.504,-122.070
1687734339.939,-37.598,-33.691,-40.527,-43.457,-83.496
1687734339.943,-77.637,-30.273,-39.551,-45.410,-117.188
1687734339.947,-89.844,-24.902,-34.180,-36.621,-163.086
1687734339.951,-40.527,-24.902,-31.738,-25.391,62.012
1687734339.955,-6.348,-23.926,-35.645,-26.367,218.750
1687734339.958,-24.414,-22.461,-35.645,-43.457,12.695
1687734339.962,-63.477,-25.391,-34.668,-47.363,-120.605
1687734339.966,-83.984,-29.297,-33.691,-38.574,0.977
1687734339.970,-37.598,-28.320,-33.203,-32.227,169.434
1687734339.974,6.348,-20.508,-28.320,-26.367,-135.254
1687734339.978,-7.812,-22.461,-29.297,-29.785,-222.656
1687734339.982,-49.805,-32.227,-33.691,-38.574,-15.625
1687734339.986,-85.938,-37.109,-36.133,-43.457,-29.785
1687734339.990,-61.035,-39.062,-39.062,-39.062,-142.090
1687734339.994,-18.555,-35.645,-36.133,-37.598,-163.574
1687734339.998,-27.344,-28.320,-37.109,-44.922,-72.266
1687734340.002,-67.871,-25.391,-40.527,-52.246,6.836
1687734340.005,-98.633,-27.832,-38.086,-51.270,-15.625
1687734340.009,-71.777,-25.879,-37.598,-50.293,-27.832
1687734340.013,-26.855,-27.832,-43.945,-46.875,90.820
1687734340.017,-24.902,-30.762,-48.340,-49.316,67.383
1687734340.021,-53.223,-30.762,-42.480,-57.129,-113.770
1687734340.036,-83.984,-35.156,-36.621,-49.316,-83.008
1687734340.040,-64.941,-30.762,-35.156,-38.086,-33.691
1687734340.044,-15.625,-24.902,-35.156,-31.738,-35.156
1687734340.048,-7.812,-25.879,-33.691,-31.250,-15.625
1687734340.052,-39.062,-23.926,-29.297,-27.344,43.457
1687734340.056,-79.102,-24.902,-29.785,-31.250,283.203
1687734340.060,-65.430,-24.902,-31.738,-26.855,152.344
1687734340.063,-8.301,-20.996,-27.344,-14.160,-106.934
1687734340.067,-2.930,-24.414,-23.926,-16.602,-85.449
1687734340.071,-31.250,-24.902,-27.344,-11.230,203.613
1687734340.075,-64.941,-21.973,-27.832,-13.184,86.914
1687734340.079,-65.918,-24.414,-26.367,-20.996,-193.359
1687734340.081,-9.766,-26.367,-26.855,-10.742,-87.402
1687734340.085,9.277,-25.879,-26.855,-6.348,-54.688
1687734340.089,-13.184,-24.414,-26.367,-13.184,-142.090
1687734340.093,-48.340,-24.414,-21.484,-16.113,-167.480
1687734340.097,-61.035,-24.902,-21.973,-15.137,-139.160
1687734340.101,-10.742,-25.391,-25.879,-20.020,-56.152
1687734340.105,13.184,-25.391,-25.391,-22.949,-55.176
1687734340.108,-14.160,-25.391,-29.785,-29.297,-137.207
1687734340.112,-55.176,-23.926,-29.297,-30.273,48.340
1687734340.116,-72.266,-28.320,-29.785,-33.691,199.707
1687734340.120,-22.461,-31.250,-29.785,-39.062,-56.152
1687734340.124,13.672,-25.879,-29.297,-42.480,-148.926
1687734340.126,-4.883,-23.926,-26.367,-47.852,-111.816
1687734340.130,-48.828,-27.344,-31.738,-54.199,-187.012
1687734340.134,-77.637,-29.785,-39.551,-58.105,-148.926
1687734340.138,-29.785,-29.785,-29.785,-46.875,-29.297
1687734340.142,8.789,-33.203,-29.297,-45.898,-40.527
1687734340.146,-15.137,-36.621,-38.574,-51.270,-46.875
1687734340.150,-50.293,-33.691,-36.621,-50.293,-46.875
1687734340.153,-70.801,-25.391,-27.832,-47.363,2.930
1687734340.157,-35.645,-30.762,-28.809,-36.133,351.562
1687734340.161,4.395,-30.273,-31.250,-29.785,342.285
1687734340.165,-6.836,-23.438,-27.344,-33.203,-82.520
1687734340.169,-49.805,-25.879,-29.297,-40.039,-114.746
1687734340.171,-82.520,-27.832,-35.156,-41.992,-73.730
1687734340.175,-47.852,-30.273,-35.645,-32.227,-89.355
1687734340.179,-1.953,-30.273,-31.250,-30.762,-130.859
1687734340.183,-12.207,-25.879,-31.738,-39.062,-168.457
1687734340.187,-44.434,-20.508,-28.809,-42.969,-150.879
1687734340.191,-81.055,-21.484,-29.785,-43.457,-130.371
1687734340.195,-69.336,-20.508,-36.133,-40.527,-11.230
1687734340.198,-16.602,-20.996,-34.668,-34.180,172.363
1687734340.202,-12.695,-25.879,-31.738,-28.809,130.859
1687734340.206,-56.152,-32.715,-34.668,-41.992,-75.195
1687734340.210,-94.238,-33.691,-33.691,-49.316,-79.590
1687734340.214,-77.148,-27.344,-30.273,-40.527,-28.320
1687734340.216,-25.391,-27.344,-31.250,-36.133,-95.703
1687734340.220,-13.672,-26.855,-30.762,-34.668,-196.777
1687734340.224,-44.434,-23.438,-33.203,-40.039,-134.277
1687734340.228,-83.496,-27.832,-28.809,-45.898,-131.836
1687734340.232,-76.660,-37.598,-26.367,-45.898,-146.973
1687734340.236,-25.391,-44.922,-30.762,-44.434,-104.004
1687734340.240,-16.602,-41.504,-28.320,-41.992,-46.387
1687734340.243,-39.551,-32.227,-23.438,-36.133,299.805
1687734340.247,-78.125,-32.227,-21.973,-41.016,189.941
1687734340.251,-83.984,-33.203,-23.926,-51.270,-191.895
1687734340.255,-28.809,-32.227,-32.227,-47.363,-102.051
1687734340.259,-8.789,-33.203,-32.715,-42.969,-69.824
1687734340.262,-35.156,-34.180,-30.762,-51.758,-166.016
1687734340.266,-83.008,-37.109,-34.668,-58.594,-204.590
1687734340.270,-91.309,-40.527,-33.691,-51.270,-80.078
1687734340.274,-32.715,-38.086,-32.715,-41.016,-2.441
1687734340.278,-6.348,-33.691,-33.203,-41.992,-81.055
1687734340.282,-26.367,-33.691,-31.738,-48.828,-92.773
1687734340.286,-64.941,-30.762,-30.762,-45.898,185.547
1687734340.289,-87.402,-31.738,-31.738,-46.387,260.254
1687734340.293,-34.668,-33.691,-39.551,-50.293,-83.984
1687734340.297,2.441,-28.320,-36.621,-47.363,-99.121
1687734340.301,-20.996,-27.344,-32.227,-45.898,9.277
1687734340.305,-62.988,-27.832,-36.133,-45.410,-31.738
1687734340.307,-83.496,-29.297,-28.809,-44.922,-93.262
1687734340.311,-33.691,-29.785,-22.949,-34.180,-88.379
1687734340.315,7.812,-28.809,-23.926,-33.203,-29.297
1687734340.319,-7.324,-30.273,-20.996,-42.480,-42.480
1687734340.323,-46.387,-30.273,-20.996,-46.387,-140.625
1687734340.327,-75.195,-27.344,-22.461,-45.410,11.719
1687734340.331,-38.574,-24.902,-23.926,-26.367,414.551
1687734340.334,2.930,-23.438,-19.531,-20.996,255.371
1687734340.338,-10.742,-26.855,-20.508,-40.527,-168.457
1687734340.342,-47.852,-28.809,-25.879,-41.504,-97.656
1687734340.346,-79.590,-31.738,-27.344,-41.016,23.438
1687734340.350,-54.688,-35.156,-29.297,-44.434,-136.230
1687734340.366,-9.277,-36.133,-28.320,-37.598,-173.340
1687734340.370,-8.301,-35.156,-25.879,-33.203,-75.684
1687734340.374,-44.922,-31.738,-27.832,-39.062,-87.402
1687734340.378,-83.496,-33.203,-26.855,-36.621,-148.438
1687734340.382,-58.105,-33.203,-21.973,-27.832,-152.832
1687734340.386,-2.930,-25.391,-20.996,-25.879,61.523
1687734340.390,-4.395,-25.391,-27.344,-35.156,78.125
1687734340.393,-40.527,-25.391,-33.691,-46.387,-128.418
1687734340.397,-84.961,-26.367,-30.762,-53.711,-204.102
1687734340.401,-79.102,-28.320,-27.344,-43.457,-27.344
1687734340.405,-24.902,-32.227,-30.762,-34.180,4.395
1687734340.409,-16.113,-35.156,-32.227,-44.434,-177.734
1687734340.411,-49.316,-35.645,-33.203,-47.852,-145.020
1687734340.415,-92.285,-33.691,-35.645,-45.410,-118.652
1687734340.419,-90.332,-31.738,-33.691,-42.969,-70.801
1687734340.423,-35.156,-31.738,-30.762,-39.551,-47.852
1687734340.427,-22.949,-28.809,-31.738,-39.551,2.441
1687734340.431,-53.711,-30.273,-32.227,-41.016,86.914
1687734340.435,-93.750,-26.855,-32.227,-44.434,-23.438
1687734340.438,-98.145,-30.762,-31.250,-52.246,-88.379
1687734340.442,-40.039,-37.598,-27.832,-44.434,89.844
1687734340.446,-17.090,-30.762,-30.762,-34.180,363.281
1687734340.450,-41.504,-37.109,-34.180,-40.527,218.262
1687734340.454,-76.660,-37.109,-30.762,-48.828,-71.289
1687734340.456,-88.867,-30.762,-26.367,-46.875,-73.730
1687734340.460,-36.133,-29.785,-24.414,-36.621,-105.957
1687734340.464,-3.906,-28.809,-21.484,-29.297,-161.133
1687734340.468,-26.855,-33.691,-22.461,-40.527,-179.688
1687734340.472,-73.242,-33.691,-27.344,-52.734,-164.551
1687734340.476,-99.609,-40.527,-33.203,-59.082,-35.645
1687734340.480,-49.805,-44.922,-31.738,-51.758,-57.617
1687734340.483,-12.207,-43.945,-29.297,-51.270,-218.262
1687734340.487,-30.273,-38.086,-30.273,-50.781,-7.812
1687734340.491,-68.848,-34.668,-32.715,-50.293,139.160
1687734340.495,-96.191,-33.203,-37.598,-62.988,-108.398
1687734340.499,-58.594,-31.738,-35.156,-55.664,-177.734
1687734340.501,-19.531,-36.133,-28.809,-49.316,-45.410
1687734340.505,-31.738,-34.668,-32.227,-57.617,-87.891
1687734340.509,-70.312,-33.691,-35.156,-64.453,-196.777
1687734340.513,-104.004,-36.621,-33.691,-64.453,-81.055
1687734340.517,-69.336,-39.062,-37.598,-52.734,-24.902
1687734340.521,-22.461,-38.574,-36.133,-45.410,-61.035
1687734340.525,-20.508,-30.762,-25.391,-47.852,-21.484
1687734340.528,-55.176,-30.762,-26.855,-49.316,72.266
1687734340.532,-92.285,-35.156,-30.273,-41.016,359.863
1687734340.536,-65.918,-36.621,-26.855,-41.504,226.074
1687734340.540,-26.367,-41.016,-32.715,-58.105,-133.301
1687734340.544,-27.344,-43.457,-40.039,-61.523,21.484
1687734340.546,-58.105,-40.039,-38.086,-55.664,138.184
1687734340.550,-97.656,-37.109,-36.133,-55.664,-104.004
1687734340.554,-77.148,-37.598,-37.109,-51.758,-117.188
1687734340.558,-19.043,-34.180,-35.156,-40.527,-45.898
1687734340.562,-11.230,-39.062,-35.645,-38.086,-101.562
1687734340.566,-43.457,-43.457,-35.156,-45.898,-128.418
1687734340.570,-83.496,-39.062,-35.645,-54.688,-89.355
1687734340.573,-76.660,-30.762,-36.621,-48.828,97.168
1687734340.577,-22.949,-31.250,-33.203,-38.086,122.070
1687734340.581,-10.254,-37.598,-34.180,-45.898,-96.191
1687734340.585,-35.156,-37.598,-38.574,-52.246,-144.531
1687734340.589,-77.637,-39.551,-43.457,-54.199,-63.477
1687734340.592,-77.637,-33.691,-40.527,-47.363,-33.203
1687734340.596,-18.555,-26.855,-32.715,-38.574,-88.379
1687734340.600,-0.977,-25.879,-32.227,-40.039,-42.480
1687734340.604,-31.738,-30.273,-34.668,-45.410,92.285
1687734340.608,-82.520,-38.086,-33.691,-58.594,6.348
1687734340.612,-88.379,-34.668,-30.273,-58.105,48.340
1687734340.616,-33.691,-34.180,-30.273,-42.480,136.719
1687734340.619,-11.230,-37.598,-33.203,-41.016,309.570
1687734340.623,-30.762,-36.133,-36.621,-52.734,195.801
1687734340.627,-72.754,-34.180,-33.203,-57.617,-151.855
1687734340.631,-85.449,-26.855,-26.855,-44.922,-86.426
1687734340.635,-37.109,-28.809,-30.762,-42.480,-57.129
1687734340.636,-6.836,-30.273,-31.738,-45.898,-178.711
1687734340.640,-28.320,-26.855,-29.785,-43.457,-199.219
1687734340.644,-76.172,-30.273,-32.227,-53.711,-69.824
1687734340.648,-96.680,-28.320,-32.715,-55.176,13.184
1687734340.652,-50.781,-28.809,-34.180,-42.969,-33.691
1687734340.656,-16.113,-33.691,-33.203,-47.852,-101.074
1687734340.660,-26.367,-32.227,-30.762,-49.316,182.617
1687734340.663,-63.965,-31.738,-35.156,-49.805,305.176
1687734340.667,-86.914,-31.250,-34.668,-55.664,-58.105
1687734340.671,-48.828,-34.180,-35.645,-52.246,-110.352
1687734340.675,-17.090,-38.574,-41.504,-48.828,-106.934
1687734340.679,-24.902,-35.645,-43.945,-48.340,-130.371
1687734340.681,-57.617,-33.691,-41.504,-54.688,-139.648
1687734340.685,-98.145,-34.180,-45.410,-57.129,-117.676
1687734340.689,-70.312,-29.297,-48.828,-50.293,-95.215
1687734340.693,-14.648,-28.320,-40.039,-44.434,-136.230
1687734340.697,-13.184,-21.973,-34.180,-48.340,-188.965
1687734340.701,-48.828,-23.438,-32.227,-53.223,7.812
1687734340.705,-82.031,-31.738,-34.180,-54.199,214.355
1687734340.708,-55.664,-30.273,-39.551,-51.758,37.109
1687734340.712,3.906,-32.227,-39.062,-45.898,-31.250
1687734340.716,23.926,-34.180,-31.738,-41.504,74.707
1687734340.720,-3.906,-27.832,-28.809,-37.109,212.402
1687734340.724,-51.758,-31.250,-35.156,-42.480,-3.418
1687734340.741,-49.316,-36.621,-38.086,-44.434,-176.758
1687734340.745,-3.418,-32.715,-33.691,-42.969,-104.980
1687734340.749,0.488,-33.203,-33.203,-46.875,-149.414
1687734340.753,-37.109,-38.574,-40.039,-52.734,-159.668
1687734340.757,-78.613,-36.621,-39.551,-57.129,-121.094
1687734340.761,-78.125,-35.156,-38.086,-51.758,-43.945
1687734340.765,-22.461,-34.180,-39.062,-36.621,17.578
1687734340.768,-2.441,-32.715,-33.203,-32.715,-29.297
1687734340.772,-32.227,-36.133,-35.156,-45.898,-152.344
1687734340.776,-76.660,-37.598,-39.062,-53.223,88.379
1687734340.780,-86.426,-36.133,-36.133,-45.898,217.285
1687734340.784,-27.832,-32.715,-33.691,-44.922,-32.715
1687734340.801,-5.371,-33.203,-33.203,-49.805,-125.488
1687734340.805,-30.762,-36.133,-36.133,-55.664,-164.551
1687734340.809,-63.477,-28.320,-35.645,-52.734,-134.277
1687734340.813,-75.684,-24.414,-32.715,-46.387,-145.020
1687734340.817,-29.785,-27.832,-37.598,-43.457,-97.656
1687734340.821,-3.418,-26.855,-36.133,-42.480,28.809
1687734340.825,-23.438,-25.879,-28.809,-43.457,29.785
1687734340.828,-63.965,-29.785,-26.855,-44.434,31.738
1687734340.832,-81.055,-28.320,-23.438,-36.133,79.102
1687734340.836,-32.715,-28.320,-20.508,-18.555,321.289
1687734340.840,4.395,-30.273,-20.508,-10.254,186.035
1687734340.844,-12.207,-25.391,-21.484,-15.137,-85.938
1687734340.831,-63.477,-28.320,-29.785,-28.809,59.082
1687734340.835,-96.191,-32.715,-33.203,-40.039,-16.602
1687734340.839,-52.734,-29.297,-34.180,-35.156,-166.992
1687734340.843,-13.672,-24.902,-37.598,-29.297,-149.902
1687734340.847,-26.367,-27.344,-37.109,-31.250,-117.188
1687734340.851,-66.406,-29.297,-36.621,-36.133,-22.461
1687734340.855,-100.586,-29.297,-40.527,-45.898,-44.922
1687734340.858,-58.594,-27.832,-41.016,-41.992,-117.188
1687734340.862,-11.719,-26.855,-39.551,-39.551,-94.727
1687734340.866,-20.508,-29.297,-41.016,-49.805,-135.254
1687734340.870,-56.152,-31.738,-40.039,-54.688,-111.328
1687734340.874,-90.820,-30.273,-40.039,-61.523,-85.449
1687734340.877,-63.477,-26.855,-37.109,-54.688,105.957
1687734340.881,-14.160,-24.414,-33.691,-41.016,180.664
1687734340.885,-16.113,-23.438,-38.574,-52.734,-54.688
1687734340.889,-51.758,-25.879,-35.645,-64.453,-90.820
1687734340.893,-95.703,-29.297,-32.227,-62.500,-68.359
1687734340.897,-78.613,-35.156,-32.715,-57.617,-54.688
1687734340.901,-23.438,-39.062,-32.227,-50.293,-69.336
1687734340.904,-12.695,-33.203,-28.320,-42.969,-1.953
1687734340.908,-33.691,-26.367,-26.855,-33.691,352.539
1687734340.912,-81.543,-28.809,-32.715,-43.945,229.004
1687734340.916,-76.172,-29.785,-32.227,-49.805,-106.934
1687734340.920,-15.137,-32.227,-25.391,-39.062,-104.980
1687734340.921,-2.930,-34.668,-23.438,-37.109,-74.219
1687734340.925,-39.062,-34.668,-26.855,-48.340,-119.629
1687734340.929,-83.008,-33.203,-28.809,-58.105,-234.375
1687734340.933,-75.684,-30.273,-27.344,-48.340,-171.387
1687734340.937,-18.066,-29.785,-25.879,-38.086,-85.449
1687734340.941,0.000,-27.832,-26.855,-36.133,-65.918
1687734340.945,-23.926,-23.438,-27.832,-40.039,-53.711
1687734340.948,-68.848,-27.344,-24.414,-41.992,160.156
1687734340.952,-81.055,-34.180,-26.855,-37.598,254.395
1687734340.956,-25.879,-28.809,-26.367,-32.715,-82.031
1687734340.960,0.977,-26.855,-25.391,-26.367,-166.504
1687734340.964,-20.508,-27.832,-27.344,-33.691,-101.074
1687734340.966,-63.477,-26.855,-27.344,-40.039,-131.348
1687734340.970,-81.055,-28.809,-30.762,-38.086,-121.582
1687734340.974,-36.621,-27.344,-30.273,-32.227,-55.176
1687734340.978,-11.230,-28.809,-26.855,-32.715,-52.734
1687734340.982,-36.133,-36.133,-26.367,-38.086,-84.961
1687734340.986,-79.102,-31.738,-29.297,-43.457,-68.359
1687734340.990,-96.191,-26.367,-29.297,-45.898,45.898
1687734340.993,-51.758,-27.344,-30.273,-36.133,382.324
1687734340.997,-11.230,-23.438,-31.738,-34.180,290.039
1687734341.001,-15.625,-22.461,-25.879,-38.574,-111.816
1687734341.005,-56.641,-28.320,-27.832,-41.016,-41.504
1687734341.009,-86.426,-30.762,-33.203,-41.992,78.125
1687734341.011,-45.898,-28.809,-32.715,-43.457,-117.676
1687734341.015,0.977,-28.320,-30.762,-37.598,-130.859
1687734341.019,-4.883,-24.902,-28.809,-35.156,-91.797
1687734341.023,-47.852,-20.020,-29.785,-40.527,-91.309
1687734341.027,-78.125,-20.020,-29.785,-44.434,-137.207
1687734341.031,-48.828,-25.879,-29.785,-37.109,-115.723
1687734341.035,-6.348,-25.879,-27.832,-20.996,181.641
1687734341.038,-4.883,-22.461,-25.391,-13.184,156.250
1687734341.042,-41.016,-22.461,-28.320,-18.555,-61.523
1687734341.046,-75.195,-26.367,-30.273,-27.832,13.672
1687734341.050,-49.805,-30.273,-25.879,-20.996,-6.836
1687734341.054,-6.836,-30.762,-27.344,-15.137,-96.680
1687734341.056,-12.695,-33.691,-32.715,-19.531,-187.988
1687734341.060,-44.922,-33.691,-30.273,-26.367,-153.320
1687734341.064,-83.008,-31.250,-27.344,-35.156,-72.266
1687734341.068,-68.359,-30.273,-27.832,-32.715,-55.664
1687734341.072,-15.137,-32.227,-30.762,-32.227,-110.352
1687734341.076,-9.766,-33.691,-33.203,-36.133,-26.367
1687734341.080,-42.969,-31.250,-31.250,-42.480,84.961
1687734341.083,-81.055,-28.320,-27.832,-55.176,-55.664
1687734341.087,-76.172,-32.227,-26.367,-49.805,-130.371
1687734341.091,-21.484,-34.668,-28.320,-39.062,9.766
1687734341.095,-7.812,-30.273,-29.785,-36.621,178.223
1687734341.099,-32.715,-30.762,-30.273,-38.086,-22.949
1687734341.102,-70.312,-31.250,-29.785,-41.016,-209.473
1687734341.106,-75.684,-29.785,-28.320,-32.227,-0.977
1687734341.110,-26.367,-31.250,-28.320,-18.555,106.445
1687734341.114,-9.766,-27.832,-32.227,-31.250,-117.676
1687734341.118,-26.367,-20.020,-29.297,-39.551,-156.738
1687734341.122,-62.988,-23.438,-26.367,-41.504,-70.312
1687734341.126,-75.195,-22.949,-27.344,-45.410,37.598
1687734341.129,-19.043,-25.879,-28.320,-33.203,-14.648
1687734341.133,3.906,-33.691,-23.926,-31.738,-140.625
1687734341.137,-24.902,-35.156,-21.484,-41.992,41.016
1687734341.141,-67.383,-37.109,-27.344,-42.480,74.707
1687734341.145,-90.332,-39.551,-30.762,-41.992,-192.871
1687734341.161,-37.109,-38.574,-30.273,-33.691,-155.273
1687734341.165,3.418,-33.203,-29.785,-27.832,-29.297
1687734341.169,-12.207,-31.738,-29.785,-29.785,-88.867
1687734341.173,-52.246,-33.203,-30.273,-38.086,-168.457
1687734341.177,-75.684,-30.762,-27.832,-43.457,-16.113
1687734341.181,-31.738,-34.668,-24.902,-36.621,205.078
1687734341.185,-2.441,-38.086,-34.180,-41.992,94.238
1687734341.188,-19.043,-34.668,-37.109,-48.340,-84.961
1687734341.192,-60.547,-36.621,-29.785,-52.246,27.832
1687734341.196,-93.262,-40.039,-27.344,-44.922,322.754
1687734341.200,-55.664,-37.598,-30.762,-37.598,94.238
1687734341.204,-9.766,-33.203,-30.273,-42.969,-255.859
1687734341.206,-19.531,-35.156,-20.020,-45.410,-152.832
1687734341.210,-63.477,-34.668,-20.996,-47.852,-125.488
1687734341.214,-100.098,-33.691,-28.320,-51.758,-203.125
1687734341.218,-76.172,-34.180,-27.832,-54.199,-124.512
1687734341.222,-27.832,-33.691,-28.809,-54.199,62.500
1687734341.226,-24.902,-35.156,-27.832,-53.711,64.453
1687734341.230,-57.129,-33.203,-28.809,-53.711,-58.105
1687734341.233,-94.727,-32.715,-30.762,-54.199,-149.414
1687734341.237,-74.219,-34.180,-29.297,-43.457,68.848
1687734341.241,-16.113,-29.297,-25.391,-31.738,154.785
1687734341.245,-15.137,-26.855,-27.344,-40.527,-166.016
1687734341.249,-51.758,-31.738,-31.738,-44.922,-214.844
1687734341.251,-90.332,-28.320,-27.832,-48.828,-154.297
1687734341.255,-83.496,-24.902,-25.879,-54.199,-134.766
1687734341.259,-29.785,-25.391,-31.250,-49.805,-168.945
1687734341.263,-16.602,-28.809,-33.691,-49.805,-128.906
1687734341.267,-50.781,-33.691,-32.227,-56.152,-62.012
1687734341.271,-90.820,-38.574,-32.715,-59.570,-69.824
1687734341.275,-78.613,-36.133,-30.273,-61.035,-61.523
1687734341.278,-30.762,-34.180,-31.738,-55.664,49.805
1687734341.282,-15.137,-34.180,-33.203,-42.480,418.457
1687734341.286,-39.551,-27.344,-32.227,-50.293,317.871
1687734341.290,-84.473,-27.344,-34.668,-68.359,-156.738
1687734341.294,-89.844,-34.668,-36.621,-66.406,-124.512
1687734341.296,-31.250,-32.715,-34.668,-61.035,-114.258
1687734341.300,-7.812,-27.832,-34.668,-60.059,-201.172
1687734341.304,-38.574,-30.762,-35.156,-64.941,-171.387
1687734341.308,-82.031,-32.227,-40.039,-71.777,-160.645
1687734341.312,-89.844,-30.273,-42.480,-69.336,-155.762
1687734341.316,-32.227,-27.832,-36.133,-58.594,-105.469
1687734341.320,-7.324,-29.297,-35.645,-53.711,-6.348
1687734341.323,-38.086,-35.156,-39.551,-56.641,146.484
1687734341.327,-75.195,-38.086,-40.039,-56.641,174.805
1687734341.331,-89.844,-37.598,-38.574,-54.688,-79.590
1687734341.335,-46.875,-37.598,-37.109,-43.945,-148.438
1687734341.339,-17.090,-36.621,-34.668,-33.203,-68.848
1687734341.341,-30.762,-28.320,-30.762,-27.344,-108.398
1687734341.345,-71.289,-27.344,-28.320,-34.180,-167.969
1687734341.349,-96.680,-36.621,-27.832,-38.574,-66.895
1687734341.353,-55.664,-38.574,-30.762,-38.086,8.789
1687734341.357,-20.508,-35.156,-32.715,-36.621,-70.312
1687734341.361,-32.715,-40.527,-30.762,-39.551,-88.867
1687734341.365,-69.336,-43.457,-28.320,-49.805,107.910
1687734341.368,-90.820,-35.645,-29.785,-39.551,465.820
1687734341.372,-51.758,-32.715,-30.273,-28.809,212.891
1687734341.376,-8.789,-38.086,-31.738,-32.715,-210.938
1687734341.380,-12.695,-41.504,-30.762,-28.809,60.059
1687734341.384,-51.758,-44.434,-34.180,-35.156,158.203
1687734341.401,-90.820,-45.410,-41.016,-45.410,-126.465
1687734341.405,-60.059,-41.016,-35.156,-37.598,-145.996
1687734341.409,-5.859,-38.574,-31.738,-33.203,-56.152
1687734341.413,-3.418,-29.785,-33.203,-41.016,-108.887
1687734341.417,-41.504,-29.297,-35.645,-54.199,-154.297
1687734341.421,-85.938,-36.621,-41.016,-62.500,-104.492
1687734341.425,-70.312,-39.551,-43.457,-60.059,158.691
1687734341.428,-19.043,-44.922,-41.504,-52.246,253.906
1687734341.432,-10.742,-41.504,-37.598,-50.781,-139.160
1687734341.436,-37.598,-33.203,-36.621,-54.199,-212.891
1687734341.440,-75.684,-32.227,-36.133,-48.828,-92.773
1687734341.444,-66.895,-30.273,-26.855,-37.598,-136.230
1687734341.432,-20.996,-29.297,-24.414,-31.250,-119.629
1687734341.436,-11.719,-29.297,-28.320,-26.855,-37.109
1687734341.440,-33.203,-27.344,-27.832,-24.414,-49.316
1687734341.444,-78.125,-29.785,-31.250,-30.273,-139.648
1687734341.448,-83.984,-32.227,-36.133,-36.133,-148.438
1687734341.452,-30.273,-33.203,-33.691,-30.273,52.246
1687734341.456,-7.324,-31.738,-25.879,-20.508,166.992
1687734341.459,-32.715,-31.250,-26.367,-26.367,-40.039
1687734341.463,-83.496,-33.691,-34.668,-42.480,-74.219
1687734341.467,-97.656,-33.691,-40.527,-46.875,21.484
1687734341.471,-43.945,-33.203,-32.227,-26.367,315.918
1687734341.475,-17.578,-33.203,-34.180,-29.785,191.895
1687734341.491,-31.250,-29.785,-38.086,-43.457,-142.090
1687734341.495,-68.848,-27.832,-31.738,-44.922,-90.820
1687734341.499,-86.426,-29.785,-34.180,-48.828,-94.727
1687734341.503,-28.320,-28.809,-35.156,-40.039,-118.164
1687734341.507,1.465,-27.832,-32.715,-43.945,-197.266
1687734341.511,-22.461,-31.250,-31.250,-44.922,9.766
1687734341.515,-61.035,-30.273,-31.738,-40.527,231.934
1687734341.518,-79.102,-26.367,-33.203,-40.039,-41.992
1687734341.522,-31.250,-31.738,-31.250,-30.273,-134.277
1687734341.526,0.000,-35.156,-30.273,-25.391,-59.082
1687734341.530,-15.625,-29.785,-33.203,-23.438,-110.840
1687734341.534,-58.594,-27.344,-30.273,-30.762,-172.852
1687734341.536,-94.727,-36.133,-30.762,-40.039,-168.945
1687734341.540,-56.152,-43.457,-39.551,-37.109,-117.188
1687734341.544,-6.836,-41.016,-40.039,-35.645,-77.637
1687734341.548,-6.836,-39.551,-34.668,-39.551,-128.418
1687734341.552,-37.598,-37.109,-35.156,-43.945,-103.516
1687734341.556,-69.824,-36.621,-40.527,-57.129,-35.156
1687734341.560,-30.273,-35.156,-40.039,-55.664,-84.961
1687734341.563,28.809,-26.367,-35.645,-48.340,-101.562
1687734341.567,21.484,-23.438,-36.133,-51.270,19.043
1687734341.571,-20.020,-30.762,-37.109,-47.852,367.676
1687734341.575,-65.430,-32.715,-33.691,-48.828,300.781
1687734341.579,-53.711,-29.785,-32.227,-50.293,-76.660
1687734341.581,-4.395,-25.391,-37.109,-37.598,-92.285
1687734341.585,-7.324,-28.320,-39.062,-38.574,-65.430
1687734341.589,-42.480,-34.180,-39.551,-46.875,-133.789
1687734341.593,-75.195,-32.715,-40.039,-46.387,-120.117
1687734341.597,-63.477,-30.762,-39.062,-39.062,-56.641
1687734341.601,-10.254,-31.738,-39.062,-34.668,-43.457
1687734341.605,-5.859,-33.691,-41.504,-35.156,-16.113
1687734341.608,-46.387,-33.203,-41.504,-44.922,-39.551
1687734341.612,-86.914,-33.691,-41.504,-47.363,139.648
1687734341.616,-82.031,-33.203,-44.922,-41.992,251.465
1687734341.620,-24.902,-33.691,-42.480,-41.992,-65.918
1687734341.624,-8.301,-33.691,-39.062,-40.527,-138.184
1687734341.626,-33.691,-32.227,-38.086,-38.086,-56.152
1687734341.630,-75.195,-36.133,-36.621,-37.598,-30.273
1687734341.634,-82.031,-35.645,-34.668,-35.156,-85.938
1687734341.638,-20.996,-36.133,-32.227,-25.391,-54.688
1687734341.642,0.488,-35.645,-34.180,-24.414,14.160
1687734341.646,-26.367,-33.691,-37.109,-34.180,-21.484
1687734341.650,-70.312,-36.621,-43.457,-42.969,8.789
1687734341.653,-85.449,-36.621,-45.410,-40.527,104.980
1687734341.657,-27.344,-36.133,-40.527,-25.879,318.848
1687734341.661,-2.441,-36.621,-43.457,-24.902,208.008
1687734341.665,-29.785,-39.551,-42.480,-36.621,-96.191
1687734341.669,-65.918,-39.062,-37.598,-40.039,-1.465
1687734341.671,-80.078,-35.156,-36.133,-40.527,-11.719
1687734341.675,-37.598,-37.109,-34.668,-36.133,-183.105
1687734341.679,-10.742,-42.969,-34.668,-39.062,-187.012
1687734341.683,-25.391,-41.016,-39.551,-48.828,-126.465
1687734341.687,-67.383,-38.086,-43.457,-54.199,-45.898
1687734341.691,-93.262,-38.086,-39.062,-50.781,-20.020
1687734341.695,-45.898,-37.109,-37.109,-42.969,-10.254
1687734341.698,-7.324,-35.645,-32.715,-37.598,133.301
1687734341.702,-21.973,-37.109,-35.156,-43.457,189.941
1687734341.706,-59.570,-35.645,-38.574,-55.664,-72.754
1687734341.710,-90.332,-32.715,-35.156,-59.082,-153.809
1687734341.714,-54.688,-33.691,-32.715,-57.617,-82.031
1687734341.717,-10.254,-32.227,-34.668,-54.688,-65.430
1687734341.721,-22.949,-30.762,-39.062,-54.688,-176.270
1687734341.725,-61.035,-32.227,-38.574,-53.711,-154.785
1687734341.729,-85.449,-33.203,-34.668,-47.852,-4.395
1687734341.733,-56.641,-35.645,-36.133,-39.551,-122.070
1687734341.737,-6.836,-37.598,-33.691,-30.762,-142.090
1687734341.741,-4.883,-38.574,-29.785,-29.297,-17.090
1687734341.744,-43.945,-42.969,-32.227,-33.203,229.004
1687734341.748,-78.125,-44.922,-27.832,-34.668,201.660
1687734341.752,-57.617,-39.551,-25.879,-34.668,-85.449
1687734341.756,-6.836,-35.156,-32.227,-28.809,-108.887
1687734341.760,0.000,-35.645,-34.180,-32.715,-137.695
1687734341.762,-31.250,-29.785,-32.715,-41.992,-219.727
1687734341.766,-67.871,-27.832,-30.273,-45.410,-247.559
1687734341.770,-61.035,-32.715,-29.297,-46.387,-71.289
1687734341.774,-11.719,-31.250,-28.809,-45.410,58.594
1687734341.778,1.465,-28.809,-27.832,-47.363,-81.055
1687734341.782,-20.996,-29.297,-25.391,-49.316,-130.371
1687734341.786,-56.641,-21.973,-24.902,-46.875,139.648
1687734341.789,-57.617,-25.879,-28.809,-43.945,263.184
1687734341.793,-10.254,-37.109,-33.203,-44.922,-145.508
1687734341.797,2.441,-30.762,-32.715,-43.457,-232.910
1687734341.801,-23.926,-27.344,-29.785,-46.875,-103.027
1687734341.805,-68.848,-30.762,-32.227,-51.758,-66.895
1687734341.806,-78.613,-32.227,-34.668,-48.828,-109.863
1687734341.810,-27.344,-32.715,-33.203,-41.504,-145.020
1687734341.814,-1.953,-27.832,-29.297,-38.574,-51.758
1687734341.818,-27.344,-26.367,-28.320,-41.016,-105.469
1687734341.822,-72.754,-29.785,-26.367,-43.945,-145.508
1687734341.826,-80.566,-31.250,-27.344,-38.574,3.906
1687734341.830,-29.785,-32.715,-30.273,-22.461,211.426
1687734341.833,-3.418,-29.785,-29.297,-25.879,145.020
1687734341.837,-20.020,-29.297,-27.832,-31.738,-89.355
1687734341.841,-62.012,-29.297,-29.785,-34.668,-17.090
1687734341.845,-87.891,-29.785,-33.691,-37.109,248.047
1687734341.849,-39.551,-32.715,-37.598,-32.715,22.949
1687734341.866,-3.906,-31.738,-37.598,-38.574,-213.867
1687734341.870,-20.996,-34.180,-35.645,-47.852,-126.465
1687734341.874,-55.176,-29.785,-30.273,-46.387,-147.949
1687734341.878,-91.309,-27.832,-29.297,-45.898,-139.648
1687734341.882,-57.617,-33.203,-32.715,-45.410,-101.562
1687734341.886,-14.648,-37.598,-35.645,-42.969,53.223
1687734341.890,-37.109,-40.527,-39.062,-45.898,97.168
1687734341.893,-74.707,-35.645,-35.156,-52.734,-49.316
1687734341.897,-103.516,-37.109,-33.691,-64.941,-150.391
1687734341.901,-71.777,-36.133,-32.715,-49.805,52.246
1687734341.905,-24.902,-32.715,-32.227,-38.086,174.316
1687734341.909,-34.180,-32.227,-34.180,-49.316,-171.387
1687734341.911,-74.707,-27.832,-29.297,-46.387,-220.703
1687734341.915,-108.398,-30.273,-27.832,-48.340,-88.867
1687734341.919,-72.266,-29.785,-31.250,-48.340,-51.758
1687734341.923,-18.555,-29.297,-30.762,-41.016,-119.629
1687734341.927,-16.113,-32.715,-31.250,-37.109,-73.242
1687734341.931,-42.969,-29.785,-33.691,-42.480,27.344
1687734341.935,-80.566,-30.273,-33.203,-57.129,-27.344
1687734341.938,-69.824,-32.715,-34.180,-54.199,-49.805
1687734341.942,-22.461,-33.203,-33.691,-43.945,-38.086
1687734341.946,-18.066,-35.156,-32.227,-38.574,321.777
1687734341.950,-43.945,-39.551,-32.715,-41.992,377.930
1687734341.954,-75.684,-41.504,-32.715,-46.875,-32.715
1687734341.956,-69.824,-39.551,-34.180,-42.480,-98.145
1687734341.960,-17.090,-35.645,-37.109,-36.621,-101.074
1687734341.964,-2.441,-32.715,-39.062,-37.109,-135.254
1687734341.968,-34.180,-38.086,-41.504,-41.016,-151.855
1687734341.972,-76.172,-40.039,-39.062,-41.016,-115.723
1687734341.976,-77.148,-41.504,-40.527,-45.410,73.730
1687734341.980,-25.879,-39.062,-45.410,-45.898,83.008
1687734341.983,-8.789,-34.180,-41.504,-40.039,-151.855
1687734341.987,-33.203,-36.621,-36.133,-38.086,26.367
1687734341.991,-77.148,-37.109,-33.691,-47.852,147.461
1687734341.995,-85.938,-36.621,-38.574,-51.270,-48.340
1687734341.999,-32.227,-37.598,-40.039,-39.062,-26.367
1687734342.001,-15.137,-36.133,-35.156,-42.480,-3.418
1687734342.005,-32.715,-36.621,-30.762,-46.875,-65.918
1687734342.009,-75.195,-39.551,-34.668,-51.270,-125.488
1687734342.013,-98.145,-41.016,-34.668,-47.852,-95.215
1687734342.017,-46.875,-42.969,-30.762,-39.062,-54.199
1687734342.021,-17.090,-41.016,-29.785,-38.574,-146.484
1687734342.025,-39.062,-42.480,-31.738,-47.852,-175.293
1687734342.028,-82.031,-45.898,-34.180,-57.617,17.578
1687734342.032,-107.422,-50.293,-34.180,-52.246,365.723
1687734342.036,-53.711,-53.223,-32.715,-41.992,181.152
1687734342.040,-10.742,-49.316,-30.762,-37.598,-182.129
1687734342.044,-26.367,-49.805,-30.762,-39.062,-82.031
1687734342.047,-60.547,-50.293,-29.785,-43.457,-61.523
1687734342.051,-89.355,-46.387,-27.344,-46.875,-164.551
1687734342.055,-45.410,-39.062,-27.344,-36.133,-75.195
1687734342.059,8.301,-32.227,-27.344,-22.461,87.891
1687734342.063,-1.953,-32.715,-27.344,-33.691,6.836
1687734342.067,-44.922,-37.109,-28.809,-47.852,-81.543
1687734342.071,-79.102,-41.016,-30.273,-48.828,-105.469
1687734342.074,-52.734,-41.016,-29.297,-40.039,98.145
1687734342.078,-9.766,-39.551,-30.762,-32.227,211.914
1687734342.082,-14.648,-37.109,-35.156,-40.527,-115.234
1687734342.086,-54.199,-34.180,-33.203,-47.852,-229.980
1687734342.090,-92.285,-31.250,-36.621,-55.176,-152.344
1687734342.091,-73.730,-30.762,-37.109,-47.363,-112.305
1687734342.095,-21.973,-29.785,-30.762,-37.109,-113.770
1687734342.099,-19.043,-28.320,-32.715,-37.598,-50.293
1687734342.103,-56.152,-29.297,-37.109,-39.551,-59.082
1687734342.107,-95.215,-32.227,-37.598,-42.480,-111.816
1687734342.111,-83.008,-33.203,-38.574,-38.574,44.434
1687734342.115,-25.391,-30.273,-37.598,-29.297,62.988
1687734342.118,-16.602,-30.762,-35.645,-24.902,236.328
1687734342.122,-51.270,-34.180,-36.621,-33.691,308.594
1687734342.126,-88.379,-33.203,-30.273,-44.434,-85.449
1687734342.130,-84.961,-29.785,-28.320,-38.086,-132.324
1687734342.134,-29.297,-30.273,-34.668,-31.738,-79.102
1687734342.136,-7.324,-33.203,-34.180,-36.133,-158.203
1687734342.140,-33.691,-31.738,-34.180,-41.992,-207.520
1687734342.144,-77.637,-29.785,-37.598,-46.387,-130.371
1687734342.148,-82.031,-33.203,-33.691,-41.992,-149.414
1687734342.152,-25.879,-33.203,-26.855,-36.133,-197.754
1687734342.156,-6.836,-35.156,-33.203,-41.016,-66.895
1687734342.160,-34.180,-39.551,-39.551,-44.434,130.859
1687734342.163,-77.637,-41.992,-39.062,-48.828,172.852
1687734342.167,-84.961,-38.086,-37.598,-50.781,-45.410
1687734342.171,-27.832,-34.668,-40.039,-46.875,-108.887
1687734342.175,-4.395,-36.621,-39.551,-43.945,-33.203
1687734342.179,-27.344,-35.156,-36.133,-41.992,-97.168
1687734342.181,-68.848,-37.109,-34.668,-47.852,-157.715
1687734342.185,-84.473,-35.645,-32.227,-42.480,-89.355
1687734342.189,-34.180,-35.645,-33.691,-36.133,-103.027
1687734342.193,-5.859,-35.645,-41.016,-36.621,-86.426
1687734342.197,-19.531,-31.738,-38.574,-34.180,-126.465
1687734342.201,-54.199,-36.133,-34.180,-39.551,-40.039
1687734342.205,-78.613,-37.109,-36.133,-42.969,217.773
1687734342.208,-41.016,-35.156,-35.156,-35.156,158.691
1687734342.212,-6.348,-34.180,-33.203,-33.203,-30.273
1687734342.216,-19.531,-34.668,-38.086,-39.551,6.836
1687734342.220,-61.035,-33.691,-37.598,-41.992,289.551
1687734342.224,-93.262,-30.273,-28.809,-47.363,206.055
1687734342.241,-54.199,-28.320,-26.367,-46.387,-79.590
1687734342.245,-2.441,-26.855,-23.926,-37.109,-69.824
1687734342.249,-13.672,-31.250,-24.902,-45.410,-126.465
1687734342.253,-51.758,-35.156,-34.180,-50.781,-223.633
1687734342.257,-84.473,-40.527,-35.156,-48.828,-151.367
1687734342.261,-57.617,-38.574,-33.203,-45.410,62.500
1687734342.265,-5.371,-35.156,-37.109,-32.715,33.691
1687734342.268,-8.789,-34.668,-34.668,-36.133,-57.617
1687734342.272,-47.363,-33.691,-35.645,-52.734,-94.727
1687734342.276,-83.984,-37.598,-40.527,-52.734,45.410
1687734342.280,-69.824,-41.016,-38.574,-49.316,34.180
1687734342.284,-18.066,-36.133,-41.504,-52.246,-206.543
1687734342.286,-7.812,-31.738,-43.945,-46.387,-139.160
1687734342.290,-32.715,-31.250,-39.062,-42.480,-53.223
1687734342.294,-74.707,-28.320,-38.086,-44.922,-110.352
1687734342.298,-61.035,-22.949,-34.668,-34.668,-188.477
1687734342.302,2.441,-18.555,-30.762,-22.949,-88.867
1687734342.306,9.766,-23.926,-33.203,-35.645,30.273
1687734342.310,-20.020,-28.320,-32.715,-41.016,-32.227
1687734342.313,-63.477,-26.367,-34.668,-38.086,-43.457
1687734342.317,-68.359,-30.273,-40.527,-40.039,56.641
1687734342.321,-17.090,-34.180,-35.645,-23.438,292.969
1687734342.325,-2.930,-28.809,-32.715,-27.832,118.652
1687734342.329,-26.367,-22.461,-33.203,-48.828,-229.004
1687734342.332,-57.617,-22.949,-33.203,-51.270,-139.160
1687734342.336,-63.477,-23.926,-36.621,-57.129,-66.406
1687734342.340,-12.207,-24.414,-38.574,-56.152,-63.965
1687734342.344,19.043,-26.855,-40.039,-55.176,-177.734
1687734342.348,4.395,-28.320,-36.621,-58.594,-80.566
1687734342.352,-34.668,-26.855,-39.551,-66.406,17.090
1687734342.356,-50.293,-22.461,-42.480,-65.430,-14.160
1687734342.359,-10.254,-25.391,-35.645,-45.410,-92.773
1687734342.363,7.812,-28.809,-34.180,-35.645,41.016
1687734342.367,-21.973,-27.832,-36.133,-41.992,126.465
1687734342.371,-71.289,-30.762,-35.156,-51.758,-137.695
1687734342.375,-95.703,-36.133,-37.598,-53.711,-108.398
1687734342.376,-49.805,-40.527,-36.133,-53.711,-94.238
1687734342.380,-13.184,-43.457,-33.691,-49.316,-193.848
1687734342.384,-32.227,-40.527,-36.621,-51.758,-188.965
1687734342.388,-68.359,-34.668,-34.180,-56.152,-40.527
1687734342.392,-87.402,-34.668,-29.785,-49.316,19.043
1687734342.396,-53.711,-35.645,-33.203,-41.016,-17.090
1687734342.400,-14.648,-41.016,-38.574,-36.133,-62.500
1687734342.403,-20.508,-41.992,-33.691,-35.156,-57.617
1687734342.407,-59.570,-35.156,-37.109,-34.668,231.445
1687734342.411,-88.379,-31.738,-41.016,-37.598,261.230
1687734342.415,-64.941,-36.621,-44.434,-43.945,-59.570
1687734342.419,-23.438,-31.738,-43.945,-38.574,-111.816
1687734342.421,-22.461,-26.855,-38.574,-45.410,-93.262
1687734342.425,-58.105,-32.227,-42.480,-58.105,-132.324
1687734342.429,-89.355,-27.832,-40.527,-59.082,-139.160
1687734342.433,-68.359,-23.438,-37.598,-50.781,-113.281
1687734342.437,-24.414,-27.832,-36.133,-46.387,-133.301
1687734342.441,-24.414,-32.227,-36.621,-54.688,-157.227
1687734342.445,-54.688,-29.785,-35.645,-54.199,-112.305
1687734342.448,-90.332,-27.832,-38.086,-44.922,230.957
1687734342.452,-78.613,-28.320,-35.645,-31.250,378.418
1687734342.456,-22.949,-32.715,-34.668,-33.691,-2.441
1687734342.460,-2.441,-32.227,-33.691,-29.297,-179.199
1687734342.464,-37.109,-25.879,-27.832,-29.297,-98.633
1687734342.466,-90.820,-23.926,-27.832,-47.852,-42.480
1687734342.470,-85.449,-21.973,-31.738,-49.805,-64.941
1687734342.474,-34.180,-23.438,-28.809,-46.387,-80.078
1687734342.478,-26.367,-27.832,-27.344,-49.805,-61.035
1687734342.482,-49.805,-27.832,-27.832,-57.617,-88.867
1687734342.486,-84.961,-25.879,-30.762,-63.965,-83.008
1687734342.490,-84.961,-26.367,-30.762,-53.711,39.062
1687734342.493,-31.250,-34.668,-30.762,-37.598,337.402
1687734342.497,-8.301,-36.133,-31.250,-38.086,352.539
1687734342.501,-27.344,-26.367,-27.344,-48.340,-86.914
1687734342.505,-69.336,-25.879,-27.832,-47.363,-78.613
1687734342.509,-78.125,-26.855,-29.297,-37.598,68.359
1687734342.511,-23.926,-26.855,-30.762,-29.297,-63.965
1687734342.515,-1.465,-32.227,-31.250,-28.320,-141.113
1687734342.519,-28.809,-34.180,-32.715,-37.109,-144.531
1687734342.523,-69.824,-31.250,-31.250,-37.109,-157.227
1687734342.527,-85.938,-40.039,-34.668,-34.668,-166.016
1687734342.531,-38.086,-42.480,-35.156,-36.133,-163.086
1687734342.535,0.488,-33.203,-30.273,-28.320,73.242
1687734342.538,-16.113,-33.691,-33.203,-27.344,216.797
1687734342.542,-61.523,-35.156,-39.551,-45.898,-61.035
1687734342.546,-91.309,-37.598,-37.598,-53.711,-136.719
1687734342.550,-47.363,-39.551,-35.156,-46.387,-84.473
1687734342.554,0.488,-35.645,-34.668,-40.039,-54.688
1687734342.557,-17.578,-33.203,-33.203,-46.875,-152.832
1687734342.561,-61.523,-35.156,-36.133,-57.617,-155.273
1687734342.565,-85.449,-40.039,-39.551,-61.035,-27.832
1687734342.569,-46.875,-36.133,-38.574,-57.129,-34.668
1687734342.573,-5.859,-35.645,-36.621,-51.758,-187.012
1687734342.577,-15.137,-36.621,-35.645,-53.223,-43.945
1687734342.581,-48.340,-27.344,-31.250,-53.711,227.539
1687734342.584,-74.707,-25.391,-29.785,-56.152,59.082
1687734342.588,-43.457,-27.832,-32.715,-52.246,-110.840
1687734342.592,4.395,-30.273,-36.621,-46.387,-41.504
1687734342.596,2.930,-27.832,-36.621,-40.039,174.316
1687734342.600,-33.203,-20.508,-29.785,-40.039,5.371
1687734342.602,-80.566,-22.949,-34.180,-51.758,-232.910
1687734342.606,-62.500,-30.762,-35.645,-49.805,-76.172
1687734342.610,-9.277,-31.738,-29.785,-44.922,-15.625
1687734342.614,-2.930,-29.297,-34.180,-47.852,-111.816
1687734342.618,-29.785,-23.438,-37.109,-50.781,-154.785
1687734342.622,-74.707,-24.902,-32.715,-55.664,28.809
1687734342.626,-65.430,-26.367,-32.227,-43.945,128.418
1687734342.629,-11.230,-26.855,-30.762,-33.691,-31.738
1687734342.633,3.418,-25.391,-26.367,-26.367,-161.621
1687734342.637,-25.879,-26.855,-23.926,-25.879,-53.711
1687734342.641,-73.242,-31.738,-22.461,-32.715,-19.531
1687734342.645,-76.172,-30.273,-22.461,-29.297,-95.215
1687734342.661,-23.438,-28.809,-19.531,-30.762,-60.059
1687734342.665,-1.465,-28.809,-22.949,-35.645,-20.020
1687734342.669,-25.879,-27.344,-26.367,-35.645,-3.906
1687734342.673,-68.359,-29.785,-24.414,-43.457,-70.801
1687734342.677,-74.707,-30.273,-26.367,-45.898,0.488
1687734342.681,-27.344,-30.273,-34.668,-41.016,193.848
1687734342.685,-8.301,-23.926,-34.180,-44.434,103.027
1687734342.688,-34.668,-24.414,-35.156,-54.199,-23.438
1687734342.692,-78.125,-32.715,-37.109,-61.035,45.898
1687734342.696,-92.773,-32.227,-34.668,-54.199,225.098
1687734342.700,-39.551,-33.691,-33.203,-42.480,5.859
1687734342.704,-10.254,-31.250,-29.297,-47.363,-242.188
1687734342.706,-33.203,-29.785,-29.297,-56.641,-132.812
1687734342.710,-70.801,-23.926,-28.809,-52.246,-66.406
1687734342.714,-93.262,-24.414,-28.809,-51.270,-129.395
1687734342.718,-41.504,-28.320,-29.785,-50.293,-146.484
1687734342.722,-5.371,-26.367,-28.809,-50.293,-56.152
1687734342.726,-27.832,-24.902,-25.391,-54.688,7.812
1687734342.730,-62.012,-24.414,-26.855,-57.129,28.320
1687734342.733,-83.496,-27.832,-34.668,-57.617,-59.082
1687734342.737,-43.457,-27.832,-34.668,-43.457,121.094
1687734342.741,-2.930,-27.832,-28.320,-30.273,232.422
1687734342.745,-15.625,-26.855,-28.809,-38.574,-75.195
1687734342.749,-56.152,-26.367,-33.203,-49.805,-120.605
1687734342.751,-83.496,-30.762,-36.133,-54.688,-21.484
1687734342.755,-53.223,-34.668,-37.109,-48.340,-72.754
1687734342.759,-9.277,-32.227,-33.691,-38.086,-174.316
1687734342.763,-11.719,-30.762,-30.762,-48.340,-158.691
1687734342.767,-49.805,-33.691,-28.809,-54.688,-190.918
1687734342.771,-82.031,-35.156,-33.691,-55.176,-142.578
1687734342.775,-55.664,-34.180,-36.133,-51.270,24.414
1687734342.778,-9.277,-33.691,-32.715,-46.875,68.848
1687734342.782,-12.695,-35.156,-36.133,-45.898,357.422
1687734342.786,-48.340,-35.156,-37.109,-48.828,322.266
1687734342.790,-88.867,-40.039,-36.621,-59.082,-53.223
1687734342.794,-80.078,-48.828,-39.551,-59.570,-71.289
1687734342.796,-30.762,-42.969,-38.574,-54.199,-56.152
1687734342.800,-22.461,-35.645,-35.645,-53.223,-112.305
1687734342.804,-52.246,-37.598,-35.156,-55.664,-140.137
1687734342.808,-99.121,-36.621,-31.738,-60.059,-88.379
1687734342.812,-91.797,-37.109,-34.668,-64.453,-74.219
1687734342.816,-33.203,-36.621,-36.133,-61.523,-90.332
1687734342.820,-24.414,-32.227,-31.738,-57.129,-176.758
1687734342.823,-50.293,-30.273,-29.297,-51.758,6.836
1687734342.827,-88.867,-29.785,-29.785,-57.129,119.629
1687734342.831,-87.402,-27.832,-32.715,-60.547,-140.625
1687734342.835,-30.762,-28.809,-30.273,-46.875,-144.043
1687734342.839,-10.742,-30.762,-25.879,-45.898,40.527
1687734342.841,-32.715,-27.832,-23.438,-49.805,57.617
1687734342.845,-77.637,-33.691,-26.367,-49.316,-74.707
1687734342.849,-89.355,-34.180,-34.668,-49.316,-137.695
1687734342.853,-38.574,-31.738,-36.621,-45.410,-115.723
1687734342.857,-17.090,-36.621,-29.785,-40.527,-113.281
1687734342.861,-35.645,-35.156,-27.344,-37.598,-122.559
1687734342.865,-75.195,-34.180,-31.738,-44.922,19.043
1687734342.868,-92.285,-33.691,-33.691,-40.527,348.633
1687734342.872,-36.621,-31.738,-30.273,-26.367,214.844
1687734342.876,-1.953,-33.203,-26.855,-28.320,-169.922
1687734342.880,-28.320,-35.156,-30.273,-28.809,-133.789
1687734342.884,-72.754,-37.598,-31.250,-35.645,-21.973
1687734342.887,-94.727,-35.156,-31.250,-49.316,-99.609
1687734342.891,-45.898,-30.273,-33.203,-45.898,-100.098
1687734342.895,-6.348,-33.691,-31.250,-39.062,29.785
1687734342.899,-22.461,-30.762,-28.320,-41.992,-27.832
1687734342.903,-57.617,-27.832,-33.691,-48.828,-160.645
1687734342.907,-85.449,-35.156,-37.598,-52.246,-147.461
1687734342.911,-48.828,-39.062,-36.133,-39.551,209.473
1687734342.914,-3.906,-30.273,-34.668,-28.320,249.023
1687734342.918,-11.230,-24.902,-34.180,-39.062,-216.797
1687734342.922,-49.805,-26.367,-36.621,-50.781,-243.652
1687734342.926,-83.984,-29.297,-36.621,-52.246,-177.246
1687734342.930,-48.828,-21.484,-33.203,-41.992,-172.852
1687734342.931,-0.488,-15.137,-32.227,-36.133,-196.777
1687734342.935,-10.742,-20.020,-34.180,-32.227,-160.156
1687734342.939,-45.410,-21.484,-30.273,-32.715,-149.414
1687734342.943,-75.195,-20.508,-25.879,-34.668,-94.727
1687734342.947,-59.082,-25.879,-24.414,-26.367,-52.246
1687734342.951,-14.160,-36.133,-23.438,-20.996,-67.871
1687734342.955,-9.277,-40.527,-28.320,-16.113,196.289
1687734342.958,-46.875,-39.551,-34.668,-25.391,237.305
1687734342.962,-78.613,-41.504,-35.645,-41.016,-93.262
1687734342.966,-59.570,-38.574,-33.203,-33.203,-48.340
1687734342.970,-11.719,-36.133,-29.297,-27.832,59.570
1687734342.974,-3.906,-39.551,-30.762,-31.738,-98.633
1687734342.991,-34.180,-41.016,-30.762,-37.598,-136.719
1687734342.995,-71.289,-37.598,-26.367,-43.457,-68.848
1687734342.999,-71.289,-35.645,-31.250,-36.133,-33.203
1687734343.003,-23.926,-34.668,-32.227,-35.645,-86.426
1687734343.007,-5.371,-38.574,-31.738,-41.504,-142.578
1687734343.011,-38.574,-41.992,-35.156,-47.363,-25.391
1687734343.015,-76.660,-35.156,-30.273,-50.293,2.441
1687734343.018,-76.172,-34.668,-29.785,-48.340,-59.082
1687734343.022,-30.762,-34.180,-35.156,-48.828,-130.859
1687734343.026,-15.625,-36.621,-34.180,-48.828,72.754
1687734343.030,-44.434,-38.086,-36.621,-55.176,240.723
1687734343.034,-84.961,-31.250,-40.039,-65.430,-61.523
1687734343.036,-95.703,-32.715,-41.504,-65.918,-143.066
1687734343.040,-45.898,-33.691,-41.504,-60.547,-67.871
1687734343.044,-18.555,-36.133,-37.109,-58.594,-69.824
1687734343.048,-37.109,-34.668,-34.180,-58.105,-164.551
1687734343.052,-81.543,-32.715,-32.715,-60.547,-105.957
1687734343.056,-102.051,-39.551,-27.344,-55.664,43.945
1687734343.060,-49.805,-41.016,-30.273,-50.781,7.812
1687734343.063,-19.531,-32.715,-30.762,-48.828,-39.551
1687734343.067,-33.203,-31.738,-25.879,-43.945,82.520
1687734343.071,-64.941,-34.668,-22.461,-41.504,340.820
1687734343.075,-83.984,-35.156,-23.438,-46.387,269.043
1687734343.079,-30.762,-33.203,-29.297,-47.852,-33.691
1687734343.081,17.578,-32.227,-37.109,-48.340,-87.402
1687734343.085,10.742,-25.391,-37.109,-59.082,-115.234
1687734343.089,-23.438,-22.949,-38.086,-69.336,-220.215
1687734343.093,-57.129,-27.832,-46.875,-80.566,-140.625
1687734343.097,-28.809,-25.391,-46.875,-74.219,-63.477
