timestamps,TP9,AF7,AF8,TP10,Right AUX
1687767760.571,95.703,-41.992,-33.203,-64.453,-65.430
1687767760.575,105.469,-40.527,-24.414,-57.129,-68.359
1687767760.579,99.121,-35.645,-21.973,-57.617,-126.953
1687767760.583,73.242,-35.156,-29.297,-72.266,-143.555
1687767760.587,63.477,-24.414,-22.949,-66.895,-15.625
1687767760.591,82.031,-24.414,-15.625,-49.805,-27.344
1687767760.595,93.262,-25.391,-19.531,-51.270,-78.125
1687767760.598,85.938,-18.555,-26.855,-56.152,-143.555
1687767760.602,69.336,-26.367,-31.250,-64.941,10.742
1687767760.606,68.359,-37.109,-31.738,-65.430,344.727
1687767760.610,95.215,-30.273,-28.320,-56.641,78.125
1687767760.614,123.047,-29.297,-22.949,-48.828,-182.129
1687767760.617,118.652,-38.086,-28.320,-46.387,-78.125
1687767760.621,92.285,-35.156,-32.715,-61.523,-81.055
1687767760.625,89.355,-34.668,-29.297,-60.059,-162.598
1687767760.629,105.469,-26.855,-32.227,-48.828,-128.418
1687767760.633,115.723,-24.414,-31.738,-41.992,-6.348
1687767760.637,110.352,-20.996,-28.809,-39.551,3.906
1687767760.641,98.633,-11.719,-28.320,-50.293,-122.070
1687767760.644,83.496,-25.391,-23.438,-54.199,-127.441
1687767760.648,82.031,-37.598,-32.227,-45.410,162.109
1687767760.652,95.703,-30.762,-33.203,-48.828,20.996
1687767760.656,96.191,-34.668,-30.762,-65.430,-68.848
1687767760.660,91.309,-36.133,-40.039,-68.848,10.254
1687767760.660,88.867,-28.320,-33.203,-52.734,-7.324
1687767760.664,94.238,-25.391,-33.691,-60.059,-100.586
1687767760.668,105.957,-34.180,-40.527,-64.941,-164.062
1687767760.672,120.117,-41.504,-37.598,-53.711,-20.996
1687767760.676,109.863,-33.691,-36.621,-54.688,37.109
1687767760.680,96.191,-29.785,-31.738,-61.035,-57.617
1687767760.684,97.656,-32.227,-32.715,-69.336,-100.098
1687767760.687,114.746,-31.250,-34.180,-60.059,128.418
1687767760.691,122.070,-26.855,-28.320,-40.039,148.438
1687767760.695,110.352,-26.367,-29.297,-50.781,-163.086
1687767760.699,102.051,-34.668,-34.668,-59.082,-249.023
1687767760.703,104.492,-42.969,-39.551,-53.711,-155.273
1687767760.705,122.559,-43.945,-42.969,-61.523,-125.488
1687767760.709,126.465,-33.691,-31.738,-63.965,-162.109
1687767760.713,97.656,-28.809,-35.156,-67.383,-79.102
1687767760.717,84.961,-34.668,-41.992,-64.941,-36.133
1687767760.721,98.633,-39.551,-35.645,-66.895,-161.621
1687767760.725,122.070,-33.691,-30.273,-70.801,-160.645
1687767760.729,147.949,-27.832,-23.926,-52.246,-36.621
1687767760.732,128.906,-44.434,-32.227,-47.852,276.367
1687767760.736,102.539,-34.180,-37.598,-57.129,211.914
1687767760.740,104.004,-29.785,-31.250,-63.477,-130.859
1687767760.744,121.094,-29.785,-28.809,-55.664,8.789
1687767760.748,130.371,-20.996,-25.391,-43.457,79.102
1687767760.750,116.211,-25.879,-29.785,-60.059,-143.555
1687767760.754,104.980,-16.113,-32.715,-67.383,-207.031
1687767760.758,96.191,-20.996,-41.504,-70.312,-114.258
1687767760.762,112.793,-29.785,-39.062,-70.801,-125.488
1687767760.766,123.047,-25.391,-38.574,-62.012,-146.973
1687767760.770,110.840,-33.203,-36.621,-51.758,-37.109
1687767760.774,91.797,-33.203,-29.297,-39.551,193.359
1687767760.777,67.383,-33.203,-38.086,-59.082,178.711
1687767760.781,79.102,-36.133,-48.340,-68.359,-81.543
1687767760.785,93.262,-35.645,-44.922,-56.641,-114.258
1687767760.789,89.355,-38.086,-32.715,-49.316,28.809
1687767760.793,82.520,-41.016,-31.250,-42.969,-82.031
1687767760.795,70.312,-30.273,-37.109,-48.828,-204.590
1687767760.799,75.195,-20.020,-35.645,-50.293,-134.277
1687767760.803,83.984,-29.297,-37.598,-52.246,-66.406
1687767760.807,77.637,-28.320,-34.668,-49.316,-64.453
1687767760.811,69.824,-24.902,-26.367,-44.922,-147.949
1687767760.815,59.570,-25.391,-24.414,-48.340,-105.957
1687767760.819,62.012,-22.949,-31.250,-54.688,122.070
1687767760.822,77.148,-27.344,-33.691,-53.223,-1.465
1687767760.826,67.383,-37.109,-37.109,-60.059,-96.680
1687767760.830,44.434,-45.410,-36.133,-64.453,13.184
1687767760.834,36.133,-41.504,-33.203,-55.664,213.379
1687767760.838,46.387,-32.227,-30.273,-56.152,24.902
1687767760.855,67.871,-38.574,-27.344,-48.340,-202.148
1687767760.859,77.148,-45.898,-29.785,-36.133,-111.816
1687767760.863,64.453,-34.668,-30.762,-37.109,-4.395
1687767760.867,61.523,-26.855,-34.180,-45.898,-135.742
1687767760.871,56.641,-42.969,-40.039,-56.641,-170.410
1687767760.875,54.199,-38.086,-35.156,-48.340,13.184
1687767760.879,63.477,-30.762,-34.180,-39.062,75.684
1687767760.882,49.316,-45.898,-40.527,-45.898,-35.156
1687767760.886,37.109,-37.598,-30.762,-41.992,-123.047
1687767760.890,38.574,-33.691,-26.855,-36.621,29.785
1687767760.894,53.223,-52.246,-36.133,-39.062,46.875
1687767760.898,72.754,-42.969,-37.109,-45.410,-131.348
1687767760.900,65.430,-30.273,-36.133,-52.246,-74.707
1687767760.904,44.922,-38.574,-39.551,-57.129,35.645
1687767760.908,38.086,-46.875,-41.992,-58.594,-123.047
1687767760.912,60.059,-47.852,-41.016,-50.781,-135.742
1687767760.916,74.219,-36.621,-36.621,-47.363,-90.332
1687767760.920,51.758,-29.297,-34.668,-50.781,-5.859
1687767760.924,28.809,-25.879,-37.109,-51.758,47.363
1687767760.927,23.438,-30.762,-41.504,-53.223,-21.484
1687767760.931,49.316,-32.227,-36.621,-34.180,-16.113
1687767760.935,65.430,-32.715,-30.762,-19.043,316.406
1687767760.939,59.082,-34.180,-29.785,-40.527,114.258
1687767760.943,37.109,-27.344,-32.227,-58.105,-281.250
1687767760.945,21.484,-35.645,-37.109,-58.594,-76.660
1687767760.949,37.109,-43.945,-38.574,-49.316,88.867
1687767760.953,51.758,-41.992,-46.875,-44.922,-81.055
1687767760.957,44.434,-37.109,-51.758,-39.551,-35.156
1687767760.961,31.250,-36.133,-46.875,-41.016,159.668
1687767760.965,29.785,-34.668,-41.016,-47.363,137.207
1687767760.969,50.293,-20.996,-34.180,-38.086,-53.711
1687767760.972,66.895,-23.926,-35.645,-37.598,-116.211
1687767760.976,52.246,-34.180,-45.410,-49.316,145.020
1687767760.980,41.016,-30.273,-36.621,-50.293,157.715
1687767760.984,42.969,-34.180,-27.344,-59.570,-91.797
1687767760.988,37.598,-39.062,-37.109,-62.012,-94.727
1687767760.990,44.922,-33.691,-39.062,-62.500,-29.785
1687767760.994,51.758,-31.250,-35.156,-60.059,-68.359
1687767760.998,30.762,-35.156,-31.738,-61.035,-120.117
1687767761.002,17.578,-38.574,-28.809,-63.965,-52.734
1687767761.006,20.996,-42.969,-32.227,-61.035,-17.578
1687767761.010,39.062,-41.992,-35.645,-64.453,-38.574
1687767761.014,47.363,-34.668,-35.156,-62.500,-51.270
1687767761.017,26.367,-36.133,-37.598,-61.035,26.855
1687767761.021,7.812,-32.715,-38.086,-55.664,243.652
1687767761.025,16.113,-37.109,-36.133,-51.758,47.363
1687767761.029,47.363,-34.668,-38.086,-41.016,-86.914
1687767761.033,66.406,-26.855,-44.434,-41.016,-11.719
1687767761.035,43.945,-34.668,-42.969,-52.734,-18.555
1687767761.039,19.531,-33.691,-41.504,-64.453,-124.512
1687767761.043,21.973,-23.438,-41.504,-72.754,-164.062
1687767761.047,41.504,-11.230,-42.480,-63.477,-51.758
1687767761.051,57.129,-10.742,-53.223,-52.246,-36.133
1687767761.055,52.734,-16.602,-54.688,-60.059,-15.625
1687767761.059,39.062,-17.090,-52.246,-74.707,-11.719
1687767761.062,38.574,-20.020,-55.664,-73.242,184.082
1687767761.066,41.504,-13.184,-60.547,-60.059,348.633
1687767761.070,54.199,-11.719,-60.547,-59.082,1.465
1687767761.074,57.617,-14.160,-58.105,-61.523,-145.020
1687767761.078,37.598,-7.324,-63.965,-68.848,-104.980
1687767761.081,27.344,-2.930,-73.730,-82.520,-180.664
1687767761.085,51.758,-6.348,-76.660,-72.754,-251.465
1687767761.089,68.359,-5.859,-77.637,-67.871,-217.773
1687767761.093,56.641,-11.719,-76.172,-74.219,-117.676
1687767761.097,45.410,-27.344,-74.707,-74.219,-146.973
1687767761.101,30.762,-15.137,-79.590,-89.844,-137.695
1687767761.105,30.273,-11.719,-84.473,-88.867,7.324
1687767761.108,55.664,-18.555,-80.566,-59.082,226.562
1687767761.112,61.035,-7.324,-72.754,-55.664,27.344
1687767761.116,42.480,5.371,-70.312,-73.730,-144.531
1687767761.120,33.203,2.441,-71.289,-89.355,11.230
1687767761.124,43.457,-7.812,-67.871,-74.219,148.926
1687767761.125,62.500,-6.836,-68.848,-53.711,-47.363
1687767761.129,66.406,-4.395,-70.801,-61.035,-186.035
1687767761.133,60.547,-0.977,-64.941,-65.918,-16.113
1687767761.137,46.875,8.301,-62.988,-59.082,-26.367
1687767761.141,28.809,-5.859,-65.918,-61.035,-170.898
1687767761.145,36.133,-17.090,-67.383,-57.129,-81.055
1687767761.149,36.621,-6.348,-69.336,-58.594,244.629
1687767761.152,10.254,-5.859,-69.824,-60.547,158.203
1687767761.156,-0.488,-7.812,-64.941,-55.664,-209.473
1687767761.160,8.301,-11.230,-60.059,-58.594,-184.570
1687767761.164,23.926,-12.695,-58.105,-50.781,-73.730
1687767761.168,29.297,0.977,-60.547,-48.828,-122.559
1687767761.174,20.020,5.371,-56.641,-58.105,-70.801
1687767761.178,8.301,-11.719,-51.270,-54.688,-28.809
1687767761.182,12.695,-9.766,-53.711,-51.758,21.484
1687767761.186,24.902,2.930,-56.152,-57.617,-53.711
1687767761.190,25.879,-7.324,-56.641,-57.129,-123.047
1687767761.194,22.461,-5.371,-55.664,-58.105,-33.691
1687767761.198,3.906,-5.371,-53.223,-68.848,119.629
1687767761.201,-10.254,-20.996,-58.594,-84.961,63.965
1687767761.205,6.348,-19.043,-56.641,-77.637,-106.934
1687767761.209,13.672,0.488,-48.340,-60.059,-5.859
1687767761.213,0.488,2.930,-47.363,-64.453,164.551
1687767761.217,-3.906,-5.859,-46.875,-65.918,-60.059
1687767761.232,-2.930,-17.578,-48.340,-55.176,-146.973
1687767761.236,-1.953,-15.137,-50.293,-53.223,-13.184
1687767761.240,11.230,-3.418,-45.898,-52.734,59.570
1687767761.244,8.301,0.488,-39.551,-52.734,-43.457
1687767761.248,-13.672,-0.488,-43.457,-64.453,-157.715
1687767761.252,-10.742,-8.301,-48.828,-66.895,24.414
1687767761.256,2.441,-13.672,-43.945,-55.664,62.988
1687767761.259,-3.418,-16.602,-44.922,-45.898,-156.250
1687767761.263,-7.324,-16.602,-45.898,-46.387,-164.551
1687767761.267,-15.625,-14.648,-43.945,-54.688,56.152
1687767761.271,-15.137,-18.555,-45.410,-62.012,-79.590
1687767761.275,1.953,-20.508,-42.969,-67.383,-276.367
1687767761.276,3.906,-17.090,-39.062,-65.918,-163.086
1687767761.280,-4.883,-29.297,-36.133,-60.547,-104.492
1687767761.284,-12.207,-34.668,-37.109,-63.477,-130.371
1687767761.288,-21.484,-28.809,-37.109,-73.242,-163.574
1687767761.292,-13.672,-26.367,-39.551,-67.871,-178.711
1687767761.296,2.441,-13.184,-37.598,-48.340,-62.012
1687767761.300,5.371,-20.020,-32.227,-48.340,-38.086
1687767761.303,-12.695,-27.832,-34.668,-69.336,-118.164
1687767761.307,-32.227,-22.949,-35.156,-73.242,-74.219
1687767761.311,-25.391,-28.809,-34.668,-54.199,260.742
1687767761.315,-5.859,-25.391,-41.016,-54.688,269.043
1687767761.319,1.953,-23.926,-41.504,-61.523,-56.152
1687767761.321,-0.488,-21.484,-32.715,-64.453,-70.801
1687767761.325,-18.066,-20.020,-27.832,-69.824,-18.555
1687767761.329,-24.414,-26.367,-29.785,-72.266,-89.844
1687767761.333,-6.836,-21.484,-29.297,-55.664,-101.562
1687767761.337,-4.883,-17.578,-27.344,-51.758,50.781
1687767761.341,-19.043,-21.484,-30.273,-70.801,116.211
1687767761.345,-34.180,-32.715,-35.645,-72.754,-3.418
1687767761.348,-19.043,-38.086,-39.551,-65.918,-38.086
1687767761.352,2.441,-31.250,-35.645,-52.246,170.410
1687767761.356,7.324,-23.926,-26.367,-32.715,311.035
1687767761.360,-16.113,-21.973,-28.809,-35.156,-28.320
1687767761.364,-34.180,-21.973,-28.809,-47.363,-140.137
1687767761.381,-16.113,-19.043,-24.414,-44.434,-98.633
1687767761.385,0.977,-21.973,-26.367,-45.898,-165.527
1687767761.389,-3.418,-32.715,-28.320,-49.316,-128.418
1687767761.393,-17.090,-28.809,-25.391,-37.598,-134.766
1687767761.397,-39.062,-29.297,-26.855,-42.969,-130.371
1687767761.401,-42.969,-33.691,-33.691,-59.082,-25.879
1687767761.405,-17.090,-20.996,-38.574,-48.828,23.926
1687767761.408,-9.277,-17.090,-40.527,-39.551,35.645
1687767761.412,-32.715,-19.531,-38.574,-47.852,183.105
1687767761.416,-53.223,-22.949,-41.016,-65.918,92.773
1687767761.420,-42.480,-31.250,-44.922,-70.312,-96.191
1687767761.424,-21.484,-31.250,-42.969,-63.965,-4.883
1687767761.412,-9.766,-23.926,-42.480,-57.129,141.113
1687767761.416,-14.648,-14.160,-42.480,-62.988,-108.398
1687767761.420,-36.621,-18.066,-42.480,-82.031,-202.637
1687767761.424,-34.180,-27.344,-39.062,-70.801,-91.797
1687767761.428,-12.695,-26.367,-37.109,-61.035,-72.754
1687767761.432,-10.742,-23.438,-45.898,-57.129,-50.293
1687767761.436,-2.441,-19.531,-53.223,-40.527,-41.016
1687767761.439,-18.555,-18.066,-50.293,-41.016,-13.672
1687767761.443,-42.480,-37.598,-30.273,-54.199,-99.609
1687767761.447,-23.438,-45.410,-17.578,-43.945,-170.410
1687767761.451,-19.531,-38.574,-24.902,-43.945,-121.094
1687767761.455,-35.645,-42.969,-28.809,-43.945,210.938
1687767761.455,-62.988,-47.852,-22.949,-49.316,233.398
1687767761.459,-65.430,-51.758,-17.578,-64.453,-109.375
1687767761.463,-37.598,-54.688,-20.508,-53.223,-91.309
1687767761.467,-40.527,-55.664,-21.973,-40.039,-38.574
1687767761.471,-51.758,-57.617,-18.555,-38.086,-90.820
1687767761.475,-73.242,-62.500,-11.719,-43.457,-85.938
1687767761.479,-100.098,-65.430,-11.719,-50.293,5.859
1687767761.482,-88.379,-62.988,-17.090,-41.992,210.938
1687767761.486,-78.613,-65.918,-16.113,-40.527,29.785
1687767761.490,-83.008,-69.824,-12.207,-34.180,-125.488
1687767761.494,-101.562,-67.871,-10.254,-31.738,29.785
1687767761.498,-116.211,-72.266,-7.812,-41.504,46.875
1687767761.502,-101.074,-72.754,1.953,-42.480,-138.672
1687767761.506,-82.520,-67.871,4.883,-40.039,-134.277
1687767761.510,-83.496,-66.406,1.465,-30.273,47.363
1687767761.514,-109.863,-71.289,2.930,-40.527,-104.980
1687767761.518,-131.348,-71.777,-0.488,-48.828,-234.863
1687767761.522,-115.234,-65.430,-3.418,-35.156,-124.512
1687767761.526,-96.191,-70.801,-4.883,-30.762,110.352
1687767761.529,-93.262,-76.172,-0.488,-33.203,245.117
1687767761.533,-93.750,-69.336,4.395,-43.457,-86.426
1687767761.537,-123.047,-72.754,-0.977,-54.199,-176.270
1687767761.541,-125.488,-79.590,-3.418,-44.922,-65.430
1687767761.545,-101.074,-69.824,0.977,-39.551,-104.004
1687767761.545,-98.633,-61.523,2.441,-46.875,-153.809
1687767761.549,-115.723,-61.523,-4.883,-48.828,-154.297
1687767761.553,-137.695,-68.848,-0.977,-43.945,-153.809
1687767761.557,-121.094,-74.219,5.371,-35.156,-165.039
1687767761.561,-99.121,-71.777,10.254,-34.180,-101.562
1687767761.565,-96.191,-73.730,7.324,-29.297,28.809
1687767761.569,-107.422,-74.219,-1.953,-21.973,308.105
1687767761.572,-127.930,-65.430,-4.883,-30.273,125.977
1687767761.576,-120.117,-64.453,0.000,-46.387,-250.488
1687767761.580,-88.867,-59.082,0.977,-38.574,-150.391
1687767761.584,-87.891,-57.617,-4.883,-32.715,120.605
1687767761.588,-101.562,-61.035,-8.789,-41.016,-1.953
1687767761.606,-123.047,-57.129,-14.648,-52.734,-229.492
1687767761.610,-120.117,-53.711,-15.625,-45.898,-112.793
1687767761.614,-105.957,-64.941,-8.789,-29.297,130.859
1687767761.618,-93.750,-61.523,-13.672,-27.832,-56.641
1687767761.622,-88.867,-47.852,-20.996,-36.133,-195.312
1687767761.626,-110.352,-54.688,-20.996,-46.875,-73.242
1687767761.630,-107.910,-54.688,-18.066,-39.062,-4.395
1687767761.633,-86.914,-51.270,-22.949,-25.879,18.555
1687767761.637,-72.754,-57.617,-25.391,-20.508,-59.570
1687767761.641,-60.547,-55.176,-15.625,-9.277,84.961
1687767761.645,-78.613,-47.363,-22.949,-16.113,139.648
1687767761.649,-106.934,-41.504,-28.809,-29.785,-108.398
1687767761.651,-98.633,-43.945,-23.926,-29.297,-141.113
1687767761.655,-77.148,-42.480,-24.414,-23.926,-89.355
1687767761.659,-85.449,-49.805,-30.762,-24.414,-130.371
1687767761.663,-105.469,-60.059,-30.273,-28.809,-201.660
1687767761.667,-118.652,-47.363,-26.855,-37.598,-207.520
1687767761.671,-109.375,-47.363,-37.598,-49.805,-7.812
1687767761.675,-89.844,-54.688,-39.551,-43.457,81.543
1687767761.678,-80.078,-45.898,-33.203,-39.062,-94.238
1687767761.682,-94.238,-39.551,-27.344,-40.527,-21.484
1687767761.686,-103.516,-42.969,-26.367,-36.133,307.129
1687767761.690,-90.332,-50.293,-32.227,-40.039,146.484
1687767761.694,-69.336,-48.828,-37.598,-45.898,-127.930
1687767761.696,-61.035,-50.781,-40.039,-46.875,-41.992
1687767761.700,-79.102,-50.293,-39.062,-43.945,55.176
1687767761.704,-93.262,-48.340,-37.109,-47.363,-103.027
1687767761.708,-78.613,-51.270,-42.969,-48.828,-148.926
1687767761.712,-66.895,-50.781,-43.945,-37.598,-61.523
1687767761.716,-53.711,-41.504,-32.227,-28.320,-35.645
1687767761.720,-65.430,-37.109,-38.086,-40.039,-79.590
1687767761.723,-93.262,-35.645,-57.617,-55.176,-94.727
1687767761.727,-86.426,-41.992,-48.340,-47.852,40.527
1687767761.731,-58.594,-32.715,-31.738,-36.133,69.336
1687767761.735,-39.551,-26.855,-25.879,-32.715,-113.770
1687767761.739,-54.688,-36.621,-27.344,-33.691,-127.441
1687767761.748,-69.824,-33.203,-32.715,-39.551,10.742
1687767761.752,-48.828,-34.180,-28.320,-33.691,-83.496
1687767761.756,-32.715,-40.039,-25.391,-32.715,-156.250
1687767761.760,-33.203,-26.855,-23.926,-30.273,-149.902
1687767761.764,-50.293,-16.602,-26.855,-36.621,-58.594
1687767761.768,-70.312,-20.996,-34.668,-57.617,36.621
1687767761.772,-68.848,-32.227,-42.969,-57.617,13.184
1687767761.775,-40.527,-41.504,-46.875,-41.504,59.570
1687767761.779,-22.949,-44.434,-37.109,-26.855,220.703
1687767761.783,-25.879,-45.410,-24.902,-28.320,74.707
1687767761.787,-46.875,-36.133,-29.785,-33.691,-67.871
1687767761.791,-74.219,-28.809,-38.574,-45.898,-0.488
1687767761.789,-62.988,-23.438,-31.738,-40.039,12.695
1687767761.793,-49.805,-15.625,-31.738,-26.855,-47.852
1687767761.797,-55.664,-19.043,-44.922,-41.016,-19.043
1687767761.801,-63.965,-23.438,-32.227,-48.340,21.484
1687767761.805,-55.176,-23.438,-20.020,-43.945,-30.273
1687767761.809,-40.527,-19.043,-26.367,-41.016,-53.223
1687767761.813,-33.203,-23.926,-25.391,-37.109,10.254
1687767761.816,-45.410,-36.133,-28.809,-38.086,196.289
1687767761.820,-58.105,-27.832,-39.062,-32.715,127.441
1687767761.824,-68.359,-28.809,-38.574,-42.480,-188.477
1687767761.828,-71.289,-38.086,-36.621,-47.363,-169.434
1687767761.832,-45.898,-36.621,-39.551,-26.367,-76.172
1687767761.830,-31.738,-20.020,-35.156,-20.020,-130.859
1687767761.834,-61.035,-11.230,-34.668,-51.270,-191.406
1687767761.838,-94.238,-13.184,-30.762,-74.707,-170.410
1687767761.842,-83.008,-22.461,-25.391,-67.383,-100.098
1687767761.846,-66.895,-22.461,-36.621,-59.082,-24.414
1687767761.850,-62.988,-19.043,-35.645,-51.270,-2.441
1687767761.854,-56.641,-17.090,-23.438,-50.781,5.371
1687767761.857,-63.477,-19.531,-27.344,-48.340,208.984
1687767761.861,-56.152,-22.461,-33.691,-45.898,94.238
1687767761.865,-36.621,-31.738,-33.691,-44.434,-144.531
1687767761.869,-37.109,-27.832,-40.039,-53.711,67.871
1687767761.873,-52.734,-24.902,-44.922,-64.453,143.066
1687767761.875,-61.523,-41.016,-37.598,-72.266,-86.914
1687767761.879,-48.340,-32.227,-34.180,-63.965,-146.484
1687767761.883,-37.109,-25.879,-35.645,-50.781,-76.172
1687767761.887,-36.621,-21.484,-28.809,-52.734,-84.473
1687767761.891,-43.457,-20.996,-24.414,-48.828,-154.297
1687767761.895,-68.359,-22.949,-31.250,-50.293,-195.801
1687767761.899,-77.637,-22.461,-37.109,-46.875,123.535
1687767761.902,-66.895,-30.762,-38.574,-41.016,291.504
1687767761.906,-54.199,-29.785,-33.691,-43.457,-63.477
1687767761.910,-64.453,-36.133,-33.203,-41.504,-168.945
1687767761.914,-89.355,-38.574,-42.480,-50.293,-11.230
1687767761.918,-87.891,-34.668,-38.086,-62.988,-47.363
1687767761.920,-54.199,-40.527,-28.809,-50.293,-184.570
1687767761.924,-31.250,-37.598,-31.250,-37.109,-171.875
1687767761.928,-47.363,-24.902,-39.062,-42.480,-117.188
1687767761.932,-61.523,-24.414,-34.180,-40.039,-129.395
1687767761.936,-63.477,-37.598,-32.227,-43.945,-191.895
1687767761.940,-57.129,-32.715,-38.086,-44.922,-82.031
1687767761.944,-44.434,-22.949,-33.203,-31.738,221.680
1687767761.947,-37.109,-32.227,-35.645,-30.273,83.984
1687767761.951,-57.129,-44.922,-39.062,-43.945,-156.738
1687767761.955,-80.566,-41.992,-35.645,-54.688,20.020
1687767761.959,-62.500,-35.156,-31.738,-42.969,358.887
1687767761.963,-43.457,-27.344,-33.691,-37.598,139.160
1687767761.980,-43.945,-29.297,-33.203,-50.293,-120.117
1687767761.984,-58.594,-32.227,-33.691,-56.152,-39.551
1687767761.988,-62.500,-31.738,-35.645,-52.246,-70.312
1687767761.992,-37.109,-32.715,-36.621,-45.898,-195.801
1687767761.996,-9.766,-23.438,-33.691,-44.434,-146.484
1687767762.000,-15.137,-23.926,-34.180,-50.293,88.867
1687767762.004,-30.762,-41.504,-39.062,-48.340,76.172
1687767762.007,-33.691,-36.621,-40.039,-52.734,-127.441
1687767762.011,-33.691,-24.414,-37.598,-58.594,-146.973
1687767762.015,-26.855,-30.273,-45.898,-46.387,24.414
1687767762.019,-21.484,-40.527,-49.316,-38.574,-41.016
1687767762.023,-42.969,-32.715,-36.133,-53.711,-213.867
1687767762.025,-54.199,-18.555,-21.973,-58.105,-107.910
1687767762.029,-37.598,-25.391,-22.461,-47.363,15.625
1687767762.033,-16.602,-27.832,-27.344,-30.762,-112.793
1687767762.037,-13.184,-22.949,-22.461,-24.902,-145.020
1687767762.041,-32.227,-25.391,-25.879,-47.363,-180.176
1687767762.045,-50.293,-28.809,-33.691,-64.453,-208.496
1687767762.049,-52.246,-35.645,-35.156,-64.453,-108.887
1687767762.052,-28.809,-31.738,-30.762,-45.898,-116.211
1687767762.056,-1.465,-20.020,-23.438,-26.367,-83.496
1687767762.060,-30.273,-21.973,-25.391,-33.203,198.242
1687767762.064,-57.129,-32.715,-25.391,-50.781,188.477
1687767762.068,-50.781,-41.992,-30.762,-49.805,-104.980
1687767762.070,-33.691,-54.688,-41.504,-41.992,-81.055
1687767762.074,-13.184,-51.270,-35.156,-27.344,77.148
1687767762.078,-25.879,-39.062,-34.668,-39.062,-64.453
1687767762.082,-45.898,-26.855,-36.621,-50.293,-176.758
1687767762.086,-47.363,-25.879,-37.109,-40.039,4.395
1687767762.090,-35.645,-35.645,-42.480,-32.227,168.945
1687767762.094,-19.531,-38.574,-44.434,-38.574,48.828
1687767762.097,-16.602,-37.109,-46.875,-48.828,-33.203
1687767762.101,-41.504,-35.156,-38.574,-44.922,83.496
1687767762.105,-55.664,-48.828,-33.203,-46.875,83.008
1687767762.109,-34.668,-51.270,-38.086,-56.152,-67.871
1687767762.113,-19.531,-35.156,-37.109,-45.410,-40.527
1687767762.115,-24.902,-27.832,-31.250,-29.297,12.695
1687767762.119,-46.387,-37.109,-38.086,-41.504,-69.336
1687767762.123,-49.316,-42.480,-44.434,-65.430,-115.723
1687767762.127,-31.738,-41.992,-35.645,-62.012,-50.293
1687767762.131,-34.668,-38.086,-35.156,-52.734,72.266
1687767762.135,-37.109,-29.297,-43.457,-54.199,53.711
1687767762.139,-48.340,-28.320,-37.109,-58.594,-73.242
1687767762.142,-61.523,-39.551,-29.785,-64.941,-52.734
1687767762.146,-48.340,-38.574,-36.621,-52.734,162.109
1687767762.150,-31.738,-39.062,-36.133,-50.781,8.789
1687767762.154,-32.715,-41.016,-35.645,-61.035,-117.188
1687767762.158,-50.781,-38.574,-41.016,-62.012,-86.426
1687767762.160,-67.383,-30.273,-41.992,-69.824,-99.609
1687767762.164,-47.363,-40.527,-33.203,-65.430,-153.320
1687767762.168,-26.367,-52.246,-29.785,-43.945,-138.672
1687767762.172,-43.457,-31.738,-40.527,-41.016,-8.301
1687767762.176,-66.406,-34.180,-40.039,-50.781,-32.715
1687767762.180,-76.172,-43.945,-37.109,-59.082,-133.301
1687767762.184,-48.828,-27.832,-32.227,-51.270,-78.613
1687767762.187,-20.020,-20.996,-30.273,-41.016,230.469
1687767762.191,-18.555,-32.227,-40.527,-47.852,335.938
1687767762.195,-27.832,-38.086,-36.621,-62.012,-64.453
1687767762.199,-26.855,-45.898,-24.414,-62.988,-170.898
1687767762.203,-7.324,-46.875,-26.367,-57.617,-54.199
1687767762.205,4.395,-35.156,-31.738,-52.246,-105.469
1687767762.209,4.395,-29.785,-33.203,-50.293,-164.551
1687767762.213,-8.301,-33.691,-37.109,-47.852,-148.926
1687767762.217,-27.344,-38.574,-39.062,-53.223,-91.309
1687767762.221,-29.297,-43.945,-35.156,-54.688,-114.258
1687767762.225,-12.207,-38.574,-29.785,-57.617,-137.207
1687767762.229,1.953,-32.715,-27.832,-51.270,0.488
1687767762.232,-14.648,-38.574,-31.738,-47.852,212.891
1687767762.236,-39.062,-38.574,-36.621,-75.684,7.324
1687767762.240,-34.180,-36.621,-33.691,-89.844,-208.496
1687767762.244,-27.344,-33.203,-36.133,-88.867,-39.551
1687767762.248,-21.973,-26.855,-35.156,-82.520,156.250
1687767762.250,-17.578,-28.320,-21.973,-81.055,-50.781
1687767762.254,-49.316,-40.527,-28.809,-93.262,-206.055
1687767762.258,-53.223,-36.133,-34.180,-85.938,-81.543
1687767762.262,-24.414,-28.320,-29.785,-64.453,-40.039
1687767762.266,-15.625,-33.691,-27.344,-55.176,-98.145
1687767762.270,-24.902,-44.434,-24.902,-61.523,-59.570
1687767762.274,-38.574,-41.992,-21.484,-63.965,128.906
1687767762.277,-41.016,-33.203,-21.484,-56.641,135.742
1687767762.281,-33.203,-41.016,-29.297,-58.105,-64.941
1687767762.285,-19.531,-38.574,-26.855,-60.547,-80.078
1687767762.289,-26.367,-30.273,-28.809,-68.359,17.578
1687767762.293,-45.410,-26.367,-29.297,-72.266,23.926
1687767762.310,-45.898,-25.879,-26.367,-63.965,-106.445
1687767762.314,-31.738,-39.551,-30.273,-46.875,-120.605
1687767762.318,-27.832,-42.969,-39.062,-34.180,-16.113
1687767762.322,-31.738,-41.992,-31.738,-45.898,-73.242
1687767762.326,-39.551,-49.316,-29.785,-59.570,-201.172
1687767762.330,-50.293,-40.527,-37.598,-61.035,-80.566
1687767762.334,-38.574,-33.203,-39.062,-50.781,158.203
1687767762.337,-32.227,-40.039,-45.898,-54.688,16.113
1687767762.341,-54.199,-39.062,-39.062,-63.965,-107.422
1687767762.345,-59.570,-34.180,-34.180,-61.523,-1.953
1687767762.349,-57.129,-38.086,-37.109,-68.848,136.719
1687767762.353,-47.363,-41.504,-36.133,-67.871,22.461
1687767762.342,-23.438,-35.645,-35.156,-54.688,-128.906
1687767762.346,-23.926,-37.598,-34.668,-49.316,35.645
1687767762.350,-31.738,-44.922,-30.273,-41.992,91.797
1687767762.354,-29.297,-32.227,-32.715,-51.758,-186.035
1687767762.358,-24.414,-19.531,-35.645,-62.500,-242.676
1687767762.362,-15.137,-43.457,-36.621,-50.293,17.578
1687767762.366,-13.184,-52.734,-35.156,-36.621,95.215
1687767762.369,-26.367,-20.020,-33.691,-29.297,-84.473
1687767762.373,-45.410,-11.230,-37.109,-36.133,-145.020
1687767762.377,-42.480,-30.762,-37.598,-44.434,41.016
1687767762.381,-20.996,-31.738,-35.156,-30.273,92.285
1687767762.385,-18.066,-28.809,-34.668,-31.250,-78.613
1687767762.417,-34.668,-39.062,-33.203,-32.715,-143.555
1687767762.421,-25.879,-34.668,-29.297,-21.973,-109.863
1687767762.425,-20.508,-25.391,-38.086,-30.762,-134.277
1687767762.429,-31.738,-29.297,-46.387,-40.527,-62.500
1687767762.433,-32.715,-22.949,-50.293,-29.297,4.883
1687767762.437,-39.551,-14.648,-47.363,-21.973,187.500
1687767762.441,-48.340,-21.973,-39.062,-34.668,128.906
1687767762.444,-45.898,-31.250,-39.551,-45.410,-92.285
1687767762.448,-46.387,-27.832,-52.246,-38.086,-43.457
1687767762.452,-41.016,-17.578,-58.105,-34.668,196.777
1687767762.456,-44.922,-20.508,-59.570,-38.086,39.062
1687767762.460,-63.965,-21.973,-60.547,-52.734,-187.988
1687767762.446,-65.918,-17.090,-62.012,-62.500,-126.953
1687767762.450,-48.340,-25.879,-72.266,-52.246,-67.383
1687767762.454,-33.203,-28.809,-79.102,-50.293,-194.824
1687767762.458,-40.039,-26.367,-80.078,-65.430,-197.754
1687767762.462,-52.734,-26.855,-79.102,-75.684,-119.629
1687767762.466,-51.758,-20.508,-81.543,-73.730,-134.277
1687767762.470,-24.902,-12.207,-85.449,-63.477,-113.770
1687767762.473,-1.465,-16.113,-81.543,-55.664,25.879
1687767762.477,-13.184,-16.113,-79.590,-56.641,68.359
1687767762.481,-29.297,-11.230,-74.707,-53.711,-118.164
1687767762.485,-29.785,-8.301,-71.777,-56.152,-199.707
1687767762.489,-15.625,-5.371,-74.219,-62.012,-145.020
1687767762.506,1.953,0.000,-77.148,-39.062,112.305
1687767762.510,9.277,-9.277,-73.242,-30.762,195.801
1687767762.514,-11.230,-15.625,-73.242,-55.176,-103.027
1687767762.518,-25.391,-8.301,-75.684,-63.477,-116.699
1687767762.522,-10.742,-16.602,-80.078,-62.012,-67.871
1687767762.526,6.836,-20.996,-85.938,-66.895,-55.664
1687767762.530,22.949,-9.766,-83.008,-68.848,-11.230
1687767762.533,-12.695,-6.348,-75.195,-66.895,8.789
1687767762.537,-31.250,-13.672,-74.219,-71.289,24.902
1687767762.541,-15.137,-23.438,-76.660,-80.566,-40.527
1687767762.545,-5.371,-21.484,-75.195,-85.938,-67.871
1687767762.549,7.324,-17.578,-68.359,-81.543,-19.043
1687767762.536,1.465,-21.973,-69.336,-78.613,322.266
1687767762.540,-17.090,-22.461,-72.266,-91.797,209.961
1687767762.544,-24.414,-22.461,-70.801,-104.980,-143.555
1687767762.548,-2.441,-24.414,-71.289,-99.121,-108.887
1687767762.552,13.184,-21.973,-66.895,-81.055,-86.914
1687767762.556,0.000,-16.113,-62.988,-80.078,-69.824
1687767762.560,-22.949,-6.836,-61.523,-90.820,-16.602
1687767762.563,-22.461,1.465,-58.594,-91.309,52.734
1687767762.567,0.977,-2.930,-61.035,-80.566,-125.488
1687767762.571,7.324,-16.602,-60.547,-67.383,-158.691
1687767762.575,-9.277,-17.578,-54.688,-71.289,-51.758
1687767762.579,-28.809,-13.672,-50.781,-62.012,158.203
1687767762.582,-32.715,-21.484,-50.781,-58.105,182.129
1687767762.586,0.488,-26.855,-55.664,-74.219,-58.105
1687767762.590,4.883,-27.832,-57.617,-83.496,-56.152
1687767762.594,-0.977,-25.391,-47.852,-74.219,-14.160
1687767762.598,-9.766,-24.902,-45.410,-68.848,-129.395
1687767762.602,-10.254,-20.020,-53.711,-69.336,-112.793
1687767762.606,4.395,-20.020,-52.734,-65.918,14.648
1687767762.609,2.930,-20.508,-50.293,-59.570,183.594
1687767762.613,-6.348,-16.113,-51.758,-65.918,34.668
1687767762.617,-17.578,-21.973,-48.828,-82.520,-173.828
1687767762.621,-15.137,-31.250,-47.852,-80.078,-17.578
1687767762.625,-12.695,-18.066,-53.223,-68.848,130.371
1687767762.626,-6.836,-10.742,-49.316,-65.430,-17.578
1687767762.630,3.906,-23.438,-45.898,-71.777,-128.418
1687767762.634,-13.184,-32.715,-43.457,-77.637,-53.711
1687767762.638,-28.809,-25.391,-38.086,-68.848,-21.973
1687767762.642,-8.789,-26.855,-42.480,-62.012,-110.352
1687767762.646,6.836,-35.156,-48.340,-65.918,-77.637
1687767762.650,1.465,-27.832,-42.969,-58.594,231.934
1687767762.653,-11.230,-15.625,-36.133,-55.664,208.496
1687767762.657,-23.438,-20.020,-34.668,-61.523,-192.383
1687767762.661,-8.301,-26.855,-32.715,-47.363,-190.918
1687767762.665,9.277,-16.113,-36.133,-47.852,7.324
1687767762.669,6.836,-13.184,-36.621,-56.152,-18.066
1687767762.716,-2.441,-21.484,-35.645,-48.828,-109.375
1687767762.720,-8.789,-30.762,-38.574,-57.617,-149.414
1687767762.724,-0.488,-34.668,-34.668,-53.223,-175.781
1687767762.728,-4.883,-39.551,-33.203,-45.898,-107.910
1687767762.732,-2.930,-41.016,-33.203,-39.551,-136.230
1687767762.736,-10.742,-35.156,-37.598,-37.109,-57.129
1687767762.740,-20.996,-32.227,-39.551,-50.293,298.828
1687767762.743,-5.859,-27.344,-30.273,-49.805,210.938
1687767762.747,12.695,-22.949,-31.738,-43.457,-145.020
1687767762.751,14.648,-28.809,-41.992,-45.410,-95.215
1687767762.755,1.465,-33.691,-41.016,-41.504,65.430
1687767762.759,-6.348,-31.250,-38.574,-44.434,-79.102
1687767762.719,9.277,-28.809,-34.180,-46.387,-251.465
1687767762.723,16.602,-29.297,-31.250,-36.133,-158.203
1687767762.727,15.625,-34.180,-34.180,-28.809,-38.574
1687767762.731,5.859,-29.297,-31.738,-36.621,-97.656
1687767762.735,1.953,-27.832,-33.203,-45.898,-120.117
1687767762.739,13.672,-38.574,-34.668,-39.062,-20.508
1687767762.743,13.184,-33.203,-38.086,-36.621,3.418
1687767762.746,10.742,-22.949,-37.598,-40.527,-74.707
1687767762.750,13.672,-24.902,-33.691,-39.062,-140.625
1687767762.754,-13.184,-28.809,-33.691,-32.227,-66.895
1687767762.758,-12.695,-28.809,-30.273,-34.668,-111.816
1687767762.762,14.648,-29.297,-31.738,-39.062,-143.066
1687767762.776,21.973,-22.461,-32.715,-30.762,-73.242
1687767762.780,-7.812,-25.879,-38.574,-35.645,16.602
1687767762.784,-33.203,-37.109,-39.551,-60.547,-45.410
1687767762.788,-24.414,-41.504,-31.250,-63.477,-101.562
1687767762.792,-1.953,-42.480,-31.250,-42.969,-79.102
1687767762.796,16.602,-33.203,-32.227,-20.508,247.559
1687767762.800,11.230,-30.273,-30.762,-15.625,471.191
1687767762.803,-9.277,-39.062,-34.180,-43.457,48.828
1687767762.807,-12.207,-27.832,-41.016,-50.293,-144.531
1687767762.811,4.883,-20.020,-41.016,-31.250,31.738
1687767762.815,20.996,-32.227,-43.945,-33.691,-22.949
1687767762.819,7.812,-35.645,-46.875,-41.504,-157.715
1687767762.821,-10.742,-46.387,-40.039,-42.480,-152.344
1687767762.825,-8.301,-56.152,-35.645,-44.434,-75.195
1687767762.829,4.883,-51.270,-41.504,-35.645,-188.965
1687767762.833,15.137,-33.691,-46.875,-29.297,-256.836
1687767762.837,17.578,-20.996,-40.039,-36.621,-78.125
1687767762.841,0.488,-36.621,-36.621,-37.598,-47.852
1687767762.845,-15.137,-41.504,-42.969,-46.875,-123.535
1687767762.848,1.465,-40.039,-44.434,-49.805,-92.285
1687767762.852,18.555,-48.340,-42.480,-30.762,74.707
1687767762.856,16.602,-34.668,-35.156,-23.926,208.008
1687767762.860,3.418,-22.949,-37.109,-42.480,3.906
1687767762.864,-11.719,-31.250,-42.969,-51.758,-173.340
1687767762.866,-17.578,-33.203,-45.898,-50.293,-41.504
1687767762.870,-11.719,-32.227,-52.246,-60.059,-52.246
1687767762.874,7.812,-29.785,-60.547,-37.598,-178.223
1687767762.878,25.391,-20.508,-62.500,-19.531,-105.957
1687767762.882,-0.977,-36.621,-43.457,-41.016,29.785
1687767762.886,-10.254,-46.875,-27.344,-40.039,-31.250
1687767762.890,11.719,-34.180,-30.762,-28.320,-130.371
1687767762.893,-9.277,-36.621,-35.645,-34.668,-55.664
1687767762.897,-33.203,-41.992,-32.227,-36.133,183.105
1687767762.901,-44.434,-45.410,-31.738,-42.969,-13.184
1687767762.905,-43.945,-62.500,-30.273,-51.270,-138.184
1687767762.909,-29.785,-71.289,-25.879,-43.945,-29.297
1687767762.926,-16.602,-62.988,-22.461,-33.203,77.148
1687767762.930,-32.227,-66.895,-17.090,-40.527,-120.605
1687767762.934,-59.082,-70.312,-13.184,-41.992,-225.098
1687767762.938,-51.270,-65.430,-15.625,-52.246,-96.191
1687767762.942,-31.250,-66.895,-12.695,-56.152,-83.984
1687767762.946,-29.297,-63.477,-6.836,-43.945,-79.102
1687767762.950,-41.016,-68.848,-3.906,-45.898,-44.922
1687767762.953,-50.293,-71.289,-2.930,-46.875,98.633
1687767762.957,-61.035,-72.754,-7.324,-43.945,116.211
1687767762.961,-49.805,-73.730,-7.324,-52.734,-105.469
1687767762.965,-40.039,-76.172,-6.348,-55.664,-106.934
1687767762.969,-54.688,-74.707,0.977,-45.410,-70.312
1687767762.957,-75.195,-71.289,7.324,-50.781,-74.219
1687767762.961,-91.797,-76.660,-0.488,-70.312,-88.867
1687767762.965,-75.684,-76.172,-4.395,-67.871,-55.176
1687767762.969,-54.688,-70.801,-3.906,-50.293,18.066
1687767762.973,-62.012,-71.289,-9.277,-59.570,-138.672
1687767762.977,-69.824,-78.125,-5.859,-70.312,-100.098
1687767762.981,-65.918,-78.125,2.930,-56.641,49.805
1687767762.984,-49.316,-72.754,7.324,-48.340,57.129
1687767762.988,-38.086,-74.219,6.348,-50.781,-61.035
1687767762.992,-41.016,-77.637,-0.488,-51.758,-118.652
1687767762.996,-61.035,-80.078,-3.418,-56.152,37.598
1687767763.000,-76.660,-75.195,3.906,-44.434,326.660
1687767763.000,-55.664,-69.824,9.766,-38.574,181.641
1687767763.004,-38.086,-66.406,3.418,-44.434,-124.512
1687767763.008,-45.410,-64.941,2.441,-49.316,-85.449
1687767763.012,-56.152,-68.359,-2.441,-53.223,-127.441
1687767763.016,-73.242,-67.383,-12.695,-56.641,-196.289
1687767763.020,-65.918,-61.035,-8.301,-65.430,-125.977
1687767763.024,-46.387,-60.547,-7.324,-48.340,133.789
1687767763.027,-45.410,-63.965,-5.859,-24.902,338.867
1687767763.031,-52.246,-61.523,-5.859,-47.852,21.484
1687767763.035,-61.523,-61.523,-10.742,-64.453,-108.887
1687767763.039,-62.500,-58.105,-15.625,-49.805,-70.801
1687767763.043,-47.363,-53.223,-16.113,-39.551,-149.414
1687767763.046,-41.992,-54.688,-16.602,-43.457,-140.625
1687767763.050,-51.270,-53.223,-21.973,-42.480,-89.355
1687767763.054,-57.617,-48.828,-22.461,-39.062,-88.379
1687767763.058,-52.246,-48.828,-16.602,-44.434,-143.066
1687767763.062,-30.762,-42.969,-14.648,-46.875,-103.516
1687767763.066,-23.926,-42.480,-16.602,-39.551,35.645
1687767763.070,-34.180,-43.457,-21.484,-39.062,73.242
1687767763.073,-41.016,-37.598,-29.785,-49.316,-19.043
1687767763.077,-45.410,-44.434,-32.227,-47.852,-128.906
1687767763.081,-27.832,-45.410,-25.879,-54.688,-49.316
1687767763.085,-16.602,-43.945,-22.949,-39.551,392.578
1687767763.089,-27.344,-46.387,-31.250,-29.297,236.328
1687767763.106,-33.203,-38.086,-24.902,-50.781,-155.273
1687767763.110,-40.039,-36.621,-17.578,-51.270,-157.715
1687767763.114,-23.926,-30.273,-26.855,-45.410,-111.816
1687767763.118,-3.418,-21.484,-27.832,-43.945,-96.191
1687767763.122,-22.461,-27.832,-29.785,-45.410,-166.504
1687767763.126,-51.270,-40.527,-39.062,-53.711,-83.008
1687767763.130,-55.176,-45.410,-42.480,-54.688,-40.527
1687767763.133,-37.109,-43.945,-36.621,-41.504,-171.875
1687767763.137,-25.391,-42.969,-37.598,-30.273,-153.809
1687767763.141,-22.461,-38.574,-36.133,-21.973,142.578
1687767763.145,-20.020,-38.574,-31.738,-12.695,128.906
1687767763.149,-26.855,-40.527,-33.203,-34.180,-175.781
1687767763.151,-28.809,-44.922,-38.574,-45.898,-188.965
1687767763.155,-17.090,-49.316,-39.062,-37.598,-87.891
1687767763.159,-16.602,-48.340,-32.715,-38.086,-116.211
1687767763.163,-28.809,-41.992,-27.344,-37.598,-136.719
1687767763.167,-39.551,-30.762,-25.391,-37.109,-134.277
1687767763.171,-41.016,-33.691,-35.645,-50.293,-56.641
1687767763.175,-25.391,-51.270,-42.969,-52.246,0.977
1687767763.178,-20.020,-51.270,-37.598,-45.898,-119.141
1687767763.182,-47.852,-30.273,-34.180,-46.875,-116.211
1687767763.186,-63.477,-24.902,-38.574,-43.457,149.414
1687767763.190,-42.969,-40.039,-40.527,-40.527,96.680
1687767763.194,-25.879,-49.316,-40.039,-35.645,-95.215
1687767763.196,-15.625,-49.316,-40.039,-23.926,45.898
1687767763.200,-28.809,-38.086,-35.645,-22.949,216.797
1687767763.204,-56.641,-41.016,-35.645,-41.016,-29.785
1687767763.208,-46.387,-46.387,-41.504,-41.992,-181.641
1687767763.212,-14.160,-45.898,-39.551,-32.227,-33.691
1687767763.216,-9.277,-45.898,-36.621,-31.250,40.039
1687767763.220,-34.668,-38.574,-40.527,-38.574,13.184
1687767763.223,-55.176,-40.527,-37.109,-52.734,-82.520
1687767763.227,-50.293,-47.363,-31.738,-42.480,17.578
1687767763.231,-36.621,-53.223,-29.785,-22.949,76.660
1687767763.235,-27.832,-61.523,-29.785,-21.484,-77.148
1687767763.239,-15.625,-46.387,-35.156,-16.113,-134.277
1687767763.242,-41.016,-44.922,-37.598,-39.551,-86.426
1687767763.246,-62.988,-60.547,-37.109,-64.453,-112.305
1687767763.250,-35.645,-47.363,-39.551,-51.270,-125.977
1687767763.254,-20.508,-43.457,-38.574,-41.992,-30.273
1687767763.258,-45.410,-43.457,-37.598,-43.945,71.289
1687767763.262,-63.965,-41.504,-34.668,-57.129,9.277
1687767763.266,-54.199,-38.086,-31.738,-52.246,-77.148
1687767763.269,-19.531,-39.551,-25.879,-27.832,-27.344
1687767763.273,-2.930,-54.688,-34.180,-22.949,177.734
1687767763.277,-33.203,-57.129,-51.270,-50.293,5.371
1687767763.281,-59.570,-50.781,-47.852,-70.312,-102.051
1687767763.285,-57.129,-46.387,-42.969,-64.453,-4.883
1687767763.286,-40.039,-50.781,-42.969,-46.387,20.508
1687767763.290,-21.484,-43.457,-40.527,-39.062,-78.125
1687767763.294,-13.184,-41.016,-40.039,-38.086,-166.016
1687767763.298,-34.668,-50.293,-47.852,-46.387,-66.406
1687767763.302,-44.922,-50.293,-47.852,-47.852,-73.242
1687767763.306,-24.902,-48.340,-42.969,-39.062,-101.074
1687767763.310,-10.254,-40.039,-43.945,-36.621,-50.293
1687767763.313,-10.254,-31.250,-43.457,-35.645,113.281
1687767763.317,-28.809,-31.250,-39.062,-41.016,312.012
1687767763.321,-36.621,-44.434,-44.922,-55.176,-13.672
1687767763.325,-20.996,-40.527,-47.852,-54.199,-190.430
1687767763.329,-16.113,-28.809,-43.457,-52.246,-23.438
1687767763.331,-21.973,-41.016,-37.598,-52.246,-41.016
1687767763.335,-30.762,-43.457,-36.133,-46.387,-144.531
1687767763.339,-27.832,-24.902,-28.320,-42.480,-132.812
1687767763.343,-12.695,-28.320,-29.785,-46.387,-124.512
1687767763.347,-3.906,-35.156,-39.062,-49.316,-134.766
1687767763.351,-3.418,-25.879,-46.875,-52.734,-33.203
1687767763.355,-22.949,-29.785,-48.828,-56.152,13.672
1687767763.358,-39.062,-34.180,-41.016,-49.805,264.160
1687767763.362,-27.344,-34.668,-38.574,-54.199,160.156
1687767763.366,-17.578,-39.551,-35.156,-52.246,-166.992
1687767763.370,-9.766,-43.457,-39.062,-52.734,-7.324
1687767763.374,-15.137,-41.504,-41.504,-58.594,77.637
1687767763.376,-30.273,-36.621,-23.926,-54.199,-138.184
1687767763.380,-32.715,-43.945,-21.973,-51.758,-154.785
1687767763.384,-19.531,-31.738,-37.109,-52.246,-137.695
1687767763.388,-7.812,-16.113,-41.016,-48.828,-156.738
1687767763.392,-24.414,-24.902,-42.969,-58.105,-185.059
1687767763.396,-51.758,-36.133,-42.969,-71.777,-129.395
1687767763.400,-42.969,-39.551,-38.574,-60.059,184.570
1687767763.403,-19.043,-36.621,-35.156,-43.945,178.711
1687767763.407,-14.648,-36.621,-34.180,-49.316,-139.648
1687767763.411,-23.926,-48.828,-32.715,-57.129,-71.289
1687767763.415,-40.039,-44.922,-40.527,-56.152,23.438
1687767763.419,-27.832,-38.086,-41.504,-57.617,-109.863
1687767763.421,0.977,-43.457,-43.945,-60.547,-191.406
1687767763.425,13.672,-39.062,-40.039,-51.758,-131.836
1687767763.429,6.836,-35.156,-27.832,-51.758,-75.195
1687767763.433,-6.836,-30.762,-37.109,-53.711,-148.438
1687767763.437,4.883,-38.574,-42.969,-59.082,-234.863
1687767763.441,30.762,-44.922,-40.039,-48.340,-29.785
1687767763.445,37.598,-31.250,-30.273,-21.484,218.750
1687767763.448,30.762,-32.227,-25.391,-31.738,-15.137
1687767763.452,17.090,-37.598,-29.297,-48.828,-179.688
1687767763.456,7.324,-35.156,-29.297,-48.828,-34.668
1687767763.460,14.648,-34.180,-30.762,-46.387,244.629
1687767763.464,36.133,-38.574,-33.691,-44.434,169.434
1687767763.482,34.668,-37.109,-31.250,-50.293,-91.797
1687767763.486,6.836,-21.973,-29.297,-53.223,-72.754
1687767763.490,6.348,-18.066,-29.785,-40.527,-4.883
1687767763.494,23.438,-26.367,-34.668,-37.109,-117.676
1687767763.498,40.039,-22.949,-30.762,-42.969,-100.586
1687767763.502,26.855,-14.648,-14.648,-50.781,97.656
1687767763.506,-3.906,-24.414,-10.254,-60.059,11.719
1687767763.509,-0.977,-32.227,-16.113,-62.500,-174.805
1687767763.513,27.344,-29.297,-21.973,-51.270,-132.812
1687767763.517,40.039,-34.668,-29.785,-37.109,3.418
1687767763.521,31.738,-41.504,-32.227,-44.434,-8.789
1687767763.525,11.719,-40.527,-39.062,-59.570,-70.801
1687767763.526,-8.789,-30.273,-44.922,-68.359,-118.164
1687767763.530,13.184,-29.785,-35.645,-48.828,185.547
1687767763.534,50.293,-29.785,-26.855,-29.785,251.465
1687767763.538,44.434,-23.926,-32.227,-45.898,-78.125
1687767763.542,25.391,-28.809,-38.574,-55.176,-93.750
1687767763.546,28.320,-29.785,-34.668,-62.012,-62.500
1687767763.550,31.738,-31.250,-35.645,-64.941,-54.688
1687767763.553,33.203,-32.227,-40.039,-45.898,-95.703
1687767763.557,50.293,-24.414,-40.039,-44.922,-102.051
1687767763.561,32.715,-30.762,-44.922,-53.223,212.402
1687767763.565,-2.930,-35.156,-48.828,-62.500,75.195
1687767763.569,7.812,-41.992,-44.434,-66.406,-193.359
1687767763.571,41.992,-39.062,-41.504,-50.293,-89.355
1687767763.575,47.852,-19.531,-38.574,-41.992,14.648
1687767763.579,33.203,-10.742,-30.762,-49.805,-120.117
1687767763.583,10.254,-26.855,-39.062,-61.035,-147.949
1687767763.587,11.719,-36.621,-52.246,-52.734,57.129
1687767763.591,40.527,-35.645,-41.992,-37.598,78.125
1687767763.595,45.898,-35.156,-29.785,-47.852,-124.023
1687767763.598,27.832,-22.461,-34.668,-55.664,-197.266
1687767763.602,8.301,-11.230,-45.410,-54.688,-22.949
1687767763.606,1.465,-19.043,-39.062,-52.734,98.145
1687767763.610,18.066,-31.250,-26.855,-42.969,-108.398
1687767763.614,39.551,-42.480,-24.902,-28.809,-121.582
1687767763.617,45.410,-34.180,-28.809,-19.043,-103.027
1687767763.621,26.367,-16.602,-31.738,-35.156,-167.969
1687767763.625,18.066,-20.020,-32.227,-41.504,-188.965
1687767763.629,34.180,-20.996,-33.691,-38.086,-120.117
1687767763.633,40.527,-25.879,-40.527,-38.086,-45.898
1687767763.637,33.691,-25.879,-49.805,-36.133,33.691
1687767763.641,15.137,-21.484,-53.711,-56.641,54.199
1687767763.644,4.883,-28.809,-55.664,-65.430,37.598
1687767763.648,13.672,-32.227,-58.594,-51.758,224.121
1687767763.652,23.438,-20.020,-59.570,-46.875,135.254
1687767763.656,22.461,-16.602,-60.547,-57.129,-101.074
1687767763.660,20.508,-22.949,-59.082,-62.988,-90.332
1687767763.661,17.090,-23.926,-58.105,-52.734,-26.855
1687767763.665,30.762,-26.855,-64.941,-49.316,-54.199
1687767763.669,39.551,-22.949,-68.848,-54.199,-56.641
1687767763.673,25.879,-22.461,-66.406,-40.039,47.363
1687767763.677,14.648,-19.531,-63.965,-42.480,82.031
1687767763.681,12.695,-13.672,-64.941,-62.500,60.547
1687767763.685,22.949,-19.531,-65.430,-71.777,31.250
1687767763.688,44.922,-18.555,-71.777,-60.547,161.621
1687767763.692,51.758,-19.531,-67.383,-49.805,293.945
1687767763.696,33.691,-21.973,-64.453,-61.523,-59.570
1687767763.700,22.461,-13.184,-68.359,-73.242,-170.410
1687767763.704,31.250,-8.301,-65.430,-70.801,56.152
1687767763.708,48.828,-8.301,-67.871,-72.266,-6.348
1687767763.712,48.340,-9.766,-69.824,-64.453,-162.109
1687767763.716,33.691,-13.672,-68.848,-63.477,-142.090
1687767763.720,19.531,-8.789,-67.871,-74.707,-66.406
1687767763.724,28.809,-0.488,-64.453,-66.895,-2.930
1687767763.728,48.828,-10.254,-65.430,-57.129,-78.125
1687767763.732,51.758,-13.184,-74.219,-53.223,-5.859
1687767763.735,20.508,-13.184,-71.289,-51.270,266.602
1687767763.739,5.859,-19.043,-60.059,-64.453,7.324
1687767763.743,20.508,-17.578,-57.617,-67.383,-208.984
1687767763.747,32.715,-11.230,-54.199,-54.199,5.371
1687767763.751,53.711,-1.953,-47.363,-53.223,102.539
1687767763.752,52.246,3.418,-51.758,-58.105,-122.559
1687767763.756,47.852,-3.906,-57.129,-53.711,-192.383
1687767763.760,50.293,3.906,-53.223,-51.758,-69.824
1687767763.764,47.852,7.812,-47.852,-48.340,-141.113
1687767763.768,43.457,-3.418,-47.363,-37.598,-155.762
1687767763.772,36.621,-7.324,-44.434,-42.480,-11.719
1687767763.776,23.926,-13.184,-45.898,-49.316,126.953
1687767763.779,16.602,-16.602,-49.805,-45.898,91.309
1687767763.783,28.320,-14.160,-51.270,-45.410,-144.531
1687767763.787,33.691,-13.672,-52.734,-46.387,-115.723
1687767763.791,20.996,-11.719,-48.828,-49.805,-15.137
1687767763.795,2.441,-19.043,-46.875,-60.547,-113.281
1687767763.797,-6.836,-17.090,-48.828,-65.430,-192.383
1687767763.801,3.906,-14.160,-46.875,-50.293,-20.020
1687767763.805,16.602,-25.391,-50.781,-44.434,108.398
1687767763.809,15.137,-29.297,-53.223,-54.199,-84.473
1687767763.813,-3.418,-15.625,-49.805,-60.059,-201.172
1687767763.817,-19.531,-19.043,-48.828,-56.641,-98.145
1687767763.821,-7.812,-27.344,-46.875,-29.785,242.676
1687767763.824,-3.906,-19.043,-46.387,-17.090,96.680
1687767763.828,-12.695,-14.648,-47.363,-38.086,-226.074
1687767763.832,-13.672,-21.484,-44.434,-53.223,-137.695
1687767763.836,-7.324,-30.273,-39.551,-41.992,-5.371
1687767763.840,-4.395,-22.461,-43.457,-42.969,-100.098
1687767763.856,-2.930,-21.973,-43.457,-41.992,-152.832
1687767763.860,-1.953,-22.949,-41.504,-28.320,-57.617
1687767763.864,-17.578,-20.020,-43.457,-35.156,-7.324
1687767763.868,-24.902,-22.461,-42.969,-44.434,-72.266
1687767763.872,-8.301,-24.902,-46.875,-32.715,-149.902
1687767763.876,-12.207,-39.062,-48.828,-31.738,56.641
1687767763.880,-17.578,-40.039,-44.434,-26.367,289.551
1687767763.883,-35.645,-27.344,-43.457,-41.992,30.273
1687767763.887,-55.176,-20.996,-42.969,-52.734,-143.555
1687767763.891,-57.129,-20.020,-41.504,-41.504,37.109
1687767763.895,-43.457,-30.273,-44.434,-30.273,2.441
1687767763.899,-31.250,-33.691,-39.551,-21.484,-134.277
1687767763.901,-37.598,-27.344,-33.203,-25.391,-91.797
1687767763.905,-56.152,-28.809,-34.180,-35.645,-102.539
1687767763.909,-47.363,-33.203,-37.598,-45.410,-170.898
1687767763.913,-20.996,-26.855,-37.109,-34.668,-143.555
1687767763.917,-19.531,-16.602,-31.250,-25.879,-124.512
1687767763.921,-29.297,-22.949,-32.715,-33.691,-13.184
1687767763.925,-58.105,-37.598,-37.109,-44.434,39.062
1687767763.928,-58.105,-35.156,-38.574,-49.805,-17.578
1687767763.932,-21.973,-34.668,-38.574,-39.062,-30.762
1687767763.936,-6.348,-41.992,-34.180,-16.602,268.555
1687767763.940,-2.930,-37.109,-34.668,-19.043,266.602
1687767763.944,-17.578,-30.273,-37.109,-29.297,-55.664
1687767763.946,-22.949,-31.738,-43.945,-31.738,-56.641
1687767763.950,-10.742,-32.715,-49.316,-42.969,-40.527
1687767763.954,6.836,-17.090,-41.504,-36.621,-88.867
1687767763.958,13.672,-18.066,-40.039,-32.227,-81.055
1687767763.962,-4.395,-28.320,-40.527,-33.691,-32.227
1687767763.966,-13.672,-23.438,-34.180,-30.762,-37.598
1687767763.970,5.859,-22.949,-37.598,-24.414,-51.758
1687767763.973,26.367,-25.879,-40.039,-19.531,-68.848
1687767763.977,2.441,-29.785,-41.992,-24.902,217.773
1687767763.981,-17.090,-37.598,-46.387,-24.902,347.656
1687767763.985,-0.488,-26.855,-48.828,-27.832,-65.918
1687767763.989,4.883,-16.113,-46.387,-27.344,-146.484
1687767763.991,10.742,-22.461,-40.527,-9.277,-91.309
1687767763.995,14.160,-32.227,-42.969,-14.160,-133.789
1687767763.999,-7.812,-35.156,-46.875,-31.250,-159.668
1687767764.003,-20.508,-42.969,-47.363,-27.344,-166.016
1687767764.007,-1.465,-37.598,-47.363,-14.160,-84.961
1687767764.011,16.602,-29.297,-45.410,-8.789,-40.527
1687767764.015,28.320,-41.992,-47.852,-19.531,-35.645
1687767764.018,13.184,-40.039,-45.410,-27.832,-34.668
1687767764.022,-10.742,-27.344,-36.133,-21.484,131.836
1687767764.026,3.418,-24.414,-41.992,-15.137,69.336
1687767764.030,25.879,-31.738,-47.852,-17.578,-118.652
1687767764.034,17.578,-40.527,-48.828,-20.508,71.289
1687767764.036,-9.277,-45.410,-48.828,-18.066,237.793
1687767764.040,-19.531,-41.992,-42.480,-34.668,-92.773
1687767764.044,-4.395,-37.598,-39.062,-39.551,-185.059
1687767764.048,9.277,-36.621,-43.457,-30.762,-68.848
1687767764.052,-0.488,-41.016,-43.457,-28.320,-56.641
1687767764.056,-12.695,-46.875,-36.621,-29.297,-93.262
1687767764.060,-24.902,-45.410,-34.180,-38.086,-117.188
1687767764.063,-10.742,-37.598,-34.180,-26.855,25.391
1687767764.067,14.648,-30.762,-29.785,-7.812,97.168
1687767764.071,11.719,-35.645,-36.133,-18.555,-123.047
1687767764.075,-15.137,-40.039,-46.875,-28.320,-178.711
1687767764.079,-31.250,-39.062,-52.734,-35.156,-58.594
1687767764.082,-0.977,-26.855,-61.035,-25.879,-100.098
1687767764.086,35.645,-23.926,-50.781,-13.672,-136.230
1687767764.090,22.949,-37.598,-25.391,-12.207,-63.965
1687767764.094,-8.789,-41.504,-19.043,-14.160,7.812
1687767764.098,-23.438,-38.574,-28.809,-26.367,-111.328
1687767764.102,-30.273,-38.086,-33.203,-34.668,-163.086
1687767764.106,-24.414,-47.363,-32.227,-34.180,-27.344
1687767764.109,-18.066,-51.270,-31.738,-24.902,213.867
1687767764.113,-42.969,-56.152,-27.344,-49.805,68.359
1687767764.117,-70.312,-56.641,-24.414,-58.105,-167.480
1687767764.121,-66.895,-54.688,-20.508,-45.410,-41.992
1687767764.125,-62.012,-60.059,-16.113,-56.152,96.191
1687767764.126,-54.688,-65.430,-18.066,-62.012,-37.598
1687767764.130,-63.965,-70.312,-20.508,-73.730,-122.070
1687767764.134,-81.055,-56.641,-21.973,-79.102,-75.195
1687767764.138,-76.660,-51.270,-20.508,-72.266,-59.082
1687767764.142,-62.500,-59.570,-20.996,-72.754,-82.520
1687767764.146,-50.781,-59.570,-18.066,-61.035,-43.457
1687767764.150,-68.359,-63.477,-5.859,-52.734,196.289
1687767764.153,-85.938,-67.871,-9.766,-63.965,328.613
1687767764.157,-76.660,-57.129,-12.695,-78.125,-55.176
1687767764.161,-75.684,-54.688,-10.254,-83.496,-208.008
1687767764.165,-71.289,-64.941,-11.719,-82.520,-72.754
1687767764.169,-64.453,-59.570,-7.812,-78.125,-115.723
1687767764.170,-70.312,-49.316,-0.977,-68.848,-203.125
1687767764.174,-82.031,-59.082,0.000,-69.336,-205.566
1687767764.178,-86.914,-69.824,0.977,-86.426,-115.234
1687767764.182,-90.332,-62.012,0.977,-82.520,-103.027
1687767764.186,-82.520,-54.688,-0.977,-66.895,-172.363
1687767764.190,-97.656,-61.523,0.488,-73.242,-93.750
1687767764.194,-109.863,-61.523,5.859,-71.777,59.082
1687767764.197,-81.055,-66.895,7.812,-58.594,27.344
1687767764.201,-60.547,-76.172,3.906,-47.363,-132.324
1687767764.205,-56.641,-67.383,9.277,-31.738,-97.168
1687767764.209,-76.660,-65.918,12.695,-30.273,297.363
1687767764.213,-94.238,-67.871,6.348,-47.852,160.156
1687767764.246,-72.266,-64.453,3.906,-45.410,-167.480
1687767764.250,-61.035,-70.312,-2.930,-42.480,-97.656
1687767764.254,-55.664,-69.824,0.000,-37.109,-32.715
1687767764.258,-54.688,-62.500,16.113,-32.227,-68.359
1687767764.262,-90.820,-65.918,8.789,-48.828,-137.207
1687767764.266,-96.680,-73.242,-7.324,-42.969,-26.367
1687767764.270,-79.102,-81.055,-18.555,-26.855,34.180
1687767764.273,-80.078,-75.195,-20.020,-31.738,-62.988
1687767764.277,-93.750,-64.941,-19.043,-43.457,-65.430
1687767764.281,-104.492,-74.219,-20.508,-38.086,139.648
1687767764.285,-101.074,-75.684,-17.578,-24.902,159.180
1687767764.289,-75.684,-64.941,-15.625,-29.297,-146.484
1687767764.276,-57.617,-54.688,-8.789,-28.320,-136.230
1687767764.280,-65.918,-46.875,-7.324,-28.320,-57.617
1687767764.284,-79.102,-60.059,-30.273,-43.457,-176.270
1687767764.288,-83.496,-66.406,-39.551,-45.898,-194.336
1687767764.292,-57.617,-55.176,-27.832,-28.809,-99.121
1687767764.296,-47.363,-44.434,-20.020,-22.461,37.109
1687767764.300,-62.500,-58.105,-24.414,-28.809,139.160
1687767764.303,-81.055,-63.965,-27.344,-42.969,33.691
1687767764.307,-75.195,-55.664,-29.297,-51.270,-49.316
1687767764.311,-28.809,-48.340,-22.949,-27.344,42.969
1687767764.315,-6.836,-54.199,-22.461,-16.113,87.402
1687767764.319,-31.250,-60.059,-36.621,-27.344,-17.578
1687767764.321,-52.246,-49.805,-47.363,-40.527,-22.461
1687767764.325,-42.969,-44.434,-45.410,-29.785,326.172
1687767764.329,-24.902,-43.457,-28.809,-16.113,264.160
1687767764.333,-19.531,-47.363,-34.668,-30.273,-92.773
1687767764.337,-18.066,-44.434,-33.203,-35.156,-75.684
1687767764.341,-29.785,-32.715,-23.438,-39.551,-55.664
1687767764.345,-30.762,-27.832,-32.227,-42.969,-104.492
1687767764.348,-17.578,-34.668,-35.645,-30.762,-206.055
1687767764.352,0.977,-38.574,-33.691,-14.160,-38.086
1687767764.356,8.789,-24.902,-24.902,-6.836,44.922
1687767764.360,-20.508,-22.949,-17.578,-17.578,-217.773
1687767764.364,-36.133,-30.762,-20.996,-34.668,-194.336
1687767764.367,-22.461,-32.227,-30.762,-41.992,-9.766
1687767764.371,2.930,-39.551,-34.180,-36.133,-77.637
1687767764.375,9.766,-41.016,-30.273,-25.879,-151.855
1687767764.379,-25.391,-38.574,-30.273,-28.809,-118.164
1687767764.383,-33.691,-32.715,-35.645,-37.598,-99.609
1687767764.387,-15.625,-24.414,-34.180,-31.250,-4.883
1687767764.391,-1.953,-27.832,-27.832,-20.508,-24.902
1687767764.394,13.672,-24.414,-29.297,-11.230,-48.340
1687767764.398,4.395,-18.555,-28.320,-7.324,182.129
1687767764.402,-16.602,-18.555,-26.855,-25.879,63.965
1687767764.406,-14.160,-44.434,-36.621,-43.457,-141.113
1687767764.410,-8.301,-52.734,-42.969,-38.574,-96.680
1687767764.412,-9.277,-32.715,-34.180,-16.602,-59.082
1687767764.416,-26.855,-21.484,-26.367,-21.484,-122.559
1687767764.420,-63.965,-24.414,-42.480,-50.293,-150.879
1687767764.424,-62.988,-21.973,-48.340,-59.082,2.441
1687767764.428,-32.227,-24.902,-43.945,-55.664,144.531
1687767764.432,-33.691,-44.434,-51.270,-53.223,-5.859
1687767764.436,-46.875,-42.480,-50.781,-48.828,-93.750
1687767764.439,-51.270,-42.480,-41.504,-47.363,24.902
1687767764.443,-44.922,-41.016,-41.992,-41.504,64.453
1687767764.447,-23.438,-31.250,-51.758,-40.527,-135.254
1687767764.451,-2.930,-34.668,-52.734,-32.715,-123.047
1687767764.455,-11.719,-34.668,-43.945,-31.250,-33.203
1687767764.456,-30.762,-29.297,-38.574,-43.945,-71.777
1687767764.460,-18.066,-26.855,-36.133,-48.340,-154.785
1687767764.464,1.953,-32.715,-33.691,-40.039,-123.047
1687767764.468,0.488,-44.922,-39.551,-39.062,-45.410
1687767764.472,-4.883,-45.410,-35.156,-43.457,-37.109
1687767764.476,-5.371,-35.156,-31.250,-50.781,-73.242
1687767764.480,-23.438,-38.086,-38.574,-55.176,-0.488
1687767764.483,-19.531,-43.945,-37.109,-35.645,203.613
1687767764.487,7.812,-50.293,-41.992,-31.738,108.398
1687767764.491,3.906,-44.434,-40.527,-42.969,-96.680
1687767764.495,-34.180,-38.086,-33.203,-46.875,-11.230
1687767764.499,-41.016,-51.270,-33.691,-44.434,69.824
1687767764.501,-11.719,-41.992,-32.227,-40.527,-115.234
1687767764.505,4.883,-26.855,-34.668,-46.387,-134.766
1687767764.509,-5.371,-32.715,-32.715,-49.316,-55.176
1687767764.513,-10.254,-34.668,-26.367,-43.945,-100.098
1687767764.517,-22.949,-31.738,-33.691,-51.270,-192.871
1687767764.521,-15.137,-31.738,-33.691,-53.223,-125.488
1687767764.525,5.859,-33.691,-27.344,-32.715,189.941
1687767764.528,9.766,-32.227,-31.250,-34.180,294.922
1687767764.532,-7.324,-27.344,-24.902,-50.293,-57.617
1687767764.536,-25.879,-43.457,-27.832,-68.848,-197.266
1687767764.540,-7.812,-48.340,-36.133,-56.152,-0.977
1687767764.544,4.883,-36.133,-39.551,-33.203,7.324
1687767764.545,7.324,-32.227,-31.250,-26.855,-124.512
1687767764.549,-12.207,-22.461,-31.250,-29.785,-164.551
1687767764.553,-36.133,-15.625,-39.062,-52.734,-166.992
1687767764.557,-31.738,-27.344,-44.434,-60.059,-166.504
1687767764.561,-7.812,-34.668,-48.340,-52.734,-164.551
1687767764.565,1.953,-28.809,-41.016,-47.852,-5.371
1687767764.569,-6.348,-20.020,-33.203,-34.668,317.871
1687767764.572,-26.367,-31.250,-30.762,-41.504,101.074
1687767764.576,-24.414,-38.574,-27.832,-45.898,-176.758
1687767764.580,3.906,-30.762,-23.926,-22.949,-38.086
1687767764.584,9.277,-29.297,-26.855,-17.578,189.453
1687767764.588,-17.090,-26.855,-24.414,-34.180,76.660
1687767764.591,-34.668,-25.879,-20.996,-41.992,-92.773
1687767764.595,-24.414,-32.715,-21.973,-39.062,-49.316
1687767764.599,-11.230,-32.715,-28.320,-43.945,26.367
1687767764.603,-9.766,-27.344,-41.504,-39.551,-62.500
1687767764.607,-16.113,-17.090,-37.598,-29.785,-75.195
1687767764.611,-34.668,-34.180,-31.738,-38.086,33.691
1687767764.615,-28.809,-43.945,-31.250,-35.645,8.789
1687767764.618,4.395,-36.133,-29.297,-23.926,-94.727
1687767764.622,25.879,-26.367,-24.414,-24.902,-88.379
1687767764.626,15.137,-23.438,-21.484,-23.438,89.844
1687767764.630,-13.672,-30.762,-33.691,-40.527,38.086
1687767764.634,-26.855,-34.668,-38.086,-54.199,-181.152
1687767764.651,-5.371,-28.809,-31.738,-38.574,-59.570
1687767764.655,0.000,-31.738,-30.273,-35.156,41.504
1687767764.659,0.000,-43.945,-32.715,-33.203,-128.418
1687767764.663,-3.418,-41.016,-33.691,-42.969,-186.523
1687767764.667,-27.344,-44.434,-33.691,-48.340,-111.816
1687767764.671,-8.301,-42.480,-36.133,-38.086,3.906
1687767764.675,0.488,-38.574,-37.109,-41.504,96.191
1687767764.678,-20.996,-41.016,-39.062,-42.969,41.016
1687767764.682,-35.645,-48.340,-41.016,-43.945,-2.930
1687767764.686,-33.691,-52.246,-43.457,-36.621,166.992
1687767764.690,-14.160,-47.363,-40.527,-26.855,48.340
1687767764.694,8.789,-46.387,-39.062,-30.273,-143.555
1687767764.697,14.160,-48.340,-37.109,-27.344,-132.812
1687767764.701,-10.254,-41.992,-34.180,-25.879,3.906
1687767764.705,-12.695,-36.621,-31.250,-30.273,-34.180
1687767764.709,0.000,-34.180,-25.391,-30.762,-143.066
1687767764.713,12.695,-25.879,-24.902,-19.531,-83.496
1687767764.717,13.184,-15.625,-28.320,-12.695,-29.297
1687767764.721,-7.324,-19.043,-32.227,-18.066,-47.852
1687767764.724,-12.695,-26.855,-25.391,-24.902,-108.398
1687767764.728,-6.836,-26.367,-25.391,-27.344,11.719
1687767764.732,-1.465,-40.039,-46.387,-27.344,118.652
1687767764.736,0.977,-43.457,-52.246,-34.180,-123.047
1687767764.740,-5.859,-21.973,-41.992,-37.109,-121.094
1687767764.740,-10.742,-16.602,-37.598,-27.344,-28.809
1687767764.744,-14.160,-28.809,-38.086,-34.668,-140.625
1687767764.748,5.859,-23.926,-34.180,-35.156,-185.059
1687767764.752,17.090,-14.648,-32.715,-18.066,-103.027
1687767764.756,-5.371,-32.227,-38.086,-37.109,-31.738
1687767764.760,-26.367,-49.316,-43.945,-62.012,-65.918
1687767764.764,-18.555,-44.922,-43.945,-59.082,-90.332
1687767764.767,0.488,-42.480,-39.062,-57.129,-77.148
1687767764.771,11.230,-42.480,-38.574,-33.203,214.844
1687767764.775,12.695,-33.691,-35.645,-19.043,200.684
1687767764.779,-9.277,-32.715,-39.062,-35.156,-86.914
1687767764.783,-20.020,-44.434,-42.969,-44.434,-68.848
1687767764.786,-2.441,-40.527,-36.133,-41.992,-26.367
1687767764.790,14.160,-36.133,-34.668,-43.945,-133.789
1687767764.794,5.371,-37.598,-38.086,-45.898,-181.641
1687767764.798,-17.090,-35.645,-37.109,-44.922,-178.223
1687767764.802,-26.855,-39.062,-41.504,-42.969,-159.668
1687767764.806,-11.719,-44.922,-43.945,-34.668,-122.559
1687767764.810,2.441,-40.039,-39.062,-34.668,-3.418
1687767764.813,-6.836,-44.922,-36.133,-31.738,300.293
1687767764.817,-17.090,-58.105,-31.738,-35.645,373.535
1687767764.821,-15.625,-48.828,-28.320,-46.387,-40.527
1687767764.825,-7.324,-40.039,-31.738,-38.574,-182.129
1687767764.829,-3.418,-46.387,-39.551,-35.156,-95.703
1687767764.831,-13.184,-50.781,-42.969,-55.664,-174.316
1687767764.835,-30.273,-49.805,-38.574,-56.152,-226.562
1687767764.839,-25.391,-39.062,-33.203,-41.992,-162.598
1687767764.843,-13.184,-35.156,-36.133,-40.527,-116.699
1687767764.847,-7.812,-41.992,-45.898,-44.922,-147.949
1687767764.851,-17.578,-49.316,-61.523,-59.082,-107.910
1687767764.855,-23.926,-48.828,-53.223,-62.988,61.035
1687767764.858,-23.926,-42.480,-39.551,-50.293,172.852
1687767764.862,-18.555,-39.062,-45.898,-50.293,-27.344
1687767764.866,-3.906,-40.527,-45.898,-46.875,-129.883
1687767764.870,2.441,-41.016,-35.645,-35.156,56.152
1687767764.874,-1.953,-34.668,-36.133,-28.320,216.797
1687767764.875,-29.297,-45.898,-47.363,-52.246,-42.480
1687767764.879,-34.668,-55.176,-49.316,-65.918,-182.129
1687767764.883,-11.719,-47.363,-48.340,-53.223,-58.105
1687767764.887,-0.977,-44.922,-39.551,-44.434,-19.531
1687767764.891,-19.043,-38.574,-41.504,-42.969,-83.984
1687767764.895,-32.227,-28.809,-47.852,-54.688,-111.328
1687767764.899,-18.555,-24.902,-39.551,-55.176,94.727
1687767764.902,-1.953,-31.250,-37.109,-49.316,220.215
1687767764.906,-0.488,-35.156,-37.598,-57.129,-65.430
1687767764.910,-23.438,-39.062,-40.039,-55.664,-172.363
1687767764.914,-41.504,-41.504,-42.480,-54.688,-34.180
1687767764.918,-30.273,-28.809,-42.480,-62.988,-14.160
1687767764.921,-6.836,-30.762,-46.875,-61.035,-104.004
1687767764.925,6.836,-39.551,-53.223,-42.969,-79.102
1687767764.929,3.906,-24.414,-41.504,-28.809,64.453
1687767764.933,-15.137,-20.508,-37.598,-40.039,-48.340
1687767764.937,-23.438,-27.344,-52.246,-52.734,-188.477
1687767764.941,-10.742,-38.574,-50.781,-55.664,19.043
1687767764.945,0.977,-37.109,-41.016,-49.316,234.863
1687767764.948,1.953,-30.762,-30.273,-45.410,-19.043
1687767764.952,-24.414,-38.574,-30.762,-47.363,-218.750
1687767764.956,-19.043,-37.109,-30.762,-35.645,-104.492
1687767764.960,6.348,-37.598,-34.180,-34.668,238.281
1687767764.964,8.301,-43.945,-37.109,-53.223,75.684
1687767764.967,-7.812,-49.805,-38.574,-68.848,-224.609
1687767764.971,-29.785,-39.062,-50.781,-72.266,-124.023
1687767764.975,-30.762,-25.391,-47.852,-66.895,1.465
1687767764.979,-14.648,-27.344,-33.203,-56.152,-70.801
1687767764.983,-5.371,-31.250,-35.645,-49.805,-104.004
1687767764.987,-13.184,-25.879,-30.273,-41.992,70.801
1687767764.991,-27.344,-27.832,-21.973,-40.527,82.031
1687767764.994,-34.668,-41.504,-20.020,-46.875,-144.531
1687767764.998,-1.465,-33.691,-17.578,-34.180,-166.992
1687767765.002,17.090,-31.250,-32.227,-28.809,66.406
1687767765.006,-27.832,-45.410,-38.086,-43.945,-8.301
1687767765.010,-53.711,-36.133,-30.273,-51.270,-205.566
1687767765.026,-60.059,-25.879,-33.691,-62.012,-157.715
1687767765.030,-38.086,-22.949,-26.855,-55.176,-109.863
1687767765.034,-14.160,-25.879,-24.902,-45.410,-115.723
1687767765.038,-21.973,-39.551,-36.133,-53.711,-136.719
1687767765.042,-35.156,-40.039,-33.203,-48.340,-20.508
1687767765.046,-50.293,-40.527,-30.273,-50.293,250.000
1687767765.050,-51.758,-57.617,-34.180,-57.129,147.949
1687767765.053,-32.715,-55.664,-39.062,-52.734,-84.961
1687767765.057,-19.043,-39.062,-32.227,-38.086,-26.855
1687767765.061,-40.527,-26.367,-33.203,-29.297,80.566
1687767765.065,-52.246,-29.785,-42.969,-60.059,-69.336
1687767765.069,-25.879,-31.738,-28.809,-58.105,-166.504
1687767765.071,0.488,-26.855,-21.484,-34.180,-88.379
1687767765.075,-2.441,-31.250,-36.133,-35.156,90.820
1687767765.079,-28.320,-43.945,-42.480,-45.898,-19.531
1687767765.083,-43.945,-42.969,-36.133,-58.105,-188.965
1687767765.087,-27.344,-41.016,-28.320,-56.641,-117.676
1687767765.091,-7.812,-40.039,-23.438,-43.945,3.418
1687767765.095,-11.230,-39.062,-25.391,-32.227,36.621
1687767765.098,-30.762,-46.875,-27.344,-35.645,2.441
1687767765.102,-43.945,-43.457,-26.855,-46.875,108.887
1687767765.106,-36.621,-31.738,-23.926,-40.527,234.863
1687767765.110,-19.531,-38.574,-20.996,-41.992,5.859
1687767765.114,-16.602,-36.621,-27.832,-50.293,-77.637
1687767765.115,-37.598,-32.227,-35.645,-55.176,-81.055
1687767765.119,-51.758,-28.320,-20.996,-55.664,-124.023
1687767765.123,-39.551,-27.832,-15.137,-52.246,-145.020
1687767765.127,-34.180,-37.109,-20.020,-42.969,-190.918
1687767765.131,-31.250,-37.109,-22.461,-34.668,-100.586
1687767765.135,-39.062,-36.133,-27.344,-40.039,-22.461
1687767765.139,-50.781,-34.668,-32.227,-39.551,-31.250
1687767765.142,-43.457,-35.645,-29.297,-30.273,4.883
1687767765.146,-34.180,-36.133,-36.621,-37.598,172.363
1687767765.150,-22.949,-39.551,-54.688,-52.734,18.555
1687767765.154,-17.578,-42.480,-50.293,-51.758,-186.523
1687767765.158,-39.551,-39.551,-41.016,-42.480,-88.379
1687767765.161,-40.527,-37.109,-37.598,-29.785,199.707
1687767765.165,-5.859,-30.273,-30.762,-34.668,106.445
1687767765.169,-2.930,-33.691,-29.297,-36.621,-146.484
1687767765.173,-12.207,-31.738,-36.621,-33.691,-119.629
1687767765.177,-19.043,-33.203,-38.086,-50.781,-129.395
1687767765.181,-18.066,-41.016,-21.973,-48.340,-69.336
1687767765.185,-3.418,-29.785,-21.484,-41.504,-11.719
1687767765.188,-17.090,-28.809,-39.062,-44.434,166.016
1687767765.192,-24.902,-33.691,-38.086,-36.621,198.730
1687767765.196,-25.391,-40.527,-31.738,-41.504,-119.629
1687767765.200,-30.273,-35.156,-32.715,-36.621,-130.859
1687767765.204,-10.254,-29.785,-27.344,-19.043,95.215
1687767765.206,5.859,-33.203,-26.855,-32.227,-106.934
1687767765.210,-2.930,-31.250,-32.715,-46.387,-211.426
1687767765.214,-23.438,-31.738,-34.668,-48.828,-109.863
1687767765.218,-32.715,-26.855,-29.297,-41.504,-148.438
1687767765.222,-22.461,-29.785,-31.738,-34.180,-172.363
1687767765.226,4.395,-32.715,-36.621,-28.320,-138.672
1687767765.230,6.836,-40.527,-40.527,-33.203,-3.906
1687767765.233,-20.996,-43.457,-39.062,-46.875,209.473
1687767765.237,-35.645,-29.785,-39.551,-55.176,34.180
1687767765.241,-22.949,-20.508,-37.598,-46.875,-139.160
1687767765.245,0.000,-29.297,-29.785,-40.039,75.684
1687767765.249,1.465,-32.715,-32.715,-47.852,141.602
1687767765.252,-19.531,-26.855,-28.809,-53.223,-92.285
1687767765.256,-37.598,-20.996,-22.949,-49.316,-91.797
1687767765.260,-31.738,-26.367,-30.273,-42.969,1.953
1687767765.264,0.488,-33.691,-30.762,-35.645,-53.223
1687767765.268,1.465,-36.133,-30.762,-41.016,-132.324
1687767765.272,-21.973,-40.527,-32.715,-48.828,-79.102
1687767765.276,-28.320,-40.039,-32.715,-45.898,211.914
1687767765.279,-19.531,-32.227,-27.344,-34.180,216.797
1687767765.283,-6.836,-28.809,-24.414,-34.180,-111.328
1687767765.287,0.000,-36.621,-26.855,-43.945,-132.324
1687767765.291,-6.836,-49.805,-37.598,-50.293,-69.824
1687767765.295,-19.531,-40.527,-45.898,-50.293,-103.516
1687767765.297,-9.766,-32.715,-38.574,-44.434,-150.879
1687767765.301,0.488,-22.949,-29.297,-36.133,-158.203
1687767765.305,-4.395,-25.391,-30.762,-39.551,-70.801
1687767765.309,-19.531,-41.504,-35.645,-43.457,-88.379
1687767765.313,-32.715,-33.203,-32.715,-41.504,-115.723
1687767765.317,-35.156,-32.715,-31.250,-49.316,-32.715
1687767765.321,-18.066,-42.969,-25.879,-33.691,285.156
1687767765.324,-0.488,-34.668,-15.625,-16.113,223.145
1687767765.328,-10.254,-29.297,-22.461,-28.809,-119.141
1687767765.332,-33.203,-41.504,-26.367,-38.574,-146.484
1687767765.336,-23.926,-37.598,-24.414,-34.180,-39.551
1687767765.340,-7.324,-32.715,-30.273,-43.945,-60.547
1687767765.356,-0.977,-26.367,-26.367,-44.434,-108.887
1687767765.360,1.465,-21.484,-29.785,-40.527,-60.547
1687767765.364,-10.254,-25.879,-36.621,-40.039,-34.668
1687767765.368,-25.391,-27.344,-36.133,-43.945,-133.301
1687767765.372,-20.508,-25.879,-41.016,-52.734,-161.133
1687767765.376,2.441,-17.578,-44.434,-62.012,46.387
1687767765.380,10.254,-15.625,-48.340,-57.617,104.980
1687767765.383,-4.883,-20.508,-52.246,-48.340,-23.438
1687767765.387,-24.414,-20.508,-53.711,-58.594,-178.223
1687767765.391,-17.578,-27.344,-58.105,-58.594,-38.574
1687767765.395,4.395,-24.902,-62.012,-36.621,111.816
1687767765.399,4.395,-20.020,-64.941,-53.223,-115.234
1687767765.400,-2.930,-21.484,-62.500,-66.406,-150.391
1687767765.404,-23.926,-20.020,-62.988,-62.500,-104.492
1687767765.408,-26.855,-5.371,-63.965,-61.523,-114.746
1687767765.412,-0.977,-0.488,-66.406,-62.500,-132.812
1687767765.416,8.789,-8.789,-73.242,-53.223,-87.402
1687767765.420,0.977,-5.371,-78.125,-57.129,41.504
1687767765.424,-13.672,-8.301,-79.102,-71.289,13.184
1687767765.427,-14.160,-16.113,-77.148,-70.312,-97.168
1687767765.431,10.254,-8.789,-76.660,-60.547,-70.801
1687767765.435,26.855,1.465,-71.777,-42.969,299.316
1687767765.439,8.789,-1.465,-72.754,-50.293,390.625
1687767765.443,-10.254,-6.348,-70.801,-67.871,-69.336
1687767765.446,2.930,-4.395,-60.059,-61.035,-145.508
1687767765.450,12.695,-14.160,-66.406,-60.059,-78.613
1687767765.454,13.672,-25.391,-76.660,-62.988,-163.086
1687767765.458,16.113,-23.926,-70.801,-59.570,-186.035
1687767765.462,-8.301,-18.555,-67.383,-59.570,-179.688
1687767765.466,-21.484,-5.859,-66.406,-60.059,-62.988
1687767765.470,-7.324,-2.441,-61.523,-65.918,22.949
1687767765.473,0.977,-10.742,-63.965,-62.988,-137.695
1687767765.477,-13.184,-11.230,-63.965,-57.617,-4.883
1687767765.481,-26.855,-8.301,-62.012,-63.965,129.395
1687767765.485,-12.695,-4.883,-62.500,-67.383,-103.027
1687767765.489,6.348,-6.348,-59.082,-53.711,-145.020
1687767765.491,13.672,-21.973,-62.012,-42.969,26.367
1687767765.495,4.883,-12.207,-61.035,-43.457,-14.160
1687767765.499,-15.137,-8.301,-59.570,-51.758,-152.344
1687767765.503,-24.902,-20.996,-59.570,-55.664,-182.129
1687767765.507,-4.883,-26.367,-57.617,-48.828,-133.301
1687767765.511,16.113,-20.508,-58.105,-41.992,-42.480
1687767765.515,-2.441,-16.602,-60.059,-54.199,12.207
1687767765.518,-22.949,-20.508,-57.129,-59.570,-35.156
1687767765.522,-19.531,-13.184,-52.734,-47.852,121.582
1687767765.526,0.977,-2.930,-48.340,-51.758,-16.113
1687767765.530,13.672,-6.836,-50.781,-53.223,-197.266
1687767765.534,3.906,-22.461,-51.270,-47.852,-54.199
1687767765.536,-18.555,-28.809,-47.852,-41.504,55.176
1687767765.540,-16.602,-28.320,-53.223,-55.176,-74.707
1687767765.544,13.672,-20.996,-50.293,-56.641,-178.223
1687767765.548,16.602,-18.555,-50.781,-49.316,-25.879
1687767765.552,6.348,-15.137,-54.688,-46.875,58.105
1687767765.556,-18.066,-11.230,-53.223,-59.082,-83.008
1687767765.560,-25.391,-13.184,-53.223,-66.406,-132.324
1687767765.563,-5.859,-12.695,-49.316,-42.969,78.613
1687767765.567,13.184,-14.648,-41.504,-29.785,117.188
1687767765.571,11.230,-20.508,-44.922,-49.805,-174.316
1687767765.575,-20.020,-18.555,-52.246,-53.711,-208.984
1687767765.579,-43.457,-21.484,-55.176,-55.176,-90.820
1687767765.581,-22.461,-25.879,-49.805,-49.316,-128.906
1687767765.585,19.043,-27.344,-47.852,-41.016,-226.562
1687767765.589,13.184,-29.297,-47.852,-35.156,-80.566
1687767765.593,-17.578,-30.273,-51.270,-36.133,78.125
1687767765.597,-20.020,-21.973,-48.340,-54.688,-104.004
1687767765.601,-14.648,-12.695,-44.434,-42.969,-50.293
1687767765.605,-6.836,-25.391,-47.852,-24.902,94.238
1687767765.608,4.883,-37.109,-43.457,-19.043,297.363
1687767765.612,0.000,-29.297,-41.992,-25.879,182.617
1687767765.616,-29.297,-26.367,-40.527,-51.270,-108.887
1687767765.620,-33.203,-25.879,-43.457,-53.223,-12.207
1687767765.624,-7.812,-22.461,-46.875,-39.551,115.234
1687767765.626,6.348,-21.484,-45.410,-42.969,-42.480
1687767765.630,-0.488,-28.320,-45.898,-51.270,-221.191
1687767765.634,-24.902,-39.062,-41.992,-48.340,-227.539
1687767765.638,-30.762,-29.297,-43.945,-47.852,-181.641
1687767765.642,-2.930,-23.438,-44.434,-29.297,-184.570
1687767765.646,13.672,-22.461,-37.109,-24.902,-124.512
1687767765.650,-8.789,-20.020,-33.691,-38.574,94.727
1687767765.653,-33.691,-24.414,-36.621,-46.875,159.668
1687767765.657,-27.832,-24.902,-35.156,-51.758,-92.285
1687767765.661,-17.578,-35.156,-33.691,-32.715,-106.934
1687767765.665,-5.859,-35.156,-35.645,-22.949,99.121
1687767765.669,-10.742,-30.273,-41.016,-35.645,22.461
1687767765.671,-22.949,-34.180,-36.133,-42.969,-142.090
1687767765.675,-19.531,-38.086,-27.832,-47.852,-139.160
1687767765.679,-11.719,-30.762,-32.227,-40.527,-60.059
1687767765.683,11.230,-24.902,-38.574,-32.715,-20.508
1687767765.687,15.137,-29.785,-41.992,-40.039,-87.891
1687767765.691,-13.672,-28.809,-47.852,-44.434,25.879
1687767765.695,-35.156,-37.598,-45.410,-40.039,278.809
1687767765.698,-17.090,-36.133,-36.621,-40.527,134.277
1687767765.702,9.277,-16.113,-39.551,-35.645,-94.238
1687767765.706,12.207,-20.996,-43.457,-32.227,-1.953
1687767765.710,-13.672,-26.367,-40.039,-35.645,328.125
1687767765.714,-31.250,-26.367,-41.992,-41.504,197.266
1687767765.716,-20.996,-24.902,-40.527,-41.504,-109.863
1687767765.720,2.441,-19.043,-40.039,-40.039,-79.102
1687767765.724,20.508,-23.926,-37.598,-41.992,-42.969
1687767765.728,-7.812,-25.879,-36.621,-50.781,-149.902
1687767765.732,-37.109,-31.250,-41.992,-59.570,-189.453
1687767765.736,-27.832,-42.969,-39.062,-52.734,-30.762
1687767765.740,-15.625,-40.039,-38.574,-49.316,15.137
1687767765.743,-14.648,-36.133,-44.922,-44.922,-10.254
1687767765.747,-23.438,-40.527,-46.387,-50.781,-115.234
1687767765.751,-38.574,-33.691,-46.875,-43.945,25.391
1687767765.755,-30.273,-28.320,-45.410,-42.480,233.887
1687767765.759,-14.648,-29.785,-44.434,-51.758,-42.480
1687767765.776,-14.160,-33.203,-46.875,-42.969,-118.652
1687767765.780,-26.855,-35.156,-48.828,-40.039,-9.766
1687767765.784,-33.203,-26.367,-44.922,-47.363,-37.109
1687767765.788,-28.809,-24.414,-42.969,-54.688,-117.676
1687767765.792,-18.066,-32.227,-57.617,-51.270,-106.934
1687767765.796,15.137,-22.949,-66.406,-18.555,38.574
1687767765.800,22.461,-15.625,-51.758,-3.418,99.609
1687767765.803,-18.066,-32.227,-31.738,-34.180,-84.473
1687767765.807,-17.090,-46.387,-30.273,-39.062,-50.781
1687767765.811,-2.930,-41.992,-37.109,-24.414,255.859
1687767765.815,-19.043,-45.898,-33.203,-33.203,143.066
1687767765.819,-24.902,-47.363,-28.320,-41.992,-130.859
1687767765.821,-27.344,-45.410,-22.949,-41.016,-30.273
1687767765.825,-46.875,-59.082,-22.461,-30.762,172.852
1687767765.829,-45.898,-61.523,-32.715,-31.738,-57.129
1687767765.833,-30.273,-58.105,-28.809,-40.039,-182.617
1687767765.837,-45.410,-67.871,-18.066,-45.410,-143.066
1687767765.841,-67.871,-64.453,-11.230,-46.387,-112.793
1687767765.845,-73.730,-64.941,-5.371,-39.551,-66.895
1687767765.848,-63.965,-73.730,-13.184,-39.551,-187.012
1687767765.852,-50.781,-82.031,-18.555,-29.297,-26.367
1687767765.856,-47.363,-75.195,-14.648,-23.438,158.203
1687767765.860,-67.871,-66.406,-3.418,-33.203,-80.078
1687767765.864,-89.355,-79.102,2.441,-41.504,-122.070
1687767765.867,-84.961,-86.914,-3.906,-43.457,-98.145
1687767765.871,-73.242,-82.520,-6.836,-35.156,-157.227
1687767765.875,-75.684,-76.172,-0.488,-37.598,-118.652
1687767765.879,-94.238,-75.195,3.418,-43.457,-6.836
1687767765.883,-99.609,-77.148,-2.930,-40.039,63.477
1687767765.887,-82.520,-75.195,-2.441,-37.109,43.457
1687767765.891,-59.570,-69.336,0.488,-35.156,40.527
1687767765.894,-46.875,-73.242,0.488,-33.203,-51.758
1687767765.898,-59.082,-81.543,0.000,-26.855,93.262
1687767765.902,-70.312,-80.078,-5.371,-39.062,72.266
1687767765.906,-69.336,-78.613,-8.789,-57.129,-54.688
1687767765.910,-69.824,-78.125,-2.441,-45.410,-54.199
1687767765.911,-75.684,-64.941,5.859,-36.133,6.348
1687767765.915,-80.078,-58.594,7.812,-37.598,-112.793
1687767765.919,-82.031,-64.453,0.977,-39.551,-163.574
1687767765.923,-64.941,-68.359,-4.883,-30.762,-83.496
1687767765.927,-41.504,-66.406,-5.371,-24.902,-91.309
1687767765.931,-48.340,-73.242,-9.766,-25.391,-41.992
1687767765.935,-73.730,-76.660,-11.230,-27.344,11.230
1687767765.938,-95.703,-70.801,-7.812,-32.715,158.203
1687767765.942,-86.914,-65.918,-8.789,-25.879,337.402
1687767765.946,-71.777,-60.547,-15.625,-31.250,-6.348
1687767765.950,-62.988,-60.547,-19.531,-37.598,-209.473
1687767765.954,-62.988,-62.500,-20.020,-37.109,-156.738
1687767765.955,-69.336,-60.547,-16.113,-39.062,-163.086
1687767765.959,-62.012,-62.012,-19.043,-47.852,-113.281
1687767765.963,-40.527,-64.453,-27.832,-58.105,-52.246
1687767765.967,-30.273,-52.734,-27.832,-56.152,-37.598
1687767765.971,-31.250,-58.105,-26.367,-44.922,-64.941
1687767765.975,-39.551,-65.918,-33.203,-47.852,-82.520
1687767765.979,-40.527,-59.082,-29.785,-44.922,22.949
1687767765.982,-19.043,-56.641,-20.996,-19.531,382.324
1687767765.986,-1.953,-54.688,-23.438,-20.020,215.332
1687767765.990,-6.836,-58.105,-31.250,-39.062,-142.090
1687767765.994,-19.043,-67.383,-34.180,-54.199,10.254
1687767765.998,-24.414,-62.500,-26.855,-57.129,27.344
1687767766.001,-22.461,-39.062,-30.273,-49.316,-234.863
1687767766.005,-13.184,-42.969,-30.273,-43.457,-244.141
1687767766.009,-20.996,-56.641,-26.367,-46.875,-142.090
1687767766.013,-39.551,-49.805,-29.297,-43.945,-123.047
1687767766.017,-37.109,-49.805,-34.668,-45.898,-138.672
1687767766.021,-33.203,-56.641,-33.691,-48.340,-73.242
1687767766.025,-41.504,-57.617,-24.414,-37.598,79.590
1687767766.028,-43.457,-56.152,-29.785,-24.414,125.488
1687767766.032,-55.664,-59.082,-41.016,-38.574,-140.625
1687767766.036,-62.988,-62.988,-38.574,-44.922,-125.488
1687767766.040,-45.898,-56.641,-31.738,-24.414,98.145
1687767766.044,-20.020,-52.734,-27.344,-17.090,-45.898
1687767766.045,-9.766,-52.734,-20.996,-25.879,-207.031
1687767766.049,-34.180,-56.152,-21.484,-36.133,-106.445
1687767766.053,-49.316,-53.711,-23.926,-45.898,-113.281
1687767766.057,-36.133,-54.688,-32.227,-54.199,-175.781
1687767766.061,-29.785,-60.059,-37.598,-52.734,-144.531
1687767766.065,-31.738,-57.129,-39.062,-41.016,-17.578
1687767766.069,-36.133,-57.129,-35.156,-42.969,186.035
1687767766.072,-43.457,-55.664,-32.227,-61.523,8.789
1687767766.076,-30.273,-47.363,-34.668,-61.523,-127.441
1687767766.080,-16.113,-51.758,-33.691,-45.410,-46.387
1687767766.084,-31.738,-51.758,-36.133,-37.598,18.066
1687767766.088,-59.570,-47.363,-43.945,-44.922,-44.922
1687767766.091,-66.895,-47.852,-41.504,-48.828,-72.266
1687767766.095,-65.918,-55.664,-41.016,-42.969,-48.828
1687767766.099,-53.223,-55.664,-41.992,-29.297,113.281
1687767766.103,-59.570,-55.176,-44.922,-45.410,-45.410
1687767766.107,-65.430,-58.105,-39.062,-58.105,-184.082
1687767766.111,-68.848,-59.570,-34.668,-54.199,-74.707
1687767766.115,-77.637,-61.035,-39.551,-51.758,-24.902
1687767766.118,-63.477,-57.617,-38.086,-37.598,-14.648
1687767766.122,-47.852,-51.270,-37.598,-38.086,-79.102
1687767766.126,-57.617,-55.176,-40.527,-47.363,57.129
1687767766.130,-71.289,-52.734,-40.527,-46.387,50.293
1687767766.134,-74.707,-56.152,-38.574,-53.223,-165.527
1687767766.151,-63.477,-50.781,-42.969,-52.246,-79.102
1687767766.155,-45.898,-42.480,-45.898,-41.504,-26.855
1687767766.159,-46.387,-43.945,-39.062,-44.922,-24.902
1687767766.163,-76.660,-39.551,-38.086,-51.758,-128.418
1687767766.167,-106.934,-34.668,-38.574,-49.805,-150.391
1687767766.171,-130.859,-37.598,-28.809,-36.133,257.812
1687767766.175,-146.484,-42.969,-30.273,-35.156,220.703
1687767766.178,-151.855,-33.691,-32.715,-46.387,-87.402
1687767766.182,-182.129,-29.785,-37.598,-46.387,-79.590
1687767766.186,-200.195,-30.762,-37.109,-33.691,104.492
1687767766.190,-189.941,-34.180,-31.250,-26.855,54.199
1687767766.194,-180.176,-43.945,-35.156,-36.133,-93.750
1687767766.195,-201.660,-45.410,-34.668,-40.039,-25.391
1687767766.199,-228.027,-44.434,-32.227,-34.180,128.906
1687767766.203,-230.469,-47.363,-42.969,-52.246,-46.875
1687767766.207,-212.891,-42.480,-37.598,-47.852,-119.141
1687767766.211,-195.801,-35.645,-32.715,-32.715,7.324
1687767766.215,-202.637,-33.203,-41.016,-39.551,20.996
1687767766.219,-218.262,-27.344,-41.992,-57.129,-3.418
1687767766.222,-223.633,-32.715,-37.109,-65.918,-104.492
1687767766.226,-229.492,-42.969,-41.504,-48.828,17.578
1687767766.230,-212.891,-41.504,-44.922,-43.457,149.414
1687767766.234,-204.102,-40.039,-43.457,-51.758,-97.656
1687767766.238,-227.051,-38.086,-45.898,-63.965,-166.992
1687767766.240,-229.980,-29.785,-41.016,-58.105,-99.609
1687767766.244,-218.750,-35.156,-40.527,-49.805,-145.508
1687767766.248,-200.195,-33.691,-34.180,-50.781,-173.340
1687767766.252,-188.477,-21.484,-32.715,-36.133,-141.113
1687767766.256,-210.449,-33.203,-42.969,-54.199,-67.871
1687767766.260,-232.422,-46.387,-44.434,-72.754,-24.414
1687767766.264,-215.332,-41.992,-40.527,-61.523,-29.297
1687767766.267,-193.848,-31.250,-37.109,-47.852,-41.504
1687767766.271,-190.430,-40.039,-40.039,-39.551,227.539
1687767766.275,-199.707,-47.363,-38.086,-51.758,176.758
1687767766.279,-211.914,-36.621,-31.250,-60.059,-96.191
1687767766.283,-210.449,-28.809,-31.250,-53.223,-81.543
1687767766.285,-196.777,-34.180,-28.320,-50.293,-86.426
1687767766.289,-180.664,-44.922,-30.273,-49.316,-140.625
1687767766.293,-189.453,-42.969,-34.180,-44.922,-196.289
1687767766.297,-205.566,-34.668,-28.809,-38.574,-136.230
1687767766.301,-192.871,-34.668,-30.762,-46.387,-3.906
1687767766.305,-163.574,-46.875,-36.133,-50.293,-33.203
1687767766.309,-157.227,-46.387,-34.668,-51.270,-38.574
1687767766.312,-170.898,-39.551,-35.645,-55.664,41.504
1687767766.316,-188.477,-43.945,-33.203,-58.594,55.176
1687767766.320,-198.730,-41.016,-32.227,-63.965,11.719
1687767766.324,-178.711,-36.133,-33.203,-43.945,3.418
1687767766.328,-154.297,-36.133,-30.762,-23.926,103.516
1687767766.330,-167.480,-42.969,-28.809,-42.969,59.082
1687767766.334,-187.012,-46.875,-31.738,-61.523,-160.156
1687767766.338,-188.477,-47.852,-29.297,-57.129,-136.230
1687767766.342,-174.316,-59.082,-28.809,-59.082,-51.758
1687767766.346,-159.668,-56.152,-31.738,-60.059,-56.641
1687767766.350,-162.598,-41.016,-30.273,-58.105,-4.395
1687767766.354,-173.828,-39.551,-33.691,-69.336,11.230
1687767766.357,-179.199,-48.828,-35.156,-57.617,228.027
1687767766.361,-170.898,-43.457,-33.203,-54.688,102.051
1687767766.365,-155.273,-38.086,-34.180,-65.918,-125.977
1687767766.369,-157.227,-42.480,-37.109,-65.430,68.359
1687767766.373,-168.457,-41.992,-42.969,-65.918,194.824
1687767766.376,-166.504,-39.551,-38.574,-64.453,-38.086
1687767766.380,-149.414,-48.828,-21.973,-53.223,-166.992
1687767766.384,-129.395,-47.852,-20.020,-48.340,-59.570
1687767766.388,-126.953,-35.156,-20.996,-45.410,-6.836
1687767766.392,-128.418,-29.297,-17.578,-38.086,-139.648
1687767766.396,-136.719,-40.039,-24.902,-45.410,-157.715
1687767766.400,-132.324,-48.340,-32.227,-42.480,132.812
1687767766.403,-110.352,-37.109,-26.855,-28.809,225.098
1687767766.407,-111.816,-36.621,-24.902,-46.387,-58.105
1687767766.411,-134.277,-38.086,-32.227,-55.176,-112.305
1687767766.415,-145.020,-36.133,-35.156,-50.781,-23.926
1687767766.419,-128.418,-37.109,-32.227,-48.828,-118.164
1687767766.421,-108.887,-26.855,-25.879,-51.270,-187.988
1687767766.425,-101.074,-22.461,-24.902,-56.641,-119.141
1687767766.429,-108.398,-19.531,-31.738,-58.594,1.953
1687767766.433,-123.047,-24.902,-28.320,-60.059,-96.680
1687767766.437,-130.859,-36.621,-22.949,-62.500,-211.426
1687767766.441,-122.070,-41.016,-29.785,-61.523,-55.664
1687767766.445,-118.652,-33.691,-36.621,-53.223,314.453
1687767766.448,-128.418,-39.062,-34.668,-62.012,255.371
1687767766.452,-132.324,-44.922,-23.438,-62.500,-98.633
1687767766.456,-123.047,-40.039,-20.996,-50.781,-183.105
1687767766.460,-102.051,-42.969,-25.879,-45.898,-125.488
1687767766.464,-98.633,-40.039,-21.973,-43.945,-94.727
1687767766.465,-123.535,-41.016,-22.461,-47.363,-137.207
1687767766.469,-136.230,-40.527,-19.043,-45.898,-112.305
1687767766.473,-128.906,-34.180,-19.531,-50.293,-93.262
1687767766.477,-116.699,-30.762,-21.484,-48.828,-123.047
1687767766.481,-114.746,-32.715,-20.508,-41.504,-115.234
1687767766.485,-125.488,-38.086,-21.484,-41.504,0.488
1687767766.489,-134.277,-40.039,-20.508,-36.133,209.473
1687767766.492,-130.371,-36.621,-19.531,-38.574,-69.824
1687767766.496,-114.258,-32.227,-16.602,-39.062,-178.711
1687767766.500,-101.074,-29.785,-17.090,-29.785,-62.500
1687767766.504,-103.027,-27.832,-20.508,-27.832,-108.398
1687767766.508,-113.281,-29.785,-13.672,-36.621,-123.047
1687767766.525,-109.863,-35.645,-14.160,-44.922,-90.332
1687767766.529,-101.562,-37.109,-20.020,-41.504,-57.617
1687767766.533,-93.262,-38.086,-25.391,-32.227,-74.707
1687767766.537,-102.051,-42.969,-26.367,-37.598,-88.379
1687767766.541,-108.887,-34.180,-15.137,-35.156,-49.316
1687767766.545,-110.352,-30.762,-19.043,-41.016,13.184
1687767766.549,-101.074,-33.691,-24.902,-45.898,5.859
1687767766.552,-89.844,-32.715,-18.066,-41.992,-104.004
1687767766.556,-100.586,-38.086,-16.602,-58.105,-107.422
1687767766.560,-118.164,-30.273,-20.508,-53.223,183.594
1687767766.564,-124.023,-25.391,-22.949,-48.340,164.551
1687767766.568,-109.375,-25.391,-28.809,-54.199,-86.914
1687767766.570,-95.703,-35.156,-32.715,-42.969,-26.855
1687767766.574,-94.238,-33.203,-30.762,-34.668,5.859
1687767766.578,-96.191,-15.137,-17.090,-41.016,-181.152
1687767766.582,-102.539,-18.555,-17.090,-45.410,-256.348
1687767766.586,-85.449,-19.043,-13.184,-37.598,-192.383
1687767766.590,-73.730,-23.926,-11.230,-34.668,3.418
1687767766.594,-90.332,-32.227,-29.297,-41.016,-14.160
1687767766.597,-105.469,-31.250,-31.250,-50.781,-184.570
1687767766.601,-115.234,-37.109,-24.902,-50.293,37.598
1687767766.605,-117.676,-35.156,-19.531,-38.574,299.805
1687767766.609,-102.051,-40.039,-15.625,-33.691,-28.809
1687767766.613,-96.191,-42.480,-19.531,-37.598,-124.023
1687767766.615,-104.980,-36.133,-14.160,-49.805,-31.738
1687767766.619,-109.863,-32.715,-13.184,-56.641,-69.824
1687767766.623,-100.586,-24.902,-11.230,-46.875,-109.863
1687767766.627,-86.426,-27.832,-8.301,-33.203,-64.941
1687767766.631,-78.613,-31.250,-13.672,-31.738,11.230
1687767766.635,-85.449,-22.949,-13.184,-38.574,1.465
1687767766.639,-95.703,-25.879,-12.207,-36.621,-34.180
1687767766.642,-104.492,-41.504,-24.902,-38.086,-11.719
1687767766.646,-94.727,-37.598,-30.762,-30.762,213.379
1687767766.650,-85.449,-30.762,-29.297,-22.461,77.637
1687767766.654,-90.820,-36.133,-18.555,-32.227,-161.133
1687767766.658,-104.004,-39.062,-18.555,-37.598,-82.031
1687767766.660,-102.539,-43.457,-17.578,-29.297,126.465
1687767766.664,-81.055,-32.715,-14.648,-37.598,-83.984
1687767766.668,-73.242,-20.020,-19.043,-42.480,-258.789
1687767766.672,-88.379,-22.949,-18.555,-51.270,-138.184
1687767766.676,-110.840,-22.949,-16.602,-55.664,-129.395
1687767766.680,-126.953,-32.715,-21.973,-54.199,-118.652
1687767766.684,-109.863,-42.480,-22.949,-57.129,-90.820
1687767766.687,-98.633,-48.340,-27.344,-45.898,45.898
1687767766.691,-105.957,-50.293,-32.715,-42.480,116.211
1687767766.695,-111.328,-47.363,-33.691,-53.711,-127.930
1687767766.699,-102.051,-38.086,-26.855,-44.922,-184.570
1687767766.703,-80.078,-32.227,-20.508,-38.086,-75.684
1687767766.706,-75.684,-23.438,-23.926,-39.062,-128.418
1687767766.710,-89.355,-19.531,-29.297,-40.527,-135.254
1687767766.714,-100.586,-27.344,-22.949,-55.176,-124.512
1687767766.718,-94.727,-34.180,-20.508,-59.082,-43.457
1687767766.722,-79.590,-35.645,-32.227,-56.641,-17.090
1687767766.726,-81.543,-39.551,-30.762,-50.781,-106.445
1687767766.730,-87.402,-43.457,-22.461,-45.898,-6.836
1687767766.733,-93.750,-38.086,-26.367,-43.457,262.695
1687767766.737,-104.980,-39.551,-31.738,-48.828,56.641
1687767766.741,-95.215,-39.062,-27.344,-53.223,-110.352
1687767766.745,-79.102,-34.180,-29.297,-53.223,64.453
1687767766.749,-81.055,-35.156,-27.832,-52.734,133.789
1687767766.750,-97.168,-36.133,-22.461,-64.941,-59.082
1687767766.754,-111.816,-38.574,-23.926,-71.289,-168.945
1687767766.758,-98.633,-33.203,-20.508,-57.617,-124.023
1687767766.762,-82.520,-35.645,-18.066,-50.781,-34.668
1687767766.766,-81.543,-42.480,-26.855,-60.547,-67.383
1687767766.770,-94.727,-39.062,-23.926,-51.270,-101.562
1687767766.774,-115.234,-42.480,-21.973,-48.828,39.551
1687767766.777,-107.910,-44.922,-20.996,-51.758,237.793
1687767766.781,-86.914,-41.504,-17.090,-58.594,-38.086
1687767766.785,-79.590,-43.457,-20.020,-58.594,-205.566
1687767766.789,-103.027,-45.410,-27.832,-68.359,-67.383
1687767766.793,-119.629,-35.645,-21.484,-75.195,-117.188
1687767766.795,-108.887,-29.297,-21.973,-68.848,-204.590
1687767766.799,-83.984,-34.180,-27.832,-58.105,-132.812
1687767766.803,-81.543,-38.574,-23.438,-56.152,-71.289
1687767766.807,-91.797,-33.691,-24.414,-60.547,-142.090
1687767766.811,-99.121,-34.180,-25.391,-61.035,-187.012
1687767766.815,-96.680,-44.434,-22.461,-69.824,-60.059
1687767766.819,-87.891,-36.621,-22.461,-67.383,267.578
1687767766.822,-87.402,-24.902,-20.996,-64.941,171.875
1687767766.826,-86.426,-31.250,-25.391,-68.848,-62.988
1687767766.830,-93.262,-43.457,-24.902,-63.477,-38.574
1687767766.834,-104.980,-44.922,-20.020,-53.223,320.801
1687767766.838,-94.727,-33.203,-21.973,-66.406,179.688
1687767766.840,-68.359,-24.414,-22.461,-73.242,-128.906
1687767766.844,-71.289,-25.391,-23.926,-63.965,-70.312
1687767766.848,-99.609,-30.762,-19.531,-69.336,-57.129
1687767766.852,-105.469,-38.086,-19.531,-71.289,-72.266
1687767766.856,-72.266,-41.504,-16.113,-59.082,-109.863
1687767766.860,-51.270,-31.738,-20.020,-44.434,31.250
1687767766.864,-64.453,-22.949,-35.156,-52.246,37.109
1687767766.867,-91.797,-20.020,-36.133,-78.125,-119.629
1687767766.871,-89.844,-14.160,-35.645,-97.656,-16.113
1687767766.875,-54.199,-18.066,-39.062,-78.125,177.246
1687767766.879,-43.945,-15.625,-41.504,-54.688,163.574
1687767766.883,-54.688,-15.625,-43.945,-77.148,-127.930
1687767766.900,-77.148,-16.113,-42.969,-84.961,-174.316
1687767766.904,-79.590,-15.625,-42.480,-74.707,-59.570
1687767766.908,-62.012,-22.461,-44.434,-69.824,-86.914
1687767766.912,-48.340,-22.949,-42.480,-69.336,-134.766
1687767766.916,-42.969,-28.320,-48.340,-58.594,-62.012
1687767766.920,-57.129,-25.391,-55.176,-61.523,27.832
1687767766.924,-71.289,-18.066,-56.641,-79.102,-60.547
1687767766.927,-62.500,-13.672,-60.059,-80.566,-138.184
1687767766.931,-35.645,-11.719,-56.641,-74.707,-99.609
1687767766.935,-31.738,-8.789,-58.105,-66.406,130.859
1687767766.939,-50.293,-13.672,-63.477,-64.941,59.082
1687767766.943,-58.594,-19.531,-60.547,-71.777,-137.695
1687767766.945,-60.547,-10.742,-59.082,-67.383,-61.523
1687767766.949,-48.340,-8.789,-55.176,-41.016,153.320
1687767766.953,-32.715,-9.766,-52.734,-45.898,-53.223
1687767766.957,-43.945,-7.324,-55.176,-72.754,-190.918
1687767766.961,-74.219,-3.906,-54.688,-74.707,-66.895
1687767766.965,-67.871,-3.906,-51.758,-68.848,3.418
1687767766.969,-38.574,-8.301,-56.641,-72.266,-70.312
1687767766.972,-35.156,-0.977,-59.082,-77.148,-118.164
1687767766.976,-49.805,5.371,-53.711,-71.289,67.383
1687767766.980,-62.988,0.977,-51.270,-70.312,93.750
1687767766.984,-49.805,-5.859,-55.664,-79.590,-120.117
1687767766.988,-25.879,-14.648,-57.129,-75.195,-107.910
1687767766.990,-25.391,-25.879,-52.734,-73.730,-55.664
1687767766.994,-48.828,-13.672,-55.176,-81.543,-25.879
1687767766.998,-62.988,3.418,-59.082,-87.891,-126.465
1687767767.002,-51.758,3.418,-52.734,-82.520,-115.234
1687767767.006,-52.246,1.465,-48.828,-77.637,57.617
1687767767.010,-46.875,-1.465,-50.293,-81.055,33.203
1687767767.014,-43.457,-6.348,-56.152,-78.613,-58.105
1687767767.017,-60.059,-3.418,-56.641,-72.754,-130.371
1687767767.021,-68.848,-0.488,-49.316,-70.312,109.863
1687767767.025,-43.457,-6.348,-49.316,-75.684,60.059
1687767767.029,-36.621,-13.672,-53.223,-80.566,-133.301
1687767767.033,-58.105,-9.766,-52.246,-69.336,-102.539
1687767767.035,-70.801,-3.906,-44.434,-61.035,-27.832
1687767767.039,-59.082,-1.465,-41.504,-67.383,-151.855
1687767767.043,-34.180,-1.953,-39.551,-64.453,-209.961
1687767767.047,-27.344,-16.113,-41.016,-63.965,-72.266
1687767767.051,-41.016,-20.996,-42.969,-67.871,-69.336
1687767767.055,-60.547,-10.254,-43.457,-75.684,-98.145
1687767767.059,-67.871,-8.789,-42.969,-86.914,-84.961
1687767767.062,-53.223,-19.531,-38.086,-81.055,86.914
1687767767.066,-37.109,-23.438,-35.156,-58.105,187.500
1687767767.070,-46.875,-5.859,-34.668,-51.758,-125.488
1687767767.074,-50.781,-2.441,-36.621,-60.547,-208.496
1687767767.078,-52.734,-11.230,-40.527,-71.777,1.465
1687767767.080,-52.246,-8.789,-41.016,-69.336,-43.457
1687767767.084,-41.016,-0.977,-39.551,-53.711,-122.070
1687767767.088,-44.434,-12.207,-42.969,-51.758,-18.066
1687767767.092,-54.199,-20.996,-40.527,-57.129,-63.965
1687767767.096,-60.059,-16.113,-34.180,-60.547,-80.078
1687767767.100,-50.781,-12.207,-36.621,-57.617,21.484
1687767767.104,-40.527,-8.789,-36.621,-45.898,66.895
1687767767.107,-41.016,-10.742,-33.691,-34.180,360.352
1687767767.111,-46.387,-18.555,-31.250,-44.922,215.332
1687767767.115,-60.059,-22.949,-34.668,-72.754,-164.062
1687767767.119,-57.617,-20.996,-29.785,-69.336,36.621
1687767767.123,-44.434,-15.625,-27.832,-57.617,151.855
1687767767.127,-52.734,-18.066,-32.715,-67.871,-81.055
1687767767.131,-71.289,-20.020,-34.180,-81.543,-137.695
1687767767.135,-79.590,-22.949,-31.250,-86.914,-151.367
1687767767.139,-74.219,-31.250,-30.273,-88.379,-139.160
1687767767.143,-63.965,-27.344,-27.344,-72.754,-139.160
1687767767.147,-51.758,-23.438,-23.438,-60.547,-108.887
1687767767.151,-62.500,-21.484,-25.879,-59.082,112.305
1687767767.154,-86.914,-16.602,-26.855,-58.594,227.051
1687767767.158,-78.613,-23.926,-27.832,-69.824,-83.496
1687767767.162,-47.852,-33.203,-31.738,-61.035,-130.859
1687767767.166,-33.691,-26.855,-29.785,-41.504,42.969
1687767767.170,-54.199,-19.531,-28.809,-68.359,-22.949
1687767767.170,-85.449,-12.207,-32.715,-93.262,-145.996
1687767767.174,-80.566,-5.859,-30.762,-77.148,-132.812
1687767767.178,-75.195,-4.395,-29.297,-58.105,-63.965
1687767767.182,-58.594,-2.930,-26.855,-50.293,-131.348
1687767767.186,-46.875,-6.836,-29.785,-43.457,-216.797
1687767767.190,-78.125,-11.230,-36.621,-52.734,-74.219
1687767767.194,-91.797,-14.648,-28.809,-55.176,220.215
1687767767.197,-71.289,-9.277,-24.414,-50.293,44.434
1687767767.201,-51.758,-7.812,-28.809,-57.129,-229.004
1687767767.205,-57.129,-12.695,-28.809,-58.594,-97.168
1687767767.209,-91.309,-21.973,-25.879,-52.734,213.379
1687767767.213,-101.562,-25.391,-25.879,-56.641,80.078
1687767767.231,-86.426,-18.555,-26.367,-60.059,-174.316
1687767767.235,-72.754,-16.113,-26.367,-48.828,-111.328
1687767767.239,-67.383,-23.438,-24.902,-49.805,43.457
1687767767.243,-70.312,-35.156,-26.367,-67.383,-67.383
1687767767.247,-64.941,-24.902,-28.809,-73.242,-140.625
1687767767.251,-68.848,-10.742,-28.320,-59.082,7.324
1687767767.255,-79.590,-13.672,-31.250,-49.805,41.504
1687767767.258,-76.660,-15.625,-30.762,-55.664,-96.191
1687767767.262,-74.219,-30.273,-31.250,-64.941,-148.926
1687767767.266,-89.355,-33.203,-31.250,-58.105,6.348
1687767767.270,-97.656,-24.902,-28.809,-44.434,-7.812
1687767767.274,-63.477,-28.320,-27.344,-41.992,-151.855
1687767767.275,-63.477,-28.809,-27.832,-40.527,-97.168
1687767767.279,-84.961,-21.484,-27.344,-36.621,28.809
1687767767.283,-93.262,-22.949,-25.879,-33.203,-40.039
1687767767.287,-83.008,-26.367,-27.832,-38.574,-158.691
1687767767.291,-65.918,-15.137,-28.320,-45.410,-159.668
1687767767.295,-55.176,-12.207,-23.926,-34.668,-101.562
1687767767.299,-68.848,-22.461,-23.438,-42.480,-45.898
1687767767.302,-99.609,-24.902,-26.855,-56.641,-127.441
1687767767.306,-97.168,-17.090,-26.855,-47.363,-198.730
1687767767.310,-73.730,-4.395,-30.762,-39.062,29.785
1687767767.314,-65.918,-13.184,-31.250,-44.922,28.320
1687767767.318,-74.707,-27.344,-33.203,-60.059,-143.066
1687767767.321,-83.496,-21.484,-42.969,-64.941,-117.188
1687767767.325,-63.477,-11.230,-56.152,-41.504,34.180
1687767767.329,-32.227,-17.090,-49.805,-22.949,-67.383
1687767767.333,-49.316,-28.320,-30.762,-33.691,-108.887
1687767767.337,-66.406,-30.273,-23.438,-41.016,20.996
1687767767.341,-85.449,-35.156,-27.344,-51.758,83.496
1687767767.345,-109.375,-42.480,-32.715,-73.242,-98.145
1687767767.348,-96.680,-44.434,-39.551,-60.059,-204.102
1687767767.352,-82.031,-41.992,-32.227,-30.762,42.969
1687767767.356,-91.309,-44.434,-22.461,-38.574,218.262
1687767767.360,-108.887,-52.734,-24.902,-52.734,-90.820
1687767767.364,-104.492,-51.758,-22.949,-45.898,-147.461
1687767767.365,-90.332,-48.340,-17.578,-41.504,-32.715
1687767767.369,-83.008,-50.781,-14.648,-34.180,-57.617
1687767767.373,-89.355,-63.477,-14.648,-32.227,-94.238
1687767767.377,-118.164,-65.430,-8.789,-43.457,-121.582
1687767767.381,-127.930,-61.035,-9.277,-46.875,-29.297
1687767767.385,-107.910,-69.336,-13.184,-33.691,9.277
1687767767.389,-90.820,-74.219,-8.301,-33.203,-57.129
1687767767.392,-93.262,-72.754,-3.418,-42.969,-34.668
1687767767.396,-121.582,-68.359,1.953,-46.387,131.348
1687767767.400,-125.000,-61.523,13.184,-42.480,81.543
1687767767.404,-108.398,-60.547,11.719,-35.156,-49.316
1687767767.408,-95.215,-62.012,5.859,-28.320,-20.996
1687767767.410,-84.473,-65.918,10.254,-27.832,44.922
1687767767.414,-100.586,-69.336,11.719,-30.762,-86.426
1687767767.418,-121.094,-64.453,13.184,-34.180,-166.016
1687767767.422,-108.398,-57.129,13.184,-35.645,-83.008
1687767767.426,-90.820,-56.152,13.184,-31.738,-43.457
1687767767.430,-89.355,-61.523,12.695,-30.273,-83.496
1687767767.434,-96.191,-55.176,16.113,-41.504,-43.945
1687767767.437,-98.145,-48.828,19.043,-40.039,165.039
1687767767.441,-100.098,-50.781,9.277,-26.855,368.164
1687767767.445,-89.844,-56.152,3.906,-38.086,98.145
1687767767.449,-75.684,-54.688,14.160,-41.992,-61.523
1687767767.453,-104.492,-56.152,20.996,-34.668,-15.625
1687767767.455,-122.070,-60.059,13.672,-41.504,-114.746
1687767767.459,-108.887,-56.152,18.555,-36.621,-170.898
1687767767.463,-94.238,-49.805,29.297,-24.902,-127.441
1687767767.467,-83.008,-46.387,18.555,-21.973,-46.875
1687767767.471,-86.914,-45.898,11.719,-29.785,-107.910
1687767767.475,-104.492,-44.922,17.578,-39.551,-120.117
1687767767.479,-109.375,-45.410,11.719,-38.574,-5.371
1687767767.482,-95.703,-47.363,5.859,-23.926,207.520
1687767767.486,-76.172,-50.781,3.906,-22.949,38.574
1687767767.490,-74.707,-45.898,3.418,-26.855,-138.672
1687767767.494,-100.586,-43.457,0.488,-24.902,56.152
1687767767.498,-94.238,-41.016,0.977,-19.043,306.641
1687767767.500,-64.941,-38.086,2.930,-29.297,64.941
1687767767.504,-67.383,-37.109,-3.906,-38.574,-145.508
1687767767.508,-87.891,-38.574,-10.254,-35.645,-75.684
1687767767.512,-109.375,-38.574,-13.672,-40.527,-119.629
1687767767.516,-110.840,-37.109,-14.648,-45.898,-157.227
1687767767.520,-87.891,-30.273,-17.578,-51.758,-99.609
1687767767.524,-74.219,-23.926,-20.508,-41.992,125.977
1687767767.527,-68.359,-29.785,-15.137,-34.668,186.523
1687767767.531,-76.172,-28.320,-14.160,-52.246,-123.535
1687767767.535,-89.355,-24.902,-21.484,-49.316,-180.664
1687767767.539,-74.219,-33.691,-23.438,-37.598,-122.559
1687767767.543,-51.758,-41.504,-19.043,-42.480,-94.238
1687767767.546,-58.105,-30.762,-15.625,-37.598,-62.988
1687767767.550,-79.102,-20.996,-21.484,-44.434,-103.027
1687767767.554,-77.148,-29.785,-21.973,-44.922,39.551
1687767767.558,-55.176,-24.414,-16.602,-34.180,-55.176
1687767767.562,-47.852,-16.602,-20.508,-39.551,-189.941
1687767767.566,-56.152,-25.879,-19.531,-30.273,32.715
1687767767.570,-70.312,-27.344,-10.742,-18.555,325.195
1687767767.573,-72.266,-23.926,-18.555,-48.340,88.379
1687767767.577,-56.641,-21.484,-26.855,-45.410,-182.129
1687767767.581,-42.480,-35.645,-20.020,-33.691,-48.340
1687767767.585,-42.480,-39.551,-7.812,-37.109,21.973
1687767767.589,-47.363,-14.648,0.977,-27.344,-113.770
1687767767.605,-55.664,-12.695,-7.324,-38.086,-184.570
1687767767.609,-47.363,-14.648,-11.230,-47.852,-113.281
1687767767.613,-33.203,-16.602,-14.648,-51.758,69.824
1687767767.617,-45.898,-27.832,-22.949,-53.223,58.105
1687767767.621,-71.777,-30.762,-18.066,-43.457,-87.402
1687767767.625,-83.984,-38.574,-11.719,-42.969,45.898
1687767767.629,-78.125,-39.062,-15.625,-41.016,253.906
1687767767.632,-49.805,-33.203,-19.531,-44.434,-32.715
1687767767.636,-27.832,-20.020,-16.113,-42.480,-217.285
1687767767.640,-51.758,-22.949,-18.555,-47.852,-19.043
1687767767.644,-77.148,-32.715,-24.902,-56.641,-108.398
1687767767.648,-62.500,-23.438,-23.438,-42.480,-241.211
1687767767.650,-47.363,-18.555,-23.438,-39.062,-136.230
1687767767.654,-52.246,-20.508,-22.461,-41.992,-98.633
1687767767.658,-61.523,-20.508,-28.320,-51.270,-144.531
1687767767.662,-83.496,-20.996,-27.832,-64.941,-175.293
1687767767.666,-92.773,-24.414,-24.414,-57.129,-87.891
1687767767.670,-65.430,-26.367,-30.273,-41.504,157.715
1687767767.674,-44.434,-24.414,-29.297,-42.480,77.148
1687767767.677,-62.988,-20.996,-25.391,-55.176,-50.293
1687767767.681,-90.820,-25.879,-27.832,-65.430,-62.500
1687767767.685,-87.402,-29.297,-25.879,-48.340,216.309
1687767767.689,-46.875,-31.250,-24.902,-32.227,216.797
1687767767.693,-33.691,-19.531,-35.156,-35.156,-100.098
1687767767.695,-63.965,-12.207,-36.133,-48.828,-81.055
1687767767.699,-91.309,-10.742,-31.738,-71.289,18.555
1687767767.703,-91.309,-18.066,-37.109,-86.426,-91.797
1687767767.707,-73.730,-26.367,-38.086,-71.289,-190.430
1687767767.711,-63.965,-24.902,-33.691,-53.711,-124.512
1687767767.715,-62.500,-26.855,-33.203,-59.570,-62.988
1687767767.719,-74.707,-28.809,-34.180,-58.105,-7.812
1687767767.722,-86.914,-20.996,-38.086,-58.105,-21.973
1687767767.726,-71.777,-17.090,-46.387,-62.500,78.613
1687767767.730,-68.848,-33.691,-50.293,-59.082,285.645
1687767767.734,-65.918,-36.133,-45.898,-57.617,44.434
1687767767.738,-73.730,-27.832,-44.922,-60.547,-145.508
1687767767.740,-88.379,-31.738,-49.805,-67.383,-121.582
1687767767.744,-68.848,-30.762,-51.270,-59.082,-171.875
1687767767.748,-34.668,-26.855,-43.945,-41.992,-146.973
1687767767.752,-29.297,-29.297,-43.457,-47.363,-99.609
1687767767.756,-56.152,-35.645,-45.898,-60.059,-129.883
1687767767.760,-62.012,-20.020,-38.574,-64.941,-65.918
1687767767.764,-49.805,-18.066,-40.039,-62.988,7.324
1687767767.767,-38.574,-24.414,-42.480,-45.410,-41.504
1687767767.771,-38.086,-15.625,-33.691,-25.879,141.113
1687767767.775,-58.594,-26.367,-29.785,-28.320,55.176
1687767767.779,-83.008,-30.273,-31.738,-39.062,-108.887
1687767767.783,-72.266,-20.996,-30.762,-44.922,-46.387
1687767767.785,-58.105,-19.531,-28.320,-38.086,196.777
1687767767.789,-68.359,-28.809,-35.156,-44.922,40.039
1687767767.793,-83.008,-34.668,-35.156,-56.152,-157.715
1687767767.797,-88.379,-29.297,-27.344,-45.898,-52.246
1687767767.801,-70.801,-12.695,-19.531,-33.691,-55.664
1687767767.805,-57.617,-15.137,-20.508,-31.738,-31.738
1687767767.809,-66.895,-29.297,-27.832,-41.016,16.113
1687767767.812,-91.797,-35.645,-39.062,-48.828,139.648
1687767767.816,-116.699,-39.551,-41.992,-52.246,141.113
1687767767.820,-111.816,-30.762,-31.738,-54.199,-154.785
1687767767.824,-88.867,-28.809,-23.926,-45.410,-133.789
1687767767.828,-78.125,-34.180,-25.879,-42.969,-11.719
1687767767.831,-82.031,-27.832,-32.227,-45.898,-83.008
1687767767.835,-92.773,-20.996,-31.250,-40.039,-188.965
1687767767.839,-76.660,-18.066,-23.438,-31.738,-106.934
1687767767.843,-51.270,-24.902,-20.996,-26.367,73.730
1687767767.847,-47.363,-27.832,-25.879,-29.297,4.395
1687767767.851,-63.965,-28.320,-28.809,-42.969,-44.922
1687767767.855,-85.938,-30.762,-24.414,-55.664,-5.371
1687767767.858,-87.402,-29.785,-26.367,-48.340,221.191
1687767767.862,-54.199,-31.250,-24.902,-36.133,118.652
1687767767.866,-26.367,-39.551,-18.555,-23.926,-142.578
1687767767.870,-25.879,-35.645,-20.996,-20.996,-12.695
1687767767.874,-59.082,-37.109,-29.297,-38.574,131.348
1687767767.876,-67.871,-35.645,-27.344,-45.410,-85.938
1687767767.880,-31.738,-28.320,-26.855,-38.574,-172.363
1687767767.884,-5.859,-28.809,-22.461,-35.156,8.301
1687767767.888,-22.461,-38.086,-16.602,-34.180,-56.641
1687767767.892,-41.016,-31.738,-20.020,-35.645,-162.109
1687767767.896,-30.273,-24.902,-18.555,-36.621,-131.836
1687767767.900,-25.879,-28.320,-18.555,-34.180,104.980
1687767767.903,-21.973,-27.832,-20.508,-25.391,383.301
1687767767.907,-12.695,-26.855,-20.996,-27.832,21.484
1687767767.911,-23.438,-34.180,-22.461,-34.668,-237.305
1687767767.915,-42.969,-31.738,-24.902,-34.180,-167.969
1687767767.919,-27.832,-30.762,-30.273,-34.180,-214.844
1687767767.935,-12.695,-38.574,-33.691,-35.156,-222.656
1687767767.939,-18.555,-35.156,-26.855,-26.855,-94.727
1687767767.943,-32.227,-33.203,-22.949,-29.297,-41.504
1687767767.947,-41.992,-34.180,-29.297,-51.270,-83.496
1687767767.951,-32.715,-27.344,-36.133,-50.781,-105.469
1687767767.955,-23.438,-24.902,-32.715,-36.621,-21.973
1687767767.959,-21.484,-22.949,-23.438,-24.902,261.230
1687767767.962,-44.922,-29.297,-28.320,-38.086,153.320
1687767767.966,-63.965,-40.039,-32.715,-65.918,-221.191
1687767767.970,-47.852,-44.922,-38.086,-66.406,-175.781
1687767767.974,-20.020,-36.621,-36.621,-53.711,-64.453
1687767767.978,-21.973,-34.180,-36.133,-58.105,-123.047
1687767767.980,-42.969,-38.086,-34.180,-63.477,-156.250
1687767767.984,-59.570,-38.574,-27.832,-65.430,-53.711
1687767767.988,-64.453,-42.969,-34.180,-75.195,93.750
1687767767.992,-37.598,-38.086,-33.691,-69.824,-18.555
1687767767.996,-16.113,-28.809,-32.227,-52.734,-54.688
1687767768.000,-45.410,-30.273,-39.551,-55.176,77.148
1687767768.004,-66.895,-31.738,-41.504,-64.453,81.055
1687767768.007,-53.223,-35.645,-37.598,-58.105,49.805
1687767768.011,-36.133,-39.062,-38.086,-59.082,-30.762
1687767768.015,-25.391,-31.250,-39.551,-43.457,62.988
1687767768.019,-40.527,-28.320,-30.762,-31.738,245.605
1687767768.023,-61.035,-40.039,-28.320,-59.082,-95.215
1687767768.025,-52.246,-39.062,-33.203,-62.012,-230.469
1687767768.029,-27.832,-38.574,-34.668,-44.434,-108.887
1687767768.033,-14.160,-38.086,-33.203,-33.691,-123.535
1687767768.037,-22.949,-36.621,-32.715,-41.016,-168.945
1687767768.041,-60.059,-45.410,-31.738,-52.246,-193.848
1687767768.045,-68.848,-43.457,-32.715,-54.688,-123.047
1687767768.049,-45.410,-33.691,-36.133,-46.387,-46.387
1687767768.052,-55.664,-38.086,-39.551,-51.270,-100.098
1687767768.056,-73.242,-41.016,-39.062,-57.129,-110.352
1687767768.060,-95.703,-41.016,-35.156,-51.758,323.730
1687767768.064,-117.188,-39.551,-33.691,-45.410,329.590
1687767768.068,-117.676,-33.203,-31.250,-47.852,-118.652
1687767768.070,-140.625,-27.832,-27.832,-42.969,-128.418
1687767768.074,-175.293,-26.855,-26.855,-32.715,-54.199
1687767768.078,-220.215,-33.203,-27.344,-41.992,-154.785
1687767768.082,-252.441,-30.273,-32.715,-45.410,-198.242
1687767768.086,-244.629,-24.902,-35.645,-43.457,-101.562
1687767768.090,-231.934,-32.227,-40.527,-54.688,-66.406
1687767768.094,-235.352,-30.273,-42.969,-49.316,-48.828
1687767768.097,-246.094,-24.902,-40.039,-45.898,-124.023
1687767768.101,-255.371,-28.320,-41.016,-51.758,-5.371
1687767768.105,-246.582,-27.832,-37.598,-41.504,154.785
1687767768.109,-237.793,-31.250,-30.762,-40.527,-42.480
1687767768.113,-243.164,-37.109,-25.391,-34.668,-29.297
1687767768.115,-256.836,-25.391,-26.367,-28.809,81.543
1687767768.119,-293.457,-22.461,-39.062,-54.199,-121.094
1687767768.123,-312.012,-32.227,-41.992,-64.453,-177.246
1687767768.127,-297.363,-36.621,-35.156,-48.340,-64.453
1687767768.131,-282.227,-24.414,-30.273,-32.715,-41.504
1687767768.135,-282.715,-20.020,-31.250,-46.875,6.348
1687767768.139,-290.527,-36.621,-38.086,-61.035,-65.430
1687767768.142,-270.996,-41.992,-41.504,-52.734,-125.000
1687767768.146,-240.234,-31.738,-32.715,-30.762,111.816
1687767768.150,-223.145,-30.273,-28.809,-26.855,58.594
1687767768.154,-221.680,-33.203,-31.738,-34.668,-48.340
1687767768.158,-228.516,-25.391,-35.156,-45.410,2.441
1687767768.161,-224.609,-24.414,-37.109,-38.086,70.312
1687767768.165,-209.473,-36.621,-35.156,-26.367,48.828
1687767768.169,-197.754,-38.086,-30.273,-29.785,-64.941
1687767768.173,-209.961,-25.879,-25.391,-34.180,-2.441
1687767768.177,-211.914,-26.367,-28.809,-34.668,53.223
1687767768.181,-208.984,-32.715,-33.203,-32.227,-47.852
1687767768.185,-199.707,-29.297,-31.738,-28.809,-142.090
1687767768.188,-168.945,-29.297,-25.879,-19.531,92.773
1687767768.192,-182.617,-36.621,-36.133,-27.832,242.188
1687767768.196,-217.285,-30.273,-39.551,-45.410,-18.066
1687767768.200,-227.539,-24.902,-37.598,-49.805,-94.238
1687767768.204,-209.961,-20.996,-35.156,-32.715,-97.168
1687767768.205,-200.195,-22.461,-36.621,-30.273,-147.461
1687767768.209,-225.586,-32.715,-40.039,-54.199,-175.781
1687767768.213,-242.676,-30.762,-38.574,-56.152,-152.344
1687767768.217,-230.469,-30.273,-36.133,-50.293,-66.406
1687767768.221,-219.727,-25.879,-38.574,-48.340,-52.734
1687767768.225,-204.102,-18.555,-38.574,-38.574,-41.016
1687767768.229,-206.055,-23.926,-36.133,-37.109,32.227
1687767768.232,-222.168,-37.598,-40.039,-34.180,223.633
1687767768.236,-219.727,-32.715,-36.133,-35.156,153.809
1687767768.240,-207.520,-27.344,-33.691,-41.016,-156.738
1687767768.244,-194.336,-36.621,-39.551,-30.273,-129.883
1687767768.248,-187.012,-36.621,-41.992,-30.273,65.430
1687767768.250,-184.082,-31.738,-38.574,-45.898,-55.664
1687767768.254,-182.617,-32.227,-32.227,-43.945,-143.066
1687767768.258,-173.828,-32.227,-31.250,-34.180,-146.484
1687767768.262,-167.969,-38.086,-41.504,-38.086,-107.422
1687767768.266,-171.387,-27.832,-39.551,-44.922,-68.848
1687767768.270,-177.734,-20.508,-32.715,-52.246,-103.027
1687767768.274,-190.430,-32.715,-39.062,-51.758,115.234
1687767768.277,-193.359,-35.645,-37.109,-43.945,250.488
1687767768.281,-173.828,-23.438,-37.598,-53.223,-71.289
1687767768.285,-164.551,-22.949,-41.992,-44.922,-104.004
1687767768.289,-185.547,-37.598,-41.992,-35.156,92.773
1687767768.293,-199.219,-43.457,-31.250,-38.086,-27.344
1687767768.295,-170.410,-37.598,-24.902,-25.391,-226.074
1687767768.299,-145.508,-29.785,-37.598,-29.297,-160.156
1687767768.303,-162.598,-24.414,-42.480,-52.246,-45.410
1687767768.307,-187.988,-29.297,-46.875,-62.500,-93.750
1687767768.311,-195.312,-33.203,-56.641,-62.988,-199.707
1687767768.315,-181.641,-21.484,-53.711,-44.434,-45.898
1687767768.319,-165.039,-22.461,-53.223,-22.461,335.938
1687767768.322,-143.555,-27.344,-53.711,-24.902,204.590
1687767768.326,-139.160,-18.066,-55.664,-44.922,-111.816
1687767768.330,-161.621,-17.578,-63.965,-61.523,-24.902
1687767768.334,-156.250,-14.648,-62.988,-53.711,277.344
1687767768.338,-133.789,-13.184,-66.895,-49.805,97.656
1687767768.340,-125.488,-18.555,-70.312,-59.570,-106.934
1687767768.344,-134.766,-16.113,-66.406,-64.941,-84.961
1687767768.348,-156.738,-5.371,-64.941,-73.242,-105.469
1687767768.352,-149.414,-12.207,-66.895,-71.289,-142.578
1687767768.356,-123.535,-24.414,-70.312,-56.152,-168.945
1687767768.360,-114.746,-12.207,-71.289,-62.988,19.043
1687767768.364,-121.582,-6.348,-76.660,-73.242,90.332
1687767768.367,-134.277,-6.348,-80.566,-75.195,-123.535
1687767768.371,-153.809,-5.371,-80.566,-66.406,-198.730
1687767768.375,-153.320,3.906,-74.219,-47.852,-41.504
1687767768.379,-160.156,1.953,-76.172,-49.316,18.555
1687767768.383,-197.754,-2.930,-78.613,-52.246,-126.465
1687767768.400,-270.020,6.836,-67.383,-55.176,-177.734
1687767768.404,-325.684,6.348,-64.453,-72.266,-15.137
1687767768.408,-543.457,3.418,-69.336,-56.641,-39.551
1687767768.412,-938.965,7.812,-71.777,-38.574,-144.043
1687767768.416,-1000.000,0.977,-64.453,-50.781,-78.125
1687767768.420,-985.352,-12.207,-62.012,-60.059,46.875
1687767768.424,-1000.000,-5.371,-69.824,-66.895,12.695
1687767768.427,-1000.000,8.301,-67.383,-69.336,-103.027
1687767768.431,-1000.000,8.301,-60.547,-60.059,-121.094
1687767768.435,-1000.000,-1.953,-59.082,-44.922,138.184
1687767768.439,-1000.000,-11.230,-55.664,-49.805,115.723
1687767768.443,-1000.000,-7.812,-51.270,-51.758,-172.852
1687767768.445,-1000.000,-16.602,-58.594,-50.293,-73.242
1687767768.449,-1000.000,-18.555,-62.012,-44.922,196.289
1687767768.453,-1000.000,-5.371,-60.059,-58.105,-40.527
1687767768.457,-1000.000,-5.859,-55.176,-64.941,-181.641
1687767768.461,-1000.000,-6.836,-53.223,-70.312,-108.398
1687767768.465,-1000.000,-5.859,-56.152,-77.637,-81.543
1687767768.469,-1000.000,-10.254,-55.176,-70.312,-85.938
1687767768.472,-1000.000,-20.020,-56.641,-66.895,-173.828
1687767768.476,-1000.000,-21.484,-51.758,-64.941,-29.785
1687767768.480,-1000.000,-13.672,-48.340,-68.848,96.191
1687767768.484,-1000.000,-19.531,-53.223,-67.383,-123.535
1687767768.488,-1000.000,-23.926,-49.805,-46.387,-126.465
1687767768.490,-1000.000,-21.973,-53.223,-40.039,81.055
1687767768.494,-1000.000,-21.973,-53.711,-56.152,-24.414
1687767768.498,-1000.000,-19.043,-46.387,-63.965,-141.602
1687767768.502,-1000.000,-16.602,-46.875,-47.852,13.672
1687767768.506,-1000.000,-13.672,-46.875,-30.273,145.508
1687767768.510,-1000.000,-12.207,-42.480,-29.297,87.891
1687767768.514,-1000.000,-10.254,-39.062,-44.922,-23.926
1687767768.517,-1000.000,-6.836,-39.062,-36.621,-83.984
1687767768.521,-1000.000,-11.719,-45.898,-33.691,130.859
1687767768.525,-1000.000,-19.531,-47.363,-39.062,72.266
1687767768.529,-1000.000,-23.438,-43.457,-42.480,-160.645
1687767768.533,-1000.000,-16.113,-42.969,-41.992,-88.867
1687767768.550,-1000.000,-17.090,-42.480,-32.715,41.504
1687767768.554,-1000.000,-15.625,-39.062,-32.715,-29.297
1687767768.558,-1000.000,-20.508,-39.062,-37.109,-117.676
1687767768.562,-1000.000,-32.715,-42.969,-42.480,-98.145
1687767768.566,-1000.000,-23.438,-47.363,-45.410,-112.793
1687767768.570,-1000.000,-17.578,-50.781,-39.551,-150.879
1687767768.574,-1000.000,-21.484,-53.223,-39.551,-195.801
1687767768.577,-1000.000,-25.391,-46.875,-26.367,16.113
1687767768.581,-1000.000,-32.715,-38.574,-0.488,279.297
1687767768.585,-1000.000,-29.297,-38.086,-4.883,7.812
1687767768.589,-1000.000,-17.090,-32.227,-25.879,-203.613
1687767768.593,-1000.000,-18.066,-29.785,-32.715,-108.887
1687767768.580,-1000.000,-34.180,-41.504,-26.855,-90.332
1687767768.584,-1000.000,-26.855,-43.945,-21.973,-175.293
1687767768.588,-1000.000,-20.996,-41.992,-26.855,-186.523
1687767768.592,-1000.000,-24.414,-39.551,-30.273,-108.887
1687767768.596,-1000.000,-24.902,-35.156,-29.297,-99.609
1687767768.600,-1000.000,-31.250,-34.668,-13.672,-63.965
1687767768.604,-1000.000,-34.668,-38.086,-5.859,33.203
1687767768.607,-1000.000,-25.391,-38.574,-22.461,103.027
1687767768.611,-1000.000,-20.508,-34.180,-26.855,-31.250
1687767768.615,-1000.000,-28.809,-39.551,-35.156,-130.859
1687767768.619,-1000.000,-29.297,-39.551,-38.086,24.414
1687767768.623,-1000.000,-26.367,-35.156,-19.043,280.273
1687767768.625,-1000.000,-23.438,-32.715,-1.465,284.180
1687767768.629,-1000.000,-23.926,-23.926,-12.207,-76.172
1687767768.633,-1000.000,-31.250,-26.367,-22.949,-173.828
1687767768.637,-1000.000,-24.902,-29.785,-27.832,-123.047
1687767768.641,-1000.000,-25.879,-30.273,-17.090,-117.676
1687767768.645,-1000.000,-32.715,-30.273,-15.625,-105.469
1687767768.649,-1000.000,-30.762,-30.273,-25.391,-35.156
1687767768.652,-1000.000,-26.855,-30.273,-19.043,153.320
1687767768.656,-1000.000,-27.344,-28.809,-19.531,-47.852
1687767768.660,-1000.000,-37.109,-26.855,-22.949,-193.848
1687767768.664,-1000.000,-29.785,-22.949,-15.625,23.926
1687767768.668,-1000.000,-22.461,-20.508,-21.973,-48.340
1687767768.670,-1000.000,-20.020,-21.484,-33.203,-260.742
1687767768.674,-1000.000,-25.391,-22.461,-29.297,-209.473
1687767768.678,-1000.000,-29.785,-22.461,-23.438,-100.098
1687767768.682,-1000.000,-30.762,-28.809,-30.273,-122.070
1687767768.686,-1000.000,-29.785,-36.621,-40.527,-149.902
1687767768.690,-1000.000,-19.043,-36.621,-45.898,-43.457
1687767768.694,-1000.000,-20.996,-39.551,-37.109,202.148
1687767768.697,-1000.000,-31.250,-37.109,-26.367,64.941
1687767768.701,-1000.000,-31.738,-27.344,-25.391,-183.594
1687767768.705,-1000.000,-28.320,-26.855,-18.555,-123.535
1687767768.709,-1000.000,-27.832,-29.785,-28.809,-15.625
1687767768.713,-1000.000,-19.531,-26.855,-38.086,-79.102
1687767768.716,-1000.000,-21.973,-28.809,-25.391,-131.348
1687767768.720,-1000.000,-32.227,-30.273,-1.953,-61.523
1687767768.724,-1000.000,-23.438,-26.367,1.953,219.727
1687767768.728,-1000.000,-26.855,-31.250,-17.090,71.777
1687767768.732,-1000.000,-34.180,-33.203,-17.090,-178.711
1687767768.736,-1000.000,-29.297,-31.738,-7.812,-20.508
1687767768.740,-1000.000,-41.504,-37.109,-16.113,32.227
1687767768.743,-1000.000,-49.805,-37.598,-14.160,-119.629
1687767768.747,-1000.000,-40.039,-31.250,-1.953,-215.820
1687767768.751,-1000.000,-28.320,-25.879,-1.465,-24.902
1687767768.755,-1000.000,-18.555,-23.438,5.371,21.484
1687767768.759,-1000.000,-19.043,-23.926,0.977,-109.375
1687767768.778,-1000.000,-20.996,-22.949,-2.930,-77.148
1687767768.782,-1000.000,-21.973,-23.438,0.977,-89.844
1687767768.786,-1000.000,-28.320,-24.414,0.977,-68.359
1687767768.790,-1000.000,-24.902,-23.438,-2.930,-100.586
1687767768.794,-1000.000,-26.855,-21.484,1.465,-99.609
1687767768.798,-1000.000,-27.344,-17.578,19.531,209.473
1687767768.802,-1000.000,-23.926,-21.484,11.719,147.949
1687767768.805,-1000.000,-28.320,-22.461,-14.160,-124.512
1687767768.809,-1000.000,-23.438,-23.926,-19.531,-81.543
1687767768.813,-1000.000,-13.184,-25.391,0.000,207.520
1687767768.817,-1000.000,-16.602,-28.809,-8.301,156.738
1687767768.821,-1000.000,-15.137,-39.062,-40.527,-51.270
1687767768.820,-1000.000,-9.277,-50.781,-24.902,-37.109
1687767768.824,-1000.000,-8.789,-49.805,4.395,-67.383
1687767768.828,-1000.000,-22.949,-28.809,3.906,-102.051
1687767768.832,-1000.000,-34.668,-17.090,6.836,-136.230
1687767768.836,-1000.000,-41.016,-20.996,7.324,-31.738
1687767768.840,-1000.000,-50.781,-29.785,-11.230,133.301
1687767768.844,-1000.000,-61.035,-34.668,-13.184,-7.324
1687767768.847,-1000.000,-58.105,-33.203,4.883,-95.215
1687767768.851,-1000.000,-45.898,-31.738,-5.859,76.660
1687767768.855,-1000.000,-48.828,-29.297,-19.531,325.195
1687767768.859,-1000.000,-63.477,-32.715,-25.879,56.641
1687767768.863,-1000.000,-62.988,-34.180,-23.926,-184.082
1687767768.865,-1000.000,-66.895,-31.250,-24.414,-72.266
1687767768.869,-1000.000,-75.684,-28.809,-22.949,-83.984
1687767768.873,-1000.000,-70.801,-22.949,-23.438,-149.902
1687767768.877,-1000.000,-64.941,-24.902,-27.832,-158.203
1687767768.881,-1000.000,-76.660,-22.949,-26.855,-96.191
1687767768.885,-1000.000,-76.172,-21.484,-29.297,-16.113
1687767768.889,-1000.000,-65.430,-16.602,-32.227,-37.598
1687767768.892,-1000.000,-73.730,-12.207,-45.898,-9.766
1687767768.896,-1000.000,-85.449,-18.555,-43.945,217.285
1687767768.900,-1000.000,-87.402,-14.648,-40.039,154.785
1687767768.904,-1000.000,-87.891,-7.812,-45.410,-74.219
1687767768.908,-1000.000,-78.613,-4.395,-32.227,-81.055
1687767768.910,-1000.000,-62.500,4.883,-24.414,95.215
1687767768.914,-1000.000,-64.941,5.859,-36.621,9.277
1687767768.918,-1000.000,-74.219,3.418,-31.738,-122.070
1687767768.922,-1000.000,-82.031,4.883,-33.203,-123.535
1687767768.926,-1000.000,-81.055,7.812,-37.598,-108.398
1687767768.930,-1000.000,-81.055,9.766,-43.945,-62.500
1687767768.934,-1000.000,-80.078,2.930,-56.152,-32.227
1687767768.937,-1000.000,-68.848,0.977,-46.875,23.926
1687767768.941,-1000.000,-64.941,4.395,-34.668,112.305
1687767768.945,-1000.000,-63.965,6.836,-32.715,-33.203
1687767768.949,-1000.000,-59.570,13.184,-34.668,-116.211
1687767768.953,-1000.000,-66.406,11.230,-37.598,-83.008
1687767768.955,-1000.000,-68.359,8.789,-40.039,-114.258
1687767768.959,-1000.000,-62.988,0.488,-43.457,-194.824
1687767768.963,-1000.000,-58.105,-14.160,-26.855,-171.387
1687767768.967,-1000.000,-51.758,-12.207,-18.555,-116.211
1687767768.971,-1000.000,-58.594,-7.812,-27.832,-163.574
1687767768.975,-1000.000,-60.059,-9.277,-29.297,-127.930
1687767768.979,-1000.000,-63.477,-2.930,-28.320,-36.133
1687767768.982,-1000.000,-63.965,-0.977,-15.625,214.844
1687767768.986,-1000.000,-49.805,-9.766,-12.207,76.172
1687767768.990,-1000.000,-50.781,-15.625,-29.785,-139.648
1687767768.994,-1000.000,-58.594,-20.996,-46.387,4.883
1687767768.998,-1000.000,-55.664,-27.344,-37.109,92.285
1687767769.001,-1000.000,-51.758,-25.879,-21.484,21.484
1687767769.005,-1000.000,-50.293,-24.414,-22.461,-98.145
1687767769.009,-1000.000,-40.527,-15.625,-22.949,-90.332
1687767769.013,-1000.000,-38.086,-7.324,-20.996,-29.297
1687767769.017,-1000.000,-43.457,-17.578,-25.391,-62.012
1687767769.021,-1000.000,-44.922,-25.391,-25.391,-96.680
1687767769.025,-1000.000,-44.434,-23.926,-17.090,70.312
1687767769.028,-1000.000,-42.480,-23.926,-16.113,239.258
1687767769.032,-1000.000,-43.945,-21.973,-39.062,-3.418
1687767769.036,-1000.000,-38.574,-19.043,-35.156,-152.344
1687767769.040,-1000.000,-37.598,-28.809,-25.391,-91.309
1687767769.044,-1000.000,-38.574,-30.273,-20.020,-56.152
1687767769.046,-1000.000,-36.133,-24.414,-17.090,-131.348
1687767769.050,-1000.000,-38.086,-24.902,-27.832,-79.590
1687767769.054,-1000.000,-39.062,-24.414,-27.344,10.254
1687767769.058,-1000.000,-38.574,-22.461,-20.996,-107.910
1687767769.062,-1000.000,-35.156,-23.926,-15.625,-133.789
1687767769.066,-1000.000,-41.504,-30.273,-20.508,-28.320
1687767769.070,-1000.000,-55.176,-30.762,-24.902,305.176
1687767769.073,-1000.000,-41.016,-24.902,-23.926,148.438
1687767769.077,-1000.000,-30.273,-24.902,-23.926,-187.012
1687767769.081,-1000.000,-33.203,-29.785,-17.578,-109.375
1687767769.085,-1000.000,-32.715,-26.367,-15.137,71.777
1687767769.089,-1000.000,-38.574,-18.066,-16.602,-53.223
