timestamps,TP9,AF7,AF8,TP10,Right AUX
1687769793.517,-41.992,-47.852,-49.805,-45.898,-32.715
1687769793.521,-39.062,-40.527,-44.434,-48.828,-187.012
1687769793.525,-44.922,-39.551,-42.969,-43.457,-55.664
1687769793.529,-46.875,-44.922,-50.781,-30.273,119.141
1687769793.533,-43.457,-37.109,-47.363,-36.621,1.953
1687769793.537,-42.969,-35.645,-46.387,-49.805,-67.383
1687769793.541,-41.992,-52.246,-45.410,-53.223,58.105
1687769793.544,-44.922,-43.945,-48.340,-42.480,162.109
1687769793.548,-42.969,-34.668,-55.664,-26.855,50.781
1687769793.552,-40.527,-46.387,-49.805,-25.879,-82.520
1687769793.556,-41.016,-39.551,-37.598,-41.992,-90.820
1687769793.560,-39.062,-34.668,-38.574,-43.457,169.922
1687769793.562,-45.410,-49.316,-46.387,-49.805,-135.254
1687769793.566,-37.598,-54.688,-28.809,-41.992,-10.254
1687769793.570,-28.809,-28.809,-30.273,-24.414,127.441
1687769793.573,-38.086,-40.039,-39.062,-20.508,251.465
1687769793.577,-37.109,-50.781,-36.133,-36.621,-14.160
1687769793.581,-28.809,-39.062,-31.738,-50.781,-217.773
1687769793.585,-31.738,-44.434,-44.434,-45.410,-122.070
1687769793.589,-34.668,-43.457,-50.293,-36.621,-73.730
1687769793.604,-38.086,-47.363,-40.039,-31.250,-32.715
1687769793.608,-45.410,-50.781,-35.156,-50.293,-81.543
1687769793.612,-54.199,-47.852,-35.645,-56.152,-36.133
1687769793.616,-44.434,-36.621,-41.504,-37.598,-37.598
1687769793.620,-38.574,-34.180,-47.852,-26.855,-94.727
1687769793.624,-47.363,-44.434,-49.805,-26.855,41.504
1687769793.628,-45.410,-49.316,-54.199,-27.832,306.641
1687769793.631,-40.527,-43.945,-59.082,-45.410,199.219
1687769793.635,-32.227,-37.598,-53.223,-51.758,-119.141
1687769793.639,-25.879,-41.016,-44.922,-31.250,-119.141
1687769793.643,-31.738,-39.062,-37.598,-17.578,22.949
1687769793.647,-36.621,-35.156,-40.039,-28.320,-60.059
1687769793.631,-30.273,-35.645,-46.875,-45.898,-216.797
1687769793.635,-30.762,-31.738,-52.734,-43.457,-166.016
1687769793.639,-29.785,-28.320,-47.363,-27.832,52.734
1687769793.643,-28.809,-30.273,-43.457,-23.438,13.672
1687769793.647,-34.180,-22.949,-49.805,-35.645,-121.582
1687769793.651,-33.691,-26.367,-48.828,-41.992,-85.938
1687769793.655,-36.133,-42.969,-49.805,-31.738,272.949
1687769793.658,-41.992,-44.434,-50.781,-30.273,190.430
1687769793.662,-45.898,-44.434,-48.340,-31.250,-86.914
1687769793.666,-41.992,-37.598,-41.992,-35.156,-32.715
1687769793.670,-48.340,-27.832,-42.969,-54.688,-61.035
1687769793.674,-49.805,-24.902,-51.758,-54.688,-128.418
1687769793.679,-39.551,-21.484,-53.711,-34.668,-108.398
1687769793.683,-40.527,-29.297,-43.457,-25.391,15.137
1687769793.687,-39.551,-22.949,-35.645,-19.531,5.371
1687769793.691,-52.246,-22.949,-41.504,-27.832,-78.125
1687769793.695,-56.152,-36.133,-51.270,-34.668,-47.363
1687769793.699,-39.551,-38.086,-53.223,-25.391,53.223
1687769793.703,-38.574,-31.250,-41.016,-16.602,88.867
1687769793.706,-45.410,-25.391,-41.016,-22.949,-4.395
1687769793.710,-43.457,-30.273,-41.992,-39.062,-79.590
1687769793.714,-44.434,-44.922,-34.180,-44.434,111.328
1687769793.718,-47.363,-44.922,-40.527,-39.062,58.105
1687769793.722,-42.480,-41.504,-45.898,-31.250,-49.316
1687769793.737,-42.480,-39.551,-52.246,-27.344,-17.090
1687769793.741,-42.480,-33.691,-49.805,-30.762,54.688
1687769793.745,-45.898,-41.016,-50.781,-41.992,22.461
1687769793.749,-54.199,-33.691,-49.316,-50.293,-99.121
1687769793.753,-47.852,-36.133,-32.715,-35.645,-12.207
1687769793.757,-53.223,-50.781,-36.133,-29.297,226.074
1687769793.761,-70.801,-49.316,-58.105,-54.199,144.043
1687769793.764,-65.918,-52.246,-51.758,-66.406,-102.051
1687769793.768,-54.199,-51.758,-40.039,-52.246,-102.051
1687769793.772,-48.340,-34.668,-56.152,-37.598,57.617
1687769793.776,-45.898,-41.504,-47.363,-31.250,-19.043
1687769793.780,-50.293,-44.434,-27.344,-46.387,-99.609
1687769793.781,-49.805,-30.762,-32.715,-68.359,-38.574
1687769793.785,-43.457,-32.715,-43.945,-58.594,21.484
1687769793.789,-41.504,-41.016,-36.621,-43.457,-59.082
1687769793.793,-39.551,-46.387,-32.715,-42.969,-94.727
1687769793.797,-44.922,-40.527,-38.574,-49.805,90.820
1687769793.801,-60.059,-42.480,-41.016,-68.848,103.516
1687769793.805,-57.617,-41.992,-43.945,-79.102,-20.020
1687769793.808,-43.945,-34.180,-54.199,-63.477,-8.789
1687769793.812,-40.527,-39.062,-52.246,-45.898,217.285
1687769793.816,-46.387,-52.734,-40.039,-58.105,198.730
1687769793.820,-44.434,-38.574,-35.156,-61.035,-80.566
1687769793.824,-35.645,-40.039,-35.645,-53.711,-114.258
1687769793.827,-39.551,-65.918,-54.688,-55.664,-26.855
1687769793.831,-40.039,-56.641,-59.082,-37.109,-21.973
1687769793.835,-38.574,-57.129,-43.457,-42.480,-20.996
1687769793.839,-43.457,-56.152,-42.480,-61.523,75.195
1687769793.843,-35.156,-35.156,-44.922,-51.270,234.863
1687769793.847,-34.668,-35.645,-45.898,-47.852,151.855
1687769793.851,-35.156,-39.551,-40.039,-44.434,-18.066
1687769793.854,-24.902,-42.480,-41.992,-47.852,-20.508
1687769793.858,-20.020,-47.363,-42.969,-57.129,41.504
1687769793.862,-23.926,-32.227,-47.363,-69.824,-132.812
1687769793.866,-17.578,-23.438,-53.711,-52.246,-131.836
1687769793.870,-15.137,-38.086,-51.270,-32.715,17.090
1687769793.871,-25.391,-44.434,-45.410,-48.340,43.945
1687769793.875,-27.832,-49.316,-39.062,-61.035,-95.215
1687769793.879,-28.809,-50.293,-45.410,-54.199,-84.961
1687769793.883,-21.973,-39.062,-49.805,-32.227,-4.395
1687769793.887,-20.020,-40.527,-49.316,-23.926,-27.832
1687769793.891,-27.832,-53.711,-48.828,-31.250,47.363
1687769793.895,-25.879,-49.316,-50.781,-42.480,53.711
1687769793.898,-22.461,-43.457,-60.547,-42.969,184.570
1687769793.902,-20.996,-49.316,-64.453,-29.297,232.910
1687769793.906,-19.043,-51.270,-54.199,-20.020,-10.742
1687769793.910,-27.344,-48.340,-35.156,-24.902,-132.812
1687769793.914,-28.809,-48.340,-33.203,-34.668,-130.371
1687769793.917,-20.996,-31.250,-29.785,-34.668,-134.766
1687769793.921,-20.508,-27.832,-27.344,-31.250,-208.984
1687769793.925,-25.879,-34.180,-41.016,-27.344,13.184
1687769793.929,-28.320,-36.133,-58.105,-30.273,165.039
1687769793.933,-26.855,-46.875,-70.801,-36.133,-66.406
1687769793.937,-28.809,-47.363,-53.223,-48.340,-141.113
1687769793.941,-33.691,-41.992,-40.527,-53.711,54.199
1687769793.944,-33.691,-44.922,-48.828,-35.645,102.051
1687769793.948,-22.461,-32.715,-54.199,-18.066,0.977
1687769793.952,-13.672,-32.227,-48.828,-20.996,-51.758
1687769793.956,-21.484,-43.945,-28.320,-27.832,6.836
1687769793.960,-29.297,-43.457,-23.438,-25.879,221.680
1687769793.963,-40.039,-53.223,-32.227,-39.062,31.738
1687769793.967,-41.992,-55.176,-40.039,-37.598,-102.051
1687769793.971,-55.176,-45.898,-39.062,-42.969,31.250
1687769793.975,-89.844,-45.410,-34.668,-60.547,-32.715
1687769793.979,-96.191,-45.410,-47.363,-53.711,-160.156
1687769793.983,-83.496,-52.734,-47.363,-39.551,-73.730
1687769793.987,-79.102,-56.641,-54.199,-27.344,306.152
1687769793.990,-68.359,-49.316,-69.336,-35.645,206.543
1687769793.994,-49.805,-41.504,-56.152,-51.270,-171.387
1687769793.998,-46.387,-45.898,-37.598,-47.852,-186.035
1687769794.002,-46.387,-67.871,-37.109,-25.879,-44.922
1687769794.006,-37.598,-59.082,-42.480,-11.230,48.828
1687769794.007,-42.480,-37.598,-49.805,-28.320,-61.523
1687769794.011,-42.969,-35.156,-62.988,-48.828,-51.758
1687769794.015,-27.832,-38.086,-63.965,-41.504,191.406
1687769794.019,-21.484,-42.969,-54.199,-33.203,56.152
1687769794.023,-11.719,-42.480,-48.828,-27.832,-91.309
1687769794.027,-14.648,-37.598,-57.617,-46.875,112.305
1687769794.031,-22.949,-37.109,-63.965,-63.477,315.918
1687769794.034,-18.555,-38.086,-62.500,-50.781,41.992
1687769794.038,-19.531,-43.945,-63.965,-43.945,-116.211
1687769794.042,-22.461,-50.781,-49.805,-39.551,6.348
1687769794.046,-17.578,-54.199,-43.457,-33.203,33.691
1687769794.050,-14.648,-47.363,-56.152,-43.457,-69.336
1687769794.055,-15.625,-33.203,-60.059,-57.617,-106.445
1687769794.059,-27.344,-24.414,-62.500,-50.781,75.684
1687769794.063,-24.902,-28.809,-56.152,-27.344,39.551
1687769794.067,-21.484,-40.527,-41.992,-31.738,-161.133
1687769794.071,-26.855,-38.574,-45.898,-49.316,-117.676
1687769794.075,-18.066,-22.949,-61.523,-40.527,99.121
1687769794.079,-22.461,-35.156,-69.824,-31.738,103.027
1687769794.082,-27.832,-43.457,-57.617,-33.203,-39.062
1687769794.086,-22.949,-41.016,-51.270,-30.273,-19.043
1687769794.090,-37.109,-35.156,-58.594,-40.527,173.340
1687769794.094,-43.945,-32.715,-50.293,-64.941,46.875
1687769794.098,-34.668,-33.691,-47.363,-59.570,-106.445
1687769794.112,-27.832,-34.180,-53.223,-36.133,-31.738
1687769794.116,-23.926,-31.250,-45.410,-27.344,46.387
1687769794.120,-32.715,-31.738,-49.805,-42.480,32.227
1687769794.124,-41.992,-40.039,-64.941,-56.641,-62.500
1687769794.128,-43.457,-41.016,-63.477,-50.781,-17.090
1687769794.132,-47.363,-36.133,-53.223,-25.391,424.316
1687769794.136,-46.387,-34.180,-57.617,-30.762,381.836
1687769794.139,-41.016,-31.738,-53.711,-51.270,-97.168
1687769794.143,-45.898,-35.156,-45.898,-50.781,-115.234
1687769794.147,-50.293,-46.387,-50.293,-57.617,-68.359
1687769794.151,-38.574,-61.523,-44.434,-51.758,-113.770
1687769794.155,-43.945,-51.758,-39.551,-40.527,-75.684
1687769794.157,-49.805,-20.996,-43.945,-56.641,-47.363
1687769794.161,-47.852,-19.531,-48.340,-74.219,-169.922
1687769794.165,-44.434,-36.133,-54.688,-74.707,-229.980
1687769794.169,-28.320,-36.621,-63.965,-55.664,-128.906
1687769794.173,-36.133,-35.156,-64.453,-45.898,47.852
1687769794.177,-45.410,-41.016,-62.012,-51.758,43.457
1687769794.181,-45.898,-38.574,-59.570,-68.848,-77.148
1687769794.184,-47.852,-38.574,-54.199,-70.801,-59.082
1687769794.188,-46.387,-56.152,-51.758,-47.363,211.914
1687769794.192,-50.293,-65.918,-48.828,-41.016,311.035
1687769794.196,-54.688,-41.992,-42.480,-54.688,4.883
1687769794.200,-62.012,-24.902,-51.758,-63.477,-78.125
1687769794.204,-54.688,-27.344,-55.176,-67.871,-41.504
1687769794.208,-41.016,-37.598,-41.016,-52.734,-77.637
1687769794.212,-41.016,-44.434,-41.504,-34.668,-3.418
1687769794.216,-41.992,-38.574,-49.805,-35.645,-12.207
1687769794.220,-43.945,-27.344,-62.988,-49.316,-41.504
1687769794.224,-48.828,-37.109,-43.945,-56.641,-34.668
1687769794.228,-52.246,-43.945,-41.016,-45.410,-52.246
1687769794.231,-55.176,-34.668,-56.641,-30.273,42.480
1687769794.235,-55.176,-49.316,-34.180,-15.137,336.914
1687769794.239,-63.965,-54.688,-33.203,-43.945,50.781
1687769794.243,-72.266,-48.340,-50.293,-60.547,-242.188
1687769794.247,-76.660,-39.062,-46.875,-44.434,-76.660
1687769794.248,-86.426,-44.434,-53.223,-40.039,-39.551
1687769794.252,-92.773,-53.711,-61.035,-35.156,-107.422
1687769794.256,-88.867,-49.316,-41.504,-44.922,-73.730
1687769794.260,-83.008,-47.363,-39.062,-60.547,-75.195
1687769794.264,-73.242,-45.410,-42.480,-54.199,-25.879
1687769794.268,-54.688,-39.551,-45.898,-29.297,0.488
1687769794.272,-54.688,-47.363,-56.152,-27.832,28.809
1687769794.275,-51.270,-62.012,-46.875,-43.945,282.715
1687769794.279,-46.875,-49.316,-53.223,-48.340,159.668
1687769794.283,-44.434,-34.180,-56.152,-43.457,-164.551
1687769794.287,-33.203,-41.504,-33.691,-24.414,-24.414
1687769794.291,-37.598,-35.156,-33.203,-11.230,153.320
1687769794.291,-58.594,-45.898,-51.758,-51.270,-24.414
1687769794.295,-58.105,-63.965,-62.500,-76.172,-205.566
1687769794.299,-49.316,-47.363,-52.246,-62.500,-53.711
1687769794.303,-50.781,-45.410,-46.875,-55.664,-15.625
1687769794.307,-44.434,-47.852,-58.105,-39.551,-136.230
1687769794.311,-45.410,-41.016,-64.941,-40.527,-56.641
1687769794.315,-46.387,-41.992,-62.500,-54.688,46.875
1687769794.318,-37.109,-45.898,-66.406,-42.480,260.742
1687769794.322,-32.715,-39.551,-67.871,-28.809,140.137
1687769794.326,-31.250,-39.551,-50.293,-23.438,-83.496
1687769794.330,-33.691,-46.875,-48.828,-32.227,-98.145
1687769794.334,-43.457,-38.086,-61.523,-48.340,-93.750
1687769794.339,-37.598,-34.180,-53.223,-38.086,-84.473
1687769794.343,-39.062,-50.293,-50.293,-25.391,-109.375
1687769794.347,-47.363,-52.246,-53.711,-31.250,1.465
1687769794.351,-41.504,-36.133,-42.480,-32.715,-22.461
1687769794.355,-35.645,-33.691,-39.551,-36.621,-153.320
1687769794.359,-35.156,-32.227,-48.340,-47.852,-12.207
1687769794.363,-30.273,-27.832,-50.781,-30.762,279.785
1687769794.366,-33.203,-27.344,-47.363,-11.719,207.520
1687769794.370,-41.992,-28.809,-48.828,-27.344,-91.797
1687769794.374,-38.086,-42.969,-49.805,-40.039,-185.547
1687769794.378,-19.043,-45.898,-63.477,-35.645,-128.906
1687769794.382,-20.020,-36.133,-73.242,-27.832,-70.312
1687769794.397,-33.203,-32.227,-74.219,-28.320,-50.781
1687769794.401,-47.852,-27.832,-65.430,-40.039,-10.742
1687769794.405,-57.129,-33.203,-58.594,-63.477,46.387
1687769794.409,-51.758,-30.762,-68.359,-72.754,46.875
1687769794.413,-54.688,-18.066,-70.312,-75.195,-70.312
1687769794.417,-44.434,-13.672,-65.430,-55.664,22.949
1687769794.421,-47.363,-11.719,-56.641,-54.688,382.812
1687769794.424,-61.035,-21.484,-66.406,-88.867,206.055
1687769794.428,-49.805,-21.484,-76.660,-83.496,-157.227
1687769794.432,-37.598,-12.207,-60.059,-70.312,-111.328
1687769794.436,-47.852,-20.508,-58.594,-80.078,-88.867
1687769794.440,-64.941,-15.625,-69.824,-88.867,-42.969
1687769794.429,-52.734,-2.930,-77.637,-98.145,-36.621
1687769794.433,-43.457,2.930,-75.684,-105.957,-66.895
1687769794.437,-44.922,-2.441,-72.754,-94.238,-80.566
1687769794.441,-37.109,3.418,-72.266,-75.195,-96.191
1687769794.445,-40.039,0.000,-72.754,-84.961,-42.969
1687769794.449,-43.457,-9.277,-77.637,-90.820,84.961
1687769794.453,-38.086,9.277,-75.684,-87.891,72.266
1687769794.456,-38.574,7.812,-82.031,-96.191,2.930
1687769794.460,-36.621,-4.883,-72.754,-84.473,-49.805
1687769794.464,-27.832,-11.719,-56.641,-61.035,201.172
1687769794.468,-20.508,-3.906,-56.641,-61.523,222.656
1687769794.472,-14.160,-0.488,-56.641,-69.824,-60.547
1687769794.487,1.953,-6.836,-57.617,-59.082,-57.129
1687769794.491,4.883,-5.371,-61.523,-49.805,-21.484
1687769794.495,-8.301,-20.020,-68.359,-43.457,50.293
1687769794.499,-6.836,-20.020,-72.266,-40.527,-48.828
1687769794.503,5.859,-9.766,-73.242,-44.922,-37.109
1687769794.507,13.184,-32.715,-67.871,-31.738,218.262
1687769794.511,9.766,-41.504,-64.453,-22.461,93.262
1687769794.514,-0.977,-21.484,-56.641,-20.508,-44.922
1687769794.518,-2.441,-21.973,-49.805,-24.414,74.219
1687769794.522,-4.883,-39.062,-58.594,-30.762,178.223
1687769794.526,-9.277,-41.504,-60.547,-32.227,-39.551
1687769794.530,-16.113,-27.344,-59.082,-17.090,-104.004
1687769794.531,-15.137,-28.320,-74.219,-0.977,-31.250
1687769794.535,-24.902,-41.504,-77.637,-22.949,-55.176
1687769794.539,-29.785,-39.062,-49.316,-42.969,-90.332
1687769794.543,-16.113,-34.668,-43.945,-39.551,-80.566
1687769794.547,-20.996,-50.781,-64.453,-40.039,-57.129
1687769794.551,-27.832,-52.734,-40.527,-36.621,28.809
1687769794.555,-24.902,-44.434,-35.645,-35.645,23.438
1687769794.558,-32.715,-44.434,-49.316,-41.504,-44.922
1687769794.562,-29.297,-46.875,-41.504,-33.203,103.027
1687769794.566,-19.043,-53.711,-46.875,-27.344,122.559
1687769794.570,-23.926,-57.129,-48.340,-13.672,-77.148
1687769794.574,-26.855,-52.246,-45.410,-17.578,-60.059
1687769794.577,-29.297,-42.969,-39.551,-32.715,57.617
1687769794.581,-30.762,-29.785,-30.762,-29.785,-62.988
1687769794.585,-23.438,-42.969,-39.062,-20.508,-82.031
1687769794.589,-19.043,-52.734,-56.641,-2.930,41.504
1687769794.593,-24.902,-36.621,-60.059,-4.883,159.668
1687769794.597,-28.320,-27.344,-47.852,-35.645,34.668
1687769794.601,-31.250,-18.066,-47.363,-64.453,-38.574
1687769794.604,-32.715,-11.719,-64.941,-65.430,93.750
1687769794.608,-22.461,-17.578,-59.082,-34.668,292.480
1687769794.612,-17.578,-11.719,-56.641,-41.504,70.801
1687769794.616,-23.926,2.441,-65.430,-62.012,-138.184
1687769794.620,-38.574,0.977,-47.363,-71.289,-69.824
1687769794.641,-38.574,-5.859,-37.109,-72.266,-15.625
1687769794.645,-41.504,-12.695,-34.668,-55.176,-115.234
1687769794.649,-62.988,-18.066,-34.668,-39.062,-86.426
1687769794.653,-75.684,-3.906,-30.762,-44.434,79.102
1687769794.657,-74.707,-0.488,-26.855,-59.570,-22.949
1687769794.661,-73.730,-12.695,-23.926,-52.734,-34.668
1687769794.665,-68.359,-10.254,-25.391,-42.969,119.629
1687769794.668,-103.516,-6.348,-37.109,-45.410,267.578
1687769794.672,-163.086,-6.348,-29.785,-44.922,151.367
1687769794.676,-202.148,-9.766,-28.320,-56.152,-130.371
1687769794.680,-197.266,-16.113,-44.434,-61.035,-92.773
1687769794.684,-161.621,-18.555,-41.504,-46.387,-11.230
1687769794.668,-128.418,-19.043,-39.062,-37.598,-12.207
1687769794.672,-105.469,-25.391,-34.668,-39.062,-63.477
1687769794.676,-95.215,-27.832,-27.832,-41.504,-74.219
1687769794.680,-90.332,-30.273,-40.527,-40.527,32.715
1687769794.684,-75.684,-31.250,-44.922,-25.391,8.789
1687769794.688,-64.941,-32.715,-37.598,-17.578,15.625
1687769794.692,-93.262,-41.992,-44.434,-29.785,109.375
1687769794.695,-125.488,-37.598,-61.035,-44.922,36.621
1687769794.699,-125.488,-31.738,-52.246,-43.457,-85.938
1687769794.703,-125.488,-37.598,-54.199,-28.320,-153.809
1687769794.707,-136.719,-39.062,-49.805,-20.020,-34.180
1687769794.711,-151.367,-32.227,-38.574,-17.578,349.121
1687769794.713,-172.363,-25.391,-52.734,-39.551,355.469
1687769794.717,-181.152,-36.133,-47.852,-52.734,-44.922
1687769794.721,-187.988,-45.410,-30.762,-39.062,-90.332
1687769794.725,-187.012,-33.203,-45.410,-33.203,-42.969
1687769794.729,-179.688,-26.855,-52.734,-34.668,-93.262
1687769794.733,-176.758,-36.621,-42.969,-47.363,-71.777
1687769794.737,-177.246,-43.457,-51.270,-43.457,162.109
1687769794.740,-171.875,-38.574,-56.641,-27.832,297.363
1687769794.744,-152.344,-25.879,-52.246,-34.180,23.438
1687769794.748,-123.047,-26.855,-52.734,-41.504,-78.125
1687769794.752,-97.656,-40.527,-40.039,-49.805,-103.516
1687769794.756,-84.473,-40.527,-47.852,-57.129,-176.270
1687769794.757,-62.500,-19.043,-63.477,-47.363,-146.973
1687769794.761,-37.598,-18.066,-52.246,-29.785,-45.898
1687769794.765,-25.879,-26.367,-48.340,-27.832,28.320
1687769794.769,-22.949,-19.531,-49.805,-45.898,-59.570
1687769794.773,-22.949,-23.438,-46.387,-64.453,-123.047
1687769794.777,-17.578,-30.762,-48.340,-51.270,-17.090
1687769794.781,-11.230,-30.762,-41.992,-28.320,424.316
1687769794.784,-13.672,-36.133,-42.480,-33.691,302.734
1687769794.788,-1.953,-40.039,-42.480,-39.551,-131.836
1687769794.792,10.254,-35.645,-36.621,-42.480,-100.098
1687769794.796,14.648,-31.738,-42.480,-44.434,-45.898
1687769794.800,25.391,-31.250,-47.852,-21.973,-139.160
1687769794.808,26.367,-20.508,-43.945,-16.602,-90.332
1687769794.812,20.508,-25.391,-39.551,-46.387,-59.570
1687769794.816,23.926,-33.203,-28.809,-60.547,-154.297
1687769794.820,29.297,-22.461,-20.508,-47.363,-164.062
1687769794.824,24.902,-28.809,-32.715,-33.691,-68.359
1687769794.828,27.832,-20.996,-25.391,-27.344,71.777
1687769794.832,22.461,-11.719,-28.320,-42.969,48.340
1687769794.835,16.602,-34.180,-26.855,-61.523,-102.539
1687769794.839,26.855,-35.156,-37.598,-54.688,-140.137
1687769794.843,27.832,-33.691,-59.570,-25.391,194.824
1687769794.847,19.043,-28.320,-31.738,-20.996,233.398
1687769794.851,19.043,-15.625,-11.230,-40.527,-29.785
1687769794.861,11.719,-16.602,-30.762,-62.012,-109.375
1687769794.865,10.254,-23.926,-34.180,-59.082,-79.102
1687769794.869,17.578,-26.367,-27.832,-33.203,-14.648
1687769794.873,20.020,-22.949,-40.527,-30.762,-49.316
1687769794.877,23.926,-23.926,-44.922,-38.086,5.859
1687769794.881,20.020,-23.438,-42.480,-39.551,234.863
1687769794.885,24.414,-24.414,-33.203,-41.504,46.875
1687769794.888,27.344,-40.527,-39.551,-31.250,-132.324
1687769794.892,17.090,-52.246,-44.922,-24.902,-16.602
1687769794.896,-2.441,-40.527,-38.086,-32.715,104.004
1687769794.900,-20.508,-30.273,-39.062,-46.387,-39.551
1687769794.904,-33.691,-38.574,-44.434,-41.016,-156.738
1687769794.907,-48.340,-34.180,-28.809,-29.785,-36.621
1687769794.911,-62.988,-31.250,-30.762,-38.574,-42.480
1687769794.915,-66.895,-34.668,-35.645,-44.434,-158.203
1687769794.919,-63.965,-38.574,-31.738,-50.293,-179.688
1687769794.923,-76.172,-36.133,-44.434,-58.594,-163.086
1687769794.927,-87.402,-26.855,-47.852,-50.781,-29.297
1687769794.931,-90.332,-31.250,-47.363,-38.086,17.578
1687769794.934,-80.078,-36.133,-41.016,-36.133,-78.613
1687769794.938,-67.871,-31.250,-40.039,-48.340,46.387
1687769794.942,-67.871,-36.133,-56.152,-59.570,30.762
1687769794.946,-62.012,-40.527,-59.570,-51.758,-107.910
1687769794.950,-49.316,-28.320,-45.410,-33.691,-71.777
1687769794.967,-57.617,-31.738,-53.711,-45.410,-13.672
1687769794.971,-67.383,-36.133,-68.359,-61.523,-74.707
1687769794.975,-60.059,-32.227,-64.941,-62.012,-68.848
1687769794.979,-41.504,-43.457,-49.316,-49.316,23.438
1687769794.983,-22.949,-43.457,-41.504,-21.973,227.051
1687769794.987,-23.926,-37.598,-61.523,-28.320,196.289
1687769794.991,-21.973,-43.945,-62.500,-52.734,-40.527
1687769794.994,-16.113,-44.922,-44.434,-58.594,-12.695
1687769794.998,-10.742,-48.340,-48.340,-50.293,208.984
1687769795.002,-2.930,-45.898,-52.734,-43.945,51.270
1687769795.006,3.418,-43.457,-45.898,-27.832,-79.590
1687769795.010,11.230,-48.828,-30.273,-20.996,-22.949
1687769794.998,11.230,-48.340,-39.551,-39.062,-57.617
1687769795.002,6.836,-38.574,-50.781,-41.016,-106.934
1687769795.006,8.301,-27.832,-36.621,-28.809,-67.383
1687769795.010,3.418,-35.645,-33.203,-35.156,-32.227
1687769795.014,-3.418,-35.645,-37.109,-40.527,-10.742
1687769795.018,5.859,-39.551,-31.738,-41.992,-19.043
1687769795.022,20.508,-29.785,-33.691,-40.527,33.691
1687769795.025,25.879,-22.461,-60.547,-30.273,153.320
1687769795.029,19.043,-21.484,-54.688,-29.297,17.090
1687769795.033,4.395,-14.648,-38.574,-46.875,-69.824
1687769795.037,-6.348,-29.297,-46.387,-62.988,-95.703
1687769795.041,-6.836,-47.852,-47.363,-58.594,127.930
1687769795.042,-13.672,-45.410,-44.922,-43.945,168.945
1687769795.046,-17.090,-40.527,-53.223,-48.340,-23.926
1687769795.050,-15.625,-38.086,-66.895,-68.359,-20.020
1687769795.054,-18.066,-40.527,-70.312,-77.637,-35.645
1687769795.058,-13.672,-41.504,-56.641,-63.965,-72.754
1687769795.062,0.488,-33.691,-33.203,-41.992,-34.180
1687769795.066,4.395,-38.574,-39.062,-37.109,73.242
1687769795.069,-7.812,-51.758,-57.129,-45.410,326.660
1687769795.073,-13.184,-45.898,-59.082,-62.988,260.254
1687769795.077,-6.348,-46.387,-59.082,-69.824,-70.312
1687769795.081,-10.742,-50.781,-51.758,-53.223,-117.676
1687769795.085,-14.160,-41.504,-44.922,-35.645,-63.477
1687769795.088,-12.695,-38.574,-49.316,-34.180,-74.219
1687769795.092,-8.301,-33.203,-37.598,-39.551,-117.676
1687769795.096,-16.113,-39.062,-47.852,-47.852,-85.938
1687769795.100,-18.555,-42.969,-73.242,-49.805,-57.129
1687769795.104,-11.719,-33.691,-49.805,-37.598,-106.934
1687769795.108,-6.836,-39.551,-25.391,-31.738,16.113
1687769795.112,-10.742,-37.598,-26.367,-35.156,332.520
1687769795.115,-9.766,-18.066,-33.203,-38.574,156.250
1687769795.119,-2.441,-33.691,-43.945,-38.086,-88.867
1687769795.123,-12.207,-54.688,-46.387,-24.902,95.215
1687769795.127,-14.160,-29.297,-51.758,-29.785,202.148
1687769795.131,-3.418,-7.812,-53.223,-39.551,-60.059
1687769795.132,-10.742,-22.949,-40.527,-53.711,-183.594
1687769795.136,-15.137,-40.527,-34.668,-48.340,-77.637
1687769795.140,-9.766,-32.715,-62.988,-31.250,21.484
1687769795.144,-8.301,-23.438,-61.523,-37.109,-35.645
1687769795.148,-13.672,-21.973,-43.457,-58.594,-143.066
1687769795.152,-17.578,-23.926,-51.758,-54.688,-2.441
1687769795.156,-16.602,-30.762,-53.223,-32.227,329.102
1687769795.159,-10.742,-37.109,-45.898,-37.109,122.559
1687769795.163,-12.695,-41.016,-49.316,-37.598,-134.277
1687769795.167,-13.672,-29.785,-50.781,-38.086,-69.336
1687769795.171,-7.812,-25.391,-54.199,-43.945,-64.453
1687769795.175,-16.113,-30.762,-54.199,-41.504,-44.434
1687769795.194,-23.438,-39.551,-49.805,-35.156,-76.172
1687769795.198,-27.344,-35.156,-62.012,-27.832,-47.852
1687769795.202,-36.621,-32.227,-53.711,-37.109,0.000
1687769795.206,-40.039,-32.715,-34.180,-47.363,-82.520
1687769795.210,-59.082,-33.691,-41.504,-53.223,-98.633
1687769795.214,-62.988,-39.062,-52.246,-38.574,97.168
1687769795.218,-25.391,-35.156,-43.945,7.324,168.457
1687769795.221,-6.348,-36.133,-36.133,10.742,-28.320
1687769795.225,-43.945,-53.711,-24.902,-28.809,-102.539
1687769795.229,-74.219,-68.359,-22.461,-36.133,122.070
1687769795.233,-73.242,-75.195,-28.320,-25.879,25.391
1687769795.237,-76.172,-75.684,-29.785,-21.973,-106.445
1687769795.238,-91.797,-92.285,-37.598,-45.898,-97.168
1687769795.242,-97.656,-103.516,-24.902,-73.730,-64.453
1687769795.246,-120.605,-107.422,-18.066,-77.148,-13.672
1687769795.250,-137.207,-129.395,-32.715,-75.195,-86.914
1687769795.254,-133.789,-142.578,-35.156,-60.059,-7.324
1687769795.258,-164.551,-146.484,-36.621,-59.082,224.121
1687769795.262,-179.688,-154.785,-41.016,-69.336,79.102
1687769795.265,-169.922,-155.273,-42.969,-73.242,-123.047
1687769795.269,-156.738,-156.738,-42.480,-49.805,-46.387
1687769795.273,-153.320,-162.598,-27.344,-13.184,251.465
1687769795.277,-161.133,-159.180,-32.227,-33.203,108.887
1687769795.281,-149.902,-145.996,-41.504,-60.547,-106.934
1687769795.284,-140.625,-149.902,-31.738,-62.012,-6.836
1687769795.288,-129.883,-149.414,-30.273,-56.152,22.461
1687769795.292,-117.188,-136.719,-29.785,-32.715,-56.152
1687769795.296,-114.258,-147.949,-36.621,-33.691,-40.527
1687769795.300,-110.840,-152.344,-47.363,-41.992,22.949
1687769795.304,-117.188,-146.973,-47.363,-43.945,56.641
1687769795.308,-105.957,-146.973,-50.293,-36.621,82.031
1687769795.311,-97.168,-146.484,-51.270,-27.344,-10.742
1687769795.315,-96.191,-137.207,-35.156,-21.973,102.051
1687769795.319,-88.867,-126.465,-35.645,-28.809,75.684
1687769795.323,-77.148,-118.652,-47.363,-40.527,-154.785
1687769795.327,-75.195,-114.258,-46.875,-28.809,-164.551
1687769795.327,-76.172,-115.234,-37.109,-12.207,108.887
1687769795.331,-76.172,-117.676,-39.551,-20.020,89.844
1687769795.335,-68.359,-111.816,-41.504,-29.785,-61.523
1687769795.339,-61.523,-110.352,-32.227,-35.645,-27.344
1687769795.343,-59.570,-102.539,-33.203,-28.320,110.352
1687769795.347,-48.828,-94.238,-38.086,-9.766,51.270
1687769795.351,-41.016,-90.332,-38.574,-5.371,-61.035
1687769795.354,-39.551,-82.031,-35.156,-15.625,15.625
1687769795.358,-33.203,-74.707,-33.203,-17.090,253.418
1687769795.362,-25.879,-72.266,-39.551,-17.090,51.758
1687769795.366,-21.973,-76.660,-45.410,-4.883,-155.762
1687769795.370,-20.508,-72.754,-44.434,1.465,-47.363
1687769795.388,-31.250,-63.965,-41.992,-20.508,-82.031
1687769795.392,-24.902,-53.711,-37.109,-24.902,-209.473
1687769795.396,-7.324,-52.246,-40.527,-8.789,-216.309
1687769795.400,-11.719,-58.105,-33.203,2.930,-69.824
1687769795.404,-19.043,-58.594,-23.438,3.906,-46.387
1687769795.408,-28.320,-53.223,-40.527,-6.836,-33.203
1687769795.412,-36.133,-51.270,-36.133,-19.043,66.406
1687769795.415,-29.297,-52.734,-21.973,-13.184,176.758
1687769795.419,-24.414,-47.852,-27.344,-0.977,87.891
1687769795.423,-34.668,-51.758,-34.668,-5.371,-61.523
1687769795.427,-33.203,-57.617,-24.414,-10.254,-133.301
1687769795.431,-37.109,-48.340,-23.438,-25.879,121.582
1687769795.419,-47.852,-45.410,-34.668,-34.668,87.402
1687769795.423,-47.363,-46.875,-33.203,-21.973,-128.906
1687769795.427,-58.594,-53.223,-39.062,-13.184,-60.547
1687769795.431,-69.824,-61.523,-48.340,-20.508,-23.926
1687769795.435,-69.824,-60.059,-38.574,-29.297,-130.859
1687769795.439,-78.125,-60.059,-38.086,-30.273,-137.207
1687769795.443,-78.125,-51.270,-40.039,-10.742,80.078
1687769795.446,-70.801,-42.480,-36.133,13.184,205.078
1687769795.450,-86.914,-49.316,-40.039,-11.230,-50.781
1687769795.454,-121.582,-52.734,-36.621,-51.758,-236.816
1687769795.458,-143.555,-65.918,-51.758,-62.988,-41.992
1687769795.462,-131.348,-80.078,-52.734,-46.875,341.797
1687769795.464,-129.883,-80.078,-29.785,-39.551,110.840
1687769795.468,-129.883,-77.148,-30.762,-38.086,-139.648
1687769795.472,-121.582,-70.312,-31.738,-48.828,34.180
1687769795.476,-120.117,-78.125,-29.297,-62.500,-6.836
1687769795.480,-101.074,-80.566,-27.832,-43.457,-131.836
1687769795.484,-81.055,-75.684,-26.367,-21.484,-54.199
1687769795.488,-83.496,-83.984,-31.738,-20.996,206.055
1687769795.491,-95.703,-85.938,-39.062,-40.527,132.324
1687769795.495,-100.098,-72.266,-43.945,-59.570,-169.434
1687769795.499,-94.238,-62.988,-46.387,-46.387,-168.945
1687769795.503,-91.797,-61.523,-42.480,-21.973,-50.293
1687769795.507,-95.215,-62.988,-41.992,-24.414,-58.105
1687769795.508,-82.520,-58.594,-47.363,-43.457,-152.832
1687769795.512,-83.008,-59.570,-44.922,-50.781,-86.426
1687769795.516,-85.938,-60.059,-44.922,-36.133,189.941
1687769795.520,-79.102,-58.105,-48.828,-22.461,19.531
1687769795.524,-86.914,-63.965,-60.547,-29.785,-222.168
1687769795.528,-95.703,-64.941,-48.828,-38.574,-31.738
1687769795.532,-85.938,-66.406,-33.203,-41.016,264.648
1687769795.535,-80.078,-89.355,-55.176,-57.617,71.289
1687769795.539,-83.008,-81.055,-45.410,-47.363,-109.863
1687769795.543,-89.355,-59.082,-34.180,-33.691,-35.645
1687769795.547,-82.031,-70.312,-39.551,-48.340,-25.391
1687769795.551,-79.102,-59.570,-42.480,-63.965,-175.781
1687769795.554,-75.195,-39.062,-42.969,-49.805,-167.969
1687769795.558,-65.918,-42.480,-30.273,-31.738,-56.641
1687769795.562,-59.570,-58.594,-23.926,-32.715,4.883
1687769795.566,-60.547,-56.641,-26.855,-48.340,8.789
1687769795.570,-63.965,-43.945,-30.273,-52.734,-45.898
1687769795.574,-60.059,-46.387,-39.551,-43.945,213.379
1687769795.578,-53.223,-47.852,-44.922,-34.668,235.840
1687769795.581,-48.828,-53.223,-37.598,-37.109,-87.402
1687769795.585,-43.457,-53.711,-39.551,-44.434,-129.395
1687769795.589,-43.457,-46.875,-51.270,-63.477,0.977
1687769795.593,-41.504,-49.805,-51.270,-68.848,-74.219
1687769795.597,-41.992,-50.293,-32.715,-48.828,-144.531
1687769795.612,-38.086,-51.270,-16.113,-24.902,-98.633
1687769795.616,-34.180,-69.824,-27.344,-21.973,-1.465
1687769795.620,-43.945,-65.918,-37.598,-51.758,30.762
1687769795.624,-55.176,-44.922,-43.457,-62.012,-70.801
1687769795.628,-56.641,-40.527,-39.062,-43.457,-17.090
1687769795.632,-58.594,-53.223,-42.969,-33.691,313.477
1687769795.636,-53.711,-63.477,-49.316,-41.992,219.238
1687769795.639,-52.246,-68.848,-42.969,-57.617,-51.270
1687769795.643,-45.410,-46.875,-41.504,-54.199,-4.883
1687769795.647,-44.922,-29.785,-48.340,-37.598,247.559
1687769795.651,-52.246,-46.875,-43.945,-32.715,28.320
1687769795.655,-53.223,-56.641,-35.645,-30.762,-144.531
1687769795.661,-50.781,-55.664,-52.246,-37.109,-37.109
1687769795.665,-36.621,-54.199,-56.152,-54.199,-104.980
1687769795.669,-28.320,-62.988,-41.016,-54.688,-133.301
1687769795.673,-26.367,-58.594,-35.156,-34.668,-61.523
1687769795.677,-19.531,-51.758,-44.922,-24.902,48.828
1687769795.681,-15.625,-52.734,-39.062,-29.785,41.992
1687769795.685,-13.672,-58.594,-31.738,-49.805,-37.598
1687769795.688,-2.441,-61.523,-32.227,-38.086,-70.801
1687769795.692,11.230,-44.434,-25.391,-1.465,199.707
1687769795.696,-4.395,-38.574,-38.086,-17.578,171.387
1687769795.700,-18.555,-64.941,-38.086,-43.945,-102.539
1687769795.704,-13.672,-67.383,-36.133,-36.621,-77.148
1687769795.702,-17.578,-61.523,-56.641,-28.809,-31.738
1687769795.706,-23.438,-69.824,-62.988,-30.273,-50.781
1687769795.710,-19.531,-55.664,-44.434,-36.133,-21.973
1687769795.714,-22.949,-58.105,-36.621,-42.480,12.207
1687769795.718,-31.738,-84.473,-38.086,-45.898,123.535
1687769795.722,-33.691,-71.289,-43.457,-56.152,9.277
1687769795.726,-28.809,-46.875,-49.805,-40.039,-86.426
1687769795.729,-25.391,-44.922,-41.016,-24.414,-17.578
1687769795.733,-44.434,-49.805,-36.621,-40.039,209.473
1687769795.737,-54.688,-49.805,-50.781,-61.035,208.496
1687769795.741,-38.086,-61.523,-57.129,-68.848,-28.320
1687769795.745,-26.367,-65.918,-57.617,-52.734,56.152
1687769795.762,-32.227,-49.316,-62.012,-45.898,-1.465
1687769795.766,-43.457,-48.828,-59.570,-63.965,-154.785
1687769795.770,-44.434,-49.316,-53.223,-70.312,-141.602
1687769795.774,-40.039,-46.387,-45.898,-58.105,-90.332
1687769795.778,-35.156,-48.828,-49.805,-41.504,-30.273
1687769795.782,-27.832,-44.434,-62.012,-32.715,-8.301
1687769795.786,-16.602,-42.969,-56.641,-32.715,84.473
1687769795.789,-18.066,-66.406,-45.898,-34.668,256.348
1687769795.793,-34.668,-74.219,-42.969,-49.316,111.328
1687769795.797,-34.668,-58.105,-49.316,-41.016,-84.961
1687769795.801,-35.645,-49.316,-51.270,-25.879,-36.133
1687769795.805,-42.969,-44.922,-44.434,-37.109,30.273
1687769795.793,-39.062,-35.156,-39.062,-40.527,-14.648
1687769795.797,-41.992,-44.922,-59.570,-48.340,-105.469
1687769795.801,-44.922,-51.758,-62.500,-38.086,-19.043
1687769795.805,-51.758,-41.016,-57.617,-12.207,261.719
1687769795.809,-64.941,-45.410,-69.824,-30.762,69.824
1687769795.813,-68.359,-50.781,-67.871,-48.828,-132.324
1687769795.817,-60.059,-45.898,-52.734,-47.363,-19.043
1687769795.820,-55.664,-38.574,-46.875,-26.367,-2.930
1687769795.824,-58.105,-32.715,-37.109,-10.254,-63.965
1687769795.828,-55.664,-31.250,-39.062,-16.602,-134.766
1687769795.832,-65.918,-38.086,-49.316,-20.020,-42.480
1687769795.836,-78.125,-42.480,-48.340,-22.461,116.699
1687769795.839,-79.590,-46.387,-51.270,-27.832,-124.512
1687769795.843,-83.008,-53.223,-58.105,-20.508,-248.047
1687769795.847,-81.543,-49.805,-60.059,-14.160,-52.734
1687769795.851,-98.633,-43.457,-71.777,-30.762,-39.551
1687769795.855,-123.047,-49.316,-75.195,-61.523,-126.465
1687769795.859,-118.164,-44.434,-57.617,-57.129,-66.406
1687769795.863,-98.145,-39.062,-49.805,-25.391,262.695
1687769795.866,-100.098,-53.711,-59.082,-16.602,312.988
1687769795.870,-112.793,-55.176,-57.617,-41.992,-75.684
1687769795.874,-104.004,-57.617,-42.480,-56.152,-157.227
1687769795.878,-77.637,-63.477,-41.016,-41.992,-95.215
1687769795.882,-59.082,-37.598,-44.922,-24.902,-66.895
1687769795.897,-59.570,-44.434,-52.734,-36.133,-124.023
1687769795.901,-58.594,-58.594,-70.801,-46.387,-61.523
1687769795.905,-53.711,-49.316,-55.176,-53.711,95.215
1687769795.909,-46.387,-43.457,-40.527,-51.270,-6.348
1687769795.913,-42.969,-47.852,-56.641,-43.945,-23.926
1687769795.917,-41.016,-40.527,-59.570,-37.109,339.844
1687769795.921,-35.156,-42.969,-57.129,-40.527,475.098
1687769795.924,-25.391,-49.805,-62.500,-54.688,62.500
1687769795.928,-11.230,-49.805,-63.477,-46.387,-154.297
1687769795.932,-7.812,-55.664,-60.547,-37.109,-25.879
1687769795.936,-13.184,-46.387,-50.781,-39.062,-40.527
1687769795.940,-19.531,-38.086,-50.781,-48.828,-118.652
1687769795.943,-16.113,-37.109,-62.988,-51.758,-104.492
1687769795.947,-7.812,-50.293,-41.504,-45.898,-87.891
1687769795.951,-1.953,-45.898,-22.949,-33.691,-116.211
1687769795.955,-3.418,-31.250,-25.391,-29.785,-47.852
1687769795.959,-3.906,-44.922,-21.484,-32.715,38.574
1687769795.963,1.953,-47.363,-13.672,-32.715,-29.297
1687769795.967,6.348,-50.781,-22.949,-27.832,17.090
1687769795.970,20.508,-64.453,-49.316,-0.488,38.574
1687769795.974,22.949,-37.109,-56.641,-4.395,130.371
1687769795.978,-3.418,-18.066,-59.082,-40.039,296.875
1687769795.982,-14.160,-24.414,-53.711,-62.012,37.598
1687769795.986,-21.484,-19.531,-42.969,-74.707,-187.988
1687769795.989,-30.762,-17.090,-57.129,-67.871,-30.273
1687769795.993,-21.484,-6.836,-67.383,-58.105,88.379
1687769795.997,-32.715,-2.441,-59.570,-91.797,-45.410
1687769796.001,-34.180,2.930,-51.758,-103.027,-109.375
1687769796.005,-10.254,8.301,-51.270,-80.566,67.383
1687769796.009,-5.371,16.113,-50.781,-77.637,134.766
1687769796.013,-12.695,36.133,-52.246,-76.172,23.926
1687769796.016,-20.020,35.156,-55.664,-96.191,-76.660
1687769796.020,-24.902,37.109,-58.105,-108.887,69.336
1687769796.024,-13.672,47.363,-57.617,-85.938,198.730
1687769796.028,4.395,52.246,-52.734,-71.289,-100.586
1687769796.032,12.695,54.199,-57.129,-63.477,-103.027
1687769796.032,20.508,53.711,-61.035,-60.547,68.848
1687769796.036,20.996,37.109,-67.871,-72.266,-58.594
1687769796.040,19.531,34.668,-72.754,-73.242,-173.828
1687769796.044,26.855,55.176,-65.430,-59.082,-101.074
1687769796.048,32.227,53.223,-62.012,-45.898,-78.613
1687769796.052,32.227,51.270,-58.105,-52.246,-51.758
1687769796.056,17.090,61.523,-61.523,-60.547,-70.801
1687769796.059,2.930,62.012,-68.359,-55.176,-12.207
1687769796.063,0.488,48.828,-65.430,-49.316,157.227
1687769796.067,1.465,41.016,-51.270,-49.316,50.293
1687769796.071,7.324,44.922,-42.969,-46.387,-82.031
1687769796.075,3.418,48.340,-46.387,-62.500,-50.781
1687769796.078,1.465,48.828,-48.828,-78.613,-53.223
1687769796.082,17.090,48.340,-49.805,-62.012,-24.414
1687769796.086,19.531,45.898,-42.969,-34.180,4.883
1687769796.090,20.508,56.641,-41.016,-33.691,125.000
1687769796.094,37.598,70.801,-41.016,-46.387,88.867
1687769796.098,44.434,73.242,-29.785,-44.922,-108.887
1687769796.102,37.109,63.965,-26.855,-40.039,-8.789
1687769796.105,29.297,48.340,-36.133,-28.320,157.227
1687769796.109,27.344,54.199,-20.508,-17.578,153.320
1687769796.113,29.297,49.316,-21.973,-38.574,-105.469
1687769796.117,23.438,40.527,-44.922,-57.617,-113.770
1687769796.121,23.926,40.527,-41.992,-51.270,-60.547
1687769796.124,30.762,34.180,-56.152,-25.879,-90.332
1687769796.128,24.414,25.391,-61.035,-19.531,-151.855
1687769796.132,15.137,22.461,-39.551,-32.227,-106.934
1687769796.136,22.461,28.320,-42.969,-36.133,-101.074
1687769796.140,22.461,21.973,-47.363,-30.273,-142.090
1687769796.144,30.762,12.207,-34.180,-19.531,-11.719
1687769796.148,22.949,3.906,-36.621,-14.160,167.969
1687769796.151,-8.301,2.930,-46.875,-7.324,352.539
1687769796.155,-11.230,3.418,-51.758,-30.273,98.633
1687769796.159,3.906,-12.207,-56.152,-37.109,-156.738
1687769796.163,14.648,-8.301,-53.711,-6.348,-17.090
1687769796.167,30.762,5.371,-40.527,6.836,2.441
1687769796.167,24.414,-0.488,-55.664,-15.625,-72.266
1687769796.171,0.000,0.488,-83.496,-41.504,-79.102
1687769796.175,0.000,2.930,-83.984,-34.180,108.398
1687769796.179,3.418,-9.277,-68.848,-28.320,104.004
1687769796.183,-0.488,-7.812,-43.945,-17.578,-107.910
1687769796.187,4.883,5.859,-29.297,-22.949,-84.961
1687769796.191,7.812,-0.977,-31.250,-28.809,227.051
1687769796.194,8.301,-8.789,-39.551,-27.832,277.344
1687769796.198,0.977,-1.953,-44.922,-33.203,-111.328
1687769796.202,-10.742,-8.301,-57.129,-19.531,-129.883
1687769796.206,-12.695,-19.043,-61.035,-22.461,7.812
1687769796.210,-8.789,-13.672,-52.246,-36.621,-125.000
1687769796.214,-6.836,-4.883,-44.922,-36.133,-235.352
1687769796.218,5.371,-6.836,-58.105,-14.648,-109.375
1687769796.222,9.277,-25.391,-67.871,-4.395,-112.793
1687769796.226,-7.812,-21.484,-51.758,-26.855,-150.879
1687769796.230,-15.137,-12.207,-37.598,-44.922,-142.090
1687769796.234,-10.254,-15.137,-41.992,-36.621,35.156
1687769796.238,-7.324,-14.160,-39.551,-40.039,153.809
1687769796.241,-6.348,-5.371,-34.668,-23.926,56.152
1687769796.245,-14.648,1.465,-44.434,-5.371,-23.438
1687769796.249,-26.367,-15.137,-40.527,-29.297,29.785
1687769796.253,-31.250,-21.484,-37.598,-51.758,180.176
1687769796.257,-24.902,-15.625,-40.527,-43.457,-37.109
1687769796.272,-28.320,-24.902,-41.504,-30.762,-112.305
1687769796.276,-40.039,-33.203,-46.875,-33.203,55.664
1687769796.280,-33.203,-29.785,-48.828,-40.527,41.992
1687769796.284,-25.879,-40.039,-46.387,-54.199,-80.566
1687769796.288,-20.508,-41.016,-60.547,-44.922,-105.957
1687769796.292,-19.531,-33.203,-55.664,-20.508,242.676
1687769796.296,-35.156,-52.734,-36.621,-21.484,338.867
1687769796.299,-40.527,-38.086,-37.598,-33.203,-93.262
1687769796.303,-30.762,-17.090,-39.062,-41.504,-134.277
1687769796.307,-28.809,-28.320,-41.504,-41.504,148.438
1687769796.311,-36.133,-37.598,-45.410,-37.598,117.676
1687769796.315,-42.969,-36.621,-44.434,-45.898,-113.281
1687769796.318,-41.504,-41.992,-54.688,-47.852,-81.543
1687769796.322,-41.016,-48.340,-56.152,-41.504,-57.617
1687769796.326,-45.410,-37.109,-47.363,-38.086,-75.684
1687769796.330,-41.992,-29.297,-33.691,-23.926,-64.453
1687769796.334,-35.645,-34.180,-40.039,-8.789,-38.574
1687769796.338,-34.668,-34.668,-62.988,-28.809,30.762
1687769796.342,-35.645,-37.109,-58.105,-45.898,-19.043
1687769796.345,-36.133,-41.016,-41.992,-43.457,-170.898
1687769796.349,-45.410,-35.645,-32.227,-39.551,-7.324
1687769796.353,-61.035,-48.340,-38.086,-38.086,207.031
1687769796.357,-64.453,-49.316,-47.852,-41.504,-24.414
1687769796.361,-65.430,-41.504,-45.898,-54.199,-110.352
1687769796.362,-54.199,-39.062,-37.109,-59.082,12.207
1687769796.366,-52.246,-44.434,-36.133,-48.340,133.301
1687769796.370,-69.336,-58.594,-50.781,-53.711,50.781
1687769796.374,-72.266,-53.711,-65.918,-59.082,-43.945
1687769796.378,-71.777,-50.293,-59.082,-70.801,104.980
1687769796.382,-68.359,-45.410,-45.898,-67.871,86.914
1687769796.386,-57.617,-37.598,-41.504,-46.875,-26.855
1687769796.389,-62.012,-40.527,-42.969,-35.645,-108.887
1687769796.393,-58.594,-48.828,-44.434,-28.320,77.637
1687769796.397,-54.199,-39.551,-52.734,-37.109,116.699
1687769796.401,-61.035,-38.086,-59.570,-52.734,-168.945
1687769796.405,-56.641,-48.340,-49.316,-46.875,-93.750
1687769796.408,-49.316,-53.711,-49.316,-36.133,32.715
1687769796.412,-38.574,-46.387,-51.758,-37.109,68.848
1687769796.416,-39.551,-34.180,-60.059,-55.176,-52.734
1687769796.420,-50.781,-33.203,-71.777,-61.523,-56.641
1687769796.424,-50.781,-35.156,-61.035,-42.480,91.309
1687769796.428,-38.086,-39.062,-43.945,-28.320,89.844
1687769796.432,-42.480,-52.734,-41.504,-34.180,31.738
1687769796.435,-66.895,-52.246,-41.992,-53.711,6.836
1687769796.439,-52.734,-32.715,-44.434,-48.340,66.895
1687769796.443,-33.203,-33.691,-52.246,-36.621,-14.160
1687769796.447,-42.969,-59.082,-58.594,-33.203,-49.805
1687769796.451,-36.133,-51.758,-50.781,-25.391,-51.758
1687769796.452,-41.016,-34.668,-41.992,-38.574,-65.918
1687769796.456,-59.570,-36.621,-48.828,-51.270,-4.883
1687769796.460,-58.105,-36.621,-54.199,-41.016,-49.316
1687769796.464,-59.082,-35.156,-46.387,-15.137,128.906
1687769796.468,-60.059,-26.367,-44.922,-11.230,166.992
1687769796.472,-50.293,-24.902,-47.852,-38.574,-97.656
1687769796.476,-50.781,-32.227,-45.410,-55.664,-126.465
1687769796.479,-56.641,-38.086,-41.016,-40.039,134.766
1687769796.483,-54.199,-43.945,-37.109,-14.648,222.656
1687769796.487,-53.711,-43.457,-41.992,-27.832,-107.910
1687769796.491,-50.781,-44.434,-43.945,-32.715,-49.805
1687769796.495,-47.363,-41.504,-44.922,-26.855,18.066
1687769796.497,-54.199,-42.480,-40.527,-38.086,-69.336
1687769796.501,-55.176,-47.363,-39.062,-32.227,-97.168
1687769796.505,-47.363,-52.734,-44.922,-18.555,-89.844
1687769796.509,-52.734,-44.434,-44.922,-38.086,-43.945
1687769796.513,-56.152,-43.945,-50.781,-54.688,-108.887
1687769796.517,-37.109,-42.480,-44.922,-46.875,-112.793
1687769796.521,-30.273,-19.531,-34.180,-30.762,130.371
1687769796.524,-27.832,-29.297,-38.574,-25.391,388.184
1687769796.528,-19.043,-38.574,-43.945,-29.785,73.242
1687769796.532,-31.738,-32.715,-42.480,-42.480,-174.316
1687769796.536,-33.203,-36.621,-43.945,-41.992,-44.922
1687769796.540,-23.438,-33.691,-48.340,-18.555,-10.742
1687769796.542,-18.066,-43.945,-47.852,-25.879,-83.496
1687769796.546,-14.648,-51.758,-42.480,-43.457,-43.945
1687769796.550,-22.461,-36.133,-46.875,-48.340,149.902
1687769796.554,-24.414,-40.527,-40.527,-40.039,89.355
1687769796.558,-27.344,-44.922,-44.922,-36.621,-60.547
1687769796.562,-35.645,-33.691,-52.246,-38.086,-45.410
1687769796.566,-43.457,-39.062,-40.039,-47.852,169.922
1687769796.569,-40.039,-45.410,-42.480,-65.430,180.664
1687769796.573,-39.551,-47.363,-55.664,-66.895,-109.863
1687769796.577,-33.691,-45.410,-54.199,-54.199,-73.730
1687769796.581,-21.973,-44.922,-44.434,-39.551,59.570
1687769796.585,-29.785,-30.273,-51.758,-38.086,-19.531
1687769796.590,-41.504,-29.785,-62.988,-60.059,-156.738
1687769796.594,-49.805,-52.734,-47.363,-78.125,-112.305
1687769796.598,-44.922,-46.387,-47.363,-66.895,-56.152
1687769796.602,-39.551,-42.969,-66.406,-51.270,-56.641
1687769796.606,-40.527,-47.852,-52.734,-51.758,-36.133
1687769796.610,-50.293,-56.152,-41.016,-64.453,130.859
1687769796.614,-61.523,-47.852,-30.762,-70.801,227.051
1687769796.617,-50.293,-29.785,-38.574,-63.965,12.695
1687769796.621,-34.668,-18.066,-53.223,-43.457,-63.965
1687769796.625,-33.203,-8.301,-40.527,-42.969,64.941
1687769796.629,-34.180,-14.648,-33.203,-62.012,122.070
1687769796.633,-27.832,-20.996,-29.297,-68.359,-42.969
1687769796.648,-14.648,-27.832,-28.320,-48.828,-142.090
1687769796.652,-10.254,-31.250,-18.066,-27.344,3.906
1687769796.656,-17.578,-33.691,-23.926,-35.156,56.152
1687769796.660,-23.438,-42.480,-45.898,-44.922,-145.996
1687769796.664,-21.973,-43.457,-34.668,-50.293,-230.469
1687769796.668,-27.344,-40.527,-26.855,-41.016,90.332
1687769796.672,-23.926,-32.715,-28.320,-20.020,462.891
1687769796.675,-24.902,-24.902,-30.762,-36.621,111.328
1687769796.679,-36.133,-34.180,-39.551,-56.641,-194.824
1687769796.683,-33.203,-36.133,-41.992,-63.477,-163.574
1687769796.687,-19.531,-39.551,-36.133,-68.848,-167.480
1687769796.691,-0.977,-39.062,-35.645,-41.016,-135.254
1687769796.709,34.180,-28.320,-34.668,10.254,-54.199
1687769796.713,55.664,-30.273,-20.508,28.320,12.207
1687769796.717,15.137,-41.504,-12.207,-2.441,-19.043
1687769796.721,-22.949,-54.199,-15.625,-27.832,-59.082
1687769796.725,-40.039,-68.359,-23.926,-20.996,-4.883
1687769796.729,-67.871,-79.102,-21.973,-21.973,68.359
1687769796.733,-89.355,-87.402,-15.137,-49.805,7.324
1687769796.736,-105.469,-93.750,-22.461,-66.895,-82.520
1687769796.740,-109.863,-104.492,-14.648,-58.105,-26.367
1687769796.744,-114.258,-128.418,-6.348,-45.898,166.504
1687769796.748,-131.836,-131.836,-10.742,-66.406,39.062
1687769796.752,-139.648,-134.766,-14.648,-71.777,-82.520
1687769796.737,-136.230,-145.996,-19.043,-68.359,-31.250
1687769796.741,-135.254,-153.809,-21.484,-83.984,2.930
1687769796.745,-125.977,-153.320,-15.137,-61.035,-81.055
1687769796.749,-125.000,-156.250,-19.531,-40.527,-80.566
1687769796.753,-130.859,-159.180,-26.367,-59.082,55.664
1687769796.757,-124.512,-157.715,-19.531,-62.988,2.930
1687769796.761,-113.770,-149.902,-17.090,-48.828,-53.711
1687769796.764,-97.168,-153.320,-21.973,-24.414,14.648
1687769796.768,-95.215,-161.133,-11.719,-12.207,137.695
1687769796.772,-106.445,-147.461,-12.207,-29.785,71.777
1687769796.776,-95.703,-130.859,-13.672,-32.715,-148.438
1687769796.780,-73.730,-117.676,-18.555,-14.648,-139.160
1687769796.783,-67.871,-122.070,-20.996,-0.488,221.191
1687769796.787,-88.867,-136.719,-17.578,-0.488,282.227
1687769796.791,-85.449,-127.930,-24.902,-10.254,-84.961
1687769796.795,-63.965,-114.258,-25.879,-9.766,-8.301
1687769796.799,-59.570,-105.957,-30.273,-26.367,58.594
1687769796.803,-57.129,-102.539,-28.320,-26.367,-65.918
1687769796.807,-45.410,-106.934,-35.156,2.441,-16.113
1687769796.810,-37.598,-92.285,-28.809,5.371,111.328
1687769796.814,-41.504,-82.520,-7.324,-0.488,277.344
1687769796.818,-56.641,-90.332,-12.207,-21.484,92.773
1687769796.822,-50.293,-96.680,-22.461,-24.414,-142.090
1687769796.826,-31.250,-109.863,-21.484,-8.789,-64.453
1687769796.827,-31.250,-92.773,-21.484,-1.953,-24.414
1687769796.831,-29.785,-62.988,-22.461,-3.418,-36.621
1687769796.835,-29.785,-62.500,-14.648,-23.926,-61.035
1687769796.839,-28.809,-64.453,-29.785,-17.090,50.781
1687769796.843,-29.785,-56.641,-42.969,5.859,109.375
1687769796.847,-31.738,-55.664,-27.832,-7.324,-3.906
1687769796.851,-20.996,-60.059,-19.043,-15.625,-89.355
1687769796.854,-27.832,-62.500,-34.180,-9.277,83.496
1687769796.858,-26.855,-55.176,-29.785,-0.977,214.355
1687769796.862,-9.277,-52.734,-11.230,2.930,-64.453
1687769796.866,-18.066,-51.270,-21.973,-4.883,-111.816
1687769796.870,-18.555,-40.039,-20.508,-13.672,-4.883
1687769796.873,-10.742,-35.156,-20.020,-17.578,-61.035
1687769796.877,-16.602,-39.551,-23.438,-10.254,-137.695
1687769796.881,-17.090,-53.223,-26.367,5.371,-52.246
1687769796.885,-14.648,-55.176,-26.855,5.859,32.227
1687769796.889,-27.344,-46.387,-30.273,-12.695,-34.180
1687769796.893,-36.621,-42.969,-30.762,-37.598,-96.680
1687769796.897,-33.691,-34.668,-19.043,-25.879,81.055
1687769796.900,-25.879,-32.227,-25.391,-2.441,247.070
1687769796.904,-21.973,-45.410,-33.691,-20.020,75.684
1687769796.908,-24.902,-44.922,-24.902,-25.391,-23.438
1687769796.912,-22.461,-33.691,-20.508,-25.879,72.754
1687769796.916,-16.113,-34.668,-26.367,-36.621,29.297
1687769796.917,-12.207,-36.621,-28.320,-25.391,-132.324
1687769796.921,-16.113,-40.527,-27.832,-12.695,-45.898
1687769796.925,-14.648,-43.457,-16.113,-11.230,135.742
1687769796.929,-20.020,-36.133,-25.391,-28.809,4.395
1687769796.933,-28.809,-22.949,-33.691,-44.434,-158.691
1687769796.937,-21.484,-21.484,-24.902,-24.902,-20.996
1687769796.941,-19.043,-59.082,-29.297,-5.371,259.277
1687769796.944,-32.715,-65.430,-26.367,-21.973,219.727
1687769796.948,-37.109,-42.969,-20.996,-52.246,-109.375
1687769796.952,-42.480,-47.363,-32.227,-60.547,-108.887
1687769796.956,-41.504,-43.945,-31.738,-54.688,-66.406
1687769796.960,-30.762,-33.691,-21.973,-28.809,-61.523
1687769796.995,-27.344,-28.320,-25.879,-17.578,-51.758
1687769796.999,-23.926,-35.645,-30.762,-33.203,-24.414
1687769797.003,-34.180,-48.340,-28.320,-43.457,-9.766
1687769797.007,-38.574,-54.688,-24.414,-42.480,-69.824
1687769797.011,-25.879,-47.363,-20.020,-21.484,-73.730
1687769797.015,-32.715,-44.922,-25.879,-24.414,133.301
1687769797.019,-42.969,-52.734,-41.504,-46.875,231.445
1687769797.022,-49.805,-51.758,-42.480,-57.129,-34.668
1687769797.026,-33.203,-66.406,-38.086,-26.367,-140.137
1687769797.030,5.371,-68.848,-35.645,22.949,66.895
1687769797.034,-14.648,-36.133,-36.133,6.348,159.668
1687769797.038,-57.617,-29.297,-37.109,-52.246,-53.223
1687769797.023,-61.035,-42.480,-39.551,-69.824,-206.543
1687769797.027,-56.152,-43.945,-39.551,-67.871,-106.934
1687769797.031,-51.270,-31.250,-27.344,-59.570,84.473
1687769797.035,-66.406,-45.410,-40.527,-72.266,-0.977
1687769797.039,-79.102,-51.758,-47.852,-86.914,-110.840
1687769797.043,-72.266,-32.715,-26.367,-77.148,9.277
1687769797.047,-74.707,-33.203,-25.391,-72.754,54.688
1687769797.050,-75.195,-38.574,-36.621,-67.871,-46.875
1687769797.054,-75.195,-39.551,-45.898,-67.383,-117.188
1687769797.058,-76.172,-41.504,-40.039,-79.590,27.832
1687769797.062,-71.289,-58.594,-32.227,-80.078,9.277
1687769797.066,-61.523,-54.688,-35.156,-67.383,-164.551
1687769797.067,-48.340,-37.109,-41.016,-57.617,-65.430
1687769797.071,-46.387,-29.785,-55.176,-39.551,220.215
1687769797.075,-55.664,-18.066,-47.363,-51.270,193.359
1687769797.079,-51.758,-10.254,-28.809,-73.242,-113.770
1687769797.083,-42.969,-16.113,-30.762,-57.617,-59.082
1687769797.087,-41.992,-30.273,-39.062,-49.316,78.125
1687769797.091,-37.598,-25.391,-36.133,-46.387,81.055
1687769797.094,-37.598,-9.277,-36.621,-44.434,60.059
1687769797.098,-44.434,-27.832,-49.805,-57.617,56.641
1687769797.102,-47.363,-60.059,-45.898,-56.152,219.238
1687769797.106,-40.527,-32.715,-38.574,-52.246,68.359
1687769797.110,-40.527,-17.090,-57.129,-46.875,-80.078
1687769797.113,-44.922,-22.949,-52.734,-46.387,32.227
1687769797.117,-53.711,-29.297,-46.387,-68.359,30.273
1687769797.121,-61.035,-42.480,-72.266,-79.102,-32.715
1687769797.125,-55.176,-40.527,-71.289,-57.617,-64.941
1687769797.129,-48.828,-37.109,-41.016,-32.227,44.434
1687769797.133,-40.039,-32.227,-41.504,-34.180,119.629
1687769797.137,-37.109,-17.090,-55.664,-39.062,-4.395
1687769797.140,-38.086,-25.391,-58.105,-42.480,-115.234
1687769797.144,-32.715,-35.156,-44.434,-34.180,108.887
1687769797.148,-30.762,-27.832,-35.645,-32.227,167.969
1687769797.152,-37.109,-22.461,-36.133,-35.645,-152.832
1687769797.156,-31.738,-14.160,-20.996,-35.645,-154.297
1687769797.158,-38.574,-21.484,-31.738,-53.711,-18.066
1687769797.162,-43.457,-29.297,-46.387,-54.199,-61.035
1687769797.166,-25.391,-20.996,-20.508,-27.832,-124.512
1687769797.170,-27.344,-20.996,-16.602,-27.832,-87.402
1687769797.174,-33.203,-17.090,-18.555,-41.504,-107.422
1687769797.178,-29.785,-13.672,-13.184,-41.016,-23.438
1687769797.182,-34.668,-20.996,-27.832,-41.016,27.344
1687769797.185,-30.273,-22.461,-39.062,-27.344,46.387
1687769797.189,-21.973,-13.184,-38.574,-22.461,250.000
1687769797.193,-16.602,-5.859,-22.949,-41.016,57.129
1687769797.197,-17.578,-24.902,-18.555,-52.734,-138.184
1687769797.201,-22.461,-45.410,-34.668,-48.340,-36.621
1687769797.202,-33.203,-30.273,-30.762,-30.762,16.602
1687769797.206,-45.410,-17.578,-30.762,-33.691,-84.473
1687769797.210,-43.457,-19.531,-26.367,-51.270,-99.609
1687769797.214,-31.738,-19.043,-36.621,-42.969,47.852
1687769797.218,-25.879,-41.504,-41.016,-28.320,36.133
1687769797.222,-25.391,-44.434,-30.762,-21.973,-16.602
1687769797.226,-31.250,-40.527,-35.156,-32.715,51.270
1687769797.229,-38.086,-48.340,-40.039,-33.691,195.801
1687769797.233,-47.852,-39.551,-41.504,-35.645,171.875
1687769797.237,-51.758,-30.273,-32.715,-52.246,-151.367
1687769797.241,-49.316,-42.969,-24.414,-47.852,-141.113
1687769797.245,-47.363,-51.270,-30.762,-31.738,15.137
1687769797.263,-43.945,-36.621,-31.250,-33.203,-3.906
1687769797.267,-58.594,-45.410,-29.785,-59.082,-124.023
1687769797.271,-57.129,-47.852,-54.199,-50.781,-94.727
1687769797.275,-45.410,-45.898,-51.270,-33.203,27.832
1687769797.279,-40.039,-40.527,-39.062,-31.738,-4.883
1687769797.283,-36.621,-41.504,-41.992,-26.855,-12.207
1687769797.287,-46.387,-45.898,-33.203,-43.945,147.949
1687769797.290,-39.062,-42.480,-41.016,-53.223,202.637
1687769797.294,-29.297,-47.363,-55.664,-35.645,-41.016
1687769797.298,-27.344,-54.199,-37.109,-23.926,-122.559
1687769797.302,-31.250,-42.969,-17.578,-24.414,-44.434
1687769797.306,-39.062,-36.133,-32.715,-39.551,-66.895
1687769797.322,-30.273,-33.203,-36.621,-53.711,-126.465
1687769797.326,-14.648,-12.695,-14.160,-28.320,-121.582
1687769797.330,-26.367,-24.902,-33.691,-13.672,188.965
1687769797.334,-39.551,-34.668,-48.340,-29.785,235.840
1687769797.338,-46.875,-27.832,-34.668,-50.781,-56.152
1687769797.342,-53.223,-32.715,-36.621,-57.129,-56.641
1687769797.346,-39.551,-35.156,-48.828,-43.945,48.340
1687769797.349,-28.809,-32.227,-38.574,-27.344,65.430
1687769797.353,-32.715,-32.227,-38.086,-22.949,-88.867
1687769797.357,-32.715,-40.527,-47.852,-40.039,-181.152
1687769797.361,-31.250,-36.621,-41.992,-42.969,125.977
1687769797.365,-31.738,-29.297,-46.875,-22.461,208.008
1687769797.355,-32.715,-25.879,-42.480,-25.879,-62.012
1687769797.359,-30.762,-25.879,-35.645,-38.574,-34.180
1687769797.363,-22.461,-50.781,-32.715,-39.062,-71.289
1687769797.367,-31.250,-51.270,-26.367,-42.969,-162.598
1687769797.371,-31.250,-25.879,-29.297,-35.156,-156.738
1687769797.375,-19.043,-20.508,-47.852,-9.277,39.062
1687769797.379,-31.738,-22.949,-56.641,-8.301,200.684
1687769797.382,-37.598,-15.625,-37.109,-29.297,-20.996
1687769797.386,-23.926,-15.137,-37.598,-39.551,-174.316
1687769797.390,-24.902,-30.273,-50.781,-30.762,-26.367
1687769797.394,-24.414,-36.133,-28.809,-12.207,84.473
1687769797.398,-18.066,-37.598,-12.695,-13.184,78.613
1687769797.397,-33.203,-31.250,-31.738,-33.203,-83.984
1687769797.401,-48.828,-26.367,-42.969,-49.316,25.879
1687769797.405,-54.199,-29.297,-41.504,-48.340,188.477
1687769797.409,-51.758,-36.621,-41.992,-38.086,-59.082
1687769797.413,-42.480,-34.668,-46.875,-26.855,-112.793
1687769797.417,-46.387,-34.180,-60.059,-31.250,79.590
1687769797.421,-40.039,-25.879,-42.969,-43.945,152.832
1687769797.424,-33.203,-24.414,-19.531,-45.410,15.625
1687769797.428,-37.109,-29.297,-42.969,-44.434,-48.340
1687769797.432,-41.504,-31.738,-36.621,-29.297,91.797
1687769797.436,-48.828,-34.180,-24.414,-24.902,328.613
1687769797.440,-45.898,-36.133,-27.344,-47.363,80.566
1687769797.442,-45.410,-31.738,-30.273,-54.688,-146.973
1687769797.446,-39.551,-27.344,-33.691,-39.551,-112.793
1687769797.450,-39.062,-36.133,-46.875,-45.410,-102.051
1687769797.454,-38.086,-30.273,-60.059,-43.457,-111.328
1687769797.458,-30.762,-29.297,-44.922,-40.039,-69.336
1687769797.462,-34.668,-43.457,-36.133,-57.129,24.902
1687769797.466,-34.180,-38.086,-34.180,-41.504,-11.719
1687769797.469,-34.180,-29.297,-43.457,-22.949,-50.781
1687769797.473,-34.668,-32.227,-40.039,-34.180,14.648
1687769797.477,-43.945,-42.480,-30.762,-45.410,278.320
1687769797.481,-49.316,-53.223,-42.480,-55.176,76.660
1687769797.485,-34.668,-38.086,-49.805,-44.922,-160.156
1687769797.487,-28.809,-28.809,-49.805,-23.438,-8.301
1687769797.491,-39.551,-30.762,-53.711,-27.344,25.391
1687769797.495,-50.293,-38.574,-53.711,-51.758,-80.078
1687769797.499,-42.969,-42.969,-44.922,-66.406,-168.457
1687769797.503,-34.668,-41.016,-53.223,-45.410,17.090
1687769797.507,-31.738,-47.852,-62.012,-26.367,148.926
1687769797.511,-28.809,-54.688,-62.500,-29.785,-12.207
1687769797.514,-41.992,-38.086,-51.758,-43.457,-112.305
1687769797.518,-48.340,-23.438,-34.668,-45.410,83.496
1687769797.522,-35.156,-28.809,-37.109,-39.551,119.629
1687769797.526,-20.996,-37.598,-39.551,-30.273,-162.598
1687769797.530,-35.156,-50.781,-48.828,-31.250,-89.844
1687769797.532,-40.039,-48.340,-55.176,-38.574,11.230
1687769797.536,-34.668,-31.250,-54.199,-37.598,-130.859
1687769797.540,-43.457,-34.180,-56.152,-42.480,-193.848
1687769797.544,-46.875,-45.410,-56.152,-37.598,-62.012
1687769797.548,-42.969,-40.039,-44.922,-26.855,10.742
1687769797.552,-45.410,-41.992,-49.316,-42.969,-45.410
1687769797.556,-52.246,-64.453,-43.945,-52.246,-112.793
1687769797.559,-39.062,-50.293,-25.879,-20.020,-20.996
1687769797.563,-26.367,-27.344,-39.551,-9.277,248.047
1687769797.567,-36.621,-38.086,-44.434,-39.062,86.426
1687769797.571,-41.016,-23.438,-44.922,-50.293,-86.426
1687769797.575,-38.574,-21.973,-45.898,-44.922,-35.645
1687769797.578,-39.062,-44.434,-41.992,-41.016,-5.859
1687769797.582,-38.574,-36.133,-48.340,-35.645,30.762
1687769797.586,-39.062,-35.156,-45.898,-26.855,-1.953
1687769797.590,-50.781,-47.852,-52.734,-31.250,119.141
1687769797.594,-56.152,-41.504,-64.453,-46.387,201.660
1687769797.598,-41.992,-37.598,-49.805,-52.246,14.160
1687769797.602,-29.297,-42.969,-32.227,-29.297,40.039
1687769797.605,-36.133,-43.945,-40.039,-10.742,288.574
1687769797.609,-44.922,-33.203,-51.758,-31.250,194.336
1687769797.613,-45.898,-37.109,-38.086,-50.781,-177.734
1687769797.617,-31.250,-48.340,-31.738,-27.832,-156.738
1687769797.621,-28.320,-54.199,-50.293,-25.391,-57.129
1687769797.637,-41.016,-38.574,-51.758,-32.227,8.301
1687769797.641,-42.480,-45.898,-46.875,-41.992,-18.555
1687769797.645,-44.434,-72.754,-61.035,-60.547,-60.547
1687769797.649,-50.781,-58.105,-65.918,-59.082,14.648
1687769797.653,-46.387,-34.180,-48.340,-51.270,-13.672
1687769797.657,-41.504,-44.434,-56.152,-38.574,-44.922
1687769797.661,-47.363,-53.223,-66.895,-33.691,73.242
1687769797.664,-43.457,-33.691,-46.875,-32.227,375.977
1687769797.668,-38.574,-13.184,-45.410,-39.062,205.566
1687769797.672,-41.504,-24.902,-64.453,-47.852,-110.352
1687769797.676,-37.109,-33.691,-58.105,-30.273,8.301
1687769797.680,-35.645,-26.855,-45.898,-40.039,-0.977
1687769797.684,-36.621,-27.832,-42.480,-53.711,-131.348
1687769797.688,-41.016,-31.250,-41.016,-53.711,-116.211
1687769797.692,-34.180,-41.016,-43.945,-45.898,141.113
1687769797.696,-40.039,-48.340,-46.387,-32.227,94.238
1687769797.700,-46.387,-49.805,-42.969,-43.457,-121.582
1687769797.704,-43.945,-53.711,-31.250,-66.895,-87.891
1687769797.708,-50.781,-47.363,-41.016,-78.613,10.254
1687769797.711,-51.758,-41.992,-60.547,-64.941,24.414
1687769797.715,-38.574,-49.316,-55.664,-42.480,-18.555
1687769797.719,-34.180,-51.270,-50.293,-53.711,-79.590
1687769797.723,-47.363,-66.406,-63.477,-69.824,81.543
1687769797.727,-47.363,-67.871,-55.176,-54.688,65.430
1687769797.713,-14.160,-33.203,-37.598,-22.461,-177.734
1687769797.717,-2.930,-8.789,-49.805,-19.043,-106.445
1687769797.721,-30.273,-10.254,-53.711,-46.875,29.785
1687769797.725,-37.598,-16.602,-51.270,-69.336,-104.004
1687769797.729,-35.645,-14.160,-61.523,-68.359,-197.266
1687769797.733,-43.945,-8.301,-62.012,-54.688,74.219
1687769797.737,-38.086,-6.348,-60.059,-54.199,166.992
1687769797.740,-29.785,-1.953,-73.242,-64.453,-36.133
1687769797.744,-40.039,0.488,-62.012,-77.637,-85.449
1687769797.748,-35.156,4.883,-41.992,-62.500,-22.461
1687769797.752,-22.949,11.719,-44.434,-34.668,243.652
1687769797.756,-17.578,17.090,-55.664,-23.438,168.945
1687769797.773,0.000,20.020,-56.641,-26.367,-215.332
1687769797.777,-0.977,25.391,-46.387,-40.527,0.000
1687769797.781,-13.672,16.602,-53.711,-60.059,187.500
1687769797.785,1.465,8.301,-66.406,-63.965,-83.984
1687769797.789,22.949,22.461,-71.289,-36.133,-122.070
1687769797.793,15.137,19.531,-77.637,-16.113,114.258
1687769797.797,8.301,22.949,-74.219,-26.367,214.355
1687769797.800,7.324,30.273,-68.359,-56.152,-97.168
1687769797.804,20.508,27.832,-67.871,-54.688,-152.832
1687769797.808,32.715,44.922,-68.359,-33.203,-9.766
1687769797.812,17.578,53.223,-52.246,-22.461,-19.043
1687769797.816,11.230,47.363,-36.621,-34.180,-65.918
1687769797.805,12.695,39.062,-37.109,-57.617,-12.695
1687769797.809,11.719,32.715,-46.387,-61.523,45.410
1687769797.813,13.672,35.645,-43.945,-50.781,-40.527
1687769797.817,23.926,41.992,-40.527,-35.156,-116.699
1687769797.821,14.160,41.992,-52.734,-39.062,-32.715
1687769797.825,1.953,31.738,-47.852,-59.570,73.730
1687769797.829,14.160,23.438,-48.340,-65.430,86.426
1687769797.832,11.230,21.484,-52.246,-60.547,-42.969
1687769797.836,4.395,27.344,-60.547,-59.082,8.789
1687769797.840,-7.324,34.668,-64.453,-54.688,201.660
1687769797.844,-12.695,30.762,-41.504,-54.199,-8.301
1687769797.848,-13.672,17.578,-34.180,-60.547,-189.453
1687769797.864,-9.277,16.113,-38.574,-50.293,-123.047
1687769797.868,-7.812,25.391,-41.016,-23.926,23.438
1687769797.872,-21.973,18.555,-46.387,-18.555,16.602
1687769797.876,-28.320,16.602,-41.016,-27.344,-152.832
1687769797.880,-24.414,10.742,-27.832,-25.391,43.457
1687769797.884,-8.301,2.441,-23.438,-17.578,243.164
1687769797.888,-10.742,2.441,-28.320,-9.277,-26.367
1687769797.891,-21.484,-0.488,-31.738,-13.672,-104.980
1687769797.895,-20.508,1.953,-26.855,-33.203,102.539
1687769797.899,-30.273,-4.395,-36.133,-41.504,58.594
1687769797.903,-29.297,-11.230,-36.133,-37.598,-107.910
1687769797.907,-18.555,-12.695,-41.504,-23.926,-54.688
1687769797.907,-17.090,-13.184,-54.688,-16.113,-50.781
1687769797.911,-18.555,-8.301,-39.062,-23.926,-123.535
1687769797.915,-16.113,-26.855,-32.227,-38.086,-162.109
1687769797.919,-0.977,-25.391,-33.691,-37.598,-1.465
1687769797.923,0.977,-4.395,-39.551,-28.320,117.676
1687769797.927,-10.254,-13.672,-38.574,-25.391,43.457
1687769797.931,-9.277,-11.719,-26.855,-34.668,-18.555
1687769797.934,-8.789,-6.348,-42.480,-28.320,34.180
1687769797.938,-16.113,-23.438,-50.781,-12.695,258.789
1687769797.942,-25.391,-29.297,-39.551,-20.508,113.770
1687769797.946,-23.926,-20.020,-29.785,-15.625,-77.637
1687769797.950,-14.648,-20.996,-25.879,-24.902,-53.223
1687769797.952,-17.090,-22.949,-32.227,-38.086,-140.137
1687769797.956,-14.160,-24.902,-44.434,-29.297,-126.465
1687769797.960,-8.789,-15.625,-45.410,-23.438,-27.832
1687769797.964,-24.414,-27.832,-34.180,-8.789,145.020
1687769797.968,-27.344,-34.180,-34.668,-16.113,143.555
1687769797.972,-10.254,-13.184,-27.344,-31.250,-2.441
1687769797.976,-11.719,-19.043,-22.949,-30.273,22.461
1687769797.979,-23.438,-28.809,-24.414,-20.508,129.883
1687769797.983,-32.715,-31.250,-26.855,-26.855,28.320
1687769797.987,-32.227,-41.016,-35.645,-42.969,-132.324
1687769797.991,-23.438,-34.180,-41.016,-45.410,-155.273
1687769797.995,-17.578,-33.203,-47.363,-44.434,-71.289
1687769797.997,-17.090,-41.992,-47.363,-35.645,-54.199
1687769798.001,-17.090,-33.691,-35.645,-16.113,-106.445
1687769798.005,-29.297,-31.738,-53.223,-18.555,-41.504
1687769798.009,-56.152,-38.574,-64.941,-38.574,146.973
1687769798.013,-63.477,-35.156,-29.785,-35.156,47.363
1687769798.017,-50.781,-29.297,-29.297,-41.504,-67.383
1687769798.021,-47.363,-33.691,-46.387,-38.574,51.270
1687769798.024,-48.340,-41.992,-36.621,-20.508,144.043
1687769798.028,-53.711,-40.039,-43.457,-50.293,50.293
1687769798.032,-48.340,-39.551,-47.852,-59.082,-62.500
1687769798.036,-44.434,-44.922,-45.898,-31.738,20.508
1687769798.040,-30.762,-41.016,-36.621,-20.020,57.617
1687769798.057,-18.555,-33.203,-26.367,-20.508,-92.773
1687769798.061,-22.461,-35.156,-25.391,-32.227,-109.375
1687769798.065,-22.461,-36.621,-28.809,-26.855,33.691
1687769798.069,-12.207,-30.273,-40.527,-10.742,-20.996
1687769798.073,-7.324,-25.879,-48.828,-19.531,-147.461
1687769798.077,-19.531,-29.297,-35.156,-21.484,-30.762
1687769798.081,-29.297,-43.457,-37.109,-24.414,155.762
1687769798.084,-32.715,-36.133,-55.176,-40.039,93.750
1687769798.088,-37.109,-28.320,-46.387,-39.551,-126.465
1687769798.092,-27.344,-27.344,-34.668,-18.555,-120.605
1687769798.096,-17.090,-38.086,-30.273,-9.766,32.227
1687769798.100,-26.367,-42.480,-35.645,-21.484,25.391
1687769798.103,-37.109,-39.551,-38.574,-40.527,-173.340
1687769798.107,-39.062,-35.645,-42.969,-36.133,-102.051
1687769798.111,-29.297,-40.527,-52.246,-13.184,69.336
1687769798.115,-25.879,-47.852,-41.016,-9.766,-19.043
1687769798.119,-39.551,-39.062,-42.480,-29.785,-126.465
1687769798.123,-40.039,-30.762,-50.293,-42.969,40.039
1687769798.127,-31.250,-23.438,-54.199,-43.945,132.812
1687769798.130,-25.879,-22.949,-46.875,-39.551,10.254
1687769798.134,-25.879,-30.762,-30.762,-30.762,-83.984
1687769798.138,-34.668,-36.621,-38.086,-20.020,56.641
1687769798.142,-53.223,-38.574,-44.922,-32.227,186.523
1687769798.146,-43.945,-39.062,-42.969,-50.781,12.695
1687769798.134,-33.203,-38.086,-46.875,-45.410,-75.684
1687769798.138,-43.457,-47.363,-38.086,-25.391,168.945
1687769798.142,-39.062,-40.527,-41.016,-25.879,298.340
1687769798.146,-40.527,-17.090,-50.781,-43.457,-56.641
1687769798.150,-41.016,-26.367,-55.176,-48.340,-160.645
1687769798.154,-36.621,-48.340,-52.246,-32.715,88.379
1687769798.158,-41.504,-39.062,-48.828,-24.902,133.301
1687769798.161,-49.316,-24.414,-53.223,-35.156,-70.801
1687769798.165,-53.223,-25.391,-58.594,-45.898,-145.996
1687769798.169,-46.875,-28.320,-66.406,-53.223,117.676
1687769798.173,-40.039,-31.250,-70.312,-41.504,239.258
1687769798.177,-40.039,-35.645,-50.781,-39.551,-22.949
1687769798.193,-41.016,-41.016,-38.086,-41.992,-97.656
1687769798.197,-41.504,-37.109,-51.758,-54.688,-54.688
1687769798.201,-35.156,-30.762,-41.504,-61.523,-94.238
1687769798.205,-27.344,-29.785,-31.738,-38.574,-102.539
1687769798.209,-36.133,-24.414,-40.039,-28.320,104.004
1687769798.213,-47.363,-33.691,-52.246,-36.621,208.008
1687769798.217,-42.969,-38.086,-51.270,-47.363,43.457
1687769798.220,-41.992,-44.922,-53.223,-59.570,-151.367
1687769798.224,-43.457,-52.734,-65.918,-47.363,-51.270
1687769798.228,-37.109,-37.598,-42.480,-23.438,168.457
1687769798.232,-48.828,-45.410,-36.133,-39.551,28.809
1687769798.236,-64.453,-40.039,-44.434,-51.270,-63.477
1687769798.237,-45.898,-38.574,-39.551,-35.645,-43.945
1687769798.241,-30.762,-36.621,-55.664,-21.973,-86.914
1687769798.245,-21.484,-16.113,-63.965,-5.859,-97.168
1687769798.249,-24.414,-15.625,-48.828,-15.137,-110.352
1687769798.253,-57.129,-15.137,-50.781,-52.246,38.574
1687769798.257,-70.312,-14.160,-51.758,-67.383,168.457
1687769798.261,-53.223,-13.184,-53.711,-62.012,19.531
1687769798.264,-48.828,-13.184,-70.312,-67.383,6.348
1687769798.268,-54.688,-20.996,-45.898,-59.570,97.656
1687769798.272,-48.828,-18.555,-34.180,-54.688,-7.812
1687769798.276,-56.641,-3.906,-44.922,-74.707,-205.078
1687769798.280,-59.570,-2.930,-25.879,-63.965,-235.840
1687769798.283,-57.129,-19.043,-40.039,-52.734,117.188
1687769798.287,-61.523,-28.320,-51.758,-55.176,153.809
1687769798.291,-56.641,-19.043,-45.898,-62.500,-119.141
1687769798.295,-47.363,-7.324,-54.688,-63.965,-87.402
1687769798.299,-42.969,-15.137,-44.434,-61.035,-51.270
1687769798.303,-42.480,-31.250,-42.969,-45.410,31.250
1687769798.307,-41.016,-28.809,-52.246,-34.668,10.742
1687769798.310,-36.133,-24.414,-38.574,-47.363,39.062
1687769798.314,-40.527,-27.832,-36.133,-51.270,292.480
1687769798.318,-40.039,-24.902,-46.387,-59.082,130.859
1687769798.322,-16.113,-14.648,-41.992,-40.039,-164.551
1687769798.326,-24.902,-15.625,-44.922,-24.414,-107.910
1687769798.326,-48.340,-27.832,-52.734,-48.828,-61.523
1687769798.330,-33.691,-35.156,-36.621,-51.270,-87.891
1687769798.334,-33.203,-40.527,-21.484,-43.457,-123.047
1687769798.338,-47.363,-26.367,-30.762,-37.598,44.434
1687769798.342,-35.645,-17.578,-32.715,-33.691,105.469
1687769798.346,-33.691,-29.297,-35.156,-47.852,-85.938
1687769798.350,-46.387,-34.668,-31.250,-59.082,-20.996
1687769798.353,-41.992,-35.645,-20.020,-46.387,181.641
1687769798.357,-18.555,-45.898,-41.992,-31.738,140.625
1687769798.361,-18.066,-36.621,-54.199,-29.297,-95.703
1687769798.365,-42.480,-20.020,-39.062,-29.785,-80.078
1687769798.369,-44.434,-14.160,-32.715,-39.062,-18.066
1687769798.372,-35.645,-20.020,-27.832,-46.387,-87.402
1687769798.376,-30.273,-29.785,-38.086,-43.945,-151.367
1687769798.380,-17.090,-28.320,-39.062,-29.297,-24.414
1687769798.384,-14.648,-40.527,-35.645,-21.484,27.344
1687769798.388,-28.320,-47.363,-33.203,-39.062,-96.680
1687769798.392,-28.320,-24.902,-21.973,-41.504,-100.098
1687769798.396,-14.648,-15.625,-28.809,-18.555,113.770
1687769798.399,-17.090,-20.508,-32.715,-11.230,297.363
1687769798.403,-16.113,-32.715,-24.414,-23.926,76.172
1687769798.407,-6.348,-22.461,-15.625,-35.645,-145.020
1687769798.411,-10.254,-17.090,-11.719,-42.480,-105.469
1687769798.415,-31.738,-49.316,-31.250,-55.664,-100.098
1687769798.418,-35.645,-53.711,-29.297,-49.805,-35.156
1687769798.422,-34.180,-40.527,-21.484,-43.457,55.176
1687769798.426,-44.434,-45.410,-26.367,-51.270,111.816
1687769798.430,-38.574,-44.434,-32.227,-50.293,154.785
1687769798.434,-22.461,-30.762,-24.902,-49.805,-56.152
1687769798.438,-23.438,-25.879,-41.016,-45.898,-95.215
1687769798.442,-29.297,-41.504,-58.594,-26.855,254.883
1687769798.445,-27.832,-38.086,-38.086,-36.621,274.902
1687769798.449,-36.133,-25.879,-30.273,-65.918,-125.977
1687769798.453,-29.785,-29.297,-34.180,-63.477,-132.324
1687769798.457,-19.531,-29.297,-32.227,-40.039,-102.539
1687769798.461,-36.133,-35.645,-60.547,-42.480,-124.512
1687769798.477,-47.363,-40.039,-73.730,-61.523,-101.562
1687769798.481,-41.992,-44.434,-40.527,-63.477,-21.484
1687769798.485,-33.691,-45.898,-25.879,-55.664,-1.953
1687769798.489,-32.715,-37.598,-31.738,-45.410,-10.742
1687769798.493,-32.227,-47.852,-48.828,-28.320,-11.719
1687769798.497,-35.645,-48.828,-52.246,-37.109,4.395
1687769798.501,-29.785,-39.062,-45.410,-38.574,253.418
1687769798.504,-28.809,-43.457,-59.570,-41.016,112.305
1687769798.508,-41.016,-34.668,-63.965,-44.922,-162.109
1687769798.512,-34.668,-29.297,-49.316,-30.762,39.062
1687769798.516,-43.457,-36.133,-46.387,-41.016,115.234
1687769798.520,-52.734,-37.109,-60.059,-59.082,-92.773
1687769798.521,-45.410,-40.527,-70.312,-53.223,-89.355
1687769798.525,-31.738,-49.805,-52.246,-41.992,26.367
1687769798.529,-24.414,-40.527,-45.898,-26.855,19.043
1687769798.533,-41.016,-34.668,-60.547,-25.391,-66.406
1687769798.537,-47.363,-33.203,-58.105,-41.992,-136.719
1687769798.541,-45.898,-40.527,-31.250,-42.480,32.227
1687769798.545,-44.922,-49.316,-16.113,-29.297,80.078
1687769798.548,-35.156,-24.902,-33.203,-9.766,0.488
1687769798.552,-36.133,-17.578,-51.758,-23.438,-41.016
1687769798.556,-36.621,-37.598,-42.480,-33.691,137.207
1687769798.560,-32.227,-34.668,-28.809,-24.902,286.621
1687769798.564,-42.969,-37.598,-28.809,-34.668,-68.359
1687769798.567,-49.805,-47.363,-32.715,-21.484,-68.848
1687769798.571,-42.480,-41.016,-41.504,-20.020,76.172
1687769798.575,-50.781,-46.875,-44.922,-41.992,26.367
1687769798.579,-58.594,-38.086,-43.945,-31.250,-100.586
1687769798.583,-56.152,-29.785,-33.691,-28.809,-90.332
1687769798.587,-52.734,-25.391,-32.715,-27.344,95.215
1687769798.591,-58.594,-31.738,-39.062,-21.484,38.086
1687769798.594,-72.266,-46.387,-36.621,-40.527,-68.359
1687769798.598,-68.848,-49.805,-28.320,-37.109,17.578
1687769798.602,-64.941,-40.527,-38.086,-27.832,213.379
1687769798.606,-59.082,-28.809,-47.852,-26.855,75.684
1687769798.610,-49.316,-28.809,-42.969,-26.855,-135.254
1687769798.612,-42.969,-25.391,-44.434,-32.715,-125.488
1687769798.616,-11.230,-18.066,-50.781,-19.531,-41.992
1687769798.620,12.207,-27.344,-57.617,11.230,-4.883
1687769798.624,-8.301,-52.246,-45.898,15.625,-119.629
1687769798.628,-34.180,-59.082,-24.902,-8.301,9.277
1687769798.632,-57.617,-63.965,-27.344,-16.602,106.934
1687769798.636,-83.496,-82.031,-29.785,-33.203,-2.441
1687769798.639,-89.355,-93.262,-34.180,-42.480,-34.668
1687769798.643,-87.891,-106.934,-42.480,-19.043,143.555
1687769798.647,-88.379,-119.141,-25.879,-18.066,239.258
1687769798.651,-102.539,-111.816,-24.414,-42.969,-41.016
1687769798.655,-134.277,-118.652,-39.551,-72.266,-105.957
1687769798.657,-141.602,-140.137,-34.668,-62.500,43.945
1687769798.661,-135.254,-139.648,-26.855,-36.621,-75.684
1687769798.665,-130.859,-136.230,-24.902,-39.551,-172.852
1687769798.669,-125.977,-139.648,-28.809,-40.527,-42.969
1687769798.673,-132.812,-147.461,-20.996,-55.664,-76.660
1687769798.677,-145.996,-152.344,-24.414,-57.129,-74.707
1687769798.681,-137.207,-150.391,-34.180,-26.855,55.176
1687769798.684,-119.629,-151.367,-20.020,-9.766,123.535
1687769798.688,-143.555,-151.855,-7.324,-25.391,221.191
1687769798.692,-152.832,-167.969,-5.371,-42.969,45.898
1687769798.696,-128.906,-176.270,-7.812,-36.621,-143.066
1687769798.700,-125.977,-158.203,-24.414,-23.438,-60.059
1687769798.702,-121.094,-155.273,-26.367,-17.090,30.273
1687769798.706,-119.629,-166.016,-23.438,-25.391,-30.273
1687769798.710,-119.141,-158.203,-34.180,-40.039,-91.797
1687769798.714,-101.074,-140.137,-28.320,-17.578,97.656
1687769798.718,-101.562,-131.836,-18.066,-9.766,233.887
1687769798.722,-100.586,-138.184,-27.344,-24.902,15.625
1687769798.726,-94.238,-145.508,-40.039,-26.367,-78.125
1687769798.729,-98.633,-144.531,-39.551,-21.973,77.637
1687769798.733,-94.727,-136.230,-38.574,-11.230,149.902
1687769798.737,-86.914,-122.559,-24.902,-22.949,-61.035
1687769798.741,-72.754,-113.281,-5.371,-10.742,-80.566
1687769798.745,-91.797,-123.047,-19.531,-15.625,-66.895
1687769798.748,-128.418,-123.047,-30.762,-32.227,-97.656
1687769798.752,-130.371,-106.445,-33.203,-28.809,-149.902
1687769798.756,-120.605,-95.215,-55.664,-16.113,-69.336
1687769798.760,-119.629,-97.168,-68.359,4.395,3.418
1687769798.764,-122.559,-104.004,-41.992,-9.277,-71.777
1687769798.768,-110.840,-92.285,-23.438,-30.273,-56.641
1687769798.772,-96.191,-82.520,-35.156,-30.273,66.406
1687769798.775,-87.402,-86.426,-35.645,-10.254,228.516
1687769798.779,-77.637,-82.520,-24.902,0.977,52.734
1687769798.783,-77.637,-69.824,-36.621,-9.277,-124.023
1687769798.787,-83.984,-66.895,-47.363,-10.254,-6.836
1687769798.791,-73.730,-72.754,-39.062,-20.996,51.758
1687769798.792,-56.152,-69.336,-35.156,-27.832,-111.328
1687769798.796,-58.594,-58.594,-40.527,-11.719,-96.191
1687769798.800,-59.082,-62.988,-50.293,-9.766,92.285
1687769798.804,-56.641,-62.500,-38.086,-15.625,87.402
1687769798.808,-57.129,-66.895,-17.578,-21.973,-80.078
1687769798.812,-54.688,-78.125,-22.949,-24.902,-118.652
1687769798.816,-52.734,-57.129,-22.461,0.488,243.164
1687769798.819,-51.270,-48.340,-26.367,11.230,411.621
1687769798.823,-51.270,-50.293,-26.855,-15.137,-5.371
1687769798.827,-51.758,-52.734,-33.203,-28.320,-95.703
1687769798.831,-51.270,-56.641,-40.039,-28.320,37.598
1687769798.835,-44.922,-57.617,-25.879,-17.578,16.113
1687769798.838,-36.621,-66.406,-16.602,5.371,-59.570
1687769798.842,-39.062,-57.617,-31.738,-10.254,-20.508
1687769798.846,-40.039,-41.504,-42.969,-38.574,-14.648
1687769798.850,-50.781,-59.082,-41.016,-34.180,-149.414
1687769798.854,-55.176,-58.105,-48.340,-25.391,-203.125
1687769798.858,-40.039,-37.109,-35.645,-14.648,12.207
1687769798.862,-33.691,-32.715,-28.809,-12.207,205.566
1687769798.865,-38.574,-36.621,-25.391,-28.809,79.590
1687769798.869,-41.992,-37.109,-20.508,-31.738,-32.227
1687769798.873,-32.715,-48.828,-27.832,-22.949,129.883
1687769798.877,-32.227,-45.898,-25.391,-16.113,238.281
1687769798.881,-27.344,-20.996,-30.762,-26.855,-2.441
1687769798.897,-16.113,-20.508,-51.758,-42.480,-88.867
1687769798.901,-12.207,-10.742,-45.410,-38.574,-36.133
1687769798.905,-11.230,-13.672,-43.457,-26.855,-15.137
1687769798.909,-19.043,-38.086,-35.156,-14.648,-12.695
1687769798.913,-1.953,-34.180,-22.461,13.184,-67.871
1687769798.917,15.625,-14.160,-33.691,10.254,190.430
1687769798.921,-28.809,-13.672,-37.109,-50.781,339.844
1687769798.924,-50.293,-20.020,-32.227,-63.477,-12.695
1687769798.928,-45.410,-20.020,-22.461,-30.762,-166.992
1687769798.932,-68.848,-11.230,-31.738,-55.664,-11.230
1687769798.936,-66.895,-15.137,-41.016,-84.961,-19.043
1687769798.940,-57.129,-17.090,-32.227,-93.262,-207.031
1687769798.943,-70.801,-15.625,-29.297,-85.938,-141.602
1687769798.947,-70.801,-13.184,-33.691,-70.801,3.418
1687769798.951,-55.664,-8.301,-34.180,-66.895,-37.598
1687769798.955,-57.617,-14.648,-37.598,-89.355,-125.488
1687769798.959,-58.594,-28.809,-42.480,-104.492,-46.387
1687769798.963,-43.457,-27.832,-39.062,-81.055,51.270
1687769798.967,-45.410,-21.484,-33.203,-55.176,25.879
1687769798.970,-49.805,-15.625,-34.668,-55.664,-71.289
1687769798.974,-31.738,-0.977,-32.715,-64.453,5.859
1687769798.978,-32.715,-4.395,-25.879,-69.824,103.027
1687769798.982,-45.898,-19.531,-41.016,-69.824,-122.070
1687769798.986,-31.250,-20.020,-46.387,-54.688,-70.312
1687769798.987,-27.344,-25.879,-34.180,-49.316,166.016
1687769798.991,-42.969,-34.668,-37.109,-63.965,100.098
1687769798.995,-33.691,-23.926,-30.762,-68.359,-30.273
1687769798.999,-25.391,-32.227,-28.809,-73.242,-32.715
1687769799.003,-25.391,-66.895,-42.480,-69.824,61.523
1687769799.007,-36.621,-60.059,-52.246,-54.688,78.613
1687769799.011,-51.270,-22.949,-49.805,-62.988,9.277
1687769799.014,-46.875,-26.855,-27.832,-74.219,-122.559
1687769799.018,-41.992,-39.062,-21.973,-60.059,56.152
1687769799.022,-32.715,-33.691,-27.832,-47.363,268.066
1687769799.026,-31.738,-35.156,-27.832,-41.992,-36.621
1687769799.030,-32.715,-41.016,-33.203,-36.621,-126.465
1687769799.063,-32.715,-45.410,-53.711,-46.875,-159.668
1687769799.067,-36.621,-51.758,-61.035,-41.504,-224.609
1687769799.071,-28.320,-53.711,-38.574,-38.574,-93.262
1687769799.075,-21.484,-43.457,-29.297,-30.762,23.926
1687769799.079,-40.039,-33.691,-31.250,-35.156,13.672
1687769799.083,-40.527,-30.762,-34.668,-48.340,5.371
1687769799.087,-24.414,-30.762,-47.852,-48.340,12.695
1687769799.090,-17.090,-41.016,-35.645,-35.156,49.316
1687769799.094,-20.020,-46.387,-26.367,-8.301,211.426
1687769799.098,-27.832,-47.363,-39.551,-24.414,72.266
1687769799.102,-32.227,-38.574,-44.922,-49.805,-133.789
1687769799.106,-29.785,-24.902,-50.781,-43.945,-12.207
1687769799.077,-29.785,-28.809,-51.270,-35.156,-35.156
1687769799.081,-23.926,-19.531,-37.109,-21.973,-68.359
1687769799.085,-20.020,-8.789,-33.691,-26.855,-21.973
1687769799.089,-41.016,-20.996,-44.922,-57.129,61.035
1687769799.093,-42.969,-33.203,-41.504,-59.082,29.785
1687769799.097,-36.621,-37.109,-37.598,-49.316,-156.738
1687769799.101,-39.062,-41.016,-43.457,-49.805,-0.977
1687769799.104,-38.574,-38.574,-47.363,-39.551,139.160
1687769799.108,-50.293,-38.086,-44.434,-44.922,48.828
1687769799.112,-46.387,-33.203,-41.016,-62.988,-118.164
1687769799.116,-30.273,-37.109,-41.016,-60.547,-190.918
1687769799.120,-30.273,-44.922,-36.133,-35.156,-57.617
1687769799.122,-23.438,-26.367,-35.645,-28.320,-32.227
1687769799.126,-28.320,-21.973,-45.898,-47.363,-139.160
1687769799.130,-44.434,-39.062,-53.223,-70.801,-165.527
1687769799.134,-34.668,-37.109,-45.410,-62.500,215.332
1687769799.138,-25.879,-36.133,-29.297,-38.086,326.172
1687769799.142,-25.879,-45.410,-30.273,-37.109,-30.273
1687769799.146,-38.574,-48.340,-36.621,-55.664,1.465
1687769799.149,-59.082,-42.480,-53.711,-77.637,93.750
1687769799.153,-63.965,-43.945,-51.270,-68.359,-67.871
1687769799.157,-50.781,-45.410,-26.855,-46.875,-116.211
1687769799.161,-47.363,-40.527,-31.250,-42.480,52.734
1687769799.165,-55.664,-48.340,-45.410,-55.664,264.160
1687769799.167,-52.734,-52.246,-48.828,-63.477,8.301
1687769799.171,-35.156,-45.898,-43.457,-57.617,-155.762
1687769799.175,-30.273,-45.410,-40.039,-34.668,79.102
1687769799.179,-33.691,-57.617,-53.711,-20.020,118.164
1687769799.183,-29.785,-59.570,-53.711,-35.645,-116.699
1687769799.187,-25.391,-48.828,-35.645,-48.340,-191.406
1687769799.191,-26.367,-53.223,-22.949,-46.875,110.840
1687769799.194,-40.039,-54.199,-33.691,-38.086,183.105
1687769799.198,-31.738,-34.668,-45.410,-32.715,-182.617
1687769799.202,-7.812,-20.996,-32.715,-29.297,-149.902
1687769799.206,-11.719,-22.949,-24.902,-42.480,-27.832
1687769799.210,-18.066,-22.461,-25.879,-53.223,-102.539
1687769799.212,-9.766,-41.016,-37.598,-35.156,-147.949
1687769799.216,-15.625,-40.039,-35.645,-28.809,-56.641
1687769799.220,-24.414,-38.086,-43.457,-42.969,26.855
1687769799.224,-28.809,-46.387,-47.852,-57.129,-95.703
1687769799.228,-31.738,-34.668,-28.809,-56.641,-181.641
1687769799.232,-40.527,-37.598,-40.039,-43.945,125.977
1687769799.236,-55.176,-37.598,-43.457,-41.504,224.609
1687769799.239,-67.871,-45.410,-38.086,-57.129,-77.148
1687769799.243,-63.477,-60.547,-37.598,-67.871,-180.664
1687769799.247,-56.641,-35.645,-30.273,-49.805,-83.984
1687769799.251,-51.270,-20.508,-42.969,-39.062,39.062
1687769799.255,-53.223,-53.223,-53.711,-31.738,19.531
1687769799.258,-68.359,-62.012,-46.875,-46.875,-105.957
1687769799.262,-66.895,-41.016,-23.438,-51.758,84.473
1687769799.266,-49.316,-19.531,-22.461,-34.180,201.660
1687769799.270,-51.270,-28.320,-40.527,-41.992,-122.559
1687769799.274,-53.711,-39.062,-33.203,-37.109,-185.059
1687769799.278,-56.152,-36.621,-36.621,-32.715,117.676
1687769799.282,-63.965,-38.574,-41.992,-50.781,150.391
1687769799.285,-44.922,-34.668,-35.645,-62.988,-61.035
1687769799.289,-31.738,-35.156,-41.992,-52.246,-89.355
1687769799.293,-49.316,-47.363,-57.129,-42.480,28.809
1687769799.297,-50.293,-46.875,-47.363,-41.016,66.406
1687769799.301,-38.574,-33.691,-31.250,-55.176,-152.832
1687769799.305,-35.645,-34.180,-33.691,-58.594,-184.570
1687769799.309,-34.668,-43.945,-43.457,-45.410,8.789
1687769799.313,-37.109,-54.688,-51.270,-33.691,28.809
1687769799.317,-26.367,-54.688,-55.176,-25.391,-103.516
1687769799.321,-21.484,-51.758,-54.199,-39.551,12.207
1687769799.325,-28.320,-45.898,-48.828,-45.410,208.984
1687769799.329,-37.109,-44.434,-53.711,-54.688,83.008
1687769799.332,-43.945,-50.293,-44.922,-56.641,-96.191
1687769799.336,-36.621,-55.176,-29.297,-38.086,23.926
1687769799.340,-40.527,-43.457,-35.156,-42.480,208.984
1687769799.344,-63.477,-41.992,-51.270,-71.777,-12.695
1687769799.348,-64.453,-49.805,-49.805,-67.871,-89.355
1687769799.362,-58.594,-36.133,-56.152,-40.039,-12.207
1687769799.366,-73.242,-43.457,-64.453,-36.133,19.043
1687769799.370,-71.777,-52.734,-50.293,-36.621,2.930
1687769799.374,-73.242,-41.992,-37.598,-50.293,-149.414
1687769799.378,-95.215,-54.688,-37.109,-52.246,80.078
1687769799.382,-81.055,-57.617,-39.551,-25.391,316.406
1687769799.386,-54.199,-43.457,-36.621,-18.066,35.645
1687769799.389,-56.152,-40.527,-36.621,-33.691,-125.000
1687769799.393,-65.918,-44.922,-36.621,-51.270,52.246
1687769799.397,-63.965,-52.734,-41.504,-49.316,50.293
1687769799.401,-50.293,-57.617,-51.270,-40.039,-192.383
1687769799.405,-45.898,-60.059,-60.059,-30.273,-73.242
1687769799.407,-42.480,-43.945,-50.781,-34.668,-41.016
1687769799.411,-37.598,-21.973,-34.668,-43.457,-161.133
1687769799.415,-38.574,-22.461,-43.945,-50.293,-180.664
1687769799.419,-31.738,-30.273,-34.180,-45.410,-69.824
1687769799.423,-26.855,-42.480,-34.668,-26.367,18.555
1687769799.427,-33.691,-36.621,-53.711,-30.273,41.504
1687769799.431,-33.203,-24.414,-43.945,-55.176,-11.230
1687769799.434,-25.391,-33.203,-38.086,-60.059,30.762
1687769799.438,-20.020,-34.180,-55.176,-38.086,290.039
1687769799.442,-18.555,-26.855,-54.199,-18.555,122.559
1687769799.446,-22.949,-30.762,-38.574,-25.879,-94.727
1687769799.450,-31.738,-36.621,-34.180,-44.922,-46.387
1687769799.452,-30.273,-29.785,-37.598,-42.480,-125.488
1687769799.456,-20.508,-25.879,-44.434,-23.926,-54.199
1687769799.460,-19.043,-31.250,-41.016,-30.762,38.086
1687769799.464,-15.137,-30.273,-39.551,-39.551,101.562
1687769799.468,-27.832,-41.016,-37.598,-44.922,79.102
1687769799.472,-27.832,-48.340,-42.969,-56.641,-57.617
1687769799.476,-23.926,-37.598,-48.340,-43.457,44.434
1687769799.479,-24.414,-35.156,-41.504,-16.113,211.914
1687769799.483,-11.230,-29.785,-49.805,-15.137,257.324
1687769799.487,-17.578,-30.762,-58.594,-47.852,-3.906
1687769799.491,-21.973,-33.691,-47.363,-57.617,-148.438
1687769799.495,-15.625,-31.738,-35.156,-47.363,0.977
1687769799.497,-26.367,-42.480,-42.480,-41.992,55.176
1687769799.501,-18.066,-33.203,-43.945,-25.391,-52.246
1687769799.505,-15.137,-21.484,-35.156,-27.344,-43.457
1687769799.509,-32.715,-32.227,-52.246,-50.293,-1.953
1687769799.513,-20.020,-20.996,-54.688,-47.363,-91.309
1687769799.517,-13.184,-14.648,-45.410,-36.621,-91.797
1687769799.521,-27.832,-27.832,-49.805,-26.367,54.199
1687769799.524,-38.574,-47.363,-53.223,-20.996,188.965
1687769799.528,-24.902,-43.457,-59.570,-23.438,14.648
1687769799.532,-24.414,-20.508,-53.711,-37.109,-155.273
1687769799.536,-27.832,-23.926,-44.434,-29.297,-53.711
1687769799.540,-19.043,-22.949,-47.852,-23.438,-0.488
1687769799.543,-33.203,-11.230,-51.758,-39.551,-64.453
1687769799.547,-48.828,-12.695,-64.453,-62.500,-92.285
1687769799.551,-35.156,-17.090,-62.500,-61.035,71.289
1687769799.555,-8.789,-8.789,-55.664,-30.273,151.367
1687769799.559,-5.859,9.766,-74.707,-34.668,-60.547
1687769799.563,-4.395,16.602,-71.289,-49.316,-132.324
1687769799.567,-28.320,17.090,-61.523,-54.688,142.578
1687769799.570,-68.848,25.879,-64.941,-48.828,205.566
1687769799.574,-52.246,34.668,-63.477,-38.574,-126.953
1687769799.578,-27.344,40.039,-67.871,-24.902,-171.875
1687769799.582,-19.043,38.574,-64.453,-20.508,-88.867
1687769799.586,-7.812,33.691,-57.129,-41.992,-115.723
1687769799.589,12.207,39.062,-46.387,-51.270,-168.457
1687769799.593,29.785,40.039,-45.898,-34.180,16.113
1687769799.597,32.227,41.016,-50.781,-21.973,62.500
1687769799.601,40.039,47.852,-49.805,-22.461,-84.473
1687769799.605,49.805,49.316,-57.129,-36.133,-128.906
1687769799.609,48.828,47.363,-59.082,-30.273,12.207
1687769799.613,50.293,54.199,-55.664,-7.812,302.734
1687769799.616,57.129,57.129,-54.199,-2.441,207.031
1687769799.620,62.500,60.059,-50.293,-19.043,-43.457
1687769799.624,43.945,48.828,-46.875,-32.715,14.648
1687769799.628,35.156,40.039,-48.828,-25.391,159.668
1687769799.632,46.387,61.523,-51.758,-25.391,20.996
1687769799.647,36.133,75.684,-44.922,-16.602,-111.816
1687769799.651,19.043,71.777,-40.527,-2.441,20.020
1687769799.655,2.441,73.730,-37.598,-15.625,-16.113
1687769799.659,-3.906,65.430,-30.273,-30.273,-118.164
1687769799.663,2.441,49.316,-41.016,-36.621,-94.238
1687769799.667,7.812,50.781,-37.109,-15.137,150.879
1687769799.671,10.742,60.547,-20.020,12.207,448.730
1687769799.674,0.488,54.688,-23.438,-13.184,26.367
1687769799.678,7.324,37.109,-23.438,-30.273,-220.703
1687769799.682,20.508,23.438,-26.855,-18.066,-40.527
1687769799.686,22.461,25.391,-39.062,-10.254,-25.391
1687769799.690,27.832,28.809,-39.551,-14.648,-103.027
1687769799.691,28.320,16.113,-41.992,-20.020,-89.844
1687769799.695,25.879,10.742,-37.109,-28.320,-48.340
1687769799.699,31.738,4.395,-23.926,-34.668,-76.172
1687769799.703,38.574,2.930,-30.273,-13.184,-96.680
1687769799.707,32.715,8.301,-46.875,-3.906,13.184
1687769799.711,26.855,15.137,-45.410,-15.137,104.004
1687769799.715,26.367,19.043,-43.457,-20.996,88.867
1687769799.718,28.809,13.672,-42.480,-27.344,15.625
1687769799.722,32.227,5.859,-34.180,-12.695,123.535
1687769799.726,22.949,-6.348,-36.133,3.418,340.332
1687769799.730,14.648,-7.812,-33.691,-17.090,104.980
1687769799.734,19.043,-6.348,-39.062,-45.898,-186.523
1687769799.737,20.508,-19.043,-50.781,-37.598,-134.277
1687769799.741,20.020,-21.973,-40.039,-14.160,-22.461
1687769799.745,18.555,-11.719,-32.715,-17.090,-41.016
1687769799.749,9.766,-25.879,-44.922,-25.391,-136.230
1687769799.753,-0.488,-31.250,-48.828,-31.250,-19.043
1687769799.757,6.348,-24.902,-48.340,-31.250,81.055
1687769799.761,18.066,-32.715,-43.457,-19.531,21.973
1687769799.764,8.301,-34.180,-59.570,-12.695,-19.531
1687769799.768,5.371,-26.855,-60.059,-18.066,190.430
1687769799.772,5.371,-15.625,-36.133,-26.367,173.340
1687769799.776,4.883,-17.578,-34.668,-34.180,-160.645
1687769799.780,7.812,-29.785,-35.156,-29.785,-161.621
1687769799.782,-8.301,-27.344,-37.109,-30.273,-114.746
1687769799.786,-15.137,-18.066,-42.969,-28.809,-103.516
1687769799.790,-7.812,-14.160,-50.293,-38.574,-86.914
1687769799.794,0.977,0.000,-42.969,-41.016,-51.270
1687769799.798,7.324,4.883,-37.109,-19.531,-26.855
1687769799.802,8.301,0.977,-54.199,-16.113,25.391
1687769799.806,-0.977,8.301,-45.898,-22.949,33.691
1687769799.809,-10.742,-4.883,-35.156,-29.785,48.340
1687769799.813,-6.836,-20.508,-42.969,-30.273,111.816
1687769799.817,-8.301,-8.301,-43.945,-29.297,-103.027
1687769799.821,-11.719,-19.531,-39.062,-14.160,-129.883
1687769799.825,-9.277,-42.480,-30.762,-5.859,111.328
1687769799.827,-7.324,-36.621,-40.039,-27.344,12.695
1687769799.831,-6.836,-26.855,-46.387,-47.852,-118.652
1687769799.835,-7.812,-32.715,-47.852,-36.133,-89.844
1687769799.839,-8.301,-37.598,-48.828,-11.230,22.461
1687769799.843,-3.906,-37.598,-42.480,-11.230,71.289
1687769799.847,-13.672,-39.551,-45.410,-30.762,-23.926
1687769799.851,-15.137,-45.898,-51.270,-35.645,-57.129
1687769799.854,-1.953,-52.734,-54.688,-14.648,95.215
1687769799.858,3.906,-38.086,-49.805,-6.348,164.062
1687769799.862,-4.395,-31.738,-29.297,-27.832,-91.309
1687769799.866,-9.766,-34.180,-31.738,-34.180,-80.078
1687769799.870,-3.418,-40.039,-40.039,-34.180,-83.496
1687769799.873,-7.812,-44.434,-39.062,-39.551,-100.586
1687769799.877,-18.555,-40.039,-37.109,-40.527,-67.871
1687769799.881,-16.113,-35.156,-43.457,-34.668,-49.805
1687769799.885,-17.090,-39.062,-41.992,-41.504,67.383
1687769799.889,-14.160,-33.203,-34.180,-48.828,-33.691
1687769799.893,-23.926,-42.969,-42.969,-59.570,-110.352
1687769799.897,-34.668,-59.082,-50.293,-61.035,150.879
1687769799.900,-25.879,-50.293,-39.551,-28.320,360.840
1687769799.904,-29.297,-46.387,-38.574,-41.992,74.219
1687769799.908,-44.434,-45.410,-50.781,-71.289,-121.582
1687769799.912,-49.805,-47.852,-69.336,-71.289,-75.684
1687769799.916,-37.109,-40.039,-80.078,-47.852,-27.344
1687769799.917,-29.785,-43.945,-59.082,-24.414,-6.836
1687769799.921,-20.020,-43.945,-28.809,-33.691,19.043
1687769799.925,-33.203,-39.062,-28.320,-58.594,152.344
1687769799.929,-50.293,-51.270,-27.344,-58.105,50.781
1687769799.933,-36.621,-64.453,-36.621,-42.480,-124.023
1687769799.937,-28.320,-53.711,-53.223,-31.738,-64.941
1687769799.941,-26.367,-33.203,-36.621,-24.414,135.254
1687769799.944,-23.926,-33.691,-33.203,-30.273,254.883
1687769799.948,-27.344,-36.133,-48.340,-50.293,11.719
1687769799.952,-31.738,-33.203,-46.875,-40.039,-98.633
1687769799.956,-34.668,-32.715,-48.828,-19.531,-127.441
1687769799.960,-30.762,-32.227,-60.547,-24.902,-111.816
1687769799.962,-26.855,-28.320,-49.316,-34.668,-99.121
1687769799.966,-20.020,-23.926,-29.297,-24.414,-132.324
1687769799.970,-22.949,-21.484,-32.227,-14.160,-132.324
1687769799.974,-35.645,-41.016,-41.992,-21.484,-56.152
1687769799.978,-36.621,-53.223,-47.363,-31.738,-35.156
1687769799.982,-30.273,-38.086,-42.480,-31.250,81.055
1687769799.986,-28.320,-38.574,-32.227,-38.086,223.145
1687769799.989,-31.250,-44.922,-44.434,-25.391,44.922
1687769799.993,-36.133,-47.363,-49.805,-17.578,-129.395
1687769799.997,-35.156,-53.711,-62.012,-35.156,-1.465
1687769800.001,-32.227,-44.434,-63.477,-35.645,171.875
1687769800.005,-32.227,-34.668,-40.527,-46.387,-37.598
1687769800.022,-27.832,-39.551,-23.438,-52.246,-205.078
1687769800.026,-38.574,-51.270,-22.949,-29.785,50.293
1687769800.030,-34.668,-41.992,-32.227,-26.855,259.766
1687769800.034,-24.902,-34.668,-43.457,-45.898,-38.574
1687769800.038,-36.133,-40.039,-53.711,-45.410,-221.191
1687769800.042,-36.621,-46.387,-62.012,-33.691,86.914
1687769800.046,-29.297,-33.203,-48.828,-17.578,222.656
1687769800.049,-30.273,-9.766,-23.926,-19.043,-19.043
1687769800.053,-35.645,-23.926,-21.484,-34.668,-167.480
1687769800.057,-36.133,-33.203,-20.508,-38.086,71.777
1687769800.061,-34.668,-28.809,-20.508,-35.645,153.809
1687769800.065,-23.926,-31.738,-15.137,-21.973,-104.492
1687769800.068,-20.508,-41.992,-14.648,-16.113,-103.027
1687769800.072,-21.973,-31.738,-21.973,-22.949,-84.961
1687769800.076,-21.973,-22.461,-32.227,-35.156,-111.816
1687769800.080,-15.625,-22.461,-31.250,-35.156,-194.336
1687769800.084,-8.789,-18.555,-26.367,-21.484,-21.973
1687769800.088,-26.367,-29.297,-40.039,-25.391,145.996
1687769800.092,-22.949,-17.578,-36.133,-19.043,72.266
1687769800.095,-13.184,-17.578,-31.738,-35.645,-40.039
1687769800.099,-30.762,-34.180,-30.273,-56.641,-42.969
1687769800.103,-39.062,-29.297,-19.531,-37.598,221.680
1687769800.107,-35.645,-23.926,-36.133,-33.691,112.305
1687769800.111,-29.297,-30.762,-50.293,-43.457,-109.863
1687769800.111,-22.461,-27.832,-35.645,-50.293,-23.438
1687769800.115,-22.461,-24.414,-37.109,-43.945,60.059
1687769800.119,-16.113,-34.668,-48.340,-31.738,-37.598
1687769800.123,-4.395,-25.391,-41.992,-18.066,-87.402
1687769800.127,-11.719,-25.391,-36.621,-16.602,-12.695
1687769800.131,-17.578,-34.668,-34.668,-35.645,23.438
1687769800.135,-17.090,-40.527,-28.320,-33.203,24.902
1687769800.138,-24.902,-37.109,-30.273,-28.320,-71.289
1687769800.142,-23.926,-13.672,-23.926,-18.555,127.441
1687769800.146,-20.996,-15.625,-35.156,-8.789,348.633
1687769800.150,-33.691,-20.996,-46.387,-26.855,3.906
1687769800.154,-26.855,-16.113,-24.414,-40.527,-155.762
1687769800.156,-18.066,-27.832,-28.320,-38.086,-2.441
1687769800.160,-26.855,-30.762,-50.781,-27.344,50.781
1687769800.164,-23.438,-28.320,-44.922,-17.578,-83.984
1687769800.168,-21.973,-44.434,-37.109,-36.621,-73.242
1687769800.172,-16.602,-35.156,-28.320,-44.434,42.480
1687769800.176,-14.160,-26.367,-29.785,-27.344,-10.254
1687769800.180,-29.297,-37.598,-55.176,-18.555,-5.859
1687769800.183,-35.645,-29.297,-44.922,-19.043,129.883
1687769800.187,-31.250,-26.855,-24.902,-33.691,212.402
1687769800.191,-34.180,-45.898,-29.297,-57.129,-65.918
1687769800.195,-26.367,-44.922,-42.480,-45.410,-157.715
1687769800.199,-17.578,-30.762,-35.156,-25.391,0.977
1687769800.217,-18.555,-31.738,-11.230,-27.832,-77.148
1687769800.221,-21.973,-25.391,-10.254,-38.086,-138.184
1687769800.225,-32.715,-25.879,-33.691,-69.336,-101.074
1687769800.229,-39.062,-28.809,-37.598,-62.012,51.270
1687769800.233,-39.062,-25.391,-33.203,-32.715,157.227
1687769800.237,-42.480,-27.832,-33.203,-30.273,-31.250
1687769800.241,-42.480,-25.879,-21.973,-45.898,-133.789
1687769800.244,-47.852,-20.996,-24.414,-53.223,63.965
1687769800.248,-46.387,-25.391,-25.879,-45.898,187.500
1687769800.252,-43.945,-28.809,-34.668,-44.434,-65.430
1687769800.256,-56.152,-28.320,-48.340,-43.945,-128.906
1687769800.260,-61.035,-39.551,-31.738,-52.246,-64.453
1687769800.277,-58.105,-50.293,-41.016,-69.824,-107.422
1687769800.281,-41.504,-49.805,-60.547,-71.289,-202.148
1687769800.285,5.371,-44.434,-61.035,-20.020,-104.492
1687769800.289,10.254,-42.969,-47.852,3.906,-19.531
1687769800.293,-25.879,-41.992,-17.090,-9.277,-68.359
1687769800.297,-47.852,-52.246,-20.020,-41.504,-54.199
1687769800.301,-75.195,-71.777,-30.762,-68.359,85.449
1687769800.304,-80.566,-80.566,-19.531,-51.758,212.891
1687769800.308,-83.984,-86.914,-24.902,-45.410,-5.859
1687769800.312,-103.516,-97.168,-28.809,-64.941,-138.184
1687769800.316,-108.398,-103.516,-19.043,-79.102,54.199
1687769800.320,-111.328,-104.492,-15.625,-73.242,283.691
1687769800.341,-132.324,-115.234,-17.090,-79.590,30.273
1687769800.345,-143.066,-131.836,-10.742,-89.844,-110.840
1687769800.349,-140.625,-131.348,-10.742,-80.078,108.887
1687769800.353,-152.344,-125.488,-10.742,-90.332,65.430
1687769800.357,-175.781,-128.418,1.953,-123.535,-103.516
1687769800.361,-182.617,-139.648,-10.742,-121.582,-43.945
1687769800.365,-184.570,-151.855,-18.066,-100.098,90.820
1687769800.368,-188.965,-151.367,3.906,-114.258,54.199
1687769800.372,-194.824,-143.066,10.742,-142.090,-152.832
1687769800.376,-191.895,-147.949,9.766,-135.742,-201.660
1687769800.380,-189.941,-150.391,4.395,-116.211,-90.820
1687769800.384,-187.012,-140.137,-11.230,-114.746,-42.480
1687769800.352,-183.105,-152.832,-8.301,-126.953,-65.430
1687769800.356,-191.406,-159.180,-12.207,-140.625,-84.473
1687769800.360,-181.641,-122.070,-29.785,-131.348,-11.230
1687769800.364,-165.039,-117.188,-14.160,-105.469,-63.965
1687769800.368,-158.203,-132.324,-30.762,-83.008,-110.352
1687769800.372,-142.578,-129.395,-17.090,-63.477,92.773
1687769800.376,-139.648,-122.559,15.137,-75.195,206.055
1687769800.379,-125.977,-110.352,16.602,-83.496,-77.148
1687769800.383,-104.004,-118.652,7.324,-59.570,-249.023
1687769800.387,-90.820,-108.398,-0.977,-34.668,12.207
1687769800.391,-90.332,-98.145,-18.555,-30.273,190.430
1687769800.395,-98.633,-107.422,-35.156,-43.945,-56.641
1687769800.397,-90.332,-100.098,-23.438,-48.828,-191.406
1687769800.401,-80.566,-98.145,-26.855,-32.715,73.730
1687769800.405,-78.613,-95.703,-31.738,-14.160,182.129
1687769800.409,-75.684,-88.867,-29.297,-18.066,-63.477
1687769800.413,-73.242,-85.449,-41.992,-30.273,-111.816
1687769800.417,-65.918,-75.684,-38.574,-36.621,81.055
1687769800.421,-49.805,-71.289,-25.879,-18.066,444.824
1687769800.424,-45.410,-68.848,-34.180,-6.836,352.051
1687769800.428,-47.363,-71.777,-28.320,-9.766,-6.348
1687769800.432,-49.805,-78.125,-24.414,-7.324,170.410
1687769800.436,-57.129,-66.895,-29.785,-17.090,213.867
1687769800.440,-54.199,-62.988,-34.180,-20.020,-143.066
1687769800.432,-46.875,-64.453,-51.758,-4.395,-67.383
1687769800.436,-43.457,-51.758,-39.551,9.766,62.500
1687769800.440,-34.180,-32.227,-20.508,5.371,-52.734
1687769800.444,-27.832,-35.156,-24.414,-11.719,-141.602
1687769800.448,-39.062,-70.312,-42.969,-13.672,-69.336
1687769800.452,-37.598,-82.031,-68.848,-6.348,0.977
1687769800.456,-33.203,-59.570,-71.289,2.441,33.691
1687769800.459,-26.855,-30.762,-41.504,3.418,-53.711
1687769800.463,-35.156,-38.574,-41.016,-20.996,-120.117
1687769800.467,-55.176,-51.758,-62.012,-34.180,-3.418
1687769800.471,-48.340,-56.152,-52.734,-14.648,-41.504
1687769800.475,-39.551,-52.734,-46.875,-7.324,-93.262
1687769800.488,-30.762,-50.781,-50.293,-15.625,23.926
1687769800.492,-38.086,-58.105,-38.086,-31.738,87.402
1687769800.496,-58.105,-52.246,-29.785,-39.062,-11.230
1687769800.500,-51.758,-45.410,-50.781,-27.832,-98.145
1687769800.504,-33.203,-55.176,-51.270,-13.672,18.066
1687769800.508,-24.902,-63.477,-29.785,18.066,442.871
1687769800.512,-7.812,-40.527,-45.410,25.879,376.953
1687769800.515,8.301,-28.320,-43.457,9.277,-63.965
1687769800.519,-26.855,-40.527,-18.555,-17.090,-115.234
1687769800.523,-54.688,-55.664,-18.555,-28.320,-36.621
1687769800.527,-42.480,-50.781,-30.762,-18.066,-104.004
1687769800.531,-54.688,-55.664,-33.203,-49.316,-107.422
1687769800.532,-74.219,-52.734,-26.855,-79.590,-91.309
1687769800.536,-76.660,-44.922,-22.461,-61.035,-92.285
1687769800.540,-73.730,-53.711,-23.926,-50.293,-117.188
1687769800.544,-65.918,-50.781,-28.809,-47.363,-112.793
1687769800.548,-71.777,-59.082,-36.621,-56.641,-80.078
1687769800.552,-75.195,-66.406,-49.805,-72.266,-77.148
1687769800.556,-65.430,-66.895,-46.387,-53.711,-132.324
1687769800.559,-54.688,-64.453,-38.086,-34.180,-11.230
1687769800.563,-49.316,-55.664,-44.922,-28.320,397.461
1687769800.567,-44.434,-50.293,-39.062,-37.598,185.547
1687769800.571,-38.086,-53.711,-26.855,-46.875,-182.129
1687769800.575,-40.527,-56.152,-40.039,-42.480,-66.895
1687769800.577,-40.039,-48.340,-57.129,-27.344,-47.852
1687769800.581,-29.297,-46.875,-58.105,-13.672,-40.527
1687769800.585,-25.879,-39.062,-35.645,-15.137,-83.984
1687769800.589,-27.344,-37.109,-36.621,-26.855,31.738
1687769800.593,-22.461,-48.828,-38.086,-22.461,76.172
1687769800.597,-20.996,-47.852,-35.156,-3.418,-50.781
1687769800.601,-24.902,-43.945,-38.086,-6.836,41.016
1687769800.604,-20.996,-44.922,-30.273,-15.137,183.105
1687769800.608,-19.531,-38.574,-24.414,-22.461,64.941
1687769800.612,-20.996,-39.551,-32.715,-28.809,-175.293
1687769800.616,-29.785,-39.551,-50.781,-17.090,-168.457
1687769800.620,-26.367,-43.457,-36.621,2.441,27.344
1687769800.622,-15.625,-40.039,-20.996,4.883,52.734
1687769800.626,-22.949,-33.203,-40.527,-15.137,-139.160
1687769800.630,-17.090,-36.621,-56.152,-22.461,-118.164
1687769800.634,-11.719,-47.852,-26.367,0.977,-8.789
1687769800.638,-25.391,-55.176,-20.996,9.277,-10.742
1687769800.642,-23.926,-44.922,-31.250,-0.977,-7.812
1687769800.646,-20.996,-32.227,-4.883,-5.859,41.016
1687769800.649,-27.344,-24.414,-14.160,-16.602,140.137
1687769800.653,-24.414,-28.809,-35.645,-12.207,21.484
1687769800.657,-20.508,-30.273,-27.344,5.371,-63.477
1687769800.661,-17.090,-28.320,-41.504,6.836,63.965
1687769800.665,-18.066,-35.156,-49.805,-11.230,44.434
1687769800.682,-24.414,-47.852,-46.387,-30.762,-125.000
1687769800.686,-21.484,-55.176,-51.758,-25.879,-30.762
1687769800.690,-17.578,-47.363,-43.945,-4.395,196.289
1687769800.694,-23.438,-26.367,-36.621,-4.395,159.668
1687769800.698,-31.738,-28.320,-45.410,-35.645,-33.203
1687769800.702,-35.645,-42.969,-43.945,-51.758,-49.805
1687769800.706,-22.949,-39.062,-31.738,-14.648,210.449
1687769800.709,-9.766,-21.973,-31.250,17.090,272.949
1687769800.713,-28.320,-18.555,-44.922,-22.949,-56.641
1687769800.717,-47.852,-29.785,-45.410,-58.594,-106.934
1687769800.721,-46.387,-19.531,-27.344,-59.570,-37.109
1687769800.725,-48.340,-18.066,-33.691,-47.852,10.254
1687769800.715,-44.434,-20.996,-41.504,-39.062,-22.949
1687769800.719,-39.551,-11.230,-25.879,-39.062,-23.438
1687769800.723,-47.852,-16.113,-23.926,-58.105,40.039
1687769800.727,-52.246,-26.367,-30.762,-73.242,-53.711
1687769800.731,-61.035,-40.527,-46.875,-69.336,-119.629
1687769800.735,-57.617,-51.758,-56.152,-54.688,100.098
1687769800.739,-48.828,-51.270,-41.992,-30.762,245.117
1687769800.742,-57.129,-36.621,-41.992,-47.852,-10.742
1687769800.746,-64.453,-24.414,-50.293,-73.730,-163.086
1687769800.750,-53.223,-18.066,-43.457,-52.734,-50.781
1687769800.754,-46.387,-24.902,-40.039,-24.902,203.125
1687769800.758,-53.711,-45.898,-29.785,-20.996,109.375
1687769800.773,-57.129,-50.293,-23.926,-35.645,-33.691
1687769800.777,-62.988,-42.480,-26.367,-52.734,9.766
1687769800.781,-62.012,-42.480,-17.578,-46.387,34.180
1687769800.785,-45.898,-34.180,-24.902,-22.949,1.465
1687769800.789,-35.156,-23.926,-24.902,-7.812,-120.605
1687769800.793,-38.574,-35.156,-44.434,-11.719,127.930
1687769800.797,-49.805,-41.992,-67.383,-26.855,489.746
1687769800.800,-45.410,-34.180,-42.480,-32.715,169.434
1687769800.804,-18.555,-31.738,-19.531,-26.855,-124.023
1687769800.808,-21.484,-22.461,-16.602,-25.879,-44.922
1687769800.812,-54.199,-49.805,-28.320,-43.945,-71.777
1687769800.816,-70.312,-76.660,-46.875,-61.035,-128.906
1687769800.817,-58.105,-58.594,-56.152,-64.941,-92.773
1687769800.821,-46.875,-44.922,-56.641,-43.457,-32.715
1687769800.825,-39.062,-51.758,-54.199,-28.320,-21.484
1687769800.829,-36.621,-40.039,-57.617,-35.645,-43.945
1687769800.833,-44.922,-29.297,-60.547,-42.969,30.762
1687769800.837,-41.504,-44.434,-49.805,-34.668,164.062
1687769800.841,-27.832,-46.387,-47.363,-15.137,90.332
1687769800.844,-34.668,-29.297,-41.016,-19.531,-14.160
1687769800.848,-41.992,-24.902,-29.785,-20.020,15.137
1687769800.852,-35.156,-27.344,-32.715,-11.230,256.348
1687769800.856,-32.715,-25.391,-36.621,-23.926,111.328
1687769800.860,-41.016,-34.180,-44.434,-26.855,-143.555
1687769800.892,-49.805,-46.387,-59.082,-24.414,-49.316
1687769800.896,-39.062,-37.109,-60.547,-16.602,-17.578
1687769800.900,-36.133,-39.062,-42.969,-26.855,-90.332
1687769800.904,-43.945,-37.109,-28.809,-48.340,-195.801
1687769800.908,-43.945,-40.039,-29.297,-31.250,14.648
1687769800.912,-34.180,-41.016,-38.086,-20.508,178.223
1687769800.916,-51.270,-39.062,-40.039,-32.715,-10.742
1687769800.919,-65.918,-50.293,-30.762,-37.109,-42.969
1687769800.923,-45.410,-50.781,-41.016,-35.156,134.277
1687769800.927,-34.180,-39.551,-48.340,-20.996,211.426
1687769800.931,-39.551,-36.621,-28.809,-18.066,-81.055
1687769800.935,-48.340,-37.109,-29.297,-28.320,-160.156
1687769800.899,-58.105,-40.527,-44.922,-44.922,-92.285
1687769800.903,-63.477,-61.035,-47.363,-55.664,-119.629
1687769800.907,-57.617,-62.012,-40.527,-46.387,-168.457
1687769800.911,-56.152,-47.363,-43.945,-29.785,-75.684
1687769800.915,-50.293,-50.781,-51.270,-26.855,20.508
1687769800.919,-45.898,-38.086,-56.152,-41.016,4.395
1687769800.923,-48.340,-33.691,-53.711,-58.594,-25.879
1687769800.926,-43.457,-38.574,-61.523,-44.922,19.043
1687769800.930,-26.855,-28.809,-61.035,-23.438,80.566
1687769800.934,-30.762,-41.992,-38.574,-20.996,-11.230
1687769800.938,-40.527,-58.594,-39.062,-28.809,-92.285
1687769800.942,-31.250,-39.062,-47.852,-42.480,5.859
1687769800.952,-14.648,-12.695,-26.855,-29.297,21.484
1687769800.956,-14.648,-30.762,-26.855,-13.184,-57.617
1687769800.960,-31.738,-56.152,-39.062,-31.738,-1.953
1687769800.964,-37.598,-42.480,-33.691,-45.410,76.660
1687769800.968,-35.156,-30.273,-33.691,-32.715,371.582
1687769800.972,-36.621,-40.527,-24.414,-31.250,326.660
1687769800.976,-25.879,-46.387,-30.273,-23.926,-70.801
1687769800.979,-28.809,-40.527,-39.062,-16.113,59.570
1687769800.983,-45.898,-34.180,-28.320,-36.621,62.012
1687769800.987,-41.992,-40.527,-25.879,-59.570,-211.426
1687769800.991,-32.227,-48.340,-47.363,-58.105,-177.246
1687769800.995,-32.715,-36.133,-51.758,-42.480,-67.383
1687769800.997,-23.926,-28.320,-31.738,-23.438,-92.773
1687769801.001,-21.484,-37.109,-35.156,-12.695,-136.230
1687769801.005,-19.531,-35.645,-31.738,-25.879,-130.371
1687769801.009,-19.043,-24.902,-16.602,-37.598,-61.523
1687769801.013,-27.832,-31.250,-39.062,-26.855,-45.898
1687769801.017,-30.762,-40.039,-45.898,-22.949,63.477
1687769801.021,-28.809,-40.527,-45.898,-29.785,131.348
1687769801.024,-31.250,-37.109,-40.039,-31.738,189.941
1687769801.028,-30.273,-27.344,-24.414,-45.410,46.875
1687769801.032,-20.996,-22.949,-45.410,-37.109,-151.855
1687769801.036,-17.090,-30.273,-40.527,-19.531,-87.891
1687769801.040,-14.648,-40.527,-31.738,-17.090,-57.617
1687769801.044,-19.531,-36.621,-51.270,-38.574,-107.910
1687769801.048,-27.832,-30.273,-42.480,-59.570,-118.652
1687769801.052,-28.320,-37.109,-33.691,-34.668,129.395
1687769801.056,-27.344,-40.527,-56.152,-19.043,234.375
1687769801.060,-27.832,-33.203,-59.570,-31.250,-34.180
1687769801.064,-26.367,-8.789,-36.621,-38.086,-80.566
1687769801.068,-31.250,-24.902,-30.762,-31.250,99.121
1687769801.071,-37.598,-45.898,-41.504,-31.250,74.707
1687769801.075,-30.762,-30.762,-48.340,-30.273,-159.180
1687769801.079,-22.461,-45.410,-29.297,-28.809,-147.949
1687769801.083,-43.945,-59.570,-28.809,-57.129,-57.617
1687769801.087,-62.988,-53.711,-32.715,-67.871,-97.656
1687769801.089,-56.152,-60.059,-16.113,-58.105,-181.152
1687769801.093,-40.039,-36.621,-16.113,-31.738,-132.812
1687769801.097,-27.832,-18.555,-23.926,-18.066,14.648
1687769801.101,-32.227,-30.762,-53.223,-40.527,37.109
1687769801.105,-39.062,-38.574,-71.289,-56.152,-49.805
1687769801.109,-42.969,-54.688,-57.617,-52.734,14.160
1687769801.113,-34.180,-50.781,-69.336,-19.531,327.148
1687769801.116,-28.320,-38.086,-60.547,-19.531,208.496
1687769801.120,-33.691,-39.551,-26.367,-48.340,-76.172
1687769801.124,-28.809,-56.152,-39.062,-49.805,-43.457
1687769801.128,-18.555,-54.688,-47.363,-32.227,-39.551
1687769801.132,-12.207,-29.785,-48.828,-26.367,-131.836
1687769801.147,-11.230,-31.738,-45.898,-25.391,-140.137
1687769801.151,-35.156,-62.988,-40.039,-45.898,21.484
1687769801.155,-56.641,-70.801,-48.340,-74.707,-39.551
1687769801.159,-49.805,-51.758,-41.016,-55.664,-111.328
1687769801.163,-40.039,-45.410,-43.945,-43.945,-156.250
1687769801.167,-27.832,-40.039,-62.500,-34.180,18.555
1687769801.171,-29.297,-38.086,-45.410,-20.508,258.789
1687769801.174,-38.574,-46.875,-36.133,-41.016,14.160
1687769801.178,-37.109,-45.410,-49.316,-41.992,-134.277
1687769801.182,-20.508,-46.387,-42.969,-6.836,116.699
1687769801.186,-4.395,-39.551,-55.176,10.742,170.410
1687769801.190,-20.020,-38.086,-75.195,-26.367,-64.453
1687769801.192,-36.133,-41.504,-67.871,-67.871,-69.824
1687769801.196,-26.855,-36.621,-62.500,-74.707,-70.312
1687769801.200,-10.254,-20.020,-60.547,-58.105,-61.523
1687769801.204,-7.812,2.441,-69.824,-28.809,-43.457
1687769801.208,-12.207,1.953,-70.312,-28.320,6.836
1687769801.212,-11.719,3.418,-62.500,-60.059,54.688
1687769801.216,0.000,16.113,-64.941,-62.500,51.270
1687769801.219,12.695,16.113,-64.941,-40.039,-28.809
1687769801.223,9.766,10.254,-65.918,-30.273,91.309
1687769801.227,20.508,15.137,-64.453,-24.414,398.926
1687769801.231,25.391,19.531,-63.965,-36.621,180.664
1687769801.235,15.625,22.949,-69.336,-57.617,-119.141
1687769801.237,19.531,25.391,-71.289,-53.711,-81.055
1687769801.241,27.832,34.180,-69.336,-37.109,-98.633
1687769801.245,33.691,52.734,-62.012,-19.531,-116.699
1687769801.249,37.109,55.176,-62.988,-29.297,-175.781
1687769801.253,29.785,51.758,-67.383,-36.133,-39.062
1687769801.257,32.227,62.012,-57.617,-35.156,43.945
1687769801.261,25.391,66.406,-60.059,-49.316,-41.992
1687769801.264,24.414,68.359,-71.777,-47.363,-76.172
1687769801.268,33.203,63.965,-69.824,-36.621,162.109
1687769801.272,26.855,68.848,-80.566,-37.109,196.777
1687769801.276,31.250,87.402,-80.078,-31.738,-74.707
1687769801.280,39.551,76.172,-58.594,-13.672,-6.836
1687769801.282,32.715,59.570,-61.035,-11.719,64.453
1687769801.286,39.062,65.430,-56.641,-9.766,-15.625
1687769801.290,41.016,57.617,-56.641,-21.973,-150.391
1687769801.294,37.109,49.805,-64.453,-25.391,-50.293
1687769801.298,56.152,51.270,-70.312,8.301,30.273
1687769801.302,57.129,53.711,-77.148,9.766,65.918
1687769801.306,53.711,57.617,-63.965,-10.742,43.945
1687769801.309,52.246,50.781,-58.594,-23.438,-42.480
1687769801.313,39.062,43.457,-61.523,-15.137,170.898
1687769801.317,40.527,43.457,-57.129,-4.395,80.566
1687769801.321,44.922,27.344,-62.500,2.441,-149.414
1687769801.325,53.223,21.484,-66.895,13.184,-83.496
1687769801.328,41.992,25.391,-69.824,-7.324,-62.988
1687769801.332,23.438,17.578,-63.477,-22.949,-67.383
1687769801.336,24.902,15.625,-59.082,-10.254,-75.684
1687769801.340,14.648,13.672,-51.758,4.395,135.254
1687769801.344,14.160,24.902,-40.039,-1.465,260.742
1687769801.348,12.695,31.250,-49.316,-34.180,76.172
1687769801.352,12.695,17.090,-55.664,-30.762,63.477
1687769801.355,32.227,24.902,-40.039,11.230,227.051
1687769801.359,26.367,27.344,-41.992,20.996,185.547
1687769801.363,8.301,9.277,-60.547,-18.066,-82.520
1687769801.367,7.812,16.113,-79.102,-41.016,-115.723
1687769801.371,20.996,21.484,-68.359,-32.227,-110.840
1687769801.372,18.066,9.277,-42.480,-7.324,-96.680
1687769801.376,12.207,1.953,-46.387,6.348,-112.793
1687769801.380,22.949,12.695,-40.039,-6.348,-107.910
1687769801.384,24.902,17.578,-12.207,-4.883,-100.098
1687769801.388,-3.906,-5.371,-25.879,-36.621,-168.457
1687769801.392,-14.160,-26.855,-46.387,-52.246,-95.703
1687769801.396,-1.953,-27.344,-37.109,-25.391,40.039
1687769801.399,-4.883,1.465,-32.715,-18.066,308.594
1687769801.403,-10.254,8.301,-46.387,-32.227,195.801
1687769801.407,-11.719,-9.277,-59.570,-49.316,-129.883
1687769801.411,-1.465,-22.461,-64.453,-35.645,-140.625
1687769801.415,5.371,-19.531,-68.359,-15.137,-98.633
1687769801.417,-13.184,-19.043,-50.781,-25.879,-62.012
1687769801.421,-21.484,-10.742,-35.645,-39.062,-30.273
1687769801.425,-20.508,-7.812,-41.016,-36.621,126.953
1687769801.429,-18.555,-30.762,-38.086,-30.762,121.582
1687769801.433,-0.488,-25.879,-35.645,-7.324,15.137
1687769801.437,1.465,-23.926,-29.297,3.906,27.832
1687769801.441,-23.438,-39.062,-38.574,-22.949,190.430
1687769801.444,-17.578,-19.531,-40.527,-30.273,236.816
1687769801.448,0.488,-3.418,-37.598,-23.926,-48.340
1687769801.452,-6.836,-17.090,-53.711,-17.090,-88.867
1687769801.456,-32.227,-25.391,-58.105,-22.949,18.066
1687769801.460,-47.363,-25.879,-46.875,-38.574,-30.273
1687769801.463,-39.062,-28.809,-48.828,-51.270,-172.852
1687769801.467,-24.414,-19.043,-62.988,-39.551,-140.137
1687769801.471,-16.602,-24.414,-60.059,-19.531,2.930
1687769801.475,-21.973,-35.156,-44.922,-17.578,-20.020
1687769801.479,-30.273,-28.809,-39.062,-29.785,-111.328
1687769801.483,-26.855,-35.645,-30.762,-40.039,41.504
1687769801.487,-23.438,-51.758,-27.832,-39.551,244.141
1687769801.490,-22.949,-34.668,-32.715,-33.203,26.367
1687769801.494,-33.203,-24.414,-52.246,-28.809,-136.230
1687769801.498,-23.926,-38.574,-39.062,-34.180,-34.180
1687769801.502,-28.320,-34.668,-17.578,-42.480,26.367
1687769801.506,-50.781,-21.973,-40.527,-49.316,-122.559
1687769801.522,-46.387,-27.832,-57.129,-41.992,-167.969
1687769801.526,-45.410,-32.227,-45.410,-18.066,18.555
1687769801.530,-37.109,-24.902,-24.414,-17.090,23.926
1687769801.534,-37.598,-39.551,-27.832,-47.363,-141.602
1687769801.538,-40.527,-53.223,-34.668,-55.176,-166.016
1687769801.542,-21.484,-40.039,-43.945,-18.066,133.789
1687769801.546,-24.902,-29.297,-42.480,0.977,297.363
1687769801.549,-45.898,-41.016,-35.645,-36.621,35.156
1687769801.553,-41.016,-57.129,-28.809,-59.082,-115.723
1687769801.557,-32.227,-57.129,-41.992,-49.316,39.551
1687769801.561,-31.738,-41.504,-54.688,-36.621,147.949
1687769801.565,-39.062,-37.598,-35.645,-34.180,-59.570
1687769801.567,-46.387,-35.156,-24.902,-25.391,-119.141
1687769801.571,-41.504,-36.133,-36.133,-41.016,-2.441
1687769801.575,-47.363,-37.598,-26.367,-63.477,-91.309
1687769801.579,-51.270,-31.250,-30.273,-43.945,-184.082
1687769801.583,-43.945,-30.762,-46.875,-33.691,-62.012
1687769801.587,-33.203,-26.855,-35.156,-31.250,55.176
1687769801.591,-29.297,-35.645,-35.645,-38.574,-27.832
1687769801.594,-30.273,-45.898,-41.504,-47.852,-183.105
1687769801.598,-22.949,-42.480,-48.828,-38.086,-58.105
1687769801.602,-33.691,-59.570,-66.406,-24.902,199.219
1687769801.606,-35.645,-58.105,-47.363,-17.578,85.449
1687769801.610,-40.039,-57.129,-30.273,-38.574,-72.266
1687769801.612,-49.805,-68.848,-36.621,-57.617,-74.707
1687769801.616,-35.645,-45.410,-41.504,-47.363,-3.418
1687769801.620,-41.504,-51.758,-46.387,-44.434,-2.930
1687769801.624,-49.805,-71.289,-50.293,-45.410,-95.215
1687769801.628,-40.527,-57.129,-34.668,-45.898,48.340
1687769801.632,-48.340,-45.410,-27.344,-63.965,148.438
1687769801.636,-49.805,-37.598,-34.180,-61.523,-12.695
1687769801.639,-44.922,-45.410,-50.293,-48.828,-56.152
1687769801.643,-50.293,-50.293,-70.312,-42.480,137.695
1687769801.647,-49.316,-37.109,-54.199,-31.250,193.359
1687769801.651,-55.664,-56.152,-55.664,-46.875,-142.578
1687769801.655,-56.152,-65.918,-71.289,-60.547,-166.504
1687769801.657,-36.621,-43.457,-39.062,-41.992,-9.766
1687769801.661,-37.598,-45.410,-21.973,-29.785,1.465
1687769801.665,-50.781,-41.016,-30.273,-45.410,-28.809
1687769801.669,-48.828,-42.480,-39.062,-57.617,47.852
1687769801.673,-45.898,-44.922,-41.992,-54.688,109.863
1687769801.677,-47.852,-38.086,-39.062,-47.363,56.152
1687769801.681,-45.898,-41.992,-41.504,-36.133,92.773
1687769801.684,-43.457,-44.434,-42.480,-38.086,149.902
1687769801.688,-45.898,-37.598,-43.457,-48.340,204.102
1687769801.692,-41.992,-29.297,-38.574,-49.805,-7.324
1687769801.696,-38.574,-36.621,-34.180,-38.086,-164.062
1687769801.700,-37.598,-39.062,-22.461,-25.391,-79.102
1687769801.702,-40.039,-27.344,-34.180,-22.949,-85.449
1687769801.706,-42.480,-22.949,-62.988,-37.109,-41.016
1687769801.710,-33.203,-16.113,-41.504,-32.715,-79.590
1687769801.714,-38.574,-27.832,-40.039,-32.227,40.527
1687769801.718,-39.062,-31.250,-48.340,-39.551,163.574
1687769801.722,-27.344,-20.020,-30.762,-36.133,54.199
1687769801.726,-26.855,-20.508,-26.855,-45.898,-2.441
1687769801.729,-21.484,-16.113,-34.668,-47.363,162.109
1687769801.733,-24.902,-25.879,-49.316,-40.039,263.184
1687769801.737,-32.715,-26.855,-47.852,-36.133,-68.848
1687769801.741,-38.574,-24.902,-38.086,-38.574,-118.164
1687769801.745,-38.086,-31.738,-43.945,-46.875,-83.984
1687769801.747,-28.320,-31.738,-49.805,-45.410,-151.855
1687769801.751,-25.391,-23.926,-41.992,-29.785,-134.766
1687769801.755,-24.902,-22.949,-47.363,-20.508,-55.176
1687769801.759,-32.227,-33.691,-63.477,-32.715,17.578
1687769801.763,-36.621,-55.664,-70.312,-42.969,-49.805
1687769801.767,-38.086,-72.266,-57.129,-54.688,-59.570
1687769801.771,-27.344,-41.016,-54.199,-51.758,14.160
1687769801.774,-11.230,-11.719,-66.406,-13.672,327.637
1687769801.778,-25.391,-31.250,-55.664,-21.973,234.863
1687769801.782,-45.898,-50.781,-37.109,-47.852,-127.930
1687769801.786,-46.875,-28.809,-33.691,-47.363,-96.680
1687769801.790,-33.691,-26.855,-30.762,-42.969,-52.734
1687769801.792,-13.672,-34.180,-23.438,-21.484,-91.797
1687769801.796,-31.250,-28.320,-37.598,-21.973,-50.293
1687769801.800,-54.199,-31.250,-37.109,-40.039,157.227
1687769801.804,-45.410,-41.504,-39.551,-48.340,145.508
1687769801.808,-37.598,-40.039,-54.688,-41.504,-37.109
1687769801.812,-21.484,-34.668,-40.527,-21.973,36.621
1687769801.816,-20.508,-37.598,-42.480,-21.973,310.059
1687769801.819,-47.363,-40.527,-49.316,-44.434,309.570
1687769801.823,-57.129,-49.316,-43.457,-63.965,-97.168
1687769801.827,-47.852,-39.551,-47.852,-61.523,-137.207
1687769801.831,-33.203,-36.621,-37.598,-34.180,60.059
1687769801.835,-32.715,-43.457,-35.645,-26.855,8.789
1687769801.837,-52.734,-41.016,-55.664,-42.480,-115.723
1687769801.841,-59.570,-37.598,-62.012,-64.941,-144.043
1687769801.845,-57.129,-40.039,-62.988,-68.848,-43.457
1687769801.849,-57.129,-52.246,-46.387,-46.387,-43.457
1687769801.853,-52.734,-52.734,-32.227,-33.203,-36.621
1687769801.857,-48.828,-45.898,-46.387,-39.551,173.340
1687769801.861,-49.316,-31.250,-46.387,-45.898,257.812
1687769801.864,-52.734,-27.344,-33.691,-40.527,-42.969
1687769801.868,-60.059,-40.527,-41.504,-44.434,-188.477
1687769801.872,-64.453,-59.082,-50.781,-45.898,-43.457
1687769801.876,-61.523,-54.688,-48.828,-43.945,-39.062
1687769801.880,-59.570,-39.062,-50.293,-41.016,-142.090
1687769801.898,-62.500,-54.688,-59.082,-59.570,-123.535
1687769801.902,-61.523,-53.223,-54.199,-57.617,119.629
1687769801.906,-65.430,-40.039,-57.617,-22.461,263.184
1687769801.910,-62.500,-34.180,-62.012,-24.902,-33.691
1687769801.914,-63.965,-33.691,-44.922,-48.828,-159.180
1687769801.918,-68.848,-43.457,-54.199,-54.688,-34.180
1687769801.922,-63.477,-53.223,-61.035,-42.969,61.035
1687769801.925,-59.570,-58.594,-41.504,-33.203,4.883
1687769801.929,-50.293,-47.363,-44.922,-32.715,-135.254
1687769801.933,-50.293,-32.227,-51.270,-37.598,44.922
1687769801.937,-46.875,-29.785,-54.199,-33.203,91.309
1687769801.941,-34.180,-30.762,-58.594,-25.391,-117.676
1687769801.942,-21.484,-23.926,-39.062,-2.930,-67.383
1687769801.946,-34.668,-23.438,-35.645,-10.254,-5.371
1687769801.950,-62.012,-33.203,-41.992,-47.852,6.348
1687769801.954,-51.758,-28.320,-39.551,-64.453,-65.430
1687769801.958,-31.738,-21.484,-39.062,-47.852,1.465
1687769801.962,-38.574,-20.996,-32.715,-21.484,144.043
1687769801.966,-52.246,-24.902,-48.340,-32.715,85.449
1687769801.969,-54.199,-30.762,-59.570,-59.570,-79.102
1687769801.973,-49.316,-17.090,-48.828,-64.453,-77.148
1687769801.977,-43.457,-19.043,-59.082,-57.617,266.113
1687769801.981,-40.039,-21.484,-52.734,-41.016,147.949
1687769801.985,-38.574,-14.648,-30.273,-33.203,-114.746
1687769801.987,-42.969,-24.414,-44.434,-55.176,-77.637
1687769801.991,-46.387,-29.297,-41.504,-65.918,-45.898
1687769801.995,-39.062,-22.461,-22.949,-49.316,-26.367
1687769801.999,-38.086,-32.715,-31.738,-50.781,-133.301
1687769802.003,-34.668,-40.527,-37.598,-39.551,57.129
1687769802.007,-29.297,-34.668,-35.645,-33.691,260.742
1687769802.011,-32.227,-35.645,-45.898,-55.176,-9.766
1687769802.014,-35.156,-38.086,-50.293,-52.734,-107.422
1687769802.018,-34.180,-35.645,-55.176,-29.297,145.508
1687769802.022,-32.227,-38.086,-43.945,-35.156,228.027
1687769802.026,-33.203,-48.340,-22.949,-51.270,-82.031
1687769802.030,-31.738,-44.434,-32.715,-50.781,-131.836
1687769802.032,-34.180,-42.480,-46.387,-50.781,-80.566
1687769802.036,-35.645,-38.574,-34.668,-35.156,-55.664
1687769802.040,-34.668,-35.156,-42.969,-28.320,-31.250
1687769802.044,-38.574,-41.992,-53.711,-36.133,-0.977
1687769802.048,-43.457,-33.691,-38.574,-45.898,-47.852
1687769802.052,-34.668,-23.926,-35.645,-43.457,-90.332
1687769802.056,-20.996,-25.391,-39.062,-35.156,-9.277
1687769802.059,-24.414,-21.484,-33.691,-19.043,-13.672
1687769802.063,-36.133,-16.602,-29.785,-12.695,180.176
1687769802.067,-36.621,-8.789,-32.227,-42.969,101.074
1687769802.071,-34.668,-6.348,-24.902,-53.711,-234.375
1687769802.075,-20.996,-2.441,-27.344,-16.602,-193.359
1687769802.077,-21.484,-12.207,-28.809,0.977,-97.656
1687769802.081,-37.109,-34.180,-15.625,-20.020,-10.254
1687769802.085,-43.945,-19.043,-18.066,-43.945,-103.516
