timestamps,TP9,AF7,AF8,TP10,Right AUX
1687767006.790,-58.594,-42.480,-49.805,-42.969,75.684
1687767006.794,-59.570,-41.504,-36.133,-40.039,-9.766
1687767006.798,-55.664,-41.992,-38.574,-32.715,-126.465
1687767006.802,-46.387,-36.621,-39.551,-18.066,-108.398
1687767006.806,-31.250,-37.598,-38.086,-20.020,-20.508
1687767006.810,-34.180,-37.598,-42.969,-35.645,-38.574
1687767006.814,-26.855,-39.062,-44.434,-43.457,2.441
1687767006.817,-9.766,-38.574,-41.992,-37.109,66.406
1687767006.821,-20.996,-39.551,-52.734,-31.738,303.223
1687767006.825,-27.344,-50.781,-56.152,-44.434,337.891
1687767006.829,-35.645,-58.594,-46.387,-46.875,-62.012
1687767006.833,-39.062,-51.758,-38.574,-40.039,-33.691
1687767006.836,-46.387,-35.645,-38.086,-23.926,97.168
1687767006.840,-48.828,-32.715,-44.922,-27.832,67.871
1687767006.844,-42.480,-29.785,-41.016,-29.785,-22.949
1687767006.848,-61.523,-44.922,-51.758,-31.738,35.156
1687767006.851,-69.336,-54.688,-56.152,-36.133,53.223
1687767006.855,-61.523,-54.199,-40.039,-36.621,-24.414
1687767006.859,-69.336,-48.340,-32.227,-29.297,-74.219
1687767006.863,-72.266,-38.086,-40.527,-21.484,-123.047
1687767006.867,-80.566,-35.156,-44.434,-27.832,110.840
1687767006.865,-97.656,-37.598,-46.387,-35.156,189.941
1687767006.869,-106.445,-32.715,-46.387,-29.297,-32.715
1687767006.873,-105.469,-35.156,-36.621,-28.320,-5.859
1687767006.877,-109.863,-42.480,-37.598,-40.527,-69.824
1687767006.881,-131.836,-33.203,-51.270,-46.875,14.648
1687767006.885,-151.855,-37.598,-51.270,-61.035,25.879
1687767006.889,-154.785,-50.293,-40.527,-48.340,21.484
1687767006.892,-153.320,-50.781,-48.340,-38.574,412.109
1687767006.896,-155.273,-49.316,-53.223,-44.922,415.527
1687767006.900,-155.273,-43.457,-49.805,-43.945,-17.090
1687767006.904,-143.066,-49.805,-52.246,-51.270,-124.512
1687767006.908,-131.836,-53.711,-42.480,-55.176,-116.699
1687767006.912,-109.375,-37.109,-33.691,-54.688,-143.555
1687767006.916,-79.590,-36.621,-41.016,-60.547,-101.562
1687767006.920,-78.125,-45.898,-50.293,-61.035,-75.684
1687767006.924,-75.195,-50.293,-55.664,-58.594,-74.707
1687767006.928,-72.266,-62.988,-49.805,-61.035,-4.395
1687767006.932,-75.195,-69.336,-42.480,-75.684,-17.090
1687767006.936,-67.871,-62.012,-47.363,-61.523,169.922
1687767006.939,-49.805,-55.176,-53.223,-43.457,246.582
1687767006.943,-38.086,-49.316,-52.734,-48.828,-41.992
1687767006.947,-38.574,-46.875,-53.223,-55.664,-60.547
1687767006.951,-47.852,-50.293,-49.805,-56.152,53.223
1687767006.955,-43.457,-43.945,-40.527,-46.875,6.836
1687767006.955,-24.414,-51.270,-44.434,-38.574,-72.754
1687767006.959,-27.832,-51.758,-55.664,-45.410,-64.453
1687767006.963,-38.086,-43.945,-56.641,-43.457,91.797
1687767006.967,-49.316,-51.270,-57.129,-45.898,91.797
1687767006.971,-43.457,-52.246,-51.270,-61.523,-84.961
1687767006.975,-27.344,-46.875,-45.898,-59.082,-50.293
1687767006.979,-32.715,-49.316,-54.199,-44.922,273.926
1687767006.982,-29.297,-51.758,-49.805,-43.457,233.398
1687767006.986,-26.855,-49.316,-41.504,-52.246,-150.879
1687767006.990,-34.668,-44.434,-38.086,-46.387,-19.531
1687767006.994,-30.273,-41.504,-34.180,-42.480,139.648
1687767006.998,-34.180,-37.598,-38.086,-52.246,-45.410
1687767007.016,-52.246,-34.180,-42.480,-46.875,-152.832
1687767007.020,-58.105,-24.414,-50.293,-31.250,-98.145
1687767007.024,-84.473,-27.832,-50.781,-55.664,-40.039
1687767007.028,-116.211,-37.598,-39.551,-93.262,-63.965
1687767007.032,-134.766,-31.250,-43.457,-100.586,-30.762
1687767007.036,-159.668,-33.203,-40.527,-103.027,152.344
1687767007.040,-180.176,-39.062,-36.621,-111.816,198.730
1687767007.043,-206.055,-33.203,-37.109,-143.066,51.758
1687767007.047,-219.238,-24.414,-29.297,-157.715,-56.152
1687767007.051,-234.375,-27.344,-22.949,-168.457,-74.707
1687767007.055,-256.348,-33.203,-24.414,-204.102,-115.234
1687767007.059,-281.738,-36.133,-22.461,-227.539,-95.703
1687767007.060,-307.129,-32.227,-20.508,-248.535,-121.094
1687767007.064,-321.289,-27.832,-9.766,-254.395,124.023
1687767007.068,-342.285,-36.133,13.184,-262.207,197.754
1687767007.072,-370.605,-35.645,18.555,-283.203,-114.746
1687767007.076,-363.770,-26.367,16.113,-302.246,-43.457
1687767007.080,-339.844,-9.766,18.066,-290.527,92.773
1687767007.084,-335.449,1.953,3.418,-281.250,56.641
1687767007.087,-323.242,-10.742,-3.906,-277.344,-3.906
1687767007.091,-303.223,-20.996,-5.859,-262.207,33.691
1687767007.095,-276.367,-22.949,-13.672,-235.840,287.109
1687767007.099,-238.281,-19.531,-24.414,-189.453,160.156
1687767007.103,-211.914,-20.020,-39.551,-166.504,-72.754
1687767007.108,-182.129,-20.996,-41.016,-130.859,-27.832
1687767007.112,-153.320,-22.461,-44.922,-114.746,25.391
1687767007.116,-130.371,-29.297,-63.965,-110.840,12.207
1687767007.120,-110.352,-38.574,-69.824,-82.520,-96.191
1687767007.124,-95.215,-42.480,-62.500,-70.801,-5.371
1687767007.128,-74.707,-38.086,-61.035,-60.547,121.582
1687767007.132,-69.824,-48.828,-70.312,-43.457,57.617
1687767007.135,-73.730,-56.152,-72.754,-27.832,-103.516
1687767007.139,-81.543,-56.641,-69.824,-9.766,54.199
1687767007.143,-65.918,-47.363,-70.312,17.578,192.871
1687767007.147,-52.734,-39.551,-72.266,24.414,-79.102
1687767007.151,-50.293,-45.410,-76.172,22.461,-88.379
1687767007.151,-35.156,-46.387,-79.102,26.855,-18.066
1687767007.155,-46.875,-58.105,-86.914,20.996,-21.973
1687767007.159,-49.316,-67.871,-84.473,31.738,-87.402
1687767007.163,-31.250,-61.523,-63.477,26.855,-64.941
1687767007.167,-5.859,-44.922,-56.641,27.832,9.766
1687767007.171,9.277,-41.992,-69.336,38.086,-11.230
1687767007.175,16.602,-43.945,-73.730,32.227,-12.207
1687767007.178,34.668,-36.621,-65.430,36.133,82.520
1687767007.182,53.711,-36.133,-62.012,58.105,330.078
1687767007.186,55.664,-35.156,-66.895,65.430,295.898
1687767007.190,58.105,-41.992,-65.918,49.805,-29.785
1687767007.194,58.105,-51.270,-68.848,37.598,-84.473
1687767007.197,58.105,-51.270,-73.730,33.691,-50.293
1687767007.201,70.312,-54.199,-63.477,27.832,-165.039
1687767007.205,83.984,-59.570,-64.453,33.691,-141.602
1687767007.209,87.891,-54.199,-70.312,39.551,-29.297
1687767007.213,82.520,-49.316,-67.383,32.227,-38.086
1687767007.217,74.707,-49.805,-66.406,38.574,12.207
1687767007.221,75.195,-52.246,-66.406,48.340,106.934
1687767007.224,78.125,-48.828,-63.477,41.016,270.508
1687767007.228,71.777,-43.457,-64.453,48.340,297.852
1687767007.232,72.754,-41.504,-62.012,42.480,-39.551
1687767007.236,71.289,-41.504,-58.105,19.531,-130.371
1687767007.240,68.359,-40.039,-54.688,6.836,-64.453
1687767007.241,74.219,-41.992,-51.758,12.695,-128.418
1687767007.245,65.918,-50.293,-60.059,20.508,-144.043
1687767007.249,55.664,-46.875,-62.500,0.000,-97.168
1687767007.253,51.758,-33.203,-54.688,-5.371,-47.852
1687767007.257,48.340,-31.250,-56.641,-1.465,-38.574
1687767007.261,52.246,-37.598,-64.453,11.719,-36.133
1687767007.265,52.246,-37.109,-62.988,3.906,21.484
1687767007.268,42.480,-33.203,-50.293,1.953,326.172
1687767007.272,40.527,-28.809,-54.688,15.137,321.289
1687767007.276,42.480,-29.297,-65.918,-6.348,-49.316
1687767007.280,39.551,-39.551,-60.547,-11.719,38.086
1687767007.284,27.832,-44.922,-53.711,-6.348,62.988
1687767007.287,28.320,-40.039,-54.199,-4.883,-102.539
1687767007.291,32.715,-43.457,-56.152,-7.324,-82.031
1687767007.295,26.855,-47.363,-60.547,2.930,-29.297
1687767007.299,20.508,-37.109,-62.988,1.465,-32.227
1687767007.303,20.996,-37.109,-56.152,-11.719,-56.152
1687767007.307,16.602,-41.504,-48.340,-13.672,-52.246
1687767007.311,14.648,-40.527,-49.316,-22.949,187.988
1687767007.314,13.184,-42.480,-49.316,-13.184,278.320
1687767007.318,11.719,-39.062,-42.969,-8.789,-71.289
1687767007.322,15.625,-36.133,-50.781,-14.648,-97.168
1687767007.326,16.113,-42.480,-66.406,-23.926,39.062
1687767007.330,20.996,-47.852,-62.988,-6.348,3.906
1687767007.331,9.277,-55.664,-45.898,-1.465,-83.008
1687767007.335,-12.695,-61.035,-41.504,-11.230,-55.664
1687767007.339,-13.184,-61.523,-45.898,-2.441,58.594
1687767007.343,-7.812,-63.965,-45.898,-3.418,8.301
1687767007.347,0.000,-66.406,-39.062,3.906,-60.547
1687767007.351,6.348,-71.777,-39.062,13.184,99.609
1687767007.355,13.184,-83.008,-40.527,32.715,407.227
1687767007.358,17.090,-82.031,-26.855,53.223,322.266
1687767007.362,13.184,-78.613,-20.996,67.383,-88.379
1687767007.366,22.949,-86.426,-14.648,81.543,-79.590
1687767007.370,34.180,-94.727,-2.441,87.402,-18.066
1687767007.374,50.781,-98.633,0.000,107.422,-125.000
1687767007.379,63.965,-98.633,2.441,126.465,-172.363
1687767007.383,71.289,-107.422,10.254,127.441,72.266
1687767007.387,68.359,-122.070,15.137,128.906,101.562
1687767007.391,56.641,-123.047,17.578,133.789,-108.398
1687767007.395,54.199,-123.535,20.996,145.508,-122.070
1687767007.399,51.758,-128.906,19.043,157.715,118.164
1687767007.403,55.664,-129.395,20.996,153.809,237.793
1687767007.406,52.734,-125.488,27.832,135.742,-50.781
1687767007.410,43.945,-119.629,28.809,129.395,-148.438
1687767007.414,42.480,-118.164,18.066,125.977,-32.715
1687767007.418,32.227,-114.258,8.789,120.117,-6.348
1687767007.422,40.039,-105.957,23.438,120.605,-101.562
1687767007.435,35.156,-107.910,23.438,98.633,-72.266
1687767007.439,9.277,-107.910,9.766,86.426,-26.367
1687767007.443,7.812,-111.816,2.441,78.613,-67.383
1687767007.447,1.465,-113.281,-5.371,70.801,19.043
1687767007.451,-6.836,-101.562,1.465,69.336,76.660
1687767007.455,-14.648,-96.680,-2.441,64.941,268.066
1687767007.459,-26.367,-95.215,-8.789,64.941,291.504
1687767007.462,-24.414,-98.633,-3.906,69.336,10.254
1687767007.466,-20.508,-100.098,-13.184,67.383,102.539
1687767007.470,-14.648,-86.426,-11.719,66.895,141.602
1687767007.474,-14.648,-88.867,-9.277,64.453,-102.051
1687767007.478,-17.090,-104.980,-12.207,51.758,-173.340
1687767007.482,-14.648,-101.074,-17.090,42.480,-50.781
1687767007.486,-13.672,-91.309,-20.996,29.297,-7.812
1687767007.490,-12.207,-86.914,-18.555,17.578,-40.039
1687767007.494,-12.695,-81.543,-22.461,6.836,-48.340
1687767007.498,-6.348,-81.543,-24.414,9.277,-53.711
1687767007.502,-1.465,-85.938,-34.668,1.953,-51.270
1687767007.506,0.977,-83.984,-34.180,3.906,20.508
1687767007.509,14.648,-74.707,-33.203,8.301,45.898
1687767007.513,15.625,-77.148,-44.434,4.883,148.438
1687767007.517,3.906,-85.449,-41.504,-4.883,244.629
1687767007.521,15.137,-80.078,-31.250,-1.953,-5.859
1687767007.525,21.484,-81.055,-34.180,3.418,-154.297
1687767007.525,20.020,-82.520,-41.504,2.930,-107.910
1687767007.529,24.414,-71.289,-45.898,2.441,-90.332
1687767007.533,14.648,-76.172,-49.316,-2.441,-116.211
1687767007.537,9.277,-79.102,-43.945,-2.930,-86.426
1687767007.541,10.254,-76.660,-41.016,-2.930,37.109
1687767007.545,10.742,-81.543,-47.363,-11.719,133.301
1687767007.549,11.230,-74.219,-47.852,-17.090,111.816
1687767007.552,12.695,-64.941,-39.062,-17.090,42.480
1687767007.556,14.648,-71.289,-41.992,-10.742,290.039
1687767007.560,8.789,-75.195,-55.176,-12.695,324.707
1687767007.564,2.930,-69.336,-52.246,-7.812,-26.367
1687767007.568,8.789,-66.895,-43.457,-4.395,-60.547
1687767007.571,15.137,-67.383,-44.434,-14.160,-106.934
1687767007.575,15.137,-72.754,-43.457,-17.578,-225.098
1687767007.579,18.066,-72.266,-45.898,-20.020,-200.195
1687767007.583,13.184,-66.406,-43.945,-17.578,-77.637
1687767007.587,8.789,-65.918,-47.852,-22.949,-1.953
1687767007.591,7.324,-61.035,-41.992,-34.668,-19.531
1687767007.595,4.395,-62.988,-32.715,-27.832,-54.199
1687767007.598,13.672,-70.312,-48.828,-20.508,112.305
1687767007.602,12.695,-74.219,-57.129,-35.156,161.133
1687767007.606,9.766,-75.684,-54.199,-41.992,-109.375
1687767007.610,18.555,-65.430,-53.223,-34.668,-158.203
1687767007.614,9.766,-61.035,-42.969,-36.133,-15.137
1687767007.615,7.812,-66.895,-31.738,-32.227,-7.812
1687767007.619,33.691,-65.918,-34.668,-19.043,-63.965
1687767007.623,46.387,-55.176,-47.852,-5.371,-5.859
1687767007.627,31.738,-50.293,-54.199,-19.531,-23.438
1687767007.631,19.531,-52.246,-48.828,-41.504,-61.523
1687767007.635,18.066,-44.434,-41.992,-28.320,-41.992
1687767007.639,27.832,-37.598,-41.992,-29.297,55.176
1687767007.642,24.902,-49.805,-46.387,-31.250,385.742
1687767007.646,20.020,-59.570,-52.246,-31.738,346.191
1687767007.650,14.648,-55.664,-53.223,-41.992,-56.641
1687767007.654,17.578,-63.477,-52.734,-43.945,-67.383
1687767007.658,24.902,-70.312,-55.176,-46.387,-40.527
1687767007.663,24.414,-66.406,-61.035,-48.340,-48.828
1687767007.667,37.598,-64.941,-63.965,-49.805,-35.645
1687767007.671,38.086,-56.152,-51.758,-50.293,5.859
1687767007.675,42.969,-41.504,-45.898,-50.781,84.473
1687767007.679,51.270,-39.062,-49.316,-34.668,-1.465
1687767007.683,25.879,-56.152,-54.199,-29.785,8.789
1687767007.687,-4.395,-67.871,-59.082,-36.621,278.320
1687767007.690,-12.207,-62.988,-56.641,-37.598,252.930
1687767007.694,7.324,-54.199,-58.105,-27.832,-129.395
1687767007.698,13.672,-50.293,-67.871,-39.062,-185.547
1687767007.702,3.418,-50.293,-55.664,-50.781,-88.867
1687767007.706,-0.977,-52.734,-39.551,-47.363,-81.055
1687767007.705,-2.441,-52.734,-42.480,-30.273,-158.691
1687767007.709,-4.883,-52.734,-42.969,-23.438,-152.832
1687767007.713,11.230,-53.223,-39.062,-26.367,-92.285
1687767007.717,7.812,-55.176,-45.898,-32.715,-38.086
1687767007.721,-15.137,-63.477,-48.340,-53.223,9.766
1687767007.725,-16.602,-61.035,-42.969,-56.641,104.004
1687767007.729,-16.113,-51.270,-48.340,-49.316,387.207
1687767007.732,-18.555,-43.945,-60.059,-33.203,418.945
1687767007.736,-14.160,-46.875,-60.547,-41.992,56.641
1687767007.740,-2.441,-43.457,-51.270,-43.457,-16.602
1687767007.744,-1.953,-36.133,-47.852,-31.738,-22.949
1687767007.748,-4.395,-41.504,-50.781,-33.691,-86.914
1687767007.765,-19.531,-49.805,-47.363,-54.688,-78.613
1687767007.769,-29.785,-43.945,-40.527,-59.082,5.371
1687767007.773,-23.438,-45.898,-46.387,-57.129,25.879
1687767007.777,-34.668,-52.734,-49.805,-66.895,-76.660
1687767007.781,-40.039,-54.199,-47.852,-71.289,-96.680
1687767007.785,-36.621,-53.223,-48.828,-56.152,27.344
1687767007.789,-48.828,-48.340,-40.527,-54.199,128.418
1687767007.792,-49.805,-51.270,-39.551,-62.012,94.727
1687767007.796,-47.852,-53.223,-45.898,-51.758,-62.500
1687767007.800,-58.105,-56.152,-46.875,-59.082,124.023
1687767007.804,-73.242,-61.523,-54.199,-72.266,295.898
1687767007.808,-60.059,-56.152,-58.105,-75.195,2.441
1687767007.810,-39.062,-43.945,-51.270,-71.289,-87.891
1687767007.814,-39.551,-51.758,-63.965,-68.848,2.441
1687767007.818,-49.805,-56.152,-80.078,-73.730,3.906
1687767007.822,-46.875,-47.852,-79.590,-68.848,-114.746
1687767007.826,-50.781,-53.223,-81.055,-74.707,-63.477
1687767007.830,-63.965,-60.059,-83.008,-79.102,153.320
1687767007.834,-56.641,-59.082,-79.590,-80.078,142.090
1687767007.837,-53.223,-53.223,-70.801,-65.430,-64.941
1687767007.841,-54.199,-53.711,-65.430,-63.965,-114.258
1687767007.845,-58.594,-52.246,-64.453,-69.336,221.680
1687767007.849,-55.176,-45.410,-62.988,-52.734,202.637
1687767007.853,-41.016,-50.781,-62.012,-54.199,-160.645
1687767007.856,-62.988,-56.641,-70.312,-78.613,-117.676
1687767007.860,-64.453,-57.617,-70.312,-83.984,-100.098
1687767007.864,-31.738,-51.758,-60.059,-63.477,-130.371
1687767007.868,-23.438,-41.504,-59.570,-41.992,-74.707
1687767007.872,-35.156,-38.574,-60.547,-47.852,21.484
1687767007.876,-36.133,-42.480,-62.988,-59.570,74.219
1687767007.880,-42.969,-45.410,-65.918,-72.266,52.734
1687767007.883,-49.316,-50.293,-62.988,-68.848,-1.953
1687767007.887,-32.227,-50.781,-63.477,-48.828,96.191
1687767007.891,-27.832,-46.875,-61.523,-39.062,256.836
1687767007.895,-27.832,-51.270,-55.664,-62.500,-1.465
1687767007.899,-29.297,-57.129,-54.199,-71.777,-157.715
1687767007.915,-39.062,-50.781,-56.641,-58.594,30.273
1687767007.919,-33.691,-47.363,-56.152,-75.684,62.988
1687767007.923,-31.250,-54.199,-56.641,-66.895,-10.254
1687767007.927,-29.297,-57.617,-53.223,-52.734,-39.551
1687767007.931,-21.973,-55.176,-50.293,-53.223,44.434
1687767007.935,-14.648,-47.363,-54.688,-49.316,140.137
1687767007.939,-11.230,-47.852,-59.082,-55.664,69.336
1687767007.942,-20.996,-55.664,-60.059,-59.570,32.227
1687767007.946,-30.273,-60.547,-55.176,-58.594,249.512
1687767007.950,-22.949,-56.152,-50.293,-53.223,209.961
1687767007.954,-4.883,-41.992,-38.574,-42.480,-82.520
1687767007.958,-11.230,-45.898,-47.363,-39.062,-79.590
1687767007.947,-18.555,-56.641,-64.453,-46.387,-52.734
1687767007.951,-23.926,-54.199,-63.965,-56.641,-82.031
1687767007.955,-30.273,-56.641,-57.617,-61.523,-125.000
1687767007.959,-25.879,-58.594,-56.152,-56.152,-30.762
1687767007.963,-24.414,-54.688,-54.199,-45.898,83.496
1687767007.967,-18.555,-59.570,-52.246,-42.969,92.285
1687767007.971,-18.066,-64.453,-50.781,-48.340,50.293
1687767007.974,-13.184,-64.941,-56.152,-54.688,32.715
1687767007.978,-7.812,-65.430,-58.105,-49.805,-3.418
1687767007.982,2.441,-54.688,-45.898,-42.480,-39.551
1687767007.986,-5.371,-60.059,-51.270,-31.250,-49.316
1687767007.990,-20.508,-69.824,-57.617,-36.133,175.293
1687767007.992,-26.855,-65.918,-58.105,-61.035,252.441
1687767007.996,-17.578,-64.453,-57.129,-55.176,-46.387
1687767008.000,-5.371,-54.688,-45.410,-39.551,-60.059
1687767008.004,-17.090,-50.293,-48.340,-54.688,49.805
1687767008.008,-27.344,-64.453,-62.988,-68.359,56.152
1687767008.012,-29.785,-71.289,-60.547,-73.730,-59.082
1687767008.016,-25.879,-68.848,-58.105,-63.477,-39.551
1687767008.019,-0.977,-65.430,-57.129,-35.156,320.312
1687767008.023,8.301,-66.895,-52.246,-37.109,286.621
1687767008.027,-4.395,-76.172,-52.734,-55.664,-87.402
1687767008.031,-5.859,-74.707,-49.805,-54.688,-12.207
1687767008.035,-2.930,-70.801,-47.852,-57.129,-2.930
1687767008.036,0.977,-71.777,-45.898,-48.828,-165.039
1687767008.040,8.301,-67.871,-44.922,-44.922,-154.297
1687767008.044,-4.395,-66.895,-44.434,-47.363,-90.332
1687767008.048,-10.742,-66.895,-39.062,-42.480,-89.355
1687767008.052,-3.418,-65.430,-43.945,-39.551,-84.473
1687767008.056,-2.441,-68.848,-47.852,-34.668,-48.340
1687767008.060,4.883,-78.613,-41.016,-22.949,234.375
1687767008.063,8.301,-87.891,-37.598,-14.648,449.219
1687767008.067,4.395,-87.891,-44.922,-31.250,64.453
1687767008.071,8.789,-83.008,-47.363,-41.016,-159.180
1687767008.075,15.625,-78.125,-40.039,-30.762,-23.926
1687767008.079,4.883,-74.707,-47.363,-34.668,-42.480
1687767008.080,-1.465,-74.219,-53.223,-34.668,-134.277
1687767008.084,8.301,-70.801,-45.898,-22.461,-107.422
1687767008.088,-1.465,-67.871,-37.109,-19.043,-28.809
1687767008.092,-12.695,-77.148,-41.504,-43.457,-58.594
1687767008.096,-11.719,-91.797,-48.340,-49.805,-33.203
1687767008.100,-6.348,-85.449,-36.133,-34.668,120.117
1687767008.104,-1.953,-75.195,-30.762,-35.645,403.320
1687767008.107,-16.602,-79.102,-31.738,-39.551,338.379
1687767008.111,-24.902,-77.148,-30.273,-34.668,-77.148
1687767008.115,-22.949,-75.684,-29.785,-40.527,-86.914
1687767008.119,-22.949,-75.195,-25.391,-51.270,40.039
1687767008.123,-19.043,-69.824,-21.484,-50.293,-106.934
1687767008.129,-18.555,-66.895,-25.879,-41.992,-160.156
1687767008.133,-17.090,-60.547,-23.438,-43.457,-83.496
1687767008.137,-18.555,-59.570,-22.461,-39.062,-57.617
1687767008.141,-24.414,-62.012,-30.762,-44.922,-141.113
1687767008.145,-7.812,-50.293,-27.344,-40.039,-148.438
1687767008.149,-16.113,-52.734,-32.227,-39.062,116.699
1687767008.153,-30.273,-64.453,-39.551,-45.898,217.285
1687767008.156,-28.809,-65.918,-33.691,-48.828,-2.930
1687767008.160,-34.668,-67.383,-25.879,-48.828,-101.074
1687767008.164,-28.320,-65.918,-19.043,-31.738,138.672
1687767008.168,-29.297,-58.105,-18.066,-24.902,130.859
1687767008.172,-37.598,-50.293,-22.949,-29.297,-104.492
1687767008.185,-29.297,-56.152,-20.020,-43.945,-121.094
1687767008.189,-25.391,-62.988,-26.367,-49.805,-50.293
1687767008.193,-34.180,-53.223,-39.551,-50.781,-67.871
1687767008.197,-25.391,-49.805,-35.156,-40.039,-111.816
1687767008.201,-14.160,-54.688,-30.762,-30.273,-64.941
1687767008.205,-14.648,-50.293,-19.043,-28.809,333.496
1687767008.209,-17.090,-47.852,-11.719,-19.531,528.320
1687767008.212,-21.484,-54.688,-16.113,-30.273,73.242
1687767008.216,-21.973,-55.176,-22.949,-38.086,7.812
1687767008.220,-22.461,-49.805,-27.832,-36.621,115.234
1687767008.224,-24.414,-44.922,-31.738,-41.016,9.766
1687767008.228,-24.902,-46.875,-32.227,-37.598,-36.133
1687767008.231,-20.996,-42.969,-30.273,-38.574,47.363
1687767008.235,-34.668,-43.945,-31.738,-45.410,77.148
1687767008.239,-44.434,-57.617,-38.086,-42.480,-87.891
1687767008.243,-31.738,-52.246,-33.203,-41.504,-106.934
1687767008.247,-27.344,-43.457,-29.785,-41.016,-46.875
1687767008.251,-30.273,-49.805,-30.273,-43.945,40.527
1687767008.255,-40.527,-48.828,-33.203,-56.641,57.617
1687767008.258,-41.504,-46.387,-39.062,-62.012,-76.172
1687767008.262,-37.598,-44.922,-31.738,-44.922,51.270
1687767008.266,-26.855,-44.434,-32.227,-23.926,183.594
1687767008.270,-24.902,-47.363,-32.227,-38.574,-44.922
1687767008.274,-34.180,-52.246,-32.715,-49.316,-137.207
1687767008.276,-26.855,-51.270,-36.133,-44.922,-71.289
1687767008.280,-11.230,-42.480,-35.156,-39.551,-26.367
1687767008.284,0.977,-37.598,-36.621,-31.250,-31.738
1687767008.288,4.883,-37.109,-32.715,-24.414,-46.387
1687767008.292,-4.883,-41.992,-34.180,-22.461,171.387
1687767008.296,-2.930,-40.527,-30.762,-14.648,225.586
1687767008.300,0.488,-45.410,-25.879,-14.160,37.109
1687767008.303,-4.395,-45.898,-33.691,-20.996,46.387
1687767008.307,0.977,-38.574,-34.180,-17.090,299.805
1687767008.311,-16.113,-38.574,-28.809,-20.508,230.957
1687767008.315,-19.531,-35.156,-33.691,-31.738,-108.887
1687767008.319,-17.578,-35.156,-39.551,-24.902,-34.180
1687767008.322,-20.508,-39.551,-35.645,-26.855,-30.762
1687767008.326,-17.090,-36.621,-30.762,-39.551,-117.676
1687767008.330,-41.992,-40.527,-36.133,-41.016,-155.273
1687767008.334,-53.223,-47.363,-39.551,-50.781,-121.582
1687767008.338,-48.340,-45.410,-31.250,-49.316,-59.082
1687767008.342,-46.387,-41.504,-27.344,-33.691,46.875
1687767008.346,-38.086,-43.945,-23.926,-22.949,20.508
1687767008.349,-30.273,-51.270,-17.090,-26.367,159.180
1687767008.353,-29.297,-47.852,-18.066,-25.879,302.246
1687767008.357,-27.832,-40.527,-20.508,-23.438,-5.371
1687767008.361,-11.719,-41.504,-15.625,-30.762,-92.285
1687767008.365,-10.254,-41.504,-18.066,-42.480,-78.613
1687767008.365,-16.602,-44.922,-18.066,-40.527,-105.957
1687767008.369,-25.391,-47.852,-8.301,-45.410,-149.902
1687767008.373,-28.809,-43.945,-18.555,-42.969,-115.234
1687767008.377,-13.672,-48.828,-15.625,-18.555,-15.137
1687767008.381,-15.625,-53.711,-7.324,-40.039,-37.598
1687767008.385,-38.086,-39.551,-8.789,-82.520,31.250
1687767008.389,-83.496,-42.969,-3.418,-114.258,119.629
1687767008.392,-113.770,-56.152,3.906,-124.023,354.980
1687767008.396,-118.652,-51.758,3.418,-118.164,437.500
1687767008.400,-118.164,-29.297,-18.066,-144.531,102.051
1687767008.404,-111.328,-33.691,-19.043,-155.273,-19.531
1687767008.408,-124.023,-55.664,-8.789,-166.992,-22.949
1687767008.427,-145.996,-50.293,-23.438,-187.012,-111.328
1687767008.431,-156.738,-34.180,-37.598,-178.711,-84.473
1687767008.435,-168.457,-25.391,-25.391,-191.895,-34.180
1687767008.439,-191.406,-38.574,-9.277,-221.680,-19.531
1687767008.443,-216.309,-41.992,-11.719,-232.422,-0.488
1687767008.447,-218.262,-41.992,-20.020,-216.797,-83.984
1687767008.451,-200.684,-48.340,-27.832,-184.082,101.562
1687767008.454,-188.965,-51.758,-26.367,-168.457,277.344
1687767008.458,-176.270,-56.641,-21.973,-167.480,13.184
1687767008.462,-166.016,-57.129,-21.973,-155.762,-16.113
1687767008.466,-151.367,-59.570,-22.461,-140.625,97.656
1687767008.470,-123.047,-54.688,-20.020,-129.883,55.664
1687767008.455,-113.281,-49.805,-14.648,-110.840,21.973
1687767008.459,-99.121,-51.758,-8.301,-82.520,-25.879
1687767008.463,-80.078,-46.875,-19.043,-78.613,-66.406
1687767008.467,-63.965,-41.992,-26.855,-65.430,-16.113
1687767008.471,-42.969,-35.645,-29.785,-44.922,-55.664
1687767008.475,-30.762,-35.645,-38.574,-39.551,48.828
1687767008.479,-29.297,-48.340,-30.273,-40.039,166.016
1687767008.482,-26.367,-52.734,-28.320,-47.363,-0.488
1687767008.486,-33.203,-47.363,-35.156,-44.434,-158.691
1687767008.490,-22.949,-40.527,-38.086,-35.156,-104.004
1687767008.494,-18.066,-40.527,-41.016,-23.926,271.484
1687767008.498,-26.855,-36.621,-36.133,-16.602,302.246
1687767008.503,-19.531,-29.785,-32.715,-33.203,-29.297
1687767008.507,-18.555,-30.273,-32.715,-41.992,-4.395
1687767008.511,-25.391,-34.180,-32.227,-38.086,52.246
1687767008.515,-16.602,-35.156,-36.133,-23.926,-76.660
1687767008.519,0.488,-21.973,-31.250,-16.602,-108.887
1687767008.523,-8.789,-22.949,-37.109,-18.066,86.426
1687767008.527,-22.949,-43.457,-48.340,-30.762,184.570
1687767008.530,-22.949,-37.109,-43.457,-33.691,-20.996
1687767008.534,-18.555,-24.902,-41.992,-33.691,-136.719
1687767008.538,-15.137,-31.738,-37.598,-24.902,6.836
1687767008.542,-21.484,-31.738,-36.133,-22.461,15.625
1687767008.546,-28.320,-37.109,-39.551,-51.758,-129.395
1687767008.560,-28.320,-39.551,-32.715,-50.293,-77.637
1687767008.564,-23.438,-39.062,-34.668,-32.227,57.129
1687767008.568,-15.625,-31.250,-40.527,-31.250,73.730
1687767008.572,-12.695,-27.344,-32.227,-27.344,-4.395
1687767008.576,-15.625,-38.574,-33.203,-32.227,13.184
1687767008.580,-20.996,-39.551,-41.504,-50.781,316.895
1687767008.584,-7.812,-36.133,-41.992,-39.551,335.449
1687767008.587,11.719,-40.039,-40.527,-36.621,-49.316
1687767008.591,16.113,-46.387,-40.527,-49.316,-17.578
1687767008.595,9.277,-44.922,-37.598,-49.805,44.434
1687767008.599,-5.859,-42.480,-38.574,-35.645,-63.477
1687767008.603,-7.812,-42.480,-42.480,-19.043,-104.004
1687767008.607,2.930,-35.645,-49.316,-16.602,-23.926
1687767008.611,-11.230,-41.504,-55.664,-17.090,45.898
1687767008.615,-25.879,-50.293,-53.711,-34.180,-62.988
1687767008.619,-20.020,-46.387,-36.133,-28.320,-40.039
1687767008.623,-17.578,-35.156,-35.156,-18.555,102.051
1687767008.627,-8.301,-29.785,-39.062,-15.625,127.930
1687767008.631,-3.906,-37.598,-36.133,-0.488,85.449
1687767008.634,-26.855,-41.504,-46.387,-14.648,34.180
1687767008.638,-37.109,-35.645,-44.922,-12.207,136.230
1687767008.642,-20.996,-31.250,-33.203,-8.789,237.793
1687767008.646,-15.137,-37.109,-34.180,-25.879,-18.555
1687767008.650,-17.578,-40.527,-38.086,-26.367,-78.125
1687767008.650,-9.277,-37.109,-34.180,-14.648,-53.223
1687767008.654,-11.230,-38.574,-26.367,-6.348,-137.695
1687767008.658,-8.789,-34.180,-38.086,-13.672,-126.465
1687767008.662,3.906,-27.832,-45.410,-12.207,-53.711
1687767008.666,-8.789,-34.180,-35.156,6.836,-1.953
1687767008.670,-14.648,-38.574,-31.738,-6.348,47.363
1687767008.674,-10.742,-36.621,-20.508,-27.832,4.883
1687767008.677,-15.137,-38.574,-20.020,-26.367,-33.691
1687767008.681,-8.301,-41.016,-22.949,-14.648,182.617
1687767008.685,5.371,-34.180,-13.672,2.441,115.234
1687767008.689,-7.324,-38.574,-18.066,-11.230,-126.953
1687767008.693,-19.043,-47.363,-25.879,-12.207,-5.371
1687767008.697,-21.484,-47.363,-29.785,-5.859,79.590
1687767008.701,-15.137,-50.293,-22.949,-7.324,-31.738
1687767008.705,-10.742,-52.734,-21.973,-14.648,-106.934
1687767008.709,-1.953,-55.176,-27.344,-5.371,92.773
1687767008.713,-1.465,-54.199,-19.043,13.184,202.148
1687767008.717,-17.090,-47.363,-17.090,15.137,59.082
1687767008.721,-22.949,-49.316,-24.414,-6.836,58.105
1687767008.724,-15.137,-52.246,-26.367,0.000,226.562
1687767008.728,-15.625,-50.293,-26.855,9.766,244.629
1687767008.732,-16.113,-57.617,-29.297,-5.371,-41.016
1687767008.736,-16.113,-55.176,-31.250,-11.230,-72.266
1687767008.740,-23.926,-43.945,-34.668,-19.043,36.621
1687767008.740,-29.785,-43.945,-35.645,-15.137,-7.812
1687767008.744,-20.020,-41.016,-33.691,-17.090,-134.277
1687767008.748,-5.371,-41.016,-24.902,-19.531,-122.559
1687767008.752,-23.438,-48.340,-30.273,-17.090,-82.031
1687767008.756,-27.344,-42.480,-26.367,-0.977,-63.965
1687767008.760,-6.348,-39.062,-25.391,-1.465,-20.996
1687767008.764,-8.789,-43.945,-41.504,-19.043,16.113
1687767008.767,-29.297,-50.293,-38.574,-36.133,300.293
1687767008.771,-42.969,-58.594,-28.320,-41.992,352.051
1687767008.775,-35.156,-54.199,-25.879,-27.832,-84.473
1687767008.779,-20.508,-52.734,-36.621,-21.973,-124.023
1687767008.783,-24.414,-61.035,-33.691,-29.785,-8.789
1687767008.787,-26.855,-62.500,-26.855,-31.250,-78.125
1687767008.791,-24.902,-57.129,-25.879,-21.484,-87.891
1687767008.795,-19.531,-53.711,-28.320,-6.348,-14.160
1687767008.799,-11.719,-55.664,-33.203,-11.230,-22.461
1687767008.803,-16.602,-55.664,-36.621,-33.691,-53.223
1687767008.807,-22.949,-49.805,-31.738,-41.504,-3.418
1687767008.811,-28.809,-45.898,-34.180,-41.992,137.695
1687767008.814,-31.738,-45.898,-36.133,-41.504,168.945
1687767008.818,-25.879,-46.387,-28.320,-40.527,-99.609
1687767008.822,-12.695,-46.875,-24.414,-20.508,-154.297
1687767008.826,-20.508,-49.316,-33.691,-26.367,-68.359
1687767008.830,-29.297,-47.852,-35.156,-39.062,-90.332
1687767008.832,-23.438,-46.387,-33.203,-22.461,-88.867
1687767008.836,-16.602,-47.852,-41.992,-27.832,-20.996
1687767008.840,-8.789,-43.457,-49.805,-36.621,-0.488
1687767008.844,-5.371,-40.039,-45.410,-16.602,-55.176
1687767008.848,-12.695,-43.457,-41.016,-21.973,-49.316
1687767008.852,-6.348,-42.969,-32.227,-28.809,-15.625
1687767008.856,-5.371,-41.504,-23.438,-16.113,265.137
1687767008.859,-12.695,-50.293,-30.762,-17.578,341.309
1687767008.863,-12.695,-55.664,-42.969,-24.902,-78.613
1687767008.867,-15.137,-56.152,-43.945,-39.062,-105.957
1687767008.871,-21.973,-54.688,-42.969,-31.250,-18.555
1687767008.875,-17.090,-46.387,-38.086,-27.344,-61.523
1687767008.890,1.465,-41.992,-32.715,-23.926,-71.289
1687767008.894,3.906,-45.410,-40.039,-15.137,32.227
1687767008.898,-13.184,-50.293,-50.293,-30.762,-3.906
1687767008.902,-11.230,-49.316,-42.969,-34.668,-28.809
1687767008.906,-0.488,-45.410,-33.203,-19.531,-15.137
1687767008.910,-14.648,-49.805,-39.551,-2.930,155.273
1687767008.914,-28.809,-51.758,-44.922,0.977,380.371
1687767008.917,-28.320,-52.246,-37.109,-2.441,38.574
1687767008.921,-28.809,-45.898,-27.832,-9.277,-98.145
1687767008.925,-23.926,-41.016,-32.715,-24.414,-14.160
1687767008.929,-9.766,-46.387,-38.086,-18.066,-33.203
1687767008.933,-19.531,-49.316,-39.062,-3.418,-102.051
1687767008.935,-27.832,-49.805,-35.156,-14.160,-118.652
1687767008.939,-25.391,-51.758,-35.645,-21.973,-86.426
1687767008.943,-29.785,-56.641,-39.062,-26.367,-65.918
1687767008.947,-22.461,-52.246,-32.715,-22.461,-78.125
1687767008.951,-19.043,-49.316,-26.855,-15.137,-3.418
1687767008.955,-31.738,-60.059,-30.273,-12.207,160.156
1687767008.959,-38.086,-64.941,-38.086,-12.695,122.070
1687767008.962,-27.832,-62.500,-34.668,-2.441,-13.184
1687767008.966,-23.926,-53.711,-30.762,-9.766,-12.695
1687767008.970,-28.809,-53.223,-33.203,-29.785,75.195
1687767008.974,-20.996,-57.129,-30.273,-14.160,-64.453
1687767008.978,-28.320,-56.152,-28.320,-16.113,-212.402
1687767008.982,-34.180,-60.547,-32.227,-31.738,-74.219
1687767008.986,-22.461,-58.105,-32.715,-24.902,177.734
1687767008.990,-14.648,-47.363,-31.250,-25.879,43.945
1687767008.994,-24.902,-42.969,-29.785,-20.020,-100.098
1687767008.998,-20.996,-49.316,-32.227,-19.043,-22.949
1687767009.002,-16.602,-49.316,-27.344,-11.230,45.410
1687767009.006,-20.996,-42.480,-21.484,-0.488,55.664
1687767009.009,-18.066,-42.969,-32.227,-13.184,-72.266
1687767009.013,-17.578,-45.898,-33.203,-14.648,27.344
1687767009.017,-25.879,-53.223,-34.180,-23.438,170.898
1687767009.021,-29.785,-52.246,-35.645,-30.273,-57.129
1687767009.025,-20.996,-51.270,-34.180,-25.879,-104.980
1687767009.026,-17.578,-54.688,-42.480,-24.414,81.543
1687767009.030,-9.766,-52.246,-41.016,-29.297,52.246
1687767009.034,-4.395,-48.828,-31.738,-22.461,-160.645
1687767009.038,-13.184,-54.688,-33.203,-14.160,-123.535
1687767009.042,-16.113,-58.594,-35.645,-22.461,22.461
1687767009.046,-20.020,-55.176,-36.133,-26.855,99.609
1687767009.050,-24.414,-55.176,-36.133,-21.973,119.629
1687767009.053,-32.715,-56.152,-38.086,-22.949,73.242
1687767009.057,-31.250,-46.387,-26.855,-11.230,250.977
1687767009.061,-20.996,-43.945,-23.438,-2.930,273.438
1687767009.065,-32.715,-54.688,-38.086,-19.531,-66.406
1687767009.069,-31.250,-57.617,-48.340,-26.855,13.184
1687767009.073,-38.086,-60.059,-45.410,-22.461,160.645
1687767009.077,-37.109,-65.430,-33.691,-20.996,5.859
1687767009.081,-21.484,-59.082,-36.133,-16.602,-71.777
1687767009.085,-17.090,-41.016,-27.344,-20.020,-25.391
1687767009.089,-20.508,-46.875,-27.832,-31.250,-48.340
1687767009.093,-23.438,-53.223,-40.039,-48.828,-1.465
1687767009.097,-38.574,-48.828,-32.715,-58.594,2.930
1687767009.100,-36.133,-47.852,-29.297,-47.852,140.137
1687767009.104,-23.926,-45.410,-31.250,-38.086,241.211
1687767009.108,-33.203,-46.387,-30.762,-42.969,-84.473
1687767009.112,-46.387,-55.176,-38.086,-43.945,-133.301
1687767009.116,-53.711,-58.105,-44.922,-44.434,-54.199
1687767009.116,-48.340,-53.223,-41.992,-41.504,-42.480
1687767009.120,-30.762,-54.688,-34.180,-34.668,-13.184
1687767009.124,-31.250,-54.199,-34.180,-41.016,-49.805
1687767009.128,-37.598,-54.688,-41.504,-49.316,-51.270
1687767009.132,-27.344,-58.105,-56.641,-41.504,23.926
1687767009.136,-33.203,-61.523,-54.199,-27.344,99.609
1687767009.140,-35.645,-65.430,-45.898,-36.621,69.824
1687767009.143,-36.133,-57.129,-39.062,-30.273,303.223
1687767009.147,-47.363,-50.293,-28.809,-32.715,436.523
1687767009.151,-61.035,-49.805,-29.785,-56.152,61.035
1687767009.155,-53.711,-51.270,-34.180,-58.594,-88.867
1687767009.159,-40.039,-56.152,-41.016,-58.105,-0.977
1687767009.162,-34.180,-53.711,-47.852,-47.363,-46.875
1687767009.166,-38.574,-54.199,-47.852,-52.246,-97.168
1687767009.170,-38.086,-55.176,-40.527,-65.918,-60.059
1687767009.174,-30.762,-46.387,-37.598,-59.570,13.184
1687767009.178,-27.344,-46.875,-38.574,-44.434,-7.812
1687767009.182,-27.344,-54.199,-39.062,-46.875,-41.016
1687767009.186,-33.203,-57.129,-47.363,-48.828,159.180
1687767009.189,-29.785,-60.547,-45.410,-36.133,299.805
1687767009.193,-33.203,-53.223,-25.879,-31.250,8.301
1687767009.197,-30.762,-52.734,-23.438,-36.133,-93.750
1687767009.201,-24.902,-60.059,-31.738,-23.926,-57.129
1687767009.205,-27.344,-53.711,-33.203,-7.812,-35.156
1687767009.205,-24.902,-50.293,-35.156,-12.695,-59.082
1687767009.209,-30.762,-52.246,-36.133,-20.508,-78.613
1687767009.213,-18.555,-45.898,-33.691,-23.926,-4.883
1687767009.217,-20.020,-44.922,-35.156,-17.578,-15.625
1687767009.221,-24.902,-47.852,-39.551,-16.602,1.953
1687767009.225,-14.648,-51.270,-41.504,-29.785,0.977
1687767009.229,-17.578,-51.270,-39.551,-21.484,266.602
1687767009.232,-32.227,-53.223,-39.062,-22.949,314.453
1687767009.236,-29.785,-64.941,-28.320,-40.039,-15.137
1687767009.240,-7.812,-69.824,-17.090,-24.414,31.738
1687767009.244,1.953,-51.758,-30.273,-12.695,158.691
1687767009.248,-1.465,-37.109,-44.434,-16.602,22.949
1687767009.266,-8.789,-39.062,-46.387,-28.320,-58.105
1687767009.270,-15.625,-29.297,-49.805,-50.781,-27.344
1687767009.274,-22.461,-22.461,-59.570,-46.875,27.832
1687767009.278,-35.156,-28.809,-73.242,-58.594,-23.926
1687767009.282,-41.992,-36.133,-77.637,-83.984,-150.391
1687767009.286,-48.828,-33.691,-84.473,-74.219,89.844
1687767009.290,-50.781,-24.414,-96.191,-76.172,227.051
1687767009.293,-47.363,-21.484,-100.098,-96.191,19.043
1687767009.297,-54.688,-16.113,-98.145,-99.609,-13.672
1687767009.301,-50.781,-15.137,-94.238,-85.449,121.582
1687767009.305,-48.828,-14.160,-101.074,-93.750,197.266
1687767009.309,-43.457,-9.277,-104.004,-96.680,-86.426
1687767009.311,-24.414,-7.324,-104.004,-85.449,-142.090
1687767009.315,-8.789,-13.184,-102.539,-90.820,-48.828
1687767009.319,-3.418,-15.137,-102.051,-98.633,-83.496
1687767009.323,5.859,-15.137,-102.539,-97.168,-91.309
1687767009.327,18.555,-17.090,-102.051,-89.844,-51.270
1687767009.331,26.367,-19.043,-101.562,-81.055,65.918
1687767009.335,32.227,-18.555,-90.820,-68.848,129.883
1687767009.338,24.414,-15.625,-89.844,-63.965,19.043
1687767009.342,14.648,-15.137,-90.820,-47.363,-26.855
1687767009.346,11.719,-20.996,-84.473,-35.645,175.293
1687767009.350,14.160,-19.043,-80.078,-29.785,115.723
1687767009.354,-0.977,-28.320,-85.938,-39.062,-102.051
1687767009.358,-16.113,-41.992,-87.891,-51.758,-41.504
1687767009.362,-10.742,-36.133,-76.172,-34.180,45.898
1687767009.366,-7.812,-35.645,-71.289,-21.484,-83.008
1687767009.370,-4.883,-36.621,-70.801,-32.227,-134.766
1687767009.374,-3.418,-36.133,-66.406,-47.363,-39.551
1687767009.378,-3.906,-30.273,-61.035,-27.832,11.719
1687767009.382,9.277,-25.391,-60.059,-12.695,55.664
1687767009.385,16.602,-29.785,-62.012,-15.137,-46.875
1687767009.389,21.973,-30.762,-54.688,2.441,82.031
1687767009.393,15.625,-27.832,-52.246,3.906,216.797
1687767009.397,18.555,-19.531,-43.945,-4.395,-1.953
1687767009.401,26.855,-21.973,-39.062,5.371,-16.602
1687767009.401,21.973,-28.809,-39.551,0.488,125.977
1687767009.405,19.043,-34.180,-42.480,-8.301,91.797
1687767009.409,3.418,-40.039,-59.570,-18.555,-29.785
1687767009.413,-6.348,-42.969,-59.570,-10.254,-71.777
1687767009.417,-10.742,-46.875,-47.852,-20.020,19.531
1687767009.421,-9.277,-41.504,-51.270,-37.109,18.555
1687767009.425,2.441,-39.062,-46.875,-17.090,-24.414
1687767009.428,14.648,-35.156,-37.598,-8.789,31.250
1687767009.432,9.277,-35.156,-48.828,2.930,238.770
1687767009.436,1.465,-41.504,-51.758,-7.324,269.043
1687767009.440,-10.254,-38.086,-42.480,-34.180,-80.566
1687767009.444,-20.508,-35.156,-42.480,-29.785,2.441
1687767009.448,-12.695,-31.738,-43.945,-22.949,93.750
1687767009.452,-16.113,-33.691,-48.340,-31.250,-119.141
1687767009.456,-18.555,-40.527,-59.570,-29.785,-91.797
1687767009.460,-15.137,-40.527,-45.898,-30.762,58.105
1687767009.464,-18.066,-39.551,-33.203,-40.039,-18.066
1687767009.468,-20.508,-40.039,-33.203,-47.363,-84.961
1687767009.472,-20.508,-37.598,-30.762,-45.410,-50.293
1687767009.475,-23.438,-34.668,-34.180,-27.344,97.656
1687767009.479,-13.672,-33.203,-33.203,-23.438,159.668
1687767009.483,-3.906,-34.180,-26.855,-25.879,-41.016
1687767009.487,-4.395,-29.785,-31.250,-23.926,-109.375
1687767009.491,-14.160,-35.645,-38.086,-32.227,-86.914
1687767009.490,-16.602,-42.969,-39.551,-37.109,-57.129
1687767009.494,-4.395,-34.668,-42.969,-30.762,-76.660
1687767009.498,-5.859,-32.715,-40.039,-26.855,-55.664
1687767009.502,-7.812,-39.062,-46.387,-33.203,14.648
1687767009.506,-14.160,-38.086,-37.109,-26.367,8.301
1687767009.510,-25.879,-36.621,-24.414,-36.621,14.648
1687767009.514,-26.367,-39.551,-30.273,-49.316,25.391
1687767009.517,-13.184,-37.109,-28.320,-30.273,323.730
1687767009.521,-7.812,-32.715,-27.344,-23.926,393.066
1687767009.525,-11.230,-23.926,-31.250,-20.020,-22.461
1687767009.529,-8.789,-17.578,-37.598,-36.621,-130.859
1687767009.533,-18.066,-26.367,-45.410,-52.246,-110.840
1687767009.552,-24.902,-42.480,-45.410,-43.945,-161.133
1687767009.556,-27.344,-41.016,-41.504,-52.246,-112.793
1687767009.560,-21.973,-28.809,-34.180,-54.199,14.160
1687767009.564,-20.996,-28.320,-33.691,-43.945,31.738
1687767009.568,-25.879,-35.156,-36.133,-43.457,-72.754
1687767009.572,-21.484,-39.062,-32.227,-40.039,28.320
1687767009.576,-16.602,-35.156,-24.902,-25.391,327.148
1687767009.579,-17.090,-37.598,-26.367,-35.156,416.992
1687767009.583,-19.531,-37.109,-28.809,-38.086,102.539
1687767009.587,-17.090,-25.391,-30.273,-34.180,-81.543
1687767009.591,-12.207,-30.273,-38.086,-38.574,23.926
1687767009.595,-10.254,-41.992,-37.109,-42.480,31.738
1687767009.580,-15.625,-27.832,-29.785,-35.645,-108.887
1687767009.584,-26.367,-7.812,-26.367,-28.320,-145.020
1687767009.588,-25.391,-20.508,-28.809,-41.992,-38.574
1687767009.592,-28.809,-40.527,-37.109,-47.852,-25.879
1687767009.596,-36.133,-42.480,-39.551,-37.109,-15.625
1687767009.600,-34.668,-42.969,-30.762,-41.016,67.383
1687767009.604,-39.062,-41.016,-26.855,-43.457,122.070
1687767009.607,-35.645,-38.574,-27.344,-35.645,20.020
1687767009.611,-27.344,-41.992,-32.715,-33.691,-146.973
1687767009.615,-20.996,-42.480,-35.645,-33.691,-49.316
1687767009.619,-24.414,-45.898,-35.645,-20.996,413.086
1687767009.623,-22.461,-46.875,-41.992,-22.461,391.113
1687767009.655,-19.531,-46.387,-41.016,-47.363,-81.055
1687767009.659,-25.391,-41.992,-36.621,-41.016,-126.465
1687767009.663,-18.066,-39.062,-36.621,-28.809,-76.172
1687767009.667,-20.020,-48.828,-34.180,-36.133,-136.719
1687767009.671,-22.949,-53.711,-30.273,-33.691,-128.418
1687767009.675,-33.691,-55.664,-32.227,-35.645,-51.758
1687767009.679,-41.504,-58.594,-38.574,-53.711,20.508
1687767009.682,-34.180,-55.664,-39.062,-51.758,-7.324
1687767009.686,-31.738,-47.852,-31.250,-49.805,-70.312
1687767009.690,-38.574,-54.199,-33.203,-60.059,105.957
1687767009.694,-38.574,-58.105,-38.574,-41.016,173.340
1687767009.698,-26.855,-48.828,-41.992,-42.969,-0.488
1687767009.685,-13.184,-41.504,-43.945,-51.758,15.625
1687767009.689,-15.625,-43.457,-42.480,-49.805,53.711
1687767009.693,-25.391,-48.340,-39.062,-47.363,-4.883
1687767009.697,-24.414,-43.457,-38.086,-45.410,-107.422
1687767009.701,-27.344,-38.574,-36.621,-46.387,-56.641
1687767009.705,-25.879,-41.016,-30.273,-31.738,118.164
1687767009.709,-15.625,-42.969,-34.668,-27.344,89.355
1687767009.712,-24.902,-44.434,-38.574,-35.645,-81.055
1687767009.716,-43.457,-54.199,-38.086,-50.781,-84.961
1687767009.720,-44.434,-56.641,-42.480,-54.688,-6.348
1687767009.724,-29.785,-52.246,-41.992,-37.598,-86.426
1687767009.728,-26.367,-46.875,-44.434,-28.320,-134.766
1687767009.733,-33.203,-46.387,-40.527,-34.668,18.555
1687767009.737,-33.203,-47.852,-35.645,-34.180,209.961
1687767009.741,-27.832,-45.410,-35.156,-37.109,83.496
1687767009.745,-5.859,-41.016,-33.691,-34.668,-57.617
1687767009.749,6.348,-39.551,-33.203,-25.391,93.262
1687767009.753,-0.977,-40.039,-31.250,-44.922,213.867
1687767009.757,-8.789,-40.039,-20.996,-46.875,50.781
1687767009.760,-19.531,-39.551,-20.508,-61.523,-53.223
1687767009.764,-7.324,-37.109,-21.973,-54.199,141.113
1687767009.768,-1.953,-36.621,-19.043,-22.461,267.090
1687767009.772,-17.090,-45.410,-24.414,-31.250,-13.184
1687767009.776,-27.344,-49.805,-31.738,-52.246,-135.254
1687767009.776,-30.762,-49.805,-41.992,-56.152,-57.129
1687767009.780,-28.320,-44.922,-41.016,-37.109,-19.043
1687767009.784,-21.484,-41.504,-36.621,-43.945,-86.914
1687767009.788,-33.691,-53.223,-38.574,-49.805,-93.750
1687767009.792,-44.434,-53.711,-34.668,-68.359,23.438
1687767009.796,-27.344,-43.457,-32.227,-93.750,20.996
1687767009.800,-25.879,-41.016,-28.320,-86.914,16.602
1687767009.803,-33.203,-39.062,-24.414,-95.703,60.059
1687767009.807,-17.578,-41.504,-30.762,-90.820,289.551
1687767009.811,-27.832,-42.480,-29.785,-76.660,242.676
1687767009.815,-33.203,-46.875,-25.391,-69.336,-137.695
1687767009.819,-21.973,-41.992,-35.156,-68.359,-44.922
1687767009.822,-34.668,-43.457,-48.340,-72.266,6.348
1687767009.826,-18.066,-52.734,-53.711,-74.707,-148.438
1687767009.830,-14.160,-33.203,-49.316,-79.102,-178.223
1687767009.834,-27.832,-26.855,-46.387,-98.145,-46.875
1687767009.838,-14.648,-37.598,-53.223,-97.168,33.203
1687767009.842,-1.465,-43.457,-37.109,-59.570,33.203
1687767009.846,8.301,-36.133,-24.414,-54.688,12.695
1687767009.849,6.836,-36.621,-22.949,-48.828,173.828
1687767009.853,-18.066,-42.969,-21.484,-45.410,420.410
1687767009.857,-26.367,-35.156,-24.902,-44.434,137.695
1687767009.861,-2.930,-35.645,-22.461,-27.832,-41.504
1687767009.865,-11.719,-37.598,-40.039,-40.527,-20.996
1687767009.865,-32.227,-41.992,-44.434,-64.453,-94.238
1687767009.869,-24.902,-50.293,-27.344,-45.410,-135.742
1687767009.873,-44.922,-46.875,-16.113,-19.043,-62.500
1687767009.877,-50.781,-44.922,-19.043,-18.066,-26.855
1687767009.881,-26.855,-50.781,-27.344,-42.969,24.414
1687767009.885,-18.066,-47.852,-19.531,-35.645,72.266
1687767009.889,-23.926,-42.480,-31.250,-19.531,79.590
1687767009.892,-26.367,-52.734,-31.250,-40.527,368.652
1687767009.896,-13.672,-49.316,-20.508,-24.902,346.191
1687767009.900,18.555,-34.180,-35.156,1.953,-3.418
1687767009.904,-1.953,-43.945,-0.488,-17.090,24.902
1687767009.908,-20.996,-58.594,-8.301,-62.500,49.316
1687767009.927,8.789,-31.250,-61.523,-34.180,-47.852
1687767009.931,-9.766,-24.902,-26.855,-8.301,-112.793
1687767009.935,-28.320,-43.457,-15.625,-71.777,-22.461
1687767009.939,9.766,-39.062,-45.410,-46.875,11.230
1687767009.943,26.855,-54.199,3.418,10.742,-63.965
1687767009.947,-17.578,-55.176,42.480,-58.594,-18.555
1687767009.951,-2.441,-45.410,-34.668,-48.340,233.398
1687767009.954,21.484,-38.086,-50.293,20.508,302.246
1687767009.958,4.883,-43.945,-20.996,-12.207,-56.641
1687767009.962,-17.090,-8.789,-55.176,-44.922,-104.004
1687767009.966,-29.785,-22.461,-40.039,-58.105,-16.602
1687767009.970,18.066,-62.012,-42.969,-52.246,-1.953
1687767009.956,20.020,-67.871,14.648,-78.613,-31.250
1687767009.960,-6.836,-61.035,7.324,-46.875,-149.902
1687767009.964,-2.441,-14.160,-74.707,-8.789,-59.570
1687767009.968,-16.113,-41.992,-43.457,10.742,-12.207
1687767009.972,-20.996,-52.246,-19.043,-8.301,-63.477
1687767009.976,-29.785,-34.180,-2.930,-72.266,13.672
1687767009.980,0.977,-63.965,-7.812,-13.184,159.180
1687767009.983,-6.836,-39.062,-43.945,-18.555,123.535
1687767009.987,-37.109,-52.246,1.465,-24.414,-25.391
1687767009.991,-4.883,-61.523,5.371,-9.277,-61.035
1687767009.995,30.273,-27.344,-70.312,25.391,268.555
1687767009.999,15.625,-44.434,-63.965,13.672,227.051
1687767010.016,-21.484,-30.273,-38.574,-67.871,-150.391
1687767010.020,-34.668,-32.227,-32.227,-46.875,21.484
1687767010.024,-16.602,-56.641,-46.387,-3.418,63.477
1687767010.028,-36.133,-26.367,-9.766,-37.598,-77.148
1687767010.032,-27.832,-39.062,-2.930,-46.875,-116.211
1687767010.036,19.043,-38.574,-71.777,-3.906,118.164
1687767010.040,-23.926,-49.805,-23.438,0.977,270.020
1687767010.043,-77.148,-34.180,13.672,-62.988,6.348
1687767010.047,-15.625,-15.137,-57.129,4.883,-85.938
1687767010.051,12.695,-60.059,-36.621,20.508,25.391
1687767010.055,-26.367,-46.387,-39.551,-68.848,-15.625
1687767010.059,-31.738,-49.805,-78.613,-12.207,-109.375
1687767010.061,3.906,-56.641,-56.152,39.062,-41.992
1687767010.065,17.578,-30.273,-7.812,19.531,-13.184
1687767010.069,3.418,-17.578,-25.391,-5.371,-8.789
1687767010.073,4.395,-32.227,-45.898,-24.414,-40.527
1687767010.077,-8.301,-19.531,-26.367,-61.523,-19.043
1687767010.081,-26.855,-10.742,-55.176,0.000,275.879
1687767010.085,1.953,-46.875,-40.527,21.484,288.574
1687767010.088,2.930,-10.742,-51.270,7.812,58.594
1687767010.092,-25.391,4.395,-44.434,-23.438,1.953
1687767010.096,2.441,-31.250,-42.969,2.441,217.285
1687767010.100,-17.578,-27.832,-44.922,40.039,146.973
1687767010.104,-5.371,-22.461,-4.883,-6.836,-151.855
1687767010.106,27.832,-18.555,1.465,-27.832,-53.223
1687767010.110,29.785,-9.277,-25.391,-57.129,-47.852
1687767010.114,27.832,-10.742,-34.668,-45.410,-125.000
1687767010.118,3.906,-13.184,-35.645,-7.324,-114.258
1687767010.122,5.371,-19.043,-10.254,-23.438,-76.172
1687767010.126,-8.789,-27.344,-34.180,-39.062,-34.180
1687767010.130,-6.348,-30.762,-74.219,-33.203,36.133
1687767010.133,45.898,-3.906,-78.125,22.949,53.223
1687767010.137,4.883,-13.184,-44.922,7.324,150.391
1687767010.141,-18.555,-42.969,-24.902,-18.066,282.715
1687767010.145,-37.109,7.324,-15.625,-10.254,1.465
1687767010.149,-23.438,-4.883,-18.555,12.207,-174.316
1687767010.150,-4.883,-57.617,-9.766,-28.320,-104.004
1687767010.154,-54.688,-40.527,-4.395,-98.633,-127.441
1687767010.158,2.930,0.977,-35.645,-43.457,-144.531
1687767010.162,-13.184,-9.277,-29.785,-41.016,-166.504
1687767010.166,-32.227,-22.461,-59.570,-6.348,-12.695
1687767010.170,27.344,-43.945,-24.414,3.418,42.969
1687767010.174,-1.465,-9.766,-0.488,-52.246,-62.012
1687767010.177,-33.203,24.414,-71.289,-21.973,-55.664
1687767010.181,-11.719,-32.227,-63.965,-7.324,243.164
1687767010.185,-6.836,-35.645,-24.902,-15.137,334.961
1687767010.189,-8.789,-26.367,-39.551,-39.062,-70.801
1687767010.193,-16.602,-45.898,22.949,-60.547,-105.957
1687767010.197,-32.715,-33.691,-0.977,-51.270,-62.012
1687767010.201,-39.062,-41.992,-33.203,-31.250,-146.973
1687767010.205,-20.508,-25.391,-15.625,-55.176,-116.211
1687767010.209,-31.738,-28.320,-30.762,-81.543,-62.500
1687767010.213,-63.477,-61.035,-10.254,-56.152,-96.680
1687767010.217,-34.180,-51.758,-0.977,-60.547,-68.848
1687767010.221,-39.062,-24.902,-47.852,-54.688,-62.988
1687767010.224,-44.922,-17.578,-65.430,-49.316,104.004
1687767010.228,-27.344,-23.438,-52.246,-48.828,232.910
1687767010.232,-46.875,-21.973,-5.859,-66.406,-49.805
1687767010.236,-21.484,-20.996,16.602,-35.156,-98.633
1687767010.240,-42.969,-13.672,-40.039,-36.133,57.129
1687767010.241,-53.711,-30.762,-50.293,-21.484,47.363
1687767010.245,-32.715,-43.945,-11.719,1.465,-90.332
1687767010.249,-39.062,-21.484,-20.508,-58.105,-136.719
1687767010.253,-19.531,-13.184,-69.336,-73.242,-95.703
1687767010.257,-23.438,-53.223,-14.160,-70.801,54.199
1687767010.261,-52.734,-41.992,-2.441,-57.617,77.637
1687767010.265,-50.293,-14.160,-30.273,-51.758,-17.090
1687767010.268,-36.133,-26.855,-23.926,-39.062,211.914
1687767010.272,-13.184,-48.340,-29.297,-10.742,199.707
1687767010.276,-4.883,-24.414,-59.570,-29.785,-108.398
1687767010.280,-19.531,-21.484,-22.949,-57.617,-109.863
1687767010.284,-78.125,-38.574,-22.461,-69.336,-110.352
1687767010.289,-62.988,-61.523,-8.301,-53.223,-178.711
1687767010.293,-20.508,-40.527,-17.578,-23.926,-139.160
1687767010.297,-31.738,-4.395,-55.176,-11.719,65.918
1687767010.301,-63.477,-12.207,-21.484,-24.414,112.793
1687767010.305,-39.062,-41.016,-23.926,-17.578,-19.531
1687767010.309,1.465,-49.316,-5.859,-31.738,11.230
1687767010.313,-41.504,-12.207,-22.461,-24.902,189.941
1687767010.316,-43.457,-3.418,-69.824,-14.160,248.535
1687767010.320,-16.602,-54.199,-34.180,-38.574,-1.465
1687767010.324,-48.828,-71.777,1.465,-65.430,-104.004
1687767010.328,-63.965,-13.672,-55.664,-44.922,-105.957
1687767010.332,-42.969,2.441,-74.707,-14.160,-51.270
1687767010.331,-46.875,-69.336,25.391,-65.918,-49.316
1687767010.335,-66.895,-47.852,19.043,-89.844,-28.320
1687767010.339,-11.719,-14.160,-67.871,0.000,-7.324
1687767010.343,3.906,-41.504,-42.480,27.832,-67.871
1687767010.347,-79.590,-68.359,13.672,-66.406,-111.328
1687767010.351,-94.727,-62.988,12.207,-100.098,-49.316
1687767010.355,-38.574,-67.871,-27.344,-35.645,363.770
1687767010.358,-59.082,-54.199,-12.695,-18.555,530.273
1687767010.362,-85.449,-52.734,22.461,-43.457,97.168
1687767010.366,-95.215,-63.477,34.668,-49.805,-92.285
1687767010.370,-103.516,-68.359,16.602,-57.617,-117.676
1687767010.374,-84.473,-78.125,26.855,-72.266,-172.363
1687767010.391,-87.402,-63.965,28.320,-61.523,-97.656
1687767010.395,-101.074,-51.758,0.488,-0.977,7.812
1687767010.399,-72.266,-64.453,17.578,18.555,15.137
1687767010.403,-48.828,-91.797,35.156,3.418,-98.145
1687767010.407,-77.148,-100.586,61.035,-24.414,-152.832
1687767010.411,-89.355,-71.777,26.367,-45.898,94.727
1687767010.415,-88.379,-67.383,3.418,-18.555,208.008
1687767010.418,-91.797,-87.891,62.012,-16.113,44.922
1687767010.422,-45.898,-103.027,62.500,-23.438,-52.246
1687767010.426,-29.297,-79.102,9.277,-18.555,134.766
1687767010.430,-11.719,-70.801,6.836,17.578,215.332
1687767010.434,-5.371,-73.730,7.812,9.766,-99.121
1687767010.436,-30.273,-53.711,-9.766,-19.043,-92.773
1687767010.440,-63.477,-62.012,-2.930,2.930,-9.766
1687767010.444,-30.273,-50.781,-17.090,3.418,-53.223
1687767010.448,-3.906,-49.805,-11.719,3.906,-38.086
1687767010.452,-8.301,-60.059,-6.836,1.465,24.414
1687767010.456,-30.273,-52.246,6.836,-9.277,85.938
1687767010.460,-29.785,-35.156,-27.832,-2.441,113.770
1687767010.463,-7.324,-43.945,-34.180,-8.789,50.781
1687767010.467,-20.508,-47.852,-23.926,-0.488,2.441
1687767010.471,-40.039,-60.059,17.090,-12.207,240.723
1687767010.475,-48.340,-62.012,-0.488,-26.367,184.082
1687767010.479,-42.480,-45.898,-55.176,6.348,-104.980
1687767010.482,-48.340,-53.223,-5.371,-14.160,-35.156
1687767010.486,-41.016,-39.551,-16.602,-31.250,43.457
1687767010.490,-31.250,-59.570,-8.301,-37.598,-10.742
1687767010.494,-45.410,-73.242,2.930,-22.949,-67.383
1687767010.498,-34.668,-44.922,-41.992,8.789,-43.457
1687767010.502,-29.297,-38.574,-53.223,2.930,77.637
1687767010.506,-13.672,-56.641,-22.461,-0.977,139.160
1687767010.509,-26.855,-54.688,-28.809,-16.113,14.160
1687767010.513,-27.832,-41.016,-35.156,-37.109,116.699
1687767010.517,-16.602,-30.273,-21.973,-56.152,251.465
1687767010.521,-15.137,-44.434,-41.992,-2.930,70.801
1687767010.525,-6.348,-41.016,-27.832,14.648,2.441
1687767010.525,-2.930,-36.621,-22.461,-0.977,27.344
1687767010.529,-11.719,-50.293,-29.785,-18.555,-24.902
1687767010.533,9.766,-51.270,-25.391,-38.574,-157.227
1687767010.537,-10.254,-41.504,-9.766,-45.410,-94.238
1687767010.541,-32.227,-32.227,6.836,-42.969,-8.789
1687767010.545,14.648,-32.715,-52.246,-17.578,-1.465
1687767010.549,0.977,-39.062,-23.926,-38.086,16.113
1687767010.552,-26.855,-47.852,-5.859,-72.754,-41.992
1687767010.556,0.000,-40.039,-48.340,-20.996,229.980
1687767010.560,-3.906,-20.020,-37.109,-19.531,314.453
1687767010.564,2.441,-33.203,-40.039,-33.691,-94.238
1687767010.568,-3.418,-48.828,-27.832,-39.551,-118.164
1687767010.573,-25.391,-25.879,-35.156,-51.758,-27.344
1687767010.577,-17.578,-37.598,-32.715,-26.855,-15.625
1687767010.581,-22.949,-52.246,-36.133,-18.066,-14.160
1687767010.585,-27.832,-43.457,-37.598,-9.766,77.637
1687767010.589,-38.574,-39.551,-12.207,3.906,145.020
1687767010.593,-27.344,-39.062,-20.020,-14.648,113.770
1687767010.597,-22.461,-40.527,-8.301,-32.227,61.523
1687767010.600,-26.367,-30.762,-25.391,-29.785,178.711
1687767010.604,-13.184,-36.133,-64.941,-8.789,280.762
1687767010.608,-7.812,-62.012,-23.438,-21.973,-3.906
1687767010.612,-9.766,-52.246,-28.320,-35.645,-95.215
1687767010.616,-3.906,-39.551,-55.176,-27.344,-72.266
1687767010.615,-10.742,-39.062,-34.180,-15.625,-57.617
1687767010.619,0.488,-26.367,-21.484,-31.738,-15.625
1687767010.623,21.484,-19.043,-44.434,-26.855,-49.805
1687767010.627,3.418,-23.926,-39.551,-19.043,49.316
1687767010.631,6.348,-21.484,-23.438,-31.250,132.324
1687767010.635,1.465,-31.738,-13.184,-28.809,36.133
1687767010.639,-7.812,-51.270,-14.160,-20.996,7.324
1687767010.642,-20.996,-56.641,-29.785,-22.461,280.762
1687767010.646,-39.551,-48.828,-35.156,-24.414,366.699
1687767010.650,-25.391,-43.945,-28.320,-12.695,-63.477
1687767010.654,-0.977,-31.738,-12.695,-5.859,-84.961
1687767010.658,-2.930,-27.832,-19.531,-19.531,-24.902
1687767010.662,-14.648,-42.969,-44.434,-40.039,-151.855
1687767010.666,-22.461,-41.504,-42.480,-48.828,-148.438
1687767010.670,-12.695,-31.250,-30.273,-42.480,-64.453
1687767010.674,-6.836,-31.250,-20.020,-44.922,-52.734
1687767010.678,-9.277,-33.203,-24.414,-42.480,-74.219
1687767010.682,0.000,-32.227,-34.180,-36.133,-91.797
1687767010.686,-10.742,-33.203,-23.926,-37.598,148.926
1687767010.689,-22.461,-39.551,-27.344,-25.879,362.305
1687767010.693,-22.949,-44.434,-39.551,-49.805,28.320
1687767010.697,-22.949,-33.691,-43.457,-58.105,-128.906
1687767010.701,-5.371,-30.273,-37.598,-41.504,-86.914
1687767010.705,-0.977,-33.203,-36.621,-47.852,-64.941
1687767010.705,-5.371,-33.691,-38.086,-41.992,-84.473
1687767010.709,-0.977,-38.574,-36.621,-33.691,-64.453
1687767010.713,0.977,-41.016,-33.203,-35.156,7.324
1687767010.717,8.301,-30.762,-29.785,-32.227,-12.695
1687767010.721,4.395,-31.250,-36.621,-42.969,10.254
1687767010.725,3.418,-30.273,-41.992,-37.109,17.090
1687767010.729,3.418,-23.926,-32.227,-27.832,262.207
1687767010.732,-8.301,-33.203,-28.320,-29.785,364.258
1687767010.736,-5.371,-41.504,-34.668,-41.016,71.289
1687767010.740,-10.254,-40.039,-35.645,-43.457,15.137
1687767010.744,-19.043,-40.039,-32.227,-32.227,64.453
1687767010.748,-13.184,-35.156,-21.484,-34.180,-38.086
1687767010.765,-0.977,-25.879,-17.090,-31.738,-130.371
1687767010.769,-0.977,-30.273,-24.902,-38.574,-44.434
1687767010.773,-9.766,-32.715,-22.461,-45.410,-12.207
1687767010.777,-24.414,-36.133,-20.508,-51.758,-46.387
1687767010.781,-39.062,-38.086,-27.832,-45.898,-80.078
1687767010.785,-33.203,-40.039,-33.203,-30.762,-9.277
1687767010.789,-20.020,-41.016,-32.715,-27.344,54.199
1687767010.792,-30.762,-34.668,-32.715,-34.180,-45.898
1687767010.796,-46.387,-42.480,-37.598,-47.852,-104.492
1687767010.800,-50.781,-53.223,-37.598,-48.828,35.645
1687767010.804,-49.316,-44.434,-29.297,-43.457,132.812
1687767010.808,-41.992,-34.668,-23.926,-46.875,-3.906
1687767010.810,-37.109,-38.574,-25.391,-45.410,-20.996
1687767010.814,-45.410,-41.016,-22.949,-42.480,54.199
1687767010.818,-36.133,-40.039,-25.879,-52.246,68.848
1687767010.822,-29.297,-41.992,-34.668,-48.340,-71.289
1687767010.826,-43.945,-35.645,-25.391,-33.691,-57.129
1687767010.830,-40.039,-30.273,-13.672,-25.391,173.340
1687767010.834,-37.598,-29.297,-23.438,-20.020,225.098
1687767010.837,-46.875,-33.203,-35.156,-32.715,39.551
1687767010.841,-58.105,-37.598,-33.203,-45.410,-28.809
1687767010.845,-58.105,-35.156,-30.273,-46.387,180.176
1687767010.849,-50.781,-27.832,-29.297,-47.852,112.305
1687767010.853,-33.691,-24.414,-18.066,-45.410,-101.562
1687767010.856,-43.945,-30.762,-17.090,-47.363,65.430
1687767010.860,-64.941,-40.527,-25.879,-55.176,128.906
1687767010.864,-51.270,-42.480,-21.973,-39.062,-115.723
1687767010.868,-43.945,-33.203,-22.461,-39.551,-125.000
1687767010.872,-54.688,-27.344,-28.809,-58.105,-48.828
1687767010.876,-86.914,-28.809,-33.691,-67.383,22.461
1687767010.880,-89.355,-23.926,-39.551,-68.359,66.895
1687767010.883,-79.102,-26.855,-40.527,-73.730,-31.738
1687767010.887,-76.172,-30.762,-34.668,-55.664,94.238
1687767010.891,-72.754,-26.367,-32.227,-45.410,216.309
1687767010.895,-84.961,-22.949,-46.875,-73.730,-45.898
1687767010.899,-98.633,-27.832,-53.711,-83.496,-90.820
1687767010.901,-87.891,-24.902,-45.410,-69.824,-23.926
1687767010.905,-75.684,-17.090,-46.875,-61.523,-65.430
1687767010.909,-81.055,-25.391,-48.340,-62.500,-46.875
1687767010.913,-88.379,-30.273,-45.410,-55.664,-30.273
1687767010.917,-89.355,-26.855,-42.969,-57.129,169.434
1687767010.921,-76.660,-20.020,-38.086,-52.734,180.664
1687767010.925,-67.383,-21.973,-37.598,-34.668,-11.719
1687767010.928,-60.547,-19.531,-33.203,-22.461,-45.898
1687767010.932,-47.852,0.488,-10.254,-11.719,195.801
1687767010.936,-53.223,-5.371,-8.789,-22.461,192.871
1687767010.940,-57.617,-30.762,-25.391,-40.527,-89.355
1687767010.944,-61.523,-29.785,-36.621,-44.922,-37.598
1687767010.948,-71.777,-24.414,-46.387,-51.758,-35.645
1687767010.952,-63.965,-26.367,-35.645,-53.711,-62.500
1687767010.956,-63.965,-21.484,-34.668,-59.570,-74.707
1687767010.960,-78.125,-25.879,-42.480,-51.270,-31.250
1687767010.964,-77.148,-26.855,-37.109,-41.016,12.695
1687767010.968,-73.242,-29.297,-35.156,-43.457,81.543
1687767010.972,-77.637,-38.086,-32.715,-54.199,57.617
1687767010.975,-69.824,-33.691,-22.461,-40.527,214.844
1687767010.979,-65.430,-27.344,-22.461,-21.484,413.086
1687767010.983,-62.988,-22.949,-27.832,-39.551,60.059
1687767010.987,-53.223,-13.184,-22.461,-36.621,-152.344
1687767010.991,-55.664,-11.719,-31.250,-34.668,-117.676
1687767010.990,-55.664,-18.066,-29.297,-42.969,-136.719
1687767010.994,-57.129,-24.902,-23.438,-35.156,-76.172
1687767010.998,-64.941,-27.832,-32.227,-36.621,-18.066
1687767011.002,-66.406,-21.973,-26.855,-35.645,-8.301
1687767011.006,-66.895,-24.414,-24.902,-17.578,64.941
1687767011.010,-70.801,-34.668,-30.273,-31.738,137.207
1687767011.014,-61.035,-39.551,-30.273,-43.457,22.949
1687767011.017,-50.293,-37.598,-28.809,-28.320,235.352
1687767011.021,-52.734,-34.668,-31.738,-20.996,416.016
1687767011.025,-46.875,-22.949,-21.484,-16.113,16.602
1687767011.029,-38.574,-22.461,-19.043,-33.691,-91.309
1687767011.033,-53.711,-30.762,-33.203,-55.664,-32.227
1687767011.037,-51.758,-26.367,-30.762,-54.199,-153.809
1687767011.041,-49.805,-21.973,-25.879,-46.875,-118.164
1687767011.045,-62.988,-19.043,-27.344,-33.691,-86.426
1687767011.049,-55.176,-23.438,-33.203,-29.297,-150.879
1687767011.053,-46.875,-27.832,-30.273,-20.996,-150.879
1687767011.057,-53.223,-25.391,-30.273,-21.484,-122.070
1687767011.061,-53.711,-26.855,-33.691,-31.738,42.480
1687767011.064,-58.594,-29.785,-31.738,-40.039,170.898
1687767011.068,-69.824,-29.785,-28.809,-53.223,-61.035
1687767011.072,-62.500,-28.320,-24.414,-41.016,-126.953
1687767011.076,-61.035,-32.715,-23.438,-26.855,124.512
1687767011.080,-59.082,-31.250,-22.461,-27.832,78.125
1687767011.081,-37.598,-17.578,-22.461,-19.043,-126.465
1687767011.085,-48.828,-25.879,-36.133,-19.043,-70.801
1687767011.089,-49.805,-39.551,-34.180,-39.551,19.043
1687767011.093,-29.785,-31.250,-16.113,-45.410,-28.809
1687767011.097,-33.203,-28.320,-35.156,-39.062,41.992
1687767011.101,-28.320,-20.020,-38.574,-43.457,115.234
1687767011.105,-43.457,-17.090,-21.973,-48.340,294.922
1687767011.108,-59.082,-32.715,-31.250,-47.852,285.645
1687767011.112,-54.688,-32.227,-37.109,-47.363,-81.055
1687767011.116,-59.082,-25.391,-33.203,-38.574,-26.855
1687767011.120,-56.152,-21.973,-24.902,-25.879,0.977
1687767011.124,-31.250,-26.367,-28.809,-19.531,-129.883
1687767011.128,-28.320,-17.090,-26.367,-20.508,-62.012
1687767011.132,-48.340,-7.324,-19.531,-38.574,89.844
1687767011.136,-58.105,-5.371,-22.461,-37.109,98.145
1687767011.140,-60.059,-11.719,-41.992,-47.852,-23.926
1687767011.144,-58.594,-18.555,-49.316,-53.711,-62.012
1687767011.148,-51.270,-22.461,-42.480,-47.852,56.641
1687767011.152,-32.227,-28.809,-46.875,-42.480,125.488
1687767011.155,-15.137,-20.996,-41.016,-36.621,-51.758
1687767011.159,-7.812,-9.277,-31.738,-47.363,-73.730
1687767011.163,-10.742,-7.324,-29.297,-63.477,53.223
1687767011.167,-9.277,-12.207,-33.691,-52.246,35.156
1687767011.171,-6.836,-17.090,-27.832,-39.551,-58.594
1687767011.186,-22.949,-17.578,-22.949,-49.316,-38.086
1687767011.190,-39.551,-16.602,-27.344,-41.992,-41.504
1687767011.194,-50.781,-17.090,-26.855,-35.645,-20.996
1687767011.198,-42.480,-12.207,-27.832,-36.133,-25.879
1687767011.202,-27.832,-1.465,-24.414,-14.160,-55.664
1687767011.206,-21.484,-3.906,-23.438,-5.859,297.852
1687767011.210,-16.602,-12.207,-24.414,-18.066,395.020
1687767011.213,-29.297,-21.484,-18.066,-32.227,11.230
1687767011.217,-50.781,-30.762,-32.227,-51.758,-74.219
1687767011.221,-52.246,-27.832,-43.457,-47.852,48.340
1687767011.225,-49.316,-20.020,-43.457,-29.785,-41.504
1687767011.229,-37.598,-12.207,-49.805,-16.113,-117.676
1687767011.232,-29.785,-13.184,-41.504,-24.902,-14.160
1687767011.236,-38.086,-20.508,-6.836,-34.668,-32.715
1687767011.240,-35.645,-25.391,4.883,-41.992,-117.188
1687767011.244,-22.949,-19.531,-4.395,-39.062,-70.801
1687767011.248,-26.367,-20.020,-12.695,-25.879,34.668
1687767011.252,-44.922,-32.715,-25.391,-41.992,21.484
1687767011.256,-43.945,-30.762,-31.738,-56.641,37.109
1687767011.259,-26.367,-23.438,-27.832,-57.129,14.160
1687767011.263,-33.691,-26.367,-20.020,-42.480,84.961
1687767011.267,-47.852,-40.039,-22.461,-35.156,277.344
1687767011.271,-15.137,-38.086,-31.250,-36.133,35.645
1687767011.275,-5.371,-14.648,-42.969,-38.086,-95.215
1687767011.276,-20.508,2.441,-52.246,-62.500,-32.715
1687767011.280,-15.137,4.883,-56.152,-61.523,-13.184
1687767011.284,-20.996,-1.465,-62.012,-57.129,-56.152
1687767011.288,-35.645,-3.418,-65.918,-52.734,-73.242
1687767011.292,-32.227,2.441,-66.406,-52.734,30.762
1687767011.296,-17.578,7.324,-68.848,-64.453,45.410
1687767011.300,-10.742,5.859,-81.055,-51.270,-21.484
1687767011.303,-19.531,0.488,-94.238,-57.617,24.414
1687767011.307,-31.738,0.000,-91.797,-84.961,270.508
1687767011.311,-25.879,0.977,-87.402,-82.520,347.656
1687767011.315,-33.691,-1.953,-96.191,-94.727,-16.113
1687767011.319,-22.949,-3.418,-98.145,-94.238,-145.996
1687767011.322,-16.113,-1.953,-95.703,-82.031,-76.660
1687767011.326,-21.484,-5.371,-86.914,-69.824,-103.027
1687767011.330,-0.977,2.930,-76.660,-47.363,-120.605
1687767011.334,8.301,3.418,-78.125,-44.922,-20.508
1687767011.338,1.465,-0.977,-81.543,-42.969,21.973
1687767011.342,6.836,0.488,-75.195,-38.086,65.918
1687767011.346,5.371,0.000,-58.105,-46.387,137.207
1687767011.349,-6.348,-6.836,-58.105,-48.828,124.023
1687767011.353,-13.672,-8.301,-55.664,-51.270,166.016
1687767011.357,8.789,8.301,-41.992,-37.598,-2.441
1687767011.361,17.090,14.648,-40.527,-12.207,-86.426
1687767011.365,0.977,7.812,-49.316,-13.672,23.438
1687767011.365,0.977,-0.977,-62.012,-33.203,-49.805
1687767011.369,-10.742,-10.742,-65.430,-45.410,-128.906
1687767011.373,-13.672,-19.043,-58.594,-38.086,-97.168
1687767011.377,6.836,-14.648,-44.922,-22.949,-134.766
1687767011.381,5.371,-19.043,-44.434,-21.484,-8.789
1687767011.385,-5.859,-19.531,-39.062,-6.836,48.340
1687767011.389,2.441,-2.441,-36.133,9.766,-64.453
1687767011.392,-13.184,-7.324,-52.246,-8.789,169.434
1687767011.396,-22.949,-19.043,-54.199,-17.090,236.816
1687767011.400,-12.695,-17.090,-48.828,-23.926,-80.078
1687767011.404,-27.832,-15.137,-40.039,-35.645,-66.895
1687767011.408,-48.340,-14.648,-38.574,-40.527,62.012
1687767011.412,-38.574,-15.137,-41.504,-32.715,81.543
1687767011.416,-20.020,-18.066,-40.527,-20.996,-11.230
1687767011.420,-26.855,-24.414,-46.387,-32.227,60.547
1687767011.424,-20.996,-14.160,-31.738,-26.367,71.777
1687767011.428,-2.930,0.488,-20.996,-17.090,-113.770
1687767011.432,-9.277,-18.555,-38.574,-48.828,-28.809
1687767011.436,-19.531,-30.273,-51.270,-53.711,329.590
1687767011.439,-25.879,-30.273,-53.223,-41.016,371.582
1687767011.443,-27.832,-29.785,-51.758,-49.805,-9.277
1687767011.447,-22.461,-17.578,-44.434,-43.945,-121.094
1687767011.451,-13.672,-19.531,-37.109,-40.527,8.789
1687767011.455,-11.719,-22.461,-34.180,-35.156,8.301
1687767011.456,-13.672,-17.578,-44.922,-33.203,-134.766
1687767011.460,-25.391,-21.484,-55.176,-50.781,-85.938
1687767011.464,-37.109,-26.855,-52.734,-54.688,46.387
1687767011.468,-39.062,-22.949,-43.945,-52.734,13.672
1687767011.472,-24.414,-17.578,-28.809,-45.898,-16.113
1687767011.476,-16.602,-25.879,-20.508,-43.945,0.488
1687767011.480,-33.691,-30.762,-25.391,-32.715,268.066
1687767011.483,-38.574,-29.297,-32.715,-31.738,332.031
1687767011.487,-29.297,-30.273,-34.180,-49.805,-70.312
1687767011.491,-29.297,-25.391,-31.250,-49.316,-139.160
1687767011.495,-28.320,-32.227,-37.598,-35.645,-99.609
1687767011.499,-27.344,-37.598,-47.852,-35.645,-114.258
1687767011.502,-24.902,-22.461,-32.715,-33.691,-145.508
1687767011.506,-27.832,-21.973,-25.879,-36.621,-65.430
1687767011.510,-22.461,-24.414,-31.250,-41.016,-1.465
1687767011.514,-18.555,-23.438,-30.762,-34.180,-82.520
1687767011.518,-17.578,-26.855,-35.645,-34.180,-65.918
1687767011.522,-17.578,-20.020,-34.668,-28.320,149.414
1687767011.526,-10.742,-9.766,-18.555,-3.906,301.270
1687767011.529,2.930,-14.648,-21.484,-16.113,31.738
1687767011.533,-15.137,-24.902,-38.574,-26.855,-127.441
1687767011.537,-38.574,-31.738,-42.969,-36.133,-32.715
1687767011.541,-54.199,-36.621,-44.922,-57.617,-32.715
1687767011.545,-55.176,-34.668,-40.527,-51.270,-104.004
1687767011.560,-52.246,-33.203,-35.645,-49.805,-61.523
1687767011.564,-52.246,-38.086,-30.273,-48.828,42.969
1687767011.568,-53.223,-36.133,-30.762,-41.992,-10.254
1687767011.572,-54.199,-23.926,-27.832,-34.180,-72.266
1687767011.576,-48.340,-17.578,-21.484,-30.762,55.664
1687767011.580,-51.270,-22.461,-22.461,-20.508,315.430
1687767011.584,-59.570,-33.691,-25.879,-30.762,257.812
1687767011.587,-57.129,-39.551,-28.320,-46.875,99.609
1687767011.591,-62.988,-36.133,-25.391,-41.016,45.898
1687767011.595,-59.570,-23.438,-26.367,-22.949,191.406
1687767011.599,-47.363,-23.438,-34.668,-18.066,179.688
1687767011.603,-44.922,-29.297,-25.879,-33.691,-136.719
1687767011.607,-48.828,-30.762,-19.043,-42.969,-104.980
1687767011.611,-65.430,-31.250,-26.367,-56.152,-20.508
1687767011.615,-80.078,-30.762,-30.273,-63.477,-54.199
1687767011.619,-75.195,-41.016,-33.691,-52.734,-104.004
1687767011.623,-50.781,-38.086,-29.785,-29.297,-16.602
1687767011.627,-53.223,-24.902,-28.320,-26.367,100.098
1687767011.631,-69.824,-22.461,-26.367,-45.898,2.930
1687767011.634,-68.848,-26.367,-20.020,-52.734,-186.035
1687767011.638,-78.613,-30.273,-21.973,-58.594,-27.344
1687767011.642,-84.961,-35.645,-25.879,-62.012,288.574
1687767011.646,-65.918,-34.668,-36.133,-57.129,41.016
1687767011.650,-59.570,-30.273,-38.086,-57.129,-130.371
1687767011.650,-62.012,-30.273,-36.133,-61.035,-14.648
1687767011.654,-41.504,-25.879,-30.273,-46.875,23.926
1687767011.658,-39.551,-30.273,-24.902,-49.316,-21.484
1687767011.662,-40.039,-30.273,-26.855,-58.594,-71.289
1687767011.666,-34.668,-26.855,-25.391,-58.594,-41.504
1687767011.670,-53.711,-37.598,-29.297,-69.336,21.973
1687767011.674,-56.641,-45.410,-29.785,-69.824,0.488
1687767011.677,-45.898,-48.828,-29.785,-65.430,-16.113
1687767011.681,-41.992,-41.016,-29.785,-53.223,232.910
1687767011.685,-28.809,-33.203,-28.320,-35.645,277.832
1687767011.689,-22.461,-30.762,-28.809,-40.527,-102.051
1687767011.693,-27.832,-25.879,-28.320,-45.898,7.324
1687767011.697,-32.715,-24.902,-27.832,-33.691,142.578
1687767011.701,-39.062,-27.344,-32.227,-38.574,-55.664
1687767011.705,-42.480,-30.762,-31.250,-61.035,-155.273
1687767011.709,-47.363,-43.457,-23.438,-61.523,-88.867
1687767011.713,-52.734,-43.457,-18.066,-49.316,-38.086
1687767011.717,-43.457,-32.715,-14.648,-43.457,-50.293
1687767011.721,-29.785,-26.855,-21.484,-39.062,1.465
1687767011.724,-31.250,-30.762,-22.461,-45.898,150.391
1687767011.728,-34.180,-27.344,-16.113,-33.203,247.070
1687767011.732,-25.391,-23.438,-5.371,-26.367,20.508
1687767011.736,-22.949,-30.762,-15.625,-40.039,-91.309
1687767011.740,-35.156,-36.621,-33.691,-44.434,-69.336
1687767011.741,-31.738,-41.992,-22.949,-43.945,-45.410
1687767011.745,-30.762,-40.527,-20.020,-47.363,-20.020
1687767011.749,-31.738,-34.180,-20.996,-45.410,16.602
1687767011.753,-19.043,-30.273,-19.531,-38.086,-3.906
1687767011.757,-14.160,-33.203,-27.344,-40.039,32.227
1687767011.761,-12.695,-40.039,-36.133,-43.945,72.266
1687767011.765,-6.348,-38.574,-42.969,-49.805,43.457
1687767011.768,7.324,-22.461,-34.668,-61.523,293.457
1687767011.772,7.812,-22.949,-25.879,-58.105,309.570
1687767011.776,1.953,-33.691,-25.391,-66.895,-87.402
1687767011.780,3.906,-29.785,-11.230,-56.641,-100.586
1687767011.784,-1.465,-20.996,-6.348,-29.297,-30.273
1687767011.787,-23.438,-28.320,-27.832,-43.457,-134.766
1687767011.791,-38.086,-47.852,-36.621,-58.105,-174.805
1687767011.795,-17.578,-39.062,-25.391,-34.668,-111.816
1687767011.799,-0.488,-29.785,-19.043,-17.090,3.418
1687767011.803,-16.113,-41.504,-18.066,-37.598,-49.805
1687767011.807,-41.016,-45.410,-23.438,-52.734,-123.535
1687767011.811,-32.227,-40.039,-15.625,-40.039,183.594
1687767011.814,-20.020,-39.551,-6.348,-27.832,335.449
1687767011.818,-15.137,-42.480,-7.812,-25.879,70.801
1687767011.822,-17.090,-46.875,-9.277,-31.250,-40.039
1687767011.826,-23.438,-46.387,-17.578,-35.645,25.391
1687767011.830,-10.254,-30.273,-12.695,-28.320,18.555
1687767011.830,-7.324,-29.785,-3.906,-20.996,-44.922
1687767011.834,-19.043,-41.992,-12.207,-31.738,-54.688
1687767011.838,-29.297,-44.922,-26.367,-42.480,-26.367
1687767011.842,-40.527,-41.504,-26.367,-39.551,-76.660
1687767011.846,-40.527,-41.992,-18.555,-48.340,6.348
1687767011.850,-35.156,-39.551,-13.184,-42.969,69.824
1687767011.854,-38.086,-31.738,-2.441,-14.160,305.176
1687767011.857,-32.715,-33.691,-15.625,-3.418,369.141
1687767011.861,-29.785,-34.180,-33.203,-19.531,37.598
1687767011.865,-44.922,-30.273,-26.855,-38.574,0.000
1687767011.869,-48.828,-37.109,-21.973,-40.527,125.488
1687767011.873,-41.504,-43.457,-14.160,-36.621,3.418
1687767011.877,-30.762,-29.297,-11.230,-25.879,-154.785
1687767011.881,-33.203,-28.809,-13.184,-25.879,-74.219
1687767011.885,-42.480,-39.062,-23.926,-44.922,-59.082
1687767011.889,-35.645,-34.180,-24.414,-34.668,-89.844
1687767011.893,-28.809,-28.809,-15.625,-24.902,-96.191
1687767011.897,-22.949,-23.438,-30.762,-26.855,136.719
1687767011.901,-39.551,-33.691,-48.340,-44.922,296.875
1687767011.904,-46.875,-34.668,-32.227,-46.875,37.598
1687767011.908,-41.504,-27.344,-20.996,-40.527,-38.574
1687767011.912,-52.246,-34.180,-32.715,-43.457,165.527
1687767011.916,-51.270,-37.109,-32.715,-37.109,248.535
1687767011.920,-45.410,-37.598,-32.715,-44.922,-27.344
1687767011.935,-33.203,-29.785,-30.762,-30.273,-117.676
1687767011.939,-31.250,-26.367,-32.715,-20.020,-34.668
1687767011.943,-32.227,-30.273,-34.180,-35.156,-31.250
1687767011.947,-33.691,-23.926,-24.414,-41.016,-55.176
1687767011.951,-45.898,-25.391,-31.250,-46.875,-53.223
1687767011.955,-57.617,-34.180,-40.039,-50.781,190.918
1687767011.959,-69.824,-39.062,-35.645,-57.617,246.582
1687767011.962,-59.570,-33.691,-27.344,-52.246,-38.086
1687767011.966,-44.922,-21.484,-25.391,-33.691,-80.078
1687767011.970,-48.340,-18.066,-29.297,-29.297,103.516
1687767011.974,-37.109,-18.066,-33.203,-27.344,53.711
1687767011.978,-43.457,-30.762,-41.016,-29.785,-114.746
1687767011.981,-22.461,-15.625,-16.602,5.371,-15.137
1687767011.985,-3.906,2.930,-8.301,14.160,80.078
1687767011.989,-43.457,-21.484,-39.062,-32.227,-62.500
1687767011.993,-53.223,-23.926,-41.504,-31.250,-113.281
1687767011.997,-40.039,-19.043,-43.457,-24.414,-39.551
1687767012.001,-40.527,-32.715,-47.363,-43.945,78.613
1687767012.005,-53.711,-32.227,-37.109,-59.082,101.074
1687767012.008,-59.082,-20.020,-32.715,-53.223,-52.734
1687767012.012,-57.129,-16.602,-34.668,-31.738,66.895
1687767012.016,-53.223,-25.391,-33.691,-21.973,232.422
1687767012.020,-42.480,-25.879,-24.902,-31.250,-14.160
1687767012.024,-36.621,-21.484,-20.996,-28.320,-88.867
1687767012.025,-29.785,-20.508,-20.020,-22.949,-47.852
1687767012.029,-41.016,-16.602,-24.902,-29.785,-22.461
1687767012.033,-50.781,-25.879,-33.691,-42.969,-74.219
1687767012.037,-42.480,-32.227,-31.738,-45.410,-125.488
1687767012.041,-34.180,-21.484,-33.691,-40.527,82.031
1687767012.045,-30.762,-9.277,-32.227,-38.086,128.418
1687767012.049,-32.227,-14.648,-32.715,-42.969,0.977
1687767012.052,-40.039,-14.160,-32.227,-52.734,7.324
1687767012.056,-42.480,-17.578,-32.715,-59.082,215.820
1687767012.060,-35.156,-31.738,-34.668,-52.246,238.770
1687767012.064,-27.832,-30.762,-31.250,-47.852,-100.586
1687767012.068,-27.832,-25.879,-28.320,-53.711,-72.266
1687767012.072,-35.645,-20.996,-23.438,-53.223,-27.832
1687767012.076,-23.926,-20.020,-26.855,-47.363,-121.582
1687767012.080,-20.020,-31.738,-30.762,-44.922,-141.113
1687767012.084,-37.109,-31.250,-24.414,-31.738,-1.953
1687767012.088,-43.945,-29.297,-28.320,-27.832,7.324
1687767012.092,-38.086,-31.738,-35.156,-39.551,-35.156
1687767012.096,-30.762,-24.414,-32.715,-33.203,-16.113
1687767012.099,-38.086,-31.250,-24.414,-29.785,74.707
1687767012.103,-50.781,-49.805,-24.414,-39.062,177.734
1687767012.107,-70.312,-53.223,-28.320,-44.922,-41.504
1687767012.111,-70.801,-39.062,-23.926,-51.270,-153.809
1687767012.115,-56.641,-31.738,-24.414,-61.035,-90.332
1687767012.115,-50.781,-33.203,-27.344,-58.594,-78.125
1687767012.119,-40.527,-31.250,-28.809,-54.199,-134.277
1687767012.123,-45.898,-33.691,-28.809,-48.340,-44.434
1687767012.127,-34.180,-35.645,-31.738,-38.086,42.969
1687767012.131,-22.461,-33.691,-39.062,-42.480,-22.461
1687767012.135,-36.621,-33.203,-38.086,-55.664,-9.766
1687767012.139,-37.109,-26.367,-31.738,-46.875,-27.832
1687767012.142,-32.715,-27.832,-33.691,-44.434,162.109
1687767012.146,-40.527,-26.855,-34.180,-47.363,343.262
1687767012.150,-27.832,-20.020,-20.508,-38.574,-26.367
1687767012.154,-16.113,-25.391,-16.602,-37.109,-145.020
1687767012.158,-20.996,-20.508,-18.066,-28.809,-41.504
1687767012.161,-30.273,-21.484,-25.879,-23.438,-43.945
1687767012.165,-50.293,-41.992,-48.340,-41.504,-74.219
1687767012.169,-56.641,-41.016,-47.363,-45.410,-75.195
1687767012.173,-49.316,-31.250,-29.785,-39.551,-70.801
1687767012.177,-44.434,-30.762,-30.762,-38.086,-88.379
1687767012.181,-46.875,-38.086,-24.414,-40.039,32.227
1687767012.185,-48.828,-41.016,-21.973,-36.621,225.098
1687767012.188,-40.527,-36.133,-33.203,-25.391,272.949
1687767012.192,-35.156,-32.227,-24.414,-20.020,13.184
1687767012.196,-36.133,-30.762,-11.230,-18.066,-123.535
1687767012.200,-41.016,-33.691,-17.090,-21.973,44.922
1687767012.204,-45.898,-37.109,-34.180,-30.762,56.641
1687767012.205,-37.598,-37.598,-37.598,-41.016,-84.961
1687767012.209,-31.250,-31.738,-31.738,-43.457,-91.797
1687767012.213,-30.273,-34.668,-30.762,-46.875,3.418
1687767012.217,-28.320,-36.133,-32.227,-43.945,17.578
1687767012.221,-41.504,-30.273,-42.969,-39.062,-34.180
1687767012.225,-41.016,-36.621,-41.504,-47.852,59.570
1687767012.229,-33.691,-43.945,-32.227,-43.457,337.402
1687767012.232,-25.391,-36.621,-26.855,-29.785,333.984
1687767012.236,-27.344,-33.203,-24.414,-38.086,-15.137
1687767012.240,-30.762,-36.621,-30.762,-36.621,-95.215
1687767012.244,-32.715,-36.621,-34.668,-24.414,56.152
1687767012.248,-36.621,-26.855,-27.344,-28.320,11.719
1687767012.265,-29.785,-23.926,-25.391,-30.762,-130.859
1687767012.269,-26.855,-32.715,-27.832,-25.879,-29.297
1687767012.273,-31.738,-32.715,-25.879,-34.180,3.906
1687767012.277,-44.434,-30.762,-30.762,-47.363,-62.500
1687767012.281,-47.852,-33.203,-38.086,-44.434,-97.168
1687767012.285,-39.062,-30.762,-37.598,-36.133,28.320
1687767012.289,-41.504,-32.715,-41.504,-27.344,202.637
1687767012.292,-54.688,-37.598,-41.016,-31.250,-36.621
1687767012.296,-61.035,-43.457,-40.039,-60.547,-163.086
1687767012.300,-53.711,-46.387,-43.945,-55.664,75.684
1687767012.304,-33.203,-39.062,-29.297,-24.414,146.973
1687767012.308,-19.043,-35.645,-22.949,-28.320,-82.031
1687767012.310,-29.297,-39.551,-38.086,-40.039,-131.836
1687767012.314,-44.434,-38.574,-47.363,-38.086,20.508
1687767012.318,-46.387,-37.109,-41.504,-31.738,25.391
1687767012.322,-45.410,-40.039,-43.945,-27.344,-49.805
1687767012.326,-39.551,-39.062,-47.852,-21.484,-37.598
1687767012.330,-35.156,-29.785,-36.133,-18.066,107.422
1687767012.334,-27.832,-27.344,-23.438,-23.926,163.086
1687767012.337,-30.762,-22.949,-23.438,-14.160,-12.695
1687767012.341,-34.668,-18.066,-32.227,-26.855,-52.246
1687767012.345,-27.832,-23.438,-41.504,-26.855,197.266
1687767012.349,-13.672,-26.855,-33.691,-3.418,138.184
1687767012.353,-24.414,-29.785,-20.020,-11.719,-83.496
1687767012.356,-74.219,-34.668,-13.672,-33.203,-15.625
1687767012.360,-76.172,-33.691,-7.812,-33.203,-22.461
1687767012.364,-54.688,-38.574,-0.977,-37.109,-32.715
1687767012.368,-83.496,-54.199,1.465,-73.242,-12.207
1687767012.372,-94.727,-66.406,4.883,-83.984,76.660
1687767012.376,-89.355,-66.895,3.906,-79.102,222.656
1687767012.380,-77.637,-65.918,9.277,-76.172,148.438
1687767012.383,-75.195,-66.406,15.625,-65.918,-37.109
1687767012.387,-96.191,-73.730,12.695,-49.805,73.730
1687767012.391,-105.469,-90.332,16.602,-27.344,240.723
1687767012.395,-107.910,-87.891,21.484,-22.461,-16.113
1687767012.399,-98.633,-86.914,27.344,-21.484,-98.633
1687767012.400,-89.355,-86.426,24.902,-19.531,-121.094
1687767012.404,-77.637,-77.637,20.996,-15.137,-141.602
1687767012.408,-75.684,-75.684,30.273,-15.137,-145.020
1687767012.412,-83.496,-82.031,34.668,-19.043,-116.699
1687767012.416,-77.148,-81.543,31.250,-19.043,62.988
1687767012.420,-62.500,-75.684,28.809,-15.625,61.035
1687767012.424,-51.758,-79.102,23.926,-13.184,-9.277
1687767012.427,-61.523,-79.102,9.766,-11.230,39.062
1687767012.431,-67.871,-71.289,-0.977,-17.578,243.164
1687767012.435,-50.781,-62.988,-2.441,-8.301,262.695
1687767012.439,-37.598,-64.453,2.930,-13.184,-20.508
1687767012.443,-35.645,-61.035,-1.953,-23.438,-87.891
1687767012.447,-26.855,-48.828,-1.465,-13.672,-38.086
1687767012.451,-42.480,-55.664,-1.465,-20.020,-64.941
1687767012.455,-45.898,-53.711,-0.977,-22.461,-116.699
1687767012.459,-23.926,-36.621,7.812,-7.812,-17.578
1687767012.463,-20.020,-27.344,7.324,2.441,9.766
1687767012.467,-16.602,-32.227,3.906,-3.418,64.453
1687767012.471,-31.738,-41.992,-5.859,-10.254,106.445
1687767012.474,-37.109,-42.969,-6.348,-5.371,182.129
1687767012.478,-28.809,-45.410,-7.812,-9.766,376.465
1687767012.482,-30.762,-48.340,-15.625,-25.879,80.566
1687767012.486,-24.902,-42.480,-12.695,-26.855,-119.629
1687767012.490,-24.902,-34.180,-16.113,-24.902,-57.617
1687767012.490,-25.879,-35.645,-13.672,-31.250,-62.500
1687767012.494,-18.555,-31.250,-4.395,-20.020,-62.988
1687767012.498,-20.996,-31.250,-9.277,-18.066,-27.344
1687767012.502,-21.484,-41.504,-20.020,-23.926,-20.996
1687767012.506,-24.414,-39.551,-22.461,-20.996,68.848
1687767012.510,-27.344,-31.250,-15.137,-11.719,160.156
1687767012.514,-17.090,-28.320,-8.301,-10.742,129.395
1687767012.517,-8.789,-36.621,-12.207,-13.672,378.906
1687767012.521,-18.066,-40.527,-20.996,-12.695,397.461
1687767012.525,-33.203,-45.410,-20.996,-28.320,-46.387
1687767012.529,-23.438,-40.527,-14.648,-14.648,-102.051
1687767012.533,-4.883,-17.090,-10.742,7.324,-6.836
1687767012.537,-10.254,-20.508,-17.090,-3.906,-71.289
1687767012.541,-25.391,-32.715,-29.785,-22.949,-119.629
1687767012.545,-27.832,-24.902,-18.066,-24.414,-56.641
1687767012.549,-1.465,-1.465,20.996,1.953,-53.711
1687767012.553,-9.277,-14.648,10.742,0.000,-98.633
1687767012.557,-54.688,-56.152,-30.273,-41.992,-15.137
1687767012.561,-46.875,-57.129,-35.156,-49.805,122.070
1687767012.564,-41.016,-45.410,-31.738,-32.227,161.133
1687767012.568,-30.762,-38.086,-30.273,-25.879,-87.402
1687767012.572,-19.043,-33.691,-35.645,-24.902,-138.672
1687767012.576,-28.320,-36.621,-40.039,-23.926,-54.199
1687767012.580,-18.066,-28.320,-27.344,-19.531,-74.219
1687767012.581,-14.648,-21.973,-12.695,-20.508,-65.430
1687767012.585,-38.086,-33.691,-22.461,-24.902,-62.988
1687767012.589,-43.945,-43.945,-33.691,-34.180,-15.625
1687767012.593,-34.180,-41.016,-37.109,-30.273,3.418
1687767012.597,-20.020,-33.203,-32.715,-22.949,-42.969
1687767012.601,-15.625,-26.367,-26.855,-19.043,-21.973
1687767012.605,-34.180,-31.738,-31.250,-27.344,310.547
1687767012.608,-28.320,-30.273,-22.949,-21.973,353.516
1687767012.612,-12.207,-24.414,-20.020,-14.648,-14.648
1687767012.616,-24.414,-36.621,-36.621,-24.902,-0.488
1687767012.620,-42.480,-44.922,-39.551,-47.852,-16.113
1687767012.624,-54.199,-41.504,-42.480,-56.152,-133.301
1687767012.642,-46.387,-25.391,-40.039,-44.434,-127.441
1687767012.646,-26.367,-20.996,-33.203,-38.086,-82.031
1687767012.650,-27.832,-24.414,-32.227,-39.551,-63.965
1687767012.654,-33.203,-20.508,-23.926,-25.391,-109.375
1687767012.658,-41.016,-28.320,-26.855,-19.531,-162.598
1687767012.662,-46.875,-34.180,-31.738,-31.738,122.559
1687767012.666,-32.715,-28.809,-19.043,-17.578,488.770
1687767012.669,-32.715,-26.367,-26.855,-18.555,174.316
1687767012.673,-19.531,-24.414,-29.785,-7.324,-111.328
1687767012.677,-9.277,-20.996,-18.066,-5.859,-34.668
1687767012.681,-33.203,-19.531,-30.762,-38.086,-48.340
1687767012.685,-53.223,-23.438,-41.992,-52.246,-122.070
1687767012.685,-65.430,-29.297,-38.574,-74.707,-106.445
1687767012.689,-77.148,-29.785,-40.527,-92.285,-54.199
1687767012.693,-84.961,-25.391,-36.621,-84.961,-72.266
1687767012.697,-89.844,-23.926,-33.203,-76.172,-119.629
1687767012.701,-78.613,-31.738,-36.621,-63.965,-43.945
1687767012.705,-58.105,-31.250,-37.109,-48.340,207.520
1687767012.709,-44.922,-25.391,-38.086,-47.363,165.039
1687767012.712,-60.059,-31.250,-47.852,-65.918,-53.223
1687767012.716,-59.570,-33.691,-51.270,-60.547,-99.121
1687767012.720,-50.781,-38.574,-46.875,-46.875,205.078
1687767012.724,-58.594,-41.016,-48.340,-48.340,252.930
1687767012.728,-44.922,-33.691,-50.293,-54.199,-108.887
1687767012.731,-28.320,-26.367,-38.086,-36.621,-97.168
1687767012.735,-37.598,-25.391,-33.691,-31.738,-19.043
1687767012.739,-48.340,-32.227,-40.039,-55.664,-83.984
1687767012.743,-47.363,-34.668,-34.668,-60.547,-128.906
1687767012.747,-47.852,-37.109,-31.738,-59.570,-17.578
1687767012.751,-53.711,-44.922,-32.715,-60.059,70.801
1687767012.755,-57.617,-48.340,-32.227,-54.688,111.328
1687767012.758,-42.969,-35.156,-33.691,-43.945,14.160
1687767012.762,-21.973,-25.879,-30.762,-20.996,79.102
1687767012.766,-33.203,-30.762,-32.227,-16.113,312.988
1687767012.770,-65.430,-40.039,-45.898,-41.992,38.574
1687767012.774,-73.242,-34.668,-40.039,-62.988,-98.145
1687767012.776,-53.223,-28.809,-34.668,-58.105,-41.504
1687767012.780,-41.016,-29.785,-37.598,-49.316,-62.012
1687767012.784,-47.852,-32.715,-32.715,-52.734,-101.562
1687767012.788,-60.059,-37.109,-29.297,-48.340,-53.223
1687767012.792,-74.707,-34.180,-32.715,-41.504,120.605
1687767012.796,-71.289,-30.762,-42.969,-42.480,140.625
1687767012.800,-56.152,-32.227,-37.109,-44.922,120.117
1687767012.803,-49.316,-23.926,-24.902,-47.363,87.402
1687767012.807,-50.293,-19.043,-18.066,-39.551,261.230
1687767012.811,-56.152,-31.250,-26.367,-31.250,346.680
1687767012.815,-63.965,-38.086,-30.762,-40.039,-4.395
1687767012.819,-55.664,-31.250,-26.367,-48.340,-79.590
1687767012.823,-47.363,-29.297,-27.344,-34.180,16.602
1687767012.827,-52.246,-32.715,-29.297,-28.809,-20.508
1687767012.831,-40.527,-18.066,-29.297,-29.785,-118.652
1687767012.835,-30.762,-9.766,-20.508,-18.066,-140.137
1687767012.839,-39.551,-19.043,-19.043,-27.832,-78.125
1687767012.843,-47.363,-23.926,-22.461,-50.293,-14.648
1687767012.847,-51.270,-29.297,-29.297,-63.477,-5.859
1687767012.850,-50.781,-32.227,-32.715,-59.082,69.336
1687767012.854,-49.805,-31.738,-29.785,-55.664,176.758
1687767012.858,-45.898,-29.785,-31.738,-56.152,-48.340
1687767012.862,-51.270,-26.855,-40.527,-47.852,-130.371
1687767012.866,-49.805,-22.461,-37.109,-41.504,18.066
1687767012.865,-58.105,-25.879,-31.250,-44.922,4.395
1687767012.869,-71.289,-41.016,-38.574,-47.363,-106.934
1687767012.873,-47.852,-38.086,-25.391,-39.062,-116.699
1687767012.877,-33.691,-36.133,-17.578,-32.227,21.484
1687767012.881,-53.711,-43.457,-30.273,-27.344,83.496
1687767012.885,-67.871,-40.039,-40.039,-39.551,16.113
1687767012.889,-62.012,-30.762,-29.297,-55.664,-47.363
1687767012.892,-46.875,-27.344,-13.672,-31.738,245.605
1687767012.896,-45.410,-23.438,-28.320,-10.254,303.223
1687767012.900,-59.570,-29.297,-38.086,-32.227,-59.082
1687767012.904,-67.383,-39.062,-36.133,-54.688,-34.668
1687767012.908,-62.988,-45.410,-41.016,-60.547,13.672
1687767012.913,-57.129,-40.527,-31.738,-53.711,-83.496
1687767012.917,-53.223,-35.156,-26.367,-47.363,-138.184
1687767012.921,-56.152,-32.227,-27.344,-39.551,4.883
1687767012.925,-49.316,-24.414,-27.832,-47.363,66.406
1687767012.929,-41.992,-25.391,-32.715,-58.594,-102.051
1687767012.933,-47.363,-27.344,-43.945,-45.410,-84.961
1687767012.937,-40.527,-21.973,-41.016,-30.273,185.547
1687767012.940,-44.922,-29.785,-37.598,-39.062,304.688
1687767012.944,-48.340,-41.992,-42.480,-49.316,-11.230
1687767012.948,-42.480,-31.738,-38.574,-30.273,-154.785
1687767012.952,-34.180,-23.926,-39.062,-13.184,-71.777
1687767012.956,-36.133,-27.344,-45.898,-29.297,-93.262
1687767012.955,-45.410,-35.645,-43.945,-41.016,-189.941
1687767012.959,-47.363,-38.574,-39.062,-44.434,-108.398
1687767012.963,-55.664,-36.133,-35.645,-53.223,-38.574
1687767012.967,-39.062,-30.273,-40.039,-51.270,-100.098
1687767012.971,-35.645,-29.785,-47.852,-50.293,24.414
1687767012.975,-41.016,-24.902,-38.574,-51.270,23.438
1687767012.979,-39.551,-25.391,-39.551,-52.734,162.109
1687767012.982,-42.480,-32.715,-41.992,-53.223,276.367
1687767012.986,-46.387,-28.809,-39.551,-47.363,20.020
1687767012.990,-45.898,-29.297,-37.598,-30.762,25.879
1687767012.994,-41.016,-32.227,-24.902,-16.602,141.113
1687767012.998,-36.621,-21.973,-27.344,-2.930,11.230
1687767013.003,-46.387,-27.832,-38.574,-17.090,-96.191
1687767013.007,-56.641,-40.527,-41.504,-45.898,1.953
1687767013.011,-50.293,-38.574,-41.992,-33.203,30.273
1687767013.015,-44.434,-31.250,-48.828,-25.879,-51.758
1687767013.019,-38.086,-30.762,-43.945,-31.250,-125.977
1687767013.023,-40.527,-33.203,-31.738,-28.320,85.938
1687767013.027,-45.410,-26.367,-23.926,-39.551,271.973
1687767013.030,-30.273,-19.043,-19.531,-36.621,60.547
1687767013.034,-16.602,-20.508,-31.250,-41.504,-68.848
1687767013.038,-31.250,-26.367,-35.645,-37.598,104.980
1687767013.042,-41.504,-34.668,-32.715,-37.109,193.848
1687767013.046,-45.898,-38.086,-29.785,-47.852,-76.660
1687767013.075,-45.898,-32.227,-28.320,-31.250,-103.027
1687767013.079,-39.551,-28.320,-32.227,-32.227,-43.457
1687767013.083,-38.086,-20.020,-29.785,-38.574,-82.520
1687767013.087,-49.316,-20.508,-26.367,-39.551,-63.965
1687767013.091,-50.293,-26.855,-31.250,-45.898,44.922
1687767013.095,-50.781,-31.738,-29.297,-32.227,305.664
1687767013.099,-54.688,-26.855,-25.879,-23.926,256.348
1687767013.102,-49.316,-25.879,-35.156,-25.879,52.734
1687767013.106,-47.363,-30.273,-39.551,-30.762,-6.348
1687767013.110,-52.734,-25.879,-34.668,-28.809,194.336
1687767013.114,-46.875,-23.926,-34.180,-35.156,207.520
1687767013.118,-43.945,-30.273,-22.949,-31.250,-83.984
1687767013.106,-46.875,-29.785,-16.113,-29.785,-52.734
1687767013.110,-47.852,-21.484,-19.043,-33.691,-4.883
1687767013.114,-49.316,-18.555,-17.090,-32.715,-116.699
1687767013.118,-39.062,-20.996,-14.160,-29.785,-117.676
1687767013.122,-25.391,-21.973,-10.742,-19.531,-6.348
1687767013.126,-24.902,-24.414,-18.555,-12.207,-3.418
1687767013.130,-31.738,-28.809,-27.344,-15.625,-97.656
1687767013.133,-31.738,-28.809,-24.902,-24.414,-113.770
1687767013.137,-22.949,-28.809,-23.926,-24.902,-2.441
1687767013.141,-22.949,-28.809,-34.668,-33.691,17.090
1687767013.145,-26.367,-27.344,-42.969,-38.086,-91.309
1687767013.149,-26.855,-28.320,-42.969,-28.809,-51.758
1687767013.150,-28.320,-24.902,-37.109,-21.973,200.195
1687767013.154,-29.785,-22.461,-33.691,-28.320,267.578
1687767013.158,-26.367,-23.438,-31.738,-34.668,-14.160
1687767013.162,-26.855,-33.691,-34.668,-32.227,-97.168
1687767013.166,-36.133,-40.039,-29.297,-26.367,-0.488
1687767013.170,-40.527,-30.273,-26.367,-24.414,12.695
1687767013.174,-27.344,-22.461,-21.973,-24.902,-57.617
1687767013.177,-12.207,-11.230,-25.879,-22.461,-98.633
1687767013.181,-32.715,-18.066,-32.715,-33.691,182.129
1687767013.185,-52.246,-33.203,-33.691,-34.668,260.254
1687767013.189,-52.246,-31.738,-39.062,-31.738,-45.898
1687767013.193,-59.082,-29.785,-42.480,-40.039,-21.973
1687767013.198,-61.523,-34.668,-42.969,-35.645,15.137
1687767013.202,-55.664,-27.832,-33.203,-21.484,19.043
1687767013.206,-51.758,-24.902,-31.738,-18.555,-19.531
1687767013.210,-55.176,-26.367,-39.062,-22.461,-29.785
1687767013.214,-57.129,-28.320,-33.691,-25.391,7.324
1687767013.218,-45.898,-34.668,-24.414,-21.973,-23.438
1687767013.222,-39.062,-32.715,-32.715,-24.414,-14.648
1687767013.225,-45.410,-28.320,-38.574,-35.156,50.781
1687767013.229,-58.594,-28.320,-33.203,-23.438,155.273
1687767013.233,-54.199,-25.879,-39.062,-28.320,-36.133
1687767013.237,-33.203,-18.555,-48.340,-47.363,-85.449
1687767013.241,-22.461,-21.973,-48.828,-43.945,-11.230
1687767013.240,-14.648,-25.391,-41.992,-43.945,0.488
1687767013.244,-8.789,-26.367,-35.156,-41.992,-27.832
1687767013.248,-18.555,-30.762,-32.227,-45.410,-83.984
1687767013.252,-25.879,-31.738,-29.297,-53.711,17.578
1687767013.256,-19.043,-28.320,-33.203,-49.316,111.816
1687767013.260,-8.789,-23.926,-35.645,-34.668,41.992
1687767013.264,-9.277,-28.320,-37.598,-27.832,-79.590
1687767013.267,-14.160,-32.715,-34.180,-17.090,216.309
1687767013.271,-1.465,-29.785,-29.785,-6.836,424.316
1687767013.275,0.000,-38.574,-38.086,-25.879,-35.645
1687767013.279,-10.742,-42.480,-35.156,-42.969,-173.828
1687767013.283,-20.996,-31.738,-29.297,-35.645,-63.477
1687767013.287,-24.902,-29.297,-29.785,-23.926,-125.977
1687767013.291,-10.742,-27.344,-20.996,-22.461,-133.301
1687767013.295,-2.930,-25.879,-20.996,-14.648,2.441
1687767013.299,-18.555,-39.062,-35.156,-19.043,47.363
1687767013.303,-21.973,-46.875,-33.691,-35.156,5.371
1687767013.307,-13.184,-36.621,-26.367,-36.133,4.883
1687767013.311,-9.766,-40.039,-29.785,-23.926,222.168
1687767013.314,2.441,-42.969,-34.668,-10.742,352.539
1687767013.318,0.977,-33.691,-41.504,-9.766,42.480
1687767013.322,-5.859,-38.574,-41.992,-25.391,-87.402
1687767013.326,-12.695,-41.504,-37.109,-47.852,-50.293
1687767013.330,-20.020,-38.574,-26.367,-44.434,-45.898
1687767013.330,-10.254,-36.621,-25.391,-26.367,-101.074
1687767013.334,-13.672,-38.574,-30.273,-37.109,-54.688
1687767013.338,-19.531,-39.551,-33.691,-45.410,-20.020
1687767013.342,-20.508,-36.621,-36.133,-32.227,-92.773
1687767013.346,-25.391,-34.180,-27.344,-23.926,-4.883
1687767013.350,-16.602,-32.227,-23.926,-19.531,70.312
1687767013.354,-10.254,-32.715,-32.715,0.000,344.238
1687767013.357,-20.508,-34.180,-30.762,-7.812,378.418
1687767013.361,-38.086,-33.691,-37.109,-27.832,-30.273
1687767013.365,-35.156,-40.039,-44.922,-25.391,-4.883
1687767013.369,-28.320,-41.504,-37.109,-24.414,120.605
1687767013.373,-32.715,-44.434,-31.738,-27.344,-5.859
1687767013.391,-23.438,-52.246,-28.320,-30.762,-104.492
1687767013.395,-31.250,-52.734,-28.320,-36.621,-49.805
1687767013.399,-40.527,-50.781,-36.133,-38.574,2.441
1687767013.403,-27.344,-45.898,-34.668,-31.250,-42.480
1687767013.407,-25.879,-47.852,-34.668,-37.109,-43.457
1687767013.411,-30.762,-49.805,-40.527,-44.922,194.824
1687767013.415,-28.320,-44.434,-44.434,-47.852,223.145
1687767013.418,-13.184,-39.062,-36.621,-44.434,-92.285
1687767013.422,-14.160,-29.785,-30.273,-35.156,-132.324
1687767013.426,-18.555,-27.344,-30.762,-24.414,105.469
1687767013.430,-20.020,-46.387,-24.902,-33.203,213.379
1687767013.434,9.277,-47.852,-28.320,-22.949,-16.602
1687767013.435,18.555,-29.785,-35.156,-17.578,-138.184
1687767013.439,-1.953,-19.043,-41.992,-46.875,-31.738
1687767013.443,-15.137,-16.602,-47.852,-62.500,-9.277
1687767013.447,-19.043,-12.695,-49.316,-70.312,-76.660
1687767013.451,-22.949,-11.230,-56.641,-74.219,-66.895
1687767013.455,-36.133,-8.789,-72.754,-71.289,78.613
1687767013.459,-38.086,-1.953,-74.707,-72.266,85.449
1687767013.462,-28.809,-3.906,-78.125,-81.055,-49.805
1687767013.466,-28.809,-8.789,-83.008,-83.984,-53.711
1687767013.470,-17.578,-8.789,-83.984,-73.242,171.875
1687767013.474,-25.391,-10.742,-94.727,-74.707,142.090
1687767013.478,-22.949,-15.137,-96.680,-91.309,-61.035
1687767013.481,2.930,-10.254,-94.727,-78.125,-57.129
1687767013.485,-10.742,-19.043,-85.938,-65.918,-9.277
1687767013.489,-31.738,-29.785,-79.102,-68.359,-66.406
1687767013.493,-39.551,-27.344,-83.496,-65.430,-144.531
1687767013.497,-32.227,-29.785,-83.496,-58.105,5.859
1687767013.501,-11.719,-25.879,-78.125,-38.086,124.023
1687767013.505,0.488,-20.996,-71.777,-36.621,46.387
1687767013.508,-9.277,-24.414,-68.848,-49.316,-95.703
1687767013.512,-15.137,-25.879,-65.918,-43.945,17.578
1687767013.516,-5.859,-26.367,-67.383,-25.879,201.660
1687767013.520,11.230,-21.973,-67.383,-21.484,-42.480
1687767013.524,-4.883,-23.926,-69.336,-38.574,-101.074
1687767013.525,-8.789,-21.973,-60.547,-32.227,-33.691
1687767013.529,4.395,-16.113,-54.199,-22.461,-43.945
1687767013.533,-26.855,-31.738,-64.941,-42.969,-107.910
1687767013.537,-45.410,-32.227,-58.594,-41.992,-103.027
1687767013.541,-42.969,-24.414,-45.898,-27.344,120.117
1687767013.545,-49.316,-27.832,-47.363,-34.668,119.629
1687767013.549,-45.898,-18.555,-42.969,-37.598,0.488
1687767013.552,-56.152,-22.461,-39.551,-39.551,-13.184
1687767013.556,-56.152,-27.344,-44.922,-39.062,199.707
1687767013.560,-38.086,-34.668,-44.922,-30.273,250.488
1687767013.564,-33.203,-44.434,-56.152,-45.410,-121.094
1687767013.568,-37.109,-40.527,-69.824,-56.152,-37.109
1687767013.572,-43.457,-35.645,-58.594,-49.316,79.590
1687767013.576,-40.527,-31.738,-49.805,-33.691,-130.371
1687767013.580,-37.598,-30.762,-47.363,-37.109,-182.617
1687767013.584,-41.504,-27.832,-40.527,-43.945,-74.707
1687767013.588,-41.992,-26.367,-42.480,-32.227,-30.762
1687767013.592,-45.410,-29.785,-46.387,-29.297,44.434
1687767013.596,-40.527,-27.832,-50.293,-24.902,65.430
1687767013.599,-28.809,-23.926,-54.199,-20.508,131.836
1687767013.603,-40.039,-24.902,-46.875,-13.184,354.980
1687767013.607,-46.387,-26.367,-40.527,-30.273,141.113
1687767013.611,-35.156,-34.668,-48.340,-48.340,-55.664
1687767013.615,-26.367,-27.344,-48.828,-33.691,20.020
1687767013.615,-15.625,-17.578,-40.527,-20.508,48.340
1687767013.619,-40.039,-35.156,-41.992,-27.344,-47.852
1687767013.623,-63.477,-45.898,-56.152,-46.875,-110.840
1687767013.627,-53.711,-35.645,-48.340,-28.320,-58.594
1687767013.631,-35.156,-26.855,-35.645,-9.277,58.105
1687767013.635,-44.922,-36.621,-47.852,-31.738,136.230
1687767013.639,-52.246,-38.574,-47.852,-36.133,17.578
1687767013.642,-37.109,-38.086,-33.691,-23.926,280.273
1687767013.646,-39.062,-41.992,-25.879,-17.578,530.762
1687767013.650,-47.852,-34.668,-34.180,-21.973,129.883
1687767013.654,-49.805,-37.109,-38.574,-24.902,-90.332
1687767013.658,-51.270,-46.875,-31.738,-32.715,7.812
1687767013.662,-45.410,-36.133,-33.203,-36.621,-67.383
1687767013.666,-42.480,-24.414,-34.668,-22.461,-109.863
1687767013.670,-57.129,-37.598,-40.039,-35.156,-67.383
1687767013.674,-58.594,-47.363,-45.410,-37.598,-45.898
1687767013.678,-28.809,-42.969,-43.457,-10.742,-114.746
1687767013.682,-35.156,-28.320,-39.062,-26.367,-98.633
1687767013.686,-67.871,-28.320,-41.016,-62.012,109.863
1687767013.689,-54.199,-27.832,-50.293,-60.547,161.621
1687767013.693,-40.527,-15.625,-52.734,-55.664,-51.270
1687767013.697,-44.434,-14.648,-42.480,-50.781,-121.582
1687767013.701,-55.176,-21.973,-42.969,-51.758,22.949
1687767013.705,-66.406,-24.414,-50.781,-54.688,48.828
1687767013.705,-58.594,-23.438,-47.852,-54.199,-133.789
1687767013.709,-56.641,-32.715,-50.293,-54.688,-146.484
1687767013.713,-54.688,-37.598,-59.082,-61.035,-32.227
1687767013.717,-50.781,-27.344,-48.340,-56.152,-2.930
1687767013.721,-33.203,-9.766,-39.551,-36.621,31.250
1687767013.725,-25.391,-19.043,-51.270,-35.645,24.414
1687767013.729,-37.109,-39.062,-57.617,-40.039,167.969
1687767013.732,-35.156,-29.297,-55.664,-37.109,297.363
1687767013.736,-48.828,-28.809,-41.504,-44.434,-81.543
1687767013.740,-49.805,-31.250,-35.645,-31.738,-140.137
1687767013.744,-37.109,-30.273,-40.039,-29.297,-36.133
1687767013.748,-9.277,-16.113,-37.109,-14.648,-134.766
1687767013.753,-3.906,-15.625,-37.109,-14.648,-19.043
1687767013.757,-27.344,-30.762,-31.738,-38.086,211.426
1687767013.761,-32.715,-32.227,-41.992,-51.270,122.559
1687767013.765,-36.621,-35.645,-50.781,-53.223,-40.039
1687767013.769,-26.855,-30.762,-40.039,-41.016,-70.801
1687767013.773,-8.789,-25.879,-35.645,-24.902,79.102
1687767013.777,0.977,-15.625,-26.855,-16.602,186.035
1687767013.780,-10.254,-15.137,-21.484,-24.414,8.789
1687767013.784,-39.062,-42.969,-31.250,-44.922,-153.809
1687767013.788,-39.062,-49.316,-36.621,-41.992,12.695
1687767013.792,-31.250,-34.668,-39.062,-28.320,88.867
1687767013.796,-31.738,-24.902,-34.668,-22.461,-108.887
1687767013.810,-42.480,-31.738,-41.992,-22.949,-89.355
1687767013.814,-46.387,-45.898,-45.410,-41.016,-60.059
1687767013.818,-44.434,-43.457,-41.992,-47.363,-46.387
1687767013.822,-45.410,-38.086,-37.109,-42.480,34.180
1687767013.826,-39.062,-38.574,-36.133,-38.086,-32.227
1687767013.830,-43.945,-38.086,-41.016,-25.391,173.828
1687767013.834,-44.434,-33.203,-33.691,-25.879,384.277
1687767013.837,-38.574,-26.855,-27.344,-41.016,33.203
1687767013.841,-36.621,-22.461,-32.227,-29.297,-75.195
1687767013.845,-36.133,-31.250,-47.852,-14.160,79.590
1687767013.849,-45.410,-40.527,-54.688,-27.344,41.504
1687767013.853,-50.293,-41.992,-43.945,-39.062,-62.012
1687767013.856,-47.852,-41.992,-33.691,-40.039,-17.090
1687767013.860,-43.457,-33.691,-37.598,-37.598,-48.828
1687767013.864,-30.762,-26.855,-37.109,-21.484,-121.094
1687767013.868,-23.438,-30.762,-32.227,-23.438,-104.980
1687767013.872,-38.574,-32.715,-29.785,-32.227,-10.254
1687767013.876,-38.574,-36.133,-26.367,-26.367,118.164
1687767013.880,-25.391,-39.551,-25.879,-28.320,111.816
1687767013.883,-21.484,-30.762,-23.438,-35.645,13.184
1687767013.887,-24.902,-22.461,-22.949,-24.414,104.004
1687767013.891,-30.273,-29.297,-30.273,-22.461,274.414
1687767013.895,-34.180,-21.973,-30.762,-38.574,48.340
1687767013.899,-44.434,-16.602,-32.227,-39.062,-133.789
1687767013.900,-40.527,-30.762,-31.250,-32.715,-19.531
1687767013.904,-22.949,-34.668,-22.949,-29.297,-33.691
1687767013.908,-37.598,-30.273,-18.066,-28.809,-125.977
1687767013.912,-56.152,-34.180,-24.414,-40.039,-4.883
1687767013.916,-34.668,-38.574,-33.203,-43.457,49.316
1687767013.920,-43.457,-34.668,-43.457,-44.434,2.930
1687767013.924,-61.035,-31.738,-40.527,-50.293,81.543
1687767013.927,-61.523,-40.527,-34.668,-57.617,66.895
1687767013.931,-75.684,-49.805,-36.621,-50.293,249.512
1687767013.935,-61.035,-42.480,-27.344,-26.367,291.504
1687767013.939,-39.062,-39.551,-30.273,-24.902,-32.227
1687767013.943,-38.574,-33.691,-39.551,-23.926,-29.297
1687767013.947,-45.898,-28.809,-38.574,-23.438,-17.090
1687767013.951,-45.898,-27.344,-34.180,-16.602,-134.766
1687767013.955,-41.992,-24.902,-28.809,-17.090,-76.660
1687767013.959,-41.016,-33.203,-30.762,-35.156,-7.812
1687767013.963,-43.945,-38.574,-37.109,-35.645,-20.020
1687767013.967,-45.898,-30.762,-31.250,-35.645,37.598
1687767013.971,-68.848,-32.227,-27.344,-41.504,-6.348
1687767013.974,-70.312,-34.668,-27.832,-24.902,51.758
1687767013.978,-53.711,-29.297,-27.832,-17.090,190.430
1687767013.982,-50.293,-34.668,-31.738,-31.738,-48.828
1687767013.986,-49.805,-40.039,-34.668,-37.598,-96.191
1687767013.990,-61.035,-36.621,-34.668,-32.227,42.969
1687767013.992,-58.594,-36.133,-30.762,-36.621,-6.348
1687767013.996,-52.734,-40.039,-33.691,-30.762,-97.656
1687767014.000,-51.270,-36.621,-41.992,-24.902,-64.941
1687767014.004,-50.781,-35.645,-43.945,-34.668,-45.410
1687767014.008,-66.406,-42.969,-47.363,-44.434,-0.488
1687767014.012,-57.129,-43.945,-36.621,-45.410,22.461
1687767014.016,-38.086,-38.086,-19.043,-32.715,47.852
1687767014.019,-40.039,-44.922,-17.090,-17.578,326.660
1687767014.023,-47.363,-43.457,-18.066,-0.977,304.199
1687767014.027,-44.434,-28.320,-20.996,-16.602,-113.770
1687767014.031,-37.109,-28.809,-20.020,-30.762,-87.891
1687767014.035,-30.273,-28.320,-18.066,-23.926,-15.625
1687767014.038,-36.133,-36.133,-26.367,-23.926,-39.062
1687767014.042,-44.434,-41.016,-29.785,-27.344,-127.441
1687767014.046,-40.039,-38.086,-32.715,-32.715,-36.133
1687767014.050,-32.715,-35.645,-33.203,-33.203,129.395
1687767014.054,-24.414,-39.551,-39.551,-36.133,-43.945
1687767014.058,-22.461,-46.875,-47.852,-35.645,-78.125
1687767014.062,-24.902,-43.945,-35.645,-20.508,83.984
1687767014.065,-35.156,-42.480,-31.738,-15.625,167.480
1687767014.069,-42.480,-49.316,-39.062,-31.738,-68.359
1687767014.073,-41.992,-54.688,-33.203,-50.781,-139.648
1687767014.077,-33.203,-45.898,-26.855,-41.992,-84.961
1687767014.081,-36.133,-35.156,-29.785,-35.645,-102.051
1687767014.081,-50.293,-34.180,-30.273,-40.527,-155.762
1687767014.085,-55.176,-36.133,-31.738,-41.504,-188.965
1687767014.089,-44.922,-41.992,-38.086,-38.086,-41.016
1687767014.093,-33.203,-41.016,-36.133,-27.344,18.066
1687767014.097,-36.621,-31.738,-37.109,-22.949,-21.484
1687767014.101,-30.762,-26.367,-37.598,-29.297,35.645
1687767014.105,-36.621,-27.832,-31.250,-32.715,254.883
1687767014.108,-31.250,-29.297,-22.949,-18.066,454.590
1687767014.112,-28.809,-30.762,-16.602,-17.578,125.488
1687767014.116,-34.668,-37.109,-22.949,-36.133,-77.148
1687767014.120,-44.922,-34.668,-33.691,-44.922,-92.285
1687767014.124,-67.871,-37.598,-41.992,-53.223,-134.766
1687767014.155,-70.801,-44.434,-42.480,-58.594,-128.418
1687767014.159,-66.895,-44.434,-37.109,-54.199,-79.102
1687767014.163,-60.547,-41.016,-36.133,-49.316,-34.180
1687767014.167,-60.059,-37.598,-39.551,-42.480,-37.598
1687767014.171,-57.129,-34.180,-35.156,-41.504,-83.496
1687767014.175,-49.316,-35.156,-32.227,-46.875,107.422
1687767014.179,-36.621,-40.039,-32.715,-43.457,285.156
1687767014.182,-22.461,-39.551,-27.832,-38.086,68.359
1687767014.186,-14.160,-38.086,-24.902,-43.945,-115.234
1687767014.190,-17.578,-38.574,-25.879,-45.898,43.945
1687767014.194,-24.414,-41.504,-36.133,-42.480,175.781
1687767014.198,-26.367,-41.504,-45.410,-31.738,-32.227
1687767014.185,-30.273,-21.973,-36.621,-24.414,-59.570
1687767014.189,-33.691,-9.766,-24.414,-32.227,-45.410
1687767014.193,-50.293,-22.949,-25.391,-40.527,-60.059
1687767014.197,-63.965,-28.320,-25.879,-47.852,-120.117
1687767014.201,-70.312,-33.203,-18.066,-50.293,-50.293
1687767014.205,-80.566,-35.645,-15.625,-61.035,231.445
1687767014.209,-78.613,-23.926,-20.508,-56.152,156.250
1687767014.212,-66.895,-15.137,-16.602,-46.875,-26.367
1687767014.216,-106.445,-19.043,-19.043,-83.008,28.809
1687767014.220,-137.695,-9.277,-27.832,-119.141,72.754
1687767014.224,-144.043,-13.184,-12.695,-135.742,10.254
1687767014.228,-189.941,-25.391,4.883,-182.617,-51.270
1687767014.232,-220.215,-25.391,14.648,-207.031,-51.758
1687767014.236,-232.422,-23.926,22.461,-206.543,218.750
1687767014.240,-249.512,-12.695,20.020,-234.375,136.230
1687767014.244,-255.371,-6.348,32.227,-255.371,-101.562
1687767014.248,-279.297,-3.418,33.203,-283.691,-37.109
1687767014.252,-308.594,1.953,32.227,-309.082,5.371
1687767014.256,-330.566,-4.395,52.246,-319.336,22.949
1687767014.259,-351.562,-19.043,85.938,-355.957,-103.516
1687767014.263,-368.652,-31.250,105.957,-364.258,-43.945
1687767014.267,-380.859,-43.945,107.422,-363.770,224.609
1687767014.271,-382.812,-58.105,111.816,-375.000,25.391
1687767014.275,-370.117,-56.152,104.980,-363.281,-159.180
1687767014.275,-365.723,-47.852,95.215,-345.703,6.836
1687767014.279,-352.539,-51.758,113.770,-314.453,44.434
1687767014.283,-326.172,-46.875,129.883,-303.711,-88.867
1687767014.287,-325.195,-56.641,111.328,-312.012,-73.242
1687767014.291,-285.645,-63.477,102.051,-273.438,90.332
1687767014.295,-232.422,-56.641,102.051,-209.961,122.070
1687767014.299,-226.562,-70.312,71.289,-193.359,40.039
1687767014.302,-209.961,-86.914,56.641,-189.453,-5.859
1687767014.306,-183.594,-102.539,49.316,-149.414,215.820
1687767014.310,-163.086,-100.098,58.594,-122.559,340.332
1687767014.314,-125.488,-92.773,67.871,-114.746,-25.391
1687767014.318,-105.469,-111.816,50.293,-97.656,-46.875
1687767014.322,-96.191,-115.723,30.762,-79.590,61.523
1687767014.326,-62.500,-104.004,15.625,-38.086,-38.574
1687767014.330,-26.855,-102.051,14.648,-18.066,-129.883
1687767014.334,-2.441,-101.074,3.418,-15.137,-94.238
1687767014.338,12.695,-101.074,-15.137,20.508,-4.395
1687767014.342,31.250,-103.027,-29.785,39.062,5.859
1687767014.346,58.594,-86.914,-29.785,56.152,39.551
1687767014.349,83.008,-72.754,-31.738,88.379,128.906
1687767014.353,95.215,-66.406,-38.574,91.797,228.516
1687767014.357,114.258,-69.824,-47.363,102.051,25.391
1687767014.361,131.348,-71.777,-60.059,124.512,-79.590
1687767014.365,128.906,-66.406,-68.359,129.395,-47.852
1687767014.366,123.535,-72.266,-60.547,129.883,-70.801
1687767014.370,122.559,-76.172,-56.152,126.953,-74.219
1687767014.374,122.070,-71.289,-65.430,118.652,-3.418
1687767014.378,123.535,-72.754,-68.848,130.859,49.316
1687767014.382,133.789,-63.965,-64.453,144.043,100.586
1687767014.386,136.230,-53.223,-59.082,136.230,123.047
1687767014.390,123.535,-57.617,-61.035,128.418,15.625
1687767014.393,130.859,-59.082,-69.824,139.160,231.934
1687767014.397,140.625,-53.711,-68.848,141.113,365.234
1687767014.401,128.418,-51.758,-66.895,133.789,-15.137
1687767014.405,123.535,-55.176,-67.871,131.836,-65.918
1687767014.409,125.977,-48.828,-66.895,117.676,-54.199
1687767014.412,124.023,-36.621,-64.453,108.398,-143.066
1687767014.416,117.676,-37.109,-61.523,105.957,-136.719
1687767014.420,111.816,-33.203,-53.711,108.887,-64.453
1687767014.424,113.770,-32.715,-59.082,119.141,24.414
1687767014.428,112.305,-39.551,-71.289,115.234,103.516
1687767014.432,112.305,-34.180,-69.336,104.492,94.727
1687767014.436,97.168,-37.598,-66.895,97.168,152.832
1687767014.439,78.613,-40.527,-61.523,83.496,355.957
1687767014.443,67.383,-46.387,-60.059,68.359,64.453
1687767014.447,61.523,-41.504,-59.570,66.406,-150.391
1687767014.451,69.824,-33.203,-60.547,68.359,-56.641
1687767014.455,57.129,-39.551,-62.988,64.453,-45.898
1687767014.455,42.969,-34.668,-62.500,56.641,-87.402
1687767014.459,36.621,-28.320,-56.152,57.617,-102.539
1687767014.463,42.969,-30.273,-46.875,63.477,-111.816
1687767014.467,38.574,-33.691,-44.434,59.570,-94.238
1687767014.471,40.039,-38.086,-45.898,56.641,-97.168
1687767014.475,51.758,-41.016,-50.781,55.664,-81.055
1687767014.479,38.086,-36.621,-53.223,47.852,274.902
1687767014.482,18.555,-32.715,-49.316,40.527,425.781
1687767014.486,27.344,-34.180,-50.781,37.598,33.691
1687767014.490,32.715,-38.086,-59.570,35.645,-90.332
1687767014.494,25.879,-33.203,-41.016,39.062,14.648
1687767014.498,20.508,-27.344,-27.832,50.781,-52.734
1687767014.502,15.625,-29.785,-34.668,39.551,-114.258
1687767014.506,18.066,-32.227,-35.645,33.691,19.043
1687767014.510,24.902,-29.297,-36.133,23.438,-9.277
1687767014.514,17.090,-30.762,-39.062,11.230,-100.098
1687767014.518,7.324,-34.180,-42.480,19.043,-138.184
1687767014.522,6.836,-32.715,-46.387,21.973,-7.812
1687767014.526,9.766,-32.227,-47.363,10.254,196.777
1687767014.529,22.949,-27.344,-53.223,18.555,25.879
1687767014.533,16.113,-30.273,-48.340,20.996,-103.516
1687767014.537,15.137,-34.668,-35.156,20.508,139.648
1687767014.541,16.602,-30.762,-44.922,16.602,187.500
1687767014.545,3.418,-31.250,-43.945,-2.930,-110.840
1687767014.560,1.465,-32.227,-29.785,-10.742,-105.957
1687767014.564,-11.719,-28.809,-35.645,-10.254,-49.316
1687767014.568,-23.438,-30.273,-39.551,-7.324,-68.359
1687767014.572,-21.973,-26.367,-45.410,-8.789,-105.957
1687767014.576,-23.438,-26.855,-53.711,-14.648,-83.008
1687767014.580,-21.973,-33.203,-43.457,-8.301,203.125
1687767014.584,-20.020,-24.414,-30.273,-9.766,258.789
1687767014.587,-37.109,-22.949,-29.785,-21.973,-58.105
1687767014.591,-60.547,-26.367,-37.598,-28.320,-93.750
1687767014.595,-62.500,-32.227,-45.898,-15.137,77.148
1687767014.599,-58.594,-34.180,-35.156,-5.859,10.742
1687767014.603,-54.199,-30.273,-21.484,-25.879,2.930
1687767014.607,-63.477,-39.062,-21.973,-26.367,107.422
1687767014.611,-69.824,-38.574,-35.645,-30.762,33.691
1687767014.615,-63.477,-34.180,-41.992,-39.551,-22.949
1687767014.619,-55.664,-33.203,-34.180,-25.391,-61.035
1687767014.623,-39.551,-25.391,-20.508,-5.371,10.742
1687767014.627,-33.203,-19.531,-20.020,10.742,190.918
1687767014.631,-38.574,-31.738,-46.387,-1.953,52.734
1687767014.634,-53.223,-46.875,-49.805,-25.879,-125.000
1687767014.638,-61.523,-44.922,-36.621,-26.367,126.953
1687767014.642,-56.152,-40.527,-28.809,-12.207,339.355
1687767014.646,-41.992,-37.598,-21.973,-5.371,76.660
1687767014.650,-45.898,-29.297,-28.320,-20.996,-85.938
1687767014.666,-63.965,-22.949,-41.016,-46.875,-47.363
1687767014.670,-74.707,-21.484,-35.156,-54.688,2.441
1687767014.674,-77.148,-23.926,-30.273,-57.617,-87.891
1687767014.678,-85.449,-34.180,-39.062,-73.730,-134.766
1687767014.682,-92.285,-37.598,-44.922,-72.266,66.406
1687767014.686,-88.379,-37.109,-48.828,-65.430,126.953
1687767014.690,-78.613,-38.574,-52.734,-50.293,-51.270
1687767014.693,-64.941,-33.691,-50.293,-43.457,-85.449
1687767014.697,-60.547,-29.297,-47.363,-35.156,237.793
1687767014.701,-59.570,-27.832,-46.387,-22.949,250.977
1687767014.705,-62.988,-29.785,-44.922,-40.527,-144.043
1687767014.709,-74.707,-31.250,-52.734,-45.410,-150.391
1687767014.696,-62.988,-30.273,-45.898,-37.598,-5.859
1687767014.700,-61.035,-36.133,-43.457,-39.551,22.949
1687767014.704,-81.055,-38.086,-41.504,-42.969,-73.730
1687767014.708,-82.520,-28.809,-32.715,-44.434,11.719
1687767014.712,-83.496,-28.320,-31.738,-36.133,144.043
1687767014.716,-80.078,-34.668,-34.668,-37.109,117.188
1687767014.720,-68.848,-39.551,-44.922,-37.109,48.828
1687767014.723,-55.664,-31.738,-40.039,-22.949,67.871
1687767014.727,-62.500,-32.227,-46.387,-38.574,38.574
1687767014.731,-61.523,-33.203,-49.316,-42.480,-74.707
1687767014.735,-42.969,-21.973,-29.785,-21.973,-83.008
1687767014.739,-43.457,-21.484,-27.344,-15.625,134.766
1687767014.740,-58.105,-30.273,-40.527,-40.039,305.176
1687767014.744,-54.199,-31.250,-43.457,-68.848,-17.578
1687767014.748,-46.875,-31.250,-44.434,-68.359,-114.258
1687767014.752,-51.270,-26.367,-41.016,-66.895,-25.391
1687767014.756,-47.852,-22.949,-30.762,-53.711,-65.918
1687767014.760,-53.711,-29.297,-35.645,-47.852,-25.391
1687767014.764,-50.781,-31.738,-26.855,-54.688,6.836
1687767014.767,-46.387,-25.391,-19.531,-30.762,279.297
1687767014.771,-46.875,-19.043,-21.484,-9.277,434.570
1687767014.775,-47.363,-29.297,-22.461,-10.254,82.031
1687767014.779,-48.828,-28.320,-27.832,-19.043,-115.234
1687767014.783,-58.594,-23.438,-25.879,-24.414,-59.082
1687767014.786,-70.801,-31.250,-27.832,-28.320,-70.801
1687767014.790,-61.523,-34.668,-42.480,-24.414,-85.449
1687767014.794,-55.176,-43.945,-47.852,-24.414,5.371
1687767014.798,-58.105,-45.410,-35.156,-31.738,4.395
1687767014.802,-45.898,-41.992,-28.809,-27.832,-80.078
1687767014.806,-42.969,-42.969,-25.391,-29.297,-43.945
1687767014.810,-44.434,-32.227,-15.625,-27.344,173.340
1687767014.813,-49.316,-31.250,-13.184,-22.461,240.234
1687767014.817,-60.547,-38.574,-5.859,-30.762,-33.691
1687767014.821,-47.363,-36.621,-6.836,-35.645,-133.789
1687767014.825,-44.922,-38.574,-17.090,-25.879,22.461
1687767014.829,-42.480,-40.527,-15.625,-22.949,6.348
1687767014.830,-41.504,-43.945,-15.137,-39.062,-123.535
1687767014.834,-48.340,-47.363,-20.020,-34.180,-104.980
1687767014.838,-48.828,-44.434,-20.020,-21.973,-62.500
1687767014.842,-46.387,-35.156,-10.742,-21.973,-84.473
1687767014.846,-41.992,-38.086,-16.113,-36.621,-59.570
1687767014.850,-44.434,-44.434,-27.832,-45.410,-4.395
1687767014.854,-52.246,-35.156,-21.973,-31.250,314.453
1687767014.857,-59.082,-35.156,-12.207,-31.738,393.066
1687767014.861,-70.312,-46.875,-16.602,-42.969,-14.648
1687767014.865,-70.312,-48.340,-19.531,-39.062,-78.125
1687767014.869,-54.199,-36.133,-17.090,-36.621,-42.969
1687767014.873,-48.340,-38.086,-20.020,-49.316,-90.332
1687767014.877,-46.387,-45.410,-24.902,-41.992,-149.902
1687767014.881,-58.594,-39.062,-34.668,-24.414,-48.340
1687767014.885,-58.105,-39.062,-34.180,-36.621,44.434
1687767014.889,-41.504,-35.645,-19.043,-31.250,-92.773
1687767014.893,-43.945,-30.762,-26.367,-21.484,-147.461
1687767014.897,-44.922,-40.527,-37.109,-27.832,140.137
1687767014.901,-31.738,-41.504,-24.414,-25.391,331.543
1687767014.904,-30.762,-35.156,-22.461,-30.273,32.227
1687767014.908,-36.621,-40.039,-27.832,-44.434,-115.234
1687767014.912,-32.715,-36.621,-26.367,-31.738,19.043
1687767014.916,-26.367,-32.227,-29.297,-35.645,36.133
1687767014.920,-29.297,-30.762,-30.762,-62.500,-108.887
1687767014.935,-15.137,-23.926,-20.020,-54.199,-147.949
1687767014.939,-7.812,-24.902,-20.508,-37.598,18.555
1687767014.943,-14.648,-28.320,-37.109,-41.016,26.367
1687767014.947,-13.672,-28.320,-31.738,-25.391,-66.895
1687767014.951,-24.414,-29.297,-24.902,-37.598,-34.668
1687767014.955,-22.461,-26.367,-25.879,-42.480,186.035
1687767014.959,-13.672,-24.902,-17.578,-19.043,270.020
1687767014.962,-7.324,-22.461,-10.254,-28.809,7.324
1687767014.966,-12.207,-29.785,-17.578,-22.461,-56.641
1687767014.970,-17.090,-40.527,-33.203,-22.949,45.898
1687767014.974,-13.184,-40.039,-40.039,-30.273,-54.199
1687767014.978,-22.461,-35.645,-46.387,-22.949,-150.879
1687767014.981,-22.949,-29.785,-38.086,-22.949,-61.523
1687767014.985,-19.043,-32.715,-33.203,-34.668,-80.566
1687767014.989,-32.715,-41.016,-31.738,-41.016,-156.738
1687767014.993,-40.039,-48.340,-30.762,-44.922,-102.539
1687767014.997,-38.086,-42.969,-41.016,-35.645,147.461
1687767015.001,-36.133,-33.203,-33.691,-27.832,258.301
1687767015.005,-38.574,-37.109,-32.227,-40.039,96.680
1687767015.008,-53.223,-42.480,-38.574,-44.434,-81.543
1687767015.012,-62.988,-40.527,-31.738,-45.410,41.992
1687767015.016,-46.875,-32.227,-20.508,-34.668,197.754
1687767015.020,-34.668,-25.391,-20.508,-27.832,-62.500
1687767015.024,-25.391,-27.832,-23.926,-24.902,-100.586
1687767015.025,-28.809,-29.785,-24.414,-24.414,-49.316
1687767015.029,-25.391,-26.367,-18.555,-23.926,-96.191
1687767015.033,-16.602,-28.809,-21.973,-17.578,-97.656
1687767015.037,-16.602,-30.273,-35.156,-17.578,-79.102
1687767015.041,-14.648,-30.273,-33.691,-16.113,1.953
1687767015.045,-17.578,-35.645,-32.715,-25.391,128.906
1687767015.049,-21.973,-38.574,-32.715,-28.320,52.246
1687767015.052,-18.555,-33.691,-30.762,-22.461,-69.336
1687767015.056,-10.254,-28.320,-21.973,-8.301,271.973
1687767015.060,1.953,-23.926,-10.254,10.742,462.891
1687767015.064,0.977,-24.902,-17.090,-3.418,39.551
1687767015.068,-19.531,-36.133,-38.086,-34.180,-161.133
1687767015.071,-20.508,-35.645,-40.527,-42.969,-67.871
1687767015.075,-21.484,-31.738,-38.086,-38.086,-108.887
1687767015.079,-17.578,-31.250,-42.480,-32.227,-126.465
1687767015.083,-17.090,-34.180,-48.828,-36.133,7.812
1687767015.087,-38.086,-42.969,-41.992,-41.992,-22.949
1687767015.091,-47.852,-46.387,-29.785,-38.086,-14.160
1687767015.095,-34.180,-35.156,-30.273,-53.223,-24.902
1687767015.098,-33.203,-31.250,-32.227,-48.340,20.020
1687767015.102,-30.762,-32.227,-28.809,-32.227,261.719
1687767015.106,-36.621,-31.738,-29.297,-44.922,26.367
1687767015.110,-38.574,-31.738,-30.273,-32.715,-173.340
1687767015.114,-23.438,-32.715,-27.832,-25.391,-17.090
1687767015.115,-30.762,-31.250,-27.832,-37.109,24.414
1687767015.119,-34.668,-25.391,-27.344,-40.039,-123.047
1687767015.123,-32.715,-30.273,-25.879,-40.039,-176.758
1687767015.127,-34.668,-32.715,-23.926,-40.527,-70.312
1687767015.131,-28.320,-37.109,-36.621,-40.039,92.773
1687767015.135,-23.438,-40.039,-39.062,-33.691,42.480
1687767015.139,-17.090,-34.668,-26.367,-33.691,2.441
1687767015.142,-18.066,-33.691,-39.551,-37.109,336.426
1687767015.146,-21.484,-38.574,-46.875,-41.992,369.141
1687767015.150,0.488,-35.645,-33.691,-40.527,-68.359
1687767015.154,9.277,-34.668,-31.250,-36.133,-60.547
1687767015.158,-8.301,-37.598,-37.598,-36.133,125.977
1687767015.161,-17.090,-33.691,-44.434,-36.133,-54.199
1687767015.165,-1.465,-23.926,-30.762,-31.250,-163.574
1687767015.169,25.391,-10.254,-18.066,-34.180,-64.453
1687767015.173,9.277,-24.414,-29.785,-51.758,18.066
1687767015.177,-18.555,-48.340,-30.762,-63.477,-18.555
1687767015.181,-14.160,-39.062,-19.043,-57.617,39.062
1687767015.185,-10.742,-28.809,-17.578,-46.875,191.895
1687767015.188,-4.395,-41.992,-30.762,-37.598,310.059
1687767015.192,-5.371,-39.062,-39.062,-34.180,121.094
1687767015.196,-11.719,-32.715,-33.203,-29.785,-98.145
1687767015.200,-9.766,-41.016,-27.344,-41.016,-46.387
1687767015.204,-22.949,-39.062,-35.156,-46.875,-29.297
1687767015.206,-20.020,-36.133,-41.992,-31.738,-59.570
1687767015.210,-2.930,-30.762,-32.227,-25.391,-24.902
1687767015.214,-4.395,-23.926,-23.926,-27.832,80.078
1687767015.218,-17.090,-28.809,-27.832,-28.809,40.039
1687767015.222,-31.738,-30.762,-39.551,-37.598,-23.926
1687767015.226,-36.133,-37.598,-42.969,-38.574,-63.965
1687767015.230,-33.691,-39.551,-37.109,-23.926,158.203
1687767015.233,-29.785,-32.715,-32.227,-20.508,333.008
1687767015.237,-26.367,-40.039,-24.414,-36.621,0.488
1687767015.241,-29.785,-43.945,-32.715,-49.316,-107.910
1687767015.245,-26.367,-37.598,-39.062,-45.410,-42.969
1687767015.249,-31.250,-33.691,-29.785,-38.086,-103.027
1687767015.251,-40.039,-31.738,-29.785,-41.992,-154.785
1687767015.255,-42.480,-29.785,-38.574,-46.875,-43.457
1687767015.259,-41.504,-24.414,-33.203,-33.691,-39.551
1687767015.263,-35.645,-26.855,-24.902,-33.691,-16.602
1687767015.267,-26.367,-36.621,-30.273,-47.852,-84.473
1687767015.271,-25.391,-28.320,-30.273,-37.598,44.922
1687767015.275,-38.574,-24.414,-29.297,-28.809,436.523
1687767015.278,-35.645,-31.738,-21.973,-38.086,163.574
1687767015.282,-32.227,-41.016,-21.484,-49.805,-178.711
1687767015.286,-31.250,-39.551,-30.762,-45.410,-87.402
1687767015.290,-26.855,-37.109,-40.039,-47.852,-49.805
1687767015.294,-19.043,-40.527,-35.645,-48.828,-76.172
1687767015.310,-16.113,-37.598,-37.109,-49.805,-62.988
1687767015.314,-20.508,-38.574,-50.293,-49.805,-54.199
1687767015.318,-9.766,-34.180,-44.434,-45.410,-62.500
1687767015.322,-7.812,-34.180,-35.645,-48.828,-41.016
1687767015.326,-26.367,-42.969,-39.062,-44.434,26.367
1687767015.330,-40.039,-42.480,-37.109,-44.434,213.867
1687767015.334,-40.039,-33.691,-33.691,-38.574,208.008
1687767015.337,-22.949,-30.762,-26.855,-27.344,35.156
1687767015.341,-11.230,-34.180,-20.996,-20.020,-11.719
1687767015.345,-25.879,-40.527,-36.133,-24.414,250.977
1687767015.349,-35.156,-47.852,-52.734,-40.527,222.656
1687767015.353,-28.809,-50.293,-46.387,-57.129,-129.883
1687767015.356,-20.996,-43.945,-27.344,-49.316,-47.363
1687767015.360,-5.371,-33.691,-22.461,-35.645,4.883
1687767015.364,5.371,-32.715,-29.785,-37.109,-72.266
1687767015.368,-4.395,-39.551,-38.086,-39.551,-106.445
1687767015.372,2.441,-34.180,-29.785,-42.969,-4.395
1687767015.376,18.555,-27.832,-21.973,-35.156,142.090
1687767015.380,3.906,-29.785,-28.320,-38.086,94.238
1687767015.383,-7.812,-33.691,-35.645,-45.410,-29.785
1687767015.387,-7.812,-39.551,-32.715,-42.480,108.398
1687767015.391,-13.672,-37.109,-27.832,-30.273,338.379
1687767015.395,-15.625,-41.504,-30.762,-35.156,86.426
1687767015.399,-10.254,-37.109,-28.809,-30.273,-88.867
