timestamps,TP9,AF7,AF8,TP10,Right AUX
1687767263.965,-64.453,-23.438,-53.223,41.016,-109.863
1687767263.969,-56.641,-19.531,-53.223,25.879,-99.121
1687767263.973,-47.363,-19.531,-61.035,20.020,-120.605
1687767263.977,-44.434,-23.926,-66.895,29.297,-142.090
1687767263.981,-50.781,-20.508,-56.152,49.316,-52.734
1687767263.985,-59.570,-20.508,-55.664,28.809,72.266
1687767263.989,-64.453,-22.461,-62.988,3.418,16.113
1687767263.992,-38.574,-23.438,-64.941,4.395,-107.910
1687767263.996,-52.246,-25.391,-56.641,17.578,141.113
1687767264.000,-73.730,-26.855,-55.664,36.133,169.434
1687767264.004,-61.523,-29.785,-62.500,27.832,-140.625
1687767264.008,-67.383,-27.832,-62.988,17.090,-59.082
1687767264.010,-68.359,-28.809,-57.617,29.785,-41.992
1687767264.014,-62.012,-30.762,-59.570,32.227,-105.469
1687767264.018,-45.410,-27.832,-61.035,9.766,-125.000
1687767264.022,-26.855,-25.879,-59.570,5.371,-76.660
1687767264.026,-31.738,-29.297,-62.988,33.691,101.562
1687767264.030,-47.363,-41.016,-61.523,27.344,82.031
1687767264.034,-46.875,-38.574,-58.594,18.066,11.230
1687767264.037,-48.340,-39.551,-63.965,16.113,116.699
1687767264.041,-70.801,-50.781,-63.965,8.301,268.555
1687767264.045,-73.242,-51.270,-57.617,7.812,-43.945
1687767264.049,-43.945,-47.852,-56.641,-21.973,-293.457
1687767264.053,-48.828,-48.828,-51.758,-1.465,-176.270
1687767264.055,-39.062,-52.246,-47.363,18.066,-101.562
1687767264.059,-27.832,-49.805,-48.340,2.930,-163.574
1687767264.063,-46.875,-50.293,-48.340,-1.953,-173.828
1687767264.067,-57.617,-51.758,-52.246,-15.625,-93.750
1687767264.071,-68.359,-52.734,-54.199,-10.254,-104.004
1687767264.075,-57.129,-53.223,-41.992,-14.160,-93.750
1687767264.079,-45.410,-53.223,-37.598,-35.156,-93.750
1687767264.082,-61.035,-53.711,-49.805,-27.832,146.484
1687767264.086,-46.875,-52.734,-48.828,-21.484,189.453
1687767264.090,-39.062,-56.641,-41.016,-22.949,0.977
1687767264.094,-55.664,-58.594,-40.527,-9.277,80.566
1687767264.098,-48.340,-58.105,-38.086,1.953,6.348
1687767264.100,-50.293,-62.500,-38.574,-39.551,-166.504
1687767264.104,-56.152,-64.453,-42.969,-54.688,-134.277
1687767264.108,-29.297,-64.453,-37.598,-31.250,13.672
1687767264.112,-31.738,-63.477,-37.598,-35.156,-6.836
1687767264.116,-66.895,-60.059,-50.293,-31.738,-104.492
1687767264.120,-60.547,-68.848,-58.105,-25.879,-174.316
1687767264.124,-19.043,-74.219,-56.641,-41.504,53.711
1687767264.127,-37.109,-72.266,-47.363,-31.250,209.473
1687767264.131,-42.480,-71.289,-41.504,-34.668,-125.977
1687767264.135,-17.578,-67.383,-43.945,-42.969,-159.180
1687767264.139,-37.109,-57.617,-40.039,-33.203,-70.312
1687767264.143,-43.457,-60.059,-45.410,-45.898,-79.590
1687767264.146,-21.973,-70.801,-50.781,-42.480,-21.973
1687767264.150,-18.555,-66.406,-48.340,-34.180,-80.078
1687767264.154,-38.574,-67.383,-49.805,-41.016,17.090
1687767264.158,-11.719,-69.336,-52.246,-32.715,15.625
1687767264.162,-14.648,-69.824,-51.270,-23.438,-141.602
1687767264.166,-13.672,-73.242,-49.805,-30.762,-41.504
1687767264.170,-12.207,-65.430,-50.293,-32.227,277.832
1687767264.173,2.441,-60.059,-52.246,-36.133,234.863
1687767264.177,14.160,-62.012,-58.594,-64.453,-122.070
1687767264.181,-15.625,-62.988,-50.781,-57.129,-152.344
1687767264.185,-16.602,-65.430,-51.270,-51.758,-125.000
1687767264.189,-8.301,-63.965,-60.059,-55.664,-157.715
1687767264.198,-17.578,-66.895,-54.199,-46.875,-183.594
1687767264.202,-20.996,-61.523,-49.805,-55.664,-56.152
1687767264.206,-7.812,-55.664,-52.246,-37.598,144.043
1687767264.210,3.906,-61.523,-53.711,-47.852,-11.230
1687767264.214,16.602,-59.570,-50.293,-48.340,-164.062
1687767264.218,0.488,-60.547,-50.781,-52.734,51.270
1687767264.222,-20.508,-68.359,-59.082,-70.312,411.621
1687767264.225,-27.344,-62.988,-63.965,-59.570,153.809
1687767264.229,-21.973,-61.523,-57.129,-71.777,-169.922
1687767264.233,-17.578,-65.918,-52.246,-78.613,-20.508
1687767264.237,-16.113,-62.012,-56.641,-52.734,-63.477
1687767264.241,-1.953,-53.223,-58.594,-55.176,-206.055
1687767264.236,-9.277,-49.805,-53.223,-58.594,-195.801
1687767264.240,-13.672,-53.711,-58.105,-49.316,-134.766
1687767264.244,-22.949,-54.199,-63.477,-58.594,-66.895
1687767264.248,-28.809,-50.781,-54.688,-61.523,-111.328
1687767264.252,-19.531,-56.152,-51.758,-49.316,-62.988
1687767264.256,-18.066,-61.035,-55.664,-40.527,199.707
1687767264.260,-21.484,-56.152,-55.664,-35.645,192.871
1687767264.263,-5.859,-49.805,-53.711,-43.457,-88.867
1687767264.267,-7.812,-43.945,-51.270,-45.898,-102.051
1687767264.271,-29.297,-53.711,-53.711,-36.621,70.312
1687767264.275,-32.227,-52.734,-55.664,-47.852,8.301
1687767264.279,-36.133,-47.852,-55.176,-54.199,-146.484
1687767264.295,-25.391,-55.664,-56.152,-42.969,-109.375
1687767264.299,-10.254,-56.152,-51.758,-53.223,-10.254
1687767264.303,-17.578,-46.875,-51.270,-63.477,-59.082
1687767264.307,-35.645,-43.945,-51.270,-62.988,-261.230
1687767264.311,-40.527,-46.387,-51.270,-62.012,-83.984
1687767264.315,-32.715,-43.945,-53.223,-54.688,217.285
1687767264.319,-21.973,-45.410,-48.340,-58.594,-3.418
1687767264.322,-25.879,-49.316,-43.945,-51.270,-90.332
1687767264.326,-47.363,-51.270,-41.016,-47.363,21.484
1687767264.330,-35.645,-51.270,-42.969,-59.082,125.000
1687767264.334,-29.785,-44.922,-43.457,-60.547,-54.199
1687767264.338,-43.457,-37.109,-45.898,-70.312,-153.320
1687767264.340,-46.387,-42.969,-49.805,-53.223,-105.469
1687767264.344,-34.180,-52.246,-53.223,-38.086,-96.680
1687767264.348,-42.480,-44.434,-53.711,-47.363,-107.910
1687767264.352,-50.781,-37.109,-46.875,-56.641,-86.914
1687767264.356,-46.387,-32.227,-42.969,-70.801,-33.691
1687767264.360,-73.242,-32.227,-43.457,-67.871,-28.809
1687767264.364,-66.406,-35.645,-48.828,-62.988,-22.461
1687767264.367,-67.871,-37.598,-50.293,-78.125,-122.559
1687767264.371,-79.102,-37.598,-47.363,-68.848,107.910
1687767264.375,-71.289,-40.527,-50.293,-73.242,169.434
1687767264.379,-77.148,-43.945,-46.875,-72.754,-132.812
1687767264.383,-77.148,-42.480,-36.621,-60.059,-59.570
1687767264.385,-66.406,-38.086,-37.109,-74.707,29.785
1687767264.389,-63.477,-34.668,-50.781,-67.383,-28.320
1687767264.393,-86.914,-37.109,-54.199,-71.289,-28.809
1687767264.397,-88.379,-36.621,-50.293,-59.082,32.715
1687767264.401,-68.848,-41.504,-54.688,-55.176,135.742
1687767264.405,-60.059,-42.969,-44.434,-85.449,86.426
1687767264.409,-66.406,-45.898,-44.922,-78.613,-47.363
1687767264.412,-74.707,-54.199,-62.500,-83.496,23.926
1687767264.416,-75.684,-43.945,-58.105,-75.195,109.863
1687767264.420,-81.055,-45.898,-49.805,-74.219,-80.566
1687767264.424,-69.824,-51.758,-49.316,-80.566,-198.730
1687767264.428,-53.223,-45.898,-50.781,-69.336,-25.391
1687767264.430,-73.730,-43.457,-56.152,-103.516,92.285
1687767264.434,-86.914,-47.363,-60.059,-109.375,-104.980
1687767264.438,-61.035,-48.340,-56.152,-82.520,-129.883
1687767264.442,-62.012,-44.922,-51.758,-50.293,-16.113
1687767264.446,-56.641,-45.410,-46.875,-56.152,-43.945
1687767264.450,-41.016,-35.156,-55.664,-84.473,-63.477
1687767264.454,-31.738,-31.738,-65.918,-91.309,16.113
1687767264.457,-26.367,-36.133,-46.387,-88.867,189.453
1687767264.461,-44.922,-41.504,-39.062,-67.871,145.508
1687767264.465,-43.457,-40.039,-57.129,-67.871,-104.492
1687767264.469,-43.457,-45.898,-54.688,-63.965,-54.688
1687767264.473,-56.152,-45.898,-46.875,-66.406,-26.367
1687767264.476,-62.988,-40.527,-48.828,-82.031,-91.797
1687767264.480,-61.523,-44.434,-54.199,-85.449,-133.301
1687767264.484,-76.172,-40.039,-51.270,-69.336,-20.508
1687767264.488,-77.148,-35.156,-34.180,-62.988,249.512
1687767264.492,-62.500,-40.039,-42.480,-66.406,48.828
1687767264.496,-72.266,-41.016,-67.871,-71.777,-145.996
1687767264.500,-68.359,-39.062,-60.059,-64.453,83.008
1687767264.503,-46.875,-34.180,-52.734,-42.480,175.781
1687767264.507,-29.297,-35.156,-51.758,-75.684,-95.215
1687767264.511,-37.109,-44.922,-45.898,-78.125,-142.578
1687767264.515,-55.176,-42.480,-38.574,-59.082,-49.805
1687767264.519,-54.688,-30.762,-51.270,-59.570,-74.707
1687767264.520,-65.430,-25.391,-45.898,-48.340,-135.742
1687767264.524,-64.941,-29.297,-35.645,-49.316,-160.645
1687767264.528,-49.805,-31.250,-49.316,-56.152,-105.957
1687767264.532,-43.945,-28.320,-53.223,-53.223,-84.473
1687767264.536,-47.852,-22.461,-56.152,-44.434,-31.738
1687767264.540,-49.316,-34.180,-36.133,-80.566,-36.133
1687767264.544,-62.012,-38.086,-39.062,-68.359,264.160
1687767264.547,-56.641,-34.668,-60.059,-50.781,317.383
1687767264.551,-57.129,-34.180,-53.711,-63.477,-84.473
1687767264.555,-64.941,-26.855,-65.918,-48.828,-122.070
1687767264.559,-50.781,-35.645,-65.918,-68.848,-85.938
1687767264.563,-46.387,-35.645,-64.941,-82.520,-125.488
1687767264.565,-68.359,-27.344,-46.875,-85.938,-164.551
1687767264.569,-66.895,-30.273,-28.320,-97.168,25.879
1687767264.573,-52.734,-28.809,-63.477,-67.383,127.441
1687767264.577,-51.758,-31.738,-61.523,-57.129,-92.285
1687767264.581,-27.832,-34.180,-46.875,-55.664,-164.062
1687767264.585,-18.555,-30.273,-43.457,-41.016,67.871
1687767264.589,-54.688,-20.508,-53.711,-61.523,225.098
1687767264.592,-60.059,-18.066,-62.012,-49.316,121.582
1687767264.596,-51.758,-23.438,-52.246,-14.648,-41.992
1687767264.600,-48.828,-23.438,-33.203,-46.387,2.930
1687767264.604,-43.945,-23.438,-46.875,-73.242,185.547
1687767264.608,-49.316,-24.414,-51.270,-34.180,-86.914
1687767264.611,-41.504,-22.461,-44.434,-59.082,-186.035
1687767264.615,-41.992,-20.996,-53.711,-94.727,-74.707
1687767264.619,-37.598,-24.902,-43.457,-33.691,-93.750
1687767264.623,-41.016,-19.043,-49.316,-25.879,-130.859
1687767264.627,-43.945,-13.184,-54.199,-59.570,-141.602
1687767264.631,-16.602,-25.879,-38.086,-68.848,-18.066
1687767264.635,-0.488,-24.414,-42.480,-51.758,16.602
1687767264.638,1.953,-10.742,-68.359,-21.484,-173.340
1687767264.642,-23.926,-23.926,-52.246,-33.203,-110.352
1687767264.646,-42.480,-24.414,-49.316,-43.945,281.250
1687767264.650,-24.902,-12.207,-55.176,-39.551,184.082
1687767264.654,-26.367,-29.297,-55.176,-28.809,-181.641
1687767264.670,-37.109,-36.621,-61.523,-24.414,-154.297
1687767264.674,-59.570,-10.254,-65.430,-32.715,-49.316
1687767264.678,-86.914,-8.301,-60.547,-68.359,-35.645
1687767264.682,-58.105,-27.344,-43.945,-45.410,-128.418
1687767264.686,-23.438,-23.926,-46.387,-30.273,-13.184
1687767264.690,-41.016,-20.996,-46.387,-62.012,202.148
1687767264.694,-28.809,-28.320,-58.105,-54.199,65.918
1687767264.697,-15.625,-26.367,-52.734,-60.059,-156.250
1687767264.701,-25.879,-10.254,-50.781,-71.777,11.230
1687767264.705,-21.973,-25.879,-45.410,-44.922,119.629
1687767264.709,-30.762,-20.508,-62.500,-42.480,-110.840
1687767264.713,-50.293,-9.766,-68.848,-60.059,-130.859
1687767264.715,-33.203,-29.297,-37.109,-58.594,-1.953
1687767264.719,-22.949,-29.297,-44.434,-69.824,12.207
1687767264.723,-18.066,-19.531,-52.246,-53.711,-120.605
1687767264.727,-3.906,-28.320,-9.766,-48.828,-98.145
1687767264.731,-5.859,-29.785,-28.809,-33.691,-99.121
1687767264.735,-2.441,-9.766,-64.453,-61.035,-51.270
1687767264.739,7.324,-20.020,-55.664,-67.871,1.465
1687767264.742,-14.160,-5.859,-29.785,-70.801,-110.840
1687767264.746,-36.133,-3.418,-23.926,-75.684,48.828
1687767264.750,-44.922,-16.602,-36.621,-45.898,82.520
1687767264.754,-20.020,-14.160,-47.363,-45.410,-145.996
1687767264.758,26.855,-25.879,-55.664,-47.363,-75.684
1687767264.761,16.602,-17.578,-52.246,-33.203,-13.184
1687767264.765,-16.602,-32.715,-33.691,-9.277,-90.332
1687767264.769,-15.625,-33.203,-60.547,-31.250,-83.496
1687767264.773,-12.207,-26.855,-51.758,-79.102,51.758
1687767264.777,-23.438,-17.578,-33.691,-67.871,179.199
1687767264.781,-4.395,-24.414,-64.453,-26.855,53.711
1687767264.785,10.254,-27.832,-53.711,-14.648,-52.246
1687767264.788,8.301,-43.945,-37.598,-12.207,77.148
1687767264.792,23.926,-33.203,-47.363,-5.371,145.508
1687767264.796,20.508,-18.555,-37.598,-23.438,-75.684
1687767264.800,-6.836,-36.621,-45.898,-25.879,-203.125
1687767264.804,2.441,-22.949,-74.707,-9.277,-146.973
1687767264.804,-2.930,-21.484,-67.871,-27.344,-167.480
1687767264.808,-29.297,-21.973,-65.918,-88.867,-181.152
1687767264.812,-8.789,-10.254,-74.219,-57.129,-151.367
1687767264.816,26.367,-16.113,-72.754,0.488,-86.914
1687767264.820,16.113,-19.531,-54.688,-33.691,-88.379
1687767264.824,-16.113,-1.465,-34.180,-49.805,-28.809
1687767264.828,12.695,-10.254,-72.266,-18.555,62.988
1687767264.831,28.809,-41.504,-67.871,-22.949,233.887
1687767264.835,10.742,-41.504,-27.344,-40.527,205.078
1687767264.839,18.555,-25.391,-47.363,-29.785,-134.766
1687767264.843,9.766,-30.273,-50.293,-41.504,-138.184
1687767264.847,-5.371,-33.203,-55.176,-23.926,-88.379
1687767264.850,-5.371,-20.508,-74.707,-36.621,-70.312
1687767264.854,-7.812,-26.855,-47.852,-60.547,-114.746
1687767264.858,-14.648,-28.809,-43.457,-17.090,-50.293
1687767264.862,-17.578,-21.973,-75.684,-24.414,66.406
1687767264.866,-26.367,-31.250,-60.547,-58.594,-99.609
1687767264.870,-36.621,-8.789,-54.688,-33.203,-78.125
1687767264.874,-26.855,-7.812,-49.805,-19.043,191.895
1687767264.877,-30.273,-39.551,-60.547,-35.156,430.176
1687767264.881,-59.570,-43.945,-26.367,-62.988,101.562
1687767264.885,-68.359,-38.086,-22.949,-79.590,-184.082
1687767264.889,-55.664,-27.344,-74.707,-38.086,-95.215
1687767264.893,-33.203,-30.762,-68.359,-51.270,-35.645
1687767264.896,-38.086,-20.996,-54.688,-60.059,-95.703
1687767264.900,-46.387,-20.020,-39.062,-24.414,-157.715
1687767264.904,-40.527,-11.719,-54.688,-34.668,-102.051
1687767264.908,-36.133,-21.484,-69.336,-29.297,-70.801
1687767264.912,-22.461,-25.879,-68.359,-24.414,-96.191
1687767264.916,-20.508,-23.438,-59.570,-30.273,-73.730
1687767264.920,-36.621,-28.320,-48.340,-23.926,207.520
1687767264.923,-45.410,-27.344,-45.410,-43.945,171.875
1687767264.927,-70.312,-31.250,-47.363,-51.758,-162.598
1687767264.931,-98.633,-41.504,-45.898,-45.898,-89.844
1687767264.935,-105.957,-42.480,-50.781,-49.805,-11.230
1687767264.939,-112.793,-40.527,-54.199,-54.199,-103.516
1687767264.940,-104.004,-44.922,-55.664,-72.266,-198.730
1687767264.944,-104.004,-33.691,-53.223,-57.129,-46.875
1687767264.948,-113.770,-32.715,-47.852,-36.133,182.617
1687767264.952,-119.141,-45.410,-37.598,-60.059,38.086
1687767264.956,-125.977,-49.805,-39.551,-78.613,-165.527
1687767264.960,-123.535,-44.922,-55.664,-53.711,12.695
1687767264.964,-110.840,-40.039,-59.082,-66.406,143.555
1687767264.967,-104.492,-37.598,-58.105,-88.379,-60.547
1687767264.971,-92.285,-33.203,-53.711,-64.453,-158.691
1687767264.975,-74.707,-27.344,-63.965,-79.102,1.465
1687767264.979,-45.898,-14.648,-70.312,-77.148,104.004
1687767264.983,-3.418,-16.113,-56.152,-33.203,-75.684
1687767264.988,-2.441,-31.250,-37.598,-55.176,-95.703
1687767264.992,-55.664,-43.457,-25.879,-82.031,-26.367
1687767264.996,-96.191,-51.758,-23.438,-90.820,-63.477
1687767265.000,-113.281,-59.082,-22.949,-100.098,-161.621
1687767265.004,-139.160,-65.430,-7.812,-76.660,-187.500
1687767265.008,-153.809,-69.336,0.488,-83.984,-28.320
1687767265.012,-154.785,-77.637,-0.488,-101.562,135.254
1687767265.015,-168.457,-81.543,6.836,-89.844,-9.277
1687767265.019,-187.988,-82.031,17.090,-106.445,-115.723
1687767265.023,-179.199,-87.891,16.602,-99.121,60.547
1687767265.027,-189.941,-89.355,13.672,-88.379,34.180
1687767265.031,-206.055,-96.680,19.043,-98.633,-83.984
1687767265.045,-191.406,-100.586,22.949,-76.172,-74.219
1687767265.049,-192.383,-95.703,26.367,-83.008,-16.602
1687767265.053,-191.406,-99.609,33.691,-97.656,48.828
1687767265.057,-173.340,-99.121,39.551,-88.867,-68.848
1687767265.061,-185.059,-99.121,33.691,-79.590,-49.316
1687767265.065,-196.289,-99.121,34.180,-90.332,239.258
1687767265.069,-185.547,-92.773,36.133,-91.309,58.105
1687767265.072,-161.621,-88.867,30.273,-57.617,-318.848
1687767265.076,-138.184,-85.938,24.414,-50.781,-137.207
1687767265.080,-134.766,-87.891,20.508,-49.805,-9.277
1687767265.084,-130.859,-85.449,23.438,-56.641,-201.660
1687767265.088,-125.977,-80.078,31.250,-60.059,-187.500
1687767265.091,-123.047,-76.172,24.902,-51.270,-83.008
1687767265.095,-127.441,-70.801,14.648,-45.410,-52.734
1687767265.099,-109.863,-67.383,12.207,-51.758,-127.930
1687767265.103,-86.426,-62.500,10.742,-38.086,-49.316
1687767265.107,-71.777,-53.223,15.625,-32.227,99.609
1687767265.111,-66.406,-48.340,18.066,-50.781,68.848
1687767265.115,-79.102,-56.152,12.207,-50.781,7.324
1687767265.118,-75.195,-61.035,3.906,-44.922,-43.457
1687767265.122,-81.543,-54.199,0.488,-35.645,175.293
1687767265.126,-90.820,-45.410,4.395,-33.203,187.988
1687767265.130,-82.031,-40.039,4.883,-47.363,-48.828
1687767265.134,-50.293,-45.898,-2.930,-41.016,-23.926
1687767265.147,-65.918,-47.852,-3.418,-39.551,-59.082
1687767265.151,-86.426,-45.898,0.000,-36.133,-24.414
1687767265.155,-76.172,-41.504,-7.324,-30.273,-17.578
1687767265.159,-66.406,-36.621,-9.766,-28.809,-38.086
1687767265.163,-57.617,-36.621,-12.207,-41.992,67.871
1687767265.167,-53.711,-40.527,-20.508,-47.852,23.438
1687767265.171,-66.406,-41.504,-25.391,-60.059,2.930
1687767265.174,-83.984,-36.621,-24.902,-57.617,111.816
1687767265.178,-90.820,-32.227,-24.414,-22.949,292.969
1687767265.182,-82.520,-35.156,-25.879,-31.738,124.023
1687767265.186,-55.664,-33.203,-25.879,-45.410,-68.848
1687767265.190,-65.918,-25.391,-28.320,-42.969,-36.133
1687767265.179,-71.777,-27.832,-30.273,-46.387,-86.426
1687767265.183,-57.129,-28.809,-26.855,-38.574,-144.043
1687767265.187,-55.176,-27.344,-23.926,-48.340,-79.590
1687767265.191,-60.547,-30.762,-25.879,-52.734,-47.852
1687767265.195,-68.359,-29.785,-30.762,-43.457,-135.254
1687767265.199,-73.730,-32.715,-35.645,-31.738,-113.281
1687767265.203,-64.941,-30.762,-46.387,-43.945,-85.449
1687767265.206,-62.988,-26.367,-42.969,-47.852,157.227
1687767265.210,-71.289,-24.414,-36.621,-21.973,282.715
1687767265.214,-65.918,-23.926,-37.598,-31.738,-60.059
1687767265.218,-76.172,-25.879,-37.598,-56.152,-63.965
1687767265.222,-76.172,-23.926,-45.410,-57.617,-12.695
1687767265.225,-67.383,-26.367,-49.316,-46.387,-122.559
1687767265.229,-72.754,-32.715,-45.898,-55.664,-66.406
1687767265.233,-80.078,-36.133,-44.922,-51.270,-3.418
1687767265.237,-73.730,-27.832,-44.434,-39.062,18.066
1687767265.241,-61.523,-25.879,-37.598,-46.387,-69.336
1687767265.245,-52.734,-31.250,-39.062,-35.156,-73.242
1687767265.249,-52.246,-26.855,-40.527,-23.438,110.352
1687767265.252,-47.363,-22.949,-36.133,-36.621,211.914
1687767265.256,-58.105,-24.902,-39.062,-49.805,-36.621
1687767265.260,-59.082,-27.344,-39.551,-44.922,-145.996
1687767265.264,-56.152,-38.086,-36.133,-42.480,113.770
1687767265.268,-64.941,-37.109,-41.504,-40.039,117.676
1687767265.271,-54.199,-30.273,-34.668,-38.574,-109.863
1687767265.275,-45.898,-32.715,-28.320,-33.203,-152.344
1687767265.279,-38.086,-32.227,-49.805,-41.992,-134.277
1687767265.283,-34.668,-36.621,-54.688,-55.664,-105.957
1687767265.287,-49.805,-35.156,-45.410,-60.547,-75.684
1687767265.291,-47.363,-29.297,-43.945,-52.246,-41.992
1687767265.295,-46.875,-31.250,-38.086,-31.250,163.574
1687767265.298,-49.805,-28.809,-34.180,-40.527,138.184
1687767265.302,-44.922,-28.320,-36.621,-53.223,-152.832
1687767265.306,-44.434,-31.250,-34.668,-33.691,-81.055
1687767265.310,-28.320,-22.461,-37.598,-28.320,-4.883
1687767265.314,-34.668,-14.648,-37.598,-41.992,-41.504
1687767265.316,-39.062,-24.902,-35.645,-32.715,-48.828
1687767265.320,-26.855,-34.668,-38.086,-42.480,75.195
1687767265.324,-53.711,-33.691,-39.551,-45.410,285.156
1687767265.328,-61.035,-36.133,-29.785,-37.598,71.289
1687767265.332,-47.852,-29.785,-40.527,-53.223,-201.172
1687767265.336,-43.945,-21.973,-48.340,-43.457,15.625
1687767265.340,-53.223,-35.156,-33.203,-22.949,225.098
1687767265.343,-55.176,-39.551,-41.504,-18.555,-8.789
1687767265.347,-38.574,-30.273,-41.016,-19.531,-194.824
1687767265.351,-36.621,-37.598,-42.969,-6.348,-15.137
1687767265.355,-65.430,-27.344,-41.504,-35.156,79.102
1687767265.359,-49.316,-25.391,-55.664,-43.457,-133.789
1687767265.375,-45.410,-46.875,-36.133,-10.742,-142.090
1687767265.379,-27.832,-46.387,-38.574,-20.020,-95.215
1687767265.383,-15.625,-40.527,-62.988,-51.270,-81.055
1687767265.387,-26.367,-43.945,-14.160,-49.316,-70.801
1687767265.391,-2.930,-45.898,-33.691,-34.180,-154.785
1687767265.395,-58.105,-37.109,-62.988,-48.340,142.090
1687767265.399,-78.613,-43.945,-12.207,-27.832,213.379
1687767265.402,-23.438,-46.387,-34.668,1.953,-105.957
1687767265.406,-26.367,-50.781,-21.484,-41.992,-91.797
1687767265.410,-56.152,-41.992,-12.207,-73.242,-9.277
1687767265.414,-21.973,-17.578,-79.102,-14.160,13.184
1687767265.418,14.160,-14.160,-70.312,0.488,-62.988
1687767265.420,-12.207,-15.137,-59.082,-2.930,-72.754
1687767265.424,-38.574,-48.828,-32.715,-74.219,43.457
1687767265.428,-13.184,-58.105,-45.898,-23.926,2.930
1687767265.432,-8.301,-22.461,-81.055,20.020,-154.297
1687767265.436,-16.602,-52.734,-30.762,-36.621,-99.121
1687767265.440,-22.949,-43.945,-16.602,-87.891,103.027
1687767265.444,9.766,-39.062,-80.566,-27.832,3.418
1687767265.447,16.113,-44.922,-83.984,35.645,-103.516
1687767265.451,-80.566,-50.781,25.879,-62.988,-25.391
1687767265.455,-25.879,-59.082,7.812,-41.016,166.992
1687767265.459,7.324,-27.832,-85.449,-0.488,-47.363
1687767265.463,-57.129,-15.625,-43.945,-65.430,-181.641
1687767265.464,-31.738,-37.109,-58.594,-7.324,-35.156
1687767265.468,16.602,-54.688,-65.918,42.480,-65.918
1687767265.472,-2.930,-44.434,-62.500,16.113,-113.281
1687767265.476,11.719,-39.551,-49.316,-31.250,-167.480
1687767265.480,13.672,-40.527,-49.805,-59.570,-157.227
1687767265.484,-10.742,-44.434,-54.688,-57.617,-70.312
1687767265.488,21.973,-42.969,-66.406,-64.453,-40.039
1687767265.491,-27.344,-17.578,-28.809,-79.102,-70.801
1687767265.495,-51.270,-28.320,-5.859,-52.246,172.363
1687767265.499,-26.367,-68.359,-43.457,-48.828,244.141
1687767265.503,-8.301,-36.133,-68.359,-57.129,-69.824
1687767265.507,52.734,-28.320,-74.219,-23.438,-132.324
1687767265.509,-5.859,-36.621,-73.242,-43.457,-71.777
1687767265.513,-31.738,-37.109,-60.059,-61.035,-70.312
1687767265.517,25.391,-41.016,-68.848,-47.363,-85.449
1687767265.521,30.273,-39.062,-47.852,-61.523,-24.414
1687767265.525,-20.508,-44.922,-37.109,-55.176,105.469
1687767265.529,2.441,-39.062,-70.801,-26.367,-75.195
1687767265.533,49.316,-39.062,-53.223,-85.938,-110.840
1687767265.536,-5.371,-42.480,-50.293,-80.566,93.262
1687767265.540,0.000,-34.180,-53.223,-44.922,127.930
1687767265.544,52.246,-34.180,1.465,-53.223,-62.012
1687767265.548,59.570,-41.992,-34.180,-23.438,-187.012
1687767265.552,34.180,-41.504,-60.059,-50.293,-45.898
1687767265.555,21.973,-43.457,-30.762,-81.543,-35.645
1687767265.559,25.879,-28.809,-61.035,-39.062,-172.363
1687767265.563,17.090,-27.344,-74.707,-26.367,-110.352
1687767265.567,19.531,-33.691,-77.148,-50.293,-69.824
1687767265.571,29.785,-36.621,-66.406,-66.895,-58.594
1687767265.575,4.395,-32.715,-60.059,-71.289,-39.551
1687767265.579,0.977,-23.926,-52.734,-63.477,-43.457
1687767265.582,41.504,-39.062,-44.434,-74.219,153.320
1687767265.586,18.555,-40.527,-49.316,-73.730,133.301
1687767265.590,7.324,-30.273,-44.434,-88.379,-88.379
1687767265.594,21.484,-42.969,-47.852,-62.988,-79.102
1687767265.598,18.555,-27.832,-65.430,-39.551,-37.598
1687767265.600,19.043,-23.438,-67.871,-90.820,-54.199
1687767265.604,9.277,-32.715,-48.828,-70.312,-92.285
1687767265.608,-16.602,-27.344,-24.902,-56.152,41.504
1687767265.612,-25.391,-33.203,-17.090,-49.316,229.492
1687767265.616,21.973,-21.973,-84.961,-44.922,94.238
1687767265.620,14.648,-12.695,-59.570,-66.406,-110.352
1687767265.624,-6.836,-22.949,-38.086,-65.918,56.641
1687767265.627,3.906,-39.551,-66.895,-45.410,230.957
1687767265.631,-1.953,-36.133,-62.988,-17.578,-33.203
1687767265.635,7.324,-40.039,-33.203,-49.805,-174.316
1687767265.639,-7.324,-36.621,-20.020,-88.379,-104.980
1687767265.643,14.648,-28.809,-76.660,-48.828,-54.688
1687767265.646,20.020,-36.133,-54.199,-39.062,-111.816
1687767265.650,1.465,-38.574,-42.480,-24.902,-164.062
1687767265.654,-24.902,-31.738,-53.711,-41.992,-28.320
1687767265.658,-22.461,-28.809,-43.457,-65.918,-18.555
1687767265.662,8.789,-39.551,-50.781,-50.293,-115.723
1687767265.666,-5.371,-34.180,-52.246,-55.176,-89.355
1687767265.670,-13.184,-21.973,-45.410,-78.125,221.680
1687767265.673,-0.977,-20.020,-57.617,-52.734,291.992
1687767265.677,0.000,-34.180,-25.879,-9.277,-87.891
1687767265.681,10.742,-34.668,-23.438,-28.809,-154.297
1687767265.685,-3.906,-35.156,-64.453,-38.574,-63.477
1687767265.689,-4.883,-35.156,-34.668,-54.688,-98.145
1687767265.690,3.906,-12.695,-47.852,-29.785,-144.043
1687767265.694,-1.465,-20.020,-65.430,-9.766,-27.832
1687767265.698,-17.090,-35.156,-17.090,-73.242,85.449
1687767265.702,-41.016,-31.250,-14.160,-71.777,-25.879
1687767265.706,-19.043,-25.879,-66.895,0.000,-30.762
1687767265.710,3.418,-29.785,-57.129,-5.371,116.211
1687767265.714,11.719,-23.438,-46.875,-10.742,328.125
1687767265.717,-1.953,-27.344,-47.363,-17.090,139.160
1687767265.721,-13.184,-35.156,-52.734,-27.832,-160.156
1687767265.725,-24.414,-32.715,-55.176,-23.438,-82.031
1687767265.729,-27.832,-27.344,-52.246,-29.785,-70.801
1687767265.733,-29.297,-22.949,-46.387,-26.855,-124.023
1687767265.737,-44.434,-22.949,-46.387,-36.133,-105.469
1687767265.741,-43.945,-25.879,-46.387,-36.133,-28.320
1687767265.745,-46.875,-28.809,-45.898,-42.480,-64.941
1687767265.749,-53.711,-32.715,-42.969,-45.898,-101.074
1687767265.753,-50.781,-36.133,-42.969,-40.039,-56.152
1687767265.757,-54.199,-36.133,-45.410,-40.527,6.348
1687767265.761,-58.594,-37.109,-42.969,-44.434,13.184
1687767265.764,-53.711,-38.574,-47.852,-35.156,-5.859
1687767265.768,-46.875,-41.992,-49.805,-28.809,-23.438
1687767265.772,-67.383,-41.992,-39.551,-45.410,174.805
1687767265.776,-61.035,-42.969,-40.039,-51.758,189.453
1687767265.780,-41.992,-41.504,-41.016,-52.246,-91.309
1687767265.795,-40.527,-36.621,-38.086,-61.035,-83.008
1687767265.799,-63.477,-32.227,-39.551,-47.363,26.855
1687767265.803,-68.359,-28.809,-41.016,-53.711,29.785
1687767265.807,-61.035,-32.227,-41.992,-72.754,-177.734
1687767265.811,-60.059,-33.691,-45.898,-79.102,-45.410
1687767265.815,-55.664,-36.621,-44.922,-75.684,167.480
1687767265.819,-41.992,-33.691,-35.645,-51.270,54.688
1687767265.822,-43.457,-34.180,-36.133,-52.246,-158.203
1687767265.826,-48.828,-34.180,-38.086,-54.199,-124.512
1687767265.830,-32.715,-26.855,-32.715,-35.645,110.352
1687767265.834,-41.016,-30.762,-30.273,-49.316,-80.566
1687767265.838,-50.293,-32.715,-31.250,-60.059,-168.945
1687767265.840,-35.156,-28.809,-32.715,-64.941,-92.285
1687767265.844,-37.598,-26.367,-33.691,-55.176,-80.566
1687767265.848,-38.086,-23.438,-33.203,-46.387,-137.695
1687767265.852,-22.949,-20.020,-37.109,-51.270,-121.582
1687767265.856,-9.766,-20.020,-33.203,-49.805,-75.195
1687767265.860,-41.992,-30.273,-20.508,-63.965,-14.648
1687767265.864,-74.219,-33.203,-18.066,-74.219,-8.789
1687767265.867,-64.941,-34.668,-16.602,-69.336,-156.250
1687767265.871,-85.938,-39.551,-10.254,-74.219,56.641
1687767265.875,-85.449,-39.551,-15.625,-74.219,132.324
1687767265.879,-71.289,-37.109,-16.602,-79.102,-168.945
1687767265.883,-91.797,-36.133,-6.348,-74.219,-62.988
1687767265.886,-95.703,-32.715,-4.395,-68.359,35.156
1687767265.890,-84.473,-26.855,-7.812,-67.871,-43.457
1687767265.894,-75.684,-27.832,-13.184,-66.406,-51.270
1687767265.898,-77.148,-29.297,-18.066,-61.035,-50.781
1687767265.902,-73.730,-28.809,-14.648,-61.523,83.008
1687767265.906,-64.453,-29.785,-11.719,-60.547,27.344
1687767265.910,-65.430,-31.738,-14.648,-49.316,-37.598
1687767265.913,-64.453,-32.227,-19.531,-58.105,125.488
1687767265.917,-69.824,-23.438,-23.926,-49.316,228.516
1687767265.921,-75.684,-20.996,-25.879,-47.852,8.789
1687767265.925,-55.176,-30.762,-31.250,-60.059,-141.602
1687767265.929,-45.410,-28.320,-33.203,-61.523,-115.234
1687767265.932,-68.848,-21.973,-32.227,-60.059,-121.582
1687767265.936,-77.637,-24.414,-31.250,-53.711,-114.258
1687767265.940,-59.082,-19.043,-31.250,-59.570,-58.594
1687767265.944,-43.457,-15.137,-36.133,-60.547,19.531
1687767265.948,-57.617,-15.137,-34.668,-36.133,-37.598
1687767265.952,-57.129,-19.531,-31.250,-36.133,-121.094
1687767265.956,-58.594,-21.484,-34.668,-40.039,-36.133
1687767265.959,-75.195,-23.438,-38.086,-20.508,170.898
1687767265.963,-69.824,-26.367,-38.574,-22.461,154.785
1687767265.967,-65.918,-29.785,-40.039,-39.551,-98.633
1687767265.971,-88.867,-25.879,-40.039,-47.852,-71.289
1687767265.975,-86.426,-21.973,-38.574,-42.480,-20.996
1687767265.976,-77.637,-22.461,-36.133,-30.273,-54.688
1687767265.980,-94.727,-23.926,-36.133,-42.480,-76.660
1687767265.984,-103.516,-25.879,-41.016,-50.293,38.574
1687767265.988,-90.332,-26.855,-43.457,-41.504,125.000
1687767265.992,-79.102,-24.902,-41.016,-51.270,62.988
1687767265.996,-83.008,-23.926,-39.062,-43.945,18.066
1687767266.000,-80.078,-21.973,-40.527,-25.879,88.379
1687767266.003,-81.543,-22.949,-43.457,-27.344,251.953
1687767266.007,-67.871,-26.367,-42.480,-31.738,55.176
1687767266.011,-56.641,-23.438,-38.086,-25.879,-166.504
1687767266.015,-50.293,-18.066,-36.621,-14.648,-98.633
1687767266.019,-50.293,-18.555,-37.109,-20.508,-69.336
1687767266.021,-71.289,-23.926,-31.738,-31.250,-122.559
1687767266.025,-65.918,-23.438,-30.273,-22.949,-81.543
1687767266.029,-46.875,-23.926,-34.180,-26.855,-52.246
1687767266.033,-46.387,-27.344,-37.109,-33.203,-138.184
1687767266.037,-60.547,-26.855,-41.504,-20.996,-231.445
1687767266.041,-74.219,-23.438,-41.992,-13.672,-123.047
1687767266.045,-86.914,-21.484,-40.527,-15.625,155.273
1687767266.048,-77.148,-21.484,-38.574,-36.621,163.086
1687767266.052,-92.773,-21.484,-40.039,-41.992,-47.363
1687767266.056,-83.984,-20.508,-38.574,-44.922,-143.066
1687767266.060,-11.719,-16.602,-38.086,-29.785,-77.637
1687767266.064,-25.391,-17.578,-40.039,-24.414,-102.539
1687767266.065,-72.754,-20.996,-42.480,-47.852,-241.211
1687767266.069,-64.941,-22.461,-42.969,-37.598,-45.410
1687767266.073,0.488,-22.461,-41.504,-30.762,134.766
1687767266.077,7.812,-19.531,-35.645,-20.996,-63.477
1687767266.081,-25.879,-21.484,-40.039,-6.348,-200.684
1687767266.085,-30.762,-26.367,-40.039,10.742,-30.762
1687767266.089,-47.852,-26.855,-36.133,23.926,242.676
1687767266.092,-58.105,-27.832,-40.527,-1.953,-11.230
1687767266.096,-38.086,-27.832,-41.504,-36.621,-220.215
1687767266.100,-42.480,-34.668,-41.992,-5.859,-0.977
1687767266.104,-63.477,-38.574,-41.504,3.906,111.328
1687767266.108,-53.223,-32.715,-36.133,-18.555,-138.672
1687767266.111,-44.922,-34.180,-36.133,-7.324,-205.566
1687767266.115,-47.852,-34.180,-41.992,-9.766,-141.113
1687767266.119,-34.668,-26.855,-44.434,-17.578,-71.289
1687767266.123,-19.531,-23.438,-41.992,-27.832,-71.289
1687767266.127,-14.160,-25.879,-44.434,-27.832,-106.445
1687767266.131,-14.160,-30.762,-52.734,-16.602,-17.578
1687767266.135,-18.066,-29.297,-53.711,-21.484,39.062
1687767266.138,-35.645,-27.344,-47.363,-49.316,-30.762
1687767266.142,-27.344,-27.832,-44.434,-40.039,-73.730
1687767266.146,-1.465,-22.949,-44.922,-21.973,120.117
1687767266.150,-8.301,-21.973,-43.945,-11.230,113.281
1687767266.154,-9.277,-24.414,-44.434,-25.879,-79.590
1687767266.170,-18.555,-24.414,-40.527,-36.133,-90.332
1687767266.174,-8.789,-22.949,-40.039,-20.508,52.246
1687767266.178,0.977,-23.438,-42.969,-28.320,2.441
1687767266.182,-6.836,-24.902,-43.457,-41.016,-179.199
1687767266.186,-1.465,-24.414,-41.016,-37.598,-23.926
1687767266.190,-20.508,-26.367,-38.086,-32.227,272.461
1687767266.194,-24.414,-30.273,-34.668,-40.527,137.207
1687767266.197,-9.277,-25.879,-37.109,-49.316,-83.496
1687767266.201,-17.090,-26.855,-44.434,-40.527,22.949
1687767266.205,-17.578,-28.809,-42.480,-60.059,182.617
1687767266.209,-8.789,-28.320,-38.574,-68.848,-108.398
1687767266.213,-19.531,-32.227,-34.668,-55.664,-277.832
1687767266.216,-41.504,-33.691,-31.738,-75.195,-122.070
1687767266.220,-32.227,-31.250,-34.180,-87.891,-61.523
1687767266.224,-14.648,-26.855,-37.598,-82.031,-160.156
1687767266.228,-32.715,-32.227,-39.551,-66.895,-143.066
1687767266.232,-31.738,-27.832,-39.062,-64.453,-9.766
1687767266.236,-23.926,-22.949,-35.156,-83.008,19.043
1687767266.240,-24.902,-35.156,-40.527,-84.473,16.113
1687767266.243,-35.156,-37.109,-43.945,-86.426,-55.176
1687767266.247,-47.363,-31.250,-41.016,-86.426,122.559
1687767266.251,-40.527,-29.297,-43.457,-81.055,157.715
1687767266.255,-39.062,-25.879,-44.434,-86.914,-156.250
1687767266.259,-37.109,-23.926,-48.340,-82.520,-61.035
1687767266.260,-36.133,-28.809,-52.246,-75.684,-72.754
1687767266.264,-43.457,-26.367,-50.293,-78.125,-79.590
1687767266.268,-38.086,-28.320,-44.434,-88.867,-67.871
1687767266.272,-52.246,-39.551,-46.387,-83.496,25.391
1687767266.276,-68.359,-48.828,-55.176,-86.426,279.785
1687767266.280,-66.406,-49.316,-52.734,-99.121,91.797
1687767266.284,-39.062,-36.621,-48.828,-104.492,-59.570
1687767266.287,-37.109,-31.738,-51.758,-92.773,39.062
1687767266.291,-60.547,-32.227,-51.270,-80.566,113.281
1687767266.295,-45.410,-27.832,-49.316,-86.426,-65.430
1687767266.299,-39.551,-29.785,-47.363,-99.121,-144.043
1687767266.303,-45.410,-36.621,-46.387,-107.422,-111.328
1687767266.305,-52.246,-38.086,-52.246,-108.398,-123.535
1687767266.309,-50.781,-41.016,-56.641,-102.539,-176.270
1687767266.313,-61.523,-44.434,-52.734,-90.820,-151.367
1687767266.317,-106.934,-39.551,-45.898,-96.191,-57.129
1687767266.321,-97.168,-39.551,-46.387,-71.289,-57.617
1687767266.325,-88.379,-42.480,-45.898,-70.801,-49.805
1687767266.329,-91.797,-40.527,-45.410,-99.609,-26.367
1687767266.332,-68.359,-38.574,-45.410,-61.035,272.949
1687767266.336,-77.148,-41.992,-43.945,-60.059,264.160
1687767266.340,-97.168,-44.922,-41.992,-86.914,-126.953
1687767266.344,-77.148,-42.969,-41.016,-75.195,-113.770
1687767266.348,-63.965,-46.875,-39.551,-68.359,-53.223
1687767266.351,-64.453,-46.387,-41.504,-86.914,-79.590
1687767266.355,-59.082,-42.969,-42.480,-96.191,-116.211
1687767266.359,-66.406,-45.898,-42.969,-100.098,-31.250
1687767266.363,-78.613,-46.875,-46.387,-96.191,52.246
1687767266.367,-63.477,-41.016,-42.969,-99.609,-94.727
1687767266.371,-45.410,-38.086,-41.504,-99.121,-133.301
1687767266.375,-56.641,-39.551,-48.828,-102.051,66.406
1687767266.378,-65.430,-44.434,-52.246,-104.980,191.406
1687767266.382,-51.270,-43.945,-48.828,-104.492,52.734
1687767266.386,-49.805,-41.016,-47.363,-105.469,-123.535
1687767266.390,-50.293,-43.457,-45.898,-95.215,-19.531
1687767266.394,-46.875,-45.898,-41.504,-87.891,30.273
1687767266.396,-27.832,-42.480,-37.598,-83.984,-171.387
1687767266.400,-46.875,-35.645,-37.598,-101.562,-171.875
1687767266.404,-59.082,-34.180,-38.574,-110.840,-99.609
1687767266.408,-32.715,-38.086,-41.016,-87.402,-79.102
1687767266.412,-28.320,-39.551,-39.551,-93.750,-85.449
1687767266.416,-18.555,-38.574,-38.086,-98.145,-55.664
1687767266.420,-15.625,-40.039,-39.551,-90.332,213.379
1687767266.423,-32.715,-37.598,-42.480,-106.934,193.848
1687767266.427,-45.898,-36.133,-47.363,-105.957,-105.957
1687767266.431,-38.574,-33.691,-42.480,-89.844,-131.348
1687767266.435,-30.273,-29.785,-39.062,-91.797,-102.051
1687767266.439,-34.180,-29.785,-35.645,-89.844,-74.707
1687767266.440,-40.527,-34.180,-38.086,-98.145,-180.176
1687767266.444,-18.066,-36.133,-43.945,-95.215,-96.680
1687767266.448,-28.809,-34.180,-41.016,-55.176,229.980
1687767266.452,-27.344,-30.273,-39.551,-62.988,67.383
1687767266.456,-24.414,-33.203,-38.086,-70.312,-192.871
1687767266.460,-33.691,-46.875,-35.645,-59.570,-13.672
1687767266.464,-32.715,-39.551,-38.086,-49.316,235.352
1687767266.467,-51.758,-28.320,-45.898,-59.570,80.566
1687767266.471,-23.926,-22.949,-53.711,-92.773,-118.652
1687767266.475,-12.695,-20.996,-53.223,-72.754,19.531
1687767266.479,-15.625,-30.762,-46.875,-73.242,53.223
1687767266.483,-24.414,-33.203,-49.316,-87.891,-93.262
1687767266.489,-38.574,-27.344,-50.293,-57.617,-104.492
1687767266.493,-35.156,-21.973,-51.270,-61.035,12.695
1687767266.497,-25.391,-24.902,-47.852,-72.754,-25.879
1687767266.501,-27.344,-25.391,-49.316,-65.918,-160.156
1687767266.505,-29.297,-25.879,-56.641,-65.430,-104.004
1687767266.509,-26.855,-28.809,-51.270,-52.734,25.391
1687767266.513,-26.855,-30.762,-51.270,-45.410,69.336
1687767266.516,-19.043,-29.297,-48.340,-59.082,-49.805
1687767266.520,-18.555,-20.508,-37.598,-55.664,-95.215
1687767266.524,-17.090,-23.438,-38.086,-48.340,112.793
1687767266.528,-16.113,-28.809,-43.945,-43.457,95.703
1687767266.532,-14.160,-28.320,-43.457,-46.387,-103.027
1687767266.545,1.465,-30.273,-46.387,-61.035,-43.945
1687767266.549,-2.930,-30.762,-47.852,-57.617,21.484
1687767266.553,-20.996,-22.949,-44.434,-51.270,-44.434
1687767266.557,-38.086,-18.066,-46.387,-46.387,-14.648
1687767266.561,-3.418,-22.461,-46.387,-41.992,55.664
1687767266.565,12.207,-25.879,-39.551,-45.410,396.484
1687767266.569,10.742,-22.949,-38.086,-39.062,394.043
1687767266.572,30.762,-17.090,-30.273,-32.227,-95.703
1687767266.576,22.461,-13.184,-22.949,-32.227,-48.828
1687767266.580,0.488,-17.090,-36.133,-42.969,29.297
1687767266.584,-14.160,-17.090,-42.969,-45.898,-187.012
1687767266.588,-8.789,-22.949,-38.086,-56.152,-201.660
1687767266.591,-0.488,-30.762,-36.621,-63.965,-120.605
1687767266.595,13.672,-27.344,-37.598,-41.992,-141.602
1687767266.599,-4.395,-29.785,-40.527,-33.691,-170.410
1687767266.603,-8.301,-30.273,-41.016,-47.852,-93.262
1687767266.607,12.207,-25.879,-41.504,-60.547,-33.691
1687767266.611,-6.348,-26.855,-39.551,-70.312,-60.059
1687767266.615,-15.625,-31.250,-36.133,-53.711,-35.645
1687767266.618,24.414,-16.602,-48.340,-43.945,16.113
1687767266.622,34.668,-1.953,-60.059,-70.801,126.465
1687767266.626,40.527,-0.488,-56.641,-83.496,141.113
1687767266.630,42.480,3.418,-61.035,-95.703,-146.973
1687767266.634,0.000,2.930,-68.359,-100.098,-136.230
1687767266.635,-13.672,3.418,-74.707,-80.566,-67.383
1687767266.639,-4.883,7.324,-80.078,-85.938,-63.477
1687767266.643,-16.602,12.207,-75.684,-89.355,-78.613
1687767266.647,-14.160,9.766,-79.102,-83.008,-74.707
1687767266.651,-0.488,-6.348,-89.844,-62.988,96.680
1687767266.655,2.930,-2.441,-91.309,-73.730,99.609
1687767266.659,-8.301,12.207,-87.891,-100.098,13.184
1687767266.662,-9.277,15.625,-91.797,-93.750,52.734
1687767266.666,0.488,24.414,-100.586,-91.309,325.684
1687767266.670,9.277,23.438,-99.609,-84.961,107.910
1687767266.674,-1.465,29.785,-88.867,-75.195,-145.996
1687767266.678,0.977,48.340,-86.914,-87.402,-31.250
1687767266.681,10.254,48.828,-98.145,-88.867,-8.301
1687767266.685,-5.859,38.086,-100.586,-87.891,-69.336
1687767266.689,-3.418,31.738,-94.727,-90.820,-142.578
1687767266.693,3.418,39.062,-100.586,-91.797,-65.430
1687767266.697,-3.906,44.922,-107.422,-99.121,18.555
1687767266.701,1.465,43.457,-107.422,-83.984,9.277
1687767266.705,-3.906,45.410,-106.445,-93.262,-23.926
1687767266.708,-24.414,43.457,-106.445,-102.539,230.957
1687767266.712,-15.137,43.945,-107.422,-94.727,187.012
1687767266.716,-4.883,49.316,-104.980,-97.656,-128.418
1687767266.720,-1.465,58.594,-103.027,-103.516,-46.875
1687767266.724,-12.695,68.848,-108.398,-99.609,46.387
1687767266.725,-31.250,74.219,-114.258,-97.168,-119.629
1687767266.729,-17.578,71.289,-106.934,-94.727,-150.391
1687767266.733,-9.766,58.594,-111.816,-97.656,24.414
1687767266.737,-23.926,58.594,-118.164,-117.188,46.875
1687767266.741,-2.930,51.270,-107.422,-101.562,-83.008
1687767266.745,-3.906,51.758,-105.957,-94.727,-94.238
1687767266.749,-5.371,52.734,-104.980,-85.449,104.492
1687767266.752,6.348,52.734,-97.656,-75.195,174.805
1687767266.756,-15.625,53.223,-86.426,-86.426,-102.539
1687767266.760,-15.137,49.316,-70.801,-68.359,-259.766
1687767266.764,-15.625,40.039,-76.172,-53.223,-136.719
1687767266.768,-9.766,21.973,-77.637,-62.012,-32.715
1687767266.771,-5.371,7.812,-69.824,-64.941,-53.223
1687767266.775,-21.484,-0.977,-68.848,-51.270,-65.430
1687767266.779,0.977,-4.395,-68.848,-33.203,52.734
1687767266.783,16.602,-5.859,-66.406,-19.043,39.062
1687767266.787,5.859,-9.277,-59.082,-21.973,-104.492
1687767266.791,8.789,-7.812,-55.664,-17.090,-83.008
1687767266.795,16.113,-8.301,-55.176,-24.902,197.266
1687767266.798,10.742,-13.672,-53.711,-32.715,210.449
1687767266.802,5.859,-21.973,-53.711,-26.855,-145.020
1687767266.806,0.977,-30.762,-58.594,-31.250,-145.020
1687767266.810,-3.418,-34.668,-60.547,-41.016,-76.660
1687767266.814,-10.254,-38.086,-54.688,-63.965,-47.363
1687767266.831,-0.977,-40.039,-52.246,-47.852,-119.141
1687767266.835,9.277,-40.039,-56.152,-23.438,-48.340
1687767266.839,8.301,-45.410,-56.641,-41.992,184.570
1687767266.843,-4.395,-49.316,-53.711,-32.227,30.273
1687767266.847,-5.859,-51.270,-53.711,-33.691,-223.633
1687767266.851,0.488,-51.758,-52.734,-40.527,-59.570
1687767266.855,-4.395,-53.223,-51.270,-22.949,313.477
1687767266.858,-13.672,-57.617,-54.199,-24.902,92.773
1687767266.862,-18.066,-59.082,-60.547,-41.504,-170.410
1687767266.866,-6.348,-62.012,-60.547,-55.664,-97.656
1687767266.870,-27.832,-64.941,-54.688,-46.387,-124.023
1687767266.874,-31.250,-65.430,-53.223,-31.738,-188.965
1687767266.862,-15.625,-61.523,-57.617,-37.109,-210.938
1687767266.866,-26.367,-66.895,-55.664,-38.574,-193.848
1687767266.870,-31.738,-73.242,-46.387,-36.133,-94.727
1687767266.874,-20.996,-69.336,-41.992,-32.715,-32.227
1687767266.878,-37.598,-63.477,-43.945,-45.898,-89.844
1687767266.882,-35.645,-65.430,-53.223,-62.012,-41.504
1687767266.886,-25.391,-73.242,-57.617,-38.086,20.020
1687767266.889,-33.203,-78.613,-48.828,-26.855,-26.855
1687767266.893,-41.504,-77.148,-48.828,-32.715,-100.586
1687767266.897,-62.988,-70.801,-51.270,-18.555,98.145
1687767266.901,-59.570,-66.895,-50.293,-19.531,161.621
1687767266.905,-53.711,-68.359,-46.875,-36.133,-156.250
1687767266.920,-43.457,-69.336,-50.781,-46.875,-140.137
1687767266.924,-21.484,-68.359,-53.223,-61.523,3.906
1687767266.928,-20.020,-59.570,-46.387,-38.086,-16.602
1687767266.932,-30.762,-57.129,-47.363,-16.113,-107.422
1687767266.936,-42.969,-59.570,-52.246,-38.574,4.395
1687767266.940,-42.969,-55.664,-52.246,-30.762,186.035
1687767266.944,-38.086,-62.012,-45.410,-23.926,30.762
1687767266.947,-41.992,-65.918,-41.504,-51.270,-118.164
1687767266.951,-50.781,-62.988,-50.781,-57.617,24.902
1687767266.955,-54.199,-62.988,-57.129,-36.621,199.707
1687767266.959,-59.082,-61.035,-53.711,-21.973,-8.789
1687767266.963,-56.641,-58.594,-55.664,-41.016,-165.039
1687767266.966,-50.781,-50.293,-46.875,-51.270,-110.352
1687767266.970,-69.824,-53.711,-44.922,-37.109,-87.402
1687767266.974,-75.195,-65.918,-53.711,-29.297,-83.984
1687767266.978,-83.496,-61.523,-43.945,-32.715,-90.820
1687767266.982,-86.426,-57.129,-44.922,-61.523,-104.980
1687767266.986,-93.262,-66.895,-54.199,-75.195,-46.387
1687767266.990,-99.609,-66.895,-53.711,-63.965,-42.969
1687767266.993,-79.102,-62.012,-52.734,-65.918,-198.242
1687767266.997,-64.941,-70.312,-50.781,-53.711,52.734
1687767267.001,-66.895,-77.148,-49.805,-46.875,182.617
1687767267.005,-67.871,-63.965,-52.734,-56.152,-125.488
1687767267.009,-78.125,-43.457,-50.293,-59.082,-111.816
1687767267.011,-60.547,-48.340,-46.875,-43.945,8.789
1687767267.015,-53.223,-50.781,-46.387,-32.227,-16.602
1687767267.019,-74.707,-46.875,-44.922,-57.617,-57.617
1687767267.023,-74.707,-51.270,-46.387,-58.105,-7.324
1687767267.027,-76.172,-53.223,-44.434,-55.664,143.555
1687767267.031,-78.613,-46.387,-41.992,-42.969,62.500
1687767267.035,-76.172,-53.223,-41.016,-37.598,-50.293
1687767267.038,-70.312,-57.617,-43.945,-38.574,98.145
1687767267.042,-55.664,-55.176,-48.828,-58.594,146.973
1687767267.046,-63.477,-56.152,-45.898,-64.941,-127.441
1687767267.050,-52.246,-51.270,-42.480,-30.762,-231.445
1687767267.054,-37.109,-51.270,-42.480,-48.828,-172.363
1687767267.056,-48.340,-46.875,-45.410,-69.336,-65.918
1687767267.060,-88.867,-52.246,-49.316,-61.523,-60.059
1687767267.064,-48.340,-60.547,-40.527,-48.828,-122.559
1687767267.068,-40.527,-60.059,-44.434,-55.664,-38.086
1687767267.072,-71.289,-53.711,-56.641,-62.012,-28.809
1687767267.076,-20.996,-50.781,-53.223,-67.383,-92.773
1687767267.080,-16.602,-49.316,-50.293,-67.383,-36.133
1687767267.083,-14.160,-39.062,-57.617,-75.195,228.516
1687767267.087,-46.875,-42.480,-59.082,-70.801,220.215
1687767267.091,-48.828,-54.199,-53.711,-36.133,-98.145
1687767267.095,-20.996,-59.570,-47.852,-28.320,-106.934
1687767267.099,-51.270,-59.082,-44.434,-38.086,54.199
1687767267.101,-37.109,-53.711,-58.594,-57.617,-11.230
1687767267.105,-21.973,-50.781,-64.941,-62.012,-73.242
1687767267.109,-12.207,-47.363,-63.965,-49.316,79.102
1687767267.113,19.043,-44.434,-66.895,-44.434,264.160
1687767267.117,-60.059,-55.664,-63.965,-44.922,83.984
1687767267.121,-69.824,-56.152,-59.570,-47.852,-53.711
1687767267.125,-18.066,-34.668,-57.617,-53.711,151.367
1687767267.128,-62.988,-60.059,-55.664,-35.645,242.676
1687767267.132,-32.227,-78.125,-55.664,-43.457,-12.695
1687767267.136,5.859,-42.480,-63.477,-70.312,-191.895
1687767267.140,-10.742,-38.086,-65.430,-53.711,-145.508
1687767267.144,-46.387,-62.500,-61.035,-70.801,-43.945
1687767267.145,1.953,-50.781,-56.641,-66.406,-77.148
1687767267.149,54.199,-52.734,-56.641,-61.035,-127.930
1687767267.153,32.715,-58.594,-61.523,-71.777,-119.629
1687767267.157,-32.715,-51.758,-66.406,-53.711,-107.422
1687767267.161,-44.434,-35.645,-66.895,-47.363,-69.336
1687767267.165,2.930,-41.016,-62.500,-40.527,0.000
1687767267.169,23.438,-61.523,-60.547,-33.691,260.742
1687767267.172,-6.836,-49.805,-58.594,-39.551,284.668
1687767267.176,-11.230,-57.129,-54.199,-47.852,-96.191
1687767267.180,43.945,-60.059,-55.176,-54.199,-221.680
1687767267.184,12.695,-41.016,-54.199,-52.246,-158.691
1687767267.188,-19.043,-29.297,-50.293,-62.012,-103.027
1687767267.190,21.484,-46.875,-50.781,-52.734,-147.949
1687767267.194,32.227,-35.156,-51.758,-40.039,-42.480
1687767267.198,16.602,-35.645,-46.387,-47.363,123.047
1687767267.202,-15.137,-38.574,-44.922,-50.293,-11.719
1687767267.206,1.465,-29.785,-49.805,-35.156,-135.742
1687767267.210,30.762,-29.297,-55.664,-58.594,23.438
1687767267.214,38.086,-26.855,-59.082,-59.570,178.223
1687767267.217,36.133,-20.508,-62.988,-68.848,29.297
1687767267.221,16.113,-24.902,-64.453,-73.242,-176.758
1687767267.225,26.367,-17.578,-61.035,-59.570,-38.574
1687767267.229,26.855,-22.949,-59.570,-64.941,140.625
1687767267.233,31.738,-35.156,-61.523,-74.707,-109.375
1687767267.236,29.785,-34.668,-57.129,-84.473,-151.367
1687767267.240,14.160,-37.598,-57.129,-90.820,-89.844
1687767267.244,-9.766,-41.016,-58.105,-101.562,-95.215
1687767267.248,-2.441,-41.992,-55.176,-81.055,-125.977
1687767267.252,20.020,-39.551,-57.617,-69.824,-131.348
1687767267.256,19.531,-32.715,-60.059,-78.125,27.344
1687767267.260,18.066,-43.945,-56.152,-77.148,71.777
1687767267.263,22.461,-49.316,-49.316,-61.523,-89.844
1687767267.267,7.324,-43.457,-55.176,-65.430,-136.230
1687767267.271,-1.953,-42.480,-57.617,-48.340,234.863
1687767267.275,9.766,-38.086,-49.805,-34.668,253.418
1687767267.279,18.066,-28.320,-50.781,-48.828,-104.004
1687767267.295,9.277,-31.250,-47.363,-46.387,-92.773
1687767267.299,0.488,-41.016,-43.457,-23.438,-80.078
1687767267.303,10.254,-37.109,-46.875,-25.879,-83.008
1687767267.307,17.090,-27.832,-45.898,-54.688,-161.133
1687767267.311,21.973,-32.715,-41.504,-61.523,-175.293
1687767267.315,24.902,-41.016,-43.457,-40.527,127.441
1687767267.319,16.113,-39.062,-45.898,-38.086,137.695
1687767267.322,-8.789,-34.180,-42.969,-54.688,-149.414
1687767267.326,-17.578,-30.273,-45.898,-64.453,-70.312
1687767267.330,-18.555,-28.809,-53.223,-74.219,67.871
1687767267.334,-5.371,-22.461,-42.969,-54.199,-104.004
1687767267.338,1.465,-20.996,-40.527,-56.641,-135.742
1687767267.340,-30.762,-32.715,-51.270,-59.570,2.930
1687767267.344,-45.410,-34.180,-52.246,-55.664,-11.719
1687767267.348,-26.367,-29.785,-49.316,-47.852,-154.785
1687767267.352,-26.367,-31.738,-46.387,-41.016,-131.836
1687767267.356,-41.992,-31.738,-44.434,-57.617,-125.977
1687767267.360,-41.016,-37.109,-42.480,-47.852,-73.730
1687767267.364,-29.785,-34.668,-39.551,-47.363,21.973
1687767267.367,-40.527,-25.879,-38.574,-61.523,-106.445
1687767267.371,-65.430,-33.691,-33.691,-55.176,94.727
1687767267.375,-68.359,-36.133,-38.574,-55.176,171.387
1687767267.379,-71.777,-30.762,-46.387,-58.105,-179.199
1687767267.383,-63.965,-25.391,-41.992,-49.316,-104.004
1687767267.386,-51.758,-33.691,-32.715,-63.477,-2.441
1687767267.390,-61.035,-36.133,-29.297,-65.430,-119.141
1687767267.394,-59.570,-23.438,-31.250,-46.875,-90.332
1687767267.398,-47.852,-22.949,-30.762,-68.359,73.730
1687767267.402,-60.547,-26.855,-35.645,-69.824,252.441
1687767267.406,-76.172,-26.855,-34.180,-61.523,158.691
1687767267.410,-77.637,-25.879,-30.762,-57.617,-1.465
1687767267.413,-80.566,-27.832,-38.086,-63.965,75.195
1687767267.417,-90.820,-23.926,-33.203,-91.797,173.828
1687767267.421,-79.590,-22.461,-43.945,-98.145,-30.273
1687767267.425,-85.449,-32.715,-43.945,-72.266,-150.879
1687767267.429,-97.168,-32.227,-39.062,-54.199,-116.699
1687767267.430,-96.680,-31.738,-41.504,-41.504,-115.723
1687767267.434,-104.980,-32.715,-36.133,-26.855,-94.727
1687767267.438,-112.793,-26.855,-41.504,-25.391,-60.547
1687767267.442,-113.770,-28.809,-37.598,-38.574,-95.215
1687767267.446,-102.051,-31.738,-34.668,-41.992,-12.207
1687767267.450,-96.680,-32.715,-35.156,-22.949,55.176
1687767267.454,-107.422,-30.273,-35.156,-3.418,-32.715
1687767267.457,-102.539,-35.156,-40.527,6.348,163.086
1687767267.461,-89.844,-36.621,-41.016,-4.883,244.629
1687767267.465,-110.352,-34.668,-37.598,-30.762,-61.523
1687767267.469,-104.980,-26.855,-43.457,-42.480,-109.863
1687767267.473,-120.117,-23.926,-41.992,-36.621,-81.543
1687767267.474,-135.254,-30.273,-41.016,-34.668,-153.809
1687767267.478,-115.723,-39.551,-36.621,-34.668,-34.180
1687767267.482,-110.352,-42.480,-35.156,-38.574,83.984
1687767267.486,-103.027,-34.180,-40.527,-42.480,97.656
1687767267.490,-99.609,-33.691,-36.621,-54.199,11.230
1687767267.494,-99.609,-29.785,-39.062,-53.711,-60.059
1687767267.498,-74.707,-26.367,-28.809,-24.902,81.543
1687767267.501,-70.312,-37.598,-29.297,-13.184,391.113
1687767267.505,-85.938,-35.156,-31.738,-28.320,83.008
1687767267.509,-68.359,-26.855,-22.949,-52.246,-214.355
1687767267.513,-61.035,-34.668,-27.832,-16.113,-45.410
1687767267.517,-51.758,-44.434,-30.273,-16.602,-53.711
1687767267.520,-42.480,-43.945,-29.297,-43.457,-135.254
1687767267.524,-20.508,-41.016,-35.156,-36.133,-152.344
1687767267.528,-17.578,-44.434,-27.832,-43.945,-122.559
1687767267.532,-35.156,-48.340,-27.832,-58.594,-83.496
1687767267.536,-36.621,-51.758,-37.598,-41.992,-127.441
1687767267.540,-27.832,-52.246,-29.297,-19.531,-143.555
1687767267.544,-24.902,-52.734,-25.391,-13.672,122.559
1687767267.547,-19.043,-54.688,-28.320,-21.973,155.762
1687767267.551,-20.020,-50.293,-21.484,-29.785,-90.820
1687767267.555,-7.324,-41.504,-23.926,-44.922,-48.828
1687767267.559,-14.648,-35.645,-37.109,-65.918,30.762
1687767267.563,-63.965,-52.734,-30.273,-47.852,-36.133
1687767267.565,-47.852,-54.199,-39.062,-45.898,-160.156
1687767267.569,-8.789,-44.922,-48.340,-66.895,14.160
1687767267.573,-28.809,-42.969,-45.410,-61.035,220.215
1687767267.577,-76.172,-45.898,-46.387,-66.895,-24.414
1687767267.581,-50.293,-50.781,-41.016,-52.246,-243.652
1687767267.585,-28.320,-39.551,-41.992,-44.434,-30.762
1687767267.589,-57.129,-41.992,-45.410,-58.594,161.133
1687767267.592,-54.199,-43.457,-32.715,-40.527,-96.191
1687767267.596,-38.086,-48.340,-32.715,-62.500,-218.750
1687767267.600,-24.902,-62.012,-48.340,-64.453,-1.953
1687767267.604,5.859,-54.199,-49.805,-39.062,74.707
1687767267.608,-22.461,-52.734,-44.434,-20.508,-46.875
1687767267.613,-16.602,-60.059,-39.551,-38.574,-104.004
1687767267.617,-6.836,-56.641,-41.992,-60.059,-14.648
1687767267.621,-4.395,-56.641,-38.086,-45.898,46.875
1687767267.625,-2.441,-57.129,-33.203,-45.898,-121.094
1687767267.629,-7.324,-56.152,-42.480,-38.086,-216.309
1687767267.633,6.836,-50.781,-40.039,-29.297,-70.801
1687767267.637,8.301,-47.363,-36.133,-24.902,-50.781
1687767267.640,10.254,-56.641,-50.781,-31.738,-174.316
1687767267.644,-1.953,-67.871,-54.688,-37.109,-159.180
1687767267.648,7.324,-60.547,-51.270,-36.621,82.031
1687767267.652,32.227,-47.852,-50.781,-39.551,86.914
1687767267.656,-2.930,-48.828,-46.875,-44.922,-137.207
1687767267.670,-26.855,-57.129,-42.969,-43.945,-124.023
1687767267.674,7.812,-60.059,-43.945,-31.250,-2.441
1687767267.678,6.836,-53.711,-45.410,-42.969,92.773
1687767267.682,-4.395,-58.594,-50.781,-62.988,12.695
1687767267.686,28.809,-53.711,-51.270,-44.434,-50.781
1687767267.690,19.043,-47.852,-49.316,-46.387,258.789
1687767267.694,0.977,-51.758,-50.781,-53.223,364.258
1687767267.697,4.883,-46.387,-47.852,-46.875,30.762
1687767267.701,15.137,-48.340,-44.922,-35.156,5.371
1687767267.705,-5.859,-52.246,-48.828,-26.855,12.695
1687767267.709,-37.109,-52.246,-50.781,-38.086,-156.250
1687767267.713,-31.738,-59.082,-54.199,-23.926,-139.648
1687767267.715,-41.504,-56.152,-54.199,-36.133,-121.094
1687767267.719,-42.480,-47.363,-48.828,-55.664,-135.254
1687767267.723,-35.645,-51.758,-49.805,-51.270,-181.152
1687767267.727,-40.039,-51.270,-46.875,-51.758,-185.059
1687767267.731,-36.621,-45.410,-46.387,-48.340,-45.410
1687767267.735,-39.551,-46.387,-45.410,-46.387,109.375
1687767267.739,-37.109,-41.992,-44.434,-36.621,64.453
1687767267.742,-38.086,-45.898,-46.387,-50.293,-126.953
1687767267.746,-37.109,-44.922,-46.875,-62.988,-12.207
1687767267.750,-47.852,-35.156,-49.316,-49.805,102.051
1687767267.754,-57.129,-35.156,-43.945,-34.668,-94.727
1687767267.758,-40.039,-41.992,-41.504,-43.945,-75.195
1687767267.760,-38.086,-50.781,-45.898,-64.453,-56.152
1687767267.764,-31.250,-48.828,-40.039,-58.594,-79.102
1687767267.768,-28.320,-50.781,-39.062,-43.457,-32.227
1687767267.772,-27.344,-46.875,-43.457,-43.457,78.613
1687767267.776,-36.621,-45.410,-41.016,-43.457,141.113
1687767267.780,-49.805,-48.340,-41.504,-34.180,-9.766
1687767267.784,-30.273,-50.293,-41.504,-33.691,-99.609
1687767267.787,-42.969,-57.129,-41.992,-41.992,56.641
1687767267.791,-60.547,-48.340,-44.434,-35.645,345.703
1687767267.795,-42.969,-41.504,-42.969,-28.809,157.227
1687767267.799,-45.410,-41.992,-37.109,-55.664,-109.863
1687767267.803,-29.785,-39.551,-36.133,-68.359,-104.980
1687767267.805,-37.109,-37.109,-40.527,-70.312,-81.055
1687767267.809,-33.691,-41.504,-33.203,-61.035,-113.770
1687767267.813,-28.809,-43.945,-31.250,-40.039,-166.504
1687767267.817,-43.945,-45.410,-36.621,-43.457,-136.719
1687767267.821,-44.434,-49.316,-35.156,-43.945,-154.785
1687767267.825,-36.621,-48.340,-33.691,-54.199,-113.770
1687767267.829,-58.594,-49.805,-33.691,-73.242,-4.883
1687767267.832,-73.242,-47.363,-32.715,-70.801,143.555
1687767267.836,-65.918,-42.480,-38.574,-65.918,226.074
1687767267.840,-50.781,-35.645,-33.203,-47.363,-9.766
1687767267.844,-39.062,-30.762,-30.762,-43.457,-71.289
1687767267.848,-40.039,-41.016,-42.969,-60.059,33.203
1687767267.850,-16.602,-44.922,-41.992,-37.109,-85.938
1687767267.854,-29.297,-40.527,-37.109,-19.531,-84.961
1687767267.858,-64.453,-41.992,-42.969,-59.570,25.879
1687767267.862,-63.477,-38.574,-41.992,-66.406,65.918
1687767267.866,-54.199,-39.551,-39.062,-42.480,-34.180
1687767267.870,-39.062,-40.527,-39.062,-46.387,-35.156
1687767267.874,-38.574,-32.715,-30.762,-42.480,77.637
1687767267.877,-61.523,-36.621,-35.645,-17.578,251.953
1687767267.881,-75.684,-46.875,-44.434,-33.203,92.773
1687767267.885,-58.105,-49.805,-45.410,-37.109,-106.934
1687767267.889,-45.898,-42.969,-41.504,-27.344,-60.547
1687767267.893,-48.340,-35.645,-40.039,-28.809,-89.844
1687767267.895,-49.316,-34.668,-40.527,-33.691,-111.328
1687767267.899,-55.176,-38.086,-33.203,-44.434,-153.809
1687767267.903,-56.152,-40.527,-35.645,-29.785,-82.031
1687767267.907,-42.969,-45.410,-37.598,-27.344,-6.836
1687767267.911,-38.086,-48.340,-38.574,-42.969,-112.305
1687767267.915,-46.387,-49.316,-42.969,-42.480,-72.266
1687767267.919,-32.715,-47.852,-39.551,-41.504,221.680
1687767267.922,-12.207,-43.945,-42.969,-45.898,176.270
1687767267.926,-29.297,-48.828,-51.270,-54.199,-141.602
1687767267.930,-28.809,-52.246,-47.363,-58.105,-155.273
1687767267.934,-17.090,-57.129,-42.480,-62.500,-67.383
1687767267.938,-10.254,-57.129,-47.852,-66.406,-24.414
1687767267.941,14.160,-49.805,-51.270,-51.758,-70.801
1687767267.945,12.695,-48.828,-46.875,-36.133,33.203
1687767267.949,-5.371,-46.387,-43.945,-31.738,258.301
1687767267.953,-23.438,-47.363,-39.062,-43.457,71.777
1687767267.957,-23.438,-48.828,-34.668,-54.688,-128.906
1687767267.961,-30.762,-46.875,-41.016,-45.410,62.500
1687767267.965,-33.203,-42.480,-42.969,-37.109,194.336
1687767267.968,-2.930,-44.922,-42.480,-25.879,-5.859
1687767267.972,8.301,-46.875,-45.898,-32.227,-173.340
1687767267.976,0.000,-47.852,-46.875,-35.645,-32.715
1687767267.980,5.371,-52.246,-39.062,-22.949,11.230
1687767267.984,1.953,-50.781,-34.668,-36.133,-96.680
1687767267.986,-0.488,-47.363,-37.109,-42.480,-33.691
1687767267.990,-6.836,-44.922,-38.574,-38.086,-18.555
1687767267.994,-2.930,-60.059,-38.574,-42.480,-51.270
1687767267.998,-4.395,5.371,-42.480,-34.668,-60.547
1687767268.002,-12.695,150.391,-43.945,-23.926,-139.160
1687767268.006,-11.719,210.449,-47.852,-35.645,86.426
1687767268.010,-17.090,210.938,-52.734,-46.875,218.750
1687767268.013,-18.555,201.172,-53.711,-81.055,-107.910
1687767268.017,-18.555,188.965,-53.223,-90.332,-151.855
1687767268.021,-4.883,180.664,-48.340,-70.312,-69.824
1687767268.025,-9.766,166.016,-44.434,-62.988,-99.609
1687767268.029,0.488,144.531,-47.363,-66.895,-202.637
1687767268.045,2.441,138.672,-44.922,-56.641,-165.527
1687767268.049,-14.648,136.719,-40.039,-51.758,-59.082
1687767268.053,-11.719,124.512,-42.480,-56.641,-1.465
1687767268.057,-3.418,110.352,-42.969,-50.293,-115.723
1687767268.061,3.906,101.074,-44.922,-55.664,-75.684
1687767268.065,10.254,94.238,-44.434,-49.805,268.555
1687767268.069,0.488,96.680,-36.133,-36.621,145.508
1687767268.072,-2.441,94.727,-38.574,-48.340,-104.980
1687767268.076,0.000,89.844,-42.969,-41.016,-34.180
1687767268.080,-20.508,78.125,-43.945,-39.551,87.402
1687767268.084,-32.715,66.406,-50.293,-74.219,-76.172
1687767268.088,-40.039,53.223,-52.246,-87.891,-198.242
1687767268.090,-41.992,53.711,-49.805,-76.172,-99.121
1687767268.094,-6.348,59.570,-46.875,-59.082,-116.211
1687767268.098,-10.254,48.828,-47.363,-65.918,-200.195
1687767268.102,-32.227,36.133,-49.316,-61.523,-217.773
1687767268.106,-28.320,27.832,-43.945,-56.641,-120.117
1687767268.110,-27.832,25.879,-41.016,-44.434,-18.555
1687767268.114,-22.461,20.996,-44.922,-52.246,-28.809
1687767268.117,-18.066,6.836,-42.969,-81.543,-87.891
1687767268.121,-17.090,2.930,-42.969,-74.219,182.129
1687767268.125,-31.738,6.348,-43.457,-68.848,269.531
1687767268.129,-26.855,0.000,-45.898,-62.012,-84.473
1687767268.133,-20.996,-6.836,-43.945,-52.246,-99.121
1687767268.135,-44.434,-6.836,-48.828,-77.148,-65.918
1687767268.139,-40.039,-10.254,-57.129,-109.863,-64.941
1687767268.143,-32.715,-19.043,-45.410,-84.473,-48.340
1687767268.147,-45.898,-17.090,-40.527,-64.453,-22.461
1687767268.151,-39.062,-25.391,-44.922,-67.871,122.559
1687767268.155,-38.574,-20.996,-45.410,-62.500,26.855
1687767268.159,-19.531,-16.602,-45.410,-64.941,-84.473
1687767268.162,-11.230,-34.180,-64.453,-66.895,82.520
1687767268.166,-29.297,-30.273,-76.660,-85.449,245.117
1687767268.170,-38.086,-20.508,-43.457,-96.191,4.883
1687767268.174,-25.879,-29.785,-39.062,-63.477,-106.934
1687767268.178,-7.812,-34.180,-72.266,-36.133,49.316
1687767268.179,-22.949,-28.809,-61.523,-54.688,44.434
1687767268.183,-34.180,-31.250,-46.387,-61.523,-76.172
1687767268.187,-37.109,-43.945,-10.742,-58.594,-107.910
1687767268.191,-13.672,-43.457,-28.320,-58.105,-58.105
1687767268.195,-23.926,-38.086,-60.059,-52.734,-62.500
1687767268.199,-24.902,-27.344,-54.199,-42.480,-100.586
1687767268.203,11.719,-20.508,-72.754,-53.223,-46.875
1687767268.206,12.695,-31.738,-74.219,-33.203,116.211
1687767268.210,-6.836,-39.551,-35.645,-43.945,66.895
1687767268.214,-14.160,-47.852,-16.602,-62.012,-160.156
1687767268.218,-25.879,-41.992,-57.617,-56.152,-130.371
1687767268.222,-37.109,-44.434,-36.621,-69.336,-107.422
1687767268.226,-9.766,-52.734,-49.316,-35.645,-81.543
1687767268.230,-6.836,-44.922,-71.777,-16.113,-7.324
1687767268.234,-37.598,-50.781,3.418,-48.828,39.551
1687767268.238,-30.762,-44.434,-42.480,-34.668,149.414
1687767268.242,-41.504,-38.574,-80.078,6.836,-30.762
1687767268.246,-32.227,-40.039,-52.734,-14.648,-184.570
1687767268.250,-24.414,-35.156,-51.758,-51.270,53.711
1687767268.253,-71.777,-48.340,-19.043,-72.266,202.148
1687767268.257,-70.801,-59.082,0.977,-56.152,-12.207
1687767268.261,-50.781,-54.199,-35.156,-31.250,-62.500
1687767268.265,-57.617,-37.109,-72.754,-46.875,-51.270
1687767268.269,-56.152,-36.133,-54.688,-51.270,-145.020
1687767268.285,-52.246,-56.641,-33.203,-39.062,-152.344
1687767268.289,-44.434,-41.992,-67.871,-25.879,-139.648
1687767268.293,-48.340,-41.992,-70.801,-32.227,-62.500
1687767268.297,-63.965,-53.223,-59.082,-57.617,-39.062
1687767268.301,-55.664,-53.223,-45.898,-38.574,-67.871
1687767268.305,-29.785,-48.828,-42.480,-26.855,39.551
1687767268.309,-36.133,-42.969,-69.824,-14.160,225.586
1687767268.312,-56.152,-50.293,-51.758,-8.301,219.727
1687767268.316,-72.266,-55.664,-1.465,-56.152,-50.781
1687767268.320,-69.336,-51.270,-1.465,-71.777,-54.199
1687767268.324,-41.992,-49.316,-66.895,-27.832,-56.152
1687767268.328,-50.293,-48.340,-73.730,-41.992,-101.562
1687767268.315,-49.316,-50.293,-62.012,-50.293,-148.438
1687767268.319,-38.574,-64.453,-62.500,-35.645,-41.504
1687767268.323,-37.109,-56.152,-67.871,-28.809,116.699
1687767268.327,-41.504,-44.922,-63.477,-21.973,-46.875
1687767268.331,-65.918,-52.734,-47.363,-48.828,-212.891
1687767268.335,-72.266,-55.664,-48.828,-64.453,-40.039
1687767268.339,-45.410,-46.387,-59.082,-81.055,157.715
1687767268.342,-21.484,-53.711,-46.387,-83.984,21.484
1687767268.346,-41.992,-60.547,-20.020,-84.473,-102.539
1687767268.350,-41.992,-56.641,-37.109,-61.523,-65.430
1687767268.354,-34.668,-48.340,-47.852,-42.480,267.578
1687767268.358,-31.738,-43.457,-60.059,-42.969,183.594
1687767268.361,-28.809,-44.922,-48.828,-50.293,-165.039
1687767268.365,-24.414,-59.082,-32.715,-49.316,-121.582
1687767268.369,-33.691,-43.945,-53.223,-45.898,-63.477
1687767268.373,-47.852,-51.758,-52.734,-68.848,-124.023
1687767268.377,-20.020,-61.523,-61.035,-54.688,-122.559
1687767268.381,-12.695,-45.898,-60.547,-18.066,55.664
1687767268.385,-11.230,-44.434,-57.617,-16.602,54.688
1687767268.388,1.465,-45.898,-64.453,-41.504,-80.566
1687767268.392,-5.859,-44.434,-55.664,-49.316,-100.586
1687767268.396,-22.949,-42.969,-57.129,-34.668,101.074
1687767268.400,-17.578,-44.922,-56.152,-61.035,194.824
1687767268.404,-29.297,-32.227,-69.824,-96.680,-112.305
1687767268.420,-35.645,-33.203,-53.223,-74.219,-151.367
1687767268.424,-27.832,-46.875,-34.668,-46.387,-9.766
1687767268.428,-26.855,-51.270,-49.316,-43.457,-59.082
1687767268.432,-39.062,-64.453,-32.227,-67.383,-156.738
1687767268.436,-77.148,-64.453,-40.039,-79.102,-54.199
1687767268.440,-103.027,-71.777,-35.645,-87.891,167.969
1687767268.444,-88.867,-76.172,-32.227,-108.887,48.828
1687767268.447,-62.012,-68.848,-42.969,-100.098,-167.969
1687767268.451,-80.078,-62.500,-34.668,-91.309,-54.688
1687767268.455,-82.520,-49.316,-39.062,-104.004,82.520
1687767268.459,-58.105,-55.176,-43.945,-96.680,-61.523
1687767268.463,-46.875,-64.453,-42.480,-47.363,-146.973
1687767268.465,-38.574,-55.176,-32.227,-41.504,-52.734
1687767268.469,-73.242,-56.641,-29.297,-81.543,-33.691
1687767268.473,-108.887,-70.312,-5.371,-86.426,-162.109
1687767268.477,-79.590,-63.477,-26.855,-61.523,-166.504
1687767268.481,-88.867,-50.781,-35.156,-63.965,-94.238
1687767268.485,-120.117,-44.434,-21.484,-77.148,7.324
1687767268.489,-79.102,-41.992,-58.594,-45.898,56.641
1687767268.492,-30.273,-46.875,-62.988,-38.086,-68.848
1687767268.496,-52.246,-39.551,-52.734,-71.289,114.258
1687767268.500,-60.547,-42.480,-54.688,-71.289,212.891
1687767268.504,-75.684,-55.176,-65.918,-69.824,-95.215
1687767268.508,-91.797,-57.129,-51.270,-123.047,-108.887
1687767268.510,-16.113,-52.734,-46.875,-104.004,0.488
1687767268.514,-9.766,-41.504,-70.801,-41.504,45.898
1687767268.518,-61.035,-41.504,-0.977,-90.820,-31.738
1687767268.522,-54.199,-39.062,-17.578,-99.121,-98.633
1687767268.526,-28.320,-40.039,-99.121,-13.184,135.742
1687767268.530,-22.461,-37.598,-56.641,-45.898,105.469
1687767268.534,-40.039,-24.902,-62.012,-98.633,-32.715
1687767268.537,-60.547,-30.273,-69.336,-67.383,19.531
1687767268.541,-39.062,-44.434,-52.246,-40.039,158.691
1687767268.545,-5.859,-37.598,-67.871,-62.500,9.766
1687767268.549,-21.484,-38.086,-47.363,-51.758,-225.098
1687767268.553,-28.809,-40.527,-42.480,-52.734,-188.477
1687767268.556,-8.301,-41.504,-53.223,-35.156,-91.797
1687767268.560,-23.438,-47.363,-9.277,-56.641,-99.121
1687767268.564,-29.785,-37.109,-46.875,-62.500,-162.109
1687767268.568,-27.344,-39.062,-56.641,-30.762,-67.871
1687767268.572,-30.762,-42.969,-53.711,-69.336,-26.855
1687767268.576,-61.035,-49.316,-67.871,-106.445,-19.043
1687767268.580,-66.406,-43.945,-56.152,-84.473,21.484
1687767268.583,-33.691,-44.434,-83.008,-24.902,137.695
1687767268.587,-35.645,-52.734,-61.035,-44.434,163.574
1687767268.591,-31.738,-44.922,-38.574,-72.754,-96.680
1687767268.595,-38.574,-42.969,-47.852,-46.387,-113.281
1687767268.599,-57.617,-35.645,-66.895,-45.410,-103.027
1687767268.600,-45.898,-31.738,-52.734,-58.594,-65.918
1687767268.604,-41.016,-32.227,-52.734,-90.332,-9.766
1687767268.608,-66.406,-45.410,-53.223,-76.660,18.066
1687767268.612,-44.922,-44.922,-52.246,-47.852,70.312
1687767268.616,-41.992,-30.762,-54.199,-70.312,-43.945
1687767268.620,-60.547,-23.926,-50.781,-75.684,2.441
1687767268.624,-21.484,-34.180,-60.059,-40.527,166.504
1687767268.627,0.977,-37.598,-57.617,7.812,387.207
1687767268.631,-54.688,-51.758,-30.273,-34.668,149.902
1687767268.635,-99.609,-57.617,-28.320,-100.098,-178.223
1687767268.639,-102.539,-61.523,-24.414,-96.680,-81.055
1687767268.643,-86.426,-74.219,-13.672,-102.051,-71.777
1687767268.645,-120.117,-80.566,-6.348,-88.867,-134.277
1687767268.649,-146.973,-88.379,5.371,-87.891,-111.328
1687767268.653,-138.672,-90.820,9.766,-97.656,-47.852
1687767268.657,-130.859,-99.121,13.672,-86.914,-86.426
1687767268.661,-150.879,-104.492,19.531,-79.590,-104.492
1687767268.665,-157.715,-100.098,20.020,-82.520,-25.391
1687767268.669,-135.254,-104.980,30.762,-75.195,206.543
1687767268.672,-141.602,-111.328,37.109,-83.008,237.793
1687767268.676,-155.762,-109.375,35.645,-68.359,-111.328
1687767268.680,-167.969,-107.422,45.410,-68.359,-181.641
1687767268.684,-161.621,-98.633,43.457,-76.660,-35.156
1687767268.688,-143.066,-101.074,28.809,-73.242,-51.758
1687767268.690,-108.398,-103.027,21.973,-84.473,-135.254
1687767268.694,-91.309,-94.727,20.508,-79.590,-33.691
1687767268.698,-84.473,-92.773,15.625,-70.801,93.262
1687767268.702,-74.707,-87.402,15.625,-67.871,-114.258
1687767268.706,-102.051,-83.496,20.996,-48.828,-266.113
1687767268.710,-104.004,-84.473,14.160,-23.438,24.902
1687767268.714,-79.590,-79.590,5.371,-41.992,269.531
1687767268.717,-87.891,-77.148,5.371,-66.406,-20.996
1687767268.721,-67.871,-81.543,7.324,-74.219,-254.883
1687767268.725,-49.805,-84.473,4.883,-61.523,-7.812
1687767268.729,-51.758,-79.102,0.488,-51.270,133.301
1687767268.733,-47.852,-72.754,-4.883,-58.105,-140.137
1687767268.736,-71.289,-75.195,-7.812,-66.406,-178.223
1687767268.740,-60.059,-75.684,-6.836,-61.035,-121.582
1687767268.744,-42.969,-65.918,-8.301,-41.016,-131.836
1687767268.748,-46.875,-64.453,-12.695,-34.668,-105.469
1687767268.752,-67.383,-67.383,-10.254,-39.062,-77.637
1687767268.756,-91.309,-67.383,-7.324,-48.828,-12.695
1687767268.760,-82.520,-71.777,-16.602,-52.734,61.523
1687767268.763,-76.172,-69.336,-24.414,-51.270,-39.062
1687767268.767,-79.590,-71.289,-18.066,-45.410,-157.227
1687767268.771,-66.406,-72.754,-20.508,-47.852,30.273
1687767268.775,-38.574,-61.523,-20.020,-40.527,76.660
1687767268.779,-28.809,-58.105,-14.160,-30.762,-62.500
1687767268.795,-43.457,-62.988,-17.578,-21.484,-57.129
1687767268.799,-62.500,-69.824,-20.020,-19.043,104.980
1687767268.803,-63.477,-69.824,-21.973,-38.574,66.895
1687767268.807,-51.758,-56.152,-21.973,-41.992,-138.672
1687767268.811,-44.922,-47.363,-20.508,-47.852,-63.477
1687767268.815,-41.992,-47.852,-19.531,-41.016,339.355
1687767268.819,-35.645,-50.781,-21.973,-42.969,198.730
1687767268.822,-32.227,-51.270,-22.949,-39.551,-161.133
1687767268.826,-23.438,-49.316,-17.090,-19.531,-13.672
1687767268.830,-21.484,-54.199,-15.625,-23.438,32.227
1687767268.834,-22.949,-55.664,-12.207,-25.879,-141.602
1687767268.838,-17.578,-49.805,-8.301,-25.391,-140.625
1687767268.841,-9.766,-46.875,-8.301,-22.949,-44.434
1687767268.845,-19.043,-49.805,-10.742,-16.602,-20.508
1687767268.849,-24.414,-46.387,-14.648,-21.973,-47.363
1687767268.853,1.953,-39.062,-14.160,-32.715,-64.453
1687767268.857,-1.465,-39.062,-10.254,-18.555,-9.277
1687767268.861,-29.785,-44.434,-9.766,-1.953,63.965
1687767268.865,-24.902,-45.410,-10.254,-11.230,-11.719
1687767268.868,-31.250,-46.875,-12.207,-21.973,-160.156
1687767268.872,-33.691,-37.598,-16.113,-14.160,46.387
1687767268.876,-13.672,-37.109,-16.602,-16.113,123.047
1687767268.880,-15.137,-41.504,-18.066,-30.273,-186.035
1687767268.884,-13.672,-34.180,-18.555,-31.738,-161.133
1687767268.885,3.418,-26.855,-17.578,-37.109,-90.332
1687767268.889,-11.230,-32.715,-25.391,-21.484,-11.719
1687767268.893,-18.555,-46.875,-27.832,-12.207,-103.027
1687767268.897,-10.254,-44.434,-20.020,-22.949,-145.996
1687767268.901,-18.066,-35.156,-25.879,-20.996,82.031
1687767268.905,-5.371,-38.574,-32.715,-36.133,-27.344
1687767268.909,-5.859,-44.922,-29.297,-42.480,-117.188
1687767268.912,-27.344,-46.387,-23.438,-29.785,48.340
1687767268.916,-14.160,-41.992,-20.020,-30.762,221.191
1687767268.920,-11.230,-40.039,-16.602,-39.062,66.895
1687767268.924,-24.414,-39.062,-18.555,-36.621,-132.324
1687767268.928,-5.859,-33.691,-21.484,-29.297,-78.125
1687767268.930,-16.602,-29.297,-21.484,-25.879,-82.031
1687767268.934,-32.715,-30.273,-26.855,-25.879,-121.094
1687767268.938,-25.391,-36.133,-33.203,-31.250,-127.930
1687767268.942,-23.438,-38.086,-31.250,-29.785,-131.836
1687767268.946,-28.320,-40.039,-30.273,-21.973,-154.297
1687767268.950,-30.762,-41.992,-29.785,-39.062,-112.793
1687767268.954,-36.621,-40.527,-20.020,-45.410,-90.332
1687767268.957,-29.297,-34.668,-19.043,-38.086,205.566
1687767268.961,-21.973,-27.832,-21.973,-36.133,331.055
1687767268.965,-13.184,-30.762,-25.391,-37.109,-90.332
1687767268.969,-22.949,-31.250,-30.273,-36.621,-182.617
1687767268.973,-21.973,-31.250,-29.297,-31.250,-145.508
1687767268.975,-21.484,-29.785,-33.203,-33.691,-141.602
1687767268.979,-40.527,-27.344,-35.156,-41.504,-133.789
1687767268.983,-26.367,-26.855,-31.738,-26.855,-13.184
1687767268.987,-12.207,-29.785,-23.926,-28.809,137.207
1687767268.991,-29.297,-33.203,-18.555,-24.414,28.320
1687767268.995,-26.855,-31.738,-19.531,-24.414,-47.363
1687767268.999,-34.668,-37.598,-25.391,-29.297,107.422
1687767269.002,-43.457,-41.016,-25.391,-16.113,279.785
1687767269.006,-21.973,-42.480,-23.438,-34.180,9.277
1687767269.010,-26.367,-42.480,-27.344,-43.945,-83.984
1687767269.014,-43.457,-42.969,-26.855,-21.973,88.379
1687767269.018,-36.133,-42.480,-29.785,-27.344,-7.324
1687767269.020,-24.414,-36.133,-32.715,-40.527,-142.578
1687767269.024,-34.668,-34.180,-28.809,-41.504,-156.250
1687767269.028,-43.457,-31.250,-27.344,-52.246,-118.164
1687767269.032,-47.363,-34.180,-31.250,-37.598,-60.547
1687767269.036,-49.316,-40.527,-29.785,-31.738,-131.836
1687767269.040,-41.016,-38.086,-25.391,-34.180,-125.977
1687767269.044,-35.156,-37.598,-23.926,-17.090,208.008
1687767269.047,-44.434,-46.387,-30.762,-10.254,194.824
1687767269.051,-69.824,-42.969,-30.273,-25.879,-156.738
1687767269.055,-64.941,-43.945,-23.926,-37.109,-107.910
1687767269.059,-42.969,-41.504,-24.414,-37.109,-50.293
1687767269.063,-43.457,-34.180,-24.902,-31.738,-65.430
1687767269.066,-45.898,-38.086,-27.344,-27.832,-88.379
1687767269.070,-42.969,-43.945,-29.297,-35.156,-66.406
1687767269.074,-48.340,-47.852,-26.367,-33.691,174.805
1687767269.078,-60.547,-47.852,-25.391,-32.227,85.938
1687767269.082,-62.988,-47.363,-33.691,-37.598,-154.785
1687767269.086,-57.617,-48.828,-36.133,-41.016,118.164
1687767269.090,-47.852,-48.828,-33.691,-36.621,277.344
1687767269.093,-62.012,-46.387,-30.273,-34.668,1.465
1687767269.097,-74.219,-44.434,-31.250,-47.363,-181.641
1687767269.101,-66.895,-45.898,-32.715,-59.082,-85.938
1687767269.105,-53.223,-47.852,-36.133,-58.594,-15.625
1687767269.109,-58.594,-54.688,-36.133,-50.781,-177.246
1687767269.128,-71.289,-57.617,-37.109,-40.039,-244.141
1687767269.132,-62.012,-52.246,-38.086,-43.945,-111.816
1687767269.136,-61.035,-54.688,-33.203,-35.645,-73.730
1687767269.140,-77.637,-53.711,-30.762,-22.949,-144.043
1687767269.144,-63.477,-47.363,-30.273,-29.785,-124.023
1687767269.148,-58.105,-47.852,-29.785,-50.781,106.934
1687767269.152,-73.242,-47.363,-29.785,-48.828,271.973
1687767269.155,-68.848,-48.340,-27.344,-39.551,-0.488
1687767269.159,-59.570,-52.246,-28.809,-48.828,-148.926
1687767269.163,-56.641,-49.316,-31.250,-46.875,-34.668
1687767269.167,-74.707,-48.828,-27.832,-34.668,41.992
1687767269.171,-71.289,-45.410,-23.926,-30.762,-86.914
1687767269.170,-56.641,-52.734,-25.879,-12.695,-120.117
1687767269.174,-57.617,-61.035,-34.180,-37.109,-26.855
1687767269.178,-52.734,-55.664,-32.715,-64.453,-41.504
1687767269.182,-53.223,-48.340,-27.344,-39.551,-128.906
1687767269.186,-35.156,-43.457,-26.367,-32.715,-1.465
1687767269.190,-33.691,-46.387,-27.832,-38.086,123.047
1687767269.194,-62.500,-52.734,-28.320,-46.387,3.906
1687767269.197,-69.336,-51.270,-31.738,-40.039,-179.688
1687767269.201,-65.430,-49.805,-28.320,-29.297,-117.188
1687767269.205,-48.340,-43.945,-21.484,-20.508,298.828
1687767269.209,-51.270,-44.434,-27.832,-20.020,256.836
1687767269.213,-72.754,-54.199,-30.273,-47.852,-107.910
1687767269.215,-85.449,-46.387,-32.227,-57.617,-87.402
1687767269.219,-83.008,-40.527,-35.156,-55.664,-68.848
1687767269.223,-70.312,-47.363,-32.227,-54.688,-139.160
1687767269.227,-55.176,-45.410,-28.320,-41.504,-167.480
1687767269.231,-55.664,-43.945,-29.785,-33.203,-92.285
1687767269.235,-69.336,-44.922,-37.109,-49.805,2.441
1687767269.239,-47.363,-49.316,-38.086,-61.035,50.781
1687767269.242,-46.387,-50.293,-39.062,-49.805,12.207
1687767269.246,-57.617,-33.203,-38.574,-30.273,115.723
1687767269.250,-47.363,-33.203,-41.016,-26.855,214.355
1687767269.254,-21.973,-49.316,-43.457,-39.062,-67.383
1687767269.258,-14.648,-48.828,-27.832,-46.875,-136.719
1687767269.260,-35.156,-50.781,-18.555,-61.523,-95.703
1687767269.264,-37.109,-57.617,-24.902,-71.777,-24.902
1687767269.268,-69.824,-63.477,-19.043,-79.590,-86.914
1687767269.272,-95.703,-68.848,-10.742,-76.172,-73.730
1687767269.276,-107.422,-78.613,-10.742,-68.848,87.891
1687767269.280,-112.793,-70.312,-19.531,-83.008,-29.297
1687767269.284,-116.211,-69.336,-24.902,-96.680,-92.773
1687767269.287,-88.867,-76.660,-24.902,-83.008,11.230
1687767269.291,-78.125,-69.824,-28.809,-61.523,162.598
1687767269.295,-99.609,-69.336,-28.320,-64.453,-31.250
1687767269.299,-74.219,-70.312,-21.484,-70.801,-221.680
1687767269.303,-68.848,-71.777,-19.043,-61.523,-52.246
1687767269.305,-59.082,-62.012,-27.344,-63.965,-8.789
1687767269.309,-44.922,-59.082,-30.273,-59.570,-166.504
1687767269.313,-43.945,-60.547,-27.832,-33.691,-132.324
1687767269.317,-36.621,-60.547,-31.738,-37.598,-94.238
1687767269.321,-18.555,-54.688,-37.109,-60.547,-124.512
1687767269.325,-29.785,-50.293,-32.715,-54.199,-80.566
1687767269.329,-50.781,-60.059,-35.645,-40.039,-12.207
1687767269.332,-54.199,-59.082,-40.039,-20.996,189.453
1687767269.336,-66.895,-62.012,-37.109,-32.715,174.805
1687767269.340,-62.012,-61.035,-37.598,-62.500,-121.582
1687767269.344,-49.805,-53.711,-34.668,-47.363,-133.789
1687767269.348,-42.969,-61.035,-33.691,-39.551,-8.301
1687767269.350,-30.273,-64.453,-40.039,-44.922,-67.871
1687767269.354,-31.250,-62.012,-42.969,-47.363,-71.289
1687767269.358,-40.039,-62.988,-45.410,-47.852,-59.570
1687767269.362,-30.273,-51.758,-45.410,-42.480,62.988
1687767269.366,-39.551,-49.316,-40.527,-44.922,85.938
1687767269.370,-41.992,-58.105,-41.504,-36.621,-22.461
1687767269.374,-31.250,-59.082,-47.363,-32.715,104.004
1687767269.377,-25.391,-56.641,-43.457,-24.902,230.469
1687767269.381,-20.996,-57.617,-42.480,-24.902,2.930
1687767269.385,-29.785,-58.105,-45.410,-35.645,-179.199
1687767269.389,-24.902,-55.176,-44.434,-29.785,-116.699
1687767269.393,-22.461,-58.105,-46.387,-39.062,-127.930
1687767269.396,-21.484,-60.059,-46.875,-43.457,-210.449
1687767269.400,-22.949,-53.711,-43.457,-30.273,-128.906
1687767269.404,-22.461,-48.828,-41.016,-30.762,-2.930
1687767269.408,-20.020,-47.363,-42.480,-36.621,-20.020
1687767269.412,-25.391,-44.434,-37.598,-27.344,-111.816
1687767269.416,-35.645,-49.805,-35.156,-30.273,-114.258
1687767269.420,-39.062,-50.293,-36.133,-38.086,216.309
1687767269.423,-29.785,-46.387,-32.715,-29.785,299.805
1687767269.427,-32.715,-51.270,-33.203,-38.086,-78.613
1687767269.431,-32.715,-53.223,-36.133,-36.133,-122.070
1687767269.435,-21.973,-50.781,-38.574,-28.809,-61.035
1687767269.439,-18.066,-47.363,-34.180,-25.879,-76.660
1687767269.439,-3.418,-42.480,-28.809,-14.648,-143.066
1687767269.443,0.000,-48.828,-33.203,-19.531,-39.062
1687767269.447,-6.348,-54.199,-37.598,-29.297,110.840
1687767269.451,-3.906,-48.340,-34.180,-34.180,22.949
1687767269.455,-4.395,-47.852,-29.785,-38.086,-93.262
1687767269.459,-6.836,-53.711,-32.715,-39.551,43.457
1687767269.463,-1.953,-54.199,-32.715,-30.762,443.359
1687767269.466,-16.113,-56.152,-33.203,-35.156,232.422
1687767269.470,-31.250,-49.805,-34.180,-47.852,-159.180
1687767269.474,-28.809,-44.922,-29.297,-44.922,-95.215
1687767269.478,-18.066,-46.875,-25.879,-52.246,-56.152
1687767269.482,-14.648,-54.688,-30.273,-57.129,-100.098
1687767269.486,-32.715,-56.641,-38.574,-55.176,-85.449
1687767269.490,-38.574,-51.758,-39.551,-46.875,-77.148
1687767269.494,-36.621,-50.293,-35.156,-44.434,-51.270
1687767269.498,-25.879,-53.223,-30.762,-39.062,-127.441
1687767269.502,-14.160,-54.199,-31.250,-35.645,-130.371
1687767269.506,-29.785,-52.734,-40.039,-46.387,18.066
1687767269.510,-40.527,-52.246,-41.016,-59.082,16.602
1687767269.513,-31.738,-53.711,-36.133,-48.340,41.992
1687767269.517,-27.832,-55.664,-39.551,-45.410,-12.207
1687767269.521,-41.016,-52.246,-37.598,-48.828,155.273
1687767269.525,-45.898,-43.457,-33.691,-57.129,278.809
1687767269.529,-47.852,-46.387,-35.156,-68.848,-110.352
1687767269.545,-62.500,-55.664,-30.273,-62.012,-150.391
1687767269.549,-66.406,-57.129,-34.668,-65.430,33.203
1687767269.553,-63.965,-58.594,-35.645,-59.082,38.574
1687767269.557,-59.570,-54.199,-34.668,-62.500,-78.125
1687767269.561,-46.387,-44.922,-25.879,-70.801,-55.176
1687767269.565,-56.641,-45.898,-22.461,-49.316,318.359
1687767269.569,-56.152,-50.293,-27.832,-43.945,215.820
1687767269.572,-47.852,-52.246,-25.391,-63.965,-176.758
1687767269.576,-52.734,-50.781,-18.066,-72.754,-39.062
1687767269.580,-51.270,-48.828,-15.625,-76.660,150.391
1687767269.584,-50.781,-50.293,-22.949,-79.102,-65.430
1687767269.588,-66.406,-48.340,-24.902,-70.312,-146.484
1687767269.590,-57.617,-50.781,-26.855,-74.219,-53.711
1687767269.594,-57.129,-54.688,-32.715,-78.125,-61.523
1687767269.598,-72.266,-50.781,-34.180,-69.336,-83.008
1687767269.602,-60.059,-47.363,-28.320,-60.547,-93.262
1687767269.606,-66.406,-50.293,-32.715,-70.801,-41.992
1687767269.610,-74.219,-51.270,-42.480,-60.059,5.371
1687767269.614,-63.477,-47.852,-36.621,-54.688,-6.348
1687767269.617,-59.570,-54.688,-31.738,-74.707,-55.664
1687767269.621,-52.734,-56.152,-40.527,-59.082,75.684
1687767269.625,-61.523,-49.805,-40.527,-44.922,115.234
1687767269.629,-64.453,-49.316,-33.203,-53.223,-61.523
1687767269.633,-64.941,-46.387,-27.832,-56.152,7.324
1687767269.635,-55.176,-47.363,-30.762,-49.316,53.223
1687767269.639,-36.133,-48.340,-34.180,-51.270,16.113
1687767269.643,-44.922,-51.270,-32.227,-51.758,-61.523
1687767269.647,-41.504,-62.012,-34.180,-45.898,-80.566
1687767269.651,-33.203,-57.617,-30.762,-62.500,72.754
1687767269.655,-31.250,-45.898,-28.809,-71.777,67.383
1687767269.659,-31.250,-45.898,-26.855,-72.754,-9.277
1687767269.662,-37.109,-48.828,-22.461,-74.219,59.570
1687767269.666,-32.227,-44.922,-21.973,-68.848,164.062
1687767269.670,-33.691,-43.457,-26.367,-61.035,-60.547
1687767269.674,-38.086,-45.898,-26.855,-57.129,-202.148
1687767269.678,-40.039,-47.852,-23.438,-66.406,-58.594
1687767269.680,-39.062,-50.781,-24.902,-61.523,-25.391
1687767269.684,-25.391,-43.457,-22.949,-71.777,-25.391
1687767269.688,-20.996,-39.551,-19.531,-73.730,-60.547
1687767269.692,-13.672,-43.945,-20.020,-54.199,-58.594
1687767269.696,-10.254,-41.992,-24.902,-47.363,-33.203
1687767269.700,-11.230,-36.621,-30.273,-51.270,-75.195
1687767269.704,-2.930,-36.133,-33.203,-46.875,-99.609
1687767269.707,3.418,-36.133,-34.668,-37.109,96.680
1687767269.711,-0.977,-37.109,-34.180,-33.203,127.441
1687767269.715,-3.418,-33.691,-32.715,-31.250,-168.457
1687767269.719,-2.441,-36.133,-31.250,-38.086,-166.016
1687767269.723,-9.277,-42.969,-27.344,-43.457,-71.289
1687767269.725,-11.230,-42.969,-23.926,-38.086,-113.281
1687767269.729,-19.043,-47.852,-18.066,-29.785,-173.828
1687767269.733,-26.855,-52.246,-22.461,-40.527,-50.781
1687767269.737,-24.414,-49.316,-18.555,-38.086,212.402
1687767269.741,-31.738,-52.734,-15.137,-39.062,83.008
1687767269.745,-26.855,-55.176,-18.066,-53.711,-59.082
1687767269.749,-25.879,-45.410,-11.719,-39.551,62.012
1687767269.752,-33.691,-37.109,-12.207,-37.598,130.859
1687767269.756,-28.809,-40.039,-16.602,-47.852,-44.434
1687767269.760,-26.855,-44.922,-21.484,-57.129,-162.109
1687767269.764,-37.109,-41.992,-26.367,-65.430,-53.223
1687767269.768,-31.738,-43.945,-28.320,-62.012,-41.016
1687767269.770,-20.020,-48.828,-32.715,-72.266,-110.840
1687767269.774,-18.066,-40.039,-31.250,-71.289,-124.023
1687767269.778,-19.043,-32.715,-29.785,-59.082,-106.934
1687767269.782,-21.484,-36.133,-31.738,-51.758,-41.992
1687767269.786,-27.832,-34.180,-31.738,-39.551,-31.738
1687767269.790,-41.016,-29.785,-32.715,-37.109,-71.289
1687767269.794,-35.156,-29.297,-35.645,-25.391,192.871
1687767269.797,-19.043,-30.273,-33.203,-26.855,313.965
1687767269.801,-28.320,-30.273,-30.273,-36.133,-12.207
1687767269.805,-24.902,-25.879,-37.598,-37.109,-98.145
1687767269.809,-15.625,-26.855,-34.180,-37.109,-3.418
1687767269.813,-19.531,-31.250,-31.738,-30.762,-46.387
1687767269.815,-15.625,-33.203,-32.715,-39.062,-129.883
1687767269.819,-12.695,-31.738,-29.297,-43.457,-37.109
1687767269.823,-19.531,-34.668,-27.344,-37.598,89.355
1687767269.827,-26.855,-37.109,-24.414,-42.969,-48.828
1687767269.831,-36.621,-37.109,-24.414,-47.852,-183.105
1687767269.835,-56.641,-37.109,-19.043,-48.828,-20.020
1687767269.839,-65.918,-34.180,-15.625,-41.504,197.266
1687767269.842,-55.664,-40.039,-14.160,-44.434,59.082
1687767269.846,-56.152,-44.922,-12.207,-55.664,-162.598
1687767269.850,-63.965,-43.945,-8.789,-49.316,-20.020
1687767269.854,-59.570,-43.457,-3.418,-39.551,176.758
1687767269.858,-56.152,-35.156,-8.789,-48.340,-75.195
1687767269.875,-52.246,-29.785,-14.160,-61.035,-208.496
1687767269.879,-57.617,-37.598,-12.695,-53.711,-94.238
1687767269.883,-60.059,-36.621,-12.695,-37.598,-73.730
1687767269.887,-33.203,-31.738,-20.996,-40.527,-150.391
1687767269.891,-26.855,-29.297,-21.484,-44.434,-138.672
1687767269.895,-25.879,-34.668,-16.113,-36.621,0.977
1687767269.899,-20.508,-36.133,-14.160,-35.645,30.762
1687767269.902,-31.250,-34.180,-15.137,-28.809,-47.363
1687767269.906,-34.668,-38.086,-16.602,-33.691,-143.066
1687767269.910,-37.598,-35.645,-18.555,-38.574,22.461
1687767269.914,-23.926,-34.180,-19.043,-48.340,105.957
1687767269.918,-34.180,-36.621,-21.484,-61.035,-128.418
1687767269.920,-63.477,-34.668,-26.855,-62.500,-100.098
1687767269.924,-57.129,-31.250,-20.020,-57.617,109.863
1687767269.928,-58.105,-29.297,-18.066,-57.617,41.504
1687767269.932,-72.754,-31.738,-19.531,-62.988,-210.449
1687767269.936,-80.078,-36.133,-15.625,-58.594,-121.094
1687767269.940,-79.102,-41.504,-11.230,-62.988,98.145
1687767269.944,-68.848,-44.434,-8.301,-68.359,62.988
1687767269.947,-67.871,-44.922,-9.277,-54.199,-84.961
1687767269.951,-61.523,-41.504,-13.184,-56.152,-14.648
1687767269.955,-58.105,-39.062,-11.719,-61.523,168.945
1687767269.959,-44.434,-45.410,-11.230,-57.617,-44.434
1687767269.963,-37.598,-42.480,-17.090,-53.223,-172.363
1687767269.965,-76.172,-36.621,-22.949,-46.387,-13.672
1687767269.969,-86.426,-35.645,-29.297,-50.781,-0.977
1687767269.973,-75.195,-28.809,-31.250,-44.922,-95.703
1687767269.977,-66.895,-30.273,-30.762,-47.852,-100.098
1687767269.981,-67.383,-30.273,-34.668,-54.199,-109.863
1687767269.985,-64.941,-28.809,-38.574,-50.293,40.527
1687767269.989,-50.781,-27.832,-37.109,-49.805,145.508
1687767269.992,-53.711,-25.879,-34.668,-41.504,-30.273
1687767269.996,-46.387,-22.949,-34.180,-28.320,102.539
1687767270.000,-37.598,-18.066,-34.180,-28.320,210.938
1687767270.004,-41.016,-23.438,-30.762,-40.039,-96.680
1687767270.008,-45.898,-22.461,-31.250,-47.363,-178.711
1687767270.011,-49.805,-20.020,-31.738,-49.316,-96.191
1687767270.015,-50.293,-29.785,-36.133,-55.664,-3.906
1687767270.019,-55.176,-33.691,-40.527,-79.102,-96.680
1687767270.023,-55.664,-29.297,-37.109,-82.031,-182.617
1687767270.027,-42.480,-29.785,-27.832,-63.965,103.516
1687767270.031,-38.086,-33.691,-26.855,-68.848,121.582
1687767270.035,-38.086,-36.621,-32.715,-83.984,-133.301
1687767270.038,-31.250,-34.668,-28.320,-80.078,-47.363
1687767270.042,-35.645,-34.668,-30.762,-73.242,165.527
1687767270.046,-56.641,-37.109,-32.715,-73.242,-1.953
1687767270.050,-56.641,-37.598,-28.809,-65.918,-159.668
1687767270.054,-54.199,-41.504,-29.297,-51.270,-106.445
1687767270.055,-51.758,-43.457,-23.926,-48.828,-133.301
1687767270.059,-43.945,-34.668,-24.414,-50.781,-205.566
1687767270.063,-60.059,-31.250,-23.926,-32.715,-163.574
1687767270.067,-62.988,-38.086,-22.461,-30.762,-116.211
1687767270.071,-53.711,-39.062,-26.855,-34.180,-95.703
1687767270.075,-69.824,-42.969,-27.832,-32.715,-25.391
1687767270.079,-77.637,-47.852,-26.367,-42.480,33.203
1687767270.082,-63.965,-50.781,-28.320,-37.598,263.672
1687767270.086,-62.988,-47.852,-34.668,-31.250,272.461
1687767270.090,-68.848,-42.480,-31.738,-48.828,-81.543
1687767270.094,-68.848,-44.922,-28.809,-70.312,-87.402
1687767270.098,-55.176,-42.480,-31.738,-65.430,-27.832
1687767270.100,-50.781,-40.039,-33.203,-54.199,-111.328
1687767270.104,-64.941,-39.062,-31.738,-62.500,-111.816
1687767270.108,-61.523,-37.109,-30.273,-69.824,2.930
1687767270.112,-48.340,-41.016,-36.133,-70.312,61.035
1687767270.116,-47.852,-44.434,-41.504,-71.289,-72.266
1687767270.120,-60.059,-43.945,-46.387,-83.496,-110.352
1687767270.124,-72.754,-52.246,-46.387,-91.309,77.148
1687767270.127,-66.406,-53.711,-41.504,-88.379,311.523
1687767270.131,-51.758,-50.781,-43.945,-87.891,118.652
1687767270.135,-64.453,-51.758,-45.410,-92.773,-153.809
1687767270.139,-69.336,-48.828,-33.203,-100.098,-102.539
1687767270.143,-56.152,-42.480,-27.832,-99.121,-54.688
1687767270.145,-45.898,-43.457,-26.367,-78.125,-52.246
1687767270.149,-45.410,-47.363,-23.926,-65.918,-52.246
1687767270.153,-45.410,-49.805,-20.996,-66.406,-63.477
1687767270.157,-45.410,-52.246,-18.066,-54.199,-83.008
1687767270.161,-32.227,-51.270,-22.949,-47.363,-94.727
1687767270.165,-11.230,-46.875,-18.066,-39.551,-74.707
1687767270.169,-19.043,-49.805,-22.949,-35.645,159.668
1687767270.172,-40.039,-56.641,-31.738,-30.273,128.418
1687767270.176,-42.480,-55.664,-32.227,-36.621,-226.562
1687767270.180,-36.133,-57.617,-29.785,-37.109,-131.836
1687767270.184,-12.695,-50.293,-26.855,-23.926,27.832
1687767270.188,7.324,-34.180,-44.434,-33.203,-54.199
1687767270.190,6.836,-34.668,-50.293,-47.852,-198.242
1687767270.194,9.766,-42.480,-39.551,-43.457,-95.215
1687767270.198,25.879,-44.434,-42.480,-22.461,70.312
1687767270.202,31.738,-41.504,-45.410,-21.973,-80.078
1687767270.206,20.508,-32.227,-44.434,-41.016,-224.121
1687767270.210,14.648,-31.250,-42.969,-40.039,-52.246
1687767270.214,7.812,-35.156,-40.039,-35.645,213.379
1687767270.217,2.441,-29.785,-41.016,-39.551,-23.926
1687767270.221,-0.977,-32.227,-41.504,-43.457,-195.312
1687767270.225,-7.812,-41.016,-41.016,-46.387,-126.465
1687767270.229,-9.766,-41.504,-39.551,-35.645,-150.879
1687767270.233,-17.090,-46.875,-38.574,-36.621,-114.258
1687767270.238,-21.484,-50.293,-36.621,-37.109,-79.590
1687767270.242,-18.555,-44.434,-33.691,-34.668,9.766
1687767270.246,-26.367,-41.992,-33.691,-34.668,33.203
1687767270.250,-24.902,-46.387,-26.367,-35.156,-139.160
1687767270.254,-11.230,-45.410,-23.438,-31.738,-108.887
1687767270.258,-19.531,-46.387,-27.344,-35.156,49.316
1687767270.262,-27.832,-47.852,-27.832,-43.945,56.641
1687767270.265,-26.855,-46.387,-26.367,-43.457,-26.855
1687767270.269,-31.250,-42.969,-31.250,-43.945,-138.184
1687767270.273,-31.738,-41.016,-33.691,-38.574,21.973
1687767270.277,-27.832,-43.945,-35.645,-29.785,110.840
1687767270.281,-28.809,-42.969,-42.969,-30.762,-97.168
1687767270.296,-28.320,-46.875,-46.387,-28.809,-30.762
1687767270.300,-21.973,-45.410,-45.410,-33.203,103.027
1687767270.304,-10.742,-38.086,-48.828,-48.340,54.199
1687767270.308,-1.465,-33.691,-47.363,-41.016,-71.777
1687767270.312,0.488,-30.273,-47.852,-26.367,-90.820
1687767270.316,3.906,-38.574,-51.758,-33.691,290.039
1687767270.320,4.395,-47.852,-45.898,-30.762,318.848
1687767270.323,8.789,-45.410,-36.133,-0.977,-122.070
1687767270.327,18.066,-26.855,-42.969,6.348,-74.219
1687767270.331,13.184,-18.555,-53.711,-3.906,20.508
1687767270.335,-1.953,-20.996,-53.223,-15.137,-116.699
1687767270.339,-19.531,-23.926,-57.617,-29.785,-161.621
1687767270.340,-29.785,-24.902,-63.477,-41.992,-142.578
1687767270.344,-44.922,-19.043,-70.312,-63.477,-138.672
1687767270.348,-56.152,-15.137,-75.195,-72.754,-158.691
1687767270.352,-64.453,-16.113,-73.242,-78.613,-167.480
1687767270.356,-66.406,-16.113,-81.543,-91.797,-42.969
1687767270.360,-57.129,-17.578,-88.867,-98.145,35.645
1687767270.364,-67.871,-13.672,-86.914,-114.258,-54.199
1687767270.367,-58.105,-15.137,-89.355,-113.281,-64.453
1687767270.371,-50.781,-12.207,-90.820,-95.703,142.578
1687767270.375,-53.223,-5.859,-88.867,-97.168,277.344
1687767270.379,-49.805,-5.859,-93.262,-110.352,-30.273
1687767270.383,-45.898,-7.324,-97.656,-105.957,-116.699
1687767270.385,-31.250,-7.812,-98.633,-93.262,-109.863
1687767270.389,-24.414,-9.766,-101.562,-88.379,-95.215
1687767270.393,-15.625,-7.812,-102.051,-77.637,-57.129
1687767270.397,-12.207,1.465,-102.539,-71.289,-62.988
1687767270.401,-6.836,6.348,-103.027,-62.500,15.625
1687767270.405,1.953,11.230,-101.562,-58.594,39.062
1687767270.409,8.789,12.207,-104.004,-62.988,28.809
1687767270.412,16.113,7.324,-98.633,-54.199,79.590
1687767270.416,11.230,9.766,-92.773,-34.180,238.770
1687767270.420,-6.836,8.789,-92.773,-37.109,36.133
1687767270.424,-23.438,1.465,-92.773,-57.129,-178.223
1687767270.428,-17.090,-3.906,-91.309,-59.570,-76.172
1687767270.430,-15.625,-8.789,-88.867,-41.016,-42.480
1687767270.434,-17.578,-12.695,-82.520,-39.062,-112.305
1687767270.438,-17.578,-16.113,-77.148,-44.922,-184.082
1687767270.442,-23.926,-17.578,-77.637,-55.176,-114.258
1687767270.446,-21.973,-16.602,-73.730,-54.688,-50.781
1687767270.450,-6.836,-16.113,-67.383,-46.387,25.879
1687767270.454,-1.465,-14.160,-64.453,-59.570,-45.898
1687767270.457,-9.766,-15.625,-60.547,-64.941,42.480
1687767270.461,-13.672,-21.973,-55.176,-54.199,112.793
1687767270.465,-14.160,-21.973,-52.246,-52.734,-166.992
1687767270.469,-21.484,-19.531,-56.152,-63.477,-169.922
1687767270.473,-16.113,-17.090,-56.152,-61.035,-10.254
1687767270.475,-7.812,-13.184,-53.711,-52.246,-77.148
1687767270.479,-13.184,-11.230,-56.641,-49.805,-153.320
1687767270.483,-3.906,-11.719,-60.059,-49.805,-32.715
1687767270.487,-0.977,-12.207,-57.129,-39.062,18.066
1687767270.491,-4.395,-13.672,-57.617,-40.039,-59.082
1687767270.495,3.418,-16.602,-52.734,-38.574,-35.156
1687767270.499,6.836,-20.020,-51.270,-32.227,113.770
1687767270.502,6.348,-24.414,-56.152,-30.273,199.219
1687767270.506,10.254,-26.367,-52.734,-41.504,0.488
1687767270.510,-4.883,-31.738,-54.199,-46.875,-190.918
1687767270.514,-0.977,-37.109,-57.617,-41.504,-117.188
1687767270.518,14.648,-30.762,-55.176,-44.922,-41.016
1687767270.521,10.254,-21.973,-47.363,-44.434,-80.566
1687767270.525,1.953,-29.785,-42.480,-35.645,-106.445
1687767270.529,-12.695,-38.086,-45.898,-44.922,65.918
1687767270.533,-25.391,-36.133,-51.758,-67.871,69.336
1687767270.537,-26.367,-31.250,-49.805,-60.547,-71.289
1687767270.541,-11.230,-27.832,-44.922,-52.734,-76.660
1687767270.545,-3.906,-29.785,-47.363,-49.805,232.422
1687767270.548,-4.395,-30.273,-43.945,-47.363,327.148
1687767270.552,-14.160,-31.250,-38.574,-55.176,-59.570
1687767270.556,-26.855,-31.250,-44.434,-58.594,-138.184
1687767270.560,-25.879,-37.109,-43.945,-64.941,-42.480
1687767270.564,-10.742,-41.016,-38.574,-66.406,-70.801
1687767270.567,-10.254,-31.738,-40.039,-52.734,-135.254
1687767270.571,-9.277,-26.855,-40.527,-36.621,-102.539
1687767270.575,-2.930,-24.414,-42.480,-44.434,100.586
1687767270.579,-27.832,-16.602,-47.363,-73.242,51.758
1687767270.583,-34.668,-6.836,-45.410,-61.035,-116.211
1687767270.587,-51.270,-6.836,-46.875,-58.105,6.836
1687767270.591,-69.336,-10.742,-47.363,-59.570,319.824
1687767270.594,-62.988,-6.348,-42.480,-42.969,224.121
1687767270.598,-64.941,-6.836,-46.387,-63.965,-84.473
1687767270.602,-71.289,-10.742,-48.828,-66.895,-51.270
1687767270.606,-69.336,-11.719,-47.852,-75.195,-64.453
1687767270.610,-77.637,-8.789,-43.457,-88.867,-92.285
1687767270.611,-89.844,-9.277,-35.645,-81.543,-49.316
1687767270.615,-79.102,-11.719,-27.344,-83.496,-2.441
1687767270.619,-68.359,-14.648,-28.809,-82.520,5.859
1687767270.623,-62.012,-19.531,-31.738,-67.871,-31.738
1687767270.627,-57.617,-13.672,-26.855,-62.988,-116.699
1687767270.631,-69.824,-12.207,-29.297,-62.988,149.902
1687767270.635,-58.594,-17.578,-28.809,-59.082,316.895
1687767270.638,-54.688,-16.113,-22.461,-63.965,-40.039
1687767270.642,-65.918,-24.414,-21.484,-82.520,-151.367
1687767270.646,-56.152,-27.832,-18.555,-66.895,-34.180
1687767270.650,-61.035,-26.367,-14.160,-48.828,-70.312
1687767270.654,-68.848,-27.832,-7.324,-56.152,-122.559
1687767270.669,-62.012,-22.949,-5.859,-50.293,-44.922
1687767270.673,-58.594,-24.902,-11.719,-54.199,45.410
1687767270.677,-57.129,-27.832,-9.766,-61.035,-38.574
1687767270.681,-61.523,-25.391,-5.371,-58.105,-160.645
1687767270.685,-70.801,-25.391,-6.836,-60.547,-82.031
1687767270.689,-67.871,-26.367,-4.883,-47.363,291.016
1687767270.693,-73.730,-24.414,-5.859,-47.363,219.238
1687767270.696,-74.707,-27.832,-12.695,-53.711,-14.160
1687767270.700,-67.871,-29.785,-10.742,-49.805,76.660
1687767270.704,-62.012,-24.902,-10.254,-54.199,146.973
1687767270.708,-60.059,-24.414,-11.719,-50.293,-36.133
1687767270.712,-59.082,-23.926,-9.277,-54.688,-186.035
1687767270.714,-54.199,-17.578,-10.742,-63.477,-97.168
1687767270.718,-39.062,-17.578,-14.648,-55.664,-84.473
1687767270.722,-24.902,-20.020,-19.531,-60.547,-150.879
1687767270.726,-41.504,-13.672,-20.020,-55.176,-112.793
1687767270.730,-33.691,-16.113,-19.043,-53.711,-77.148
1687767270.734,-34.668,-21.484,-23.926,-66.895,-7.324
1687767270.738,-56.152,-19.043,-23.926,-65.430,73.730
1687767270.741,-40.527,-17.578,-20.020,-60.059,-66.895
1687767270.745,-32.227,-18.555,-22.461,-56.641,174.316
1687767270.749,-28.809,-16.113,-21.973,-53.223,370.117
1687767270.753,-30.762,-13.672,-11.230,-51.758,-62.988
1687767270.757,-25.879,-17.578,-9.766,-50.293,-128.418
1687767270.759,-26.367,-18.555,-18.066,-53.711,-93.262
1687767270.763,-42.480,-20.508,-16.602,-50.781,-113.281
1687767270.767,-48.340,-20.508,-11.719,-34.180,-62.012
1687767270.771,-56.641,-20.508,-18.555,-31.250,-56.152
1687767270.775,-58.594,-17.090,-14.648,-37.109,-5.859
1687767270.779,-74.219,-20.996,-15.137,-34.180,0.000
1687767270.783,-69.824,-31.738,-24.902,-34.668,-41.504
1687767270.786,-57.617,-35.645,-24.902,-38.574,-16.113
1687767270.790,-55.176,-35.645,-27.832,-37.598,114.746
1687767270.794,-52.246,-29.785,-29.785,-43.457,-57.617
1687767270.798,-61.523,-30.762,-26.855,-38.574,-178.223
1687767270.802,-61.523,-31.250,-25.879,-42.969,7.812
1687767270.804,-37.109,-24.902,-21.973,-54.688,-2.930
1687767270.808,-24.902,-26.367,-21.484,-39.062,-105.957
1687767270.812,-23.438,-27.344,-24.414,-45.410,-113.770
1687767270.816,-15.625,-25.879,-25.391,-45.410,-146.973
1687767270.820,-24.902,-28.320,-25.879,-46.875,-104.492
1687767270.824,-18.066,-28.809,-22.949,-57.129,-26.855
1687767270.828,-15.625,-30.273,-26.367,-58.105,-45.410
1687767270.831,-24.414,-27.344,-27.832,-68.359,89.355
1687767270.835,-17.090,-26.855,-28.809,-78.613,70.312
1687767270.839,-23.926,-26.367,-30.273,-79.590,-203.125
1687767270.843,-20.020,-28.320,-31.250,-78.125,-179.199
1687767270.847,-23.926,-32.227,-37.598,-84.473,-89.355
1687767270.851,-36.133,-30.273,-37.109,-77.148,-107.422
1687767270.855,-40.039,-30.273,-28.809,-58.105,-103.516
1687767270.859,-42.480,-25.879,-25.391,-44.434,-43.457
1687767270.863,-46.875,-26.367,-27.344,-27.832,123.535
1687767270.867,-65.430,-31.250,-28.320,-25.879,131.836
1687767270.871,-65.430,-30.762,-29.785,-51.758,-31.738
1687767270.875,-63.965,-33.203,-23.438,-49.805,70.801
1687767270.878,-71.777,-33.203,-19.531,-27.832,250.977
1687767270.882,-65.918,-30.762,-25.879,-28.320,22.461
1687767270.886,-61.523,-30.762,-27.832,-28.809,-167.969
1687767270.890,-67.383,-32.715,-28.320,-31.738,-94.727
1687767270.894,-67.383,-37.598,-28.809,-50.293,-71.777
1687767270.895,-53.711,-36.133,-37.598,-59.570,-103.027
1687767270.899,-54.199,-38.086,-53.223,-59.570,-143.555
1687767270.903,-60.547,-33.203,-54.688,-62.988,-82.031
1687767270.907,-53.223,-30.273,-54.199,-52.246,40.039
1687767270.911,-54.688,-32.227,-61.523,-47.852,-9.766
1687767270.915,-49.805,-29.785,-62.012,-57.129,-48.340
1687767270.919,-41.504,-28.809,-62.500,-53.711,216.309
1687767270.922,-28.320,-22.949,-60.547,-47.363,211.426
1687767270.926,-19.043,-23.926,-57.617,-44.922,-115.723
1687767270.930,-12.695,-32.715,-58.594,-41.016,-172.363
1687767270.934,-16.113,-35.645,-60.547,-36.621,17.090
1687767270.938,-27.832,-29.297,-58.105,-28.320,48.340
1687767270.940,-24.902,-20.508,-56.641,-37.598,-160.156
1687767270.944,-25.879,-26.367,-54.688,-52.734,-37.109
1687767270.948,-36.621,-29.297,-51.270,-57.617,146.484
1687767270.952,-36.133,-23.926,-49.316,-61.035,37.598
1687767270.956,-36.133,-22.949,-45.898,-57.129,-181.641
1687767270.960,-45.898,-28.320,-42.969,-36.133,-99.121
1687767270.964,-46.387,-35.156,-43.945,-29.785,47.363
1687767270.967,-52.246,-35.645,-40.039,-32.715,-2.930
1687767270.971,-60.547,-34.668,-34.668,-29.297,-107.910
1687767270.975,-63.965,-31.738,-39.551,-27.832,-66.895
1687767270.979,-67.871,-26.367,-41.992,-27.832,102.539
1687767270.983,-47.363,-24.414,-44.434,-27.832,-90.332
1687767270.985,-29.297,-20.020,-48.828,-20.996,-154.297
1687767270.989,-39.062,-13.672,-43.457,-15.137,-50.293
1687767270.993,-54.688,-17.578,-39.551,-14.648,-42.480
1687767270.997,-54.199,-21.973,-42.969,-30.273,-116.699
1687767271.001,-47.852,-23.438,-47.363,-38.086,-187.012
1687767271.005,-39.062,-21.973,-46.387,-41.992,-6.836
1687767271.009,-25.879,-22.461,-41.992,-54.688,58.105
1687767271.012,-30.273,-20.020,-41.016,-50.293,-76.172
1687767271.016,-42.480,-16.113,-39.062,-51.270,-151.367
1687767271.020,-48.828,-19.531,-42.969,-54.199,49.805
1687767271.024,-48.828,-17.090,-44.922,-50.293,111.328
1687767271.028,-50.293,-18.066,-47.363,-53.223,-206.543
1687767271.045,-50.293,-20.996,-48.828,-58.594,-168.457
1687767271.049,-53.223,-19.043,-43.457,-59.082,3.418
1687767271.053,-41.504,-17.090,-43.945,-53.711,-35.156
1687767271.057,-29.785,-20.996,-44.434,-52.246,-158.203
1687767271.061,-41.016,-28.809,-44.434,-54.688,-58.105
1687767271.065,-38.086,-25.391,-40.039,-45.898,218.262
1687767271.069,-36.621,-20.996,-39.062,-39.062,137.207
1687767271.072,-21.973,-22.949,-42.969,-48.828,-96.680
1687767271.076,-14.160,-24.414,-47.363,-55.176,-2.441
1687767271.080,-41.016,-23.438,-50.293,-49.316,165.527
1687767271.084,-54.688,-21.484,-46.875,-54.688,-12.207
1687767271.088,-58.594,-22.461,-47.852,-55.176,-108.398
1687767271.090,-48.340,-25.879,-48.340,-42.480,5.371
1687767271.094,-46.875,-29.785,-42.969,-36.621,37.598
1687767271.098,-46.387,-30.273,-38.574,-45.898,-78.125
1687767271.102,-42.969,-31.250,-39.062,-57.129,-56.152
1687767271.106,-36.133,-34.180,-37.109,-61.523,-44.434
1687767271.110,-45.898,-37.598,-36.621,-61.035,-49.805
1687767271.114,-56.641,-33.203,-37.598,-62.500,-62.500
1687767271.117,-44.434,-31.250,-35.645,-56.641,-109.863
1687767271.121,-42.969,-31.738,-31.738,-38.574,91.797
1687767271.125,-40.039,-25.391,-28.809,-20.020,137.207
1687767271.129,-44.434,-27.344,-36.621,-33.691,-112.793
1687767271.133,-37.109,-30.273,-43.457,-40.039,-49.316
1687767271.135,-29.785,-27.832,-40.039,-37.109,-1.465
1687767271.139,-31.250,-30.762,-36.621,-46.875,34.668
1687767271.143,-45.898,-35.645,-34.180,-51.758,34.180
1687767271.147,-51.758,-30.762,-35.645,-51.758,-82.520
1687767271.151,-43.457,-30.762,-39.551,-40.527,85.449
1687767271.155,-58.594,-31.738,-41.504,-40.527,105.957
1687767271.159,-48.828,-26.367,-37.598,-44.922,-110.352
1687767271.162,-32.227,-29.785,-38.574,-44.434,7.324
1687767271.166,-51.758,-28.809,-40.039,-39.551,161.621
1687767271.170,-50.293,-26.855,-41.016,-37.109,1.953
1687767271.174,-34.180,-26.855,-40.039,-45.410,-130.859
1687767271.178,-60.547,-32.227,-36.621,-53.223,-89.844
1687767271.180,-61.523,-34.668,-33.691,-57.129,-106.934
1687767271.184,-48.340,-31.738,-31.738,-56.152,-157.715
1687767271.188,-42.969,-27.832,-31.738,-56.641,-108.887
1687767271.192,-32.715,-24.902,-34.180,-57.129,-41.016
1687767271.196,-34.668,-26.855,-33.203,-53.711,-56.152
1687767271.200,-41.504,-16.113,-30.273,-46.387,-22.949
1687767271.204,-37.109,-20.996,-41.992,-44.922,-37.598
1687767271.207,-46.875,-31.738,-42.969,-46.387,108.398
1687767271.211,-53.711,-26.855,-29.785,-29.785,248.535
1687767271.215,-42.969,-31.250,-30.273,-40.039,-80.078
1687767271.219,-37.598,-32.715,-34.180,-48.828,-115.234
1687767271.223,-48.340,-32.227,-29.297,-41.504,-47.363
1687767271.225,-43.457,-30.273,-26.855,-31.738,-55.176
1687767271.229,-45.410,-25.879,-29.297,-36.621,-19.531
1687767271.233,-64.453,-28.320,-30.273,-59.082,9.277
1687767271.237,-67.871,-30.273,-28.320,-49.805,56.152
1687767271.241,-69.824,-26.855,-24.414,-51.758,-13.184
1687767271.245,-71.777,-25.879,-29.297,-61.523,-28.809
1687767271.249,-80.078,-26.855,-38.574,-64.941,68.359
1687767271.252,-79.590,-31.250,-40.039,-44.922,375.488
1687767271.256,-69.824,-30.762,-35.156,-40.039,204.102
1687767271.260,-49.316,-30.273,-30.273,-41.016,-189.453
1687767271.264,-42.969,-33.203,-31.250,-42.480,-130.371
1687767271.268,-24.414,-30.273,-34.668,-52.246,-110.840
1687767271.270,-16.602,-25.391,-33.203,-31.738,-150.391
1687767271.274,-35.645,-27.344,-28.320,-26.855,-156.738
1687767271.278,-48.828,-34.668,-27.832,-62.988,-117.188
1687767271.282,-57.617,-38.086,-29.297,-83.496,-126.953
1687767271.286,-41.504,-35.156,-29.297,-75.195,-185.059
1687767271.290,-63.477,-45.898,-26.855,-79.102,-115.234
1687767271.294,-96.191,-64.941,-26.367,-95.215,159.668
1687767271.297,-108.887,-59.570,-29.297,-113.281,208.984
1687767271.301,-113.281,-51.270,-23.438,-129.395,-69.336
1687767271.305,-103.027,-51.758,-26.855,-137.207,-133.789
1687767271.309,-79.102,-55.176,-25.391,-113.281,-20.508
1687767271.313,-71.289,-55.664,-21.973,-91.309,-32.715
1687767271.314,-70.801,-53.223,-23.438,-83.008,-177.246
1687767271.318,-68.848,-53.223,-27.832,-84.961,-106.445
1687767271.322,-62.988,-48.340,-34.668,-84.473,72.266
1687767271.326,-61.035,-43.945,-25.391,-68.359,-32.715
1687767271.330,-65.430,-54.688,-18.555,-67.871,-166.016
1687767271.334,-60.547,-67.871,-20.508,-68.848,3.906
1687767271.338,-54.199,-57.129,-17.578,-56.152,181.152
1687767271.341,-39.551,-45.410,-28.320,-55.664,12.695
1687767271.345,-36.133,-43.457,-37.598,-61.523,-210.938
1687767271.349,-47.852,-49.805,-32.715,-66.406,-61.523
1687767271.353,-54.199,-57.617,-31.738,-64.453,44.922
1687767271.357,-56.152,-53.711,-32.715,-60.059,-170.410
1687767271.374,-48.828,-53.711,-30.762,-55.664,-189.453
1687767271.378,-23.438,-44.922,-29.297,-54.199,-27.344
1687767271.382,-11.719,-35.156,-32.227,-50.293,-24.902
1687767271.386,-18.066,-38.086,-34.668,-56.152,-109.375
1687767271.390,-25.391,-39.551,-37.109,-70.312,-38.574
1687767271.394,-24.902,-39.062,-38.574,-66.895,101.562
1687767271.398,-36.133,-41.016,-41.016,-49.805,104.980
1687767271.401,-27.344,-38.574,-37.109,-39.551,-21.484
1687767271.405,-16.113,-37.109,-35.156,-47.852,-67.383
1687767271.409,-17.090,-41.992,-37.598,-54.199,63.965
1687767271.413,-5.859,-41.504,-36.621,-55.664,84.473
1687767271.417,6.836,-35.156,-37.109,-46.387,-136.230
1687767271.420,3.418,-37.109,-35.645,-46.875,-59.570
1687767271.424,-3.418,-36.621,-34.180,-70.801,176.758
1687767271.428,-8.789,-33.691,-31.738,-61.035,83.496
1687767271.432,-11.719,-31.738,-27.344,-34.668,-154.297
1687767271.436,-10.742,-34.180,-24.902,-32.715,-106.934
1687767271.440,-22.461,-38.086,-31.738,-39.551,81.055
1687767271.444,-23.438,-40.527,-35.645,-43.945,46.875
1687767271.447,-25.391,-37.598,-32.715,-50.293,-113.770
1687767271.451,-26.855,-38.574,-34.668,-51.270,-13.672
1687767271.455,-27.832,-41.016,-39.062,-39.062,213.379
1687767271.459,-27.344,-34.668,-43.457,-46.387,-20.996
1687767271.463,-26.855,-35.645,-41.504,-60.059,-187.988
1687767271.470,-33.691,-37.109,-32.715,-46.875,-105.469
1687767271.474,-40.527,-37.598,-29.785,-45.410,-94.238
1687767271.478,-31.250,-38.574,-28.320,-55.176,-61.523
1687767271.482,-20.996,-32.715,-29.297,-65.430,-67.383
1687767271.486,-27.344,-30.762,-31.738,-61.523,-1.953
1687767271.490,-27.832,-37.109,-24.902,-55.664,121.582
1687767271.494,-22.949,-35.645,-25.879,-62.012,101.074
1687767271.497,-6.348,-34.180,-26.855,-53.223,-62.500
1687767271.501,0.977,-34.180,-30.273,-38.574,56.152
1687767271.505,-17.578,-30.762,-32.227,-31.738,121.582
1687767271.509,-26.367,-30.273,-26.367,-41.016,-161.133
1687767271.513,-23.438,-31.738,-24.902,-41.504,-116.699
1687767271.509,-30.762,-30.762,-26.367,-45.898,-10.254
1687767271.513,-33.203,-32.227,-29.297,-49.316,-25.391
1687767271.517,-23.926,-32.715,-26.367,-53.711,-113.770
1687767271.521,-17.090,-28.809,-25.879,-50.781,-113.770
1687767271.525,-21.973,-32.227,-36.621,-49.316,59.570
1687767271.529,-31.738,-38.086,-40.527,-55.176,79.102
1687767271.533,-26.855,-36.621,-38.574,-52.246,-25.879
1687767271.536,-12.695,-37.598,-40.527,-60.547,47.363
1687767271.540,-6.348,-39.062,-38.574,-60.547,149.902
1687767271.544,-16.113,-31.250,-42.480,-47.363,-27.832
1687767271.548,-15.137,-25.879,-50.293,-40.039,-195.801
1687767271.552,-3.418,-18.555,-46.875,-29.785,-63.965
1687767271.554,10.742,-17.090,-44.434,-29.785,68.848
1687767271.558,9.277,-18.066,-43.945,-46.387,-146.973
1687767271.562,3.906,-9.277,-44.922,-40.527,-177.734
1687767271.566,6.836,-11.719,-45.898,-39.062,-47.363
1687767271.570,14.648,-15.625,-42.480,-38.086,-75.195
1687767271.574,12.207,-17.578,-34.668,-24.414,-24.902
1687767271.578,0.488,-25.391,-34.668,-36.133,38.574
1687767271.581,3.418,-26.855,-39.551,-40.527,252.441
1687767271.585,21.484,-30.762,-41.992,-26.367,366.699
1687767271.589,20.508,-30.273,-43.945,-27.832,-30.273
1687767271.593,0.488,-21.484,-43.457,-33.203,-134.766
1687767271.597,3.418,-21.484,-44.922,-29.785,-88.379
1687767271.600,7.812,-26.855,-43.457,-32.227,-148.926
1687767271.604,-9.277,-29.297,-38.574,-21.484,-22.949
1687767271.608,-4.883,-20.508,-35.156,-13.672,78.125
1687767271.612,-1.953,-15.137,-37.109,-29.297,71.289
1687767271.616,-11.230,-17.090,-33.691,-28.809,-64.941
1687767271.620,-4.395,-15.137,-33.691,-21.973,-111.328
1687767271.624,-26.367,-17.090,-41.016,-36.133,54.199
1687767271.627,-34.180,-21.973,-42.969,-32.715,194.336
1687767271.631,-29.785,-23.926,-38.574,-34.180,-15.625
1687767271.635,-43.457,-28.809,-39.551,-47.852,-199.707
1687767271.639,-43.457,-25.879,-42.480,-47.363,-58.105
1687767271.643,-28.809,-22.461,-38.574,-44.434,-37.109
1687767271.645,-14.648,-20.020,-39.062,-47.363,-176.758
1687767271.649,-13.184,-17.578,-40.039,-45.410,-159.668
1687767271.653,-13.184,-20.508,-37.598,-50.781,-100.098
1687767271.657,-8.301,-26.367,-41.992,-50.293,-98.145
1687767271.661,-12.207,-26.855,-44.434,-49.805,-147.461
1687767271.665,-4.395,-26.367,-45.898,-48.340,-58.594
1687767271.669,-15.137,-28.320,-44.434,-28.320,176.270
1687767271.672,-29.785,-31.250,-42.480,-32.227,155.273
1687767271.676,-17.578,-31.738,-45.898,-40.039,-89.844
1687767271.680,-17.090,-32.227,-42.969,-44.434,-82.031
1687767271.684,-12.695,-29.297,-40.039,-56.152,-59.570
1687767271.688,-19.531,-26.367,-44.434,-54.688,-61.523
1687767271.691,-37.598,-27.832,-40.527,-39.062,-60.059
1687767271.695,-38.574,-29.785,-34.180,-33.691,-41.992
1687767271.699,-30.762,-37.109,-35.156,-33.203,174.316
1687767271.703,-25.879,-32.715,-37.598,-34.180,90.332
1687767271.707,-26.367,-30.762,-34.668,-41.992,-208.008
1687767271.711,-32.227,-38.086,-33.691,-40.039,-98.633
1687767271.715,-37.109,-39.062,-36.133,-38.086,144.043
1687767271.718,-42.969,-38.086,-40.527,-42.480,-51.758
1687767271.722,-27.344,-36.621,-43.457,-44.922,-192.383
1687767271.726,-15.625,-24.902,-41.992,-29.297,-125.977
1687767271.730,-21.484,-21.973,-39.551,-27.832,-117.188
1687767271.734,-25.391,-32.715,-39.062,-43.945,-112.793
1687767271.738,-16.602,-23.926,-33.203,-40.039,-131.348
1687767271.742,-10.742,-18.066,-25.879,-34.180,-117.188
1687767271.746,-17.090,-36.133,-32.715,-42.480,-83.008
1687767271.750,-19.531,-33.691,-39.551,-34.668,-145.508
1687767271.754,-23.438,-22.461,-41.016,-26.367,-193.848
1687767271.758,-24.414,-28.809,-41.504,-38.574,61.523
1687767271.762,-28.320,-36.133,-41.992,-45.898,201.172
1687767271.765,-24.902,-35.156,-41.992,-63.477,-11.719
1687767271.769,-8.301,-30.762,-39.551,-68.848,-118.652
1687767271.773,-36.621,-31.250,-39.551,-57.129,2.930
1687767271.777,-52.734,-33.691,-37.598,-52.734,56.152
1687767271.781,-41.016,-30.273,-34.180,-53.223,-83.496
1687767271.795,-42.480,-28.809,-42.480,-65.430,-86.426
1687767271.799,-36.133,-32.227,-50.293,-75.195,101.074
1687767271.803,-30.762,-34.668,-48.828,-69.336,74.219
1687767271.807,-55.664,-37.109,-44.922,-62.988,-83.008
1687767271.811,-63.477,-37.598,-41.016,-63.477,4.883
1687767271.815,-52.734,-34.668,-40.527,-50.781,367.188
1687767271.819,-57.129,-44.434,-47.852,-38.086,318.359
1687767271.822,-54.199,-45.898,-46.387,-43.945,-58.105
1687767271.826,-41.016,-38.574,-43.457,-50.781,-13.672
1687767271.830,-29.297,-46.387,-45.898,-50.781,49.805
1687767271.834,-20.996,-40.527,-41.992,-56.152,-53.223
1687767271.838,-30.273,-26.855,-39.062,-56.641,-83.008
1687767271.840,-35.645,-29.297,-44.922,-54.688,-39.551
1687767271.844,-23.438,-33.691,-47.363,-54.199,-22.461
1687767271.848,-29.785,-32.715,-41.504,-58.594,-78.613
1687767271.852,-29.785,-28.809,-43.945,-50.781,-113.770
1687767271.856,-32.227,-30.762,-43.457,-38.086,-118.652
1687767271.860,-26.855,-36.621,-40.527,-61.035,-109.375
1687767271.864,-13.672,-37.109,-40.527,-53.223,-39.062
1687767271.867,-17.578,-37.109,-39.551,-34.180,-106.934
1687767271.871,-30.273,-37.109,-38.574,-33.203,-2.930
1687767271.875,-34.180,-29.785,-33.203,-21.973,184.082
1687767271.879,-36.621,-34.668,-28.320,-18.555,-103.027
1687767271.883,-46.387,-38.574,-33.203,-27.832,-233.398
1687767271.885,-53.711,-36.133,-36.621,-41.992,-207.031
1687767271.889,-60.059,-35.645,-34.180,-42.969,-187.500
1687767271.893,-56.641,-31.250,-31.250,-24.414,-111.328
1687767271.897,-49.316,-30.762,-35.645,-27.832,-134.277
1687767271.901,-38.086,-36.133,-39.551,-39.551,-36.133
1687767271.905,-48.828,-41.992,-37.598,-48.828,5.859
1687767271.909,-43.457,-41.016,-40.527,-47.363,-84.961
1687767271.912,-44.922,-38.086,-43.457,-51.270,-70.312
1687767271.916,-60.547,-41.504,-45.410,-44.922,137.695
1687767271.920,-39.551,-41.504,-43.457,-50.293,60.547
1687767271.924,-25.391,-40.527,-40.527,-69.336,-116.699
1687767271.928,-39.062,-43.945,-45.898,-53.223,38.574
1687767271.930,-49.805,-39.551,-44.434,-55.176,67.871
1687767271.934,-37.598,-32.227,-36.621,-67.871,-58.105
1687767271.938,-28.809,-35.156,-35.645,-62.012,-54.199
1687767271.942,-28.809,-41.016,-40.039,-53.223,-26.855
1687767271.946,-21.484,-43.945,-40.039,-63.965,-18.066
1687767271.950,-30.762,-38.574,-35.645,-50.781,7.324
1687767271.954,-25.391,-32.715,-29.785,-38.574,-4.395
1687767271.957,-26.367,-39.062,-33.691,-59.082,189.941
1687767271.961,-36.133,-40.527,-38.086,-64.453,245.117
1687767271.965,-36.621,-38.086,-38.574,-59.082,-51.270
1687767271.969,-36.621,-42.480,-39.551,-48.828,-119.141
1687767271.973,-62.500,-48.340,-35.645,-44.922,-11.230
1687767271.975,-81.543,-48.340,-28.320,-43.945,3.906
1687767271.979,-77.637,-47.363,-29.785,-41.992,-93.262
1687767271.983,-79.590,-45.410,-33.203,-38.086,-104.980
1687767271.987,-77.637,-42.480,-30.762,-34.180,150.391
1687767271.991,-85.938,-48.828,-30.762,-48.828,68.359
1687767271.995,-76.660,-49.316,-32.227,-53.711,-121.094
1687767271.999,-71.777,-45.898,-34.180,-52.246,92.773
1687767272.002,-95.215,-51.270,-38.574,-56.152,248.535
1687767272.006,-95.703,-51.270,-41.504,-62.988,63.477
1687767272.010,-94.238,-46.875,-40.039,-50.781,-130.371
1687767272.014,-88.379,-47.363,-37.598,-40.527,-81.543
1687767272.018,-62.012,-42.480,-38.086,-60.059,-60.059
1687767272.021,-67.871,-40.039,-41.992,-62.988,-161.621
1687767272.025,-68.848,-33.691,-40.527,-61.035,-139.160
1687767272.029,-63.477,-25.391,-37.109,-57.129,60.059
1687767272.033,-82.031,-27.344,-36.133,-50.781,-14.160
1687767272.037,-85.938,-36.133,-39.062,-58.105,-176.270
1687767272.041,-89.844,-32.715,-38.086,-50.781,-96.191
1687767272.045,-84.961,-30.273,-37.109,-39.062,210.449
1687767272.048,-78.613,-30.762,-36.133,-41.992,158.203
1687767272.052,-76.660,-31.250,-33.691,-51.270,-201.660
1687767272.056,-84.473,-33.691,-31.738,-47.363,-191.895
1687767272.060,-96.191,-40.527,-29.297,-43.945,-62.012
1687767272.064,-90.332,-41.504,-35.156,-41.504,-72.754
1687767272.065,-94.238,-38.574,-40.039,-48.340,-145.996
1687767272.069,-92.773,-30.273,-37.598,-49.805,-72.754
1687767272.073,-89.355,-26.855,-31.250,-34.668,126.465
1687767272.077,-98.145,-38.574,-31.250,-41.504,5.371
1687767272.081,-98.145,-42.969,-32.227,-37.109,-130.371
1687767272.085,-83.984,-41.016,-31.738,-43.945,-10.254
1687767272.089,-88.867,-40.527,-38.086,-55.176,318.359
1687767272.092,-96.680,-52.734,-42.969,-51.270,281.250
1687767272.096,-100.098,-49.805,-41.016,-44.922,-84.961
1687767272.100,-97.656,-38.574,-34.668,-43.457,-119.629
1687767272.104,-87.402,-37.598,-33.203,-50.781,-113.281
1687767272.108,-93.262,-43.457,-36.133,-34.180,-173.340
1687767272.111,-100.098,-50.781,-37.109,-33.203,-107.910
1687767272.115,-112.305,-41.992,-35.645,-42.969,-60.059
1687767272.119,-121.582,-38.574,-34.668,-41.016,-88.867
1687767272.123,-111.816,-37.109,-33.691,-44.922,-158.203
1687767272.127,-105.469,-40.527,-35.156,-50.781,-180.176
1687767272.131,-120.605,-40.039,-41.016,-57.617,-58.594
1687767272.135,-132.812,-31.738,-39.551,-68.848,42.480
1687767272.138,-123.535,-37.598,-41.504,-68.848,-15.137
1687767272.142,-93.750,-35.645,-42.480,-65.430,-152.344
1687767272.146,-58.105,-32.715,-38.086,-58.594,59.082
1687767272.150,-59.570,-39.551,-43.457,-59.082,202.148
1687767272.154,-62.012,-38.574,-40.527,-64.941,-46.387
1687767272.170,-40.527,-36.133,-37.598,-61.523,-80.078
1687767272.174,-20.020,-38.086,-36.621,-62.012,-2.441
1687767272.178,-18.555,-47.852,-42.969,-67.871,-54.199
1687767272.182,-34.180,-52.246,-48.340,-62.500,-138.672
1687767272.186,-20.508,-46.875,-40.039,-57.129,-81.543
1687767272.190,-33.203,-49.316,-33.691,-41.504,258.301
1687767272.194,-44.922,-56.641,-30.273,-43.945,246.582
1687767272.197,-31.250,-56.152,-30.273,-60.547,-137.695
1687767272.201,-32.715,-49.316,-29.785,-51.270,-71.777
1687767272.205,-19.043,-50.781,-33.203,-41.016,135.742
1687767272.209,-18.555,-53.223,-35.645,-49.316,-60.547
1687767272.213,-22.461,-47.852,-32.715,-62.012,-200.684
1687767272.215,-12.207,-41.016,-36.133,-52.246,-77.637
1687767272.219,-23.926,-42.969,-44.434,-57.129,-40.527
1687767272.223,-31.250,-43.457,-46.875,-76.172,-117.188
1687767272.227,-19.531,-35.156,-47.363,-62.500,-96.680
1687767272.231,-5.859,-32.715,-51.270,-40.527,-10.742
1687767272.235,-0.977,-29.785,-52.246,-37.598,25.391
1687767272.239,7.812,-27.344,-55.176,-48.340,-45.410
1687767272.242,17.090,-23.926,-54.688,-48.340,-182.617
1687767272.246,16.113,-23.926,-54.199,-47.852,3.418
1687767272.250,15.137,-24.902,-56.152,-54.688,120.117
1687767272.254,-4.883,-20.020,-52.246,-57.129,-108.887
1687767272.258,-18.555,-20.996,-45.410,-62.012,-94.238
1687767272.260,-6.836,-24.414,-36.621,-57.617,18.555
1687767272.264,2.441,-25.879,-29.297,-39.551,79.102
1687767272.268,-4.883,-22.461,-27.832,-41.504,-82.031
1687767272.272,-9.277,-20.996,-31.250,-41.016,-121.582
1687767272.276,-21.484,-26.855,-33.203,-35.156,4.883
1687767272.280,-23.438,-30.762,-31.738,-33.203,-40.527
1687767272.284,-11.230,-27.832,-30.273,-39.551,-71.289
1687767272.287,-13.184,-24.902,-32.227,-56.152,0.977
1687767272.291,-23.438,-31.738,-28.809,-53.711,176.758
1687767272.295,-31.738,-36.133,-31.250,-46.387,8.789
1687767272.299,-24.414,-31.250,-34.180,-47.363,-179.688
1687767272.303,-18.066,-27.832,-30.762,-52.734,-37.598
1687767272.306,-10.742,-26.855,-31.738,-65.918,-54.688
1687767272.310,-9.277,-33.203,-35.645,-74.219,-48.828
1687767272.314,-5.371,-36.621,-45.410,-75.195,-61.035
1687767272.318,-5.371,-31.250,-41.016,-65.918,-8.789
1687767272.322,-7.324,-31.250,-35.156,-51.270,26.367
1687767272.326,1.953,-29.297,-47.363,-54.688,-85.449
1687767272.330,12.695,-26.855,-51.270,-50.293,-28.809
1687767272.333,-3.418,-31.250,-48.340,-35.156,173.340
1687767272.337,-21.484,-32.715,-47.363,-41.504,162.598
1687767272.341,-27.344,-31.738,-46.875,-53.223,-116.211
1687767272.345,-35.645,-34.668,-45.898,-64.941,-96.191
1687767272.349,-43.945,-44.922,-42.480,-62.500,-68.848
1687767272.350,-46.875,-43.945,-34.180,-61.523,-125.488
1687767272.354,-35.156,-38.574,-35.156,-63.477,-40.039
1687767272.358,-25.391,-44.434,-36.133,-56.152,53.223
1687767272.362,-29.297,-38.574,-34.668,-51.270,93.750
1687767272.366,-35.156,-31.250,-34.180,-51.270,35.156
1687767272.370,-25.391,-26.367,-29.297,-59.082,-29.785
1687767272.374,-1.465,-24.902,-27.832,-49.805,135.254
1687767272.377,-14.160,-31.250,-32.715,-33.691,354.980
1687767272.381,-41.016,-30.762,-38.086,-35.645,149.902
1687767272.385,-27.344,-35.156,-40.527,-50.293,-196.777
1687767272.389,-3.906,-39.551,-43.945,-48.340,-227.051
1687767272.393,5.859,-37.598,-45.898,-67.383,-165.039
1687767272.395,-8.301,-33.203,-40.527,-84.473,-140.137
1687767272.399,-1.465,-29.297,-38.574,-76.660,-127.441
1687767272.403,-3.418,-27.344,-42.480,-63.965,-75.195
1687767272.407,-8.789,-24.414,-37.109,-67.383,-64.941
1687767272.411,0.488,-25.391,-37.598,-77.148,-75.684
1687767272.415,-10.254,-31.250,-38.086,-69.824,-124.512
1687767272.419,-21.973,-31.738,-34.668,-49.316,109.375
1687767272.422,-33.691,-28.809,-42.969,-52.246,272.949
1687767272.426,-27.344,-25.879,-50.293,-52.246,-29.297
1687767272.430,11.719,-20.020,-49.316,-29.785,-118.652
1687767272.434,8.301,-21.484,-36.621,-20.996,-76.172
1687767272.438,-35.645,-37.109,-20.508,-57.617,-103.027
1687767272.440,-76.660,-50.781,-22.461,-98.633,-158.203
1687767272.444,-112.305,-54.199,-22.949,-108.398,-73.730
1687767272.448,-129.883,-56.152,-19.043,-121.582,57.617
1687767272.452,-157.227,-56.152,-11.230,-125.000,-22.949
1687767272.456,-187.500,-58.594,-9.277,-143.066,-230.469
1687767272.460,-215.820,-62.988,-12.695,-179.199,-54.688
1687767272.464,-221.191,-54.199,-3.418,-171.387,202.148
1687767272.467,-227.051,-55.664,4.395,-167.480,-47.363
1687767272.471,-248.535,-69.336,5.371,-208.984,-191.406
1687767272.475,-249.023,-60.059,6.836,-215.332,-26.367
1687767272.479,-253.906,-60.547,9.766,-223.633,77.637
1687767272.483,-267.090,-69.336,21.973,-250.000,-102.051
1687767272.486,-277.832,-72.754,35.645,-264.648,-179.688
1687767272.490,-297.363,-72.266,40.039,-258.789,-94.727
1687767272.494,-307.617,-69.824,49.316,-259.766,-73.730
1687767272.498,-294.922,-65.430,57.129,-271.484,-130.371
1687767272.502,-303.711,-71.777,59.570,-283.691,-85.938
