timestamps,TP9,AF7,AF8,TP10,Right AUX
1687767703.196,55.176,-26.855,-43.457,-83.008,-46.875
1687767703.200,54.688,-22.949,-50.293,-98.633,-165.527
1687767703.204,35.645,-28.320,-45.898,-92.285,-114.746
1687767703.208,28.809,-33.203,-49.805,-85.449,-21.973
1687767703.212,32.715,-38.086,-47.363,-111.328,-70.801
1687767703.216,48.828,-37.598,-31.738,-93.262,-151.855
1687767703.220,49.805,-39.062,-33.691,-91.797,9.277
1687767703.223,33.203,-33.203,-32.715,-93.262,208.984
1687767703.227,32.227,-28.320,-37.598,-94.238,4.395
1687767703.231,37.109,-31.738,-42.480,-107.910,-153.320
1687767703.235,35.645,-41.504,-33.203,-104.492,-119.141
1687767703.239,26.855,-41.016,-28.809,-102.051,-133.301
1687767703.240,13.672,-35.645,-22.461,-101.562,-173.340
1687767703.244,15.137,-30.762,-27.344,-104.004,-174.805
1687767703.248,25.879,-33.691,-34.180,-103.027,-106.934
1687767703.252,38.574,-39.062,-33.203,-106.445,-106.445
1687767703.256,37.598,-33.203,-32.227,-113.770,-137.207
1687767703.260,25.879,-30.273,-33.203,-106.445,-106.445
1687767703.264,9.766,-37.598,-35.645,-92.773,173.828
1687767703.267,1.953,-41.992,-32.227,-86.426,261.719
1687767703.271,20.020,-34.668,-29.785,-97.168,-118.652
1687767703.275,38.086,-35.156,-29.785,-90.332,-159.180
1687767703.279,26.367,-36.133,-29.297,-90.332,197.754
1687767703.283,-1.465,-34.668,-29.297,-104.492,34.180
1687767703.285,-11.719,-42.480,-38.574,-106.934,-181.641
1687767703.289,-4.883,-39.551,-37.598,-92.773,-82.520
1687767703.293,12.695,-33.203,-29.297,-69.336,-70.801
1687767703.297,8.789,-39.062,-28.809,-59.082,-169.434
1687767703.301,-18.066,-47.852,-29.785,-63.965,-235.840
1687767703.305,-31.738,-45.898,-29.297,-57.129,-109.375
1687767703.309,-57.129,-50.781,-31.250,-53.711,125.977
1687767703.312,-56.641,-50.293,-31.250,-53.711,101.074
1687767703.316,-64.941,-36.133,-22.949,-46.875,-110.840
1687767703.320,-114.746,-36.621,-28.320,-50.781,-48.828
1687767703.324,-145.996,-46.387,-36.133,-36.133,198.242
1687767703.328,-145.508,-52.246,-32.715,-32.227,-42.480
1687767703.345,-137.695,-42.480,-32.227,-42.480,-170.410
1687767703.349,-136.230,-35.645,-32.227,-32.715,-68.359
1687767703.353,-158.691,-40.039,-33.203,-35.645,-104.980
1687767703.357,-183.105,-41.504,-29.297,-32.227,-133.789
1687767703.361,-170.410,-41.016,-24.414,-18.066,-88.379
1687767703.365,-157.227,-43.457,-28.320,-17.090,109.863
1687767703.369,-164.551,-40.527,-33.691,-22.949,125.977
1687767703.372,-183.594,-34.180,-25.879,-19.043,-109.375
1687767703.376,-191.895,-33.691,-23.926,-7.812,-187.500
1687767703.380,-181.641,-33.203,-36.621,-5.859,156.738
1687767703.384,-175.293,-39.551,-36.133,12.207,309.570
1687767703.388,-178.711,-52.246,-20.996,9.766,-84.961
1687767703.390,-204.102,-48.828,-15.625,-13.672,-152.832
1687767703.394,-225.586,-30.762,-21.973,-22.949,64.941
1687767703.398,-215.332,-20.508,-24.902,-25.391,-91.797
1687767703.402,-185.059,-34.180,-23.438,-13.184,-226.074
1687767703.406,-193.359,-44.434,-25.879,-14.160,-156.250
1687767703.410,-218.262,-40.039,-25.879,-20.996,-20.996
1687767703.414,-219.238,-38.574,-23.926,-26.855,1.953
1687767703.417,-200.195,-41.992,-27.832,-31.738,-98.145
1687767703.421,-178.711,-43.945,-27.344,-17.578,4.883
1687767703.425,-182.129,-45.410,-20.996,-7.812,251.953
1687767703.429,-202.637,-45.898,-21.484,-24.414,-45.410
1687767703.433,-206.055,-43.945,-17.090,-31.250,-142.578
1687767703.435,-177.734,-45.410,-13.672,-20.508,84.473
1687767703.439,-138.672,-43.457,-20.508,-7.812,-36.621
1687767703.443,-94.238,-45.410,-25.879,-3.906,-139.648
1687767703.447,-63.965,-47.363,-16.113,1.953,-66.895
1687767703.451,-62.012,-45.898,-13.184,-5.371,-7.324
1687767703.455,-44.434,-48.340,-16.113,0.488,-1.953
1687767703.459,-14.648,-45.898,-12.207,20.508,-68.359
1687767703.462,7.812,-48.340,-8.789,24.414,-103.516
1687767703.466,10.742,-44.434,-11.230,23.926,111.816
1687767703.470,9.766,-45.410,-16.602,16.113,154.785
1687767703.474,34.668,-42.969,-21.973,5.859,-120.117
1687767703.478,55.664,-43.457,-26.367,0.000,-162.598
1687767703.481,81.055,-50.781,-20.996,19.531,156.250
1687767703.485,90.332,-41.016,-12.695,28.809,82.031
1687767703.489,80.566,-36.621,-17.578,12.695,-99.121
1687767703.493,83.984,-40.039,-25.879,17.090,-88.867
1687767703.497,109.375,-37.598,-22.461,20.996,-5.859
1687767703.501,124.023,-28.809,-13.672,25.391,-34.180
1687767703.505,105.957,-29.785,-15.137,24.414,-133.301
1687767703.508,90.820,-38.086,-12.695,20.508,-46.875
1687767703.512,90.820,-31.738,-15.625,22.949,212.891
1687767703.516,116.211,-26.367,-21.973,15.137,-0.488
1687767703.520,135.742,-31.738,-19.043,18.066,-167.969
1687767703.524,126.953,-38.086,-20.508,13.672,-37.598
1687767703.525,125.000,-38.086,-23.438,-3.906,-114.746
1687767703.529,114.258,-34.180,-27.344,-9.766,-201.660
1687767703.533,108.398,-37.109,-27.344,0.000,-134.766
1687767703.537,112.793,-36.133,-25.879,0.488,-62.012
1687767703.541,102.539,-29.297,-28.809,-10.254,-51.758
1687767703.545,74.707,-30.273,-32.227,-24.902,-131.348
1687767703.549,68.848,-31.250,-36.621,-52.246,-167.480
1687767703.552,79.102,-29.297,-39.551,-51.270,72.754
1687767703.556,96.680,-33.691,-43.457,-34.180,220.215
1687767703.560,106.934,-38.086,-47.363,-44.434,-11.719
1687767703.564,84.961,-39.062,-49.316,-71.289,-25.879
1687767703.568,68.848,-28.320,-46.875,-79.590,31.738
1687767703.570,86.914,-16.602,-39.551,-84.961,-125.977
1687767703.574,105.957,-20.508,-42.969,-78.613,-125.488
1687767703.578,99.121,-17.578,-48.828,-80.566,-132.812
1687767703.582,83.496,-16.113,-51.270,-92.773,-123.535
1687767703.586,69.824,-27.344,-54.199,-98.633,-87.891
1687767703.590,67.383,-37.109,-50.781,-94.727,-122.070
1687767703.594,85.449,-35.156,-50.781,-84.473,-45.410
1687767703.597,99.609,-23.926,-48.340,-65.918,316.406
1687767703.601,91.309,-22.461,-45.410,-71.777,173.828
1687767703.605,69.336,-23.926,-53.711,-94.238,-141.113
1687767703.609,72.266,-25.391,-49.316,-89.355,-142.090
1687767703.613,85.938,-26.855,-43.457,-71.289,-141.113
1687767703.615,84.961,-20.508,-42.480,-65.430,-143.066
1687767703.619,76.172,-26.367,-40.527,-68.359,-183.594
1687767703.623,57.617,-27.832,-45.898,-82.520,-92.773
1687767703.627,53.711,-24.902,-43.457,-92.285,-120.605
1687767703.631,61.523,-28.320,-40.039,-78.613,-177.734
1687767703.635,67.871,-29.785,-45.410,-63.477,-53.223
1687767703.639,64.453,-25.879,-51.270,-57.129,229.004
1687767703.642,43.945,-22.461,-52.734,-71.289,139.648
1687767703.646,42.969,-34.180,-53.711,-93.262,-150.391
1687767703.650,63.965,-33.691,-44.922,-79.590,-22.461
1687767703.654,61.523,-27.832,-34.668,-57.129,133.789
1687767703.658,47.363,-39.062,-43.945,-62.500,35.156
1687767703.660,32.227,-44.922,-46.387,-81.543,-134.277
1687767703.664,22.461,-41.504,-38.086,-88.379,-149.414
1687767703.668,35.645,-42.969,-37.598,-73.730,216.797
1687767703.672,59.082,-43.945,-35.645,-49.316,120.117
1687767703.676,57.129,-36.621,-33.203,-53.711,-166.504
1687767703.680,27.832,-34.668,-31.738,-56.641,-52.246
1687767703.684,11.230,-45.898,-29.297,-51.758,61.035
1687767703.687,16.602,-50.293,-26.855,-77.148,-13.672
1687767703.691,27.344,-41.504,-29.785,-80.566,-131.836
1687767703.695,18.555,-39.062,-34.180,-77.637,-20.996
1687767703.699,-2.441,-37.598,-32.715,-76.660,80.078
1687767703.703,1.465,-40.039,-31.250,-71.777,-37.109
1687767703.706,7.324,-51.758,-31.250,-71.289,-86.426
1687767703.710,11.230,-45.410,-32.227,-62.012,3.906
1687767703.714,10.742,-39.551,-36.133,-58.105,0.000
1687767703.718,-12.207,-50.293,-33.203,-64.941,-99.609
1687767703.722,-25.391,-60.547,-21.973,-68.359,-130.371
1687767703.726,-19.531,-59.082,-24.902,-77.637,4.883
1687767703.730,-8.301,-49.316,-33.691,-76.660,13.184
1687767703.733,-16.113,-36.133,-37.598,-66.406,-140.625
1687767703.737,-22.949,-26.855,-30.762,-59.570,-186.035
1687767703.741,-35.645,-34.668,-22.461,-58.594,76.660
1687767703.745,-40.527,-51.758,-21.484,-55.664,138.672
1687767703.749,-28.809,-62.012,-24.414,-49.316,-125.488
1687767703.780,-25.391,-57.617,-34.668,-64.941,-152.344
1687767703.784,-29.297,-47.363,-39.551,-76.660,44.922
1687767703.788,-45.898,-57.617,-32.227,-71.777,-3.418
1687767703.792,-40.527,-63.477,-33.203,-65.430,-140.625
1687767703.796,-27.832,-45.410,-39.062,-53.711,-9.766
1687767703.800,-34.180,-42.969,-31.738,-38.086,153.809
1687767703.804,-44.922,-41.016,-28.320,-56.152,110.352
1687767703.807,-56.152,-38.574,-31.738,-68.848,-95.703
1687767703.811,-47.852,-58.105,-26.855,-55.664,-122.070
1687767703.815,-28.809,-65.430,-22.461,-50.781,98.633
1687767703.819,-25.391,-51.270,-27.832,-50.781,-82.520
1687767703.823,-38.574,-47.852,-25.879,-52.734,-236.816
1687767703.810,-49.316,-46.387,-16.602,-50.293,-120.605
1687767703.814,-41.504,-32.715,-16.602,-46.875,-92.773
1687767703.818,-24.414,-34.180,-19.531,-44.922,-220.703
1687767703.822,-21.973,-43.457,-20.508,-40.527,-165.527
1687767703.826,-35.645,-40.527,-21.973,-39.062,46.387
1687767703.830,-47.363,-41.504,-25.879,-43.457,80.078
1687767703.834,-39.062,-44.922,-25.391,-47.363,21.484
1687767703.837,-26.855,-46.387,-18.066,-36.133,-23.926
1687767703.841,-23.438,-47.363,-20.996,-20.996,-0.977
1687767703.845,-29.785,-37.598,-24.414,-25.391,-19.531
1687767703.849,-45.898,-35.645,-20.996,-41.016,11.719
1687767703.853,-56.152,-40.039,-26.367,-50.293,-49.805
1687767703.855,-30.762,-42.480,-30.273,-32.715,191.406
1687767703.859,-12.207,-48.828,-30.273,-16.602,321.289
1687767703.863,-21.484,-43.457,-26.367,-27.832,-30.762
1687767703.867,-39.551,-34.180,-22.461,-34.668,-143.555
1687767703.871,-46.875,-30.762,-19.043,-33.203,-89.844
1687767703.875,-30.762,-42.480,-22.949,-29.785,-69.336
1687767703.879,-29.785,-55.176,-32.227,-34.668,-51.758
1687767703.882,-25.391,-54.199,-28.320,-31.738,40.039
1687767703.886,-43.457,-44.434,-20.508,-31.250,270.996
1687767703.890,-62.500,-38.574,-18.555,-36.133,25.879
1687767703.894,-48.340,-45.410,-24.414,-31.738,-184.570
1687767703.898,-25.391,-47.363,-20.996,-20.020,-70.801
1687767703.900,-23.926,-41.504,-22.461,-26.367,-124.512
1687767703.904,-43.457,-43.945,-34.180,-38.574,-142.578
1687767703.908,-51.758,-48.340,-31.250,-44.434,-152.832
1687767703.912,-43.457,-49.316,-32.227,-53.223,-159.668
1687767703.916,-25.391,-43.457,-35.156,-47.852,-132.324
1687767703.920,-23.438,-44.434,-36.621,-40.039,-69.824
1687767703.924,-31.738,-42.480,-34.180,-44.434,-42.969
1687767703.927,-37.598,-36.133,-35.645,-48.340,145.020
1687767703.931,-48.828,-37.598,-37.598,-49.316,166.016
1687767703.935,-25.391,-35.156,-37.598,-51.270,-58.594
1687767703.939,-7.324,-27.344,-45.410,-56.641,-35.156
1687767703.943,-27.832,-22.461,-42.480,-50.781,151.367
1687767703.945,-38.574,-24.902,-37.109,-54.688,42.480
1687767703.949,-24.902,-33.691,-43.457,-66.895,-165.039
1687767703.953,-11.230,-32.227,-42.480,-56.641,-189.453
1687767703.957,-5.371,-25.391,-37.109,-46.387,-152.344
1687767703.961,-8.789,-28.809,-43.457,-49.316,-126.953
1687767703.965,-28.320,-36.133,-46.387,-59.082,-137.207
1687767703.969,-35.156,-32.715,-45.410,-71.777,-27.344
1687767703.972,-16.113,-32.715,-46.875,-54.688,153.809
1687767703.976,4.883,-39.062,-39.551,-45.410,-20.996
1687767703.980,-0.977,-36.133,-29.785,-47.363,-186.523
1687767703.984,-19.043,-33.691,-28.320,-48.340,-135.742
1687767703.988,-27.832,-32.715,-33.691,-54.688,-74.707
1687767703.990,-22.949,-22.949,-37.598,-49.805,-135.742
1687767703.994,-11.230,-21.484,-42.480,-58.105,-126.953
1687767703.998,-14.160,-25.391,-42.480,-60.059,-11.230
1687767704.002,-28.320,-27.344,-36.621,-59.082,-28.320
1687767704.006,-22.461,-32.715,-36.133,-63.477,-106.934
1687767704.010,10.254,-27.832,-38.086,-42.969,-13.184
1687767704.014,20.996,-22.461,-34.668,-15.137,244.141
1687767704.017,-8.789,-26.367,-31.250,-25.879,161.133
1687767704.021,-31.250,-36.621,-28.809,-51.758,-149.902
1687767704.025,-38.086,-31.738,-15.625,-49.805,-50.781
1687767704.029,-28.320,-30.273,-11.719,-41.016,75.684
1687767704.033,-3.906,-32.715,-20.508,-35.156,-55.664
1687767704.036,-8.301,-31.738,-24.414,-51.270,-141.602
1687767704.040,-33.203,-33.203,-15.625,-65.430,-65.918
1687767704.044,-51.270,-32.227,-9.277,-65.430,135.254
1687767704.048,-41.016,-39.551,-10.742,-65.430,20.996
1687767704.052,-13.184,-47.363,-6.348,-63.965,-115.234
1687767704.056,-9.766,-56.641,-1.465,-59.082,-20.508
1687767704.060,-32.227,-60.059,-18.555,-50.781,38.086
1687767704.063,-55.664,-54.688,-22.461,-48.340,-83.496
1687767704.067,-33.691,-61.035,-8.301,-46.387,-163.574
1687767704.071,-15.137,-53.223,-15.625,-51.758,-78.613
1687767704.075,-14.160,-45.410,-9.766,-51.758,-20.508
1687767704.079,-19.043,-46.387,6.836,-64.453,-167.480
1687767704.095,-20.508,-44.434,7.324,-77.637,-195.312
1687767704.099,-14.648,-47.363,4.883,-65.430,-145.996
1687767704.103,-23.926,-50.781,0.977,-60.059,-104.980
1687767704.107,-25.879,-52.246,-2.930,-54.199,-70.312
1687767704.111,-29.785,-48.828,-8.789,-52.246,-168.457
1687767704.115,-41.504,-51.270,-9.277,-60.059,106.445
1687767704.119,-35.156,-52.246,-1.953,-57.129,278.809
1687767704.122,-12.207,-47.852,0.000,-54.199,-100.586
1687767704.126,-8.301,-49.316,-7.812,-49.805,-108.398
1687767704.130,-40.039,-50.293,-11.230,-49.316,132.324
1687767704.134,-55.176,-41.016,-3.906,-55.176,100.098
1687767704.138,-38.086,-41.504,-8.789,-55.664,-55.176
1687767704.140,-31.250,-47.363,-15.137,-56.641,-113.770
1687767704.144,-26.367,-51.758,-7.812,-49.316,84.961
1687767704.148,-27.344,-47.363,-3.418,-47.852,-56.641
1687767704.152,-32.227,-38.086,-7.812,-51.270,-244.141
1687767704.156,-22.461,-37.109,-7.324,-60.059,-126.465
1687767704.160,-6.348,-40.039,4.395,-51.270,-88.379
1687767704.164,-0.977,-41.016,1.465,-34.180,-44.922
1687767704.167,-7.324,-34.668,-8.789,-35.156,-74.707
1687767704.171,-16.602,-33.203,-5.371,-44.434,-102.051
1687767704.175,-14.648,-32.715,-5.371,-39.551,213.867
1687767704.179,-4.883,-27.832,-16.602,-34.180,56.641
1687767704.183,0.488,-27.344,-13.672,-24.414,-248.535
1687767704.185,-3.906,-30.273,-13.184,-26.367,-125.000
1687767704.189,-6.836,-30.762,-11.719,-39.551,-101.562
1687767704.193,-13.672,-29.785,-10.742,-35.645,-166.504
1687767704.197,3.906,-31.250,-17.090,-28.320,-125.488
1687767704.201,3.418,-33.203,-17.578,-25.391,-32.715
1687767704.205,-5.859,-32.227,-13.672,-30.762,-28.809
1687767704.209,-19.531,-31.738,-21.484,-46.875,-26.855
1687767704.212,-25.391,-29.785,-26.367,-45.898,-129.883
1687767704.216,-10.742,-25.391,-15.137,-35.156,109.863
1687767704.220,3.418,-26.367,-17.578,-18.066,340.820
1687767704.224,2.441,-25.879,-22.461,-12.207,28.320
1687767704.228,-17.578,-21.973,-16.602,-36.621,-138.672
1687767704.230,-20.508,-22.461,-8.301,-36.133,41.504
1687767704.234,-11.230,-27.832,-4.395,-31.738,-66.895
1687767704.238,9.277,-28.809,-8.301,-25.879,-224.121
1687767704.242,18.066,-22.949,-12.207,-27.832,-174.316
1687767704.246,-2.930,-25.879,-12.207,-26.855,-127.441
1687767704.250,-23.438,-27.344,-17.578,-23.926,-102.051
1687767704.254,-17.578,-29.785,-21.484,-36.133,-59.570
1687767704.257,6.836,-28.320,-19.043,-26.367,46.875
1687767704.261,16.602,-23.926,-19.531,-7.324,255.371
1687767704.265,12.207,-21.973,-21.484,-9.277,53.223
1687767704.269,2.930,-25.391,-24.414,-16.602,-134.277
1687767704.273,2.441,-28.809,-23.438,-19.531,-66.406
1687767704.275,10.254,-29.785,-27.344,-2.441,-52.246
1687767704.279,20.508,-29.297,-27.344,6.836,-99.121
1687767704.283,25.879,-28.809,-31.250,-6.348,-131.348
1687767704.287,9.766,-34.668,-24.414,-8.301,-99.121
1687767704.291,1.953,-31.250,-12.695,-3.906,-109.375
1687767704.295,17.090,-23.438,-20.020,0.488,-114.746
1687767704.299,23.438,-23.926,-20.508,2.930,23.438
1687767704.302,15.625,-27.832,-20.508,-9.277,161.133
1687767704.306,7.324,-30.273,-24.414,-14.160,102.051
1687767704.310,11.230,-26.367,-20.020,-8.789,-161.133
1687767704.314,25.879,-28.809,-31.738,-5.371,-86.426
1687767704.318,31.250,-31.738,-36.133,-1.465,158.203
1687767704.321,23.926,-41.504,-16.602,-3.418,27.344
1687767704.325,2.930,-43.945,-15.625,-18.555,-54.688
1687767704.329,2.441,-37.598,-24.414,-16.602,-12.695
1687767704.333,20.020,-25.879,-22.949,-4.883,16.602
1687767704.337,31.738,-25.391,-24.902,-5.371,-33.691
1687767704.341,28.809,-38.574,-30.762,-27.832,-38.574
1687767704.345,7.812,-28.809,-20.996,-24.902,71.777
1687767704.348,-1.953,-24.414,-17.578,-5.859,244.629
1687767704.352,6.348,-29.785,-27.344,-20.996,-1.465
1687767704.356,14.160,-31.250,-29.297,-23.926,-205.566
1687767704.360,15.625,-36.621,-33.691,-22.461,-93.750
1687767704.364,3.906,-38.574,-32.227,-21.973,-53.711
1687767704.369,-6.836,-31.250,-16.602,-25.391,-86.426
1687767704.373,-3.906,-24.902,-14.648,-26.367,-105.469
1687767704.377,8.301,-35.156,-22.949,-26.367,-13.672
1687767704.381,13.672,-43.457,-20.508,-21.973,36.133
1687767704.385,0.977,-35.156,-28.809,-17.090,-16.113
1687767704.389,-6.348,-22.949,-23.926,-21.973,9.277
1687767704.393,-0.977,-26.367,-10.742,-13.184,233.887
1687767704.396,0.000,-28.809,-24.902,-4.395,384.277
1687767704.400,3.418,-21.484,-23.438,-5.859,0.488
1687767704.404,-0.977,-20.508,-25.879,-3.906,-138.672
1687767704.408,-19.043,-28.320,-36.133,-14.160,-16.113
1687767704.412,-17.090,-34.668,-28.320,-33.203,-59.570
1687767704.415,9.277,-34.668,-16.113,-17.578,-116.211
1687767704.419,3.906,-39.551,-19.531,-14.160,-108.398
1687767704.423,-20.996,-38.574,-39.062,-31.738,10.742
1687767704.427,-22.461,-30.762,-26.367,-30.762,-106.934
1687767704.431,-9.766,-33.203,-24.414,-23.438,-253.906
1687767704.435,0.977,-37.109,-30.762,-10.742,-79.590
1687767704.439,20.508,-35.645,-25.391,-1.465,171.875
1687767704.442,3.906,-34.180,-29.297,-31.250,66.406
1687767704.446,-27.832,-35.156,-34.180,-58.105,-76.172
1687767704.450,-13.672,-29.297,-23.926,-38.086,-44.434
1687767704.454,7.324,-30.273,-23.926,-11.230,112.793
1687767704.458,7.324,-33.203,-32.715,-18.066,-93.262
1687767704.470,2.930,-27.832,-28.809,-35.156,-214.355
1687767704.474,-1.465,-26.367,-22.461,-30.762,-148.926
1687767704.478,-8.301,-32.715,-28.320,-32.715,-179.199
1687767704.482,-6.836,-33.203,-41.016,-43.945,-225.586
1687767704.486,-4.883,-32.715,-37.109,-37.598,-200.684
1687767704.490,-6.348,-36.133,-31.250,-44.922,29.785
1687767704.494,-6.836,-33.203,-36.621,-54.688,82.031
1687767704.497,-11.230,-29.297,-34.180,-46.387,-56.641
1687767704.501,0.488,-28.809,-34.668,-45.410,-115.723
1687767704.505,14.648,-29.297,-32.715,-34.180,130.859
1687767704.509,10.254,-29.785,-31.250,-30.762,359.375
1687767704.513,-8.789,-36.621,-35.156,-52.246,-23.926
1687767704.515,-14.160,-37.598,-23.926,-50.781,-222.168
1687767704.519,-1.953,-30.273,-21.973,-41.016,-78.125
1687767704.523,16.602,-24.902,-36.133,-39.551,-160.156
1687767704.527,19.531,-25.879,-41.504,-30.762,-212.402
1687767704.531,-3.906,-27.344,-31.738,-36.621,-166.016
1687767704.535,-20.508,-34.668,-28.320,-46.387,-100.098
1687767704.539,-3.906,-39.062,-25.879,-39.551,-31.250
1687767704.542,15.137,-29.785,-21.973,-30.762,-64.453
1687767704.546,16.113,-25.391,-26.367,-34.180,-31.738
1687767704.550,17.090,-29.785,-30.762,-25.391,213.867
1687767704.554,0.488,-28.809,-22.461,-22.949,70.801
1687767704.558,2.930,-31.250,-15.625,-24.414,-155.762
1687767704.560,22.461,-38.574,-23.926,-19.531,-41.504
1687767704.564,11.719,-35.156,-23.438,-23.438,-5.859
1687767704.568,-5.371,-29.785,-12.207,-30.273,-175.293
1687767704.572,-14.160,-32.715,-10.254,-35.156,-233.887
1687767704.576,-8.301,-35.156,-9.277,-30.273,-157.715
1687767704.580,8.789,-36.621,-18.066,-20.020,-127.930
1687767704.584,14.160,-34.668,-24.902,-26.855,-150.879
1687767704.587,-11.719,-37.598,-27.344,-34.668,-158.203
1687767704.591,-39.551,-44.922,-25.879,-26.367,27.832
1687767704.595,-18.555,-35.645,-4.395,-21.484,125.000
1687767704.599,3.418,-31.250,-11.719,-33.691,-36.133
1687767704.603,-13.672,-40.039,-37.109,-44.922,-81.543
1687767704.620,-34.180,-41.016,-31.738,-34.668,151.855
1687767704.624,-45.410,-37.598,-17.578,-51.758,25.879
1687767704.628,-52.246,-39.062,-21.973,-73.242,-198.730
1687767704.632,-45.898,-50.781,-26.855,-64.453,-153.320
1687767704.636,-32.227,-47.852,-21.484,-54.199,-71.777
1687767704.640,-33.691,-43.457,-18.555,-58.105,-62.988
1687767704.644,-41.992,-45.898,-18.555,-60.547,-106.445
1687767704.647,-36.133,-40.039,-21.484,-41.504,-21.973
1687767704.651,-23.438,-36.621,-18.555,-27.344,183.594
1687767704.655,-15.625,-33.691,-19.531,-49.316,18.066
1687767704.659,-20.020,-30.273,-23.926,-61.035,-109.863
1687767704.663,-45.410,-39.551,-25.391,-51.270,-15.625
1687767704.666,-50.293,-47.852,-33.691,-46.387,-74.219
1687767704.670,-34.668,-45.898,-32.227,-53.223,-155.762
1687767704.674,-26.855,-43.457,-23.926,-56.641,-116.211
1687767704.678,-37.598,-39.551,-18.066,-44.434,20.020
1687767704.682,-48.828,-36.133,-16.602,-38.574,-17.578
1687767704.686,-38.086,-36.133,-16.602,-50.781,-94.238
1687767704.690,-19.043,-34.668,-18.066,-48.828,26.855
1687767704.693,-18.555,-36.621,-21.484,-34.180,132.812
1687767704.697,-24.902,-38.574,-17.090,-33.691,-11.230
1687767704.701,-40.039,-37.109,-13.184,-39.551,-84.473
1687767704.705,-41.016,-33.203,-14.648,-23.438,-19.043
1687767704.709,-18.555,-28.320,-14.160,-11.230,185.547
1687767704.695,-6.836,-32.715,-19.043,-23.438,308.105
1687767704.699,-9.277,-40.527,-21.484,-39.551,-31.250
1687767704.703,-34.180,-38.086,-16.602,-45.898,-166.992
1687767704.707,-41.992,-36.133,-19.043,-38.086,-74.707
1687767704.711,-21.973,-38.086,-21.484,-32.227,-121.094
1687767704.715,-7.812,-38.086,-18.555,-36.133,-78.125
1687767704.719,-16.602,-37.598,-11.230,-25.879,43.945
1687767704.722,-30.762,-38.574,-6.348,-24.902,38.574
1687767704.726,-29.297,-34.180,-17.090,-35.156,-80.078
1687767704.730,-22.461,-21.973,-25.879,-21.484,-189.453
1687767704.734,-12.207,-22.949,-18.066,-6.836,-88.867
1687767704.738,-17.090,-29.297,-6.348,-7.324,196.777
1687767704.740,-30.762,-27.832,-1.465,-24.902,9.766
1687767704.744,-35.156,-27.832,-9.277,-35.156,-185.547
1687767704.748,-32.715,-31.250,-13.184,-32.227,-104.980
1687767704.752,-22.949,-33.691,-12.207,-28.320,-69.824
1687767704.756,-16.602,-32.227,-16.602,-24.902,-97.168
1687767704.760,-23.438,-22.949,-13.672,-18.555,-28.320
1687767704.764,-31.250,-17.578,-16.113,-29.297,183.594
1687767704.767,-42.480,-31.250,-22.461,-45.410,160.645
1687767704.771,-27.344,-41.504,-21.484,-40.039,-95.703
1687767704.775,-11.719,-36.133,-26.855,-20.020,-50.293
1687767704.779,-33.691,-30.762,-12.695,-18.066,232.910
1687767704.783,-39.062,-24.902,6.836,-23.926,26.855
1687767704.785,-27.832,-26.855,3.906,-34.180,-252.441
1687767704.789,-21.484,-34.668,0.488,-35.156,-178.711
1687767704.793,-17.578,-34.668,-1.953,-17.578,-114.746
1687767704.797,-23.926,-32.715,-8.301,-22.461,-104.980
1687767704.801,-33.691,-24.414,-4.395,-32.227,-166.016
1687767704.805,-27.344,-22.949,4.883,-20.996,-26.367
1687767704.809,-18.066,-35.156,-0.488,-21.973,197.266
1687767704.812,-4.395,-43.945,-9.766,-23.438,-47.852
1687767704.816,-9.277,-38.574,-14.648,-28.809,-261.719
1687767704.820,-28.809,-33.203,-17.090,-20.996,-112.793
1687767704.824,-28.320,-35.645,-19.043,-0.977,55.664
1687767704.828,-15.625,-33.203,-3.418,-14.648,-138.184
1687767704.845,0.000,-29.785,6.348,-25.391,-254.395
1687767704.849,-5.859,-29.785,-5.859,-31.738,-139.648
1687767704.853,-21.973,-29.785,-11.719,-42.480,-109.375
1687767704.857,-21.973,-34.668,-11.719,-42.969,-133.301
1687767704.861,-14.648,-37.109,-12.207,-36.621,-159.180
1687767704.865,-1.465,-30.762,-10.742,-19.531,51.758
1687767704.869,1.953,-25.879,-11.230,-16.602,81.543
1687767704.872,-8.301,-30.762,-4.883,-24.414,-136.719
1687767704.876,-15.625,-35.645,-1.465,-31.250,-143.555
1687767704.880,-3.418,-29.297,-14.160,-25.879,140.625
1687767704.884,12.207,-22.461,-19.043,-11.719,230.957
1687767704.888,5.859,-20.996,-14.648,-29.785,-59.082
1687767704.890,-9.766,-21.973,-9.277,-29.785,-69.824
1687767704.894,-10.254,-23.438,-10.742,-10.742,105.469
1687767704.898,-7.812,-21.973,-12.207,-23.926,-27.832
1687767704.902,6.348,-21.973,-17.578,-33.691,-133.301
1687767704.906,13.184,-23.438,-20.508,-33.691,-141.602
1687767704.910,0.000,-22.949,-8.789,-35.645,-81.543
1687767704.914,-15.137,-20.996,0.488,-39.062,26.855
1687767704.917,-9.277,-22.949,-4.883,-49.316,-83.984
1687767704.921,10.742,-23.926,-12.207,-35.645,-84.473
1687767704.925,2.930,-20.996,-17.090,-10.742,154.297
1687767704.929,-20.996,-20.996,-15.137,-11.719,-74.707
1687767704.933,-28.809,-21.973,-10.254,-22.461,-170.410
1687767704.936,-20.996,-26.855,-19.531,-17.578,-68.848
1687767704.940,-0.488,-22.461,-14.648,-1.465,-107.910
1687767704.944,4.395,-24.902,-12.695,-14.648,-97.168
1687767704.948,-21.973,-38.086,-17.090,-39.062,-120.605
1687767704.952,-34.668,-32.715,-21.973,-35.156,5.859
1687767704.956,-34.668,-25.879,-25.879,-31.738,57.129
1687767704.960,-15.625,-28.320,-22.461,-22.949,13.672
1687767704.963,-1.465,-24.902,-32.715,-25.879,-18.066
1687767704.967,-18.555,-21.484,-30.762,-26.367,113.281
1687767704.971,-33.203,-24.902,-12.695,-28.320,200.195
1687767704.975,-28.320,-29.785,-19.531,-45.410,68.848
1687767704.979,-5.859,-36.621,-23.438,-37.598,13.184
1687767704.980,-3.906,-37.598,-23.438,-24.902,97.168
1687767704.984,-15.625,-27.832,-28.320,-25.879,-44.922
1687767704.988,-26.855,-28.320,-28.320,-35.156,-190.918
1687767704.992,-22.949,-33.203,-26.367,-42.969,-187.012
1687767704.996,-2.441,-25.391,-23.438,-35.156,-111.816
1687767705.000,-14.160,-28.809,-18.555,-38.574,-19.043
1687767705.004,-24.414,-36.133,-10.742,-41.016,-61.523
1687767705.007,-30.273,-24.902,-25.879,-43.457,0.488
1687767705.011,-41.504,-18.066,-30.273,-37.598,189.941
1687767705.015,-20.996,-22.461,-18.066,-22.461,20.020
1687767705.019,-8.301,-30.762,-17.578,-18.555,-162.109
1687767705.023,-29.785,-39.551,-20.996,-22.949,-79.102
1687767705.025,-45.898,-41.992,-26.367,-31.738,-113.770
1687767705.029,-34.668,-35.645,-14.648,-36.621,-124.023
1687767705.033,-20.508,-37.598,-10.254,-42.480,-115.723
1687767705.037,-17.090,-43.945,-19.043,-27.832,-74.219
1687767705.041,-17.578,-34.668,-21.973,-27.344,-67.871
1687767705.045,-39.062,-38.086,-24.414,-36.621,-11.230
1687767705.049,-48.828,-43.945,-21.484,-42.480,-14.160
1687767705.052,-26.367,-33.203,-19.043,-29.785,155.273
1687767705.056,-23.438,-31.738,-24.902,-16.113,253.906
1687767705.060,-35.156,-39.062,-33.203,-23.926,-67.383
1687767705.064,-51.758,-40.039,-33.203,-31.250,-47.852
1687767705.068,-63.477,-35.645,-28.320,-36.621,89.844
1687767705.070,-52.734,-35.645,-35.645,-41.504,-28.809
1687767705.074,-33.691,-32.227,-35.156,-26.367,-145.508
1687767705.078,-26.855,-25.879,-22.461,-11.719,-138.672
1687767705.082,-39.551,-24.902,-19.531,-25.391,-104.980
1687767705.086,-47.363,-28.809,-27.344,-36.133,-133.789
1687767705.090,-40.527,-31.250,-25.879,-30.273,-130.859
1687767705.094,-16.113,-28.320,-14.160,-17.090,-19.043
1687767705.097,-20.508,-25.879,-3.418,3.418,182.129
1687767705.101,-46.875,-30.762,-1.465,-3.906,-8.301
1687767705.105,-45.410,-41.504,-1.465,-10.254,-95.703
1687767705.109,-37.598,-36.133,-2.930,-6.348,-52.246
1687767705.113,-17.090,-12.207,-10.254,-1.953,-52.734
1687767705.117,-11.719,-14.648,-21.484,-8.301,-73.242
1687767705.121,-32.227,-29.785,-29.785,-20.508,-94.238
1687767705.125,-48.828,-23.926,-32.715,-28.320,-58.105
1687767705.129,-55.664,-20.508,-38.086,-37.598,-79.102
1687767705.133,-36.621,-22.461,-41.504,-29.785,-131.348
1687767705.137,-20.020,-20.508,-41.504,-23.438,0.977
1687767705.141,-31.738,-22.949,-44.434,-38.574,207.031
1687767705.144,-47.363,-23.926,-46.875,-47.363,105.469
1687767705.148,-48.828,-25.879,-49.316,-62.988,-187.988
1687767705.152,-33.691,-26.367,-50.293,-61.035,-141.602
1687767705.156,-16.602,-19.531,-52.246,-41.992,5.859
1687767705.160,-20.020,-8.301,-58.105,-48.340,-90.332
1687767705.162,-34.180,-6.348,-56.641,-58.105,-182.617
1687767705.166,-38.574,-21.973,-60.059,-64.453,-134.766
1687767705.170,-17.578,-23.438,-66.895,-47.852,134.277
1687767705.174,8.789,-23.438,-68.848,-37.109,13.184
1687767705.178,4.883,-26.855,-67.383,-61.035,-183.105
1687767705.182,-12.695,-13.672,-61.035,-72.266,64.941
1687767705.186,-22.461,-9.766,-65.430,-66.406,258.789
1687767705.189,-5.859,-20.508,-71.289,-62.988,21.484
1687767705.193,9.766,-14.160,-62.500,-58.594,-106.934
1687767705.197,-1.465,-11.719,-62.988,-56.641,-71.777
1687767705.201,-17.090,-26.367,-70.801,-61.035,-44.434
1687767705.205,-29.785,-32.227,-81.055,-82.031,-116.699
1687767705.222,-20.508,-30.762,-84.961,-91.309,-196.777
1687767705.226,-6.836,-15.137,-82.520,-68.359,-111.816
1687767705.230,-5.859,-11.719,-82.520,-62.988,-61.035
1687767705.234,-8.301,-24.414,-69.824,-67.871,-97.168
1687767705.238,-13.672,-29.297,-63.477,-64.453,-195.801
1687767705.242,0.488,-17.578,-60.059,-50.293,28.809
1687767705.246,20.996,-10.742,-48.340,-31.250,275.391
1687767705.249,20.020,-15.625,-52.734,-33.203,23.926
1687767705.253,4.883,-10.254,-54.688,-44.434,-110.352
1687767705.257,-6.836,-17.090,-39.062,-26.855,61.523
1687767705.261,-6.348,-20.996,-41.992,-26.367,66.895
1687767705.265,7.812,-19.043,-51.270,-41.016,-98.145
1687767705.266,20.020,-16.602,-48.828,-30.273,-142.578
1687767705.270,5.859,-19.043,-42.969,-22.949,28.809
1687767705.274,-23.926,-40.527,-46.875,-37.109,-76.660
1687767705.278,-20.996,-38.574,-53.223,-40.527,-159.668
1687767705.282,11.719,-22.461,-39.062,-20.996,33.203
1687767705.286,12.695,-31.738,-43.945,-23.926,94.727
1687767705.290,-6.348,-38.574,-50.293,-35.645,-47.363
1687767705.293,-28.320,-42.480,-44.434,-52.246,-185.547
1687767705.297,-28.320,-34.180,-46.387,-53.711,-112.793
1687767705.301,-4.883,-19.043,-43.457,-28.809,178.711
1687767705.305,6.836,-18.066,-37.109,-23.438,14.648
1687767705.309,-2.930,-25.391,-38.086,-23.926,-190.430
1687767705.311,-18.555,-30.273,-38.086,-33.691,-87.891
1687767705.315,-11.230,-32.227,-33.203,-37.109,-72.754
1687767705.319,2.930,-25.879,-32.715,-20.996,-138.184
1687767705.323,12.207,-28.320,-35.156,-15.137,-106.445
1687767705.327,-0.488,-33.203,-36.621,-16.602,5.371
1687767705.331,-19.043,-37.109,-32.715,-28.320,4.883
1687767705.335,-23.438,-43.945,-31.250,-35.156,-58.105
1687767705.338,-20.508,-42.969,-26.855,-35.156,-32.715
1687767705.342,-11.230,-42.480,-26.367,-20.508,182.617
1687767705.346,-22.949,-51.758,-29.785,-8.301,371.094
1687767705.350,-21.973,-41.504,-23.438,-15.625,62.012
1687767705.354,-11.719,-12.207,-23.926,-21.484,-144.531
1687767705.356,-22.949,-6.348,-28.809,-34.180,75.195
1687767705.360,-22.461,-18.066,-35.156,-53.711,-4.395
1687767705.364,-20.996,-29.297,-41.016,-47.363,-136.230
1687767705.368,-40.527,-24.414,-42.480,-44.922,-85.449
1687767705.372,-44.922,-31.250,-40.039,-49.316,-92.773
1687767705.376,-27.832,-34.668,-32.227,-36.133,-24.902
1687767705.380,-16.602,-19.043,-26.367,-28.809,-75.684
1687767705.383,-2.930,-16.602,-19.531,-25.879,-73.730
1687767705.387,-12.207,-34.180,-25.391,-26.855,235.352
1687767705.391,-40.527,-35.645,-41.504,-47.363,4.883
1687767705.395,-29.785,-23.926,-40.039,-45.898,-227.539
1687767705.399,-3.906,-25.879,-24.902,-25.879,-28.809
1687767705.401,-0.488,-32.227,-25.879,-31.250,-1.953
1687767705.405,-13.184,-34.180,-34.180,-47.852,-137.207
1687767705.409,-24.414,-32.227,-32.715,-49.316,-180.664
1687767705.413,-8.789,-36.133,-27.832,-34.668,-79.590
1687767705.417,10.742,-26.855,-27.344,-22.461,-87.891
1687767705.421,13.184,-22.461,-29.785,-29.785,-20.508
1687767705.425,3.906,-26.855,-32.715,-41.016,49.805
1687767705.428,-16.602,-14.160,-34.180,-33.691,118.164
1687767705.432,-15.625,-19.043,-34.180,-33.203,90.332
1687767705.436,11.719,-29.297,-41.016,-41.992,-68.848
1687767705.440,18.555,-29.297,-50.781,-34.180,27.344
1687767705.444,-9.766,-36.621,-42.480,-28.809,224.121
1687767705.446,-23.438,-37.598,-23.438,-32.715,88.867
1687767705.450,-16.602,-39.551,-24.902,-43.457,-128.418
1687767705.454,4.883,-39.551,-33.691,-35.645,-82.031
1687767705.458,10.254,-26.367,-36.621,-35.645,-49.805
1687767705.462,-7.324,-27.832,-30.762,-57.129,-75.195
1687767705.466,-15.625,-21.973,-24.414,-64.453,-76.172
1687767705.470,-12.207,-10.254,-22.949,-50.293,23.926
1687767705.473,-4.883,-14.648,-29.297,-39.062,240.234
1687767705.477,14.160,-21.484,-23.438,-31.250,25.391
1687767705.481,10.742,-25.879,-21.484,-41.504,-189.941
1687767705.485,-17.578,-29.297,-33.691,-58.594,-113.281
1687767705.489,-24.902,-37.598,-35.156,-54.688,-123.535
1687767705.492,-2.930,-30.273,-31.250,-52.246,-120.117
1687767705.496,8.301,-26.367,-34.180,-45.898,-39.062
1687767705.500,-7.324,-38.574,-38.086,-53.711,25.879
1687767705.504,-17.578,-41.992,-37.598,-74.219,-85.938
1687767705.508,-22.949,-36.133,-34.180,-66.406,-244.141
1687767705.512,-8.789,-35.156,-42.969,-62.500,-156.738
1687767705.516,5.859,-43.457,-48.340,-46.875,219.727
1687767705.519,3.418,-36.621,-37.109,-31.250,203.125
1687767705.523,-12.207,-41.504,-27.344,-49.316,-161.621
1687767705.527,-9.277,-30.762,-20.020,-49.316,-164.062
1687767705.531,6.348,-3.906,-22.461,-32.715,-45.898
1687767705.535,9.277,-10.254,-36.133,-33.691,-52.734
1687767705.536,-3.906,-26.855,-29.297,-41.504,-142.578
1687767705.540,-24.414,-23.438,-25.879,-46.387,-130.859
1687767705.544,-31.738,-27.832,-40.527,-53.223,-59.570
1687767705.548,-20.996,-40.039,-41.504,-56.152,-54.199
1687767705.552,-2.441,-39.062,-30.762,-41.992,-72.266
1687767705.556,-6.348,-40.039,-29.785,-29.297,-18.066
1687767705.560,-20.508,-47.363,-32.227,-29.785,307.129
1687767705.563,-32.715,-39.551,-34.180,-48.340,162.598
1687767705.567,-25.391,-29.297,-33.691,-46.875,-152.344
1687767705.571,-2.930,-33.691,-28.320,-40.039,-106.934
1687767705.575,-7.812,-35.645,-32.227,-48.828,-89.355
1687767705.579,-26.855,-27.344,-31.738,-57.617,-145.020
1687767705.596,-31.250,-34.668,-27.832,-55.664,-131.836
1687767705.600,-19.043,-48.828,-31.738,-49.316,-22.949
1687767705.604,1.465,-38.574,-33.691,-48.828,-31.250
1687767705.608,3.418,-35.156,-33.691,-53.223,-162.109
1687767705.612,-12.207,-41.992,-30.273,-55.176,-95.703
1687767705.616,-21.973,-38.574,-32.227,-52.246,48.340
1687767705.620,-11.719,-37.598,-33.691,-46.875,31.738
1687767705.623,1.953,-39.551,-33.203,-46.387,6.836
1687767705.627,3.418,-34.668,-30.273,-42.969,-28.809
1687767705.631,-14.160,-23.926,-29.785,-41.992,108.398
1687767705.635,-35.156,-31.738,-29.297,-51.758,317.383
1687767705.639,-24.902,-40.527,-32.715,-54.199,-3.906
1687767705.641,-16.113,-35.156,-41.992,-54.688,-186.035
1687767705.645,-15.625,-28.809,-37.598,-50.293,-120.117
1687767705.649,-21.973,-35.156,-31.250,-51.758,-104.980
1687767705.653,-33.203,-32.227,-33.691,-63.965,-127.930
1687767705.657,-33.203,-34.668,-36.621,-68.848,-142.578
1687767705.661,-20.020,-36.621,-35.645,-62.500,47.363
1687767705.665,-11.230,-23.438,-38.574,-51.758,84.961
1687767705.668,-8.789,-31.250,-45.898,-55.176,-100.098
1687767705.672,-20.996,-35.645,-39.062,-64.453,-22.949
1687767705.676,-35.156,-29.297,-36.621,-55.176,287.109
1687767705.680,-21.973,-28.809,-42.969,-53.223,100.586
1687767705.684,-2.441,-34.668,-36.621,-49.316,-172.852
1687767705.686,-12.695,-36.133,-40.527,-54.199,-115.723
1687767705.690,-31.250,-31.738,-42.969,-60.547,-115.723
1687767705.694,-31.250,-34.668,-40.039,-53.223,-182.129
1687767705.698,-20.996,-46.387,-49.316,-53.223,-128.418
1687767705.702,2.441,-52.734,-39.551,-45.410,-19.531
1687767705.706,-5.371,-32.715,-25.391,-41.504,60.059
1687767705.710,-42.480,-18.555,-27.832,-56.152,23.438
1687767705.713,-55.664,-31.250,-33.691,-71.289,-131.836
1687767705.717,-45.898,-33.203,-41.504,-70.801,36.133
1687767705.721,-33.691,-31.250,-41.016,-68.359,67.871
1687767705.725,-30.273,-43.457,-31.738,-67.383,-158.691
1687767705.729,-41.992,-36.621,-30.762,-58.105,-75.195
1687767705.731,-41.016,-16.602,-35.156,-53.223,120.605
1687767705.735,-23.926,-20.508,-31.250,-61.523,43.457
1687767705.739,-5.371,-31.250,-21.484,-57.129,-124.512
1687767705.743,7.324,-28.809,-25.391,-50.781,-131.348
1687767705.747,-7.324,-24.414,-29.297,-65.430,-151.367
1687767705.751,-38.574,-30.762,-29.297,-81.543,-85.449
1687767705.755,-36.621,-27.344,-29.785,-77.148,-67.871
1687767705.758,-14.648,-19.043,-28.320,-48.828,-33.203
1687767705.762,-10.742,-21.973,-34.180,-24.414,168.945
1687767705.766,-23.438,-36.133,-35.645,-36.621,4.883
1687767705.770,-35.645,-34.668,-29.785,-51.270,-183.105
1687767705.774,-34.668,-22.949,-28.809,-53.711,-142.090
1687767705.777,-24.902,-30.762,-35.645,-63.965,-62.988
1687767705.781,-22.461,-31.250,-39.062,-60.547,20.996
1687767705.785,-28.320,-15.625,-31.738,-46.875,-85.449
1687767705.789,-38.574,-15.625,-25.391,-46.387,-38.086
1687767705.793,-34.180,-25.879,-29.785,-57.129,11.230
1687767705.797,-21.484,-29.297,-37.598,-56.641,-103.027
1687767705.801,-16.113,-37.109,-47.852,-50.781,3.906
1687767705.804,-23.438,-36.621,-39.551,-40.527,105.957
1687767705.808,-27.344,-24.414,-24.902,-25.879,53.223
1687767705.812,-15.625,-18.555,-18.066,-28.809,-202.637
1687767705.816,-17.090,-40.039,-30.273,-45.898,-172.852
1687767705.820,-19.531,-48.340,-44.434,-58.594,149.902
1687767705.821,-15.137,-33.691,-41.992,-58.594,-24.902
1687767705.825,-25.879,-38.574,-37.109,-53.223,-279.785
1687767705.829,-33.203,-46.387,-39.062,-58.105,-210.449
1687767705.833,-20.996,-37.109,-42.480,-55.176,-58.105
1687767705.837,-13.184,-32.715,-41.504,-46.875,-64.941
1687767705.841,-19.531,-39.062,-41.992,-48.340,-76.660
1687767705.845,-32.227,-32.227,-42.480,-60.059,15.137
1687767705.848,-49.316,-28.809,-37.598,-50.781,213.379
1687767705.852,-33.203,-30.762,-38.086,-45.410,61.035
1687767705.856,-17.090,-39.551,-39.551,-44.922,-188.965
1687767705.860,-33.203,-40.039,-38.574,-41.016,-158.203
1687767705.864,-48.828,-34.668,-36.621,-55.664,-143.066
1687767705.867,-36.621,-36.133,-28.320,-68.359,-167.480
1687767705.871,-26.855,-40.039,-27.344,-65.918,-165.039
1687767705.875,-16.602,-40.039,-36.621,-55.664,-87.891
1687767705.879,-12.207,-32.715,-40.039,-41.504,-106.934
1687767705.883,-25.391,-30.273,-36.133,-41.504,-190.918
1687767705.887,-39.062,-28.809,-44.434,-56.641,-112.793
1687767705.891,-37.598,-30.273,-46.875,-51.270,165.527
1687767705.894,-18.066,-31.738,-39.062,-30.273,253.418
1687767705.898,-13.672,-37.598,-38.086,-27.344,-40.039
1687767705.902,-26.855,-44.922,-43.457,-44.922,-168.457
1687767705.906,-42.480,-41.016,-47.852,-49.316,63.965
1687767705.910,-41.016,-42.480,-46.875,-54.199,65.918
1687767705.911,-25.879,-33.203,-40.527,-49.805,-147.461
1687767705.915,-20.020,-26.855,-42.480,-40.527,-151.367
1687767705.919,-38.086,-40.039,-52.734,-42.480,-149.902
1687767705.923,-59.082,-38.574,-54.199,-47.852,-148.438
1687767705.927,-43.457,-33.691,-46.875,-56.152,-151.367
1687767705.931,-24.414,-42.480,-44.922,-47.852,-25.391
1687767705.935,-24.414,-48.828,-41.504,-30.273,192.871
1687767705.938,-31.250,-36.621,-32.227,-34.180,14.160
1687767705.942,-43.945,-34.180,-36.133,-56.641,-170.898
1687767705.946,-46.387,-40.039,-37.598,-52.246,-72.266
1687767705.950,-36.621,-37.598,-37.109,-28.320,138.184
1687767705.954,-29.297,-40.527,-40.039,-25.879,-60.547
1687767705.971,-37.109,-43.945,-37.109,-40.527,-165.039
1687767705.975,-55.176,-34.668,-47.852,-55.664,-107.422
1687767705.979,-52.246,-42.480,-52.246,-58.594,-165.527
1687767705.983,-34.180,-53.223,-47.363,-55.176,-196.777
1687767705.987,-18.066,-52.734,-52.734,-43.457,-86.914
1687767705.991,-22.461,-51.758,-43.945,-30.273,68.359
1687767705.995,-40.527,-46.875,-25.391,-33.691,30.273
1687767705.998,-47.363,-32.227,-33.691,-53.223,-88.379
1687767706.002,-34.668,-23.926,-40.527,-56.152,-125.000
1687767706.006,-32.715,-40.527,-41.504,-52.246,22.461
1687767706.010,-37.598,-38.086,-33.203,-50.293,-4.395
1687767706.014,-41.016,-37.598,-27.832,-49.316,-113.281
1687767706.017,-51.758,-48.828,-35.156,-51.758,-139.160
1687767706.021,-48.340,-48.340,-38.574,-40.039,127.930
1687767706.025,-33.203,-41.992,-33.691,-21.484,342.285
1687767706.029,-27.832,-42.969,-34.668,-26.855,30.762
1687767706.033,-46.875,-43.457,-38.574,-42.969,-106.934
1687767706.037,-50.293,-34.668,-40.039,-38.086,-23.438
1687767706.041,-22.949,-30.273,-35.156,-23.926,-42.969
1687767706.044,-10.742,-41.016,-41.504,-27.344,-60.547
1687767706.048,-18.555,-38.574,-39.551,-26.367,8.789
1687767706.052,-33.203,-31.250,-32.227,-18.066,183.105
1687767706.056,-43.457,-44.434,-43.457,-41.504,-31.250
1687767706.060,-31.738,-23.926,-42.480,-46.875,-155.762
1687767706.061,-10.742,-10.742,-33.691,-26.367,-42.969
1687767706.065,-17.578,-33.691,-36.621,-41.992,-107.422
1687767706.069,-38.086,-37.598,-36.621,-65.918,-202.148
1687767706.073,-36.133,-35.645,-30.273,-59.082,-157.227
1687767706.077,-27.832,-38.574,-37.109,-44.434,-86.914
1687767706.081,-19.531,-36.621,-36.133,-38.086,-82.520
1687767706.085,-18.066,-46.875,-43.457,-39.062,-45.410
1687767706.088,-19.043,-32.227,-29.297,-39.062,-120.117
1687767706.092,-31.250,-24.902,-17.578,-43.945,-42.969
1687767706.096,-35.645,-39.062,-41.504,-45.898,65.918
1687767706.100,-16.602,-35.156,-43.945,-50.293,-58.105
1687767706.104,-6.348,-26.367,-30.762,-50.293,-91.309
1687767706.107,-21.484,-20.996,-17.578,-40.527,82.031
1687767706.111,-49.805,-28.809,-28.809,-49.805,-52.246
1687767706.115,-45.410,-19.043,-34.180,-51.758,-201.172
1687767706.119,-20.020,-10.254,-24.902,-36.621,-41.504
1687767706.123,-18.555,-23.438,-23.438,-36.133,42.969
1687767706.127,-25.879,-33.203,-35.156,-54.199,39.062
1687767706.131,-34.668,-45.410,-45.410,-55.664,-38.086
1687767706.134,-27.344,-48.340,-39.551,-48.340,-33.691
1687767706.138,-9.766,-37.109,-43.945,-46.875,171.387
1687767706.142,-11.230,-39.062,-51.758,-54.688,-25.391
1687767706.146,-28.320,-41.992,-48.828,-64.453,-166.992
1687767706.150,-35.156,-36.133,-43.945,-69.824,-74.707
1687767706.151,-31.250,-35.156,-46.387,-61.035,-75.195
1687767706.155,-20.508,-45.410,-38.086,-41.992,-85.938
1687767706.159,-6.836,-46.875,-29.785,-38.574,-56.152
1687767706.163,-12.695,-35.156,-30.762,-40.039,-36.133
1687767706.167,-29.297,-36.133,-37.109,-48.340,-75.195
1687767706.171,-19.531,-32.715,-33.691,-46.875,12.207
1687767706.175,3.906,-28.809,-24.414,-33.691,45.410
1687767706.178,8.789,-36.621,-28.809,-31.250,214.355
1687767706.182,-10.254,-37.109,-42.969,-38.574,303.223
1687767706.186,-29.297,-34.180,-49.805,-56.641,-59.082
1687767706.190,-28.809,-34.668,-41.504,-64.941,-139.648
1687767706.194,-14.648,-37.109,-31.738,-53.223,83.984
1687767706.196,-4.395,-40.039,-29.785,-46.387,44.434
1687767706.200,-11.719,-44.434,-35.645,-52.246,-72.266
1687767706.204,-29.297,-41.016,-40.039,-58.594,-75.684
1687767706.208,-33.203,-37.109,-37.598,-51.758,-118.164
1687767706.212,-20.996,-38.574,-41.016,-51.758,-74.219
1687767706.216,-7.324,-33.203,-45.898,-48.828,23.926
1687767706.220,-6.348,-23.926,-44.922,-46.387,0.488
1687767706.223,-20.996,-33.203,-34.180,-30.762,227.051
1687767706.227,-21.484,-41.504,-34.668,-32.227,61.523
1687767706.231,-8.789,-28.809,-42.969,-50.293,-289.062
1687767706.235,14.648,-24.902,-36.133,-42.480,-188.477
1687767706.239,20.508,-29.297,-43.945,-39.062,-150.391
1687767706.240,-10.742,-33.691,-51.758,-50.781,-147.949
1687767706.244,-18.555,-40.039,-42.480,-53.711,-134.766
1687767706.248,-10.254,-38.574,-39.551,-49.316,-77.148
1687767706.252,-3.906,-34.668,-38.574,-42.480,-86.426
1687767706.256,-4.883,-35.645,-42.480,-50.781,-146.973
1687767706.260,-7.812,-38.574,-50.781,-59.082,-64.941
1687767706.264,-23.438,-40.527,-47.852,-55.176,113.770
1687767706.267,-28.809,-37.109,-37.598,-52.246,167.969
1687767706.271,-5.859,-28.320,-24.414,-42.969,-101.562
1687767706.275,-10.254,-28.320,-31.738,-43.457,-84.961
1687767706.279,-36.133,-54.199,-50.293,-57.617,153.809
1687767706.283,-42.480,-52.246,-46.875,-58.594,59.082
1687767706.286,-30.273,-22.461,-29.785,-62.012,-125.488
1687767706.290,-12.695,-24.414,-29.297,-60.059,-115.234
1687767706.294,-7.812,-37.598,-40.039,-48.340,121.094
1687767706.298,-14.160,-32.715,-36.621,-46.875,-12.207
1687767706.302,-18.555,-25.879,-27.344,-47.852,-255.371
1687767706.306,-14.648,-22.949,-26.367,-52.734,-118.164
1687767706.310,1.953,-37.109,-28.809,-44.922,281.250
1687767706.313,24.414,-41.016,-27.832,-37.598,109.863
1687767706.317,8.301,-32.715,-27.832,-47.852,-191.406
1687767706.321,-13.672,-27.832,-30.762,-54.688,-148.438
1687767706.325,-5.371,-24.414,-29.297,-52.246,-151.855
1687767706.329,-8.789,-34.180,-35.156,-55.176,-144.043
1687767706.332,-4.883,-38.574,-34.668,-48.340,-87.891
1687767706.336,-11.230,-28.809,-28.809,-45.410,8.301
1687767706.340,-36.621,-30.762,-33.691,-62.500,26.367
1687767706.344,-23.926,-30.273,-29.297,-49.805,-120.605
1687767706.348,0.488,-25.391,-24.902,-33.203,-122.559
1687767706.352,9.766,-24.902,-20.996,-27.344,14.160
1687767706.356,0.488,-29.785,-23.438,-35.645,51.270
1687767706.359,-25.879,-36.133,-34.180,-50.293,-65.430
1687767706.363,-27.344,-30.762,-32.227,-48.828,-133.301
1687767706.367,-16.602,-36.133,-34.180,-43.945,129.883
1687767706.371,-7.812,-46.387,-35.156,-37.598,146.973
1687767706.375,8.301,-25.879,-24.414,-31.738,-182.129
1687767706.391,-3.906,-10.742,-27.832,-35.645,-164.062
1687767706.395,-43.945,-25.391,-41.992,-44.434,95.215
1687767706.399,-41.016,-43.457,-44.434,-54.199,19.531
1687767706.403,-10.254,-39.551,-36.133,-50.293,-171.875
1687767706.407,-22.461,-32.715,-34.668,-53.223,-89.844
1687767706.411,-50.781,-29.297,-39.062,-59.082,202.637
1687767706.415,-45.410,-30.762,-37.598,-58.105,186.035
1687767706.418,-33.691,-44.434,-36.133,-57.129,-74.707
1687767706.422,-20.996,-44.922,-31.738,-49.805,-92.285
1687767706.426,-9.277,-34.180,-26.367,-39.551,140.137
1687767706.430,-21.484,-22.949,-34.180,-49.316,-83.496
1687767706.434,-42.969,-27.832,-42.969,-67.383,-164.551
1687767706.436,-24.902,-29.297,-42.480,-63.965,-26.855
1687767706.440,-3.418,-26.367,-42.969,-47.852,-56.641
1687767706.444,0.000,-28.809,-35.156,-35.156,-100.586
1687767706.448,-6.836,-24.902,-30.762,-32.227,-132.324
1687767706.452,-24.902,-26.855,-41.016,-39.551,-20.996
1687767706.456,-14.160,-32.715,-41.992,-50.293,-1.465
1687767706.460,11.230,-34.180,-32.227,-44.434,-55.176
1687767706.463,6.348,-27.832,-33.203,-39.551,14.648
1687767706.467,-14.160,-30.762,-32.715,-44.922,176.270
1687767706.471,-27.344,-29.297,-37.598,-49.316,293.457
1687767706.475,-20.020,-23.926,-44.922,-52.734,42.969
1687767706.479,-0.977,-30.273,-40.039,-46.875,-43.457
1687767706.496,3.906,-49.316,-36.133,-32.715,144.043
1687767706.500,-5.859,-49.316,-27.344,-27.832,4.395
1687767706.504,-20.508,-25.879,-21.484,-37.598,-183.594
1687767706.508,-32.227,-33.203,-30.273,-58.105,-110.840
1687767706.512,-24.902,-46.875,-38.086,-59.570,-38.574
1687767706.516,-14.160,-46.387,-41.504,-51.758,-84.473
1687767706.520,-18.555,-46.875,-49.316,-53.711,-107.422
1687767706.523,-41.504,-43.457,-46.387,-50.293,107.910
1687767706.527,-52.246,-46.875,-39.062,-38.086,332.520
1687767706.531,-26.855,-51.270,-47.852,-40.527,114.258
1687767706.535,-3.906,-43.945,-41.992,-41.016,-180.664
1687767706.539,-3.906,-29.785,-35.156,-34.668,-189.941
1687767706.526,-19.531,-28.320,-39.551,-45.898,-154.297
1687767706.530,-26.855,-33.691,-37.109,-51.270,-176.758
1687767706.534,-14.160,-35.645,-41.992,-45.898,-108.887
1687767706.538,0.977,-35.645,-39.062,-40.527,-13.184
1687767706.542,-5.859,-37.598,-32.227,-39.062,12.207
1687767706.546,-28.809,-39.062,-26.855,-45.898,-62.012
1687767706.550,-26.367,-36.133,-21.484,-44.434,19.531
1687767706.553,-22.461,-51.758,-31.738,-32.715,121.582
1687767706.557,-14.648,-60.547,-31.250,-26.855,-45.898
1687767706.561,-13.184,-42.969,-13.672,-20.020,-60.547
1687767706.565,-29.785,-37.598,-22.461,-29.785,15.625
1687767706.569,-45.410,-38.574,-20.996,-41.992,182.617
1687767706.570,-48.340,-40.039,-11.230,-28.809,388.672
1687767706.574,-31.738,-44.434,-15.625,-21.484,96.191
1687767706.578,-22.949,-44.922,-2.930,-25.879,-143.555
1687767706.582,-38.574,-51.758,-2.930,-35.645,-106.934
1687767706.586,-44.922,-60.059,-11.230,-44.434,-171.387
1687767706.590,-30.273,-60.547,-4.395,-46.875,-120.605
1687767706.594,-26.855,-64.941,-7.812,-29.785,46.875
1687767706.597,-35.645,-67.383,-15.137,-24.414,190.430
1687767706.601,-50.781,-61.035,-9.766,-46.875,-9.277
1687767706.605,-56.152,-49.805,-2.930,-48.340,-229.004
1687767706.609,-55.176,-62.012,-1.465,-52.246,-192.871
1687767706.613,-52.246,-62.500,-4.395,-56.152,-100.586
1687767706.615,-39.551,-53.711,-9.766,-53.711,-85.449
1687767706.619,-48.828,-66.406,-8.789,-53.711,-178.711
1687767706.623,-66.895,-62.500,-6.348,-38.574,-78.125
1687767706.627,-48.828,-49.805,1.465,-34.668,-37.598
1687767706.631,-17.578,-48.828,1.953,-41.504,-154.297
1687767706.635,-6.348,-52.246,-2.441,-39.551,-56.641
1687767706.639,-25.391,-57.129,5.859,-36.133,196.777
1687767706.642,-44.922,-54.199,8.301,-36.621,180.664
1687767706.646,-39.062,-46.875,-6.836,-38.574,-131.348
1687767706.650,-25.879,-49.316,-9.766,-36.133,-208.984
1687767706.654,-28.320,-51.270,11.230,-38.086,-0.488
1687767706.658,-36.133,-41.992,23.926,-41.016,-20.996
1687767706.661,-44.922,-32.715,14.160,-53.223,-197.754
1687767706.665,-46.387,-33.691,12.207,-39.551,-145.508
1687767706.669,-18.066,-36.133,21.973,-8.789,48.340
1687767706.673,6.836,-34.180,22.949,0.000,-51.758
1687767706.677,-6.348,-40.527,9.766,-12.695,-214.355
1687767706.681,-40.527,-49.316,-2.930,-44.922,-110.840
1687767706.685,-67.383,-54.688,-8.301,-54.688,154.297
1687767706.688,-45.898,-54.199,-6.836,-48.340,3.418
1687767706.692,-17.090,-43.945,-2.441,-36.133,-147.949
1687767706.696,-24.414,-37.109,-3.418,-22.461,-96.680
1687767706.700,-40.527,-41.504,-12.695,-36.621,-57.129
1687767706.704,-39.551,-44.434,-7.812,-41.504,-104.980
1687767706.720,-31.738,-44.922,-2.441,-33.203,-136.719
1687767706.724,-12.695,-37.598,-12.695,-21.973,-74.219
1687767706.728,-5.371,-33.203,-15.137,-26.855,-90.332
1687767706.732,-41.504,-39.551,-19.531,-55.664,-141.113
1687767706.736,-54.199,-33.203,-19.043,-48.340,-177.246
1687767706.740,-35.645,-31.250,-18.555,-21.484,116.699
1687767706.744,-19.043,-35.156,-25.391,-18.555,318.848
1687767706.747,-9.277,-32.715,-18.555,-29.785,-32.715
1687767706.751,-33.691,-36.621,-16.602,-43.945,-98.633
1687767706.755,-50.781,-34.668,-20.020,-35.645,91.797
1687767706.759,-30.762,-28.809,-21.484,-23.438,19.531
1687767706.763,-2.930,-27.344,-12.695,-24.414,-118.164
1687767706.765,-3.418,-33.203,-14.648,-32.227,-107.422
1687767706.769,-25.391,-39.551,-30.762,-46.387,56.641
1687767706.773,-55.176,-37.598,-27.344,-57.129,-3.906
1687767706.777,-46.387,-39.062,-30.762,-50.781,-141.113
1687767706.781,-22.461,-39.062,-45.410,-28.320,-85.449
1687767706.785,-12.695,-35.156,-37.109,-19.043,-35.156
1687767706.789,-21.973,-35.156,-29.785,-33.203,-73.730
1687767706.792,-26.855,-27.832,-18.066,-26.855,-99.609
1687767706.796,-13.184,-25.879,-18.066,-8.789,6.836
1687767706.800,-9.277,-29.785,-31.738,-1.465,279.297
1687767706.804,-4.395,-27.832,-21.973,-17.578,149.902
1687767706.808,-11.719,-35.645,-21.484,-43.945,-146.484
1687767706.810,-25.391,-45.898,-24.902,-44.922,-138.184
1687767706.814,-17.090,-41.992,-20.020,-36.621,-134.277
1687767706.818,-10.254,-36.133,-21.973,-26.367,-127.930
1687767706.822,-5.371,-41.992,-31.250,-22.461,-134.766
1687767706.826,-5.859,-48.340,-41.504,-19.043,-96.191
1687767706.830,-22.949,-37.598,-38.574,-30.762,-89.355
1687767706.834,-29.785,-36.621,-35.645,-48.828,-97.656
1687767706.837,-15.137,-43.457,-37.598,-31.250,-136.230
1687767706.841,-9.277,-39.062,-27.832,-17.090,120.605
1687767706.845,-22.949,-53.223,-24.414,-16.113,386.230
1687767706.849,-30.273,-55.664,-33.203,-29.297,31.250
1687767706.853,-36.133,-37.598,-25.879,-44.922,-190.430
1687767706.855,-32.715,-37.598,-28.320,-42.969,44.922
1687767706.859,-10.742,-34.180,-35.156,-36.133,43.945
1687767706.863,-6.348,-28.809,-34.180,-33.691,-78.125
1687767706.867,-31.250,-34.668,-36.133,-33.203,-106.445
1687767706.871,-31.250,-39.062,-32.715,-25.879,-144.531
1687767706.875,-11.719,-41.504,-24.902,-17.578,-80.078
1687767706.879,-3.906,-45.898,-32.227,-25.879,-42.969
1687767706.882,-3.906,-47.852,-35.156,-25.391,129.883
1687767706.886,-17.090,-47.363,-29.785,-19.531,295.410
1687767706.890,-18.066,-45.898,-26.855,-30.762,18.066
1687767706.894,-8.301,-41.992,-35.156,-35.645,-140.625
1687767706.898,3.418,-33.691,-40.039,-36.133,18.555
1687767706.900,15.137,-27.832,-35.645,-22.949,93.262
1687767706.904,-2.441,-36.133,-44.922,-34.180,-68.848
1687767706.908,-36.621,-48.340,-45.898,-38.574,-118.164
1687767706.912,-24.902,-42.969,-29.785,-10.742,-71.289
1687767706.916,-2.930,-37.598,-31.738,-22.949,-78.125
1687767706.920,-4.395,-39.062,-52.246,-36.621,-50.293
1687767706.924,-12.207,-34.668,-46.387,-35.645,-17.578
1687767706.927,-25.879,-37.109,-34.180,-45.898,178.711
1687767706.931,-18.555,-41.016,-46.875,-32.715,113.770
1687767706.935,0.488,-41.504,-44.922,-27.832,-178.711
1687767706.939,2.930,-40.039,-32.227,-30.273,-41.992
1687767706.943,-2.441,-32.227,-26.367,-32.715,132.812
1687767706.946,-12.207,-31.250,-28.320,-38.574,5.371
1687767706.950,-5.859,-36.133,-38.086,-38.574,-118.164
1687767706.954,8.789,-36.621,-32.227,-31.738,-131.836
1687767706.958,-1.465,-41.504,-28.320,-30.762,-71.289
1687767706.962,-13.672,-40.039,-40.527,-38.574,-77.637
1687767706.966,-11.230,-33.691,-43.945,-49.805,-104.980
1687767706.970,-10.254,-35.645,-31.738,-41.992,-74.219
1687767706.973,-8.301,-34.668,-19.043,-14.648,97.168
1687767706.977,4.395,-29.297,-14.160,-7.812,3.418
1687767706.981,0.000,-24.902,-22.949,-26.855,-151.855
1687767706.985,-24.902,-36.133,-31.738,-39.551,-158.691
1687767706.989,-19.043,-43.457,-30.762,-42.969,-173.828
1687767706.990,5.859,-41.016,-35.156,-34.180,-179.688
1687767706.994,8.301,-43.945,-35.645,-16.113,-184.570
1687767706.998,-1.465,-43.945,-24.414,-22.461,-128.906
1687767707.002,-23.438,-47.852,-26.367,-45.898,-59.570
1687767707.006,-38.574,-54.199,-43.945,-57.617,-190.918
1687767707.010,-28.809,-50.293,-31.250,-50.293,-150.879
1687767707.014,-12.695,-41.992,-12.695,-37.109,196.289
1687767707.017,-16.602,-38.086,-23.438,-27.832,295.898
1687767707.021,-26.855,-36.621,-26.855,-35.645,-64.941
1687767707.025,-30.273,-36.621,-19.043,-48.340,-193.848
1687767707.029,-6.836,-35.156,-21.484,-33.203,88.379
1687767707.033,4.395,-38.574,-27.344,-24.414,18.555
1687767707.035,-11.230,-39.551,-33.691,-32.715,-181.152
1687767707.039,-25.879,-40.527,-41.504,-39.062,-167.480
1687767707.043,-30.762,-41.504,-33.691,-41.992,-105.957
1687767707.047,-15.137,-36.133,-21.484,-35.645,-152.344
1687767707.051,2.441,-40.527,-21.973,-29.297,-159.180
1687767707.055,-3.418,-39.551,-31.738,-30.762,56.152
1687767707.059,-27.832,-29.785,-28.809,-25.879,234.375
1687767707.062,-35.156,-32.715,-20.508,-29.297,115.234
1687767707.066,-23.438,-39.551,-32.227,-43.457,-83.008
1687767707.070,-5.371,-25.391,-18.555,-34.180,-21.484
1687767707.074,10.742,-20.020,-9.277,-11.230,217.285
1687767707.078,-0.488,-39.062,-19.531,-29.297,-8.301
1687767707.095,-15.625,-40.039,-13.184,-43.945,-183.105
1687767707.099,-1.953,-26.855,-14.648,-43.945,-82.031
1687767707.103,16.602,-29.297,-23.438,-42.969,-83.984
1687767707.107,14.160,-33.691,-29.297,-35.645,-128.418
1687767707.111,-7.324,-24.414,-25.879,-30.762,-163.574
1687767707.115,-30.762,-33.203,-26.367,-40.527,-56.641
1687767707.119,-20.996,-41.992,-24.414,-39.551,-20.020
1687767707.122,-2.441,-41.504,-28.320,-28.320,-109.863
1687767707.126,-1.953,-41.016,-28.320,-39.551,-157.227
1687767707.130,-12.695,-35.156,-25.391,-33.691,102.539
1687767707.134,-18.066,-30.273,-16.113,-22.461,398.438
1687767707.138,-8.301,-28.320,-11.719,-25.391,-6.348
1687767707.140,1.465,-27.832,-29.297,-18.555,-237.793
1687767707.144,-2.441,-31.738,-31.738,-29.297,-117.676
1687767707.148,-11.230,-39.551,-21.484,-37.109,-210.449
1687767707.152,-15.137,-34.668,-29.297,-37.598,-254.395
1687767707.156,-13.672,-32.715,-33.691,-36.133,-203.613
1687767707.160,-10.254,-33.203,-23.438,-25.879,-142.578
1687767707.164,-12.207,-41.016,-16.113,-36.133,-40.039
1687767707.167,-9.277,-41.504,-17.578,-42.969,-108.398
1687767707.171,-21.484,-27.832,-19.531,-38.574,-139.160
1687767707.175,-38.574,-42.969,-27.832,-35.645,118.164
1687767707.179,-23.438,-55.176,-35.156,-51.270,-10.742
1687767707.183,-13.672,-48.340,-29.785,-54.199,-196.289
1687767707.185,-17.090,-49.316,-26.855,-49.316,-126.465
1687767707.189,-28.320,-53.223,-22.461,-60.547,-84.961
1687767707.193,-41.992,-45.410,-21.484,-60.547,-152.832
1687767707.197,-21.973,-41.992,-24.414,-53.711,-144.531
1687767707.201,1.465,-48.828,-27.832,-43.945,-74.707
1687767707.205,-1.465,-51.270,-23.438,-46.875,-14.160
1687767707.209,-9.766,-43.945,-18.066,-41.992,-20.020
1687767707.212,-13.184,-36.133,-27.832,-34.668,-71.289
1687767707.216,-5.859,-40.039,-42.969,-32.227,89.844
1687767707.220,5.859,-40.527,-28.320,-27.832,143.066
1687767707.224,1.465,-41.504,-22.949,-21.484,-40.527
1687767707.228,-0.977,-33.691,-26.855,-25.879,-126.953
1687767707.231,2.441,-26.855,-20.020,-31.250,89.355
1687767707.235,7.812,-34.668,-12.695,-33.203,108.398
1687767707.239,17.090,-37.598,-10.742,-42.480,-113.281
1687767707.243,0.488,-37.109,-18.555,-29.785,-64.453
1687767707.247,-13.184,-33.691,-18.066,-21.973,46.387
1687767707.251,-11.230,-31.250,-16.602,-29.785,22.949
1687767707.255,-13.672,-32.227,-24.414,-36.621,-18.555
1687767707.258,1.953,-32.227,-26.855,-42.969,-56.641
1687767707.262,-2.930,-25.879,-27.832,-21.973,155.762
1687767707.266,-17.578,-24.902,-35.645,-28.809,10.742
1687767707.270,-12.695,-33.691,-25.879,-32.715,-259.277
1687767707.274,2.930,-28.320,-13.672,-25.391,-143.555
1687767707.275,8.789,-29.297,-22.949,-22.461,-48.340
1687767707.279,8.301,-39.551,-29.785,-23.438,-76.660
1687767707.283,-6.836,-40.039,-20.020,-26.855,-116.211
1687767707.287,-24.414,-34.180,-16.602,-26.367,7.324
1687767707.291,-21.484,-31.738,-26.367,-34.180,3.418
1687767707.295,0.488,-36.133,-21.484,-35.645,-99.121
1687767707.299,7.812,-37.598,-11.719,-37.598,-106.934
1687767707.302,-10.742,-38.574,-19.531,-31.738,112.793
1687767707.306,-20.996,-34.180,-22.461,-11.719,237.305
1687767707.310,-5.371,-27.832,-9.766,-4.883,-89.355
1687767707.314,9.766,-30.273,-13.184,-19.043,-68.359
1687767707.318,14.648,-37.109,-21.484,-17.090,158.203
1687767707.320,-0.488,-40.039,-20.508,-16.602,7.324
1687767707.324,-27.344,-37.109,-23.438,-27.344,-197.266
1687767707.328,-26.367,-42.969,-25.879,-34.180,-172.363
1687767707.332,-4.395,-40.527,-15.625,-24.414,-89.844
1687767707.336,5.859,-33.203,-9.277,-10.254,-90.332
1687767707.340,0.977,-32.227,-15.625,-8.789,-95.215
1687767707.344,-21.973,-32.715,-14.648,-30.273,8.789
1687767707.347,-31.250,-37.109,-19.531,-36.621,302.734
1687767707.351,-10.254,-38.086,-28.320,-21.484,128.906
1687767707.355,9.277,-34.180,-25.391,-19.043,-205.566
1687767707.359,-2.441,-33.203,-16.113,-22.461,-204.102
1687767707.363,-18.066,-35.645,-10.742,-20.020,-137.207
1687767707.365,-19.531,-37.598,-11.719,-21.973,-146.484
1687767707.369,-4.883,-37.109,-12.207,-20.996,-181.641
1687767707.373,12.207,-40.527,-12.695,-13.184,-41.504
1687767707.377,4.395,-36.621,-15.137,-9.766,33.203
1687767707.381,-11.719,-28.809,-19.043,-13.672,-63.965
1687767707.385,-25.879,-33.203,-11.230,-8.301,-14.648
1687767707.389,-10.742,-32.715,-9.277,2.441,232.422
1687767707.392,10.742,-23.438,-11.230,4.883,289.551
1687767707.396,-13.184,-36.133,-8.789,-8.789,21.973
1687767707.400,-37.598,-41.504,-12.207,-22.461,-98.145
1687767707.404,-33.203,-31.250,-16.113,-10.742,94.727
1687767707.408,-18.066,-30.273,-13.672,0.488,41.992
1687767707.410,0.977,-31.250,-8.789,-3.906,-154.297
1687767707.414,-0.488,-39.551,-19.043,-14.648,-124.023
1687767707.418,-18.066,-48.340,-30.273,-27.832,-82.520
1687767707.422,-28.320,-42.480,-17.090,-23.438,-141.602
1687767707.426,-18.555,-30.273,-7.812,-10.254,-150.879
1687767707.430,-1.465,-31.250,-20.020,-11.719,-37.109
1687767707.434,-1.953,-44.434,-20.508,-17.578,116.211
1687767707.437,-28.320,-49.805,-18.555,-38.086,-66.895
1687767707.441,-41.016,-40.039,-15.625,-42.480,-185.059
1687767707.445,-24.414,-41.016,-13.184,-32.227,-102.051
1687767707.449,-6.348,-42.969,-19.531,-29.297,-17.578
1687767707.453,1.953,-31.250,-22.949,-32.715,-127.441
1687767707.470,-4.883,-22.461,-6.836,-33.203,-234.863
1687767707.474,-23.438,-31.250,-2.441,-25.879,-126.953
1687767707.478,-14.160,-32.715,-8.789,-21.484,-54.199
1687767707.482,-3.906,-23.438,-3.418,-24.902,-142.578
1687767707.486,-25.879,-34.180,-8.789,-22.949,-190.918
1687767707.490,-52.734,-49.316,-20.508,-31.738,-28.320
1687767707.494,-64.453,-51.270,-24.414,-40.527,-47.363
1687767707.497,-52.734,-46.387,-20.996,-19.531,-177.246
1687767707.501,-30.762,-35.645,-5.859,-11.719,-167.969
1687767707.505,-17.090,-33.691,-12.207,-14.160,106.934
1687767707.509,-29.785,-36.621,-13.672,-4.395,276.367
1687767707.513,-47.363,-34.180,-9.766,-12.695,-33.203
1687767707.515,-42.969,-30.273,-16.602,-19.043,-54.199
1687767707.519,-25.879,-26.855,-13.672,-15.137,243.164
1687767707.523,-5.371,-29.785,-15.625,-3.906,87.402
1687767707.527,-5.371,-32.227,-13.184,9.277,-97.656
1687767707.531,-35.156,-37.109,-5.371,-21.973,-60.059
1687767707.535,-37.109,-40.527,-7.812,-29.297,-30.762
1687767707.539,-22.461,-41.504,-10.742,-13.672,32.715
1687767707.542,-18.555,-39.062,-10.742,-17.578,-35.645
1687767707.546,-21.973,-41.992,-10.742,-5.371,-22.461
1687767707.550,-29.297,-41.016,-13.672,0.000,173.828
1687767707.554,-24.414,-35.645,-22.949,-18.555,-21.973
1687767707.558,-14.648,-36.133,-24.902,-13.184,-198.730
1687767707.560,-8.789,-42.969,-23.926,2.930,-57.129
1687767707.564,-7.324,-47.852,-22.461,-9.766,-58.594
1687767707.568,-31.250,-42.969,-20.508,-23.438,-98.145
1687767707.572,-37.598,-31.738,-20.996,-19.043,9.766
1687767707.576,-20.508,-30.273,-18.555,-9.277,18.555
1687767707.580,-4.883,-34.180,-7.324,-9.277,60.547
1687767707.584,8.789,-28.809,-9.277,-5.371,30.273
1687767707.587,-17.578,-22.949,-17.090,-10.742,-92.773
1687767707.591,-50.293,-30.273,-22.461,-17.578,36.621
1687767707.595,-26.367,-35.645,-25.391,-3.906,100.098
1687767707.599,-13.672,-35.645,-17.090,-4.883,-97.168
1687767707.603,-14.160,-36.133,-10.254,-16.602,-134.766
1687767707.605,-20.508,-29.297,-15.137,-15.625,15.137
1687767707.609,-33.203,-28.320,-13.672,-13.672,-32.227
1687767707.613,-18.555,-32.227,-4.883,-18.066,-194.824
1687767707.617,-13.672,-40.527,-7.812,-8.301,-118.652
1687767707.621,-11.719,-40.527,-20.996,7.812,-120.117
1687767707.625,-16.602,-33.691,-17.090,3.418,-110.352
1687767707.629,-34.180,-32.715,-9.277,-12.695,-29.785
1687767707.632,-23.438,-28.809,-5.371,-8.301,-61.523
1687767707.636,-8.301,-32.227,-13.672,5.371,162.598
1687767707.640,-12.207,-35.156,-21.973,-1.953,87.891
1687767707.644,-26.855,-31.738,-9.277,-19.043,-162.598
1687767707.648,-46.875,-36.621,-5.371,-20.020,-140.625
1687767707.650,-49.805,-37.109,-12.207,-23.926,-105.957
1687767707.654,-28.809,-25.879,-11.230,-22.949,-143.555
1687767707.658,-20.020,-23.438,-7.812,-10.254,-137.695
1687767707.662,-49.805,-33.203,-13.184,-11.719,-32.715
1687767707.666,-61.523,-34.668,-15.137,-24.414,-61.035
1687767707.670,-48.828,-32.715,-18.555,-30.273,-62.988
1687767707.674,-34.668,-32.715,-22.949,-25.879,-41.992
1687767707.677,-24.902,-30.273,-20.020,-15.625,160.645
1687767707.681,-31.738,-26.855,-16.113,-6.348,294.434
1687767707.685,-44.434,-31.738,-28.320,-25.391,-99.609
1687767707.689,-45.898,-35.156,-26.855,-46.875,-168.945
1687767707.693,-40.039,-38.086,-14.160,-27.832,103.516
1687767707.695,-32.715,-36.621,-20.996,-17.578,-4.395
1687767707.699,-33.203,-37.598,-16.113,-30.762,-205.078
1687767707.703,-65.430,-50.293,-10.254,-48.828,-145.996
1687767707.707,-70.312,-58.594,-10.254,-34.180,-116.211
1687767707.711,-27.344,-54.688,-6.348,3.906,-133.301
1687767707.715,2.441,-31.738,-5.859,-1.465,-44.922
1687767707.719,-10.254,-21.973,-23.438,-21.484,38.086
1687767707.722,-38.086,-29.297,-30.762,-25.391,240.723
1687767707.726,-35.156,-17.578,-20.996,-22.461,8.789
1687767707.730,-21.484,-15.137,-20.020,-20.508,-195.801
1687767707.734,-11.719,-23.926,-35.156,-27.832,-12.207
1687767707.738,-5.859,-26.855,-49.316,-36.621,-31.738
1687767707.740,-38.086,-30.762,-45.898,-59.082,-90.820
1687767707.744,-43.457,-25.879,-45.898,-66.406,-140.137
1687767707.748,-25.391,-19.043,-48.828,-54.199,-64.453
1687767707.752,-17.090,-22.461,-46.875,-50.293,-1.953
1687767707.756,-11.719,-23.438,-50.781,-56.152,-76.660
1687767707.760,-28.320,-22.461,-43.457,-68.359,13.672
1687767707.764,-31.250,-18.066,-40.527,-61.523,267.090
1687767707.767,-16.602,-16.113,-43.945,-55.176,246.582
1687767707.771,-14.648,-29.785,-42.969,-62.500,-88.379
1687767707.775,-18.555,-25.879,-47.363,-63.965,-145.508
1687767707.779,-36.621,-12.207,-62.988,-70.312,94.238
1687767707.783,-42.969,2.930,-65.430,-75.195,-35.156
1687767707.786,-42.969,-3.418,-64.941,-90.820,-170.898
1687767707.790,-38.574,-4.883,-63.965,-85.938,-54.688
1687767707.794,-20.508,-2.930,-65.918,-69.824,138.184
1687767707.798,-19.043,-14.160,-80.078,-80.078,-41.016
1687767707.802,-36.621,-13.672,-83.496,-87.891,-190.918
1687767707.806,-33.203,-3.906,-72.266,-74.707,17.090
1687767707.810,-9.766,8.301,-68.848,-60.059,150.879
1687767707.813,8.789,8.789,-74.707,-59.570,-57.129
1687767707.817,-0.488,-7.324,-81.543,-70.801,-159.668
1687767707.821,-21.973,-13.672,-81.543,-82.031,-84.961
1687767707.825,-15.137,0.977,-79.590,-71.289,-58.594
1687767707.829,-5.859,-14.160,-86.426,-69.336,-104.492
1687767707.846,10.742,-20.996,-86.914,-64.941,-103.516
1687767707.850,11.719,-8.301,-82.520,-61.035,-84.473
1687767707.854,-9.277,-12.207,-76.172,-56.152,-98.633
1687767707.858,-7.324,-29.297,-65.918,-43.945,-141.113
1687767707.862,0.977,-29.785,-79.102,-43.945,-144.043
1687767707.866,-1.953,-17.578,-75.195,-43.945,119.141
1687767707.870,-6.836,-15.625,-46.875,-27.344,271.973
1687767707.873,-32.715,-22.461,-48.828,-36.621,-93.750
1687767707.877,-55.664,-32.715,-58.594,-53.711,-256.348
1687767707.881,-45.410,-40.039,-61.035,-39.551,-36.621
1687767707.885,-32.227,-29.297,-48.340,-36.133,79.590
1687767707.889,-40.039,-36.133,-37.109,-43.457,-72.266
1687767707.890,-53.711,-40.039,-41.016,-40.527,-122.559
1687767707.894,-68.359,-26.367,-45.898,-44.922,108.398
1687767707.898,-55.176,-12.695,-56.641,-44.434,41.504
1687767707.902,-19.043,-9.277,-44.434,-17.090,-181.152
1687767707.906,-41.992,-21.484,-41.992,-22.461,-124.512
1687767707.910,-72.754,-34.668,-45.410,-41.504,46.875
1687767707.914,-70.801,-44.922,-40.039,-53.223,42.480
1687767707.917,-52.246,-39.551,-37.109,-47.363,-168.945
1687767707.921,-27.832,-30.762,-30.273,-18.066,-196.777
1687767707.925,-29.785,-37.109,-34.668,-0.488,131.836
1687767707.929,-34.180,-38.574,-30.762,-15.625,-7.812
1687767707.933,-40.527,-26.855,-27.344,-41.016,-221.680
1687767707.935,-40.039,-29.297,-46.387,-49.316,-135.254
1687767707.939,-35.645,-36.133,-58.594,-44.434,-83.008
1687767707.943,-32.715,-32.227,-41.016,-25.879,-156.250
1687767707.947,-27.832,-20.996,-21.973,-8.301,-106.934
1687767707.951,-46.387,-21.484,-28.809,-28.320,-29.785
1687767707.955,-52.246,-31.250,-44.922,-44.922,-26.367
1687767707.959,-27.344,-36.133,-41.016,-30.762,85.938
1687767707.962,-19.531,-31.250,-31.738,-29.785,29.297
1687767707.966,-36.133,-28.320,-33.691,-31.250,146.973
1687767707.970,-53.711,-27.832,-27.344,-18.066,327.148
1687767707.974,-45.898,-39.551,-26.855,-23.438,60.059
1687767707.978,-27.832,-36.133,-35.645,-27.344,-81.543
1687767707.980,-12.207,-19.531,-27.344,-9.766,76.172
1687767707.984,-17.578,-32.227,-22.949,-12.695,-9.766
1687767707.988,-42.969,-44.434,-39.062,-30.273,-135.254
1687767707.992,-37.109,-27.344,-39.062,-27.344,-112.793
1687767707.996,-5.859,-11.230,-23.438,-20.996,-101.074
1687767708.000,-8.789,-28.320,-28.320,-29.297,21.484
1687767708.004,-34.668,-41.992,-48.828,-57.617,5.371
1687767708.007,-45.898,-39.062,-58.105,-68.848,-77.148
1687767708.011,-48.828,-35.156,-51.270,-53.223,179.199
1687767708.015,-25.391,-32.227,-39.551,-37.598,107.910
1687767708.019,2.441,-26.367,-35.156,-22.461,-104.492
1687767708.023,-25.391,-24.902,-48.828,-38.086,-88.867
1687767708.025,-53.711,-27.832,-57.617,-55.176,-101.562
1687767708.029,-38.574,-22.949,-43.945,-49.805,-216.309
1687767708.033,-26.367,-32.227,-39.551,-54.199,-192.871
1687767708.037,-21.973,-39.551,-47.363,-48.828,-0.977
1687767708.041,-20.996,-40.527,-38.574,-35.645,26.855
1687767708.045,-29.297,-38.086,-29.297,-38.574,-41.016
1687767708.049,-24.414,-34.668,-27.344,-38.086,-15.137
1687767708.052,-21.973,-37.598,-26.855,-43.945,93.262
1687767708.056,-9.766,-25.879,-38.086,-48.340,93.750
1687767708.060,-2.930,-19.531,-41.992,-48.828,-75.195
1687767708.064,-19.531,-29.297,-37.598,-49.316,-87.891
1687767708.068,-33.203,-35.156,-42.480,-57.617,115.234
1687767708.070,-10.254,-33.203,-47.852,-59.570,102.539
1687767708.074,7.812,-28.809,-44.434,-51.758,-138.184
1687767708.078,4.395,-28.809,-42.969,-47.363,-92.773
1687767708.082,-3.418,-29.297,-39.062,-40.039,16.602
1687767708.086,-21.973,-31.250,-31.250,-47.852,-138.184
1687767708.090,-21.973,-36.133,-38.086,-54.199,-136.719
1687767708.094,7.324,-35.645,-35.156,-44.434,12.207
1687767708.097,7.324,-42.480,-30.273,-35.645,241.699
1687767708.101,-22.949,-40.527,-42.480,-44.922,109.375
1687767708.105,-31.250,-24.414,-44.434,-49.316,-124.512
1687767708.109,-14.648,-28.320,-44.434,-42.969,-101.562
1687767708.113,-1.465,-32.715,-39.551,-38.574,-92.285
1687767708.116,6.836,-33.691,-26.855,-37.109,-80.078
1687767708.120,-2.930,-35.645,-24.414,-43.945,-117.188
1687767708.124,-19.531,-34.668,-28.809,-49.316,-19.531
1687767708.128,-13.672,-37.109,-33.691,-52.246,23.926
1687767708.132,3.906,-35.645,-33.203,-55.664,-106.934
1687767708.136,13.672,-26.855,-22.949,-44.922,-45.898
1687767708.140,-6.348,-23.438,-29.297,-34.668,205.566
1687767708.143,-35.645,-30.273,-41.992,-46.875,255.371
1687767708.147,-35.645,-35.645,-37.598,-59.082,-79.102
1687767708.151,-11.230,-37.109,-36.133,-46.387,-112.305
1687767708.155,1.465,-38.574,-37.598,-35.156,102.539
1687767708.159,2.441,-29.785,-37.109,-41.992,-0.977
1687767708.160,-20.996,-36.133,-45.410,-55.664,-169.434
1687767708.164,-23.438,-38.574,-47.852,-46.875,-114.746
1687767708.168,-2.930,-40.039,-41.992,-37.109,44.434
1687767708.172,5.859,-47.363,-41.504,-32.227,-64.941
1687767708.176,7.324,-27.832,-41.992,-22.461,-165.039
1687767708.180,-11.719,-26.855,-39.551,-22.461,-39.551
1687767708.184,-12.207,-37.598,-41.016,-24.902,324.707
1687767708.187,1.465,-36.133,-39.551,-19.531,180.176
1687767708.191,6.348,-34.180,-41.992,-16.602,-107.910
1687767708.195,4.883,-41.016,-40.527,-28.809,-128.418
1687767708.199,-16.113,-44.434,-40.039,-45.898,-214.844
1687767708.203,-40.039,-49.805,-42.969,-53.223,-184.082
1687767708.220,-30.273,-60.547,-42.480,-47.363,-160.645
1687767708.224,-17.090,-53.711,-41.504,-45.410,-113.281
1687767708.228,-22.461,-41.504,-45.898,-49.805,-76.172
1687767708.232,-27.832,-38.086,-46.875,-46.875,-181.641
1687767708.236,-29.297,-44.434,-47.363,-50.293,-180.664
1687767708.240,-18.066,-49.316,-45.898,-53.223,-21.973
1687767708.244,4.883,-41.016,-40.039,-50.781,-20.020
1687767708.247,17.090,-36.133,-38.574,-53.223,4.883
1687767708.251,-1.953,-28.809,-34.180,-48.340,-68.359
1687767708.255,-28.320,-41.504,-41.016,-46.387,97.656
1687767708.259,-23.926,-46.387,-44.434,-36.133,397.461
1687767708.263,-3.906,-40.527,-51.758,-32.227,48.828
1687767708.265,2.930,-33.203,-62.500,-35.645,-96.680
1687767708.269,-9.277,-25.391,-49.805,-31.738,-60.059
1687767708.273,-17.578,-40.527,-42.480,-41.504,-150.391
1687767708.277,-1.953,-35.645,-44.922,-26.367,-108.398
1687767708.281,6.836,-24.414,-49.316,-13.184,-123.047
1687767708.285,-5.371,-32.227,-51.270,-36.133,-75.684
1687767708.289,-27.344,-33.691,-44.434,-42.480,-15.137
1687767708.292,-38.086,-26.367,-47.363,-43.457,-138.672
1687767708.296,-27.344,-25.391,-52.246,-37.598,-90.332
1687767708.300,-13.672,-30.762,-48.340,-29.297,284.668
1687767708.304,-3.906,-31.738,-42.969,-28.320,149.414
1687767708.308,-8.789,-38.574,-44.922,-44.922,-79.102
1687767708.310,-27.832,-40.527,-45.410,-60.547,-128.418
1687767708.314,-25.391,-30.762,-45.410,-50.293,-124.023
1687767708.318,-5.371,-29.785,-47.852,-38.086,-129.883
1687767708.322,0.488,-31.738,-53.223,-51.270,-141.113
1687767708.326,-15.137,-30.762,-56.641,-60.547,-63.477
1687767708.330,-26.367,-28.320,-51.758,-61.035,-3.906
1687767708.334,-14.648,-23.438,-44.922,-50.293,-23.438
1687767708.337,-9.277,-30.762,-43.945,-40.527,-12.695
1687767708.341,-3.418,-39.062,-45.898,-31.738,150.879
1687767708.345,-13.184,-41.504,-49.805,-37.109,213.379
1687767708.349,-22.949,-46.387,-44.434,-34.668,13.672
1687767708.353,-19.043,-48.340,-39.062,-21.484,-19.531
1687767708.355,-9.277,-35.645,-38.086,-7.812,199.707
1687767708.359,2.930,-31.250,-36.133,-8.301,151.855
1687767708.363,-1.953,-35.645,-39.551,-21.484,-108.887
1687767708.367,-26.367,-36.133,-38.086,-35.156,-144.531
1687767708.371,-37.109,-38.574,-39.551,-47.363,-109.375
1687767708.375,-11.230,-44.922,-47.852,-40.039,-40.527
1687767708.379,-1.465,-45.898,-53.223,-24.902,1.465
1687767708.382,-17.090,-36.133,-44.922,-25.879,-43.457
1687767708.386,-41.016,-32.227,-34.668,-28.809,109.863
1687767708.390,-50.293,-35.156,-33.203,-23.438,-46.387
1687767708.394,-23.438,-28.320,-30.762,-22.461,-245.117
1687767708.398,-11.719,-29.785,-37.109,-12.207,-106.934
1687767708.415,-20.996,-37.598,-39.062,-7.812,-83.008
1687767708.419,-35.156,-35.645,-37.598,-20.508,-142.578
1687767708.423,-44.922,-29.297,-38.086,-28.809,-130.859
1687767708.427,-30.273,-24.414,-33.691,-23.438,-72.266
1687767708.431,-15.137,-27.344,-34.180,-9.766,7.324
1687767708.435,-18.066,-33.691,-41.016,-22.461,-10.742
1687767708.439,-31.738,-25.391,-45.898,-50.293,-69.336
1687767708.442,-40.527,-21.484,-41.992,-50.293,122.559
1687767708.446,-35.645,-22.461,-38.086,-38.574,134.277
1687767708.450,-24.414,-22.461,-38.086,-37.598,-173.340
1687767708.454,-21.973,-34.668,-42.480,-36.621,-138.672
1687767708.458,-22.949,-28.809,-47.363,-32.715,56.152
1687767708.445,-32.715,-20.996,-42.480,-49.805,-43.945
1687767708.449,-31.250,-26.367,-40.039,-58.594,-198.242
1687767708.453,-23.926,-25.391,-47.852,-58.105,-118.652
1687767708.457,-19.043,-25.391,-49.316,-59.570,-73.730
1687767708.461,-22.461,-35.156,-44.434,-63.965,-104.980
1687767708.465,-38.086,-36.621,-54.688,-71.289,-48.828
1687767708.469,-25.879,-30.762,-56.152,-62.500,63.965
1687767708.472,-1.953,-34.668,-49.316,-53.223,98.633
1687767708.476,2.930,-29.785,-53.223,-55.664,-9.766
1687767708.480,-13.184,-19.043,-49.805,-64.453,-154.297
1687767708.484,-30.762,-20.020,-42.969,-69.336,-151.367
1687767708.488,-19.043,-20.996,-42.969,-54.199,84.961
1687767708.490,-4.395,-25.391,-47.363,-50.781,-49.316
1687767708.494,-2.441,-21.973,-49.805,-55.176,-136.230
1687767708.498,-10.742,-21.973,-46.387,-62.500,-50.781
1687767708.502,-26.367,-31.250,-45.410,-69.824,-56.641
1687767708.506,-23.438,-27.344,-53.223,-73.242,-109.375
1687767708.510,0.000,-27.832,-52.246,-67.383,-82.520
1687767708.514,8.301,-33.203,-52.246,-55.664,186.035
1687767708.517,-4.883,-21.484,-55.176,-47.852,270.020
1687767708.521,-13.672,-17.578,-48.340,-62.500,-94.238
1687767708.525,-12.207,-25.391,-41.992,-66.406,-204.102
1687767708.529,-1.953,-28.320,-46.875,-45.898,60.547
1687767708.533,0.000,-36.133,-49.805,-42.480,55.176
1687767708.535,-19.531,-40.527,-55.176,-76.660,-201.172
1687767708.539,-33.691,-36.133,-57.617,-88.379,-142.578
1687767708.543,-29.785,-31.250,-53.711,-73.730,-65.918
1687767708.547,-23.438,-44.434,-67.871,-83.008,-182.617
1687767708.551,-17.578,-40.039,-63.477,-76.660,-231.934
1687767708.555,-18.555,-23.438,-47.852,-69.824,-56.152
1687767708.559,-43.945,-30.273,-47.852,-74.219,129.883
1687767708.562,-46.387,-33.203,-41.992,-73.730,-49.316
1687767708.566,-20.996,-34.180,-40.039,-64.941,-222.168
1687767708.570,-11.719,-40.039,-47.363,-62.500,-46.875
1687767708.574,-9.766,-38.086,-49.316,-58.105,115.723
1687767708.578,-25.879,-39.062,-50.293,-74.707,-114.258
1687767708.595,-42.480,-41.992,-55.664,-83.496,-155.273
1687767708.599,-34.180,-45.410,-50.781,-71.777,-42.480
1687767708.603,-16.113,-43.457,-48.340,-61.523,-66.895
1687767708.607,-22.461,-33.203,-53.223,-62.012,-142.090
1687767708.611,-40.039,-28.320,-47.363,-69.824,-126.465
1687767708.615,-48.340,-27.344,-38.574,-68.848,-1.465
1687767708.619,-41.992,-24.414,-33.691,-65.430,-19.043
1687767708.622,-30.273,-32.227,-40.039,-59.570,-79.590
1687767708.626,-30.273,-36.621,-47.852,-60.059,-102.539
1687767708.630,-30.762,-29.785,-38.086,-55.664,77.148
1687767708.634,-47.363,-43.457,-49.805,-73.730,208.496
1687767708.638,-53.711,-53.223,-54.688,-92.773,-4.883
1687767708.640,-21.484,-27.344,-39.551,-64.941,-118.164
1687767708.644,-12.207,-20.508,-41.504,-40.527,111.328
1687767708.648,-41.504,-32.715,-50.781,-56.641,-22.949
1687767708.652,-59.570,-30.273,-50.293,-75.195,-259.277
1687767708.656,-54.199,-31.738,-50.293,-76.172,-150.879
1687767708.660,-31.738,-41.016,-49.805,-52.734,-41.992
1687767708.664,-26.367,-45.410,-50.293,-47.852,-45.898
1687767708.667,-49.805,-36.621,-45.898,-49.316,-138.672
1687767708.671,-71.777,-31.738,-40.527,-48.340,-84.473
1687767708.675,-76.660,-33.203,-43.945,-49.316,172.852
1687767708.679,-52.734,-35.645,-49.805,-52.246,45.898
1687767708.683,-30.273,-31.738,-49.805,-53.223,-124.023
1687767708.685,-42.480,-33.203,-43.457,-39.062,-79.102
1687767708.689,-69.824,-42.969,-46.387,-29.297,-1.953
1687767708.693,-68.848,-34.180,-55.176,-40.039,-55.664
1687767708.697,-49.805,-38.574,-60.059,-44.922,-141.113
1687767708.701,-38.086,-48.340,-47.363,-31.738,13.184
1687767708.705,-44.434,-43.457,-39.062,-30.762,100.098
1687767708.709,-62.012,-40.039,-48.828,-48.828,-54.688
1687767708.712,-66.895,-45.410,-60.547,-54.688,-129.395
1687767708.716,-50.781,-44.922,-62.012,-45.410,72.266
1687767708.720,-40.039,-39.062,-51.758,-40.039,175.781
1687767708.724,-44.922,-38.086,-51.758,-42.969,-66.406
1687767708.728,-57.129,-45.410,-52.246,-50.293,-141.602
1687767708.730,-62.012,-52.246,-44.434,-48.340,54.199
1687767708.734,-56.152,-48.828,-46.875,-49.805,-14.160
1687767708.738,-48.828,-52.734,-52.734,-54.199,-142.578
1687767708.742,-46.875,-55.176,-46.387,-49.805,-22.461
1687767708.746,-56.152,-50.293,-40.039,-56.641,57.129
1687767708.750,-71.777,-51.758,-45.410,-60.059,55.176
1687767708.754,-61.523,-46.875,-43.945,-55.176,37.109
1687767708.757,-26.855,-38.086,-41.504,-52.246,10.254
1687767708.761,-22.461,-36.621,-46.387,-37.598,229.492
1687767708.765,-53.711,-49.316,-51.270,-52.246,15.625
1687767708.769,-62.500,-54.688,-52.246,-67.383,-230.957
1687767708.773,-40.527,-41.016,-46.387,-47.852,-110.840
1687767708.775,-11.719,-34.180,-44.434,-36.621,-187.012
1687767708.779,-13.672,-42.969,-49.316,-43.945,-237.305
1687767708.783,-37.109,-44.922,-45.410,-47.852,-166.504
1687767708.787,-50.293,-43.945,-46.387,-55.664,-142.090
1687767708.791,-39.551,-46.875,-50.781,-54.199,-120.117
1687767708.795,-24.414,-43.945,-46.387,-37.598,-11.719
1687767708.799,-22.949,-32.227,-44.922,-32.227,16.113
1687767708.802,-44.434,-28.320,-49.805,-36.621,181.641
1687767708.806,-61.523,-32.227,-48.340,-38.574,287.109
1687767708.810,-50.293,-30.273,-48.828,-54.199,-48.340
1687767708.814,-39.062,-34.180,-56.641,-62.012,-136.230
1687767708.818,-32.715,-33.203,-49.316,-50.293,90.820
1687767708.820,-50.293,-35.645,-42.969,-53.223,8.301
1687767708.824,-84.961,-40.039,-53.223,-64.453,-251.465
1687767708.828,-89.844,-42.480,-56.641,-64.941,-187.988
1687767708.832,-73.730,-43.457,-59.570,-62.500,-79.102
1687767708.836,-73.242,-49.805,-62.012,-64.453,-104.980
1687767708.840,-83.984,-48.340,-61.523,-64.941,-5.859
1687767708.844,-99.121,-37.109,-56.641,-65.918,53.223
1687767708.847,-103.027,-42.969,-51.270,-61.523,220.703
1687767708.851,-80.566,-44.434,-55.176,-51.758,145.996
1687767708.855,-65.430,-39.551,-59.082,-46.875,-153.320
1687767708.859,-73.730,-37.109,-57.129,-64.453,-128.906
1687767708.863,-87.891,-26.367,-53.711,-72.266,-46.875
1687767708.865,-88.379,-27.832,-59.082,-66.895,-46.875
1687767708.869,-60.059,-35.645,-57.129,-57.129,-80.078
1687767708.873,-45.898,-34.180,-52.246,-50.293,-22.461
1687767708.877,-59.570,-25.879,-53.711,-43.457,-7.324
1687767708.881,-76.660,-33.691,-61.035,-53.223,-113.770
1687767708.885,-78.613,-40.527,-60.059,-66.895,-143.555
1687767708.889,-66.895,-35.156,-51.270,-42.969,38.086
1687767708.892,-48.340,-29.785,-41.016,-33.691,169.922
1687767708.896,-47.852,-18.066,-39.551,-47.852,-47.363
1687767708.900,-75.684,-22.949,-42.969,-62.012,-96.191
1687767708.904,-84.473,-31.250,-45.898,-65.430,45.898
1687767708.908,-67.871,-17.578,-50.293,-56.152,16.113
1687767708.910,-61.035,-21.973,-40.039,-61.035,-95.215
1687767708.914,-72.754,-14.160,-24.902,-71.289,-109.375
1687767708.918,-83.984,2.441,-24.414,-73.242,102.051
1687767708.922,-87.891,-15.137,-30.762,-74.219,0.488
1687767708.926,-101.074,-24.414,-42.969,-96.191,-240.234
1687767708.930,-107.422,-14.160,-35.156,-96.680,-20.996
1687767708.934,-119.141,-1.953,-29.785,-93.262,283.691
1687767708.937,-150.391,-1.953,-29.785,-122.559,96.191
1687767708.941,-170.898,-10.254,-25.391,-151.855,-144.043
1687767708.945,-166.992,-7.812,-20.996,-150.879,-98.633
1687767708.949,-144.043,5.859,-16.602,-144.531,0.488
1687767708.953,-145.020,14.648,-13.184,-148.438,-25.879
1687767708.956,-150.879,13.672,-13.184,-143.555,-39.062
1687767708.960,-136.230,11.230,-5.859,-146.973,0.000
1687767708.964,-113.281,16.602,-8.301,-145.996,-42.480
1687767708.968,-92.285,15.625,-17.090,-141.113,-119.141
1687767708.972,-92.773,4.883,-24.902,-145.508,-163.086
1687767708.976,-99.121,7.324,-29.785,-141.113,-38.574
1687767708.980,-110.352,3.906,-31.738,-147.949,-10.254
1687767708.983,-113.770,-15.625,-31.738,-149.902,-64.941
1687767708.987,-73.242,-10.742,-23.438,-123.535,-119.629
1687767708.991,-55.176,-0.488,-20.020,-98.145,48.828
1687767708.995,-68.848,-13.184,-33.203,-110.352,123.535
1687767708.999,-78.613,-28.809,-44.434,-115.723,-141.602
1687767709.015,-68.848,-29.785,-41.504,-107.422,-170.410
1687767709.019,-38.574,-21.484,-35.156,-89.844,-89.844
1687767709.023,-35.156,-28.320,-40.527,-81.055,-121.582
1687767709.027,-49.805,-31.738,-45.410,-94.727,-106.934
1687767709.031,-53.223,-29.785,-46.875,-101.562,-113.770
1687767709.035,-48.828,-38.086,-52.246,-90.820,191.895
1687767709.039,-25.391,-40.039,-49.805,-81.543,140.625
1687767709.042,1.465,-37.109,-50.781,-77.148,-208.008
1687767709.046,-1.465,-35.156,-51.270,-69.824,-131.348
1687767709.050,-18.066,-38.086,-56.641,-63.477,15.625
1687767709.054,-15.137,-46.875,-64.453,-63.965,-168.945
1687767709.058,14.648,-48.340,-58.594,-58.594,-210.449
1687767709.060,32.227,-53.711,-62.988,-48.828,-101.074
1687767709.064,27.344,-50.293,-66.895,-43.945,-110.352
1687767709.068,22.949,-42.969,-62.500,-54.199,-101.562
1687767709.072,9.277,-49.316,-63.477,-53.223,-165.039
1687767709.076,21.484,-49.316,-62.988,-39.062,-131.348
1687767709.080,43.457,-44.922,-57.617,-34.180,-68.848
1687767709.084,44.434,-45.898,-59.082,-24.414,-3.418
1687767709.087,27.832,-55.176,-61.523,-36.621,-14.648
1687767709.091,25.879,-58.594,-64.453,-29.297,60.059
1687767709.095,46.875,-52.246,-69.824,-14.648,297.852
1687767709.099,61.523,-41.992,-60.547,-21.973,85.938
1687767709.103,57.617,-44.922,-49.805,-20.020,-101.074
1687767709.105,33.691,-55.176,-55.176,-25.879,58.105
1687767709.109,22.461,-55.176,-57.129,-31.738,2.930
1687767709.113,42.480,-48.828,-51.758,-38.574,-228.516
1687767709.117,56.641,-41.016,-53.711,-33.691,-208.008
1687767709.121,54.688,-45.410,-53.223,-20.996,-46.387
1687767709.125,41.504,-51.758,-42.480,-20.508,-17.090
1687767709.129,23.438,-49.805,-41.992,-28.320,-82.031
1687767709.132,25.391,-43.945,-47.852,-30.273,-17.578
1687767709.136,40.527,-47.852,-48.828,-13.184,282.715
1687767709.140,41.016,-54.199,-47.363,-8.789,184.082
1687767709.144,28.320,-56.152,-47.363,-24.414,-99.609
1687767709.148,8.789,-53.223,-53.223,-37.598,-112.305
1687767709.165,10.742,-53.711,-54.688,-34.668,-86.426
1687767709.169,37.109,-53.223,-47.852,-18.555,-101.074
1687767709.173,43.945,-44.434,-44.434,-18.555,-136.230
1687767709.177,17.090,-47.852,-48.340,-47.363,-103.027
1687767709.181,-4.883,-52.246,-50.293,-58.105,-45.898
1687767709.185,-1.953,-49.316,-50.293,-52.734,20.996
1687767709.189,19.043,-51.270,-45.410,-44.922,25.879
1687767709.192,30.273,-45.410,-44.434,-38.086,140.625
1687767709.196,15.625,-40.527,-48.828,-40.527,220.215
1687767709.200,-8.789,-36.133,-47.363,-54.199,-60.547
1687767709.204,-9.766,-35.645,-42.969,-51.758,-143.066
1687767709.208,0.977,-38.574,-44.922,-57.617,145.996
1687767709.195,6.836,-30.273,-45.410,-61.035,80.566
1687767709.199,-7.812,-26.855,-47.363,-56.152,-154.297
1687767709.203,-23.438,-33.203,-49.805,-58.594,-148.926
1687767709.207,-27.344,-34.668,-43.457,-52.734,-161.133
1687767709.211,-23.438,-38.086,-42.969,-46.875,-173.340
1687767709.215,-6.836,-42.480,-49.316,-41.016,-182.617
1687767709.219,-12.207,-43.457,-49.316,-45.898,-44.434
1687767709.222,-33.203,-40.527,-48.828,-61.035,-6.836
1687767709.226,-29.785,-35.645,-41.992,-56.641,-90.332
1687767709.230,-13.672,-43.457,-38.086,-52.246,-164.062
1687767709.234,-11.230,-50.293,-40.039,-48.340,-96.680
1687767709.238,-21.484,-43.457,-36.621,-33.203,181.641
1687767709.241,-34.180,-38.086,-36.621,-38.574,64.453
1687767709.245,-31.250,-43.457,-37.109,-36.621,-161.133
1687767709.249,-13.184,-37.109,-33.691,-29.297,-86.426
1687767709.253,-7.812,-36.133,-40.527,-36.133,-19.531
1687767709.257,-8.301,-43.945,-41.992,-41.016,-120.117
1687767709.261,-16.113,-30.762,-36.621,-45.898,-99.121
1687767709.265,-27.832,-17.578,-37.598,-48.828,143.066
1687767709.268,-13.184,-29.297,-38.574,-48.340,204.102
1687767709.272,12.695,-38.574,-38.086,-43.945,-135.742
1687767709.276,12.695,-28.320,-39.551,-45.898,-125.000
1687767709.280,-10.254,-27.832,-50.293,-44.434,159.668
1687767709.284,-18.555,-26.855,-50.781,-36.133,-85.938
1687767709.286,-8.789,-24.902,-41.016,-39.551,-246.094
1687767709.290,8.301,-38.574,-46.875,-42.480,-96.680
1687767709.294,15.137,-44.434,-44.922,-30.762,-8.301
1687767709.298,3.418,-40.039,-44.434,-25.879,-89.844
1687767709.302,-11.230,-38.574,-43.457,-39.062,-194.336
1687767709.306,-3.418,-40.039,-38.574,-46.387,-110.352
1687767709.310,21.973,-35.645,-47.363,-27.832,279.785
1687767709.313,41.016,-29.297,-41.016,-7.324,239.746
1687767709.317,30.273,-31.738,-22.949,-11.719,-137.207
1687767709.321,-11.719,-39.062,-18.555,-42.480,-131.348
1687767709.325,-13.184,-41.992,-26.855,-52.246,-86.426
1687767709.329,15.625,-44.434,-30.762,-33.691,-130.371
1687767709.345,22.461,-45.898,-22.949,-18.066,-130.859
1687767709.349,14.648,-41.016,-16.602,-28.320,-98.145
1687767709.353,-15.137,-40.039,-11.230,-39.062,-172.363
1687767709.357,-22.461,-57.617,-14.648,-30.762,-225.098
1687767709.361,1.465,-56.641,-18.555,-17.090,-110.352
1687767709.365,4.883,-49.805,-12.695,-14.160,114.258
1687767709.369,-12.695,-62.012,-7.324,-25.879,225.098
1687767709.372,-35.645,-72.754,-4.883,-21.973,31.738
1687767709.376,-28.809,-70.312,-1.465,-19.531,-164.062
1687767709.380,-6.348,-65.430,-12.207,-6.348,64.941
1687767709.384,4.395,-58.594,-17.090,11.719,336.426
1687767709.388,0.977,-54.199,-4.883,-1.465,17.578
1687767709.390,-11.719,-57.129,3.418,-11.719,-152.344
1687767709.394,-17.578,-54.199,4.883,-8.789,-18.066
1687767709.398,6.836,-45.898,2.930,-8.301,-73.242
1687767709.402,26.367,-41.992,-1.465,11.719,-116.211
1687767709.406,12.695,-49.316,-4.883,21.973,-64.453
1687767709.410,-5.859,-62.500,0.977,-1.465,-38.086
1687767709.414,-10.742,-59.082,-1.953,-16.602,-16.113
1687767709.417,9.766,-45.410,4.883,0.000,-27.344
1687767709.421,20.508,-47.363,10.742,0.977,-75.195
1687767709.425,3.418,-57.617,1.465,2.930,219.238
1687767709.429,-12.695,-53.223,12.207,13.672,137.207
1687767709.433,-18.066,-44.434,17.090,-0.488,-141.113
1687767709.435,-7.812,-48.828,10.254,-8.301,-65.430
1687767709.439,14.160,-53.711,8.789,-0.977,-68.848
1687767709.443,14.648,-53.223,2.441,-6.348,-131.836
1687767709.447,0.488,-54.688,1.465,-26.855,-187.012
1687767709.451,-8.301,-47.363,3.906,-14.648,-145.508
1687767709.455,-11.230,-48.828,1.465,5.859,0.977
1687767709.459,3.906,-49.805,-0.977,-8.789,30.762
1687767709.462,9.766,-43.457,-2.441,-20.020,-141.602
1687767709.466,-10.254,-46.875,-0.977,-6.348,-21.973
1687767709.470,-27.832,-49.805,-7.812,-17.578,74.707
1687767709.474,-18.066,-45.410,-15.137,-21.973,-106.934
1687767709.478,-4.395,-44.922,-15.137,-8.301,-75.684
1687767709.480,-6.348,-41.992,-12.207,-14.648,78.125
1687767709.484,-21.973,-40.527,-20.020,-30.762,25.879
1687767709.488,-31.250,-38.574,-24.414,-36.133,-135.742
1687767709.492,-19.043,-42.969,-17.578,-33.691,-141.602
1687767709.496,2.441,-42.969,-15.625,-42.480,-106.445
1687767709.500,7.324,-31.738,-16.113,-41.016,22.949
1687767709.504,-7.324,-33.203,-17.090,-39.062,-2.441
1687767709.507,-25.879,-40.039,-18.066,-38.086,-60.059
1687767709.511,-23.438,-40.527,-28.320,-29.297,140.137
1687767709.515,-2.930,-41.016,-30.273,-29.297,78.125
1687767709.519,13.184,-42.969,-25.391,-30.273,-107.910
1687767709.523,13.672,-43.945,-29.785,-17.090,-20.020
1687767709.525,-16.113,-45.898,-31.738,-24.414,28.320
1687767709.529,-22.461,-53.711,-41.504,-37.109,-166.992
1687767709.533,4.883,-61.035,-54.688,-38.574,-160.156
1687767709.537,16.113,-49.316,-46.875,-17.090,-33.203
1687767709.541,-2.930,-42.969,-34.180,-5.859,-16.602
1687767709.545,-15.137,-45.410,-26.855,-20.508,19.531
1687767709.549,-14.648,-44.922,-23.438,-24.414,-37.598
1687767709.552,-11.719,-44.922,-27.832,-25.391,110.840
1687767709.556,14.160,-41.016,-34.180,-15.625,190.918
1687767709.560,0.000,-35.156,-29.785,-0.488,-37.598
1687767709.564,-57.617,-32.715,-15.137,-6.348,-59.570
1687767709.568,-68.848,-36.621,-20.020,-18.066,14.648
1687767709.571,-42.969,-34.668,-30.273,-13.672,-44.922
1687767709.575,-23.438,-33.691,-31.250,-10.742,-163.574
1687767709.579,-23.438,-32.227,-30.762,-10.254,-43.945
1687767709.583,-33.203,-41.016,-27.344,-13.672,23.926
1687767709.587,-37.598,-47.363,-30.762,-13.184,-111.816
1687767709.591,-25.879,-42.480,-31.738,-7.324,-97.168
1687767709.595,-9.277,-41.992,-32.227,-17.090,74.707
1687767709.598,-8.789,-42.969,-37.598,-13.672,295.898
1687767709.602,-28.320,-44.434,-29.785,-29.785,73.730
1687767709.606,-43.945,-41.992,-25.391,-41.016,-202.637
1687767709.610,-38.086,-37.109,-33.203,-31.738,-125.977
1687767709.614,-14.648,-34.180,-38.574,-30.762,-3.906
1687767709.615,-15.625,-38.086,-35.645,-40.039,-31.738
1687767709.619,-40.039,-39.062,-30.762,-51.758,-116.211
1687767709.623,-42.969,-38.574,-35.156,-46.875,-63.965
1687767709.627,-36.621,-44.434,-44.434,-41.504,-26.855
1687767709.631,-24.414,-42.969,-41.504,-39.551,54.199
1687767709.635,-22.461,-39.551,-35.645,-36.621,38.086
1687767709.639,-28.809,-28.320,-31.250,-37.109,118.652
1687767709.642,-37.109,-27.832,-34.180,-19.531,307.129
1687767709.646,-28.320,-37.109,-41.504,-17.090,10.742
1687767709.650,-13.184,-34.668,-36.621,-19.043,-122.559
1687767709.654,-9.277,-37.109,-33.691,-8.789,21.484
1687767709.658,-23.926,-39.062,-32.715,-18.555,-32.715
1687767709.660,-48.828,-41.504,-32.227,-13.184,-174.805
1687767709.664,-45.410,-44.434,-40.527,-8.789,-176.270
1687767709.668,-26.367,-45.410,-44.434,-19.531,-29.785
1687767709.672,-15.137,-44.922,-49.316,-18.555,-123.535
1687767709.676,-16.113,-44.922,-51.270,-20.996,-185.059
1687767709.680,-34.668,-35.645,-44.434,-23.926,9.277
1687767709.684,-47.363,-32.715,-55.176,-35.645,234.863
1687767709.687,-37.109,-44.922,-64.941,-41.016,53.223
1687767709.691,-24.414,-45.898,-54.199,-26.367,-115.234
1687767709.695,-49.316,-34.668,-40.527,-18.066,8.789
1687767709.699,-66.895,-27.832,-32.715,-4.395,24.902
1687767709.703,-56.641,-21.973,-34.180,-12.695,-145.508
1687767709.720,-52.246,-17.090,-42.480,-38.574,-162.109
1687767709.724,-51.270,-26.367,-48.340,-36.621,-79.590
1687767709.728,-49.805,-32.227,-41.992,-28.320,-70.801
1687767709.732,-46.387,-25.391,-46.875,-25.391,-112.793
1687767709.736,-50.781,-24.414,-51.270,-30.273,-91.797
1687767709.740,-54.688,-27.832,-43.945,-37.109,20.996
1687767709.744,-36.621,-22.949,-41.504,-28.809,89.355
1687767709.747,-27.344,-21.973,-41.016,-24.902,-85.938
1687767709.751,-45.898,-28.320,-42.969,-30.273,-178.223
1687767709.755,-53.711,-30.273,-42.969,-42.969,5.859
1687767709.759,-47.852,-27.344,-43.457,-44.434,191.406
1687767709.763,-29.297,-25.391,-41.504,-36.133,-35.645
1687767709.765,-26.367,-22.461,-41.016,-26.367,-138.672
1687767709.769,-46.387,-29.297,-38.574,-30.273,-9.277
1687767709.773,-48.828,-33.203,-43.457,-52.734,-133.301
1687767709.777,-35.645,-28.320,-42.480,-51.270,-198.730
1687767709.781,-12.207,-36.621,-38.086,-37.109,-82.520
1687767709.785,-3.418,-36.133,-48.828,-31.250,-37.598
1687767709.789,-18.555,-20.996,-40.527,-25.391,-90.332
1687767709.792,-26.367,-25.391,-25.879,-22.949,-162.598
1687767709.796,-27.344,-31.738,-23.926,-25.879,-49.805
1687767709.800,-11.719,-27.344,-29.297,-15.137,265.625
1687767709.804,-12.695,-30.273,-41.016,-26.367,96.680
1687767709.808,-36.621,-35.156,-44.922,-39.551,-121.094
1687767709.810,-31.250,-31.250,-39.551,-38.086,-6.836
1687767709.814,-21.484,-27.832,-29.297,-27.832,37.598
1687767709.818,-10.254,-32.715,-35.156,-22.461,-58.594
1687767709.822,-0.488,-27.832,-40.039,-15.137,-124.512
1687767709.826,-19.531,-26.367,-36.621,-17.090,-27.832
1687767709.830,-40.527,-33.691,-50.293,-37.598,16.113
1687767709.834,-29.785,-34.668,-55.176,-45.898,-99.609
1687767709.837,-5.859,-31.250,-50.293,-36.621,-109.863
1687767709.841,-0.488,-30.762,-51.270,-24.414,21.484
1687767709.845,-4.395,-27.344,-50.781,-18.555,135.254
1687767709.849,-26.367,-23.926,-46.875,-42.969,-4.883
1687767709.853,-31.250,-23.926,-41.504,-51.758,-129.395
1687767709.856,-1.465,-23.926,-33.203,-32.227,27.832
1687767709.860,9.277,-33.203,-34.180,-32.227,42.969
1687767709.864,-0.488,-38.086,-41.992,-39.551,-107.422
1687767709.868,-13.184,-27.832,-43.945,-32.715,-68.359
1687767709.872,-18.555,-22.461,-39.551,-27.832,-3.906
1687767709.876,4.395,-17.090,-33.203,-20.508,-3.418
1687767709.880,21.973,-14.648,-24.902,-27.344,-22.461
1687767709.883,11.230,-21.484,-29.785,-62.988,-54.199
1687767709.887,-29.785,-30.762,-38.574,-72.754,181.152
1687767709.891,-42.969,-29.785,-28.809,-54.688,-2.930
1687767709.895,-19.043,-30.762,-22.461,-53.711,-220.215
1687767709.899,-7.324,-25.879,-27.832,-52.246,-142.090
1687767709.900,-20.996,-21.973,-30.762,-43.945,-90.820
1687767709.904,-46.387,-33.691,-38.574,-47.363,-82.031
1687767709.908,-51.270,-37.598,-41.504,-45.898,-117.676
1687767709.912,-42.480,-43.457,-32.227,-40.527,-54.199
1687767709.916,-22.461,-36.621,-19.043,-32.227,-5.371
1687767709.920,-30.762,-30.273,-22.949,-25.391,47.363
1687767709.924,-41.992,-31.250,-27.344,-23.438,49.316
1687767709.927,-25.391,-24.414,-22.461,-30.762,130.859
1687767709.931,-17.578,-24.902,-27.832,-22.461,319.336
1687767709.935,-7.812,-31.738,-38.574,-17.578,104.492
1687767709.939,5.859,-26.855,-30.273,-23.438,-4.883
1687767709.943,-4.883,-18.066,-28.320,-16.113,154.297
1687767709.945,-30.762,-24.414,-43.457,-13.184,-3.906
1687767709.949,-24.414,-30.762,-38.574,-34.668,-233.398
1687767709.953,0.000,-29.297,-23.926,-27.832,-120.605
1687767709.957,0.977,-20.020,-27.344,-10.742,-63.965
1687767709.961,-11.230,-29.297,-38.086,-33.691,-172.852
1687767709.965,-16.113,-38.086,-34.180,-57.129,-190.430
1687767709.969,-4.395,-31.738,-30.273,-44.922,-81.543
1687767709.972,16.113,-22.949,-34.180,-18.555,265.137
1687767709.976,19.531,-27.344,-38.574,-31.738,100.098
1687767709.980,21.484,-29.785,-21.973,-46.387,-176.270
1687767709.984,-1.465,-25.879,-22.461,-39.551,-149.414
1687767709.988,-11.230,-29.297,-33.203,-33.691,-109.375
1687767709.990,10.254,-39.062,-30.273,-23.926,-103.516
1687767709.994,3.418,-47.363,-34.180,-31.250,-169.922
1687767709.998,-16.602,-38.574,-37.109,-31.250,-147.461
1687767710.002,-25.879,-37.598,-47.852,-28.320,-157.715
1687767710.006,-14.160,-45.898,-28.809,-22.461,-177.734
1687767710.010,-3.418,-36.133,-19.043,-22.949,-155.762
1687767710.014,-8.301,-20.508,-29.785,-24.902,45.898
1687767710.017,-11.719,-16.113,-19.531,-26.367,135.742
1687767710.021,-18.555,-16.113,-17.090,-28.809,-53.223
1687767710.025,-29.297,-28.809,-29.785,-40.039,-70.801
1687767710.029,-20.020,-46.387,-40.039,-36.133,177.734
1687767710.033,-8.789,-37.109,-41.992,-37.109,185.059
1687767710.035,0.488,-28.809,-38.574,-44.922,-90.332
1687767710.039,-12.207,-29.785,-33.203,-44.922,-138.672
1687767710.043,-33.203,-29.297,-30.273,-44.434,-96.680
1687767710.047,-15.625,-31.250,-27.344,-21.973,-109.375
1687767710.051,5.371,-28.320,-23.926,-15.625,-148.438
1687767710.055,-1.953,-26.367,-21.484,-23.438,-77.637
1687767710.059,-24.414,-27.344,-25.879,-17.090,143.555
1687767710.062,-27.832,-31.250,-31.250,-23.438,3.418
1687767710.066,-7.812,-37.598,-24.902,-30.762,-207.031
1687767710.070,7.324,-44.434,-25.391,-25.391,-145.020
1687767710.074,4.883,-37.598,-33.203,-7.324,20.020
1687767710.078,-16.602,-35.156,-48.340,-24.414,-51.758
1687767710.095,-20.020,-41.016,-54.199,-41.992,-181.641
1687767710.099,0.488,-46.387,-41.992,-28.320,-41.992
1687767710.103,8.789,-38.574,-32.227,-27.832,20.508
1687767710.107,-0.488,-26.367,-32.715,-34.668,-89.844
1687767710.111,-7.812,-30.762,-48.828,-37.109,-117.676
1687767710.115,-12.695,-30.273,-40.039,-38.574,47.852
1687767710.119,-4.883,-26.855,-32.715,-38.574,96.680
1687767710.122,15.137,-36.621,-35.645,-35.156,-114.258
1687767710.126,26.367,-42.480,-26.367,-24.414,-167.480
1687767710.130,11.230,-38.086,-19.531,-27.832,-15.625
1687767710.134,-19.531,-36.133,-18.066,-38.086,24.902
1687767710.138,-6.348,-32.227,-22.461,-30.273,-126.953
1687767710.140,29.297,-33.203,-27.832,-19.531,-142.578
1687767710.144,30.273,-39.062,-22.461,-18.555,108.398
1687767710.148,5.371,-38.574,-28.809,-22.949,31.738
1687767710.152,-2.441,-45.898,-24.414,-16.602,-211.914
1687767710.156,19.531,-38.574,-4.883,-11.719,-116.211
1687767710.160,32.715,-26.367,-17.090,-20.508,-57.129
1687767710.164,31.250,-32.227,-27.832,-22.461,-20.508
1687767710.167,17.090,-32.715,-17.090,-25.391,-44.434
1687767710.171,-12.207,-33.203,-15.137,-25.391,-97.656
1687767710.175,-3.906,-33.691,-15.137,-7.812,136.719
1687767710.179,21.973,-33.203,-18.066,-6.348,9.277
1687767710.183,26.367,-37.598,-23.926,-13.184,-133.301
1687767710.185,12.695,-34.668,-22.949,-12.207,-42.480
1687767710.189,5.371,-33.691,-29.785,-13.672,-36.621
1687767710.193,7.812,-40.527,-28.320,-11.719,-102.051
1687767710.197,14.160,-38.574,-19.043,-14.648,-178.223
1687767710.201,26.367,-34.668,-7.324,-10.742,-35.156
1687767710.205,15.137,-35.645,-9.277,-9.277,104.004
1687767710.209,-4.883,-27.832,-10.254,-13.672,16.602
1687767710.212,6.836,-26.855,-5.371,-2.930,-92.773
1687767710.216,24.414,-26.367,-14.160,-2.930,52.246
1687767710.220,28.320,-34.180,-26.855,-3.418,234.375
1687767710.224,6.348,-41.992,-19.531,-9.277,96.680
1687767710.228,-10.254,-33.691,-11.230,-21.484,-42.480
1687767710.230,-3.906,-32.227,-22.461,-23.926,34.668
1687767710.234,2.930,-36.133,-18.066,-16.113,-68.848
1687767710.238,18.066,-38.574,-16.602,-11.719,-196.777
1687767710.242,4.883,-35.156,-18.555,-9.277,-119.141
1687767710.246,-6.348,-23.926,-7.812,-9.277,-110.840
1687767710.250,2.930,-26.855,-7.324,-7.812,-67.871
1687767710.254,12.207,-34.668,-15.137,-8.301,-39.551
1687767710.257,23.438,-30.273,-22.461,-7.812,-16.602
1687767710.261,19.043,-24.414,-20.996,6.348,258.789
1687767710.265,11.719,-22.949,-16.602,-0.977,198.730
1687767710.269,2.441,-24.902,-17.090,-14.648,-62.988
1687767710.273,2.930,-32.227,-19.043,-10.254,-49.805
1687767710.275,15.625,-36.621,-11.719,-2.930,-67.383
1687767710.279,13.184,-30.762,-3.906,17.578,-60.059
1687767710.283,7.812,-29.785,-6.348,9.277,-42.969
1687767710.287,-2.441,-29.785,8.301,-12.695,-56.152
1687767710.291,-4.395,-29.297,11.719,-13.672,-15.137
1687767710.295,14.648,-33.203,-0.488,-10.742,33.691
1687767710.299,30.762,-21.973,-0.488,4.395,-68.359
1687767710.302,0.000,-16.113,1.953,12.207,30.762
1687767710.306,-17.090,-27.832,1.953,7.812,250.000
1687767710.310,5.859,-28.320,-2.441,-1.465,-52.734
1687767710.314,19.531,-23.926,-9.766,-4.883,-103.027
1687767710.318,15.137,-30.762,-12.695,8.789,77.148
1687767710.321,-0.488,-39.062,-17.578,5.371,-25.879
1687767710.325,-23.438,-38.574,-15.137,-11.230,-202.637
1687767710.329,-22.461,-32.227,-3.418,-4.883,-226.562
1687767710.333,-4.883,-35.645,3.418,-12.695,-181.152
1687767710.337,2.930,-51.270,3.906,-3.418,-194.336
1687767710.341,1.953,-53.711,4.883,16.113,-168.945
1687767710.345,-2.441,-36.621,9.766,16.113,-30.273
1687767710.348,3.418,-24.414,2.441,18.066,89.355
1687767710.352,22.461,-20.996,-11.230,13.672,-73.242
1687767710.356,19.043,-23.926,-11.230,5.371,-243.652
1687767710.360,2.930,-27.344,-8.789,3.906,-115.723
1687767710.364,-10.742,-26.367,-10.742,-4.395,-33.691
1687767710.365,-3.418,-20.020,-13.184,-17.090,-171.387
1687767710.369,5.371,-20.508,-22.461,-24.414,-141.113
1687767710.373,-4.883,-26.855,-38.086,-27.344,9.277
1687767710.377,-8.789,-32.715,-40.039,-23.438,-0.488
1687767710.381,-16.602,-36.621,-34.668,-25.391,-96.191
1687767710.385,-25.879,-38.086,-46.875,-34.180,-84.961
1687767710.389,-16.113,-44.434,-56.152,-34.668,107.910
1687767710.392,-6.348,-38.574,-51.270,-36.133,206.543
1687767710.396,-12.207,-20.508,-55.664,-45.410,-88.379
1687767710.400,-16.602,-22.461,-52.734,-38.574,-147.949
1687767710.404,-9.277,-28.320,-46.875,-33.203,109.375
1687767710.408,-2.930,-13.184,-50.781,-35.156,2.930
1687767710.412,3.418,-10.742,-55.176,-38.086,-139.160
1687767710.416,3.418,-16.113,-65.430,-39.551,-42.480
1687767710.420,-23.926,-10.742,-67.383,-47.852,125.488
1687767710.424,-30.762,-2.441,-61.523,-43.457,9.766
1687767710.428,-17.578,-3.418,-68.848,-41.016,-154.785
1687767710.432,-4.395,-7.812,-70.312,-47.363,3.418
1687767710.436,3.906,-14.648,-66.895,-30.273,229.004
1687767710.439,-10.742,-19.531,-68.848,-33.691,-15.137
1687767710.443,-10.742,-11.719,-67.383,-51.758,-259.277
1687767710.447,10.254,-7.324,-64.453,-41.016,-187.500
1687767710.451,11.230,-14.648,-62.012,-31.250,-56.641
1687767710.455,9.277,-3.418,-59.082,-25.879,-48.828
1687767710.470,0.000,5.859,-60.547,-23.438,-157.227
1687767710.474,-1.465,5.859,-57.617,-33.691,-145.996
1687767710.478,20.996,-2.930,-57.129,-24.902,-102.539
1687767710.482,30.762,-12.207,-62.012,-6.836,-70.312
1687767710.486,31.738,-13.184,-49.316,-12.695,-126.953
1687767710.490,24.902,-8.789,-40.039,-14.160,111.816
1687767710.494,16.602,-7.812,-40.039,-5.371,353.027
1687767710.497,25.879,-6.836,-37.598,-3.906,-44.434
1687767710.501,40.039,2.441,-42.480,5.371,-179.199
1687767710.505,33.691,-4.395,-46.875,-4.883,17.578
1687767710.509,14.648,-18.555,-36.621,-21.973,-31.250
1687767710.513,8.301,-18.555,-33.203,-22.461,-156.250
1687767710.515,16.113,-23.438,-33.203,-18.066,-121.582
1687767710.519,25.879,-23.438,-34.180,-15.137,65.430
1687767710.523,29.297,-33.203,-42.969,-17.090,-28.809
1687767710.527,14.648,-25.391,-26.855,-14.160,-158.691
1687767710.531,-3.906,-11.719,-13.672,-3.418,-173.828
1687767710.535,0.977,-25.879,-14.648,-3.418,-128.906
1687767710.539,5.371,-19.531,-23.438,-18.555,19.043
1687767710.542,9.277,-16.602,-28.320,-20.508,-51.270
1687767710.546,20.508,-15.625,-22.949,-6.348,-86.914
1687767710.550,-15.137,-18.066,-28.809,-16.602,242.188
1687767710.554,-34.180,-23.926,-21.973,-25.391,139.160
1687767710.558,-5.371,-11.230,-12.695,-20.020,-121.094
1687767710.561,5.371,-19.043,-13.184,-23.438,-34.180
1687767710.565,-9.277,-39.062,-18.555,-29.297,-52.246
1687767710.569,-26.367,-30.273,-25.879,-29.785,-109.375
1687767710.573,-29.297,-19.531,-27.344,-23.926,-132.324
1687767710.577,-12.207,-39.551,-31.738,-18.555,-36.133
1687767710.581,9.277,-36.133,-29.297,-20.508,93.262
1687767710.585,-0.488,-17.090,-29.297,-26.367,41.504
1687767710.588,-33.203,-26.367,-35.156,-46.875,-34.668
1687767710.592,-46.875,-24.902,-23.438,-46.387,196.289
1687767710.596,-38.086,-19.531,-20.996,-30.762,374.512
1687767710.600,-22.949,-23.926,-19.531,-41.016,123.047
1687767710.604,-17.578,-32.227,-15.137,-41.504,-55.664
1687767710.621,-37.109,-24.414,-23.926,-29.785,85.938
1687767710.625,-48.340,-23.438,-25.391,-33.691,-21.973
1687767710.629,-33.203,-31.250,-28.320,-31.738,-219.727
1687767710.633,-20.020,-30.273,-28.809,-24.414,-123.535
1687767710.637,-25.879,-24.902,-23.438,-16.602,-45.898
1687767710.641,-40.527,-32.227,-22.949,-21.484,10.254
1687767710.645,-47.363,-35.645,-16.602,-28.809,-60.059
1687767710.648,-26.367,-25.879,-11.719,-24.414,-74.219
1687767710.652,-3.418,-18.066,-7.812,-7.812,197.754
1687767710.656,-0.488,-17.578,-3.906,-2.441,104.492
1687767710.660,-26.367,-20.020,-16.602,-17.578,-122.559
1687767710.664,-54.688,-26.367,-25.879,-37.109,-101.562
1687767710.651,-49.316,-31.250,-26.855,-31.250,-64.453
1687767710.655,-22.461,-22.949,-26.367,-9.766,-152.832
1687767710.659,-17.090,-13.672,-16.602,-14.160,-163.086
1687767710.663,-36.133,-17.090,-17.578,-35.156,-118.164
1687767710.667,-51.270,-28.320,-20.996,-47.852,-174.316
1687767710.671,-54.688,-28.809,-23.438,-41.504,-135.254
1687767710.675,-32.227,-23.438,-20.996,-36.621,-56.641
1687767710.678,-24.902,-28.320,-20.020,-44.922,29.297
1687767710.682,-39.062,-26.367,-20.996,-42.969,-62.500
1687767710.686,-50.293,-32.227,-23.438,-37.109,-130.371
1687767710.690,-45.898,-38.086,-30.762,-38.086,-57.129
1687767710.694,-30.762,-22.949,-30.762,-31.250,36.133
1687767710.696,-21.973,-12.695,-21.973,-20.996,330.566
1687767710.700,-18.066,-15.625,-20.508,-32.715,123.535
1687767710.704,-33.691,-18.555,-16.602,-39.551,-173.340
1687767710.708,-51.270,-29.785,-15.625,-41.992,-123.047
1687767710.712,-38.574,-35.645,-22.461,-30.762,-118.652
1687767710.716,-20.020,-31.250,-18.555,-25.391,-100.098
1687767710.720,-28.809,-33.203,-18.555,-39.062,79.102
1687767710.723,-46.875,-25.391,-17.090,-37.109,227.051
1687767710.727,-50.293,-29.297,-14.160,-34.668,-79.590
1687767710.731,-41.992,-43.945,-30.273,-34.180,-287.598
1687767710.735,-23.438,-36.621,-28.320,-19.531,-211.914
1687767710.739,-18.555,-21.484,-16.113,-20.996,-147.949
1687767710.742,-45.898,-23.926,-15.625,-39.551,-167.480
1687767710.746,-66.895,-31.738,-24.902,-47.852,-231.934
1687767710.750,-57.129,-37.598,-34.668,-45.410,-97.168
1687767710.754,-40.527,-31.250,-32.227,-35.645,-16.113
1687767710.758,-43.945,-31.250,-24.902,-28.809,-119.141
1687767710.762,-55.664,-25.879,-27.832,-30.762,-46.387
1687767710.766,-65.430,-17.578,-27.832,-35.645,162.109
1687767710.769,-64.453,-22.461,-25.391,-30.762,294.434
1687767710.773,-45.898,-24.414,-24.902,-33.203,-74.707
1687767710.777,-40.039,-35.156,-29.297,-46.875,-191.895
1687767710.781,-55.664,-28.809,-27.832,-50.293,23.438
1687767710.785,-64.453,-21.973,-24.902,-43.457,-79.590
1687767710.786,-55.664,-34.668,-26.855,-37.109,-177.734
1687767710.790,-47.852,-37.109,-28.320,-33.203,-95.703
1687767710.794,-41.016,-31.250,-24.902,-18.066,-101.562
1687767710.798,-56.641,-24.902,-20.508,-14.160,-187.988
1687767710.802,-77.148,-24.902,-25.391,-42.480,-191.895
1687767710.806,-68.848,-27.344,-27.344,-41.504,-23.438
1687767710.810,-52.246,-22.949,-18.066,-16.602,223.633
1687767710.813,-44.922,-31.250,-19.531,-21.973,145.508
1687767710.817,-62.012,-42.480,-32.715,-39.551,-81.543
1687767710.821,-83.496,-41.016,-31.738,-43.945,-116.699
1687767710.825,-75.684,-36.621,-16.602,-30.273,52.734
1687767710.829,-51.270,-30.273,-15.625,-24.414,-59.082
1687767710.846,-48.340,-29.297,-20.508,-25.391,-176.758
1687767710.850,-59.570,-32.715,-14.160,-33.691,-174.316
1687767710.854,-68.848,-34.180,-13.184,-36.133,-120.117
1687767710.858,-66.406,-37.109,-21.484,-39.062,-90.332
1687767710.862,-41.992,-28.320,-20.996,-33.691,-168.457
1687767710.866,-32.227,-21.973,-13.672,-20.996,-42.480
1687767710.870,-52.734,-30.273,-22.461,-38.086,59.082
1687767710.873,-64.941,-30.273,-20.020,-48.828,-37.109
1687767710.877,-59.570,-26.367,-12.695,-54.688,-160.156
1687767710.881,-46.875,-29.785,-20.508,-51.758,23.438
1687767710.885,-38.086,-31.738,-19.531,-29.785,360.840
1687767710.889,-52.734,-31.250,-22.949,-43.457,71.777
1687767710.891,-73.730,-32.715,-28.809,-54.688,-88.867
1687767710.895,-71.289,-30.762,-22.949,-50.293,-5.859
1687767710.899,-59.082,-22.949,-14.648,-49.805,-146.973
1687767710.903,-47.852,-23.926,-19.043,-47.852,-191.406
1687767710.907,-45.410,-25.879,-21.484,-43.945,-94.727
1687767710.911,-69.824,-28.320,-21.973,-52.734,38.574
1687767710.915,-87.891,-27.344,-19.531,-64.941,-15.137
1687767710.918,-72.754,-19.043,-21.484,-64.941,-125.977
1687767710.922,-46.387,-20.020,-22.949,-52.734,-100.586
1687767710.926,-41.016,-22.461,-20.996,-38.086,202.637
1687767710.930,-53.223,-22.461,-23.438,-50.781,161.621
1687767710.934,-56.152,-27.344,-30.762,-61.035,-146.484
1687767710.935,-40.039,-31.250,-33.203,-53.711,-138.672
1687767710.939,-24.902,-32.715,-21.484,-53.711,-66.406
1687767710.943,-20.020,-23.926,-13.184,-51.270,-60.059
1687767710.947,-33.203,-20.020,-12.695,-55.176,-115.234
1687767710.951,-34.180,-20.508,-17.578,-61.035,-106.934
1687767710.955,-17.578,-14.160,-20.020,-59.082,43.945
1687767710.959,-10.254,-20.020,-29.297,-59.082,30.762
1687767710.962,-9.766,-24.902,-35.156,-55.176,-121.582
1687767710.966,-14.648,-28.809,-32.715,-52.734,5.371
1687767710.970,-22.949,-21.973,-27.832,-54.199,139.648
1687767710.974,-15.137,-17.578,-22.461,-57.129,-30.762
1687767710.978,-3.906,-19.043,-31.250,-53.223,-121.094
1687767710.981,-8.789,-17.578,-33.203,-50.781,83.496
1687767710.985,-17.090,-21.484,-28.809,-58.105,84.473
1687767710.989,-21.973,-25.391,-29.785,-65.918,-85.449
1687767710.993,-18.555,-22.949,-25.879,-58.105,-111.816
1687767710.997,-1.465,-23.926,-26.367,-57.617,-106.934
1687767711.001,0.977,-20.508,-29.297,-53.711,14.160
1687767711.005,-22.949,-24.414,-25.879,-59.082,53.711
1687767711.008,-42.969,-19.043,-22.461,-76.660,25.391
1687767711.012,-44.434,-18.555,-30.273,-72.266,242.188
1687767711.016,-29.297,-37.598,-39.062,-67.871,118.164
1687767711.020,-13.672,-40.039,-35.645,-71.289,-120.605
1687767711.024,-22.461,-30.273,-28.320,-71.289,-102.539
1687767711.027,-39.062,-21.484,-25.879,-72.266,-115.234
1687767711.031,-51.270,-27.832,-29.297,-69.824,-99.121
1687767711.035,-43.945,-32.227,-29.785,-71.289,-100.098
1687767711.039,-36.133,-28.320,-28.809,-67.383,-41.992
1687767711.043,-62.988,-30.273,-30.762,-69.336,-19.043
1687767711.047,-95.703,-42.480,-24.902,-83.496,-100.098
1687767711.051,-92.285,-35.645,-24.902,-90.820,-156.250
1687767711.054,-78.613,-15.625,-29.785,-73.730,3.418
1687767711.058,-84.961,-20.508,-29.785,-71.777,114.258
1687767711.062,-95.215,-29.785,-30.762,-86.426,-69.336
1687767711.066,-113.281,-28.320,-32.227,-80.566,-84.473
1687767711.070,-121.582,-34.668,-31.738,-70.312,3.418
1687767711.070,-107.910,-35.645,-30.762,-62.500,-6.348
1687767711.074,-94.238,-26.855,-31.738,-60.059,-125.488
1687767711.078,-94.238,-27.344,-29.297,-62.988,-135.254
1687767711.082,-104.492,-31.250,-26.855,-67.383,-100.586
1687767711.086,-110.352,-31.738,-23.926,-64.453,-117.676
1687767711.090,-96.191,-31.738,-17.090,-54.688,-71.777
1687767711.094,-84.473,-31.250,-24.414,-56.152,75.684
1687767711.097,-88.867,-25.391,-31.250,-49.805,312.988
1687767711.101,-105.469,-18.555,-24.902,-49.316,58.594
1687767711.105,-113.770,-20.508,-21.973,-53.223,-236.328
1687767711.109,-103.027,-31.250,-23.926,-54.199,-193.848
1687767711.113,-95.215,-32.715,-28.809,-52.734,-151.855
1687767711.116,-93.750,-35.645,-23.438,-40.527,-147.461
1687767711.120,-107.910,-39.551,-15.137,-54.688,-188.477
1687767711.124,-118.164,-40.039,-11.719,-60.547,-178.223
1687767711.128,-109.863,-30.273,-13.184,-59.082,-129.395
1687767711.132,-100.098,-24.414,-13.184,-58.594,-119.141
1687767711.136,-109.863,-34.180,-28.809,-64.453,-103.516
1687767711.140,-130.859,-36.621,-37.598,-69.824,127.930
1687767711.143,-138.184,-26.367,-22.949,-61.523,269.043
1687767711.147,-123.047,-22.949,-20.020,-63.965,-96.191
1687767711.151,-108.887,-30.762,-22.461,-65.430,-196.777
1687767711.155,-106.934,-29.297,-17.578,-42.480,143.555
1687767711.159,-125.000,-23.438,-17.090,-51.758,105.957
1687767711.161,-140.625,-35.645,-21.484,-81.543,-221.191
1687767711.165,-127.930,-40.039,-17.578,-74.707,-175.781
1687767711.169,-108.398,-34.180,-20.508,-70.312,-21.973
1687767711.173,-105.469,-39.551,-30.762,-67.383,-57.129
1687767711.177,-121.582,-32.715,-30.762,-65.918,-151.367
1687767711.181,-138.672,-21.484,-28.320,-74.707,-37.598
1687767711.185,-139.648,-32.715,-28.320,-74.219,211.426
1687767711.188,-112.793,-43.945,-28.320,-66.895,47.852
1687767711.192,-97.656,-40.527,-31.738,-65.918,-168.945
1687767711.196,-112.305,-36.133,-32.715,-68.359,-46.387
1687767711.200,-123.047,-35.156,-31.738,-65.430,72.754
1687767711.204,-124.023,-38.086,-33.203,-73.242,-73.242
1687767711.221,-110.840,-43.945,-38.086,-64.941,-138.672
1687767711.225,-92.285,-40.527,-33.691,-52.734,-46.387
1687767711.229,-100.586,-35.645,-33.691,-63.477,-3.906
1687767711.233,-125.000,-38.086,-42.969,-71.289,-94.727
1687767711.237,-125.488,-31.738,-38.574,-73.730,-137.207
1687767711.241,-108.398,-35.645,-30.762,-57.129,-7.324
1687767711.245,-91.797,-42.480,-34.180,-56.152,25.879
1687767711.248,-93.262,-41.016,-37.109,-72.266,-84.961
1687767711.252,-108.887,-37.109,-30.273,-78.125,-150.391
1687767711.256,-109.863,-32.227,-22.461,-70.801,74.707
1687767711.260,-93.750,-34.180,-32.715,-61.523,214.355
1687767711.264,-71.289,-28.320,-41.016,-60.059,50.293
1687767711.265,-70.801,-23.438,-38.574,-58.105,31.250
1687767711.269,-98.633,-34.668,-36.133,-56.641,194.824
1687767711.273,-111.328,-38.574,-32.227,-61.523,115.234
1687767711.277,-93.750,-30.273,-38.086,-61.035,-145.508
1687767711.281,-77.637,-23.926,-41.992,-54.688,-60.547
1687767711.285,-89.355,-26.855,-33.691,-60.059,80.078
1687767711.289,-102.539,-26.855,-24.414,-67.871,-11.719
1687767711.292,-105.957,-33.691,-25.391,-71.777,-138.184
1687767711.296,-101.562,-34.180,-31.738,-79.102,-144.043
1687767711.300,-83.008,-28.320,-33.203,-65.430,153.320
1687767711.304,-76.172,-35.645,-31.738,-69.336,68.848
1687767711.308,-94.727,-39.062,-29.297,-87.402,-164.551
1687767711.311,-100.586,-38.574,-35.645,-84.961,-152.344
1687767711.315,-91.309,-35.645,-41.504,-78.125,-80.566
1687767711.319,-77.148,-28.320,-31.738,-69.824,-41.504
1687767711.323,-68.848,-23.926,-25.879,-64.453,-162.109
1687767711.327,-83.008,-34.668,-30.762,-64.453,-70.312
1687767711.331,-93.262,-39.062,-30.273,-65.918,56.152
1687767711.335,-77.148,-26.367,-28.320,-54.688,-45.898
1687767711.338,-59.082,-28.320,-33.203,-47.852,-137.695
1687767711.342,-55.176,-35.156,-40.039,-62.988,5.371
1687767711.346,-64.453,-31.250,-34.180,-64.453,150.391
1687767711.350,-77.637,-27.344,-21.484,-61.523,-86.426
1687767711.354,-73.242,-31.250,-21.973,-62.500,-206.055
1687767711.356,-46.875,-36.621,-25.879,-43.945,47.363
1687767711.360,-40.039,-41.504,-22.461,-41.992,32.227
1687767711.364,-65.918,-40.039,-27.832,-62.012,-183.105
1687767711.368,-77.637,-26.367,-29.297,-61.035,-123.047
1687767711.372,-72.266,-20.996,-27.344,-51.270,7.812
1687767711.376,-51.758,-26.367,-18.066,-40.527,20.996
1687767711.380,-36.621,-31.250,-18.555,-30.762,-9.277
1687767711.383,-49.316,-30.762,-25.391,-41.016,-39.062
1687767711.387,-67.383,-25.391,-21.973,-49.316,195.312
1687767711.391,-72.266,-35.645,-20.020,-60.547,97.656
1687767711.395,-60.059,-52.734,-31.250,-63.477,-159.180
1687767711.399,-44.434,-41.504,-31.250,-49.805,-152.344
1687767711.401,-47.852,-32.227,-22.461,-44.922,-110.840
1687767711.405,-64.941,-29.297,-16.602,-52.734,-131.836
1687767711.409,-66.895,-30.762,-15.625,-53.223,-182.617
1687767711.413,-57.617,-37.598,-22.461,-51.758,-114.258
1687767711.417,-54.688,-40.039,-24.414,-57.129,-49.805
1687767711.421,-56.152,-40.527,-20.508,-54.688,-19.531
1687767711.425,-67.871,-41.992,-25.391,-62.988,-4.883
1687767711.428,-75.684,-34.180,-36.133,-70.801,202.148
1687767711.432,-61.035,-31.250,-41.504,-49.805,393.066
1687767711.436,-41.504,-25.391,-45.898,-45.898,43.457
1687767711.440,-46.875,-20.020,-41.504,-55.664,-49.316
1687767711.444,-62.500,-31.738,-32.227,-54.688,118.164
1687767711.446,-60.547,-36.621,-33.203,-54.688,-28.809
1687767711.450,-41.504,-34.180,-30.762,-54.688,-111.816
1687767711.454,-28.809,-39.062,-26.367,-46.875,-63.477
1687767711.458,-30.762,-35.645,-30.762,-40.527,-71.289
1687767711.462,-37.598,-25.879,-27.344,-41.504,-105.957
1687767711.466,-36.133,-23.438,-20.508,-46.387,-142.578
1687767711.470,-33.691,-21.484,-21.484,-50.293,-29.785
1687767711.473,-36.133,-29.297,-28.809,-45.898,139.160
1687767711.477,-35.645,-41.504,-28.809,-41.016,63.477
1687767711.481,-44.434,-41.992,-29.297,-44.922,-139.648
1687767711.485,-53.711,-39.551,-30.762,-52.734,-181.152
1687767711.489,-48.828,-41.016,-32.227,-55.664,-14.648
1687767711.491,-32.715,-37.598,-31.738,-44.922,-79.102
1687767711.495,-31.250,-35.645,-27.344,-40.527,-166.992
1687767711.499,-51.758,-33.691,-27.344,-59.082,-136.719
1687767711.503,-57.617,-28.809,-26.855,-62.500,-176.270
1687767711.507,-51.270,-22.949,-23.438,-56.152,-152.344
1687767711.511,-43.457,-19.531,-26.367,-63.477,-206.055
1687767711.515,-39.551,-25.879,-28.320,-58.594,-4.395
1687767711.518,-44.922,-29.297,-29.297,-44.434,250.000
1687767711.522,-54.688,-23.438,-34.180,-51.270,-54.688
1687767711.526,-62.012,-24.902,-30.762,-62.988,-133.301
1687767711.530,-41.016,-22.461,-20.508,-49.316,172.852
1687767711.534,-25.879,-20.996,-24.414,-40.039,186.035
1687767711.536,-35.156,-28.809,-28.320,-46.387,-64.453
1687767711.540,-55.176,-30.273,-19.043,-47.363,-91.309
1687767711.544,-53.711,-25.879,-27.344,-49.316,48.828
1687767711.548,-28.809,-20.996,-35.645,-42.969,-19.043
1687767711.552,-13.184,-29.785,-37.109,-31.738,-94.727
1687767711.556,-16.602,-33.203,-38.574,-28.320,19.531
1687767711.560,-30.273,-15.137,-24.902,-16.602,310.547
1687767711.563,-40.039,-24.902,-27.344,-27.832,102.539
1687767711.567,-24.414,-38.574,-43.457,-39.551,-199.707
1687767711.571,-0.488,-29.785,-42.480,-42.969,-122.559
1687767711.575,1.953,-26.367,-36.621,-46.387,-75.684
1687767711.579,-5.859,-23.926,-36.133,-46.387,-141.602
1687767711.582,-1.465,-23.438,-32.227,-37.109,-189.453
1687767711.586,19.043,-28.320,-26.367,-18.555,-115.723
1687767711.590,20.996,-27.344,-30.273,-21.973,-31.250
1687767711.594,9.277,-25.879,-31.250,-26.367,-111.816
1687767711.598,-5.371,-29.785,-26.367,-20.996,-164.062
1687767711.602,-19.043,-28.809,-27.832,-19.531,-17.090
1687767711.606,-13.184,-26.855,-26.367,-20.508,76.660
1687767711.609,1.465,-24.414,-26.855,-28.809,-32.715
1687767711.613,-1.953,-21.973,-26.367,-35.645,-164.062
1687767711.617,-26.855,-25.879,-30.273,-28.320,-6.348
1687767711.621,-40.039,-29.297,-39.551,-25.879,176.270
1687767711.625,-25.879,-37.598,-36.133,-31.738,-24.414
1687767711.640,-9.766,-45.410,-33.691,-24.414,-75.195
1687767711.644,-8.301,-40.527,-31.738,-7.812,88.379
1687767711.648,-18.555,-37.109,-30.762,-10.254,-21.484
1687767711.652,-27.832,-36.621,-30.273,-24.414,-169.434
1687767711.656,-26.855,-26.855,-31.250,-24.902,-100.098
1687767711.660,-18.066,-28.320,-39.062,-15.137,131.836
1687767711.664,-7.812,-29.297,-39.062,-14.160,87.402
1687767711.667,-22.949,-24.414,-36.133,-30.273,-157.715
1687767711.671,-38.086,-20.020,-31.738,-33.203,-84.473
1687767711.675,-23.438,-19.531,-29.785,-18.555,123.047
1687767711.679,-0.488,-25.391,-36.621,-27.344,-28.320
1687767711.683,7.812,-27.344,-29.785,-24.414,-148.926
1687767711.685,-5.371,-31.250,-23.438,-18.555,-101.562
1687767711.689,-24.414,-33.203,-28.320,-30.762,-124.023
1687767711.693,-23.438,-31.250,-35.156,-30.762,-85.938
1687767711.697,-14.160,-34.668,-44.434,-31.250,-69.336
1687767711.701,-5.371,-31.738,-38.574,-26.367,-7.812
1687767711.705,-11.719,-24.902,-40.039,-28.320,-28.809
1687767711.709,-31.250,-24.902,-49.316,-37.109,-33.691
1687767711.712,-30.273,-37.598,-42.480,-38.086,15.625
1687767711.716,-8.301,-37.109,-33.691,-27.344,85.449
1687767711.720,4.883,-29.785,-27.344,1.953,303.711
1687767711.724,-2.441,-29.785,-27.344,-6.836,74.707
1687767711.728,-16.113,-24.902,-40.039,-38.086,-83.008
1687767711.730,-6.836,-18.066,-29.297,-23.438,74.707
1687767711.734,16.113,-18.555,-14.160,-6.836,-23.926
1687767711.738,8.789,-23.926,-19.531,-28.809,-112.305
1687767711.742,-17.578,-31.250,-20.996,-39.062,-63.477
1687767711.746,-20.996,-28.809,-16.113,-29.297,-95.703
1687767711.750,-14.160,-28.320,-11.230,-43.457,-107.910
1687767711.754,-1.953,-37.109,-11.719,-43.457,-77.148
1687767711.757,7.324,-42.480,-12.207,-31.250,-60.059
1687767711.761,-0.488,-48.828,-14.648,-26.367,229.492
1687767711.765,-16.113,-46.387,-15.625,-32.715,92.773
1687767711.769,-29.297,-48.828,-15.625,-41.992,-199.219
1687767711.773,-1.465,-43.945,-11.719,-22.949,-125.488
1687767711.775,34.668,-41.992,-0.488,-8.301,-122.559
1687767711.779,35.156,-48.828,2.441,-8.789,-148.926
1687767711.783,13.184,-44.434,-4.395,-19.531,-143.066
