timestamps,TP9,AF7,AF8,TP10,Right AUX
1687770045.978,-35.645,-30.273,-41.992,-27.344,-13.672
1687770045.982,-44.922,-20.996,-40.039,-33.203,-158.691
1687770045.986,-66.406,-34.668,-38.574,-42.480,-115.234
1687770045.990,-66.895,-57.129,-43.457,-49.805,-195.801
1687770045.994,-56.641,-36.133,-41.016,-31.738,-181.152
1687770045.998,-54.688,-5.859,-33.203,-15.625,-59.082
1687770046.002,-61.035,-16.602,-47.852,-32.715,263.672
1687770046.005,-71.289,-25.879,-52.734,-46.875,190.918
1687770046.009,-77.148,-18.066,-33.203,-50.293,-126.953
1687770046.013,-73.730,-20.020,-26.855,-46.387,-81.543
1687770046.017,-69.824,-26.367,-29.297,-31.738,11.719
1687770046.021,-66.406,-21.484,-31.738,-36.621,-21.973
1687770046.021,-66.406,-21.484,-31.738,-36.621,-21.973
1687770046.025,-69.824,-21.484,-25.391,-21.973,-49.316
1687770046.029,-79.102,-15.625,-21.973,-40.527,118.652
1687770046.033,-85.449,-13.184,-29.297,-44.434,93.750
1687770046.036,-89.355,-32.715,-40.527,-35.156,-71.289
1687770046.040,-89.355,-36.621,-35.156,-29.785,-59.082
1687770046.044,-84.961,-24.414,-22.461,-28.809,134.766
1687770046.048,-73.242,-26.855,-38.574,-33.691,144.043
1687770046.052,-60.547,-21.484,-45.898,-49.316,-95.215
1687770046.068,-61.523,-13.672,-32.227,-51.270,-93.750
1687770046.072,-60.547,-25.879,-32.715,-39.062,-57.617
1687770046.076,-44.434,-38.574,-31.738,-34.180,-55.664
1687770046.080,-34.668,-33.203,-34.668,-38.574,-83.008
1687770046.084,-29.785,-28.320,-38.574,-44.434,-142.578
1687770046.088,-21.973,-32.227,-40.527,-31.250,82.031
1687770046.092,-15.625,-24.414,-42.480,-13.672,197.754
1687770046.095,-21.484,-24.414,-39.062,-20.508,75.684
1687770046.099,-29.297,-41.016,-45.410,-38.086,18.066
1687770046.103,-20.508,-61.035,-32.715,-42.480,89.355
1687770046.107,-17.090,-53.711,-40.039,-26.367,13.184
1687770046.111,-16.113,-27.344,-60.059,-15.625,-124.023
1687770046.113,-23.926,-20.020,-43.945,-15.137,-5.371
1687770046.117,-49.805,-15.625,-34.180,-44.434,-32.715
1687770046.121,-70.312,-11.230,-33.203,-73.242,-118.164
1687770046.125,-79.590,-19.043,-29.785,-55.176,-193.848
1687770046.129,-96.191,-15.625,-30.762,-47.852,-40.527
1687770046.133,-120.605,-7.324,-33.203,-52.734,175.781
1687770046.137,-129.395,-9.766,-41.016,-65.430,75.195
1687770046.140,-132.812,-21.484,-44.434,-85.449,-74.707
1687770046.144,-124.023,-27.344,-44.922,-80.566,43.945
1687770046.148,-113.770,-23.438,-47.363,-68.848,283.691
1687770046.152,-120.605,-15.137,-48.340,-73.730,106.445
1687770046.156,-126.465,-11.230,-49.805,-69.336,-74.219
1687770046.188,-118.164,-20.996,-47.363,-86.426,-78.125
1687770046.192,-104.980,-24.414,-53.711,-94.238,-145.996
1687770046.196,-89.844,-21.973,-49.805,-62.500,-99.609
1687770046.200,-75.684,-17.578,-34.180,-51.270,-19.043
1687770046.204,-73.242,-12.695,-34.668,-55.664,-34.668
1687770046.208,-71.289,-12.207,-32.715,-65.918,-45.898
1687770046.212,-49.805,-15.625,-26.367,-65.430,-26.855
1687770046.215,-28.809,-8.789,-23.438,-43.945,-156.250
1687770046.219,-33.203,-11.230,-23.926,-24.414,161.621
1687770046.223,-29.297,-18.066,-26.855,-16.602,457.031
1687770046.227,-21.484,-13.672,-44.922,-34.668,14.160
1687770046.231,-27.832,-15.625,-62.012,-53.223,-246.094
1687770046.203,-23.926,-25.391,-39.551,-46.387,-152.344
1687770046.207,-10.254,-29.297,-20.508,-28.320,-142.090
1687770046.211,-13.184,-38.574,-31.738,-33.203,-184.570
1687770046.215,-15.625,-41.504,-32.227,-48.828,-103.027
1687770046.219,-7.324,-42.969,-35.156,-52.246,-118.652
1687770046.223,6.836,-33.691,-43.457,-35.156,-99.121
1687770046.227,8.301,-24.902,-33.203,-18.555,-6.836
1687770046.230,4.395,-22.949,-39.551,-19.531,37.109
1687770046.234,12.695,-13.672,-44.434,-29.297,-19.531
1687770046.238,20.508,-20.508,-34.180,-32.227,-104.004
1687770046.242,18.555,-27.832,-37.598,-24.902,-46.387
1687770046.246,12.695,-26.855,-40.527,-28.320,46.875
1687770046.248,12.207,-29.785,-37.598,-26.367,6.836
1687770046.252,8.301,-35.156,-31.738,-26.367,-108.887
1687770046.256,8.789,-33.203,-29.785,-42.969,-144.043
1687770046.260,22.461,-29.785,-36.133,-27.344,68.848
1687770046.264,20.508,-31.738,-43.945,-9.277,251.953
1687770046.268,20.020,-39.062,-32.715,-20.996,82.520
1687770046.272,28.320,-34.180,-27.344,-33.203,-33.203
1687770046.275,32.227,-26.855,-38.086,-36.621,-52.246
1687770046.279,31.738,-28.809,-46.387,-41.016,-97.168
1687770046.283,30.762,-26.367,-36.621,-33.691,-176.270
1687770046.287,30.762,-22.461,-35.645,-16.602,-140.625
1687770046.291,10.254,-23.926,-39.551,-30.273,213.867
1687770046.294,-0.488,-26.855,-34.180,-56.152,223.145
1687770046.298,5.371,-36.621,-42.480,-70.801,-139.160
1687770046.302,3.906,-42.480,-42.969,-60.547,-72.754
1687770046.306,8.301,-38.086,-33.691,-42.480,94.727
1687770046.310,0.977,-32.227,-34.668,-47.852,-109.375
1687770046.314,-6.348,-32.227,-42.480,-51.758,-187.012
1687770046.318,1.465,-29.297,-37.109,-58.105,72.754
1687770046.321,2.930,-34.180,-47.363,-51.270,173.828
1687770046.325,0.000,-35.156,-58.594,-41.504,-69.336
1687770046.329,-0.488,-22.949,-46.875,-49.316,-169.434
1687770046.333,-2.441,-23.926,-50.781,-60.547,-123.535
1687770046.337,-7.812,-35.645,-56.641,-74.707,-179.688
1687770046.337,-0.977,-37.109,-38.574,-55.664,-208.984
1687770046.341,12.207,-15.625,-26.855,-27.344,-125.488
1687770046.345,-9.277,-22.949,-37.598,-41.504,-111.328
1687770046.349,-28.809,-36.621,-44.434,-62.500,-144.531
1687770046.353,-25.879,-27.832,-29.785,-61.523,-113.281
1687770046.357,-17.090,-23.926,-26.367,-49.316,-43.457
1687770046.361,-11.230,-26.855,-45.410,-31.738,240.723
1687770046.364,-30.762,-41.016,-49.316,-29.297,407.227
1687770046.368,-31.738,-48.828,-33.203,-44.922,-23.926
1687770046.372,-12.695,-38.086,-25.879,-47.852,-175.781
1687770046.376,-0.977,-17.578,-44.922,-39.062,-46.875
1687770046.380,0.977,-16.113,-43.945,-20.996,-142.090
1687770046.383,-12.695,-22.461,-34.668,-20.996,-165.527
1687770046.387,-16.113,-26.367,-37.109,-38.574,-39.062
1687770046.391,-10.254,-25.391,-35.156,-44.922,-22.461
1687770046.395,-8.789,-35.156,-39.062,-38.574,-153.809
1687770046.399,-8.301,-36.621,-41.016,-26.367,-164.551
1687770046.403,-11.230,-28.320,-39.062,-24.902,31.738
1687770046.407,-21.484,-32.227,-35.645,-38.086,110.352
1687770046.410,-21.484,-28.320,-27.832,-44.922,-20.508
1687770046.414,-11.230,-34.668,-24.902,-29.785,-170.898
1687770046.418,-6.836,-46.875,-32.227,-15.137,-1.953
1687770046.422,-3.906,-33.203,-41.992,-17.090,183.594
1687770046.426,0.488,-22.461,-30.762,-25.391,-72.754
1687770046.443,-5.371,-27.344,-22.949,-33.691,-172.852
1687770046.447,-8.301,-28.809,-23.926,-34.180,-87.891
1687770046.451,-8.301,-29.785,-29.785,-21.973,-26.855
1687770046.455,-9.277,-29.785,-33.691,-27.344,-74.219
1687770046.459,-12.207,-27.832,-36.133,-32.227,-145.996
1687770046.463,-25.879,-41.992,-52.734,-48.828,-26.367
1687770046.467,-33.203,-43.945,-53.711,-51.758,34.180
1687770046.470,-28.320,-36.621,-47.363,-37.598,-20.508
1687770046.474,-25.879,-34.668,-35.645,-33.203,32.715
1687770046.478,-28.320,-35.156,-34.668,-37.598,3.906
1687770046.482,-29.297,-41.992,-39.551,-50.293,-111.328
1687770046.486,-25.879,-46.387,-41.016,-51.758,-191.406
1687770046.518,-19.531,-36.621,-34.668,-30.762,-140.137
1687770046.522,-20.020,-27.344,-25.879,-8.301,249.023
1687770046.526,-25.879,-40.039,-27.832,-21.484,305.664
1687770046.530,-25.879,-40.527,-24.902,-50.293,-90.820
1687770046.534,-22.461,-34.668,-32.227,-57.129,-130.371
1687770046.538,-27.832,-44.434,-32.227,-51.758,17.578
1687770046.542,-35.156,-42.969,-26.855,-32.227,86.426
1687770046.545,-28.809,-30.762,-27.832,-34.180,-71.777
1687770046.549,-30.273,-26.367,-32.227,-46.387,-29.297
1687770046.553,-34.180,-31.250,-28.809,-35.156,70.801
1687770046.557,-27.832,-38.086,-34.668,-25.879,-118.652
1687770046.561,-19.531,-45.410,-39.551,-24.414,-148.926
1687770046.527,-21.973,-46.875,-35.156,-37.598,1.953
1687770046.531,-23.438,-32.227,-36.621,-38.574,-9.277
1687770046.535,-20.508,-29.297,-38.574,-45.410,-186.523
1687770046.539,-21.973,-35.156,-39.062,-50.293,-137.695
1687770046.543,-22.461,-38.574,-39.062,-32.715,-7.324
1687770046.547,-27.344,-25.879,-45.898,-42.480,28.320
1687770046.551,-15.137,-24.414,-60.059,-51.270,-53.223
1687770046.554,24.902,-34.668,-61.523,-18.066,-37.109
1687770046.558,41.992,-32.715,-30.762,15.625,49.316
1687770046.562,10.742,-51.270,-4.395,13.184,-67.871
1687770046.566,-30.273,-68.359,-17.090,-9.277,-157.715
1687770046.570,-45.410,-69.824,-29.297,-34.180,-61.523
1687770046.578,-44.434,-78.613,-26.855,-44.922,-5.859
1687770046.582,-51.758,-96.191,-26.367,-44.922,-115.234
1687770046.586,-62.012,-103.027,-24.902,-43.945,-91.797
1687770046.590,-68.359,-103.027,-25.391,-46.875,-27.832
1687770046.594,-75.684,-110.840,-31.250,-48.340,223.633
1687770046.598,-84.473,-121.094,-28.809,-49.805,381.348
1687770046.602,-87.891,-125.977,-22.949,-50.293,141.602
1687770046.605,-80.078,-130.371,-24.414,-28.320,9.766
1687770046.609,-83.496,-136.719,-22.949,-34.180,45.898
1687770046.613,-90.332,-139.160,-16.602,-47.852,-116.211
1687770046.617,-84.473,-139.648,-17.578,-43.945,-173.340
1687770046.621,-89.355,-145.508,-21.973,-31.738,-157.227
1687770046.624,-92.773,-147.949,-23.438,-16.113,-148.438
1687770046.628,-79.102,-147.461,-18.066,-6.348,-186.523
1687770046.632,-68.848,-145.996,-16.602,-8.301,-137.207
1687770046.636,-84.961,-150.879,-18.555,-32.227,-77.637
1687770046.640,-89.355,-154.785,-19.043,-27.344,-83.008
1687770046.644,-72.754,-156.738,-21.973,-2.930,12.207
1687770046.648,-71.777,-163.086,-22.949,7.324,-16.113
1687770046.651,-84.961,-153.809,-26.367,1.465,244.141
1687770046.655,-87.891,-145.020,-29.297,-4.395,346.191
1687770046.659,-72.754,-138.672,-12.695,0.000,-89.844
1687770046.663,-70.312,-136.719,-15.625,9.277,-105.469
1687770046.667,-83.496,-143.066,-24.414,17.090,26.855
1687770046.698,-91.309,-140.137,-16.113,4.395,-82.520
1687770046.702,-96.191,-142.090,-15.625,-7.324,-149.414
1687770046.706,-102.539,-143.555,-15.137,-2.930,-82.520
1687770046.710,-107.422,-138.672,-21.973,6.348,-71.777
1687770046.714,-106.445,-139.160,-24.902,12.695,-113.770
1687770046.718,-111.816,-131.348,-18.555,7.812,-82.520
1687770046.722,-113.281,-131.348,-20.020,5.859,164.062
1687770046.725,-124.023,-138.672,-22.949,5.371,407.715
1687770046.729,-130.859,-131.836,-23.438,13.672,68.359
1687770046.733,-121.582,-125.977,-18.555,25.879,-157.715
1687770046.737,-124.023,-115.234,-15.625,18.066,-33.691
1687770046.741,-117.676,-111.328,-16.113,15.137,-26.367
1687770046.713,-113.770,-118.164,-19.043,4.395,-131.348
1687770046.717,-132.812,-110.352,-27.344,-2.441,-165.527
1687770046.721,-146.973,-105.957,-31.250,13.184,-52.246
1687770046.725,-149.414,-104.492,-25.391,5.371,-43.945
1687770046.729,-154.297,-88.379,-12.695,-7.812,-164.062
1687770046.733,-166.992,-91.309,-8.301,-8.789,-119.629
1687770046.737,-166.992,-97.168,-21.484,-6.836,13.672
1687770046.740,-163.086,-85.938,-32.227,-0.977,15.625
1687770046.744,-169.922,-94.727,-22.461,-5.859,30.273
1687770046.748,-177.246,-88.867,-17.090,-19.043,-27.344
1687770046.752,-184.082,-64.941,-14.648,-21.484,-81.055
1687770046.756,-189.453,-60.547,-22.461,-18.555,-74.707
1687770046.773,-185.547,-61.523,-36.621,-6.348,-102.051
1687770046.777,-185.059,-61.523,-23.438,-16.113,-56.152
1687770046.781,-185.547,-59.570,-22.949,-31.250,260.254
1687770046.785,-171.387,-57.617,-37.598,-26.855,286.133
1687770046.789,-160.645,-51.270,-32.715,-18.066,-108.887
1687770046.793,-150.391,-52.246,-12.695,-0.977,-24.414
1687770046.797,-157.715,-58.594,-6.348,-9.277,192.383
1687770046.800,-166.992,-56.641,-15.625,-24.902,-48.828
1687770046.804,-170.898,-62.012,-13.672,-40.527,-227.051
1687770046.808,-169.922,-62.012,-18.555,-33.203,-29.297
1687770046.812,-159.180,-62.012,-32.715,-14.160,116.699
1687770046.816,-152.344,-63.477,-31.738,-11.719,-110.840
1687770046.876,-161.621,-57.129,-23.438,-19.043,-155.273
1687770046.880,-171.875,-60.547,-30.762,-34.668,-112.793
1687770046.884,-167.480,-55.664,-30.762,-22.949,-161.621
1687770046.888,-172.363,-43.457,-22.949,3.906,-184.082
1687770046.892,-179.688,-46.875,-21.973,-1.465,-133.301
1687770046.896,-186.523,-62.500,-31.250,-22.461,-37.109
1687770046.900,-210.449,-60.547,-47.363,-36.133,-45.410
1687770046.903,-215.332,-43.945,-53.223,-36.133,-112.305
1687770046.907,-180.664,-48.828,-43.945,-26.367,-40.527
1687770046.911,-146.973,-52.246,-47.363,-14.160,254.883
1687770046.915,-123.047,-50.781,-42.969,-24.902,279.297
1687770046.919,-98.145,-54.199,-28.320,-40.527,-82.520
1687770046.881,-69.336,-43.457,-38.086,-41.504,-103.516
1687770046.885,-46.875,-33.203,-41.504,-31.738,-8.301
1687770046.889,-40.527,-40.527,-31.250,-27.344,-69.824
1687770046.893,-33.691,-50.293,-31.738,-31.738,-152.344
1687770046.897,-16.602,-52.734,-35.156,-33.691,-135.742
1687770046.901,3.906,-47.852,-38.574,-40.527,-30.273
1687770046.905,12.207,-44.922,-35.156,-38.086,-3.418
1687770046.908,14.160,-40.527,-33.203,-28.809,-73.242
1687770046.912,13.184,-42.480,-43.945,-35.645,-10.254
1687770046.916,17.578,-49.805,-44.434,-54.199,-35.156
1687770046.920,22.949,-51.270,-38.574,-58.105,-184.082
1687770046.924,23.926,-47.363,-39.062,-46.875,-118.652
1687770046.914,29.785,-39.551,-42.480,-30.762,7.812
1687770046.918,29.297,-45.898,-44.434,-31.738,-18.555
1687770046.922,29.785,-54.199,-36.621,-49.316,-122.559
1687770046.926,36.133,-47.363,-38.574,-56.152,-156.738
1687770046.930,48.828,-39.551,-31.738,-30.273,123.535
1687770046.934,53.223,-48.828,-30.762,-9.277,422.363
1687770046.938,38.086,-45.898,-44.434,-23.926,189.453
1687770046.941,23.438,-31.250,-49.316,-43.945,-72.266
1687770046.945,25.879,-24.414,-38.574,-46.875,150.391
1687770046.949,30.273,-35.156,-26.367,-27.344,142.090
1687770046.953,64.941,-44.922,-42.480,21.484,-235.840
1687770046.957,82.031,-23.438,-62.012,18.555,-146.484
1687770046.952,15.625,-13.184,-66.895,-67.383,-71.289
1687770046.956,-12.695,-18.066,-61.035,-94.727,-202.637
1687770046.960,5.371,-16.602,-50.781,-88.867,-241.699
1687770046.964,-12.207,-14.160,-44.922,-104.492,-123.535
1687770046.968,-36.133,4.395,-46.387,-117.188,-27.832
1687770046.972,-45.410,14.648,-42.480,-148.926,-106.445
1687770046.976,-47.363,11.230,-40.039,-167.480,-227.051
1687770046.979,-49.805,19.043,-42.969,-161.621,-71.289
1687770046.983,-63.965,24.902,-39.551,-157.227,266.602
1687770046.987,-72.266,17.578,-36.621,-169.434,73.242
1687770046.991,-68.848,15.625,-43.457,-192.871,-154.785
1687770046.995,-84.473,20.508,-44.434,-216.309,-121.094
1687770046.998,-80.566,17.090,-39.551,-205.566,-162.598
1687770047.002,-60.547,9.277,-30.762,-169.922,-157.715
1687770047.006,-52.734,8.301,-50.293,-151.367,-60.547
1687770047.010,-52.734,24.902,-70.312,-148.438,-57.129
1687770047.014,-54.199,34.668,-52.734,-156.738,-162.598
1687770047.018,-41.992,26.855,-51.758,-145.508,-87.891
1687770047.022,-39.062,9.277,-40.039,-130.371,-0.488
1687770047.025,-37.598,-0.977,-24.902,-118.164,180.176
1687770047.029,-29.785,4.395,-26.855,-115.723,418.945
1687770047.033,-29.785,1.465,-34.668,-123.535,45.898
1687770047.037,-16.113,-6.348,-46.387,-113.770,-202.148
1687770047.041,-2.441,-2.930,-50.293,-104.004,-16.602
1687770047.043,-6.836,-3.418,-48.828,-96.191,-35.645
1687770047.047,-11.719,-8.301,-41.992,-85.449,-156.250
1687770047.051,-8.789,-9.766,-45.410,-87.891,-116.699
1687770047.055,-4.395,-6.348,-48.340,-84.473,-63.477
1687770047.059,-3.906,-1.953,-34.180,-62.012,-107.422
1687770047.063,3.906,1.465,-31.250,-47.852,13.184
1687770047.067,0.488,1.465,-38.574,-57.129,154.297
1687770047.070,-15.137,-19.043,-34.180,-72.754,121.582
1687770047.074,-27.832,-22.949,-29.785,-80.566,-70.312
1687770047.078,-21.973,-12.207,-27.344,-66.895,-19.043
1687770047.082,-12.207,-12.695,-27.832,-38.086,80.566
1687770047.086,-26.855,0.977,-35.645,-38.574,54.199
1687770047.088,-35.156,-7.324,-36.621,-61.523,-74.707
1687770047.092,-22.949,-4.395,-19.043,-53.223,-151.367
1687770047.096,-18.555,4.395,-9.766,-49.805,-59.570
1687770047.100,-18.066,-12.695,-14.160,-42.480,-23.438
1687770047.104,-16.602,-29.297,-26.367,-33.203,-60.547
1687770047.108,-16.113,-20.996,-39.062,-46.387,-5.371
1687770047.112,-10.254,-13.184,-41.992,-50.293,183.105
1687770047.115,-7.812,-15.625,-33.691,-49.805,119.141
1687770047.119,-12.207,-25.879,-28.809,-53.711,-52.734
1687770047.123,-8.301,-23.926,-31.738,-47.852,-82.520
1687770047.127,-4.883,-21.973,-32.715,-42.969,14.160
1687770047.131,-9.277,-25.391,-45.898,-57.617,10.742
1687770047.134,-5.371,-19.531,-29.297,-53.223,-84.473
1687770047.138,1.465,-32.715,-16.602,-41.504,-76.172
1687770047.142,-8.301,-29.785,-39.062,-31.250,-24.902
1687770047.146,-25.879,-12.695,-31.738,-40.527,-120.605
1687770047.150,-33.203,-13.672,-26.855,-55.176,-231.934
1687770047.154,-36.133,-21.484,-37.598,-49.316,-18.555
1687770047.158,-40.039,-24.414,-15.625,-25.391,146.484
1687770047.161,-56.641,-25.391,-11.719,-20.020,-72.754
1687770047.165,-78.125,-28.320,-29.297,-37.598,-148.438
1687770047.169,-84.961,-25.879,-38.086,-45.410,-41.016
1687770047.173,-83.496,-24.902,-39.551,-45.898,-10.254
1687770047.177,-76.172,-23.926,-31.250,-27.832,-112.305
1687770047.208,-102.051,-38.574,-34.668,-25.879,-17.578
1687770047.212,-127.441,-45.898,-42.480,-38.086,-14.648
1687770047.216,-132.324,-33.203,-24.902,-47.852,-115.234
1687770047.220,-134.277,-26.367,-22.461,-43.945,-120.605
1687770047.224,-124.023,-29.297,-29.297,-26.367,-114.258
1687770047.228,-115.234,-28.320,-31.250,-12.695,217.773
1687770047.232,-114.746,-31.738,-38.086,-25.879,229.492
1687770047.235,-111.328,-37.109,-28.809,-44.434,-116.699
1687770047.239,-108.398,-43.457,-37.109,-46.875,-129.883
1687770047.243,-101.562,-41.016,-33.203,-23.438,110.840
1687770047.247,-97.168,-45.898,-26.367,-11.230,119.141
1687770047.251,-112.793,-53.223,-48.828,-37.109,-193.848
1687770047.237,-120.605,-35.645,-43.457,-53.223,-132.324
1687770047.241,-125.977,-27.344,-35.645,-49.805,-81.543
1687770047.245,-115.234,-27.832,-27.344,-24.902,-167.480
1687770047.249,-93.750,-33.691,-18.555,-16.113,-133.301
1687770047.253,-88.867,-39.062,-16.113,-20.996,44.434
1687770047.257,-78.125,-28.809,-11.230,-35.156,146.973
1687770047.261,-58.594,-13.184,-16.602,-39.551,-13.672
1687770047.264,-46.387,-16.602,-27.832,-27.832,-117.188
1687770047.268,-40.039,-27.832,-38.086,-20.508,-58.594
1687770047.272,-45.410,-32.227,-44.434,-23.926,-50.781
1687770047.276,-45.410,-26.855,-48.828,-39.551,-101.562
1687770047.280,-40.039,-30.273,-37.109,-47.363,-126.465
1687770047.313,-34.668,-34.180,-24.414,-33.691,39.551
1687770047.317,-25.391,-29.785,-28.320,-13.184,198.730
1687770047.321,-27.344,-43.457,-34.668,-28.320,-52.734
1687770047.325,-31.250,-42.480,-38.086,-54.688,-136.719
1687770047.329,-20.508,-25.391,-30.273,-48.340,-54.688
1687770047.333,-13.672,-38.086,-27.344,-31.738,-60.547
1687770047.337,-14.648,-46.387,-29.297,-26.367,-38.086
1687770047.340,-16.113,-34.668,-30.273,-22.461,3.418
1687770047.344,-11.719,-32.715,-38.574,-36.133,185.059
1687770047.348,4.395,-22.949,-31.738,-47.363,440.918
1687770047.352,9.277,-17.578,-32.227,-41.992,106.934
1687770047.356,5.859,-25.391,-40.527,-23.438,-85.449
1687770047.328,1.953,-31.738,-32.715,-25.391,21.484
1687770047.332,-5.371,-28.809,-34.668,-50.781,-55.176
1687770047.336,-8.789,-15.625,-42.480,-56.152,-144.531
1687770047.340,-26.367,-26.855,-39.062,-51.758,-148.438
1687770047.344,-41.016,-51.758,-32.715,-35.156,-104.492
1687770047.348,-47.363,-51.270,-36.133,-27.832,-18.555
1687770047.352,-56.152,-33.203,-34.180,-47.852,84.961
1687770047.355,-48.340,-16.602,-34.668,-55.664,72.266
1687770047.359,-45.410,-32.715,-46.875,-49.805,-25.879
1687770047.363,-32.227,-33.203,-49.805,-38.086,-66.895
1687770047.367,-24.414,-24.902,-37.598,-29.297,-145.020
1687770047.371,-43.457,-44.434,-30.762,-43.457,-76.660
1687770047.373,-55.664,-36.133,-37.109,-57.617,-11.719
1687770047.377,-48.340,-17.090,-41.504,-55.664,-97.168
1687770047.381,-37.598,-18.066,-34.180,-39.551,-135.254
1687770047.385,-49.316,-24.414,-34.180,-12.695,144.043
1687770047.389,-70.312,-38.574,-34.180,-14.160,368.652
1687770047.393,-90.332,-44.922,-24.902,-44.922,135.742
1687770047.397,-119.141,-28.809,-28.809,-51.758,34.180
1687770047.400,-163.086,-28.809,-40.039,-30.762,251.465
1687770047.404,-194.336,-55.664,-39.062,-7.812,308.594
1687770047.408,-191.895,-46.875,-38.574,-5.371,-74.707
1687770047.412,-179.199,-12.207,-43.457,-16.602,-170.898
1687770047.416,-172.852,-11.230,-54.199,-45.410,-38.086
1687770047.418,-139.160,-12.207,-56.641,-51.758,-80.078
1687770047.422,-102.539,6.836,-47.363,-34.668,-162.109
1687770047.426,-83.496,8.789,-46.387,-42.969,-105.957
1687770047.430,-78.125,1.953,-54.688,-66.406,-106.934
1687770047.434,-61.035,8.301,-55.176,-56.641,-143.555
1687770047.438,-49.805,17.578,-49.805,-41.992,-62.500
1687770047.442,-69.824,24.414,-55.664,-44.434,73.242
1687770047.445,-79.590,29.785,-56.641,-43.457,193.359
1687770047.449,-83.008,31.738,-49.316,-40.039,-81.543
1687770047.453,-119.629,29.785,-54.199,-46.387,-293.457
1687770047.457,-142.090,31.250,-53.711,-45.898,-94.238
1687770047.461,-162.109,36.621,-54.688,-25.391,-8.301
1687770047.465,-200.684,36.621,-54.199,-41.016,-129.883
1687770047.469,-234.863,37.598,-41.504,-47.363,-62.500
1687770047.473,-285.645,43.457,-41.504,-40.039,-13.672
1687770047.477,-330.078,43.945,-45.898,-42.969,-95.215
1687770047.481,-367.188,36.133,-46.387,-33.203,-141.113
1687770047.485,-378.418,39.551,-41.992,-18.555,-133.789
1687770047.489,-344.238,44.922,-38.574,-27.344,88.379
1687770047.492,-300.781,43.945,-37.109,-50.781,115.234
1687770047.496,-244.629,51.758,-33.691,-58.594,-152.344
1687770047.500,-200.684,45.410,-36.621,-49.805,-145.020
1687770047.504,-162.598,38.086,-38.574,-33.203,122.559
1687770047.508,-122.070,53.223,-41.016,-29.297,42.480
1687770047.509,-97.168,56.641,-33.203,-39.062,-232.910
1687770047.513,-82.031,44.922,-33.691,-53.711,-159.180
1687770047.517,-54.199,45.898,-35.156,-40.527,-82.031
1687770047.521,-16.113,49.316,-26.367,-13.672,-49.316
1687770047.525,2.441,46.387,-27.832,-20.020,-73.242
1687770047.529,15.625,35.156,-26.855,-39.551,-43.945
1687770047.533,32.715,33.203,-32.715,-41.504,315.430
1687770047.536,23.438,35.645,-36.133,-37.109,201.172
1687770047.540,-5.859,23.438,-26.367,-26.855,-73.242
1687770047.544,-61.035,14.160,-34.180,-37.598,-50.293
1687770047.548,-97.168,8.301,-39.062,-56.152,-79.590
1687770047.552,-86.426,15.137,-28.809,-45.898,-104.492
1687770047.569,-44.922,22.461,-32.227,-16.602,-62.988
1687770047.573,-15.137,18.066,-26.367,-14.160,6.348
1687770047.577,7.812,16.113,-26.855,-25.391,1.465
1687770047.581,34.180,13.672,-34.668,-25.879,-103.027
1687770047.585,41.016,14.160,-29.785,-32.715,-108.887
1687770047.589,49.316,7.812,-28.809,-28.320,83.008
1687770047.593,54.688,-2.441,-36.621,-24.902,118.652
1687770047.596,43.945,-2.441,-46.875,-32.715,-73.242
1687770047.600,38.086,0.488,-44.922,-46.875,-107.910
1687770047.604,39.551,-0.488,-40.527,-29.785,171.387
1687770047.608,42.480,-4.883,-36.621,-19.531,298.828
1687770047.612,34.668,-8.301,-36.133,-26.367,-3.906
1687770047.614,25.879,-12.207,-41.992,-20.508,-115.234
1687770047.618,31.250,-21.973,-41.504,-33.691,-73.730
1687770047.622,42.969,-19.531,-33.203,-36.133,-184.082
1687770047.626,44.434,-10.742,-29.785,-24.902,-187.988
1687770047.630,44.434,-13.672,-45.410,-18.555,-48.828
1687770047.634,52.246,-19.531,-45.898,-18.555,30.762
1687770047.638,49.316,-14.648,-39.551,-30.762,-51.270
1687770047.641,42.480,-15.625,-38.086,-50.781,-173.340
1687770047.645,43.457,-23.926,-38.574,-40.527,-31.738
1687770047.649,48.340,-27.344,-38.086,-25.879,234.863
1687770047.653,51.270,-29.785,-35.156,-31.250,76.172
1687770047.657,45.898,-22.461,-42.969,-32.227,-168.945
1687770047.659,39.551,-14.648,-41.992,-45.410,-178.223
1687770047.663,32.715,-15.137,-36.621,-44.922,-126.953
1687770047.667,27.344,-18.066,-42.969,-18.555,-114.258
1687770047.671,25.879,-20.508,-35.156,-10.254,-83.008
1687770047.675,18.555,-32.227,-23.926,-30.762,-14.160
1687770047.679,9.277,-31.738,-25.879,-49.316,1.953
1687770047.683,-1.465,-21.484,-29.297,-51.270,-64.941
1687770047.686,-12.695,-25.879,-38.574,-31.738,-115.723
1687770047.690,-26.367,-28.809,-33.203,-10.742,210.449
1687770047.694,-43.457,-20.996,-22.461,-18.555,306.641
1687770047.698,-61.035,-24.414,-41.504,-43.457,-44.922
1687770047.702,-63.477,-31.250,-45.410,-32.715,-35.645
1687770047.704,-57.617,-25.879,-33.691,-20.508,113.770
1687770047.708,-62.012,-26.367,-45.898,-30.762,0.977
1687770047.712,-62.500,-26.855,-37.598,-31.738,-114.746
1687770047.716,-67.871,-24.414,-26.855,-36.133,-65.430
1687770047.720,-83.008,-29.785,-34.180,-34.668,-7.324
1687770047.724,-96.191,-41.504,-47.852,-25.879,14.160
1687770047.728,-100.098,-48.828,-46.387,-9.766,40.039
1687770047.731,-102.539,-37.109,-30.273,-18.555,101.074
1687770047.735,-114.746,-31.738,-35.645,-35.156,169.434
1687770047.739,-120.605,-48.340,-47.852,-42.969,-47.852
1687770047.743,-111.328,-53.711,-44.434,-38.086,-157.227
1687770047.747,-100.098,-35.645,-36.133,-20.020,-44.434
1687770047.749,-95.215,-26.855,-30.273,-31.250,-32.227
1687770047.753,-88.867,-30.762,-33.691,-52.734,-130.859
1687770047.757,-64.941,-33.691,-40.039,-55.664,-165.527
1687770047.761,-49.316,-28.320,-38.574,-36.133,-47.363
1687770047.765,-50.781,-26.855,-40.527,-14.648,15.625
1687770047.769,-53.711,-37.598,-40.527,-22.461,-33.691
1687770047.773,-56.641,-41.504,-31.250,-41.504,-16.602
1687770047.776,-68.848,-44.922,-33.203,-40.039,221.680
1687770047.780,-69.824,-47.852,-41.016,-31.250,414.551
1687770047.784,-61.035,-45.410,-49.805,-38.574,139.160
1687770047.788,-53.223,-48.828,-66.406,-52.734,-62.012
1687770047.792,-39.062,-51.270,-46.875,-52.246,-41.992
1687770047.793,-17.578,-46.387,-17.090,-50.293,-135.254
1687770047.797,7.324,-49.805,-16.602,-48.340,-188.965
1687770047.801,14.648,-41.504,-18.066,-31.738,-41.016
1687770047.805,14.160,-29.785,-22.461,-14.648,39.062
1687770047.809,25.391,-24.902,-22.461,-27.344,-121.094
1687770047.813,32.227,-34.180,-29.297,-33.691,-110.840
1687770047.817,34.180,-41.016,-38.086,-35.645,41.992
1687770047.820,34.180,-37.109,-30.762,-25.879,260.254
1687770047.824,35.645,-42.969,-34.668,-25.879,34.668
1687770047.828,37.598,-46.387,-38.574,-47.363,-209.961
1687770047.832,41.992,-43.945,-39.551,-49.805,-173.340
1687770047.836,52.734,-49.316,-55.664,-47.363,-132.324
1687770047.838,62.012,-38.574,-52.734,-28.320,-106.445
1687770047.842,64.941,-22.949,-32.227,-12.207,-134.277
1687770047.846,63.965,-27.832,-32.227,-23.926,-101.074
1687770047.850,57.617,-44.434,-54.688,-34.668,-142.578
1687770047.854,51.758,-41.016,-51.270,-36.621,-161.133
1687770047.858,30.762,-31.738,-41.504,-41.504,-63.965
1687770047.862,1.953,-40.527,-50.781,-37.598,271.973
1687770047.865,-17.090,-47.852,-44.922,-44.922,246.582
1687770047.869,-37.598,-35.156,-42.480,-71.777,-125.000
1687770047.873,-61.523,-23.926,-52.246,-68.848,-80.566
1687770047.877,-67.383,-28.320,-50.781,-34.668,118.652
1687770047.881,-67.871,-43.945,-49.316,-25.391,102.539
1687770047.883,-60.059,-42.969,-51.270,-45.410,-112.793
1687770047.887,-42.480,-30.273,-45.898,-47.852,-131.836
1687770047.891,-35.645,-31.250,-37.598,-40.527,-104.980
1687770047.895,-31.738,-28.809,-35.156,-37.598,-106.445
1687770047.899,-20.508,-24.414,-46.875,-32.715,-164.551
1687770047.903,-15.137,-25.391,-43.457,-32.227,32.715
1687770047.907,-22.461,-37.109,-29.785,-48.340,149.414
1687770047.910,-23.438,-41.992,-30.762,-54.199,-92.773
1687770047.914,-16.113,-38.086,-31.250,-38.086,-139.648
1687770047.918,-2.441,-40.039,-33.203,-25.879,54.688
1687770047.922,7.324,-49.316,-37.109,-15.137,131.348
1687770047.926,0.977,-41.504,-34.668,-33.691,-153.320
1687770047.944,-0.488,-25.391,-31.738,-49.316,-170.898
1687770047.948,5.859,-22.949,-41.016,-35.156,-38.574
1687770047.952,-1.953,-27.344,-46.387,-35.645,-48.828
1687770047.956,-3.418,-30.762,-36.621,-43.945,-124.512
1687770047.960,-0.488,-33.691,-39.062,-55.664,-134.277
1687770047.964,-20.020,-43.457,-37.598,-62.500,-5.859
1687770047.968,-46.387,-46.875,-35.156,-46.387,36.621
1687770047.971,-81.543,-48.340,-38.086,-45.410,-53.223
1687770047.975,-120.117,-41.504,-41.504,-57.617,-89.355
1687770047.979,-128.418,-22.461,-62.012,-49.805,-55.176
1687770047.983,-105.469,-17.578,-65.918,-11.230,-87.402
1687770047.987,-113.770,-37.109,-35.645,14.648,-159.668
1687770047.989,-155.762,-61.523,-20.508,-8.301,-85.449
1687770047.993,-158.691,-73.242,-21.973,-13.672,296.875
1687770047.997,-137.207,-81.543,-25.391,-21.484,345.215
1687770048.001,-133.789,-91.797,-28.320,-52.734,-26.855
1687770048.005,-140.137,-113.281,-27.344,-49.316,-28.809
1687770048.009,-135.254,-122.070,-20.508,-37.598,120.605
1687770048.013,-140.137,-120.605,-15.137,-44.434,92.773
1687770048.016,-147.949,-125.977,-17.090,-60.059,-90.820
1687770048.020,-146.973,-136.230,-24.414,-69.336,-21.484
1687770048.024,-138.184,-154.785,-24.902,-63.477,121.582
1687770048.028,-129.883,-145.508,-20.508,-59.082,-39.551
1687770048.032,-131.836,-129.395,-19.043,-60.059,-187.012
1687770048.063,-146.484,-138.672,-20.996,-61.523,23.926
1687770048.067,-156.250,-145.508,-21.973,-78.125,59.082
1687770048.071,-137.207,-145.020,-14.648,-76.660,-186.035
1687770048.075,-116.699,-140.625,-20.996,-47.363,-140.625
1687770048.079,-110.840,-146.484,-26.367,-33.203,-45.410
1687770048.083,-130.859,-160.645,-15.137,-60.059,87.891
1687770048.087,-132.324,-159.180,-11.230,-73.242,8.789
1687770048.090,-110.352,-149.414,-16.602,-66.406,-131.348
1687770048.094,-104.980,-148.926,-27.344,-54.688,136.230
1687770048.098,-88.379,-146.484,-29.785,-35.156,277.344
1687770048.102,-67.383,-138.184,-25.391,-45.898,-89.355
1687770048.106,-64.941,-126.465,-19.531,-53.223,-171.875
1687770048.079,-80.566,-118.164,-25.879,-53.711,-83.496
1687770048.083,-76.660,-118.164,-33.691,-46.875,-108.398
1687770048.087,-67.383,-104.980,-31.250,-28.320,-131.348
1687770048.091,-79.102,-97.168,-24.414,-29.785,0.000
1687770048.095,-83.496,-96.680,-24.902,-36.621,60.547
1687770048.099,-79.590,-88.867,-32.715,-38.574,-76.172
1687770048.103,-76.660,-87.402,-31.738,-36.133,-24.414
1687770048.106,-69.824,-89.844,-30.762,-22.949,-0.488
1687770048.110,-62.012,-87.402,-34.668,-27.832,-84.473
1687770048.114,-51.270,-79.590,-34.180,-39.551,-179.199
1687770048.118,-37.109,-78.125,-28.809,-36.133,-190.430
1687770048.122,-22.949,-78.125,-35.645,-27.832,-58.105
1687770048.123,-10.254,-75.684,-34.668,-15.625,-10.254
1687770048.127,0.000,-72.266,-24.902,-15.137,-112.793
1687770048.131,8.301,-63.965,-15.625,-20.020,-190.430
1687770048.135,8.301,-67.383,-16.113,-16.602,-16.602
1687770048.139,-22.949,-70.312,-26.855,-11.719,197.266
1687770048.143,-60.059,-70.312,-30.273,-8.301,54.199
1687770048.147,-74.219,-65.918,-24.902,-9.277,19.531
1687770048.150,-76.172,-48.828,-25.879,-16.602,214.355
1687770048.154,-67.383,-47.852,-20.508,-21.973,412.109
1687770048.158,-66.895,-57.617,-27.832,-24.414,125.977
1687770048.162,-58.105,-46.875,-28.809,-10.254,-66.895
1687770048.166,-57.129,-38.086,-11.719,-9.277,-38.086
1687770048.168,-62.500,-39.551,-14.648,-29.297,-139.648
1687770048.172,-69.336,-39.551,-22.461,-39.551,-219.727
1687770048.176,-69.824,-32.227,-23.926,-29.297,-167.969
1687770048.180,-64.941,-26.367,-20.508,-20.020,-51.758
1687770048.184,-68.359,-38.574,-22.949,-19.043,-86.914
1687770048.188,-64.453,-36.133,-25.879,-23.926,-82.520
1687770048.192,-59.082,-26.855,-19.531,-30.762,41.504
1687770048.195,-60.059,-40.527,-20.020,-30.762,242.188
1687770048.199,-53.223,-51.758,-20.020,-21.484,108.398
1687770048.203,-37.109,-43.945,-24.902,-22.461,-134.766
1687770048.207,-22.949,-42.969,-29.785,-28.320,-2.930
1687770048.211,-11.719,-40.039,-23.926,-47.363,23.438
1687770048.228,-7.812,-24.414,-14.160,-54.199,-154.297
1687770048.232,-4.883,-15.137,-17.090,-32.715,-107.422
1687770048.236,1.465,-26.855,-24.414,-22.949,-91.309
1687770048.240,2.930,-36.133,-26.855,-32.227,-106.934
1687770048.244,5.371,-31.738,-38.574,-46.387,-117.188
1687770048.248,10.742,-36.621,-41.504,-41.016,-82.031
1687770048.252,13.184,-41.016,-30.273,-25.879,175.293
1687770048.255,18.066,-45.898,-28.320,-18.555,288.086
1687770048.259,30.273,-41.504,-26.855,-20.996,7.324
1687770048.263,29.785,-33.203,-14.160,-36.621,-67.871
1687770048.267,12.695,-44.434,-18.066,-47.852,128.906
1687770048.271,13.672,-46.875,-30.273,-40.039,84.473
1687770048.273,13.672,-41.016,-28.809,-31.250,-99.121
1687770048.277,13.184,-37.598,-20.020,-32.715,-51.758
1687770048.281,18.555,-35.156,-24.414,-44.922,-77.148
1687770048.285,17.090,-34.668,-41.504,-54.688,-197.754
1687770048.289,16.113,-36.621,-41.504,-39.551,-175.293
1687770048.293,9.766,-42.969,-35.156,-29.785,-11.719
1687770048.297,6.836,-44.434,-33.203,-39.062,94.238
1687770048.300,15.137,-46.387,-36.621,-41.992,-49.805
1687770048.304,17.578,-38.086,-47.852,-43.457,-207.031
1687770048.308,16.113,-31.250,-43.457,-31.738,-10.254
1687770048.312,18.555,-34.668,-34.668,-24.414,219.238
1687770048.316,18.066,-33.203,-46.387,-41.016,2.930
1687770048.334,-1.953,-36.133,-48.340,-58.105,-94.727
1687770048.338,-23.926,-36.133,-33.203,-64.941,37.598
1687770048.342,-20.508,-33.691,-24.414,-55.176,21.973
1687770048.346,-11.719,-32.227,-21.973,-32.715,-102.539
1687770048.350,-4.395,-35.645,-22.461,-20.996,-104.004
1687770048.354,6.836,-43.945,-34.668,-16.602,-9.277
1687770048.358,-16.113,-39.551,-44.434,-37.109,-28.320
1687770048.361,-42.969,-27.344,-32.715,-70.312,-88.379
1687770048.365,-53.711,-24.414,-20.508,-63.965,-124.512
1687770048.369,-88.867,-32.715,-26.855,-60.547,194.824
1687770048.373,-121.094,-34.668,-29.297,-92.773,312.012
1687770048.377,-130.371,-46.875,-38.086,-117.676,-174.805
1687770048.380,-141.113,-48.828,-41.016,-114.746,-230.957
1687770048.384,-148.926,-23.438,-8.789,-86.914,-88.379
1687770048.388,-153.320,-32.715,-18.555,-79.102,-94.238
1687770048.392,-152.344,-54.688,-39.551,-95.703,-175.781
1687770048.396,-138.672,-37.109,-21.484,-88.379,-42.969
1687770048.400,-137.695,-20.020,-16.602,-73.242,118.652
1687770048.404,-173.340,-21.973,-17.578,-56.152,-48.828
1687770048.407,-209.961,-18.555,-19.531,-46.387,-158.203
1687770048.411,-192.871,-29.785,-16.602,-62.500,-120.117
1687770048.415,-180.664,-41.992,-24.902,-68.848,-149.902
1687770048.419,-184.570,-34.180,-28.809,-62.500,-242.188
1687770048.423,-208.984,-29.297,-26.855,-51.270,-217.285
1687770048.423,-265.137,-42.480,-23.926,-37.598,-13.672
1687770048.427,-279.297,-41.016,-21.484,-52.246,121.094
1687770048.431,-262.695,-26.367,-21.484,-78.125,-119.141
1687770048.435,-226.074,-24.902,-26.855,-65.430,-179.688
1687770048.439,-169.434,-29.297,-33.203,-43.945,5.859
1687770048.443,-132.812,-38.574,-37.598,-42.969,88.379
1687770048.447,-104.980,-36.133,-39.062,-48.828,-69.824
1687770048.450,-79.102,-43.457,-26.367,-53.711,-62.500
1687770048.454,-49.805,-51.270,-23.926,-43.457,-65.918
1687770048.458,-18.555,-46.387,-28.809,-38.086,-150.879
1687770048.462,-11.719,-35.156,-29.297,-31.738,-139.160
1687770048.466,-39.551,-21.973,-38.574,-32.715,-107.910
1687770048.453,-61.035,-33.691,-43.945,-42.969,208.496
1687770048.457,-79.102,-46.875,-29.785,-45.898,229.004
1687770048.461,-107.910,-30.762,-20.508,-39.062,-120.117
1687770048.465,-134.277,-19.043,-33.203,-34.180,-28.320
1687770048.469,-157.227,-30.273,-32.715,-41.992,32.227
1687770048.473,-167.480,-40.527,-26.855,-47.363,-27.832
1687770048.477,-169.434,-40.039,-28.809,-51.270,-34.180
1687770048.480,-135.742,-27.344,-24.414,-37.109,99.121
1687770048.484,-95.215,-26.855,-32.715,-24.902,64.453
1687770048.488,-76.660,-34.180,-29.785,-31.250,-97.168
1687770048.492,-54.688,-34.180,-34.180,-52.734,-149.414
1687770048.496,-38.086,-51.758,-42.969,-61.523,-25.391
1687770048.498,-18.555,-65.918,-41.016,-41.992,86.914
1687770048.502,-4.395,-41.504,-57.129,-33.203,-95.703
1687770048.506,1.953,-15.625,-45.898,-34.180,-161.621
1687770048.510,0.000,-26.367,-29.785,-43.945,-35.156
1687770048.514,-6.836,-32.715,-35.156,-57.617,-28.320
1687770048.518,1.953,-30.273,-33.203,-52.246,-125.000
1687770048.522,11.719,-33.691,-38.574,-37.109,-91.797
1687770048.525,28.809,-21.484,-46.387,-19.531,162.598
1687770048.529,32.227,-24.902,-46.387,-17.090,329.102
1687770048.533,25.879,-28.320,-35.645,-41.992,-4.883
1687770048.537,40.527,-13.672,-29.297,-40.527,-135.254
1687770048.541,54.199,-19.043,-42.969,-17.090,-60.547
1687770048.544,45.410,-37.598,-41.504,-25.879,-112.305
1687770048.548,33.691,-41.504,-32.227,-47.363,-161.133
1687770048.552,34.180,-35.645,-42.480,-53.711,-166.016
1687770048.556,40.039,-27.832,-34.668,-47.363,-154.297
1687770048.560,39.551,-36.621,-31.250,-37.598,-110.840
1687770048.564,45.410,-48.340,-26.855,-24.414,-47.363
1687770048.568,47.363,-45.410,-18.555,-27.832,106.445
1687770048.571,37.598,-36.621,-28.320,-44.922,219.238
1687770048.575,35.645,-16.602,-35.645,-43.457,-43.945
1687770048.579,44.434,-14.160,-22.461,-13.184,-192.383
1687770048.583,47.852,-22.949,-18.066,-11.719,-106.445
1687770048.587,41.016,-39.062,-36.133,-30.762,-75.195
1687770048.589,42.480,-49.805,-55.176,-38.574,-96.191
1687770048.593,49.805,-33.203,-47.363,-38.574,-139.648
1687770048.597,52.246,-25.879,-18.066,-29.785,-56.641
1687770048.601,45.898,-32.715,-25.879,-29.785,-12.207
1687770048.605,30.762,-23.438,-37.598,-42.969,-110.840
1687770048.609,25.879,-18.555,-24.414,-51.270,-80.078
1687770048.613,34.180,-34.180,-20.508,-40.527,143.555
1687770048.616,36.133,-41.016,-36.133,-34.180,199.707
1687770048.620,27.344,-31.738,-47.363,-39.551,9.277
1687770048.624,25.391,-27.832,-29.785,-37.598,-64.453
1687770048.628,19.531,-25.391,-44.434,-48.828,70.312
1687770048.632,28.320,-28.809,-49.316,-53.223,18.555
1687770048.634,37.598,-33.203,-34.668,-42.969,-155.273
1687770048.638,32.715,-34.668,-41.504,-36.621,-81.055
1687770048.642,33.691,-31.738,-40.039,-31.738,29.785
1687770048.646,33.203,-22.461,-16.602,-38.086,-86.914
1687770048.650,29.785,-29.297,-16.602,-51.270,-256.836
1687770048.654,20.996,-39.062,-32.715,-41.504,-51.270
1687770048.658,28.809,-23.926,-20.996,-18.066,238.770
1687770048.661,29.297,-38.086,-20.020,-30.762,38.086
1687770048.665,13.184,-57.129,-33.691,-51.758,-150.391
1687770048.669,11.230,-44.922,-43.945,-52.734,16.602
1687770048.673,8.301,-42.969,-49.805,-51.270,144.531
1687770048.677,10.254,-42.969,-41.992,-41.504,-24.414
1687770048.694,17.090,-34.668,-27.344,-30.762,-133.301
1687770048.698,10.742,-28.320,-20.020,-39.551,-54.199
1687770048.702,4.395,-35.645,-29.297,-52.246,-58.105
1687770048.706,4.883,-33.203,-28.320,-48.340,-124.023
1687770048.710,2.930,-26.367,-26.855,-34.668,-99.121
1687770048.714,-8.789,-40.039,-33.691,-31.738,223.145
1687770048.718,-31.738,-45.410,-36.133,-50.781,258.301
1687770048.721,-32.715,-42.969,-31.250,-71.777,-84.473
1687770048.725,-21.973,-35.645,-24.414,-69.824,-103.027
1687770048.729,-15.625,-26.367,-23.438,-42.480,127.441
1687770048.733,-13.672,-30.273,-36.133,-41.016,120.605
1687770048.737,-14.648,-27.832,-51.758,-54.688,-168.457
1687770048.738,-10.254,-30.273,-46.875,-63.477,-150.391
1687770048.742,-9.766,-41.504,-33.691,-70.312,-78.613
1687770048.746,-13.184,-41.504,-24.414,-53.711,-123.535
1687770048.750,-3.418,-45.898,-25.879,-49.805,-142.090
1687770048.754,2.441,-47.363,-40.527,-43.945,0.488
1687770048.758,-4.395,-26.855,-37.109,-44.434,49.805
1687770048.762,-7.324,-28.320,-34.180,-55.176,-37.109
1687770048.765,-7.812,-40.527,-45.410,-50.293,-44.434
1687770048.769,-7.324,-40.039,-37.109,-38.086,60.059
1687770048.773,-0.488,-41.504,-28.809,-34.180,274.902
1687770048.777,2.441,-28.809,-33.691,-53.711,57.617
1687770048.781,8.789,-22.949,-41.992,-65.430,-137.695
1687770048.783,15.137,-28.809,-48.828,-48.340,-134.766
1687770048.787,10.254,-34.668,-51.270,-37.598,-100.098
1687770048.791,1.465,-51.270,-33.691,-41.504,-115.723
1687770048.795,-2.930,-49.805,-32.715,-53.223,-150.879
1687770048.799,-7.812,-45.410,-49.316,-56.641,-114.746
1687770048.803,-5.371,-51.758,-35.645,-41.016,-43.945
1687770048.807,4.395,-37.598,-23.438,-26.855,-13.184
1687770048.810,-1.953,-29.785,-39.551,-37.109,-90.820
1687770048.814,-5.371,-24.414,-41.992,-35.645,165.527
1687770048.818,3.906,-29.785,-36.133,-20.508,395.996
1687770048.822,12.207,-37.109,-47.363,-12.207,37.109
1687770048.826,14.160,-31.250,-51.270,-3.906,-37.598
1687770048.844,7.324,-32.715,-41.992,-10.254,22.949
1687770048.848,4.883,-46.875,-42.969,-26.367,-153.320
1687770048.852,2.441,-42.480,-42.969,-34.668,-203.125
1687770048.856,4.883,-29.297,-34.180,-19.043,-71.289
1687770048.860,21.973,-33.691,-39.551,16.602,-7.324
1687770048.864,20.996,-21.484,-68.359,15.625,-41.992
1687770048.868,-1.465,-16.113,-74.219,-30.273,-61.523
1687770048.871,6.348,-25.879,-40.527,-36.133,30.273
1687770048.875,21.973,-15.625,-30.762,-10.254,169.434
1687770048.879,20.508,-6.836,-48.828,-11.230,-29.785
1687770048.883,8.789,-8.301,-57.129,-35.645,-179.199
1687770048.887,6.348,-11.230,-59.082,-56.152,-12.207
1687770048.873,20.996,-2.441,-62.988,-51.758,-10.254
1687770048.877,20.996,3.906,-59.082,-38.086,-140.137
1687770048.881,28.809,2.441,-49.316,-20.020,-110.352
1687770048.885,35.156,11.719,-54.688,-20.020,-18.555
1687770048.889,29.785,23.438,-61.523,-37.109,-55.176
1687770048.893,35.645,22.461,-50.781,-50.293,-68.359
1687770048.897,53.711,24.414,-52.246,-41.016,51.270
1687770048.900,68.848,35.645,-56.152,-18.066,116.699
1687770048.904,63.965,36.621,-49.316,-17.090,74.219
1687770048.908,51.758,34.180,-46.387,-20.508,-20.508
1687770048.912,47.852,33.203,-48.828,-38.086,-169.922
1687770048.916,50.781,37.598,-49.805,-39.062,81.543
1687770048.919,58.594,42.969,-52.246,-14.160,241.699
1687770048.923,38.574,47.363,-49.805,-17.090,-76.660
1687770048.927,18.555,37.598,-41.992,-30.273,-63.477
1687770048.931,26.855,25.879,-38.574,-40.039,17.090
1687770048.935,34.180,38.574,-34.668,-41.504,-144.531
1687770048.939,32.227,55.176,-29.297,-37.598,-176.758
1687770048.943,32.715,61.035,-34.180,-31.250,104.492
1687770048.946,25.879,48.828,-41.504,-35.645,186.523
1687770048.950,17.578,38.086,-46.875,-63.477,-99.609
1687770048.954,27.344,39.551,-46.387,-55.664,-151.855
1687770048.958,31.738,44.922,-36.621,-26.855,-83.496
1687770048.962,34.180,49.805,-33.203,-23.438,-110.840
1687770048.963,37.598,45.898,-36.621,-28.809,-175.293
1687770048.967,26.855,39.062,-30.273,-32.227,-159.668
1687770048.971,27.832,47.363,-25.391,-33.691,-142.578
1687770048.975,29.297,47.363,-24.414,-34.668,-82.520
1687770048.979,27.344,41.016,-21.973,-22.949,-80.078
1687770048.983,35.156,40.039,-29.297,-20.020,-100.586
1687770048.987,35.156,30.762,-30.762,-28.809,97.168
1687770048.990,32.715,27.344,-28.809,-33.203,51.758
1687770048.994,41.504,13.184,-27.832,-25.879,-133.301
1687770048.998,34.668,0.977,-32.227,-17.578,-63.477
1687770049.002,23.438,5.371,-42.969,-18.066,-19.043
1687770049.006,15.137,-0.488,-39.551,-22.949,-151.855
1687770049.008,5.371,8.301,-34.180,-32.227,-237.305
1687770049.012,0.488,9.766,-38.574,-16.113,-159.668
1687770049.016,-9.277,7.324,-25.879,4.883,156.738
1687770049.020,-35.156,-0.488,-26.855,-9.277,158.203
1687770049.024,-53.223,-8.789,-40.039,-26.855,-163.086
1687770049.028,-45.410,-9.766,-29.297,-20.996,2.930
1687770049.032,-26.367,-21.484,-39.062,-16.602,156.738
1687770049.035,-17.090,-33.691,-45.410,-9.766,38.574
1687770049.039,-24.414,-41.016,-30.273,-9.766,-9.766
1687770049.043,-23.926,-17.578,-27.832,-18.066,33.203
1687770049.047,-23.438,-1.465,-36.133,-36.621,127.930
1687770049.051,-18.066,-14.160,-34.180,-41.992,-75.195
1687770049.068,-19.043,-21.973,-32.227,-26.855,-186.035
1687770049.072,-21.973,-14.648,-37.598,-20.020,-102.051
1687770049.076,-12.695,-8.301,-50.781,-28.809,-114.258
1687770049.080,-17.578,-28.809,-58.105,-51.758,-169.922
1687770049.084,-9.766,-31.250,-35.645,-43.457,-104.004
1687770049.088,-6.836,-17.578,-21.973,-22.461,26.855
1687770049.092,-17.090,-23.438,-38.086,-15.137,55.176
1687770049.095,-16.113,-22.949,-58.105,-22.461,-105.957
1687770049.099,-15.625,-25.879,-57.617,-34.180,-56.152
1687770049.103,-17.578,-30.762,-35.645,-26.367,5.371
1687770049.107,-18.066,-29.785,-25.391,-12.695,-100.586
1687770049.111,-13.184,-28.809,-28.320,-10.742,-84.961
1687770049.113,-6.348,-25.879,-37.598,-18.555,-107.422
1687770049.117,-4.395,-27.344,-42.480,-16.602,92.285
1687770049.121,-6.836,-22.949,-30.762,-11.230,185.059
1687770049.125,-10.254,-24.902,-29.785,-26.367,-102.539
1687770049.129,-9.766,-29.785,-33.203,-17.578,-152.344
1687770049.133,-14.648,-24.414,-49.805,-15.625,15.625
1687770049.137,-18.555,-20.020,-52.734,-31.738,18.555
1687770049.140,-20.996,-28.320,-40.527,-33.203,-184.082
1687770049.144,-20.996,-36.133,-48.340,-18.066,-21.973
1687770049.148,-19.531,-15.137,-50.293,-2.930,177.734
1687770049.152,-20.020,-17.090,-34.180,-21.484,7.324
1687770049.156,-22.461,-29.297,-32.715,-24.902,-112.793
1687770049.159,-33.203,-15.625,-42.969,-18.555,-4.883
1687770049.163,-39.062,-8.301,-34.668,-16.602,35.156
1687770049.167,-34.668,-14.648,-36.133,-13.184,-81.543
1687770049.171,-34.668,-23.438,-34.180,-15.625,-53.223
1687770049.175,-32.715,-25.391,-24.414,-24.414,-23.926
1687770049.179,-32.715,-29.785,-29.785,-41.992,-20.508
1687770049.183,-32.227,-26.855,-38.574,-41.016,29.785
1687770049.186,-23.438,-12.207,-44.434,-18.066,38.574
1687770049.190,-33.203,-15.137,-31.250,-8.301,203.125
1687770049.194,-44.922,-26.367,-26.855,-15.137,257.812
1687770049.198,-45.410,-23.926,-40.527,-32.715,-98.145
1687770049.202,-46.875,-14.160,-38.086,-32.715,-140.625
1687770049.204,-33.203,-11.719,-36.621,-15.625,76.660
1687770049.208,-35.645,-17.090,-37.598,-19.531,-2.441
1687770049.212,-47.363,-20.508,-25.879,-43.457,-186.035
1687770049.216,-37.598,-20.508,-14.648,-52.246,-74.219
1687770049.220,-13.672,-27.344,-19.531,-31.250,-17.090
1687770049.224,-12.695,-36.133,-36.133,-36.133,-77.637
1687770049.228,-31.250,-32.227,-40.039,-48.828,-63.477
1687770049.231,-37.598,-23.438,-38.086,-33.203,-8.789
1687770049.235,-40.039,-13.672,-27.832,-33.691,123.535
1687770049.239,-41.504,-22.949,-30.762,-42.969,3.418
1687770049.243,-41.504,-26.367,-33.691,-31.250,-146.484
1687770049.247,-44.434,-17.578,-27.832,-19.531,7.812
1687770049.248,-39.062,-19.043,-23.438,-24.414,18.066
1687770049.252,-42.969,-23.926,-27.832,-44.434,-133.301
1687770049.256,-46.875,-28.809,-46.387,-45.898,-156.738
1687770049.260,-28.809,-31.250,-44.434,-28.809,-51.270
1687770049.264,-23.926,-22.461,-33.203,-23.438,-21.484
1687770049.268,-20.508,-24.414,-31.738,-25.879,-39.551
1687770049.272,-9.277,-24.414,-33.691,-19.043,-114.746
1687770049.275,-7.324,-18.555,-34.668,-20.508,89.844
1687770049.279,-17.578,-34.180,-28.320,-18.066,382.324
1687770049.283,-32.715,-46.387,-30.273,-20.508,56.641
1687770049.287,-41.504,-46.387,-45.410,-33.203,-125.977
1687770049.291,-38.086,-36.621,-44.922,-37.598,-127.441
1687770049.294,-34.180,-29.785,-29.297,-42.480,-189.453
1687770049.298,-44.434,-30.273,-32.715,-41.016,-227.539
1687770049.302,-52.734,-26.367,-38.574,-16.602,-115.723
1687770049.306,-69.824,-27.344,-32.715,-11.719,54.688
1687770049.310,-88.867,-42.480,-34.668,-40.527,-63.965
1687770049.314,-86.426,-37.109,-33.203,-44.922,-111.816
1687770049.318,-74.707,-10.254,-41.504,-36.133,118.164
1687770049.321,-53.711,-8.789,-53.223,-17.090,431.152
1687770049.325,-13.184,-22.461,-43.457,17.578,145.020
1687770049.329,-4.395,-26.367,-32.715,24.902,-175.293
1687770049.333,-53.711,-35.645,-28.809,-8.789,-109.863
1687770049.337,-86.426,-59.570,-20.996,-29.785,-21.484
1687770049.338,-89.355,-80.078,-10.742,-27.344,-33.203
1687770049.342,-102.539,-85.449,0.000,-37.598,-131.836
1687770049.346,-117.188,-100.586,-14.648,-52.734,-129.395
1687770049.350,-122.559,-111.328,-34.180,-63.477,-166.992
1687770049.354,-113.770,-119.629,-24.902,-52.734,-194.336
1687770049.358,-117.676,-130.859,-5.859,-55.664,-17.578
1687770049.362,-138.672,-136.719,8.789,-80.078,235.352
1687770049.365,-137.207,-99.121,17.090,-83.008,143.066
1687770049.369,-125.000,-82.520,8.301,-87.402,-158.203
1687770049.373,-124.023,-116.699,-0.488,-91.309,-182.129
1687770049.377,-134.277,-138.672,-2.930,-74.707,148.438
1687770049.381,-125.000,-133.789,6.836,-67.383,124.023
1687770049.383,-122.559,-120.605,18.066,-104.980,-196.777
1687770049.387,-128.418,-125.488,12.207,-112.793,-167.480
1687770049.391,-115.234,-136.230,5.371,-81.055,-111.816
1687770049.395,-100.586,-137.207,-5.371,-64.941,-105.469
1687770049.399,-101.562,-131.348,-3.906,-70.801,-153.320
1687770049.403,-114.746,-136.230,-8.301,-91.309,-81.543
1687770049.407,-111.816,-146.484,-16.602,-82.031,11.230
1687770049.410,-111.328,-155.273,-17.578,-74.219,-104.980
1687770049.414,-116.211,-158.691,-23.926,-59.570,-191.895
1687770049.418,-113.281,-141.602,-27.344,-43.457,72.266
1687770049.422,-111.816,-123.535,-30.762,-53.223,213.379
1687770049.426,-110.840,-123.535,-27.832,-61.523,-123.535
1687770049.458,-100.098,-130.859,-23.438,-58.594,-187.500
1687770049.462,-84.961,-133.789,-22.949,-35.645,-69.824
1687770049.466,-83.496,-113.770,-28.320,-24.414,-27.832
1687770049.470,-85.449,-97.168,-25.391,-42.969,-117.188
1687770049.474,-79.102,-99.609,-29.785,-51.270,-207.520
1687770049.478,-88.379,-104.492,-43.945,-51.758,-108.887
1687770049.482,-94.238,-92.285,-36.133,-36.133,37.109
1687770049.485,-84.473,-82.520,-29.297,-20.508,41.992
1687770049.489,-83.984,-76.660,-23.438,-29.297,-38.574
1687770049.493,-81.543,-66.406,-35.156,-27.832,62.500
1687770049.497,-81.055,-66.895,-39.062,-10.742,112.305
1687770049.501,-87.402,-72.754,-28.320,-12.695,-105.469
1687770049.489,-86.426,-69.824,-27.344,-10.254,-94.727
1687770049.493,-77.637,-62.988,-28.320,-8.789,7.324
1687770049.497,-72.754,-60.547,-36.133,-27.344,-68.359
1687770049.501,-74.707,-66.406,-46.387,-33.691,-147.949
1687770049.505,-67.871,-68.359,-39.062,-8.789,-75.195
1687770049.509,-55.664,-60.059,-27.832,5.371,125.000
1687770049.513,-45.898,-65.430,-36.621,-18.555,91.797
1687770049.516,-37.109,-62.500,-43.457,-37.598,-121.582
1687770049.520,-33.203,-52.246,-43.457,-34.180,-77.148
1687770049.524,-29.297,-48.828,-41.504,-21.973,5.859
1687770049.528,-21.973,-49.316,-44.434,-12.207,-44.922
1687770049.532,-22.949,-46.387,-50.781,-20.996,-138.672
1687770049.563,-38.574,-40.039,-47.363,-24.414,33.203
1687770049.567,-35.645,-38.086,-43.457,-31.250,200.195
1687770049.571,-21.973,-43.945,-33.691,-27.832,-3.418
1687770049.575,-25.879,-51.758,-26.367,-16.602,-18.555
1687770049.579,-25.391,-44.434,-34.668,-19.531,26.367
1687770049.583,-25.879,-36.133,-37.109,-35.645,50.781
1687770049.587,-28.320,-36.621,-23.438,-46.387,-21.484
1687770049.590,-20.020,-42.480,-20.020,-38.086,-63.965
1687770049.594,-16.113,-36.133,-24.902,-21.973,222.168
1687770049.598,-19.531,-30.762,-28.320,-16.113,235.840
1687770049.602,-25.879,-39.551,-22.949,-44.434,-145.020
1687770049.606,-25.879,-37.109,-22.949,-54.688,-180.664
1687770049.578,-23.926,-30.762,-25.879,-39.551,-11.230
1687770049.582,-21.484,-27.344,-20.020,-26.367,-45.898
1687770049.586,-18.066,-17.578,-30.273,-17.090,-159.668
1687770049.590,-27.832,-29.297,-40.527,-26.855,-108.887
1687770049.594,-33.691,-36.133,-25.391,-39.551,-75.684
1687770049.598,-30.273,-20.996,-20.996,-37.109,-84.473
1687770049.602,-36.621,-34.180,-19.531,-30.762,11.719
1687770049.605,-52.246,-38.086,-18.555,-24.414,149.902
1687770049.609,-56.641,-41.016,-24.414,-30.273,107.422
1687770049.613,-45.410,-48.828,-24.902,-42.480,-118.164
1687770049.617,-41.016,-25.391,-22.949,-24.414,-153.320
1687770049.621,-46.387,-20.996,-18.066,-13.184,-41.016
1687770049.623,-54.688,-32.715,-15.625,-20.020,22.461
1687770049.627,-62.012,-29.297,-12.695,-28.809,-45.898
1687770049.631,-66.406,-29.297,-11.719,-38.086,-166.504
1687770049.635,-60.547,-29.297,-13.184,-26.367,-1.953
1687770049.639,-45.898,-40.527,-9.766,-6.348,210.938
1687770049.643,-49.316,-53.223,-20.020,-8.301,150.879
1687770049.647,-49.805,-34.668,-26.367,-25.879,39.062
1687770049.650,-29.785,-38.574,-44.922,-11.719,181.152
1687770049.654,-21.973,-36.621,-51.270,0.488,492.676
1687770049.658,-65.430,-15.625,-22.949,-50.781,161.621
1687770049.662,-104.492,-22.949,-9.766,-68.359,-62.012
1687770049.666,-117.188,-31.738,-10.254,-67.383,20.996
1687770049.683,-126.465,-32.715,-13.184,-91.797,-112.305
1687770049.687,-136.230,-33.691,-13.672,-101.074,-221.191
1687770049.691,-134.277,-17.090,-14.648,-85.449,-140.625
1687770049.695,-124.023,-16.113,-14.648,-62.500,-22.949
1687770049.699,-124.023,-26.367,-18.555,-68.848,-58.105
1687770049.703,-119.141,-29.297,-20.020,-83.984,-101.074
1687770049.707,-92.285,-28.809,-25.391,-72.754,29.297
1687770049.710,-67.871,-21.973,-19.043,-44.434,159.180
1687770049.714,-62.012,-20.020,2.441,-41.992,-65.430
1687770049.718,-54.199,-15.625,0.977,-42.969,-135.254
1687770049.722,-50.293,-12.207,-5.859,-54.688,-7.812
1687770049.726,-51.270,-27.832,-12.207,-71.289,-83.984
1687770049.713,-38.086,-24.414,-22.461,-50.293,-141.602
1687770049.717,-25.391,-20.508,-19.531,-35.156,-82.520
1687770049.721,-21.973,-26.855,-11.719,-32.715,29.785
1687770049.725,-18.555,-27.344,-17.578,-45.898,-20.020
1687770049.729,-18.555,-21.484,-17.090,-68.359,-183.594
1687770049.733,-20.508,-14.648,-7.812,-57.129,-5.859
1687770049.737,-14.648,-24.902,-5.859,-42.969,200.195
1687770049.740,-19.043,-29.785,-8.789,-39.062,118.652
1687770049.744,-21.973,-16.602,-8.789,-48.340,-85.938
1687770049.748,-18.066,-31.250,-15.137,-65.430,-218.750
1687770049.752,-6.836,-38.574,-19.043,-42.969,92.285
1687770049.756,-6.836,-22.461,-18.555,-37.598,240.234
1687770049.760,-17.578,-26.367,-24.902,-39.062,-64.453
1687770049.764,-16.602,-30.762,-28.320,-41.504,-134.766
1687770049.768,-16.113,-25.879,-37.109,-62.500,-22.949
1687770049.772,-11.719,-25.879,-30.273,-53.711,-71.289
1687770049.776,-13.672,-25.391,-32.715,-31.738,-178.711
1687770049.780,-14.648,-23.438,-27.832,-21.973,47.852
1687770049.784,-11.230,-26.367,-11.719,-41.016,146.973
1687770049.787,-7.812,-21.484,-13.672,-55.176,-127.930
1687770049.791,-6.348,-15.137,-26.367,-41.504,-148.926
1687770049.795,-0.488,-20.020,-39.062,-31.250,-13.184
1687770049.799,1.953,-28.320,-32.715,-34.668,-23.438
1687770049.803,-7.812,-24.414,-28.809,-45.410,-128.418
1687770049.819,-21.484,-25.391,-26.367,-60.059,-141.602
1687770049.823,-17.090,-29.297,-29.785,-65.918,-112.793
1687770049.827,-7.324,-14.160,-34.668,-52.246,-68.848
1687770049.831,-10.254,-8.789,-35.645,-43.457,-56.152
1687770049.835,-18.555,-16.113,-32.715,-48.828,-140.137
1687770049.839,-31.738,-27.344,-21.973,-47.852,106.934
1687770049.843,-30.762,-30.762,-19.043,-41.504,227.539
1687770049.846,-24.414,-26.367,-32.715,-37.598,-57.617
1687770049.850,-36.133,-36.133,-37.109,-38.574,-40.039
1687770049.854,-47.363,-31.738,-24.414,-42.480,202.148
1687770049.858,-37.109,-18.555,-23.438,-49.316,128.418
1687770049.862,-28.809,-21.973,-41.016,-61.523,-144.531
1687770049.878,-29.297,-24.414,-37.109,-45.410,-31.738
1687770049.882,-32.227,-24.414,-19.531,-24.902,-3.418
1687770049.886,-39.062,-25.391,-17.090,-29.297,-101.074
1687770049.890,-51.758,-22.461,-18.066,-42.969,-166.992
1687770049.894,-56.641,-7.812,-20.020,-36.621,-58.105
1687770049.898,-61.523,-4.395,-32.227,-24.902,88.867
1687770049.902,-73.242,-18.066,-23.926,-20.508,63.965
1687770049.905,-81.055,-19.531,-20.996,-31.250,22.461
1687770049.909,-81.055,-17.090,-35.645,-51.270,41.992
1687770049.913,-80.566,-28.320,-38.086,-53.711,189.453
1687770049.917,-69.824,-22.949,-33.203,-51.758,-31.738
1687770049.921,-54.199,-12.695,-18.066,-33.691,-195.801
1687770049.908,-59.570,-20.020,-10.742,-31.738,-106.934
1687770049.912,-60.059,-15.137,-15.137,-38.574,-102.051
1687770049.916,-51.758,-13.184,-16.602,-45.410,-168.945
1687770049.920,-44.922,-26.367,-21.484,-41.504,-216.797
1687770049.924,-33.203,-28.320,-25.391,-25.879,-103.516
1687770049.928,-31.250,-23.926,-30.273,-23.926,69.336
1687770049.932,-36.621,-15.625,-33.691,-41.992,-3.418
1687770049.935,-43.457,-9.277,-28.809,-54.199,9.766
1687770049.939,-60.547,-16.113,-27.344,-44.922,108.887
1687770049.943,-52.734,-14.160,-44.434,-32.715,-18.066
1687770049.947,-46.387,-20.996,-48.828,-31.738,-114.746
1687770049.951,-53.711,-28.809,-27.832,-48.340,-159.668
1687770049.953,-42.480,-17.090,-15.625,-44.922,88.379
1687770049.957,-29.785,-12.207,-17.090,-22.949,250.000
1687770049.961,-25.879,-20.996,-24.902,-21.484,-53.711
1687770049.965,-23.926,-31.250,-26.855,-18.555,-157.227
1687770049.969,-24.902,-25.879,-24.902,-33.691,-109.863
1687770049.973,-25.391,-18.066,-21.484,-53.711,-96.191
1687770049.977,-16.113,-25.879,-20.020,-50.293,-7.812
1687770049.980,-7.812,-29.785,-36.133,-39.551,113.770
1687770049.984,-11.719,-24.902,-46.875,-29.297,225.586
1687770049.988,-15.137,-21.973,-40.527,-38.086,55.176
1687770049.992,-7.324,-24.902,-37.109,-59.570,-180.664
1687770049.996,-2.441,-22.949,-40.039,-48.828,-122.559
1687770050.013,3.906,-23.438,-52.246,-22.949,-30.273
1687770050.017,8.301,-42.480,-46.875,-22.949,-91.797
1687770050.021,0.000,-45.410,-22.461,-31.738,-133.301
1687770050.025,-17.090,-27.344,-8.301,-37.109,-124.512
1687770050.029,-29.297,-34.668,-22.461,-49.316,-176.758
1687770050.033,-25.879,-42.969,-32.227,-32.715,-154.297
1687770050.037,-15.137,-23.926,-33.691,-18.555,-7.812
1687770050.040,-16.113,-17.578,-39.551,-20.996,290.039
1687770050.044,-19.531,-20.508,-36.621,-23.926,344.238
1687770050.048,-11.719,-23.438,-44.434,-47.852,-89.355
1687770050.052,-7.812,-27.344,-57.129,-41.992,-139.160
1687770050.056,-7.324,-33.203,-36.133,-29.297,-19.043
1687770050.043,-11.719,-46.875,-18.066,-43.457,-109.863
1687770050.047,-19.531,-41.016,-22.461,-54.688,-166.992
1687770050.051,-13.184,-27.832,-30.762,-44.434,-91.797
1687770050.055,-8.789,-29.785,-30.273,-25.879,-40.039
1687770050.059,-4.883,-31.738,-20.020,-15.625,-146.484
1687770050.063,-8.789,-33.203,-28.320,-28.320,-102.539
1687770050.067,-12.207,-38.574,-24.902,-41.504,94.238
1687770050.070,-4.883,-44.922,-27.832,-42.969,-9.766
1687770050.074,-3.418,-38.574,-42.480,-37.109,-154.297
1687770050.078,-4.883,-33.691,-35.645,-37.109,-181.152
1687770050.082,-7.324,-33.203,-45.898,-42.969,45.410
1687770050.086,-14.648,-35.645,-48.828,-45.410,249.512
1687770050.089,-14.648,-48.828,-29.297,-46.387,-111.328
1687770050.093,-3.418,-49.316,-29.785,-46.875,-125.488
1687770050.097,-0.488,-37.598,-37.598,-24.414,150.391
1687770050.101,0.977,-36.133,-37.598,-13.184,45.410
1687770050.105,-2.441,-36.133,-26.855,-33.691,-196.289
1687770050.109,-10.254,-34.180,-17.090,-49.805,-217.773
1687770050.113,-8.301,-35.156,-22.461,-44.434,139.160
1687770050.116,-15.625,-36.621,-28.809,-21.484,309.082
1687770050.120,-26.367,-34.668,-29.785,-23.926,-38.574
1687770050.124,-21.484,-31.250,-28.809,-37.598,-201.660
1687770050.128,-21.484,-36.621,-24.902,-33.203,-88.867
1687770050.132,-30.762,-35.156,-34.668,-25.879,-80.566
1687770050.133,-28.320,-28.809,-49.316,-20.996,-200.684
1687770050.137,-15.625,-34.668,-24.414,-12.207,-94.238
1687770050.141,-14.160,-34.180,-14.160,-19.043,-55.664
1687770050.145,-19.043,-32.715,-31.738,-29.297,-219.238
1687770050.149,-15.137,-31.250,-30.273,-24.414,-125.977
1687770050.153,-17.578,-35.645,-23.926,-7.812,179.688
1687770050.157,-18.066,-33.691,-22.461,8.301,432.129
1687770050.160,-15.625,-33.691,-29.297,-3.906,202.637
1687770050.164,-20.020,-35.645,-37.598,-35.645,-134.766
1687770050.168,-12.695,-32.715,-34.668,-30.273,-94.727
1687770050.172,-5.371,-40.039,-27.344,-8.789,-133.789
1687770050.176,-6.348,-36.621,-31.738,1.953,-167.480
1687770050.194,-8.301,-30.762,-39.551,-13.184,-161.133
1687770050.198,-19.531,-32.227,-37.598,-49.316,-167.969
1687770050.202,-20.020,-41.504,-38.574,-49.316,-187.012
1687770050.206,-16.113,-54.199,-43.457,-28.809,-210.938
1687770050.210,-20.020,-39.551,-32.715,-20.996,-99.121
1687770050.214,-18.066,-27.832,-36.621,-30.762,70.312
1687770050.218,-20.508,-28.320,-42.480,-56.152,55.176
1687770050.221,-20.020,-26.855,-31.738,-67.383,-45.410
1687770050.225,-15.137,-28.320,-29.785,-46.387,-21.484
1687770050.229,-16.113,-31.250,-33.691,-26.855,180.176
1687770050.233,-27.832,-39.062,-36.621,-23.926,302.246
1687770050.237,-49.316,-49.316,-38.574,-45.410,-68.848
1687770050.238,-50.781,-48.340,-36.621,-55.664,-209.961
1687770050.242,-50.293,-47.852,-34.180,-41.504,-72.754
1687770050.246,-53.223,-39.551,-35.156,-24.414,-110.840
1687770050.250,-57.617,-35.156,-26.855,-22.949,-136.719
1687770050.254,-83.008,-45.898,-23.926,-35.645,-72.266
1687770050.258,-81.055,-48.340,-41.016,-38.574,23.438
1687770050.262,-59.082,-34.668,-49.316,-20.508,34.668
1687770050.265,-59.570,-22.461,-44.922,-28.320,-98.633
1687770050.269,-55.176,-14.160,-34.668,-30.762,-39.062
1687770050.273,-41.016,-12.695,-28.809,-19.531,264.648
1687770050.277,-35.156,-18.555,-46.875,-48.340,78.125
1687770050.281,-22.461,-12.207,-61.523,-56.152,-158.203
1687770050.283,-22.949,-3.418,-51.758,-46.387,-78.613
1687770050.287,-27.344,-3.906,-42.480,-51.758,-49.316
1687770050.291,-10.742,-11.719,-46.387,-59.082,-92.773
1687770050.295,15.625,0.000,-47.852,-53.711,-136.719
1687770050.299,22.949,17.090,-58.105,-37.598,-115.234
1687770050.303,21.973,14.648,-55.176,-25.879,-16.113
1687770050.307,31.738,20.996,-45.898,-30.273,55.176
1687770050.310,35.645,40.039,-53.711,-37.598,-6.348
1687770050.314,33.691,44.922,-56.152,-29.785,68.848
1687770050.318,38.086,42.969,-52.734,-10.254,167.969
1687770050.322,59.082,45.898,-61.035,-2.441,-36.133
1687770050.326,67.871,44.434,-62.012,0.000,-20.996
1687770050.328,68.359,43.457,-57.617,2.441,14.648
1687770050.332,68.848,47.363,-60.547,-15.625,-112.793
1687770050.336,44.434,47.852,-53.711,-21.973,-129.883
1687770050.340,19.043,51.270,-45.898,-7.324,-44.922
1687770050.344,-2.441,47.852,-43.945,3.906,-11.719
1687770050.348,-20.020,35.645,-51.758,-4.395,-5.859
1687770050.352,-18.555,40.527,-51.758,-21.973,18.066
1687770050.355,-5.371,49.805,-43.945,-27.344,73.730
1687770050.359,8.301,47.363,-52.734,-3.906,176.270
1687770050.363,18.066,43.457,-58.594,-6.348,9.766
1687770050.367,30.762,47.363,-42.480,-18.555,-147.949
1687770050.371,27.832,50.781,-44.434,-23.438,-148.438
1687770050.374,24.414,50.293,-46.387,-36.621,-151.855
1687770050.378,25.391,39.551,-35.156,-31.738,-142.090
1687770050.382,20.996,39.551,-39.062,-3.906,-146.484
1687770050.386,11.230,44.922,-46.387,-5.371,-53.223
1687770050.390,1.953,40.527,-45.898,-36.621,-64.453
1687770050.394,12.207,39.062,-37.109,-37.598,-164.551
1687770050.398,21.484,36.133,-38.574,-23.438,-87.402
1687770050.401,16.113,35.156,-40.527,-15.137,240.723
1687770050.405,19.531,31.738,-43.457,-14.648,329.590
1687770050.409,27.344,24.902,-41.504,-32.227,-114.746
1687770050.413,33.203,22.949,-33.691,-36.621,-211.914
1687770050.417,37.109,18.555,-38.086,-23.926,-128.906
1687770050.418,32.715,11.230,-40.039,-13.672,-112.305
1687770050.422,27.832,17.090,-47.363,-15.137,-171.875
1687770050.426,31.738,22.949,-42.480,-20.996,-144.043
1687770050.430,32.715,15.625,-36.621,-28.809,0.000
1687770050.434,26.367,8.301,-38.574,-34.668,-8.301
1687770050.438,21.973,7.324,-34.668,-24.902,-78.613
1687770050.442,20.508,0.977,-30.762,-10.742,65.918
1687770050.445,24.902,-2.930,-28.320,-10.742,267.090
1687770050.449,24.902,1.953,-34.668,-33.203,-5.859
1687770050.453,26.855,0.977,-37.109,-26.367,-226.074
1687770050.457,29.297,0.977,-35.156,-6.836,-97.656
1687770050.461,18.066,1.465,-38.574,-11.719,-40.039
1687770050.463,11.230,-2.930,-36.133,-22.949,-83.984
1687770050.467,14.160,2.930,-30.273,-27.832,-121.094
1687770050.471,25.879,9.766,-27.832,-28.809,-57.129
1687770050.475,25.391,-0.977,-28.809,-13.672,-72.754
1687770050.479,13.184,-8.789,-29.297,0.488,-42.969
1687770050.483,13.672,-4.883,-31.250,-23.438,-4.395
1687770050.487,9.766,-7.324,-43.945,-29.785,223.633
1687770050.490,9.277,-3.906,-37.598,-20.996,284.668
1687770050.494,12.207,2.441,-22.461,-12.207,-8.789
1687770050.498,-6.836,-15.625,-32.227,-11.719,-113.770
1687770050.502,-22.949,-25.391,-39.062,-27.344,91.309
1687770050.506,-23.926,-5.859,-37.109,-31.738,87.402
1687770050.508,-13.672,0.000,-31.738,-23.438,-193.848
1687770050.512,-5.859,-10.254,-31.250,-8.789,-116.211
1687770050.516,-26.367,-27.344,-40.039,-19.043,5.371
1687770050.520,-39.551,-33.203,-49.805,-31.250,-60.547
1687770050.524,-44.434,-20.020,-47.363,-43.457,-181.152
1687770050.528,-34.180,-18.555,-40.039,-30.273,-6.348
1687770050.532,-16.602,-23.438,-47.852,-15.625,256.836
1687770050.535,-8.789,-22.461,-46.387,-17.578,20.508
1687770050.539,-12.695,-21.484,-40.039,-17.090,-169.922
1687770050.543,-27.832,-20.508,-42.480,-24.902,-19.531
1687770050.547,-24.414,-20.020,-30.273,-25.879,62.500
1687770050.551,-21.484,-28.809,-23.926,-27.832,-119.629
1687770050.569,-29.785,-27.832,-30.273,-20.020,-125.977
1687770050.573,-20.996,-18.066,-23.438,-9.277,-68.359
1687770050.577,-19.043,-18.066,-28.809,-23.438,-100.098
1687770050.581,-25.391,-19.531,-44.434,-36.621,-163.574
1687770050.585,-6.348,-22.461,-35.156,-27.344,-129.883
1687770050.589,-2.930,-26.367,-33.203,-16.602,8.301
1687770050.593,-19.043,-23.438,-34.180,-22.949,70.801
1687770050.596,-20.996,-20.508,-28.809,-36.133,34.668
1687770050.600,-20.508,-19.531,-38.086,-46.387,-95.703
1687770050.604,-16.602,-23.438,-39.551,-20.020,88.379
1687770050.608,-13.184,-46.875,-43.457,-1.953,359.375
1687770050.612,-14.648,-43.945,-44.922,-30.273,45.410
1687770050.613,-17.090,-22.949,-28.320,-47.363,-170.898
1687770050.617,-24.414,-19.043,-23.438,-51.270,-33.203
1687770050.621,-20.996,-20.508,-19.531,-38.574,-52.246
1687770050.625,-14.160,-27.344,-14.648,-19.531,-145.996
1687770050.629,-17.090,-10.254,-11.230,-4.395,-66.406
1687770050.633,-20.020,0.000,-10.742,-12.207,19.043
1687770050.637,-29.785,-16.602,-22.949,-40.527,-42.969
1687770050.640,-28.320,-30.762,-25.879,-36.621,-171.875
1687770050.644,-20.996,-31.738,-26.367,-21.484,-31.250
1687770050.648,-21.484,-33.691,-25.391,-12.695,209.473
1687770050.652,-20.020,-34.668,-28.320,-27.832,16.113
1687770050.656,-24.414,-42.480,-42.969,-41.992,-155.762
1687770050.659,-27.832,-49.805,-32.715,-40.039,-17.090
1687770050.663,-31.250,-31.250,-21.973,-22.461,80.078
1687770050.667,-36.133,-26.367,-22.949,-17.578,-63.477
1687770050.671,-36.133,-26.855,-32.715,-36.133,-160.645
1687770050.675,-31.738,-26.367,-39.062,-37.109,-76.172
1687770050.679,-43.457,-44.434,-25.391,-41.016,-74.219
1687770050.683,-48.828,-30.273,-24.902,-32.227,-77.637
1687770050.686,-45.410,-30.273,-31.250,-25.879,58.105
1687770050.690,-51.758,-50.781,-28.320,-22.461,213.379
1687770050.694,-56.152,-32.227,-25.879,-30.273,216.797
1687770050.698,-61.523,-24.902,-21.484,-45.898,-112.793
1687770050.702,-58.594,-34.180,-23.926,-34.668,-154.785
1687770050.703,-51.270,-31.250,-24.902,-31.250,-34.668
1687770050.707,-49.805,-27.344,-36.133,-37.598,-97.656
1687770050.711,-49.316,-24.414,-37.598,-40.527,-175.781
1687770050.715,-36.621,-15.625,-20.996,-44.434,-39.062
1687770050.719,-26.367,-13.672,-18.555,-24.414,30.273
1687770050.723,-22.461,-11.719,-24.902,-6.348,-7.324
1687770050.727,-30.762,-18.555,-34.668,-36.621,9.766
1687770050.730,-23.438,-28.809,-40.039,-50.293,7.812
1687770050.734,14.648,-24.414,-44.922,2.441,192.383
1687770050.738,36.621,-17.090,-35.156,40.527,52.246
1687770050.742,15.625,-27.832,-10.254,40.039,-172.852
1687770050.746,-20.508,-44.434,-8.789,7.812,-86.914
1687770050.749,-26.855,-51.270,-16.113,-24.902,-89.355
1687770050.753,-36.133,-75.684,-12.207,-39.062,-201.660
1687770050.757,-54.688,-81.055,-19.043,-31.250,-164.551
1687770050.761,-70.801,-81.543,-29.297,-23.926,-52.734
1687770050.765,-80.566,-100.098,-31.250,-34.180,-53.223
1687770050.769,-86.914,-110.840,-24.902,-43.457,-82.031
1687770050.773,-95.703,-116.211,-10.254,-54.199,-111.816
1687770050.776,-102.051,-127.441,-11.719,-45.898,121.094
1687770050.780,-100.098,-146.484,-10.254,-27.832,443.359
1687770050.784,-101.074,-144.043,-1.953,-27.344,164.551
1687770050.788,-116.211,-135.254,-21.484,-48.828,-113.770
1687770050.792,-131.348,-136.719,-22.461,-66.406,-55.664
1687770050.793,-134.766,-150.391,-4.395,-53.711,-86.914
1687770050.797,-126.953,-159.180,-9.277,-32.227,-111.816
1687770050.801,-120.117,-139.160,-12.695,-31.738,-20.020
1687770050.805,-130.859,-131.348,-5.859,-47.363,-70.312
1687770050.809,-154.297,-142.578,-7.812,-56.641,-229.492
1687770050.813,-163.574,-137.207,-7.812,-34.180,-118.164
1687770050.817,-159.180,-138.184,-12.207,-22.949,100.586
1687770050.820,-157.227,-143.066,-28.320,-22.461,240.723
1687770050.824,-165.527,-136.230,-19.531,-29.297,141.113
1687770050.828,-175.781,-130.371,-11.230,-42.969,-161.621
1687770050.832,-180.664,-133.789,-18.555,-30.762,-111.816
1687770050.836,-182.617,-137.695,-18.066,-12.207,8.301
1687770050.838,-191.895,-142.578,-23.438,-19.043,-123.535
1687770050.842,-182.617,-137.695,-40.527,-26.367,-145.020
1687770050.846,-179.199,-114.746,-37.598,-30.762,-120.605
1687770050.850,-186.035,-106.934,-13.672,-29.785,-80.566
1687770050.854,-189.453,-114.258,-14.648,-24.902,-69.336
1687770050.858,-193.359,-109.375,-33.691,-24.414,-44.434
1687770050.862,-186.035,-105.469,-29.785,-22.949,193.359
1687770050.865,-188.477,-96.191,-20.020,-39.062,230.957
1687770050.869,-187.012,-72.266,-23.438,-38.574,-123.047
1687770050.873,-166.992,-63.477,-21.484,-9.277,-110.840
1687770050.877,-151.367,-68.848,-27.344,6.348,208.496
1687770050.881,-142.090,-66.406,-33.691,-2.441,126.465
1687770050.883,-138.184,-54.688,-31.738,-32.227,-179.199
1687770050.887,-132.324,-54.199,-32.227,-26.855,-146.484
1687770050.891,-118.164,-61.523,-33.203,0.488,-87.402
1687770050.895,-107.910,-61.523,-34.180,12.695,-135.742
1687770050.899,-104.980,-60.059,-26.855,3.418,-187.012
1687770050.903,-94.727,-60.547,-15.137,-12.695,-48.828
1687770050.907,-94.727,-54.199,-19.043,-8.301,116.211
1687770050.910,-95.703,-45.410,-29.785,8.301,-73.730
1687770050.914,-84.961,-41.016,-32.227,14.160,-191.895
1687770050.918,-71.289,-36.133,-20.996,5.371,-63.965
1687770050.922,-60.059,-48.828,-15.625,-8.789,-28.320
1687770050.926,-61.523,-48.340,-25.391,-14.648,-179.199
1687770050.929,-65.430,-37.598,-27.832,-9.277,-161.133
1687770050.933,-57.129,-45.898,-34.180,-6.836,29.297
1687770050.937,-53.223,-48.340,-42.480,-8.301,-1.953
1687770050.941,-57.617,-52.246,-26.855,-26.855,-149.414
1687770050.945,-53.223,-65.918,-21.484,-31.250,-112.793
1687770050.949,-40.039,-54.199,-31.738,-12.695,30.273
1687770050.953,-66.895,-34.180,-29.785,-11.230,104.492
1687770050.956,-103.516,-33.203,-29.297,-14.648,85.449
1687770050.960,-97.168,-31.738,-31.738,-26.367,-77.637
1687770050.964,-81.543,-30.273,-24.902,-37.598,12.207
1687770050.968,-72.754,-35.645,-24.414,-31.738,166.016
1687770050.972,-61.523,-45.410,-35.645,-18.555,-74.219
1687770050.989,-55.664,-47.363,-37.598,-22.949,-78.613
1687770050.993,-55.664,-37.109,-20.996,-34.668,-62.988
1687770050.997,-58.594,-36.133,-32.227,-47.363,-95.703
1687770051.001,-61.035,-43.457,-39.551,-51.270,-117.188
1687770051.005,-45.898,-41.016,-11.230,-32.227,-76.660
1687770051.009,-16.113,-49.316,-12.695,7.812,142.090
1687770051.013,21.484,-39.062,-27.832,27.344,36.133
1687770051.016,-7.812,-23.438,-28.809,-40.039,-190.430
1687770051.020,-57.129,-30.273,-23.438,-81.055,-84.961
1687770051.024,-48.340,-20.996,-23.926,-60.059,117.188
1687770051.028,-41.504,-14.648,-22.949,-65.918,-40.527
1687770051.032,-67.871,-13.672,-21.484,-104.980,-137.695
1687770051.032,-67.871,-13.672,-21.484,-104.980,-137.695
1687770051.033,-87.891,-15.137,-18.066,-135.254,-130.371
1687770051.037,-79.102,-13.672,-16.113,-132.812,-134.766
1687770051.041,-63.477,-2.930,-18.555,-117.676,-119.629
1687770051.045,-64.453,-8.301,-19.043,-111.328,-115.723
1687770051.049,-78.613,-16.113,-22.461,-114.746,-63.965
1687770051.053,-96.680,-15.137,-33.691,-125.000,-32.715
1687770051.057,-95.703,-21.973,-33.203,-115.234,-12.207
1687770051.060,-82.031,-33.203,-30.762,-87.402,-14.160
1687770051.064,-66.406,-34.180,-31.738,-72.266,200.684
1687770051.068,-47.363,-30.762,-23.438,-73.730,468.750
1687770051.072,-43.945,-25.879,-30.762,-75.195,106.934
1687770051.076,-54.688,-19.531,-44.434,-69.824,-117.676
1687770051.078,-53.711,-23.926,-36.621,-60.547,-20.996
1687770051.082,-47.852,-25.879,-24.414,-52.246,-31.250
1687770051.086,-54.199,-21.973,-14.160,-58.594,-63.965
1687770051.090,-62.988,-22.461,-21.484,-67.383,-96.191
1687770051.094,-60.547,-15.625,-21.484,-62.500,-50.293
1687770051.098,-47.363,-12.207,-17.090,-62.012,24.902
1687770051.102,-45.898,-25.879,-27.832,-49.805,28.809
1687770051.105,-37.598,-32.227,-33.203,-39.551,31.738
1687770051.109,-27.344,-22.949,-27.832,-48.340,222.656
1687770051.113,-34.668,-24.902,-21.973,-62.500,57.129
1687770051.117,-24.902,-27.344,-29.785,-50.781,-161.133
1687770051.121,-6.348,-26.367,-32.715,-20.996,-75.684
1687770051.123,-4.395,-41.504,-32.715,-26.855,-52.246
1687770051.127,-6.836,-41.016,-39.551,-47.852,-137.695
1687770051.131,-6.348,-29.297,-26.367,-56.152,-156.250
1687770051.135,2.930,-21.484,-19.043,-38.086,-28.809
1687770051.139,14.648,-16.113,-28.809,-26.367,57.617
1687770051.143,2.441,-27.832,-41.016,-37.109,139.648
1687770051.147,1.465,-38.574,-30.762,-48.828,56.641
1687770051.150,11.230,-24.414,-25.879,-38.574,147.461
1687770051.154,13.184,-18.066,-23.926,-28.809,301.270
1687770051.158,16.602,-26.855,-18.066,-36.621,-7.324
1687770051.162,-2.441,-26.855,-27.832,-35.645,-125.000
1687770051.166,-26.367,-29.297,-32.227,-38.574,4.883
1687770051.168,-31.250,-28.320,-27.832,-52.246,-101.074
1687770051.172,-30.273,-26.855,-29.785,-52.246,-208.496
1687770051.176,-21.484,-30.273,-21.484,-38.086,-119.141
1687770051.180,-24.902,-31.738,-20.996,-34.668,-119.629
1687770051.184,-38.086,-29.785,-36.133,-40.039,-118.652
1687770051.188,-33.203,-25.879,-37.598,-45.410,-79.590
1687770051.192,-28.320,-33.203,-38.574,-46.387,-20.020
1687770051.195,-16.113,-34.180,-33.203,-30.273,132.324
1687770051.199,-8.789,-22.461,-30.762,-35.645,44.434
1687770051.203,-5.859,-28.320,-50.293,-51.270,-86.426
1687770051.207,-5.371,-44.922,-48.340,-58.594,-60.547
1687770051.211,-1.953,-36.621,-23.438,-51.758,-91.797
1687770051.214,1.465,-27.832,-24.414,-37.598,-70.801
1687770051.218,1.465,-30.273,-35.645,-23.438,-62.500
1687770051.222,0.488,-36.133,-40.039,-23.926,12.207
1687770051.226,-0.488,-28.809,-30.273,-48.828,12.207
1687770051.230,8.789,-20.020,-26.367,-52.734,-107.422
1687770051.234,13.672,-25.879,-35.156,-33.691,-78.125
1687770051.238,4.883,-33.203,-39.551,-22.949,160.645
1687770051.241,-2.930,-34.180,-33.203,-26.367,207.520
1687770051.245,1.953,-30.762,-20.508,-51.758,-131.348
1687770051.249,1.465,-38.574,-21.484,-62.500,-135.742
1687770051.253,1.465,-36.621,-26.855,-36.621,-11.719
1687770051.257,7.812,-28.809,-26.855,-22.461,-54.688
1687770051.259,-1.953,-40.039,-27.832,-49.316,-163.086
1687770051.263,-7.812,-35.645,-32.715,-67.383,-123.047
1687770051.267,-9.766,-23.438,-42.969,-59.082,-27.344
1687770051.271,-19.531,-27.344,-34.180,-40.527,-62.500
1687770051.275,-20.020,-31.738,-23.926,-23.926,-131.348
1687770051.279,-22.461,-35.645,-35.645,-29.785,34.668
1687770051.283,-20.996,-37.109,-45.410,-34.180,309.082
1687770051.286,-17.578,-33.203,-29.785,-38.086,29.785
1687770051.290,-12.695,-28.809,-15.625,-44.434,-192.871
1687770051.294,-14.160,-34.668,-30.273,-27.832,-25.391
1687770051.298,-13.672,-40.039,-41.016,-27.344,-27.832
1687770051.302,-4.883,-37.109,-28.320,-38.086,-192.871
1687770051.318,-4.395,-27.344,-27.832,-41.992,-194.824
1687770051.322,0.488,-32.715,-37.109,-40.039,-118.164
1687770051.326,4.395,-34.668,-26.855,-15.625,-48.828
1687770051.330,-8.301,-25.391,-17.578,-5.371,-79.590
1687770051.334,-13.184,-25.879,-26.367,-24.414,-124.512
1687770051.338,-15.137,-33.691,-24.414,-32.715,28.809
1687770051.342,-13.184,-33.691,-47.363,-19.043,58.594
1687770051.345,-15.137,-20.996,-63.477,-12.207,-35.645
1687770051.349,-29.297,-15.137,-32.227,-13.672,-109.375
1687770051.353,-39.551,-19.531,-21.973,-21.973,83.496
1687770051.357,-31.738,-20.020,-15.625,-25.391,198.730
1687770051.361,-14.648,-20.020,-11.230,-26.855,-107.422
1687770051.363,-9.766,-19.531,-20.020,-22.949,-167.480
1687770051.367,-19.043,-21.973,-29.297,-21.973,-110.352
1687770051.371,-27.344,-32.715,-33.203,-39.062,-140.625
1687770051.375,-32.715,-22.461,-34.668,-48.340,-151.367
1687770051.379,-28.809,-13.672,-40.039,-48.340,-88.379
1687770051.383,-23.926,-24.414,-37.109,-39.062,84.473
1687770051.387,-25.391,-21.484,-34.668,-29.297,100.586
1687770051.390,-20.508,-20.996,-25.391,-23.438,-38.086
1687770051.394,-23.438,-23.438,-32.715,-43.457,-48.340
1687770051.398,-31.738,-21.484,-44.922,-51.758,214.355
1687770051.402,-23.926,-37.109,-37.109,-44.434,106.934
1687770051.406,-29.297,-39.062,-33.691,-43.457,-111.816
1687770051.408,-43.457,-20.508,-22.461,-40.039,-45.898
1687770051.412,-42.969,-25.391,-21.484,-47.852,-107.422
1687770051.416,-40.527,-41.504,-34.180,-45.410,-142.090
1687770051.420,-32.715,-33.203,-31.250,-30.273,-76.660
1687770051.424,-21.484,-18.555,-32.227,-20.020,0.977
1687770051.428,-15.625,-19.043,-34.180,-26.367,23.926
1687770051.432,-11.230,-13.184,-18.066,-37.109,-34.668
1687770051.435,-14.160,-17.578,-14.160,-45.410,-38.086
1687770051.439,-25.391,-36.621,-32.715,-29.297,155.273
1687770051.443,-14.648,-30.273,-39.551,-3.906,393.066
1687770051.447,-4.883,-20.508,-36.133,-20.508,118.652
1687770051.451,-5.371,-20.020,-40.039,-41.504,-158.691
1687770051.453,-1.465,-20.996,-45.898,-29.785,-106.934
1687770051.457,-5.859,-19.531,-34.668,-21.484,-103.516
1687770051.461,-6.348,-34.180,-36.621,-19.043,-96.191
1687770051.465,-5.859,-43.457,-43.457,-25.391,-78.125
1687770051.469,-18.555,-40.039,-42.480,-48.828,-94.727
1687770051.473,-17.090,-40.039,-30.273,-52.246,-51.758
1687770051.477,-0.977,-20.020,-20.996,-32.227,-34.668
1687770051.480,3.418,-17.090,-21.973,-20.020,36.133
1687770051.484,-5.859,-36.621,-18.555,-20.508,185.059
1687770051.488,-9.277,-34.668,-25.879,-29.785,-9.766
1687770051.492,-2.930,-20.020,-21.973,-29.785,-154.297
1687770051.496,6.348,-24.414,-22.461,-21.484,20.020
1687770051.498,9.766,-40.039,-29.785,-17.578,45.898
1687770051.502,1.465,-41.992,-21.484,-12.207,-104.004
1687770051.506,-2.930,-34.180,-42.480,-31.250,-97.168
1687770051.510,7.812,-33.203,-53.223,-40.039,-71.777
1687770051.514,18.066,-26.855,-30.762,-22.461,-123.535
1687770051.518,10.742,-31.738,-24.414,-9.766,-108.398
1687770051.522,3.906,-46.875,-22.949,-16.602,14.648
1687770051.525,4.395,-35.645,-27.344,-27.344,241.699
1687770051.529,0.000,-19.043,-32.227,-36.621,329.102
1687770051.533,2.441,-28.320,-33.691,-30.762,-35.156
1687770051.537,3.906,-28.320,-37.109,-11.719,-143.555
1687770051.541,0.488,-17.578,-24.902,-6.836,-31.250
1687770051.544,-11.230,-21.484,-23.438,-21.973,-77.637
1687770051.548,-14.160,-27.344,-35.645,-35.156,-103.516
1687770051.552,-15.625,-32.715,-45.410,-25.879,-23.438
1687770051.556,-23.438,-22.949,-39.062,-21.973,0.977
1687770051.560,-27.344,-16.602,-30.762,-19.531,-49.805
1687770051.564,-29.785,-22.949,-28.320,-21.973,-27.344
1687770051.568,-33.203,-30.273,-51.270,-33.691,-8.301
1687770051.571,-32.715,-46.387,-56.152,-25.391,91.797
1687770051.575,-28.320,-41.016,-24.902,-10.742,-41.504
1687770051.579,-20.508,-10.254,-45.410,8.301,-239.258
1687770051.583,-24.414,-16.113,-40.527,-8.301,-160.645
1687770051.587,-42.969,-30.762,4.883,-42.969,-93.262
1687770051.588,-49.805,-32.715,0.000,-41.992,-136.230
1687770051.592,-47.363,-29.297,-25.879,-26.855,-101.074
1687770051.596,-46.875,-16.113,-29.297,-11.230,-39.062
1687770051.600,-54.199,-11.719,-24.902,-23.926,-12.207
1687770051.604,-57.129,-17.578,-22.949,-27.832,-10.254
1687770051.608,-58.105,-21.973,-28.320,-27.344,-104.492
1687770051.612,-43.457,-16.602,-35.156,-11.719,151.367
1687770051.615,-23.926,-14.160,-42.480,18.555,566.406
1687770051.619,-18.066,-14.648,-55.664,6.348,255.371
1687770051.623,-15.137,-11.719,-42.969,-17.090,-95.215
1687770051.627,-13.184,-13.672,-22.461,-18.555,-63.965
1687770051.631,-10.254,-18.066,-21.484,5.859,-76.660
1687770051.634,-12.695,-23.438,-23.926,16.602,-59.082
1687770051.638,-33.203,-14.160,-30.273,5.371,16.602
1687770051.642,-47.852,-6.836,-44.922,-11.719,-33.691
1687770051.646,-44.434,-20.020,-34.668,-22.461,-106.445
1687770051.650,-32.715,-25.391,-35.156,-3.418,-172.363
1687770051.654,-14.648,-23.438,-48.828,12.695,-25.879
1687770051.658,-24.902,-23.926,-39.062,2.930,264.648
1687770051.661,-78.613,-30.273,-41.992,-9.277,68.359
1687770051.665,-118.164,-40.527,-32.715,-23.438,-189.941
1687770051.669,-117.188,-30.273,-21.973,-15.137,-71.289
1687770051.673,-83.008,-12.207,-6.348,13.184,20.996
1687770051.677,-54.199,5.371,2.930,21.484,-103.516
1687770051.693,-36.621,6.348,-30.762,-5.859,-202.637
1687770051.697,-25.391,-12.207,-47.363,-12.207,-17.578
1687770051.701,-10.254,-22.461,-53.223,9.766,110.840
1687770051.705,-7.812,-22.461,-40.039,18.555,-33.691
1687770051.709,-11.230,-23.438,-14.160,13.184,-96.191
1687770051.713,-4.395,-17.090,-20.996,-9.766,-9.277
1687770051.717,6.348,-16.602,-15.137,-24.902,44.434
1687770051.720,19.043,-14.160,-7.324,-22.949,-122.070
1687770051.724,20.996,-12.695,-15.137,-4.395,-111.816
1687770051.728,23.926,-25.879,-4.883,20.996,191.406
1687770051.732,28.809,-28.320,-22.461,21.973,335.449
1687770051.736,41.992,-10.742,-39.062,7.812,-49.316
1687770051.738,39.551,-10.742,-32.227,-5.859,-211.914
1687770051.742,32.715,4.883,-34.180,-4.395,-63.477
1687770051.746,38.574,16.113,-28.809,-12.695,-74.707
1687770051.750,31.738,5.371,-30.762,-34.180,-191.895
1687770051.754,25.391,8.301,-36.621,-33.691,-124.023
1687770051.758,30.273,18.066,-35.156,-34.180,-62.988
1687770051.762,41.504,28.320,-34.180,-30.762,-95.215
1687770051.765,45.898,37.109,-33.691,-31.250,-141.602
1687770051.769,37.598,35.645,-33.691,-35.645,-99.121
1687770051.773,36.621,30.273,-41.016,-37.109,97.168
1687770051.777,42.480,37.598,-43.457,-50.781,-58.594
1687770051.781,38.574,52.734,-28.320,-40.039,-145.020
1687770051.783,35.156,63.965,-24.414,-19.531,56.641
1687770051.787,37.598,61.523,-26.367,-30.273,-5.859
1687770051.791,42.969,62.012,-26.855,-45.410,-162.598
1687770051.795,44.434,66.895,-26.855,-50.293,-134.277
1687770051.799,53.223,64.941,-19.531,-30.762,-120.605
1687770051.803,57.617,67.871,-20.020,-14.648,-62.012
1687770051.807,47.852,69.824,-26.855,-29.785,6.348
1687770051.810,52.246,68.359,-25.391,-41.992,-7.324
1687770051.814,62.500,70.801,-19.043,-23.438,183.594
1687770051.818,78.125,64.941,-25.879,-3.906,281.250
1687770051.822,76.660,50.293,-33.691,-16.602,-21.973
1687770051.826,65.918,53.711,-26.367,-15.625,-160.156
1687770051.829,63.477,63.477,-20.020,-17.578,-194.824
1687770051.833,61.035,72.754,-27.344,-25.879,-166.504
1687770051.837,65.430,76.660,-23.438,-7.324,-169.922
1687770051.841,48.340,70.801,-21.484,-0.977,-163.574
1687770051.845,30.273,59.570,-16.113,-4.395,-24.414
1687770051.849,25.879,58.594,-13.184,-2.930,-57.129
1687770051.853,38.086,62.988,-9.277,-10.742,-201.660
1687770051.856,38.086,50.293,-10.254,3.418,-99.121
1687770051.860,13.672,33.691,-23.926,21.973,144.043
1687770051.864,16.602,32.715,-28.809,21.484,-19.043
1687770051.868,27.344,29.785,-30.762,10.254,-142.090
1687770051.872,26.367,30.762,-25.391,0.488,-150.391
1687770051.874,30.762,41.016,-5.859,-0.488,-174.316
1687770051.878,36.621,41.504,-10.742,5.859,-164.062
1687770051.882,39.062,34.668,-26.367,15.137,-139.160
1687770051.886,31.250,26.855,-19.531,-1.953,-79.590
1687770051.890,19.043,25.391,-5.859,-18.555,-87.891
1687770051.894,20.508,32.227,-10.254,-2.441,-84.473
1687770051.898,21.973,20.508,-27.832,11.719,-28.320
1687770051.901,12.207,18.555,-20.508,21.484,250.977
1687770051.905,0.000,28.320,-15.137,10.742,486.328
1687770051.909,-4.883,28.809,-18.555,-13.184,96.191
1687770051.913,-3.906,27.832,-24.902,-13.672,-181.641
1687770051.917,0.000,11.230,-20.996,7.324,-116.211
1687770051.918,8.789,5.859,-16.113,25.391,-76.172
1687770051.922,14.648,9.766,-22.949,12.695,-75.195
1687770051.926,17.090,6.348,-16.113,-8.789,-35.645
1687770051.930,13.672,9.766,-5.859,-10.742,2.930
1687770051.934,4.395,19.531,-4.395,15.625,-60.547
1687770051.938,-26.367,12.695,-10.254,27.832,2.441
1687770051.942,-77.637,7.812,-8.789,10.742,87.891
1687770051.945,-166.016,5.859,-6.836,4.395,302.246
1687770051.949,-266.602,5.859,-32.715,-0.488,138.672
1687770051.953,-346.191,5.371,-29.297,1.953,-142.090
1687770051.957,-407.227,-19.531,-14.648,3.906,-91.797
1687770051.961,-453.613,-14.648,-20.020,0.000,-143.066
1687770051.963,-478.516,8.301,-21.484,-13.672,-164.062
1687770051.967,-491.699,0.488,-23.438,-28.809,-92.285
1687770051.971,-495.117,-24.902,-27.344,-12.695,-47.363
1687770051.975,-497.070,-10.742,-17.090,10.254,-30.762
1687770051.979,-506.836,5.371,-10.254,3.906,-62.988
1687770051.983,-512.207,-10.742,-12.207,-20.508,-51.758
1687770051.987,-503.906,0.000,0.488,-14.160,223.145
1687770051.990,-487.793,6.348,-1.465,5.859,309.082
1687770051.994,-481.934,1.465,1.465,7.324,50.293
1687770051.998,-461.426,-5.859,-3.418,3.906,-3.418
1687770052.002,-422.852,-9.277,-3.906,2.441,159.668
1687770052.006,-374.512,0.488,0.488,0.977,96.191
1687770052.008,-312.500,8.789,-0.488,18.066,-151.855
1687770052.012,-277.832,13.184,10.254,23.926,-81.543
1687770052.016,-262.207,2.930,-0.488,11.230,-77.148
1687770052.020,-240.234,-7.812,-8.789,-4.395,-112.305
1687770052.024,-213.379,-3.906,-3.418,-5.859,-178.711
1687770052.028,-176.758,-7.812,-7.812,8.301,-79.590
1687770052.032,-127.441,-20.996,-9.766,20.020,184.082
1687770052.035,-84.961,-25.391,-6.348,18.066,59.082
1687770052.039,-38.574,-9.766,-15.137,-1.953,-178.223
1687770052.043,4.395,-9.277,-23.926,-21.484,7.812
1687770052.047,41.016,-9.766,-9.277,-11.230,135.254
1687770052.051,67.871,-5.859,-22.461,-0.488,-34.668
1687770052.069,87.402,-7.324,-31.250,0.000,-99.121
1687770052.073,100.098,-6.836,-7.324,7.812,-17.578
1687770052.077,116.211,-11.719,-5.371,4.395,-8.789
1687770052.081,123.535,-5.371,-14.648,-8.301,-112.793
1687770052.085,130.371,0.488,-5.371,2.441,-52.246
1687770052.089,143.066,1.953,-15.137,11.230,95.215
1687770052.093,142.090,0.000,-32.715,-5.371,123.047
1687770052.096,139.648,-5.371,-24.414,-18.555,15.625
1687770052.100,144.531,-20.020,-15.625,-23.926,-129.883
1687770052.104,150.391,-13.184,-14.160,5.859,121.094
1687770052.108,147.949,-1.465,-15.137,12.207,309.570
1687770052.112,151.367,-5.371,-21.484,-7.812,-38.574
1687770052.113,166.992,-11.230,-37.598,-2.441,-54.688
1687770052.117,165.527,-21.484,-36.133,-2.930,84.961
1687770052.121,153.320,-10.254,-13.184,-7.324,-71.289
1687770052.125,149.414,-3.906,-5.371,-15.137,-164.062
1687770052.129,142.090,-11.230,-15.137,-18.066,-58.594
1687770052.133,140.137,-9.766,-18.555,-18.066,-33.691
1687770052.137,148.926,-3.906,-7.812,-21.484,-46.875
1687770052.140,147.461,-7.324,-13.184,-14.648,-72.754
1687770052.144,145.996,-14.648,-12.207,2.930,-26.367
1687770052.148,145.508,-18.555,-6.348,4.395,145.996
1687770052.152,137.207,-13.672,-20.508,-25.391,-35.156
1687770052.156,133.789,-13.184,-30.273,-31.250,-174.805
1687770052.159,135.254,-9.766,-26.367,-11.719,-135.254
1687770052.163,129.395,0.488,-19.043,-15.137,-120.117
1687770052.167,127.930,-11.230,-27.344,-27.344,-77.637
1687770052.171,155.762,-11.719,-26.855,-5.371,-86.914
1687770052.175,179.199,-5.371,-13.672,32.715,-24.902
1687770052.179,151.855,-22.949,1.953,20.996,-10.742
1687770052.183,112.305,-38.574,8.301,-0.488,-43.945
1687770052.186,92.773,-51.270,-1.465,-3.906,-52.734
1687770052.190,78.125,-62.500,4.395,-16.113,110.840
1687770052.194,73.242,-67.871,10.742,-19.043,220.703
1687770052.198,49.316,-67.383,7.324,-28.320,-76.660
1687770052.202,30.273,-81.055,0.000,-42.480,-87.402
1687770052.203,34.668,-89.355,-0.488,-35.645,-16.113
1687770052.207,11.230,-92.773,15.625,-43.457,-151.367
1687770052.211,0.000,-110.840,0.977,-58.594,-180.664
1687770052.215,15.137,-117.676,3.906,-50.293,-150.391
1687770052.219,19.043,-109.375,16.602,-32.715,-96.680
1687770052.223,6.836,-117.188,-1.465,-25.879,-3.906
1687770052.227,-18.066,-146.973,-9.766,-53.223,-19.531
1687770052.230,-1.465,-121.582,-15.137,-60.547,-37.598
1687770052.234,4.395,-91.797,-23.926,-39.551,215.820
1687770052.238,-19.531,-125.488,-26.367,-26.367,163.574
1687770052.242,-5.371,-93.750,-2.930,-7.812,-102.539
1687770052.246,-7.324,-87.402,35.645,-32.715,-56.152
1687770052.263,-37.598,-123.047,22.949,-90.332,-74.219
1687770052.267,-33.203,-120.117,-3.906,-89.355,-130.859
1687770052.271,-16.113,-114.258,-0.488,-60.059,-69.336
1687770052.275,-3.418,-103.027,7.812,-40.039,4.395
1687770052.279,-1.953,-97.168,6.348,-38.574,-84.473
1687770052.283,-0.977,-95.215,-6.836,-43.457,-80.078
1687770052.287,6.348,-92.285,-15.625,-36.133,3.906
1687770052.290,11.230,-75.195,-13.184,-4.883,180.176
1687770052.294,16.113,-65.918,-5.859,12.695,389.160
1687770052.298,7.324,-78.613,-22.949,-13.184,39.551
1687770052.302,2.441,-78.125,-28.809,-27.832,-151.855
1687770052.306,1.465,-58.105,-9.766,-13.672,-29.297
1687770052.323,-0.977,-55.664,-6.836,0.000,-60.547
1687770052.327,11.719,-55.664,-12.695,10.254,-104.980
1687770052.331,17.090,-36.621,-18.555,6.348,-35.156
1687770052.335,14.648,-40.039,-14.648,-12.695,-63.477
1687770052.339,17.578,-49.805,-7.324,-8.789,-208.984
1687770052.343,25.391,-42.480,-8.301,7.324,-238.281
1687770052.347,27.344,-41.504,-12.207,2.441,21.973
1687770052.350,20.508,-39.551,-14.160,-3.906,73.730
1687770052.354,22.461,-46.875,-14.160,-14.648,-107.910
1687770052.358,32.227,-49.316,-5.371,-16.113,-162.109
1687770052.362,41.992,-24.414,-15.625,2.930,-3.906
1687770052.366,36.133,-21.973,-26.367,23.438,278.809
1687770052.338,20.996,-25.879,-14.160,9.277,140.625
1687770052.342,24.902,-19.531,-37.598,-10.254,-128.906
1687770052.346,23.926,-21.973,-47.363,-14.648,-89.844
1687770052.350,16.113,-28.809,-12.207,-6.348,-51.758
1687770052.354,22.461,-22.949,-4.883,8.789,-149.414
1687770052.358,26.367,-27.344,-18.066,0.977,-117.676
1687770052.362,29.785,-30.762,-5.371,-3.906,118.164
1687770052.365,26.855,-22.461,-2.930,-9.766,123.047
1687770052.369,30.762,-28.320,-12.695,-13.184,-97.168
1687770052.373,35.645,-22.461,-20.020,-1.465,-59.570
1687770052.377,22.461,-20.020,-27.344,3.906,-15.625
1687770052.381,12.207,-26.855,-25.391,-18.066,-132.324
1687770052.384,4.883,-32.227,-22.949,-42.969,-130.371
1687770052.388,5.859,-33.203,-20.996,-36.621,-91.797
1687770052.392,17.578,-27.344,-25.391,-6.348,185.547
1687770052.396,51.758,-21.973,-30.273,33.203,426.758
1687770052.400,38.086,-23.438,-17.578,12.207,49.805
1687770052.404,-17.578,-26.855,0.000,-53.711,-84.961
1687770052.408,-22.461,-25.391,-5.859,-58.105,50.781
1687770052.411,-4.883,-32.715,-14.648,-32.715,-71.777
1687770052.415,-4.395,-50.293,-7.324,-26.367,-153.320
1687770052.419,-17.090,-64.453,-9.766,-40.039,-37.109
1687770052.423,-38.086,-57.617,-25.391,-55.176,2.441
1687770052.427,-42.480,-44.922,-29.785,-58.594,-166.016
1687770052.444,-35.645,-43.945,-18.555,-44.434,-136.230
1687770052.448,-31.250,-41.992,-15.137,-30.762,-54.199
1687770052.452,-24.902,-52.246,-15.137,-30.762,-26.855
1687770052.456,-32.715,-51.758,-20.020,-38.574,-46.875
1687770052.460,-29.297,-31.250,-9.766,-41.016,-170.898
1687770052.464,-29.785,-36.133,-12.207,-27.344,104.980
1687770052.468,-34.180,-45.410,-30.762,-21.484,289.551
1687770052.471,-31.250,-43.457,-30.273,-43.457,-63.965
1687770052.475,-20.996,-33.691,-18.066,-54.199,-175.293
1687770052.479,-17.090,-32.227,-16.602,-43.945,11.230
1687770052.483,-16.602,-32.227,-24.414,-25.879,32.227
1687770052.487,-5.859,-24.902,-28.320,-15.625,-166.016
1687770052.488,-5.371,-31.738,-38.086,-14.160,-144.531
1687770052.492,-5.859,-36.133,-10.254,-21.973,-56.641
1687770052.496,-1.953,-30.762,3.906,-27.832,-100.098
1687770052.500,1.953,-33.691,-6.348,-20.996,-134.766
1687770052.504,-0.488,-29.297,-9.277,-17.578,22.461
1687770052.508,-9.277,-34.180,-16.113,-14.160,100.586
1687770052.512,-5.371,-44.434,-14.648,-13.184,-21.484
1687770052.515,-0.977,-33.691,-10.742,-24.414,-116.699
1687770052.519,-1.465,-20.996,-18.555,-13.184,-10.742
1687770052.523,-0.488,-7.812,-20.508,10.254,280.762
1687770052.527,4.883,0.977,-25.391,11.230,97.656
1687770052.531,-7.324,-0.977,-20.020,2.930,-160.645
1687770052.533,-30.762,-15.137,-18.555,-12.207,-9.766
1687770052.537,-25.879,-25.879,-26.367,-15.137,91.309
1687770052.541,-17.090,-27.344,-20.020,-10.742,-82.520
1687770052.545,-25.879,-23.926,-21.484,-16.602,-95.703
1687770052.549,-33.203,-39.551,-28.809,-7.324,-39.062
1687770052.553,-32.715,-40.039,-29.297,-12.207,-69.336
1687770052.557,-22.949,-12.695,-21.484,-21.484,-51.758
1687770052.560,-13.184,-2.441,-19.043,-5.371,-38.086
1687770052.564,-17.578,-19.531,-26.855,3.906,112.793
1687770052.568,-20.020,-26.855,-24.902,21.484,376.953
1687770052.572,-15.137,-2.930,-47.363,2.930,106.445
1687770052.576,-23.438,-20.996,-42.480,-34.180,-178.223
1687770052.578,-22.461,-38.574,0.000,-12.695,-136.230
1687770052.582,-22.949,-30.273,-1.953,-19.531,-166.992
1687770052.586,-26.855,-34.668,-30.273,-58.105,-209.961
1687770052.590,-23.926,-29.785,-35.156,-59.570,-166.016
1687770052.594,-26.367,-31.250,-19.043,-55.664,-93.262
1687770052.598,-26.855,-25.879,-21.973,-45.898,-99.121
1687770052.602,-26.855,-18.555,-31.738,-38.086,-40.039
1687770052.605,-22.461,-15.137,-15.625,-38.086,53.223
1687770052.609,-20.020,-17.578,-2.441,-34.668,81.543
1687770052.613,-15.137,-21.973,-12.207,-39.551,-62.012
1687770052.617,-14.160,-18.066,-16.113,-38.574,-93.750
1687770052.621,-16.602,-13.184,-8.789,-16.602,24.414
1687770052.623,-18.066,-20.996,-29.785,-14.648,-9.277
1687770052.627,-22.461,-33.691,-31.250,-43.945,-183.594
1687770052.631,-9.766,-17.578,-5.371,-47.363,-217.773
1687770052.635,-1.953,-11.230,-21.484,-29.297,-115.723
1687770052.639,-11.719,-22.461,-48.828,-22.949,-51.270
1687770052.643,-16.602,-15.625,-47.363,-37.598,-34.668
1687770052.647,-18.555,-36.621,-38.574,-42.480,-80.078
1687770052.650,-7.812,-35.156,-19.531,-34.668,61.035
1687770052.654,4.395,-17.090,-0.488,-25.391,67.871
1687770052.658,6.836,-17.090,-26.367,-19.531,-148.438
1687770052.662,12.695,-1.953,-37.109,-23.438,-144.531
1687770052.666,1.465,-4.395,-14.648,-27.832,129.883
1687770052.669,-8.301,-21.484,-24.902,-39.551,156.738
1687770052.673,4.395,-16.602,-22.461,-33.691,-145.996
1687770052.677,3.418,-10.742,-9.766,-10.254,-38.574
1687770052.681,1.465,-22.949,-8.301,-3.906,11.719
1687770052.685,2.930,-36.621,-7.324,-21.484,-62.500
1687770052.689,3.418,-30.762,0.000,-30.273,-16.602
1687770052.693,12.695,-10.254,-1.953,-11.719,77.148
1687770052.696,12.695,-5.859,-25.879,4.395,185.547
1687770052.700,0.977,-14.648,-35.645,-8.789,-7.324
1687770052.704,0.000,-18.066,-22.949,-27.344,-205.078
1687770052.708,-2.441,-39.062,-23.438,-47.363,-153.809
1687770052.712,0.488,-37.109,-33.691,-50.293,-116.211
1687770052.729,-1.465,-20.020,-20.020,-33.203,-108.887
1687770052.733,-7.812,-8.301,-22.461,-29.297,-138.672
1687770052.737,-12.695,-12.207,-36.133,-40.527,-91.309
1687770052.741,-12.207,-21.484,-19.531,-50.781,-92.285
1687770052.745,-7.324,-19.531,-12.695,-46.387,-132.324
1687770052.749,0.488,-20.508,-20.508,-38.574,12.207
1687770052.753,-9.766,-18.066,-25.391,-36.621,240.723
1687770052.756,-23.926,-26.367,-40.527,-56.641,343.262
1687770052.760,-11.230,-18.066,-39.062,-68.848,-18.066
1687770052.764,-9.277,-14.648,-24.414,-57.129,-123.535
1687770052.768,-5.859,-14.160,-43.457,-33.203,65.918
1687770052.772,9.277,-18.555,-49.805,-16.602,1.953
1687770052.773,-6.836,-25.391,-26.855,-47.363,-115.723
1687770052.777,-24.902,-20.020,-21.973,-67.871,-139.160
1687770052.781,-13.184,-17.578,-20.020,-49.316,-95.215
1687770052.785,-5.859,-11.719,-15.625,-35.645,-109.863
1687770052.789,-15.137,-31.250,-34.180,-36.133,-90.332
1687770052.793,-20.508,-30.762,-29.297,-41.992,7.324
1687770052.797,-14.160,-23.438,-7.812,-35.156,50.293
1687770052.800,-6.836,-33.691,-16.602,-28.320,-62.012
1687770052.804,-13.184,-37.109,-17.578,-36.133,-82.031
1687770052.808,-15.137,-49.316,-19.531,-36.133,38.574
1687770052.812,-7.812,-36.133,-30.273,-24.414,267.578
1687770052.816,-20.996,-21.973,-33.203,-45.898,60.547
1687770052.835,-27.832,-28.320,-22.949,-62.012,-199.219
1687770052.839,-16.602,-30.762,-21.973,-41.992,-68.359
1687770052.843,-17.090,-16.602,-31.738,-33.691,-1.465
1687770052.847,-19.531,-12.695,-34.668,-44.922,-65.918
1687770052.851,-15.625,-21.973,-33.691,-57.129,-125.488
1687770052.855,-14.648,-32.227,-41.992,-52.734,-53.223
1687770052.859,-9.766,-34.668,-43.945,-28.320,24.902
1687770052.862,-12.695,-30.273,-30.273,-24.414,-12.695
1687770052.866,-5.371,-25.879,-20.508,-28.320,-67.871
1687770052.870,-6.836,-25.879,-20.996,-33.203,114.258
1687770052.874,-16.113,-34.668,-62.988,-49.316,151.367
1687770052.878,1.465,-18.555,-52.734,-23.926,-104.004
1687770052.863,-0.977,-33.203,-18.066,-19.043,-114.258
1687770052.867,-17.090,-50.293,-35.645,-44.434,-43.945
1687770052.871,-18.555,-23.926,-39.551,-53.223,-197.754
1687770052.875,-14.648,-15.625,-6.836,-58.594,-312.500
1687770052.879,-12.207,-26.367,11.230,-33.691,-132.324
1687770052.883,-1.465,-7.324,-5.859,3.906,131.348
1687770052.887,9.277,18.555,-17.578,0.977,61.523
1687770052.890,-26.367,7.812,-12.695,-46.875,-192.871
1687770052.894,-55.176,-8.789,-16.113,-75.684,-222.168
1687770052.898,-58.594,-13.184,-26.855,-62.988,-18.066
1687770052.902,-65.430,-8.301,-37.109,-50.781,-6.836
1687770052.906,-48.828,12.207,-41.504,-44.434,-79.102
1687770052.908,-42.480,7.324,-43.945,-44.434,4.395
1687770052.912,-48.828,-13.672,-40.527,-52.734,305.176
1687770052.916,-41.992,-6.348,-48.340,-69.336,152.344
1687770052.920,-48.828,9.766,-48.828,-70.801,-162.109
1687770052.924,-51.270,9.766,-37.598,-58.594,16.113
1687770052.928,-40.527,1.953,-32.715,-59.570,153.809
1687770052.932,-48.828,-0.977,-31.738,-62.012,-34.668
1687770052.935,-37.598,0.000,-34.668,-58.105,-125.000
1687770052.939,-16.113,0.977,-41.016,-39.551,134.766
1687770052.943,-12.695,-0.977,-39.551,-23.438,264.648
1687770052.947,-0.977,-15.137,-24.414,-35.645,-65.918
1687770052.951,8.789,-18.555,-25.391,-44.922,-109.863
1687770052.953,19.043,-16.602,-42.480,-38.086,35.645
1687770052.957,19.043,-26.855,-38.574,-21.484,-70.312
1687770052.961,9.766,-9.766,-44.434,-15.137,-138.184
1687770052.965,1.953,6.348,-42.480,-33.203,-120.605
1687770052.969,1.465,8.301,-16.602,-37.109,-144.043
1687770052.973,11.719,1.465,-19.043,-31.738,-99.121
1687770052.977,12.207,-18.555,-33.691,-35.156,-1.953
1687770052.980,6.348,-22.949,-40.527,-28.809,106.445
1687770052.984,0.977,-16.113,-40.039,-21.973,187.500
1687770052.988,-5.371,-13.672,-35.645,-40.039,-68.359
1687770052.992,-6.348,-13.184,-34.668,-51.758,-260.254
1687770052.996,-7.812,-22.949,-46.387,-29.785,-82.520
1687770053.002,-9.277,-25.879,-36.133,-12.695,4.883
1687770053.006,-15.137,-14.160,-26.367,-24.902,-111.816
1687770053.010,-16.113,-20.020,-48.828,-46.387,-97.168
1687770053.014,-14.160,-30.762,-54.199,-37.598,2.930
1687770053.018,-14.648,-22.949,-27.344,-21.973,-32.227
1687770053.022,1.953,-23.438,-25.879,-20.020,-60.547
1687770053.026,0.000,-27.832,-34.180,-29.297,22.461
1687770053.029,-15.625,-14.160,-31.738,-53.711,87.891
1687770053.033,-11.719,-40.527,-37.598,-57.617,-7.324
1687770053.037,2.441,-39.062,-34.180,-30.762,-144.531
1687770053.041,4.883,-1.465,-47.363,-13.672,-125.977
1687770053.045,-5.859,-14.648,-53.223,-22.461,26.367
1687770053.043,-3.418,-18.555,-38.086,-33.691,-52.734
1687770053.047,-4.883,-19.531,-38.086,-46.875,-180.664
1687770053.051,-1.953,-26.855,-30.762,-37.109,-138.672
1687770053.055,4.395,-31.250,-26.855,-12.695,58.105
1687770053.059,4.395,-36.621,-33.691,-16.602,18.066
1687770053.063,15.137,-27.344,-32.715,-17.090,-98.633
1687770053.067,29.297,-16.602,-49.805,-15.625,-68.359
1687770053.070,15.625,-13.672,-59.082,-31.738,190.918
1687770053.074,-11.719,-13.672,-40.527,-44.434,309.570
1687770053.078,-11.719,-12.207,-36.133,-37.109,-6.836
1687770053.082,6.348,-8.301,-42.480,-44.922,-110.352
1687770053.086,2.441,1.465,-45.898,-77.148,-127.441
1687770053.088,-18.555,6.348,-47.852,-75.684,-176.270
1687770053.092,-7.812,10.254,-52.246,-41.016,-178.711
1687770053.096,18.555,16.602,-51.758,-27.832,-113.770
1687770053.100,26.367,25.879,-46.387,-45.898,-100.586
1687770053.104,27.344,38.086,-41.504,-64.941,-113.281
1687770053.108,31.738,33.691,-41.992,-58.594,-93.262
1687770053.112,29.785,29.785,-45.410,-36.621,228.516
1687770053.115,23.438,35.156,-48.828,-41.504,294.922
1687770053.119,24.902,41.992,-45.410,-54.199,53.223
1687770053.123,24.902,47.363,-39.062,-60.547,-16.113
1687770053.127,25.391,49.805,-37.109,-42.969,77.637
1687770053.131,28.809,48.340,-44.434,-20.996,162.598
1687770053.133,29.297,31.250,-51.270,-20.020,-101.074
1687770053.137,37.598,31.250,-43.945,-19.531,-100.586
1687770053.141,37.109,46.387,-43.945,-37.109,-3.906
1687770053.145,41.992,58.105,-30.762,-36.621,-84.473
1687770053.149,49.805,48.340,-21.973,-16.602,-165.039
1687770053.153,49.316,48.340,-25.879,-10.254,81.543
1687770053.157,35.645,64.453,-28.809,-26.855,237.305
1687770053.160,27.344,57.617,-31.738,-46.875,-64.453
1687770053.164,42.969,39.062,-25.879,-39.551,-216.309
1687770053.168,48.340,53.223,-39.062,-32.227,13.672
1687770053.172,45.410,65.430,-46.387,-18.066,146.973
1687770053.176,28.809,33.203,-37.109,-24.414,-155.273
1687770053.193,21.973,27.832,-28.809,-38.574,-172.852
1687770053.197,30.762,44.434,-31.250,-35.645,-63.965
1687770053.201,36.621,20.996,-31.250,-31.250,-106.934
1687770053.205,39.062,18.555,-31.250,-15.137,-112.793
1687770053.209,22.949,37.598,-33.691,-22.461,-103.516
1687770053.213,15.137,25.879,-34.180,-37.109,-52.734
1687770053.217,23.926,20.996,-41.016,-32.715,-53.223
1687770053.220,22.461,26.855,-48.340,-22.949,-125.000
1687770053.224,14.648,13.672,-48.340,-12.207,-50.781
1687770053.228,8.301,6.348,-41.992,-12.695,152.832
1687770053.232,11.719,9.766,-35.645,-17.090,165.527
1687770053.236,12.695,6.836,-33.691,-19.531,-63.477
1687770053.238,8.301,0.000,-36.133,-14.648,-14.160
1687770053.242,16.113,-1.465,-37.598,0.488,31.250
1687770053.246,16.602,-0.488,-25.391,3.906,-81.543
1687770053.250,7.812,2.441,-26.855,-0.977,-159.180
1687770053.254,13.184,7.812,-34.668,-5.859,-146.484
1687770053.258,17.090,7.324,-40.527,-4.883,-105.957
1687770053.262,5.859,-4.883,-55.664,-2.930,-69.824
1687770053.265,9.766,-15.137,-40.039,-9.277,-73.730
1687770053.269,5.859,-17.578,-29.785,-16.113,-50.781
1687770053.273,-11.230,-23.926,-41.992,-12.207,87.402
1687770053.277,-5.859,-39.551,-47.852,-7.812,-41.504
1687770053.281,5.371,-32.227,-49.805,-4.883,-129.883
1687770053.284,11.719,-15.137,-32.715,-1.465,4.395
1687770053.288,5.859,-16.602,-19.043,-10.254,34.180
1687770053.292,-8.789,-20.508,-28.320,-28.320,-49.805
1687770053.296,-4.883,-15.625,-31.738,-30.273,-172.363
1687770053.300,0.977,-22.949,-32.227,-8.301,-34.668
1687770053.304,5.371,-26.855,-29.297,20.508,66.406
1687770053.308,-5.371,-20.996,-31.738,-2.441,-51.270
1687770053.311,-23.438,-29.297,-38.086,-42.480,-133.789
1687770053.315,-17.578,-20.508,-37.109,-22.461,130.371
1687770053.319,-25.879,-30.273,-33.691,-0.488,274.902
1687770053.323,-33.203,-45.410,-36.133,-6.836,-35.156
1687770053.327,-24.902,-35.156,-33.691,-8.789,-134.277
1687770053.343,-18.066,-30.762,-36.133,-13.184,-107.910
1687770053.347,-20.508,-35.645,-35.645,-25.391,-143.066
1687770053.351,-22.461,-28.320,-26.855,-24.902,-190.430
1687770053.355,-16.113,-25.879,-24.414,-9.277,-111.816
1687770053.359,-18.066,-25.879,-34.180,-18.066,-46.875
1687770053.363,-35.645,-25.391,-43.945,-44.434,-80.566
1687770053.367,-33.691,-36.621,-36.133,-43.945,-25.391
1687770053.370,-18.066,-51.758,-28.809,-31.250,9.277
1687770053.374,-18.555,-39.551,-40.527,-11.230,249.512
1687770053.378,-30.273,-24.414,-53.223,-11.719,72.754
1687770053.382,-38.574,-33.691,-34.180,-30.762,-237.305
1687770053.386,-37.598,-48.828,-30.762,-35.156,-146.973
1687770053.374,-33.203,-46.387,-51.758,-25.391,-66.406
1687770053.378,-24.902,-43.457,-48.340,-12.695,-60.547
1687770053.382,-21.484,-41.992,-39.551,-13.184,-71.289
1687770053.386,-30.762,-27.832,-33.203,-25.879,-122.559
1687770053.390,-32.227,-21.484,-10.254,-30.273,-154.297
1687770053.394,-28.320,-25.391,-20.996,-28.809,-127.441
1687770053.398,-26.855,-40.527,-36.133,-18.066,-14.648
1687770053.401,-22.461,-38.574,-32.227,-19.531,68.848
1687770053.405,-21.973,-23.438,-23.438,-37.109,-21.973
1687770053.409,-27.344,-29.785,-28.320,-38.086,-118.652
1687770053.413,-38.086,-54.199,-36.621,-21.973,-162.598
1687770053.417,-35.156,-52.734,-37.109,-5.371,49.316
1687770053.418,-27.832,-35.645,-44.434,-10.742,100.098
1687770053.422,-38.574,-40.527,-43.945,-32.227,-121.094
1687770053.426,-36.133,-42.480,-23.926,-41.504,-189.453
1687770053.430,-30.273,-38.086,-33.691,-38.574,129.395
1687770053.434,-35.645,-39.062,-39.062,-24.902,258.301
1687770053.438,-41.504,-42.480,-49.316,-35.645,-35.645
1687770053.442,-43.945,-35.156,-60.059,-50.781,25.879
1687770053.445,-43.457,-41.016,-35.645,-46.875,199.219
1687770053.449,-41.016,-47.363,-48.828,-44.922,108.398
1687770053.453,-39.062,-47.852,-53.223,-38.086,-68.848
1687770053.457,-36.133,-46.387,-29.297,-37.109,27.832
1687770053.461,-40.039,-34.180,-41.504,-49.316,100.098
1687770053.463,-35.156,-27.344,-43.945,-54.199,-186.523
1687770053.467,-26.855,-41.016,-44.922,-46.875,-239.746
1687770053.471,-30.762,-51.758,-61.523,-40.527,-132.324
1687770053.475,-40.527,-41.504,-45.410,-41.016,-134.277
1687770053.479,-44.922,-34.180,-38.574,-44.434,-115.234
1687770053.483,-41.016,-32.715,-39.551,-55.664,-85.449
1687770053.487,-42.480,-38.574,-36.621,-54.688,15.137
1687770053.490,-43.457,-50.293,-39.062,-38.574,53.711
1687770053.494,-37.109,-39.062,-36.621,-34.668,-90.332
1687770053.498,-34.668,-40.039,-50.293,-60.059,-202.148
1687770053.502,-39.551,-45.898,-64.453,-68.848,28.809
1687770053.506,-40.527,-53.711,-54.688,-57.617,303.711
1687770053.508,-36.621,-53.711,-41.016,-31.250,29.785
1687770053.512,-25.391,-39.062,-51.758,-20.996,-49.316
1687770053.516,-31.738,-41.504,-56.152,-46.387,0.000
1687770053.520,-45.410,-41.016,-44.434,-51.270,-90.332
1687770053.524,-26.855,-29.297,-43.457,-51.270,-200.684
1687770053.528,-10.742,-5.371,-39.062,-36.621,-67.383
1687770053.532,-22.461,-10.742,-41.016,-20.996,152.344
1687770053.535,-32.715,-31.738,-44.434,-34.180,5.859
1687770053.539,-37.109,-34.668,-40.039,-43.945,-162.109
1687770053.543,-34.180,-35.645,-40.527,-33.691,-47.852
1687770053.547,-20.996,-29.297,-39.062,-23.926,112.305
1687770053.551,-29.297,-26.367,-47.363,-43.945,-68.359
1687770053.569,-37.598,-32.715,-47.852,-49.316,-127.930
1687770053.573,-42.969,-29.785,-48.340,-58.105,-16.113
1687770053.577,-32.227,-26.855,-61.035,-64.941,-52.734
1687770053.581,14.160,-26.855,-64.941,-18.066,-108.887
1687770053.585,32.227,-38.574,-45.898,27.344,-36.621
1687770053.589,-10.742,-61.523,-22.949,17.578,153.320
1687770053.593,-43.945,-81.543,-28.320,-22.949,116.699
1687770053.596,-49.805,-87.891,-41.504,-43.457,-62.012
1687770053.600,-65.430,-81.055,-35.645,-31.738,-88.867
1687770053.604,-84.961,-92.285,-35.156,-17.090,122.559
1687770053.608,-90.332,-92.285,-35.645,-24.414,207.520
1687770053.612,-87.891,-95.703,-30.762,-49.316,-168.457
1687770053.613,-100.586,-112.305,-30.273,-52.246,-257.324
1687770053.617,-123.047,-120.117,-32.227,-55.176,-171.387
1687770053.621,-119.141,-127.930,-37.598,-66.406,-158.203
1687770053.625,-114.746,-121.094,-33.691,-61.523,-140.137
1687770053.629,-125.977,-114.746,-20.996,-65.918,-68.848
1687770053.633,-139.160,-117.188,-20.996,-74.219,30.762
1687770053.637,-142.090,-127.441,-22.461,-70.801,-77.148
1687770053.640,-138.672,-135.254,-33.691,-58.105,-132.812
1687770053.644,-141.113,-132.812,-33.203,-53.711,-10.742
1687770053.648,-143.555,-129.395,-24.414,-62.012,237.793
1687770053.652,-144.043,-119.141,-35.156,-81.543,9.766
1687770053.656,-125.977,-103.516,-34.668,-83.984,-215.332
1687770053.658,-111.328,-108.887,-43.457,-64.453,-48.340
1687770053.662,-115.723,-114.258,-55.176,-59.570,-49.805
1687770053.666,-115.723,-111.328,-56.641,-65.918,-104.492
1687770053.670,-110.352,-107.422,-61.035,-77.637,-159.668
1687770053.674,-95.703,-98.633,-55.664,-75.195,-160.645
1687770053.678,-79.102,-88.867,-55.664,-57.129,-18.555
1687770053.682,-74.707,-93.750,-60.547,-39.551,14.648
1687770053.685,-84.473,-92.285,-55.176,-39.062,-20.508
1687770053.689,-89.844,-83.984,-49.316,-53.711,199.707
1687770053.693,-85.938,-83.984,-45.410,-54.688,452.637
1687770053.697,-78.125,-79.590,-46.875,-39.551,198.730
1687770053.701,-65.918,-72.266,-47.363,-25.879,-85.938
1687770053.703,-59.570,-73.730,-50.781,-33.203,-47.363
1687770053.707,-61.035,-76.660,-51.758,-49.805,-52.734
1687770053.711,-53.223,-60.547,-43.945,-44.434,-104.492
1687770053.715,-47.363,-58.594,-42.480,-26.855,-99.121
1687770053.719,-59.570,-62.012,-52.734,-26.367,-28.320
1687770053.723,-63.477,-54.688,-66.895,-36.133,66.406
1687770053.727,-59.570,-45.410,-62.500,-50.293,-39.551
1687770053.730,-46.387,-46.387,-49.316,-51.270,-81.543
1687770053.734,-34.668,-44.434,-48.828,-21.484,333.984
1687770053.738,-42.480,-37.598,-53.223,-17.090,266.602
1687770053.742,-53.223,-56.641,-52.734,-31.738,-73.242
1687770053.746,-52.246,-55.664,-41.992,-34.180,-44.922
1687770053.748,-52.246,-41.504,-47.363,-41.992,-72.754
1687770053.752,-46.875,-45.898,-61.523,-46.387,-98.633
1687770053.756,-33.691,-38.086,-52.734,-35.156,-62.988
1687770053.760,-36.621,-47.852,-47.363,-27.832,-18.066
1687770053.764,-39.062,-62.500,-44.434,-48.340,-66.895
1687770053.768,-38.086,-46.875,-55.664,-62.988,-96.191
1687770053.772,-41.992,-35.645,-56.152,-58.105,-90.820
1687770053.775,-44.434,-35.645,-38.086,-28.320,193.848
1687770053.779,-56.152,-43.457,-40.039,-24.414,458.008
1687770053.783,-62.988,-51.270,-50.293,-60.059,-3.418
1687770053.787,-61.035,-56.152,-46.875,-53.711,-191.895
1687770053.791,-54.199,-56.152,-44.434,-34.180,-46.875
1687770053.793,-48.828,-70.312,-41.504,-28.320,-64.453
1687770053.797,-49.805,-74.707,-45.410,-32.227,-122.070
1687770053.801,-48.340,-45.410,-41.992,-45.410,-95.215
1687770053.805,-42.969,-31.250,-32.227,-45.898,-82.520
1687770053.809,-48.828,-45.898,-37.109,-45.410,-177.246
1687770053.813,-49.805,-52.734,-41.992,-33.691,-105.469
1687770053.817,-39.551,-45.898,-45.898,-22.461,99.121
1687770053.820,-45.898,-48.340,-41.016,-31.250,194.336
1687770053.824,-57.129,-48.340,-26.367,-53.711,-37.598
1687770053.828,-51.270,-48.828,-25.391,-55.664,-213.867
1687770053.832,-26.855,-51.270,-43.457,-22.949,-121.582
1687770053.836,-2.930,-48.828,-46.875,0.977,-49.805
1687770053.840,-45.410,-56.152,-34.180,-35.645,16.602
1687770053.844,-82.031,-57.617,-30.762,-72.754,-95.215
1687770053.848,-73.242,-66.406,-39.551,-66.406,-74.707
1687770053.852,-76.172,-77.148,-44.434,-52.734,-29.297
1687770053.856,-83.984,-72.266,-35.156,-55.664,-113.770
1687770053.860,-89.355,-67.383,-30.762,-81.055,-123.047
1687770053.864,-84.473,-64.941,-40.039,-85.449,46.875
1687770053.867,-83.008,-67.383,-44.922,-83.008,232.910
1687770053.871,-72.754,-72.754,-42.480,-77.148,-29.297
1687770053.875,-72.266,-71.289,-39.551,-66.406,-169.922
1687770053.879,-73.242,-59.082,-57.129,-72.266,67.871
1687770053.883,-71.289,-53.711,-64.453,-81.543,45.898
1687770053.883,-69.336,-50.293,-44.434,-66.406,-185.547
1687770053.887,-64.453,-49.805,-38.086,-50.781,-153.320
1687770053.891,-57.129,-48.828,-39.062,-42.480,-64.453
1687770053.895,-58.594,-51.758,-42.969,-51.758,-39.062
1687770053.899,-66.895,-57.129,-39.062,-67.383,-111.328
1687770053.903,-61.523,-54.688,-44.922,-71.777,-71.777
1687770053.907,-54.199,-53.711,-47.852,-54.199,302.246
1687770053.910,-51.270,-48.828,-36.621,-25.391,300.781
1687770053.914,-53.711,-53.711,-43.457,-40.039,-59.082
1687770053.918,-50.781,-49.805,-41.992,-62.500,-70.312
1687770053.922,-45.898,-35.645,-33.691,-67.383,-102.539
1687770053.926,-44.434,-37.109,-29.785,-51.270,-168.945
1687770053.944,-37.109,-45.898,-30.273,-28.809,-70.801
1687770053.948,-36.621,-47.852,-39.551,-27.344,28.320
1687770053.952,-37.109,-41.504,-34.668,-28.809,3.906
1687770053.956,-28.809,-35.156,-44.922,-42.480,-68.848
1687770053.960,-27.344,-39.062,-59.082,-48.828,-142.578
1687770053.964,-35.645,-53.711,-42.969,-36.621,0.977
1687770053.968,-43.945,-55.176,-43.457,-39.551,89.844
1687770053.971,-47.363,-50.293,-54.688,-51.758,12.207
1687770053.975,-44.922,-42.969,-43.945,-53.711,-30.273
1687770053.979,-46.387,-44.434,-38.086,-51.758,127.441
1687770053.983,-47.852,-63.477,-34.668,-27.832,312.500
1687770053.987,-42.969,-55.664,-27.344,-30.762,72.754
1687770053.988,-36.133,-45.898,-35.645,-63.477,-121.094
1687770053.992,-39.551,-52.734,-36.621,-59.570,-137.695
1687770053.996,-43.945,-51.270,-38.086,-43.945,-126.465
1687770054.000,-42.480,-45.410,-45.410,-36.133,-158.203
1687770054.004,-47.363,-52.246,-54.688,-33.691,-30.762
1687770054.008,-40.039,-61.035,-44.922,-40.039,80.566
1687770054.012,-41.504,-50.293,-28.320,-57.129,-44.434
1687770054.015,-47.363,-45.410,-32.227,-59.570,-103.027
1687770054.019,-40.039,-50.781,-30.762,-36.621,-23.926
1687770054.023,-41.016,-41.016,-31.250,-21.484,271.973
1687770054.027,-43.945,-36.621,-39.551,-31.250,123.047
1687770054.031,-48.828,-57.617,-44.922,-62.012,-249.512
1687770054.033,-45.898,-57.617,-44.434,-57.129,-196.777
1687770054.037,-32.715,-38.574,-42.480,-28.320,-90.332
1687770054.041,-32.715,-34.180,-47.363,-20.020,-93.262
1687770054.045,-39.551,-43.457,-46.875,-40.527,-94.727
1687770054.049,-48.828,-45.898,-49.805,-52.246,-101.074
1687770054.053,-42.480,-46.387,-58.105,-42.969,-50.781
1687770054.057,-36.133,-58.105,-59.570,-39.062,16.602
1687770054.060,-41.504,-53.711,-49.805,-33.691,12.207
1687770054.064,-41.016,-47.852,-51.758,-36.133,131.348
1687770054.068,-42.969,-53.223,-64.941,-40.527,315.918
1687770054.072,-49.805,-61.035,-52.734,-46.875,40.039
1687770054.076,-48.340,-70.312,-39.551,-41.016,-140.137
1687770054.078,-40.039,-67.383,-38.574,-23.926,13.672
1687770054.082,-49.316,-54.688,-33.203,-24.414,-3.418
1687770054.086,-44.434,-47.363,-27.832,-35.156,-99.609
1687770054.090,-38.574,-57.617,-37.109,-42.969,-69.824
1687770054.094,-47.852,-67.383,-54.199,-42.969,-38.086
1687770054.098,-41.504,-57.617,-50.781,-39.062,-63.965
1687770054.102,-34.668,-58.105,-57.617,-34.668,-53.223
1687770054.105,-31.250,-52.246,-57.617,-38.574,-46.387
1687770054.109,-28.809,-48.340,-31.738,-41.992,84.473
1687770054.113,-29.297,-54.199,-33.691,-45.898,58.594
1687770054.117,-26.855,-56.641,-40.527,-31.250,-24.902
1687770054.121,-24.902,-62.988,-36.621,-17.090,6.836
1687770054.124,-33.691,-61.035,-40.527,-28.809,27.344
1687770054.128,-39.551,-48.828,-48.340,-36.621,-62.500
1687770054.132,-39.551,-41.504,-60.059,-39.062,-176.758
1687770054.136,-33.203,-45.898,-57.617,-33.691,48.828
1687770054.140,-43.457,-54.688,-44.434,-34.668,110.352
1687770054.144,-47.852,-39.551,-44.434,-52.246,18.555
1687770054.148,-38.574,-29.297,-46.875,-66.406,-18.555
1687770054.151,-28.320,-34.668,-43.945,-46.387,177.246
1687770054.155,-20.996,-32.715,-55.176,-14.648,466.309
1687770054.159,-30.762,-30.273,-53.711,-21.484,100.586
1687770054.163,-36.133,-38.574,-47.363,-43.945,-156.250
1687770054.167,-32.227,-39.551,-42.969,-54.688,-159.180
1687770054.169,-27.832,-30.273,-47.363,-42.969,-171.875
1687770054.173,-25.391,-37.598,-43.457,-26.367,-161.621
1687770054.177,-24.902,-39.062,-40.527,-19.531,-45.410
1687770054.181,-25.391,-15.137,-42.480,-23.926,8.789
1687770054.185,-31.738,-7.812,-37.598,-41.504,-168.457
1687770054.189,-33.203,-21.484,-41.992,-32.715,-218.750
1687770054.193,-31.250,-24.902,-46.387,-11.230,-48.828
1687770054.196,-35.645,-23.438,-42.969,-4.395,231.934
1687770054.200,-32.715,-27.832,-37.598,-12.207,112.305
1687770054.204,-25.391,-32.227,-43.457,-28.809,-137.207
1687770054.208,-30.273,-29.785,-51.758,-34.668,-97.168
1687770054.212,-29.297,-30.273,-38.574,-26.855,-56.641
1687770054.213,-20.020,-32.227,-33.691,-19.043,-80.078
1687770054.217,-30.762,-34.180,-53.711,-33.203,-114.746
1687770054.221,-38.086,-34.180,-53.711,-50.293,-131.836
1687770054.225,-32.715,-33.691,-37.598,-43.457,-116.699
1687770054.229,-27.344,-32.227,-30.762,-28.320,-102.051
1687770054.233,-35.645,-29.785,-31.250,-24.414,-53.711
1687770054.237,-33.691,-26.367,-14.160,-10.254,151.855
1687770054.240,-30.273,-26.855,-30.273,-10.742,252.441
1687770054.244,-45.410,-30.762,-63.477,-43.457,-72.754
1687770054.248,-39.551,-27.832,-45.898,-38.574,-214.355
1687770054.252,-25.879,-23.438,-33.203,-3.418,70.312
1687770054.256,-35.156,-40.039,-39.062,-12.695,92.773
1687770054.258,-37.109,-34.180,-33.691,-45.898,-159.668
1687770054.262,-25.879,-14.648,-31.250,-43.945,-163.574
1687770054.266,-21.973,-11.719,-41.016,-26.855,-135.254
1687770054.270,-13.672,-6.348,-41.504,-15.625,-129.883
1687770054.274,-25.391,-21.484,-42.969,-28.809,-148.438
1687770054.278,-47.363,-49.805,-56.641,-48.340,-92.773
1687770054.282,-42.480,-51.270,-51.270,-46.387,78.613
1687770054.285,-34.180,-34.668,-42.969,-36.133,108.398
1687770054.289,-25.879,-31.250,-50.293,-28.320,-50.293
1687770054.293,-35.645,-31.250,-50.293,-24.902,-37.109
1687770054.297,-43.457,-26.855,-36.133,-34.668,85.938
1687770054.301,-44.434,-29.297,-45.410,-41.016,-94.238
1687770054.318,-50.293,-32.715,-60.547,-30.273,-113.770
1687770054.322,-47.852,-30.273,-40.527,-26.367,-20.508
1687770054.326,-32.715,-18.066,-24.414,-23.926,-48.828
1687770054.330,-38.574,-24.902,-40.527,-38.574,-159.668
1687770054.334,-47.852,-30.762,-53.711,-55.176,-186.035
1687770054.338,-40.039,-25.879,-50.293,-46.875,-37.598
1687770054.342,-39.062,-34.668,-43.945,-36.621,56.641
1687770054.345,-42.969,-40.039,-50.293,-31.250,92.773
1687770054.349,-39.551,-32.227,-57.129,-34.668,-8.301
1687770054.353,-34.180,-32.715,-49.805,-39.551,83.008
1687770054.357,-33.691,-32.227,-41.504,-29.785,349.121
1687770054.361,-36.621,-31.738,-32.227,-31.250,64.941
1687770054.363,-37.598,-27.344,-39.062,-40.039,-127.441
1687770054.367,-32.227,-15.625,-43.457,-41.992,-77.148
1687770054.371,-43.945,-30.762,-42.480,-45.898,-115.723
1687770054.375,-50.781,-43.457,-43.457,-45.410,-147.461
1687770054.379,-38.574,-56.152,-45.898,-43.945,-62.012
1687770054.383,-41.504,-59.082,-46.875,-44.922,71.777
1687770054.387,-47.852,-45.898,-43.945,-48.828,78.125
1687770054.390,-37.109,-40.039,-43.945,-51.270,-106.934
1687770054.394,-33.203,-35.645,-55.664,-44.434,-100.098
1687770054.398,-35.645,-36.133,-50.293,-25.391,176.270
1687770054.402,-38.086,-43.945,-54.199,-16.113,88.379
1687770054.406,-33.691,-36.621,-54.688,-25.879,-92.773
1687770054.408,-31.738,-40.039,-35.156,-41.016,26.367
1687770054.412,-33.691,-51.270,-36.621,-43.457,23.438
1687770054.416,-31.250,-41.504,-38.086,-28.809,-87.891
1687770054.420,-24.902,-58.105,-35.156,-5.859,-32.715
1687770054.424,-20.996,-62.988,-35.645,-11.719,-57.617
1687770054.428,-25.391,-28.809,-38.086,-29.297,-84.473
1687770054.432,-23.926,-24.414,-47.363,-31.738,-58.105
1687770054.435,-26.367,-36.621,-60.059,-27.344,-44.922
1687770054.439,-29.785,-29.785,-58.105,-25.391,150.391
1687770054.443,-22.949,-24.414,-46.875,-27.832,296.387
1687770054.447,-32.715,-34.180,-43.457,-38.574,-16.602
1687770054.451,-40.527,-41.504,-51.270,-48.828,-229.980
1687770054.454,-32.715,-36.133,-56.641,-53.711,-153.320
1687770054.458,-31.250,-27.832,-47.363,-38.574,-138.184
1687770054.462,-35.645,-30.762,-44.434,-29.297,-132.812
1687770054.466,-41.504,-27.832,-53.223,-47.852,-53.711
1687770054.470,-41.016,-27.344,-59.570,-55.664,-32.227
1687770054.474,-47.852,-45.410,-53.711,-52.246,-33.203
1687770054.478,-43.945,-45.898,-36.621,-28.320,15.625
1687770054.481,-42.480,-45.898,-41.016,-26.855,91.797
1687770054.485,-50.293,-54.199,-50.781,-37.109,176.758
1687770054.489,-44.922,-47.363,-51.758,-40.039,-46.387
1687770054.493,-36.621,-40.039,-52.246,-26.855,-165.039
1687770054.497,-36.621,-45.410,-45.898,-18.066,-22.461
1687770054.498,-28.320,-55.176,-41.992,-8.789,-45.410
1687770054.502,-15.137,-54.199,-51.270,1.953,-110.840
1687770054.506,-18.066,-35.156,-66.895,-19.531,-115.234
1687770054.510,-21.973,-19.531,-64.453,-42.480,-103.027
1687770054.514,-16.602,-20.996,-51.270,-30.762,-68.848
1687770054.518,-16.113,-22.461,-50.293,-16.602,-28.320
1687770054.522,-25.879,-13.184,-54.688,-36.621,-10.254
1687770054.525,-31.738,-7.324,-58.594,-46.875,90.820
1687770054.529,-32.715,-13.184,-60.059,-39.062,419.922
1687770054.533,-34.668,-6.348,-59.082,-43.945,230.469
1687770054.537,-37.598,5.371,-62.500,-44.434,-75.684
1687770054.541,-42.969,5.371,-62.500,-58.105,-100.586
1687770054.543,-37.598,8.789,-54.688,-79.102,-275.879
1687770054.547,-20.508,17.578,-54.688,-71.777,-274.414
1687770054.551,-21.973,12.207,-62.988,-59.570,-140.625
1687770054.555,-24.414,5.371,-64.453,-49.805,-93.750
1687770054.559,-20.508,13.672,-64.941,-62.012,-102.539
1687770054.563,-19.043,26.367,-66.406,-78.125,-135.742
1687770054.567,-7.324,26.855,-60.059,-72.266,-13.672
1687770054.570,3.418,29.297,-55.664,-54.199,165.527
