timestamps,TP9,AF7,AF8,TP10,Right AUX
1687530578.781,-38.086,-44.434,-41.504,-27.832,66.406
1687530578.785,-26.855,-41.016,-41.992,-29.785,53.223
1687530578.789,-16.113,-40.527,-39.551,-30.273,61.523
1687530578.793,-21.484,-45.410,-42.480,-26.855,152.344
1687530578.797,-38.574,-47.852,-40.527,-19.043,90.332
1687530578.801,-42.969,-42.969,-39.551,-28.320,75.684
1687530578.805,-27.344,-38.086,-40.527,-31.250,297.852
1687530578.808,-11.230,-35.645,-36.621,-22.461,331.055
1687530578.812,-2.441,-37.598,-31.738,-21.973,84.961
1687530578.816,-2.441,-40.039,-27.832,-18.066,-18.555
1687530578.820,-9.766,-38.574,-26.367,-15.137,2.441
1687530578.824,-3.906,-42.969,-27.832,-20.508,40.039
1687530578.826,4.395,-41.504,-33.691,-31.738,14.648
1687530578.830,9.277,-39.551,-38.086,-26.367,0.488
1687530578.834,0.000,-41.016,-35.645,-13.672,60.059
1687530578.838,-20.996,-41.504,-33.203,-17.090,242.676
1687530578.842,-21.484,-42.480,-33.691,-24.414,138.184
1687530578.846,-9.277,-37.109,-34.180,-23.438,-4.395
1687530578.850,-6.836,-38.086,-36.133,-19.531,328.125
1687530578.853,-12.695,-42.969,-41.992,-13.672,533.203
1687530578.857,-25.391,-40.527,-41.992,-10.742,260.742
1687530578.861,-30.762,-37.109,-41.016,-20.020,104.980
1687530578.865,-22.461,-35.645,-41.504,-29.297,39.551
1687530578.869,-21.484,-39.551,-43.945,-27.344,18.555
1687530578.868,-31.250,-42.969,-41.016,-20.020,42.480
1687530578.872,-45.410,-38.086,-33.691,-24.902,52.734
1687530578.876,-49.316,-36.621,-35.645,-40.039,62.012
1687530578.880,-38.086,-37.598,-36.133,-33.691,3.906
1687530578.884,-27.344,-36.133,-35.645,-24.902,-12.207
1687530578.888,-23.926,-35.156,-37.598,-22.949,206.543
1687530578.892,-35.645,-39.551,-36.133,-27.344,364.258
1687530578.895,-40.527,-43.457,-41.016,-37.598,127.441
1687530578.899,-25.391,-44.434,-42.480,-44.922,8.789
1687530578.903,-25.391,-40.527,-39.062,-42.480,230.469
1687530578.907,-31.250,-35.645,-41.992,-32.715,304.688
1687530578.911,-33.203,-35.645,-41.016,-35.156,108.887
1687530578.927,-45.898,-42.480,-43.457,-46.387,79.102
1687530578.931,-36.133,-40.039,-40.039,-40.039,82.031
1687530578.935,-18.555,-38.086,-36.621,-33.691,78.125
1687530578.939,-21.973,-39.551,-37.598,-36.133,151.367
1687530578.943,-35.156,-37.598,-41.016,-33.691,109.863
1687530578.947,-43.945,-41.016,-42.480,-29.297,277.832
1687530578.951,-25.391,-42.969,-34.180,-23.926,406.250
1687530578.954,-12.207,-40.039,-33.203,-21.973,150.391
1687530578.958,-10.254,-40.039,-33.203,-16.113,102.539
1687530578.962,-15.137,-40.039,-33.203,-12.207,248.047
1687530578.966,-25.391,-41.504,-38.574,-21.973,121.582
1687530578.970,-25.391,-40.527,-37.109,-39.062,-45.410
1687530578.972,-22.949,-38.574,-38.574,-45.410,23.438
1687530578.976,-19.531,-38.086,-41.992,-38.574,93.750
1687530578.980,-27.344,-34.180,-35.156,-33.203,102.051
1687530578.984,-42.480,-32.715,-35.156,-43.457,72.266
1687530578.988,-39.551,-36.621,-41.504,-52.734,91.797
1687530578.992,-32.227,-40.527,-45.898,-50.781,107.422
1687530578.996,-26.367,-49.316,-40.527,-42.969,134.766
1687530578.999,-29.785,-52.246,-35.156,-39.062,27.344
1687530579.003,-43.457,-48.340,-35.156,-32.227,127.930
1687530579.007,-40.039,-51.270,-31.738,-24.902,360.352
1687530579.011,-22.461,-48.340,-32.227,-28.809,139.160
1687530579.015,-11.719,-47.852,-31.738,-25.391,-15.625
1687530579.017,-18.066,-44.922,-29.785,-19.531,124.512
1687530579.021,-28.809,-38.574,-33.691,-24.902,132.324
1687530579.025,-25.391,-39.062,-36.133,-37.598,51.270
1687530579.029,-15.137,-36.133,-37.598,-45.898,52.246
1687530579.033,-10.742,-35.645,-35.645,-34.668,174.805
1687530579.037,-16.602,-40.527,-33.203,-29.785,200.684
1687530579.041,-33.691,-37.109,-36.133,-39.062,89.844
1687530579.044,-35.645,-34.180,-33.203,-43.945,51.758
1687530579.048,-20.020,-35.156,-26.367,-37.598,199.219
1687530579.052,-13.184,-37.598,-32.715,-33.203,157.715
1687530579.056,-20.996,-41.016,-37.598,-41.016,-84.961
1687530579.060,-34.180,-37.598,-35.156,-41.992,108.398
1687530579.062,-37.109,-40.039,-30.762,-51.758,174.316
1687530579.066,-24.902,-41.992,-26.367,-53.223,-20.996
1687530579.070,-16.602,-40.039,-26.855,-37.598,-0.488
1687530579.074,-22.949,-43.945,-25.879,-33.691,92.285
1687530579.078,-36.133,-45.898,-25.879,-30.762,139.648
1687530579.082,-43.945,-43.457,-29.785,-29.785,71.777
1687530579.086,-34.180,-40.527,-32.227,-36.621,34.668
1687530579.089,-22.461,-39.062,-34.668,-34.668,187.988
1687530579.093,-26.367,-46.387,-34.668,-24.902,326.660
1687530579.097,-39.551,-49.805,-36.621,-25.879,92.285
1687530579.101,-42.480,-41.504,-34.668,-32.715,-24.414
1687530579.105,-30.273,-32.227,-32.715,-39.551,58.105
1687530579.107,-14.648,-32.715,-34.668,-34.180,68.848
1687530579.111,-16.602,-39.062,-32.227,-29.785,30.273
1687530579.115,-34.180,-43.457,-33.691,-30.273,-12.695
1687530579.119,-33.203,-36.621,-37.109,-20.996,266.113
1687530579.123,-19.531,-33.691,-33.203,-22.949,416.992
1687530579.127,-20.020,-42.969,-24.902,-38.574,171.387
1687530579.131,-26.855,-40.527,-23.438,-34.180,133.789
1687530579.134,-27.832,-33.203,-21.484,-18.555,370.605
1687530579.138,-35.156,-35.156,-21.484,-16.113,340.332
1687530579.142,-29.785,-34.668,-25.879,-29.297,8.301
1687530579.146,-12.207,-35.645,-25.879,-29.785,102.051
1687530579.150,-9.277,-39.062,-24.902,-17.578,195.312
1687530579.153,-21.973,-43.457,-29.785,-19.531,127.441
1687530579.157,-36.133,-41.992,-29.297,-28.809,98.633
1687530579.161,-24.902,-34.668,-25.879,-28.320,117.188
1687530579.165,-11.230,-32.715,-31.250,-38.086,80.566
1687530579.169,-10.742,-34.668,-32.715,-38.574,116.699
1687530579.173,-28.320,-38.086,-34.180,-30.762,203.125
1687530579.177,-47.363,-38.086,-35.156,-32.715,365.723
1687530579.180,-42.969,-39.551,-38.086,-32.227,503.906
1687530579.184,-34.180,-43.945,-40.039,-40.527,174.316
1687530579.188,-28.809,-44.434,-40.527,-36.621,3.906
1687530579.192,-33.691,-43.457,-43.945,-27.344,92.285
1687530579.196,-45.898,-43.457,-41.504,-35.645,104.004
1687530579.197,-44.434,-43.457,-35.645,-41.504,102.539
1687530579.201,-36.133,-42.969,-41.016,-41.504,16.113
1687530579.205,-27.832,-43.945,-44.434,-42.969,123.047
1687530579.209,-30.762,-43.457,-43.457,-40.039,207.031
1687530579.213,-47.852,-41.016,-43.457,-42.969,65.918
1687530579.217,-48.828,-40.039,-41.016,-51.758,81.055
1687530579.221,-39.062,-35.645,-38.574,-45.898,407.715
1687530579.224,-30.762,-36.133,-37.109,-40.527,474.609
1687530579.228,-30.762,-40.039,-39.062,-37.598,66.406
1687530579.232,-47.852,-42.969,-38.086,-39.551,43.945
1687530579.236,-45.410,-39.551,-31.250,-43.945,152.344
1687530579.240,-36.133,-37.598,-31.250,-45.410,49.805
1687530579.243,-33.691,-41.504,-31.738,-41.992,7.812
1687530579.247,-31.738,-41.016,-26.855,-26.367,50.293
1687530579.251,-51.758,-41.504,-32.715,-26.855,152.344
1687530579.255,-54.199,-41.504,-34.668,-35.156,171.387
1687530579.259,-39.551,-37.109,-29.297,-46.875,67.383
1687530579.263,-34.180,-37.109,-34.180,-44.434,300.781
1687530579.267,-34.180,-39.551,-41.016,-33.203,402.832
1687530579.270,-46.387,-38.086,-38.086,-35.156,105.957
1687530579.274,-49.805,-36.621,-36.621,-42.480,62.988
1687530579.278,-44.434,-38.086,-41.504,-48.340,261.230
1687530579.282,-31.738,-41.992,-42.969,-42.969,261.230
1687530579.286,-24.414,-44.922,-41.504,-37.109,29.297
1687530579.301,-41.992,-43.945,-36.133,-33.203,39.551
1687530579.305,-44.922,-40.039,-34.668,-31.250,75.195
1687530579.309,-28.320,-37.109,-37.598,-32.715,106.445
1687530579.313,-15.625,-37.109,-36.133,-31.738,78.125
1687530579.317,-13.184,-41.992,-35.156,-22.461,-0.977
1687530579.321,-30.762,-41.504,-35.645,-20.996,309.082
1687530579.325,-41.504,-41.016,-34.180,-29.297,393.555
1687530579.328,-22.949,-42.969,-35.645,-36.133,-34.668
1687530579.332,-14.648,-41.992,-42.969,-31.250,-28.320
1687530579.336,-15.137,-44.922,-45.410,-29.785,74.707
1687530579.340,-23.438,-41.504,-43.457,-28.320,-14.160
1687530579.344,-40.039,-38.086,-44.922,-28.320,30.273
1687530579.347,-38.086,-41.992,-46.387,-34.180,156.738
1687530579.351,-22.949,-40.039,-40.527,-34.180,155.273
1687530579.355,-14.648,-39.062,-36.133,-28.320,56.152
1687530579.359,-24.414,-39.551,-36.621,-19.531,-3.906
1687530579.363,-42.480,-40.527,-33.691,-20.508,39.551
1687530579.367,-42.969,-41.016,-32.227,-28.320,140.137
1687530579.371,-25.879,-44.434,-34.180,-30.273,105.469
1687530579.374,-19.043,-43.945,-32.227,-28.320,-77.637
1687530579.378,-26.855,-40.039,-34.180,-19.043,156.250
1687530579.382,-34.180,-35.156,-36.133,-14.648,348.145
1687530579.386,-27.832,-36.133,-35.156,-29.297,58.594
1687530579.390,-20.996,-41.016,-37.598,-40.527,4.395
1687530579.392,-19.043,-39.551,-42.969,-38.574,34.668
1687530579.396,-19.043,-39.062,-42.480,-39.062,80.566
1687530579.400,-30.273,-39.062,-37.598,-41.016,144.531
1687530579.404,-29.297,-36.621,-35.645,-42.969,57.129
1687530579.408,-16.602,-35.645,-31.738,-32.715,202.637
1687530579.412,-6.836,-31.738,-24.902,-20.996,292.969
1687530579.416,-6.836,-34.180,-20.508,-16.113,80.566
1687530579.419,-27.344,-38.574,-29.785,-20.020,67.871
1687530579.423,-32.227,-41.504,-34.668,-24.902,278.320
1687530579.427,-20.508,-43.457,-37.109,-36.133,207.520
1687530579.431,-13.672,-41.504,-40.039,-42.969,-13.184
1687530579.435,-16.113,-35.645,-34.668,-23.438,121.094
1687530579.437,-38.574,-29.297,-36.133,-26.367,141.602
1687530579.441,-41.504,-27.344,-34.668,-35.645,-17.090
1687530579.445,-25.879,-32.715,-36.133,-34.668,-26.855
1687530579.449,-19.043,-36.621,-39.551,-34.668,151.855
1687530579.453,-19.043,-34.180,-37.598,-33.691,156.738
1687530579.457,-32.715,-28.809,-38.574,-37.109,163.086
1687530579.461,-42.480,-25.391,-36.621,-41.504,171.387
1687530579.464,-36.621,-28.809,-39.062,-37.598,157.715
1687530579.468,-23.926,-30.273,-39.062,-22.461,349.121
1687530579.472,-19.531,-30.762,-33.203,-22.461,197.754
1687530579.476,-27.344,-31.738,-29.785,-22.949,18.555
1687530579.480,-41.504,-37.109,-30.273,-27.344,104.980
1687530579.481,-37.598,-36.133,-30.762,-35.645,86.426
1687530579.485,-25.879,-34.668,-32.227,-40.527,-77.148
1687530579.489,-29.785,-40.527,-34.180,-41.504,-12.207
1687530579.493,-42.480,-44.922,-38.086,-28.809,229.980
1687530579.497,-52.734,-41.504,-35.645,-30.273,140.625
1687530579.501,-44.434,-41.016,-32.715,-36.621,37.109
1687530579.505,-33.203,-43.457,-34.668,-41.016,70.312
1687530579.508,-22.461,-43.945,-33.203,-31.738,300.781
1687530579.512,-25.879,-35.156,-32.715,-17.578,351.074
1687530579.516,-39.551,-31.250,-31.738,-27.344,1.465
1687530579.520,-24.902,-33.691,-36.133,-29.297,-54.199
1687530579.524,-6.348,-29.785,-39.062,-42.480,-26.855
1687530579.528,-12.695,-31.738,-38.574,-56.152,-51.758
1687530579.532,-23.926,-30.762,-46.387,-53.223,4.883
1687530579.536,-31.250,-27.344,-46.387,-47.852,88.379
1687530579.540,-28.320,-30.273,-41.504,-48.828,69.336
1687530579.544,-22.949,-32.715,-39.062,-59.082,-39.062
1687530579.548,-26.367,-33.691,-39.062,-59.082,0.000
1687530579.552,-34.668,-32.715,-40.527,-43.457,305.664
1687530579.555,-50.781,-35.645,-42.480,-52.246,448.242
1687530579.559,-49.805,-34.180,-37.109,-72.266,137.207
1687530579.563,-34.180,-28.809,-31.738,-76.660,-10.742
1687530579.567,-25.391,-30.273,-37.109,-79.102,143.555
1687530579.571,-29.297,-36.133,-44.922,-84.473,166.016
1687530579.573,-39.551,-35.645,-43.457,-85.449,61.523
1687530579.577,-37.598,-35.156,-41.992,-82.520,62.012
1687530579.581,-24.414,-38.086,-39.551,-80.566,106.445
1687530579.585,-6.836,-36.621,-33.691,-73.242,13.672
1687530579.589,-4.883,-33.203,-32.227,-63.477,0.977
1687530579.593,-27.344,-35.156,-32.715,-54.199,111.816
1687530579.597,-45.410,-38.574,-34.180,-47.852,300.293
1687530579.600,-40.527,-39.551,-35.645,-48.828,365.234
1687530579.604,-33.203,-37.109,-37.109,-49.805,56.641
1687530579.608,-35.645,-32.715,-36.621,-42.480,45.410
1687530579.612,-47.852,-35.645,-35.645,-39.062,211.426
1687530579.616,-56.152,-34.668,-33.203,-42.969,174.316
1687530579.619,-39.551,-28.809,-27.344,-47.852,5.859
1687530579.623,-32.715,-36.621,-26.855,-46.875,80.078
1687530579.627,-36.133,-37.109,-27.344,-36.621,145.996
1687530579.631,-46.875,-34.668,-25.879,-34.180,62.988
1687530579.635,-62.012,-44.434,-31.738,-47.363,13.672
1687530579.639,-60.059,-50.781,-34.668,-55.664,190.430
1687530579.643,-55.664,-48.828,-36.133,-53.711,501.953
1687530579.646,-50.293,-44.434,-36.621,-49.805,220.703
1687530579.650,-56.152,-43.945,-33.691,-41.992,-14.648
1687530579.654,-66.895,-42.480,-36.133,-40.527,79.102
1687530579.658,-56.641,-38.574,-38.574,-47.363,24.902
1687530579.662,-40.039,-36.133,-36.133,-51.270,-19.531
1687530579.677,-30.762,-35.156,-32.227,-47.852,11.230
1687530579.681,-36.621,-34.180,-29.297,-43.945,138.184
1687530579.685,-57.617,-37.109,-35.156,-59.082,193.848
1687530579.689,-51.270,-34.668,-33.691,-65.918,70.801
1687530579.693,-30.273,-31.738,-29.297,-57.129,4.395
1687530579.697,-27.832,-36.133,-32.715,-43.457,255.859
1687530579.701,-40.527,-35.645,-34.180,-36.621,409.668
1687530579.704,-57.129,-38.086,-37.598,-47.852,113.281
1687530579.708,-56.152,-35.645,-39.551,-44.922,31.250
1687530579.712,-41.992,-36.621,-39.062,-39.062,105.957
1687530579.716,-32.227,-40.527,-35.645,-33.203,77.148
1687530579.720,-39.062,-38.086,-37.109,-28.809,96.680
1687530579.721,-55.176,-33.203,-36.621,-35.645,118.652
1687530579.725,-48.828,-27.832,-32.227,-43.945,114.258
1687530579.729,-35.645,-27.832,-36.621,-52.246,67.871
1687530579.733,-32.715,-30.762,-38.574,-58.105,23.926
1687530579.737,-35.156,-34.180,-33.203,-45.898,211.426
1687530579.741,-51.270,-39.062,-30.762,-44.922,321.289
1687530579.745,-47.363,-34.180,-36.621,-50.781,113.281
1687530579.748,-20.996,-32.715,-40.039,-42.969,-30.762
1687530579.752,-19.043,-35.645,-41.992,-36.133,154.785
1687530579.756,-41.016,-36.621,-47.363,-41.016,412.598
1687530579.760,-57.129,-40.527,-49.316,-55.176,181.152
1687530579.764,-58.594,-41.016,-38.574,-57.617,44.434
1687530579.766,-47.852,-40.039,-28.809,-48.828,93.262
1687530579.770,-36.133,-36.621,-32.715,-36.133,66.895
1687530579.774,-34.180,-36.621,-38.086,-25.879,86.426
1687530579.778,-45.898,-34.180,-35.645,-31.738,103.516
1687530579.782,-52.734,-32.715,-33.203,-38.086,228.516
1687530579.786,-41.992,-34.180,-30.273,-44.434,247.070
1687530579.790,-30.273,-33.691,-26.367,-49.805,129.883
1687530579.793,-26.855,-29.785,-24.414,-41.504,159.180
1687530579.797,-33.691,-28.809,-24.902,-31.738,384.766
1687530579.801,-38.086,-32.715,-32.227,-37.109,344.727
1687530579.805,-25.879,-24.414,-29.785,-45.898,27.832
1687530579.809,-15.137,-20.508,-23.926,-44.922,65.430
1687530579.811,-14.160,-28.320,-22.949,-33.203,102.539
1687530579.815,-27.832,-24.414,-21.484,-18.066,42.480
1687530579.819,-41.504,-21.973,-29.297,-25.391,46.875
1687530579.823,-34.180,-24.414,-32.227,-30.273,53.711
1687530579.827,-20.508,-20.508,-27.832,-21.484,87.402
1687530579.831,-18.555,-21.484,-27.344,-7.812,182.129
1687530579.835,-33.691,-21.973,-27.344,-12.695,98.145
1687530579.838,-42.480,-26.367,-25.391,-19.043,138.184
1687530579.842,-37.598,-27.344,-24.414,-22.461,437.988
1687530579.846,-36.621,-23.438,-24.902,-33.691,263.672
1687530579.850,-32.227,-22.949,-25.879,-23.438,-1.465
1687530579.854,-40.039,-28.320,-33.691,-21.973,-1.953
1687530579.856,-58.105,-31.738,-32.227,-30.273,74.707
1687530579.860,-47.852,-25.391,-21.973,-22.949,-4.883
1687530579.864,-35.156,-23.926,-24.902,-20.996,28.320
1687530579.868,-33.203,-26.367,-27.832,-16.113,229.492
1687530579.872,-41.016,-26.855,-24.902,-11.719,199.707
1687530579.876,-61.035,-28.320,-28.320,-22.949,138.672
1687530579.880,-55.664,-27.344,-31.738,-27.344,107.422
1687530579.883,-38.086,-27.832,-25.391,-21.973,275.391
1687530579.887,-23.926,-25.879,-23.926,-20.020,269.043
1687530579.891,-28.320,-26.367,-31.738,-25.879,-5.371
1687530579.895,-45.410,-24.414,-29.297,-33.691,115.234
1687530579.899,-44.922,-26.855,-26.855,-38.086,284.668
1687530579.902,-33.203,-28.320,-34.180,-44.922,122.559
1687530579.906,-25.879,-26.855,-31.250,-45.410,14.648
1687530579.910,-30.273,-27.832,-31.250,-37.109,62.012
1687530579.914,-42.969,-24.414,-34.180,-34.668,105.469
1687530579.918,-43.457,-23.438,-24.414,-37.598,87.891
1687530579.922,-36.621,-21.484,-25.391,-46.387,52.734
1687530579.926,-36.133,-22.461,-33.691,-43.457,272.461
1687530579.929,-42.969,-19.531,-34.668,-31.738,386.719
1687530579.933,-60.547,-22.461,-35.156,-39.062,82.520
1687530579.937,-61.523,-28.809,-33.203,-47.363,-33.203
1687530579.941,-47.852,-29.785,-27.832,-47.852,0.488
1687530579.945,-35.156,-28.320,-25.391,-42.480,13.184
1687530579.947,-33.203,-26.367,-28.320,-37.598,23.926
1687530579.951,-53.711,-31.738,-28.320,-43.945,46.875
1687530579.955,-64.941,-31.738,-26.855,-45.410,293.945
1687530579.959,-49.805,-28.320,-29.785,-45.898,251.953
1687530579.963,-37.598,-27.832,-29.297,-55.176,3.906
1687530579.967,-41.992,-29.297,-24.902,-60.059,30.762
1687530579.971,-56.152,-31.738,-27.344,-55.176,380.371
1687530579.974,-61.523,-36.621,-33.203,-53.711,445.312
1687530579.978,-47.852,-31.250,-37.109,-69.336,36.621
1687530579.982,-35.645,-23.438,-39.062,-71.777,5.859
1687530579.986,-34.668,-25.391,-39.551,-58.594,67.871
1687530579.990,-45.410,-29.297,-41.992,-51.758,2.930
1687530579.993,-56.641,-32.715,-39.551,-50.293,-54.199
1687530579.997,-51.270,-31.250,-38.574,-58.105,-14.160
1687530580.001,-40.527,-31.250,-38.086,-64.453,76.660
1687530580.005,-39.062,-33.691,-32.715,-65.918,149.902
1687530580.009,-53.223,-35.645,-30.762,-64.453,123.535
1687530580.013,-73.242,-39.062,-35.156,-74.219,223.145
1687530580.017,-67.383,-39.062,-37.109,-77.148,433.105
1687530580.020,-40.527,-34.180,-26.367,-69.824,155.762
1687530580.024,-35.156,-30.273,-23.438,-69.336,-35.156
1687530580.028,-43.945,-26.367,-35.156,-75.684,109.863
1687530580.032,-46.875,-19.043,-39.551,-66.406,108.398
1687530580.036,-46.387,-21.973,-34.668,-59.082,50.781
1687530580.051,-45.410,-29.785,-34.180,-65.918,32.715
1687530580.055,-42.969,-27.344,-38.574,-61.523,61.035
1687530580.059,-47.363,-20.508,-36.133,-58.594,127.441
1687530580.063,-62.012,-19.531,-37.109,-62.988,95.703
1687530580.067,-58.105,-23.926,-36.621,-65.918,2.441
1687530580.071,-41.016,-25.879,-35.156,-62.012,319.336
1687530580.075,-30.273,-20.020,-35.156,-54.688,440.918
1687530580.078,-30.762,-17.578,-32.227,-58.105,76.172
1687530580.082,-44.434,-19.531,-25.879,-62.500,57.617
1687530580.086,-41.016,-18.555,-26.855,-58.105,228.516
1687530580.090,-28.320,-17.578,-32.227,-67.871,148.926
1687530580.094,-19.043,-16.113,-27.832,-72.754,-18.555
1687530580.096,-24.414,-18.066,-25.391,-61.523,41.992
1687530580.100,-44.434,-22.949,-29.297,-65.918,70.312
1687530580.104,-48.828,-20.996,-29.785,-65.430,39.551
1687530580.108,-34.668,-21.973,-28.320,-57.129,-15.625
1687530580.112,-30.762,-26.855,-28.809,-51.758,-2.441
1687530580.116,-35.645,-27.344,-27.832,-45.410,155.273
1687530580.120,-46.875,-28.809,-29.297,-46.387,172.852
1687530580.123,-48.828,-28.809,-23.926,-44.434,95.703
1687530580.127,-40.039,-28.809,-20.996,-34.668,223.633
1687530580.131,-31.738,-33.203,-27.344,-24.902,375.000
1687530580.135,-31.738,-36.133,-31.738,-32.715,153.809
1687530580.139,-40.527,-35.645,-31.250,-41.504,-4.395
1687530580.141,-42.969,-29.297,-29.297,-46.875,56.152
1687530580.145,-34.668,-28.320,-33.691,-54.688,19.043
1687530580.149,-25.391,-28.320,-34.668,-50.293,-5.371
1687530580.153,-29.785,-24.414,-31.250,-48.340,31.250
1687530580.157,-47.852,-30.273,-32.227,-52.246,119.629
1687530580.161,-60.059,-37.109,-28.809,-56.641,108.887
1687530580.165,-50.781,-34.180,-27.832,-57.129,90.820
1687530580.168,-37.109,-33.203,-26.855,-53.223,116.699
1687530580.172,-42.969,-37.109,-24.902,-42.969,288.574
1687530580.176,-62.500,-39.062,-25.391,-33.691,347.168
1687530580.180,-72.754,-36.133,-24.902,-40.039,124.023
1687530580.184,-52.246,-32.715,-27.832,-43.945,158.203
1687530580.186,-37.109,-32.227,-25.391,-40.039,204.590
1687530580.190,-36.621,-28.809,-20.508,-32.715,31.738
1687530580.194,-45.410,-26.367,-20.996,-29.785,-47.363
1687530580.198,-61.035,-22.949,-22.461,-33.203,30.273
1687530580.202,-53.711,-24.902,-24.414,-34.668,58.594
1687530580.206,-47.852,-34.180,-29.297,-42.480,130.859
1687530580.210,-46.387,-30.762,-30.273,-43.457,106.445
1687530580.213,-49.316,-23.926,-25.391,-30.762,183.594
1687530580.217,-61.523,-26.367,-22.949,-23.926,323.242
1687530580.221,-57.617,-28.320,-26.855,-33.203,159.180
1687530580.225,-39.551,-23.438,-26.855,-34.668,73.730
1687530580.229,-26.855,-20.020,-25.391,-36.621,103.027
1687530580.231,-38.086,-24.902,-27.344,-38.574,129.883
1687530580.235,-56.152,-30.762,-32.715,-41.992,-13.184
1687530580.239,-57.129,-30.762,-34.668,-47.852,-77.148
1687530580.243,-47.363,-28.809,-31.738,-40.527,220.215
1687530580.247,-38.574,-24.414,-27.832,-32.227,309.570
1687530580.251,-43.945,-24.414,-25.879,-29.297,201.660
1687530580.255,-56.641,-20.996,-30.762,-36.621,249.023
1687530580.258,-59.570,-18.555,-32.715,-41.992,289.551
1687530580.262,-49.805,-21.973,-33.203,-42.969,210.449
1687530580.266,-39.062,-23.926,-34.180,-48.340,-27.344
1687530580.270,-45.898,-25.879,-32.227,-39.551,-2.441
1687530580.274,-59.570,-24.414,-35.645,-32.715,65.918
1687530580.279,-60.547,-21.484,-37.598,-39.062,12.207
1687530580.283,-41.992,-20.996,-34.180,-33.691,-121.582
1687530580.287,-33.691,-21.484,-31.250,-35.156,65.918
1687530580.291,-40.527,-21.484,-30.762,-37.109,231.445
1687530580.295,-55.664,-22.461,-30.762,-30.273,93.262
1687530580.299,-69.336,-25.391,-34.668,-48.340,131.348
1687530580.303,-57.617,-24.902,-31.250,-51.758,220.215
1687530580.306,-40.527,-18.066,-27.832,-34.180,327.637
1687530580.310,-42.969,-16.113,-34.668,-35.645,105.469
1687530580.314,-57.129,-19.043,-35.156,-33.691,-37.598
1687530580.318,-62.988,-18.555,-41.016,-41.992,59.082
1687530580.322,-36.621,-16.113,-41.992,-44.434,6.836
1687530580.321,-11.719,-21.484,-22.949,-24.902,-33.203
1687530580.325,-21.973,-32.715,-9.277,-24.902,-9.277
1687530580.329,-50.293,-34.180,-8.301,-36.133,116.211
1687530580.333,-67.383,-36.621,-8.301,-44.434,135.742
1687530580.337,-61.035,-45.898,-6.348,-57.129,-19.043
1687530580.341,-63.965,-52.734,3.906,-73.730,-37.598
1687530580.345,-62.988,-59.570,14.648,-67.871,382.812
1687530580.348,-76.172,-65.918,17.578,-67.871,601.562
1687530580.352,-104.980,-77.637,21.484,-84.961,164.062
1687530580.356,-107.910,-84.473,30.762,-83.984,20.020
1687530580.360,-109.863,-86.914,42.969,-81.055,73.242
1687530580.364,-114.258,-95.703,54.688,-87.891,21.484
1687530580.368,-131.836,-104.492,55.664,-91.797,-9.766
1687530580.372,-149.902,-106.445,57.129,-93.262,9.766
1687530580.376,-154.785,-112.793,59.570,-99.121,24.414
1687530580.380,-148.926,-115.234,61.523,-106.445,-39.551
1687530580.384,-139.160,-114.746,68.848,-98.633,-72.266
1687530580.388,-157.227,-122.559,69.824,-93.750,97.656
1687530580.392,-166.504,-117.676,74.707,-87.402,183.594
1687530580.395,-156.250,-113.281,81.055,-85.938,79.102
1687530580.399,-132.324,-113.281,85.449,-78.125,68.359
1687530580.403,-117.676,-109.863,90.332,-57.129,236.328
1687530580.407,-125.977,-109.375,82.520,-57.129,386.230
1687530580.411,-127.930,-111.816,76.660,-53.223,163.086
1687530580.426,-125.000,-110.840,77.148,-53.223,-4.395
1687530580.430,-106.445,-103.027,75.684,-51.758,-9.766
1687530580.434,-93.262,-96.680,78.125,-39.062,73.242
1687530580.438,-94.238,-92.285,72.266,-35.645,80.078
1687530580.442,-104.492,-91.309,61.035,-39.551,16.602
1687530580.446,-105.469,-91.309,53.223,-36.621,321.289
1687530580.450,-84.961,-86.914,44.922,-30.273,400.879
1687530580.453,-66.895,-81.055,41.992,-31.250,50.293
1687530580.457,-63.477,-78.125,41.504,-22.949,15.625
1687530580.461,-72.754,-74.707,38.574,-16.602,119.141
1687530580.465,-72.266,-74.219,33.691,-19.531,73.730
1687530580.469,-52.734,-70.312,30.273,-13.672,-46.387
1687530580.471,-33.203,-60.547,32.227,-0.488,28.320
1687530580.475,-26.367,-57.617,31.738,4.395,146.484
1687530580.479,-36.621,-52.246,27.832,-2.441,50.293
1687530580.483,-44.434,-50.781,19.043,-9.277,-33.203
1687530580.487,-32.227,-49.805,19.043,-5.859,8.301
1687530580.491,-20.996,-47.363,19.531,-15.625,36.621
1687530580.495,-20.020,-50.293,15.137,-15.625,97.168
1687530580.498,-29.297,-46.875,17.090,-1.953,97.656
1687530580.502,-40.039,-43.457,16.602,-2.930,218.262
1687530580.506,-31.738,-42.480,14.648,-3.906,367.676
1687530580.510,-26.367,-42.480,9.277,-0.977,126.465
1687530580.514,-29.785,-47.363,0.977,4.883,94.238
1687530580.517,-31.250,-45.898,-1.953,9.766,241.211
1687530580.521,-34.180,-39.062,-1.465,3.418,158.691
1687530580.525,-22.949,-34.180,-2.930,-4.883,136.719
1687530580.529,-14.160,-37.109,-9.277,-8.789,131.836
1687530580.533,-18.555,-40.039,-8.789,1.953,185.547
1687530580.537,-29.785,-37.598,-6.348,0.977,208.984
1687530580.541,-39.551,-37.109,-8.789,-18.555,126.465
1687530580.544,-31.250,-35.156,-4.395,-22.461,68.848
1687530580.548,-19.043,-36.133,-2.930,-16.113,198.730
1687530580.552,-16.113,-40.527,-6.348,-11.230,220.703
1687530580.556,-23.926,-36.621,-5.371,-11.230,43.945
1687530580.560,-36.133,-33.203,-11.719,-7.812,121.582
1687530580.563,-26.367,-32.227,-12.207,-8.301,101.074
1687530580.567,0.000,-29.297,-6.836,-8.789,-1.953
1687530580.571,14.160,-26.855,-10.254,-1.465,54.688
1687530580.575,5.859,-25.879,-13.184,17.090,212.402
1687530580.579,-14.648,-26.855,-13.672,18.555,250.000
1687530580.583,-15.137,-29.297,-12.207,7.812,160.645
1687530580.587,-11.719,-37.598,-19.531,-4.395,57.617
1687530580.590,-10.742,-37.109,-20.508,-4.395,109.863
1687530580.594,-16.113,-32.227,-15.625,4.883,291.992
1687530580.598,-33.691,-35.156,-16.113,-10.742,115.723
1687530580.602,-34.180,-34.668,-19.531,-12.695,1.465
1687530580.606,-17.578,-26.367,-21.484,-6.348,45.410
1687530580.607,-11.230,-26.367,-23.926,-5.371,28.809
1687530580.611,-21.484,-28.320,-22.461,1.953,29.297
1687530580.615,-35.645,-31.738,-20.020,-8.301,127.930
1687530580.619,-36.621,-34.668,-19.531,-21.484,295.898
1687530580.623,-23.926,-30.762,-19.531,-26.367,235.840
1687530580.627,-17.578,-29.785,-23.438,-23.926,87.402
1687530580.631,-13.184,-30.762,-24.902,-16.602,86.914
1687530580.634,-28.320,-35.156,-21.484,-21.484,325.195
1687530580.638,-40.527,-34.180,-20.020,-25.879,380.859
1687530580.642,-24.414,-31.250,-22.949,-33.203,86.914
1687530580.646,-15.625,-32.715,-17.090,-34.668,51.758
1687530580.650,-23.926,-37.598,-21.973,-30.762,162.598
1687530580.657,-35.156,-40.039,-28.320,-34.668,41.504
1687530580.661,-37.598,-35.156,-29.297,-46.875,-59.082
1687530580.665,-17.090,-28.809,-29.785,-52.734,27.832
1687530580.669,-0.488,-28.809,-26.855,-41.016,56.152
1687530580.673,-10.742,-33.691,-31.250,-42.480,11.719
1687530580.677,-32.715,-29.297,-38.574,-51.270,103.516
1687530580.681,-47.363,-27.344,-41.992,-52.246,358.398
1687530580.684,-42.969,-29.297,-40.527,-56.152,513.672
1687530580.688,-32.227,-29.297,-34.668,-58.594,133.789
1687530580.692,-28.809,-34.668,-31.250,-55.176,-37.109
1687530580.696,-43.945,-34.180,-31.738,-49.805,161.133
1687530580.700,-57.617,-30.762,-33.203,-53.223,181.152
1687530580.696,-38.574,-31.250,-26.855,-61.035,23.438
1687530580.700,-30.273,-35.156,-27.344,-58.105,29.785
1687530580.704,-36.133,-32.715,-29.297,-49.316,266.602
1687530580.708,-41.992,-28.320,-26.855,-51.270,192.871
1687530580.712,-54.688,-25.879,-29.785,-61.523,31.250
1687530580.716,-56.152,-30.762,-30.273,-68.848,90.332
1687530580.720,-47.852,-35.645,-29.785,-63.477,380.859
1687530580.723,-43.457,-37.598,-34.668,-56.152,413.086
1687530580.727,-48.340,-35.156,-37.109,-56.641,92.285
1687530580.731,-61.523,-32.715,-34.180,-61.035,125.488
1687530580.735,-62.012,-35.645,-33.203,-67.871,172.852
1687530580.739,-48.340,-37.109,-31.250,-71.289,8.789
1687530580.743,-43.457,-36.133,-29.297,-74.707,-103.027
1687530580.747,-56.641,-31.738,-29.297,-72.754,-17.578
1687530580.751,-78.613,-39.551,-31.250,-68.359,69.336
1687530580.755,-60.059,-47.363,-23.926,-47.852,31.738
1687530580.759,-14.648,-32.715,-22.461,-29.297,-20.020
1687530580.763,-15.137,-15.625,-38.574,-42.480,152.344
1687530580.767,-31.250,-14.160,-49.316,-47.363,237.793
1687530580.770,-41.016,-17.578,-55.664,-51.758,113.770
1687530580.774,-41.504,-14.160,-65.430,-62.988,32.715
1687530580.778,-25.391,-3.906,-74.219,-56.152,182.129
1687530580.782,-22.949,4.395,-87.402,-55.176,241.211
1687530580.786,-33.691,6.836,-98.145,-66.895,81.543
1687530580.801,-41.016,15.625,-104.004,-70.801,124.023
1687530580.805,-41.504,24.902,-113.281,-74.707,153.809
1687530580.809,-32.227,31.250,-123.047,-76.660,143.555
1687530580.813,-20.020,40.527,-130.859,-71.777,80.078
1687530580.817,-26.855,45.410,-132.812,-70.312,55.664
1687530580.821,-39.551,47.363,-138.184,-59.570,390.625
1687530580.825,-38.086,51.270,-146.484,-64.453,480.957
1687530580.828,-26.855,57.617,-147.949,-80.566,76.660
1687530580.832,-18.066,56.641,-148.926,-81.543,-0.977
1687530580.836,-15.137,57.617,-147.461,-83.008,112.793
1687530580.840,-25.879,57.129,-146.484,-79.102,108.887
1687530580.844,-33.691,56.641,-147.461,-83.008,42.480
1687530580.846,-24.902,55.664,-145.020,-84.961,29.297
1687530580.850,-6.836,52.246,-136.719,-62.012,143.066
1687530580.854,-5.371,51.270,-132.812,-53.711,135.254
1687530580.858,-26.367,41.504,-134.277,-57.617,28.809
1687530580.862,-30.273,36.133,-129.395,-50.293,91.797
1687530580.866,-20.996,35.156,-122.559,-48.340,188.477
1687530580.870,-19.531,29.785,-119.141,-57.129,101.074
1687530580.873,-16.602,26.855,-113.281,-51.270,-2.930
1687530580.877,-28.809,23.926,-104.492,-40.527,193.848
1687530580.881,-38.086,20.020,-102.539,-49.316,306.152
1687530580.885,-22.461,18.555,-104.004,-62.988,2.441
1687530580.889,-11.230,14.160,-97.168,-56.641,-58.105
1687530580.891,-7.324,9.766,-90.332,-45.410,-6.836
1687530580.895,-20.508,9.766,-90.332,-45.410,-24.902
1687530580.899,-34.668,7.812,-85.938,-51.270,10.742
1687530580.903,-30.273,2.441,-85.449,-55.176,76.172
1687530580.907,-19.043,5.859,-85.449,-54.199,304.199
1687530580.911,-5.859,7.324,-77.148,-49.805,390.625
1687530580.915,-12.695,1.953,-71.777,-45.410,215.332
1687530580.918,-26.855,5.859,-71.289,-43.945,79.102
1687530580.922,-28.320,1.953,-70.312,-58.594,208.008
1687530580.926,-9.277,2.441,-75.684,-56.152,227.051
1687530580.930,-0.488,7.812,-64.941,-42.480,-7.812
1687530580.934,-45.410,-8.301,-57.129,-65.918,62.500
1687530580.937,-73.242,-16.602,-65.430,-81.543,137.695
1687530580.941,-72.266,-20.508,-59.570,-87.891,71.289
1687530580.945,-80.078,-26.367,-50.293,-101.562,-20.020
1687530580.949,-79.590,-28.320,-47.852,-98.633,18.555
1687530580.953,-87.402,-29.297,-48.340,-97.168,93.750
1687530580.957,-108.887,-27.832,-52.734,-104.980,179.199
1687530580.961,-104.492,-25.879,-52.734,-95.703,87.402
1687530580.964,-86.914,-27.832,-50.293,-86.426,123.535
1687530580.968,-76.172,-23.438,-48.340,-78.125,367.676
1687530580.972,-77.148,-23.438,-50.781,-73.242,134.277
1687530580.976,-89.844,-27.832,-51.758,-72.266,1.953
1687530580.980,-80.078,-21.973,-42.969,-76.172,83.496
1687530580.981,-63.965,-20.996,-44.434,-85.449,68.359
1687530580.985,-56.641,-21.973,-45.410,-75.195,31.738
1687530580.989,-55.664,-20.996,-47.363,-63.965,75.684
1687530580.993,-74.707,-25.879,-53.223,-68.848,237.305
1687530580.997,-78.613,-22.949,-51.758,-75.684,177.734
1687530581.001,-54.199,-15.625,-49.316,-71.777,59.082
1687530581.005,-44.434,-11.230,-47.363,-68.848,148.438
1687530581.008,-48.828,-17.090,-47.363,-63.477,375.977
1687530581.012,-64.453,-22.461,-48.340,-68.848,347.656
1687530581.016,-66.406,-19.531,-44.922,-71.777,75.195
1687530581.020,-48.828,-21.973,-43.457,-62.012,42.969
1687530581.024,-42.969,-25.391,-41.992,-58.594,128.418
1687530581.026,-40.527,-26.855,-41.016,-57.617,85.449
1687530581.030,-51.270,-31.250,-40.527,-52.734,87.891
1687530581.034,-65.430,-35.156,-42.969,-54.199,124.023
1687530581.038,-55.176,-36.133,-46.387,-57.617,83.008
1687530581.042,-42.969,-28.809,-43.457,-50.293,49.316
1687530581.046,-45.410,-30.762,-43.945,-47.363,47.363
1687530581.050,-60.547,-36.133,-46.387,-56.152,216.797
1687530581.053,-69.336,-27.832,-41.016,-54.688,348.145
1687530581.057,-64.941,-23.926,-35.645,-57.129,104.492
1687530581.061,-46.875,-24.414,-30.762,-55.664,-18.066
1687530581.065,-35.645,-21.973,-27.344,-39.551,43.457
1687530581.069,-42.969,-24.414,-27.344,-32.715,148.926
1687530581.071,-47.852,-25.391,-30.273,-46.875,109.375
1687530581.075,-44.922,-21.484,-32.715,-53.711,17.090
1687530581.079,-37.109,-21.484,-31.738,-45.410,223.633
1687530581.083,-26.855,-21.484,-35.645,-41.016,309.570
1687530581.087,-37.598,-22.949,-37.598,-38.086,107.910
1687530581.091,-61.523,-21.484,-29.785,-40.039,64.941
1687530581.095,-61.523,-21.484,-28.320,-42.969,304.688
1687530581.098,-49.805,-24.414,-30.762,-48.340,368.164
1687530581.102,-36.133,-26.855,-28.320,-57.129,32.227
1687530581.106,-34.668,-27.344,-29.297,-47.363,92.773
1687530581.110,-51.758,-27.832,-37.598,-46.875,166.992
1687530581.114,-42.969,-25.879,-40.039,-51.758,19.531
1687530581.120,-21.973,-28.320,-38.574,-52.734,-6.348
1687530581.124,-13.184,-30.762,-40.039,-50.293,109.375
1687530581.128,-14.160,-26.367,-36.133,-44.922,180.176
1687530581.132,-30.273,-24.902,-31.738,-50.293,49.316
1687530581.136,-36.133,-26.855,-32.227,-50.293,-56.152
1687530581.140,-26.855,-24.414,-31.250,-48.828,49.316
1687530581.144,-23.438,-21.973,-29.785,-37.109,209.961
1687530581.147,-34.668,-25.391,-29.785,-27.344,75.684
1687530581.151,-51.758,-28.809,-33.203,-42.969,11.719
1687530581.155,-62.988,-29.785,-32.227,-51.758,223.633
1687530581.159,-53.223,-28.320,-28.809,-50.781,231.934
1687530581.163,-43.945,-28.809,-32.715,-46.875,46.387
1687530581.176,-48.828,-30.273,-36.133,-37.109,59.082
1687530581.180,-69.824,-33.203,-36.621,-40.039,108.398
1687530581.184,-80.078,-35.156,-37.109,-50.293,157.715
1687530581.188,-60.059,-31.738,-35.645,-50.781,188.477
1687530581.192,-45.898,-29.297,-34.180,-41.992,123.535
1687530581.196,-43.945,-30.273,-31.738,-35.645,307.129
1687530581.200,-43.945,-27.344,-30.273,-22.461,670.898
1687530581.203,-50.781,-29.297,-40.039,-30.273,337.891
1687530581.207,-49.805,-30.273,-41.016,-39.551,-11.230
1687530581.211,-34.180,-26.367,-34.668,-34.668,69.336
1687530581.215,-26.367,-22.461,-35.645,-36.621,54.688
1687530581.219,-42.480,-24.902,-38.086,-34.668,18.555
1687530581.221,-51.758,-31.250,-35.645,-43.945,55.176
1687530581.225,-29.785,-21.973,-28.809,-37.109,85.449
1687530581.229,-32.227,-17.090,-39.551,-45.410,-10.254
1687530581.233,-40.527,-15.625,-48.340,-57.617,-26.367
1687530581.237,-41.016,-12.207,-46.875,-44.922,124.512
1687530581.241,-50.781,-16.113,-50.293,-48.828,195.801
1687530581.245,-40.527,-13.672,-50.293,-51.758,148.926
1687530581.248,-29.297,-17.090,-49.805,-44.434,91.797
1687530581.252,-25.391,-16.602,-45.898,-35.645,228.516
1687530581.256,-32.715,-14.648,-42.480,-18.066,429.199
1687530581.260,-48.340,-17.090,-42.969,-17.090,226.562
1687530581.264,-43.945,-19.043,-44.434,-34.668,50.781
1687530581.266,-32.715,-20.996,-42.969,-34.180,92.773
1687530581.270,-28.320,-24.414,-38.086,-22.949,58.594
1687530581.274,-36.133,-24.414,-39.551,-20.996,35.156
1687530581.278,-49.316,-18.066,-39.062,-20.508,79.102
1687530581.282,-40.039,-14.160,-36.133,-19.043,258.789
1687530581.286,-23.926,-14.160,-36.133,-24.902,284.180
1687530581.290,-20.020,-16.602,-41.016,-28.809,118.164
1687530581.293,-24.414,-15.625,-35.645,-17.578,35.645
1687530581.297,-42.480,-16.602,-34.668,-7.324,282.227
1687530581.301,-48.340,-22.949,-40.527,-21.484,344.238
1687530581.305,-31.738,-20.996,-42.480,-36.621,41.016
1687530581.309,-24.414,-18.555,-45.898,-33.203,99.609
1687530581.311,-27.344,-18.066,-41.504,-31.250,105.957
1687530581.315,-33.691,-14.648,-37.109,-25.391,49.805
1687530581.319,-39.062,-20.996,-36.621,-19.531,-0.488
1687530581.323,-28.809,-25.879,-36.621,-8.301,-13.184
1687530581.327,-20.020,-25.391,-34.180,-6.836,26.367
1687530581.331,-20.508,-24.414,-34.180,-16.113,69.824
1687530581.335,-36.621,-24.902,-37.598,-14.648,106.445
1687530581.338,-40.527,-25.879,-38.086,-16.113,226.074
1687530581.342,-27.832,-26.367,-38.086,-23.926,324.707
1687530581.346,-23.926,-26.367,-39.551,-37.598,77.637
1687530581.350,-25.879,-24.902,-39.551,-34.180,42.969
1687530581.354,-41.504,-28.320,-41.016,-19.043,206.055
1687530581.356,-51.270,-28.809,-39.551,-26.367,118.652
1687530581.360,-32.715,-28.809,-41.992,-30.273,-13.672
1687530581.364,-28.320,-30.273,-40.039,-26.855,-53.223
1687530581.368,-25.879,-29.297,-32.227,-19.531,107.422
1687530581.372,-29.785,-25.391,-31.738,-8.301,166.992
1687530581.376,-43.945,-24.902,-35.645,-12.207,104.980
1687530581.380,-33.203,-26.855,-36.133,-20.508,90.820
1687530581.383,-23.438,-25.391,-35.156,-15.625,224.609
1687530581.387,-24.414,-21.973,-31.738,-4.395,293.945
1687530581.391,-35.156,-23.926,-34.668,-15.625,21.973
1687530581.395,-43.945,-28.320,-35.645,-21.484,5.371
1687530581.399,-30.762,-29.785,-31.738,-15.625,102.539
1687530581.404,-23.438,-27.832,-34.180,-21.973,38.574
1687530581.408,-22.461,-26.855,-34.668,-23.438,-25.391
1687530581.412,-25.879,-28.320,-35.156,-16.113,105.469
1687530581.416,-39.551,-31.250,-37.598,-20.508,172.852
1687530581.420,-38.086,-33.691,-36.133,-38.086,49.805
1687530581.424,-31.250,-31.250,-30.762,-40.039,75.195
1687530581.428,-32.227,-31.250,-28.320,-29.785,248.047
1687530581.431,-40.039,-29.785,-34.668,-16.602,309.570
1687530581.435,-56.641,-31.250,-40.039,-21.484,30.762
1687530581.439,-50.293,-31.738,-35.645,-28.320,-32.227
1687530581.443,-32.227,-29.297,-34.668,-29.785,66.406
1687530581.447,-32.227,-32.715,-39.551,-29.785,29.297
1687530581.446,-43.945,-34.180,-40.039,-21.973,45.898
1687530581.450,-55.176,-35.156,-37.598,-29.297,57.129
1687530581.454,-51.758,-30.762,-35.156,-35.645,111.816
1687530581.458,-40.039,-30.762,-39.062,-38.574,140.625
1687530581.462,-35.645,-28.320,-39.551,-41.504,61.523
1687530581.466,-44.434,-24.902,-36.621,-35.156,65.430
1687530581.470,-62.988,-28.809,-39.062,-26.855,296.875
1687530581.473,-62.500,-28.320,-38.086,-29.297,428.711
1687530581.477,-48.828,-28.320,-33.691,-41.504,95.703
1687530581.481,-45.898,-30.273,-36.133,-38.574,-6.836
1687530581.485,-48.828,-32.715,-38.086,-39.551,102.539
1687530581.489,-57.617,-33.203,-37.598,-41.504,18.555
1687530581.493,-62.500,-28.320,-34.668,-35.645,-15.137
1687530581.497,-55.664,-29.785,-38.574,-43.945,92.773
1687530581.501,-46.875,-33.691,-41.992,-40.527,129.395
1687530581.505,-46.875,-33.691,-34.668,-33.203,59.570
1687530581.509,-58.105,-30.762,-30.762,-31.250,66.406
1687530581.513,-58.594,-31.250,-30.762,-27.344,265.625
1687530581.517,-42.969,-34.180,-32.715,-29.785,283.203
1687530581.520,-31.738,-36.621,-38.574,-37.109,103.027
1687530581.524,-36.621,-38.574,-38.086,-37.109,31.738
1687530581.528,-52.246,-38.086,-37.598,-29.785,172.852
1687530581.532,-61.035,-38.574,-41.504,-28.320,248.047
1687530581.536,-50.293,-38.086,-42.480,-42.969,0.000
1687530581.551,-38.574,-35.156,-37.598,-45.410,-51.758
1687530581.555,-37.109,-33.203,-29.785,-28.809,48.828
1687530581.559,-54.688,-37.598,-32.715,-39.062,187.988
1687530581.563,-63.477,-34.668,-31.738,-47.852,97.656
1687530581.567,-50.781,-29.297,-29.297,-40.527,-113.770
1687530581.571,-46.387,-33.691,-34.180,-39.551,221.680
1687530581.575,-49.805,-38.086,-36.133,-42.969,409.180
1687530581.578,-51.758,-34.180,-37.109,-39.062,76.660
1687530581.582,-57.617,-38.574,-38.086,-48.340,49.316
1687530581.586,-59.082,-45.410,-41.016,-57.129,237.305
1687530581.590,-42.480,-43.945,-37.598,-58.594,115.234
1687530581.594,-32.715,-42.480,-35.645,-55.664,-39.062
1687530581.596,-43.945,-39.551,-31.738,-47.363,110.352
1687530581.600,-60.059,-38.574,-27.832,-50.293,118.652
1687530581.604,-57.617,-42.480,-34.180,-54.688,-0.977
1687530581.608,-43.945,-40.527,-38.086,-56.152,-18.555
1687530581.612,-41.992,-39.062,-38.086,-53.711,32.227
1687530581.616,-50.781,-41.992,-37.109,-54.199,87.891
1687530581.620,-63.477,-43.945,-38.574,-52.734,152.832
1687530581.623,-60.059,-46.875,-40.039,-58.594,84.961
1687530581.627,-41.992,-45.410,-37.109,-58.594,104.980
1687530581.631,-36.621,-45.410,-37.109,-46.387,247.070
1687530581.635,-44.434,-46.875,-36.133,-40.527,126.465
1687530581.639,-58.594,-41.992,-30.762,-38.574,59.082
1687530581.641,-65.430,-43.457,-32.715,-46.387,141.113
1687530581.645,-49.316,-46.875,-37.109,-48.340,89.355
1687530581.649,-34.668,-42.969,-36.133,-45.898,88.867
1687530581.653,-41.016,-34.668,-32.715,-48.340,175.293
1687530581.657,-56.152,-32.227,-28.809,-47.852,213.379
1687530581.661,-56.641,-32.227,-32.227,-56.152,261.719
1687530581.665,-47.852,-33.691,-39.062,-51.270,129.883
1687530581.668,-49.316,-39.551,-39.551,-50.293,73.730
1687530581.672,-47.363,-37.598,-37.109,-40.527,358.398
1687530581.676,-62.500,-35.156,-35.156,-34.180,365.234
1687530581.680,-70.801,-39.062,-37.598,-45.410,24.902
1687530581.684,-54.688,-39.062,-41.504,-46.875,49.805
1687530581.687,-41.992,-35.156,-44.434,-55.176,115.234
1687530581.691,-34.180,-30.762,-41.016,-48.828,47.363
1687530581.695,-50.293,-30.762,-40.039,-49.316,33.203
1687530581.699,-68.359,-31.738,-39.062,-57.129,135.742
1687530581.703,-50.781,-28.320,-39.062,-53.223,197.754
1687530581.707,-30.762,-25.879,-36.621,-52.734,150.391
1687530581.711,-41.504,-27.832,-40.527,-54.688,89.355
1687530581.714,-62.500,-27.344,-49.316,-53.223,224.609
1687530581.718,-61.523,-22.949,-46.387,-49.805,383.301
1687530581.722,-47.363,-25.879,-45.410,-58.105,116.211
1687530581.726,-39.062,-27.344,-47.852,-59.082,-50.781
1687530581.730,-33.203,-24.902,-43.945,-50.293,12.207
1687530581.732,-45.410,-25.391,-40.527,-45.898,88.379
1687530581.736,-60.547,-26.367,-39.551,-47.852,50.781
1687530581.740,-54.199,-27.344,-38.086,-56.641,70.801
1687530581.744,-45.410,-29.297,-36.621,-59.082,274.902
1687530581.748,-44.922,-29.785,-42.480,-44.922,236.816
1687530581.752,-51.270,-32.715,-40.527,-40.039,103.027
1687530581.756,-57.617,-32.715,-41.992,-56.641,122.559
1687530581.759,-52.734,-28.320,-46.875,-60.547,267.578
1687530581.763,-45.410,-27.832,-42.480,-57.129,337.402
1687530581.767,-32.227,-27.832,-43.457,-60.547,41.504
1687530581.771,-40.527,-28.320,-45.898,-65.430,5.859
1687530581.775,-62.012,-29.297,-41.504,-58.594,54.688
1687530581.777,-54.199,-26.855,-38.574,-61.523,-2.930
1687530581.781,-46.875,-26.367,-41.992,-72.754,-61.035
1687530581.785,-41.992,-27.832,-37.109,-60.059,-23.438
1687530581.789,-43.457,-28.320,-34.668,-60.547,14.648
1687530581.793,-52.734,-31.738,-43.945,-72.754,18.555
1687530581.797,-49.316,-28.320,-45.898,-76.172,14.160
1687530581.801,-42.480,-30.273,-40.527,-64.453,212.402
1687530581.804,-33.203,-30.762,-42.480,-48.828,512.695
1687530581.808,-25.879,-22.461,-43.457,-36.621,217.773
1687530581.812,-33.691,-28.320,-25.391,-17.578,8.789
1687530581.816,-46.387,-43.457,-13.672,-24.414,81.543
1687530581.820,-38.574,-44.922,-13.184,-35.645,35.156
1687530581.821,-30.762,-47.363,-4.395,-34.668,-7.812
1687530581.825,-44.434,-53.223,3.906,-29.785,-11.719
1687530581.829,-54.688,-54.688,6.836,-31.250,183.105
1687530581.833,-52.734,-63.965,14.160,-35.645,147.949
1687530581.837,-52.246,-77.637,25.879,-33.203,-5.859
1687530581.841,-42.480,-81.055,33.691,-28.809,94.238
1687530581.845,-49.316,-80.078,37.598,-23.438,337.402
1687530581.848,-58.105,-82.031,44.922,-11.230,459.473
1687530581.852,-62.988,-84.961,49.805,-13.184,162.109
1687530581.856,-64.453,-91.309,47.363,-24.414,12.695
1687530581.860,-57.617,-98.633,51.758,-29.297,108.887
1687530581.864,-62.500,-96.680,59.082,-23.438,89.844
1687530581.868,-67.871,-95.215,67.383,-3.906,8.789
1687530581.872,-73.730,-105.469,68.848,-6.836,2.930
1687530581.876,-66.895,-107.910,65.918,-15.137,40.039
1687530581.880,-52.734,-104.980,67.871,-5.371,18.066
1687530581.884,-55.176,-107.910,65.430,-11.719,-28.320
1687530581.888,-58.594,-104.492,67.383,-3.906,114.746
1687530581.892,-50.781,-98.145,69.336,6.348,257.324
1687530581.895,-43.945,-96.680,66.406,-5.859,108.887
1687530581.899,-28.809,-89.844,62.500,-9.277,4.883
1687530581.903,-11.719,-85.449,62.012,0.000,194.336
1687530581.907,-22.461,-90.820,58.594,0.977,307.617
1687530581.911,-34.668,-89.844,51.270,-3.906,83.984
1687530581.926,-34.668,-87.402,47.852,-4.883,15.137
1687530581.930,-26.367,-83.008,42.969,-3.906,106.445
1687530581.934,-23.438,-77.637,39.062,4.883,141.113
1687530581.938,-41.016,-80.078,37.109,7.324,97.168
1687530581.942,-52.246,-83.496,31.250,-5.859,69.824
1687530581.946,-44.922,-84.473,21.484,-9.766,329.102
1687530581.950,-36.621,-79.590,18.555,4.395,430.176
1687530581.953,-31.250,-69.824,24.902,10.254,83.496
1687530581.957,-39.062,-67.871,18.555,5.859,35.156
1687530581.961,-59.082,-68.848,13.672,2.930,118.652
1687530581.965,-57.129,-69.336,15.137,-9.277,83.496
1687530581.969,-45.898,-73.730,-0.977,-12.695,58.105
1687530581.971,-46.875,-68.848,-2.441,-10.742,200.684
1687530581.975,-56.641,-62.988,2.441,-5.859,187.500
1687530581.979,-61.523,-58.594,-5.371,-10.254,-27.832
1687530581.983,-54.688,-54.199,-7.324,-26.367,-38.574
1687530581.987,-47.363,-55.176,-6.348,-21.973,24.414
1687530581.991,-41.016,-54.688,-5.371,-22.949,51.270
1687530581.995,-39.062,-50.781,-3.906,-22.949,116.699
1687530581.998,-45.898,-45.410,-7.324,-17.090,130.371
1687530582.002,-44.434,-43.945,-10.742,-24.902,161.133
1687530582.006,-35.645,-47.363,-17.090,-28.809,258.301
1687530582.010,-27.344,-46.875,-15.625,-24.414,104.980
1687530582.014,-26.367,-46.387,-14.160,-19.531,14.648
1687530582.017,-40.527,-44.434,-16.602,-20.508,48.828
1687530582.021,-38.086,-41.016,-15.625,-23.926,72.266
1687530582.025,-23.926,-41.504,-18.555,-16.602,64.453
1687530582.029,-20.508,-38.574,-19.531,-13.184,88.379
1687530582.033,-30.273,-38.086,-21.973,-3.906,367.676
1687530582.037,-42.969,-39.551,-22.461,-1.953,405.273
1687530582.041,-46.875,-35.156,-25.879,-17.090,122.070
1687530582.044,-40.039,-35.156,-25.879,-26.367,67.383
1687530582.048,-31.738,-33.203,-23.438,-16.602,276.367
1687530582.052,-28.320,-38.086,-25.879,-6.836,232.910
1687530582.056,-36.133,-41.016,-24.902,-14.160,-6.836
1687530582.060,-48.828,-37.109,-24.414,-21.484,58.105
1687530582.061,-33.691,-39.062,-23.926,-15.137,122.559
1687530582.065,-15.137,-36.133,-20.508,-15.625,36.621
1687530582.069,-15.625,-33.691,-22.949,-14.648,-5.371
1687530582.073,-31.738,-38.086,-30.762,-6.836,51.270
1687530582.077,-41.016,-38.086,-32.227,-21.973,118.652
1687530582.081,-31.250,-31.738,-36.133,-38.086,54.199
1687530582.085,-18.066,-28.320,-39.551,-30.762,15.625
1687530582.088,-10.742,-30.762,-36.133,-14.160,213.379
1687530582.092,-22.949,-27.832,-32.227,-9.766,455.566
1687530582.096,-35.645,-26.855,-28.320,-17.090,235.840
1687530582.100,-28.809,-32.715,-29.297,-22.949,-9.277
1687530582.104,-19.531,-34.180,-30.273,-25.391,57.129
1687530582.121,-18.555,-38.574,-28.809,-22.461,55.664
1687530582.125,-20.996,-41.992,-26.855,-16.113,100.098
1687530582.129,-36.621,-37.109,-27.344,-23.926,175.781
1687530582.133,-46.875,-35.645,-28.320,-28.320,269.531
1687530582.137,-31.738,-34.668,-30.273,-25.879,140.137
1687530582.141,-13.672,-31.738,-32.227,-18.066,-34.668
1687530582.145,-17.578,-35.645,-32.715,-15.137,56.152
1687530582.148,-30.273,-38.574,-33.203,-10.742,387.695
1687530582.152,-20.996,-36.133,-28.320,-15.625,419.922
1687530582.156,-0.977,-33.203,-22.461,-26.367,54.688
1687530582.160,3.906,-29.297,-27.832,-22.949,14.160
1687530582.164,-7.324,-26.855,-29.785,-16.602,110.352
1687530582.153,-26.367,-25.879,-23.926,-16.113,95.703
1687530582.157,-24.414,-25.879,-25.391,-25.391,-0.977
1687530582.161,-12.695,-27.832,-27.832,-25.879,31.250
1687530582.165,-10.742,-33.691,-30.273,-24.902,41.504
1687530582.169,-19.531,-37.598,-34.668,-27.832,11.230
1687530582.173,-40.527,-37.109,-39.551,-27.344,122.070
1687530582.177,-46.387,-34.668,-41.016,-30.273,243.652
1687530582.180,-33.203,-29.297,-38.086,-30.762,167.969
1687530582.184,-22.949,-24.902,-36.621,-24.414,90.820
1687530582.188,-27.344,-24.902,-33.203,-22.949,109.375
1687530582.192,-45.410,-25.879,-30.762,-20.996,191.406
1687530582.196,-50.293,-23.438,-31.250,-15.137,419.434
1687530582.196,-40.039,-24.902,-34.668,-24.414,203.613
1687530582.200,-27.832,-32.715,-37.109,-28.320,-75.195
1687530582.204,-23.926,-33.203,-37.598,-18.555,89.355
1687530582.208,-41.504,-32.227,-36.621,-26.855,172.363
1687530582.212,-42.969,-31.250,-39.551,-34.180,107.422
1687530582.216,-35.156,-34.180,-41.504,-30.273,82.031
1687530582.220,-29.785,-31.738,-40.039,-17.578,300.293
1687530582.223,-17.578,-25.391,-36.621,-14.648,321.289
1687530582.227,-26.855,-31.250,-35.156,-28.809,-4.395
1687530582.231,-31.738,-29.785,-36.621,-40.527,7.812
1687530582.235,-16.602,-26.367,-37.109,-43.457,48.828
1687530582.239,-7.324,-30.762,-39.551,-40.039,57.129
1687530582.244,-10.254,-29.785,-36.133,-37.109,-38.574
1687530582.248,-20.996,-26.367,-36.133,-33.203,23.438
1687530582.252,-34.180,-23.926,-36.621,-41.992,164.551
1687530582.256,-28.320,-21.484,-34.180,-45.898,74.707
1687530582.260,-12.207,-25.391,-33.203,-39.062,29.297
1687530582.264,-12.695,-27.344,-31.738,-25.391,304.688
1687530582.268,-29.297,-26.367,-33.691,-13.184,472.656
1687530582.271,-43.457,-25.391,-32.715,-26.367,189.941
1687530582.275,-30.762,-23.438,-29.297,-36.621,93.750
1687530582.279,-21.973,-23.926,-29.297,-26.855,236.328
1687530582.283,-21.973,-23.926,-31.738,-24.414,196.289
1687530582.287,-23.926,-24.414,-27.344,-19.043,53.711
1687530582.301,-41.016,-24.902,-25.879,-22.949,83.008
1687530582.305,-47.852,-28.320,-32.227,-46.875,53.223
1687530582.309,-33.691,-30.762,-33.203,-47.363,34.668
1687530582.313,-25.879,-35.156,-34.668,-42.969,144.531
1687530582.317,-28.320,-35.645,-35.645,-42.480,156.738
1687530582.321,-41.992,-32.227,-33.203,-37.109,405.273
1687530582.325,-43.945,-33.203,-36.621,-39.551,580.078
1687530582.328,-41.016,-41.016,-45.410,-51.758,143.066
1687530582.332,-22.461,-44.922,-36.621,-32.227,-20.996
1687530582.336,-7.812,-30.273,-27.344,-4.883,181.152
1687530582.340,-42.480,-13.672,-41.992,-25.879,127.441
1687530582.344,-54.688,-11.230,-53.223,-62.012,12.207
1687530582.347,-40.527,-15.137,-62.988,-72.754,9.277
1687530582.351,-35.645,-12.207,-70.801,-76.172,16.602
1687530582.355,-48.340,-0.488,-78.125,-82.520,80.566
1687530582.359,-66.406,2.441,-89.844,-88.379,134.277
1687530582.363,-70.801,2.930,-97.168,-92.285,218.262
1687530582.367,-64.453,10.742,-103.027,-94.727,300.293
1687530582.371,-56.641,18.066,-112.305,-105.469,189.941
1687530582.374,-68.359,20.508,-118.652,-113.281,95.215
1687530582.378,-86.914,22.949,-124.023,-107.910,191.895
1687530582.382,-85.938,27.832,-134.766,-107.422,339.355
1687530582.386,-83.496,30.762,-144.531,-123.047,115.234
1687530582.390,-74.219,36.133,-148.438,-125.000,-13.184
1687530582.391,-70.312,39.551,-150.879,-125.977,46.875
1687530582.395,-83.008,36.133,-151.855,-130.371,97.656
1687530582.399,-85.449,36.621,-155.273,-140.625,79.102
1687530582.403,-72.266,38.086,-150.879,-140.137,-2.441
1687530582.407,-58.594,34.668,-145.996,-110.840,110.352
1687530582.411,-56.641,31.250,-145.508,-98.145,133.789
1687530582.415,-59.570,29.297,-137.695,-101.074,51.270
1687530582.418,-60.547,25.879,-127.930,-98.145,93.750
1687530582.422,-53.711,18.555,-123.047,-91.309,261.719
1687530582.426,-44.434,16.113,-116.699,-84.473,314.453
1687530582.430,-37.598,19.043,-109.375,-79.102,26.855
1687530582.434,-49.805,13.672,-107.422,-81.055,-5.859
1687530582.436,-61.035,12.207,-103.027,-80.566,31.738
1687530582.440,-47.852,13.672,-94.727,-76.660,-30.762
1687530582.444,-32.715,12.207,-88.379,-71.289,-52.734
1687530582.448,-25.879,11.230,-86.914,-51.758,69.824
1687530582.452,-27.832,7.324,-85.449,-43.945,109.863
1687530582.456,-40.039,7.324,-88.379,-55.176,102.539
1687530582.460,-36.133,11.230,-85.938,-60.547,95.703
1687530582.463,-24.414,7.812,-83.008,-52.246,180.176
1687530582.467,-20.996,3.418,-81.543,-45.410,345.703
1687530582.471,-29.785,0.488,-79.102,-52.734,198.730
1687530582.475,-44.922,-3.418,-73.730,-51.270,55.664
1687530582.479,-42.480,-1.465,-64.941,-45.410,133.789
1687530582.481,-29.297,-0.488,-65.430,-41.992,173.828
1687530582.485,-21.484,-9.766,-71.289,-45.410,17.090
1687530582.489,-31.738,-14.160,-70.312,-44.922,84.961
1687530582.493,-43.457,-9.766,-65.430,-35.156,338.379
1687530582.497,-41.016,-14.648,-63.965,-37.598,202.637
1687530582.501,-32.715,-22.949,-63.477,-45.898,78.613
1687530582.505,-23.926,-17.578,-60.059,-45.410,184.082
1687530582.508,-29.785,-10.742,-54.199,-35.645,335.938
1687530582.512,-47.363,-11.719,-50.293,-39.551,291.504
1687530582.516,-47.852,-13.184,-52.734,-54.199,2.930
1687530582.520,-30.762,-17.090,-55.664,-54.688,34.668
1687530582.524,-25.391,-20.996,-58.594,-47.852,129.883
1687530582.526,-26.855,-17.578,-56.641,-33.203,-43.945
1687530582.530,-40.527,-19.043,-54.199,-31.738,-109.863
1687530582.534,-48.828,-22.461,-50.781,-41.016,27.344
1687530582.538,-38.086,-24.414,-47.363,-37.598,68.359
1687530582.542,-28.320,-28.320,-52.734,-40.527,42.969
1687530582.546,-21.484,-20.996,-53.223,-45.410,45.898
1687530582.550,-34.180,-15.137,-48.828,-38.574,155.273
1687530582.553,-44.922,-14.648,-43.457,-31.250,358.398
1687530582.557,-32.715,-16.602,-43.945,-41.016,115.234
1687530582.561,-24.902,-20.508,-48.340,-41.504,-16.602
1687530582.565,-24.414,-23.926,-46.875,-32.715,115.723
1687530582.569,-35.156,-23.438,-45.898,-36.621,107.910
1687530582.572,-43.945,-23.926,-44.922,-38.574,55.664
1687530582.576,-30.273,-22.461,-43.945,-43.945,42.480
1687530582.580,-19.531,-20.508,-41.016,-35.156,362.305
1687530582.584,-13.672,-18.066,-36.133,-25.391,361.816
1687530582.588,-31.250,-19.043,-38.574,-25.391,55.176
1687530582.592,-43.457,-24.902,-40.039,-23.438,16.113
1687530582.596,-23.438,-20.508,-41.504,-20.996,299.316
1687530582.599,-20.996,-12.695,-45.898,-34.668,360.352
1687530582.603,-26.367,-11.719,-48.340,-45.898,-31.250
1687530582.607,-35.156,-15.137,-48.828,-43.945,26.855
1687530582.611,-51.758,-20.020,-49.316,-49.805,133.301
1687530582.615,-45.410,-20.020,-47.363,-46.875,55.664
1687530582.618,-27.832,-17.578,-44.922,-46.387,-12.207
1687530582.622,-20.996,-13.672,-41.992,-40.527,65.918
1687530582.626,-31.250,-12.207,-41.992,-28.809,108.398
1687530582.630,-43.945,-16.113,-47.363,-32.715,111.816
1687530582.634,-34.180,-11.230,-47.363,-39.551,99.121
1687530582.638,-20.996,-10.254,-42.480,-42.969,207.520
1687530582.642,-12.207,-13.672,-44.922,-33.203,473.633
1687530582.645,-16.602,-13.672,-44.922,-32.227,221.191
1687530582.649,-32.227,-16.602,-44.922,-38.086,5.859
1687530582.653,-18.555,-15.137,-43.457,-32.227,36.133
1687530582.657,3.906,-18.555,-42.480,-39.062,26.367
1687530582.661,7.812,-20.020,-44.922,-42.969,-10.742
1687530582.676,1.953,-17.578,-41.016,-30.273,14.648
1687530582.680,-18.555,-19.043,-44.434,-34.180,43.457
1687530582.684,-33.691,-25.391,-48.340,-46.387,109.375
1687530582.688,-23.926,-25.879,-43.457,-40.039,79.590
1687530582.692,-20.508,-21.484,-40.527,-41.992,-10.254
1687530582.696,-37.598,-23.438,-40.039,-41.016,259.766
1687530582.700,-52.246,-25.391,-39.062,-38.574,363.770
1687530582.703,-53.223,-28.809,-39.062,-46.875,163.086
1687530582.707,-48.340,-34.668,-37.598,-44.922,86.914
1687530582.711,-45.898,-33.691,-35.645,-34.180,221.191
1687530582.715,-44.434,-30.273,-36.133,-31.250,230.469
1687530582.719,-56.152,-27.832,-32.715,-24.902,-2.930
1687530582.721,-58.594,-23.926,-32.227,-22.949,15.137
1687530582.725,-43.457,-24.414,-33.691,-26.855,62.500
1687530582.729,-28.809,-26.855,-32.715,-24.902,-25.391
1687530582.733,-28.320,-24.902,-30.762,-26.367,-35.156
1687530582.737,-44.434,-24.902,-32.715,-24.414,73.730
1687530582.741,-41.504,-29.785,-38.086,-24.414,178.711
1687530582.745,-32.227,-26.855,-38.574,-31.250,132.324
1687530582.748,-26.855,-25.879,-37.598,-35.645,-15.137
1687530582.752,-27.832,-25.391,-37.598,-27.832,108.398
1687530582.756,-43.945,-23.926,-36.621,-21.973,354.980
1687530582.760,-46.875,-25.391,-35.156,-38.574,142.578
1687530582.764,-31.738,-24.902,-37.598,-48.340,-65.918
1687530582.766,-20.020,-22.461,-40.527,-44.434,-25.391
1687530582.770,-22.461,-18.555,-41.992,-40.039,39.062
1687530582.774,-36.621,-15.625,-38.574,-38.086,59.082
1687530582.778,-34.180,-15.625,-35.156,-31.250,4.395
1687530582.782,-24.902,-19.043,-37.598,-24.414,78.125
1687530582.786,-24.414,-28.809,-41.504,-25.879,142.090
1687530582.790,-23.438,-32.227,-39.551,-29.297,96.191
1687530582.793,-36.133,-26.367,-40.527,-25.879,66.895
1687530582.797,-49.316,-27.832,-45.410,-26.855,293.457
1687530582.801,-38.574,-31.738,-41.016,-35.156,304.688
1687530582.805,-25.391,-30.273,-36.133,-37.598,56.152
1687530582.809,-23.438,-26.855,-41.992,-36.621,110.840
1687530582.811,-35.156,-30.273,-39.062,-24.414,137.207
1687530582.815,-48.340,-33.203,-36.133,-21.973,82.031
1687530582.819,-46.387,-34.180,-41.992,-44.434,39.551
1687530582.823,-27.344,-33.691,-39.551,-44.922,65.918
1687530582.827,-18.066,-34.180,-38.086,-41.992,91.309
1687530582.831,-33.691,-37.598,-37.598,-42.480,122.559
1687530582.835,-45.410,-35.156,-35.645,-43.457,127.441
1687530582.838,-32.227,-30.762,-34.180,-39.551,200.684
1687530582.842,-20.996,-28.809,-32.715,-23.926,302.246
1687530582.846,-8.789,-27.832,-37.109,-21.973,107.910
1687530582.850,-3.906,-27.832,-40.039,-20.020,-51.270
1687530582.854,-28.320,-30.762,-37.598,-18.066,56.641
1687530582.857,-34.668,-34.668,-37.598,-24.902,108.887
1687530582.861,-20.508,-35.645,-36.133,-25.391,34.668
1687530582.865,-13.672,-34.180,-36.621,-22.949,19.043
1687530582.869,-13.184,-30.273,-38.086,-9.277,235.840
1687530582.873,-24.902,-32.715,-40.039,-7.324,334.473
1687530582.877,-27.832,-36.621,-43.945,-17.090,144.043
1687530582.881,-17.090,-34.668,-43.457,-22.949,77.637
1687530582.884,-12.207,-35.156,-45.410,-20.996,290.527
1687530582.888,-19.043,-37.109,-49.805,-20.996,329.102
1687530582.892,-29.297,-34.180,-42.480,-33.203,94.238
1687530582.896,-30.762,-28.809,-38.086,-42.969,130.371
1687530582.900,-26.855,-27.832,-41.016,-38.086,174.316
1687530582.902,-20.020,-29.785,-39.062,-36.621,145.508
1687530582.906,-23.926,-32.715,-34.668,-35.645,86.426
1687530582.910,-38.574,-27.832,-32.715,-25.879,114.746
1687530582.914,-46.875,-27.832,-32.227,-31.738,203.613
1687530582.918,-38.574,-28.809,-32.715,-36.621,104.980
1687530582.922,-35.156,-25.879,-36.621,-35.645,54.688
1687530582.926,-37.598,-29.297,-33.691,-26.855,244.629
1687530582.929,-45.898,-22.949,-30.273,-15.625,528.320
1687530582.933,-52.734,-15.625,-30.762,-24.902,259.766
1687530582.937,-39.062,-18.066,-30.762,-37.109,-6.348
1687530582.941,-27.832,-19.043,-31.250,-28.809,95.215
1687530582.945,-22.949,-19.043,-24.902,-21.484,140.137
1687530582.946,-31.250,-20.508,-21.484,-26.367,143.066
1687530582.950,-46.387,-27.832,-27.832,-41.992,146.484
1687530582.954,-41.016,-30.273,-32.715,-51.270,233.887
1687530582.958,-32.227,-27.832,-33.691,-44.922,183.105
1687530582.962,-30.762,-21.484,-30.762,-39.062,45.410
1687530582.966,-33.203,-19.531,-27.344,-28.809,73.242
1687530582.970,-43.457,-20.996,-24.902,-19.531,381.836
1687530582.973,-39.062,-24.414,-29.297,-23.926,526.855
1687530582.977,-24.414,-25.391,-27.832,-29.785,135.254
1687530582.981,-20.020,-23.926,-24.902,-29.785,-7.324
1687530582.985,-35.645,-29.297,-31.250,-30.762,104.492
1687530582.989,-52.246,-29.297,-34.668,-41.992,99.121
1687530582.993,-48.828,-29.297,-37.598,-54.199,4.395
1687530582.997,-41.016,-31.250,-35.156,-41.992,-28.809
1687530583.001,-35.645,-24.414,-33.203,-31.738,42.969
1687530583.005,-42.480,-23.438,-34.668,-33.691,74.707
1687530583.009,-48.828,-23.926,-29.297,-27.344,54.199
1687530583.013,-44.434,-22.461,-24.414,-29.785,219.238
1687530583.017,-39.062,-24.414,-26.855,-34.180,316.406
1687530583.020,-25.879,-27.344,-31.738,-22.461,106.934
1687530583.024,-15.137,-25.391,-28.320,-4.883,30.273
1687530583.028,-23.926,-19.043,-26.367,-7.324,182.617
1687530583.032,-29.297,-19.043,-34.668,-29.297,239.746
1687530583.036,-17.578,-20.996,-36.133,-37.109,62.012
1687530583.051,-5.859,-20.996,-33.203,-36.621,48.828
1687530583.055,-12.695,-22.461,-38.574,-35.156,82.520
1687530583.059,-38.574,-20.996,-35.645,-31.250,161.133
1687530583.063,-36.133,-23.438,-30.273,-28.320,126.953
1687530583.067,-20.508,-27.344,-34.668,-29.297,18.555
1687530583.071,-16.602,-24.902,-36.621,-23.926,282.227
1687530583.075,-17.578,-27.832,-33.203,-18.555,449.707
1687530583.078,-35.645,-29.785,-32.227,-23.926,130.371
1687530583.082,-46.875,-29.785,-34.668,-28.809,64.453
1687530583.086,-38.574,-30.762,-38.086,-28.809,113.281
1687530583.090,-28.320,-24.902,-40.039,-26.367,21.484
1687530583.094,-28.320,-22.461,-36.621,-22.461,-45.898
1687530583.096,-43.945,-22.949,-35.645,-17.090,21.973
1687530583.100,-44.922,-27.344,-41.016,-25.879,153.320
1687530583.104,-36.621,-35.645,-46.875,-35.645,76.172
1687530583.108,-31.738,-34.668,-41.992,-37.598,25.391
1687530583.112,-33.203,-31.738,-42.969,-45.898,38.086
1687530583.116,-49.805,-33.203,-43.457,-50.293,156.250
1687530583.120,-56.152,-32.715,-39.062,-48.828,177.734
1687530583.123,-37.598,-26.367,-39.062,-42.969,17.090
1687530583.127,-24.414,-25.391,-34.180,-36.621,110.352
1687530583.131,-24.902,-30.273,-34.668,-31.738,278.809
1687530583.135,-32.715,-34.668,-39.551,-30.762,56.152
1687530583.139,-46.875,-36.621,-34.180,-33.203,-41.992
1687530583.141,-48.340,-36.133,-30.273,-33.203,90.820
1687530583.145,-36.133,-30.273,-31.250,-25.879,56.152
1687530583.149,-26.855,-27.832,-30.273,-16.113,87.891
1687530583.153,-38.086,-30.762,-30.762,-15.625,177.246
1687530583.157,-49.805,-26.855,-32.715,-21.484,279.785
1687530583.161,-38.574,-32.715,-35.645,-27.832,285.645
1687530583.165,-25.879,-37.109,-38.574,-29.785,57.617
1687530583.168,-20.996,-32.715,-41.016,-23.926,22.461
1687530583.172,-25.879,-35.645,-38.574,-20.508,270.020
1687530583.176,-36.621,-33.203,-37.598,-24.902,258.789
1687530583.180,-38.574,-29.297,-38.574,-38.086,-58.105
1687530583.184,-28.320,-26.367,-40.527,-41.992,-7.324
1687530583.187,-18.066,-25.879,-45.410,-41.992,-8.789
1687530583.191,-28.320,-32.227,-48.340,-45.898,-76.660
1687530583.195,-47.363,-32.715,-45.898,-49.316,-28.320
1687530583.199,-48.828,-32.227,-42.969,-53.223,104.004
1687530583.203,-37.109,-35.645,-46.387,-51.270,133.789
1687530583.207,-28.320,-36.133,-46.387,-48.828,-10.742
1687530583.211,-36.133,-31.250,-39.062,-47.852,86.914
1687530583.214,-58.105,-37.109,-43.457,-50.781,223.633
1687530583.218,-58.594,-39.062,-46.387,-52.246,287.598
1687530583.222,-40.527,-33.691,-42.969,-47.363,110.840
1687530583.226,-32.715,-37.598,-39.062,-39.062,-67.383
1687530583.230,-30.273,-37.109,-38.574,-33.203,37.109
1687530583.231,-32.227,-35.156,-36.621,-26.367,169.922
1687530583.235,-34.668,-39.551,-37.109,-35.156,124.512
1687530583.239,-19.043,-35.645,-37.598,-40.527,36.133
1687530583.243,-6.348,-31.738,-32.227,-20.996,225.098
1687530583.247,-7.812,-36.133,-33.691,-18.555,227.539
1687530583.251,-22.461,-39.062,-36.133,-27.344,90.332
1687530583.255,-23.438,-36.621,-33.691,-30.762,141.602
1687530583.258,-10.254,-34.668,-32.227,-29.297,300.293
1687530583.262,-12.207,-35.156,-33.203,-30.762,384.766
1687530583.266,-10.742,-33.691,-34.668,-35.156,152.344
1687530583.270,-26.367,-32.715,-37.109,-36.133,92.773
1687530583.274,-41.992,-28.809,-38.574,-41.016,131.348
1687530583.277,-22.949,-27.344,-35.645,-42.969,65.918
1687530583.281,-11.719,-26.855,-32.227,-39.062,-33.691
1687530583.285,-13.672,-29.297,-32.715,-40.039,13.184
1687530583.289,-26.367,-28.320,-34.668,-43.945,78.613
1687530583.293,-39.551,-23.438,-33.203,-45.898,59.082
1687530583.297,-27.832,-26.855,-39.551,-53.223,58.105
1687530583.301,-17.578,-26.367,-42.480,-46.875,179.688
1687530583.304,-12.695,-21.973,-35.156,-33.691,502.441
1687530583.308,-15.137,-21.484,-30.762,-30.762,311.523
1687530583.312,-26.367,-22.461,-31.738,-39.062,19.043
1687530583.316,-21.484,-20.996,-28.809,-42.969,90.820
1687530583.320,-10.742,-17.578,-25.879,-38.574,39.062
1687530583.321,-13.672,-21.484,-26.855,-35.645,-39.551
1687530583.325,-24.902,-24.414,-29.785,-29.785,-39.062
1687530583.329,-37.109,-24.414,-31.738,-31.250,101.562
1687530583.333,-31.250,-23.438,-26.367,-36.621,101.562
1687530583.337,-23.438,-21.973,-27.344,-37.109,-4.395
1687530583.341,-19.531,-23.438,-37.598,-36.621,31.250
1687530583.345,-16.113,-25.879,-40.039,-28.320,277.832
1687530583.348,-22.949,-26.367,-40.039,-25.879,371.094
1687530583.352,-14.648,-22.949,-34.668,-38.574,20.996
1687530583.356,0.977,-19.531,-29.297,-40.527,-40.527
1687530583.360,8.789,-17.578,-35.645,-40.039,80.078
1687530583.364,5.859,-20.020,-37.109,-34.668,91.797
1687530583.368,-10.254,-17.090,-35.156,-27.344,39.551
1687530583.372,-16.113,-16.113,-34.668,-23.438,74.707
1687530583.376,-6.836,-21.973,-31.250,-23.438,111.328
1687530583.380,-1.953,-21.484,-33.691,-25.879,9.766
1687530583.384,-16.602,-25.391,-38.086,-23.926,25.879
1687530583.388,-37.109,-27.344,-34.180,-23.438,199.219
1687530583.392,-35.645,-25.879,-31.250,-23.926,322.266
1687530583.395,-20.020,-25.879,-30.273,-25.391,127.441
1687530583.399,-15.137,-25.391,-32.227,-23.926,0.488
1687530583.403,-28.320,-25.879,-35.645,-22.949,196.289
1687530583.407,-43.945,-27.832,-35.645,-22.949,231.934
1687530583.411,-40.039,-26.855,-32.227,-29.785,51.758
1687530583.426,-24.902,-23.438,-28.809,-32.715,86.914
1687530583.430,-20.996,-21.973,-29.297,-24.902,163.574
1687530583.434,-28.320,-27.832,-27.832,-15.137,189.453
1687530583.438,-42.480,-35.645,-27.344,-17.090,158.691
1687530583.442,-48.828,-35.156,-30.273,-25.879,106.934
1687530583.446,-37.598,-35.156,-31.738,-11.719,332.031
1687530583.450,-27.344,-38.574,-31.250,-3.418,405.273
1687530583.453,-26.855,-36.621,-33.691,-12.207,33.691
1687530583.457,-40.039,-31.250,-35.645,-10.254,-26.855
1687530583.461,-46.875,-33.203,-27.344,-17.578,161.621
1687530583.465,-34.668,-37.109,-25.879,-25.879,85.938
1687530583.469,-24.902,-38.574,-32.227,-25.879,-67.871
1687530583.472,-20.996,-34.180,-31.738,-25.391,-6.836
1687530583.476,-26.855,-32.227,-31.738,-24.902,81.055
1687530583.480,-34.180,-33.691,-29.785,-24.902,135.254
1687530583.484,-31.250,-29.297,-31.738,-25.879,14.160
1687530583.488,-24.902,-27.832,-36.133,-26.855,14.160
1687530583.492,-18.066,-24.414,-34.180,-24.902,301.758
1687530583.496,-24.414,-25.391,-36.133,-26.367,258.301
1687530583.499,-36.621,-28.320,-41.992,-34.180,64.941
1687530583.503,-29.785,-27.344,-41.016,-30.762,162.598
1687530583.507,-20.020,-28.809,-37.598,-23.438,289.551
1687530583.511,-21.973,-26.855,-34.180,-28.809,58.594
1687530583.515,-38.574,-22.461,-31.738,-27.832,10.742
1687530583.516,-51.270,-27.832,-38.086,-28.809,47.852
1687530583.520,-42.969,-32.227,-40.527,-35.156,-14.160
1687530583.524,-26.367,-27.832,-35.156,-29.785,-7.324
1687530583.528,-17.578,-25.391,-35.156,-16.113,6.348
1687530583.532,-25.879,-30.273,-36.133,-4.883,278.320
1687530583.536,-36.133,-33.203,-32.715,-3.906,395.508
1687530583.540,-35.156,-38.574,-35.645,-26.367,83.984
1687530583.543,-10.742,-32.227,-46.387,-24.414,-40.039
1687530583.547,14.160,-29.297,-37.109,8.789,246.582
1687530583.551,-5.371,-41.992,-24.414,9.766,358.887
1687530583.555,-39.551,-50.293,-20.020,-16.602,7.324
1687530583.559,-39.062,-56.641,-9.766,-25.879,-2.930
1687530583.561,-24.414,-62.988,-7.324,-19.043,87.891
1687530583.565,-29.297,-70.312,-3.906,-15.137,31.738
1687530583.569,-37.109,-75.195,7.812,-6.836,-28.320
1687530583.573,-52.734,-83.496,17.578,-7.324,11.719
1687530583.577,-58.594,-89.844,27.832,-12.207,95.215
1687530583.581,-48.828,-92.285,33.691,-5.859,95.703
1687530583.585,-45.410,-96.680,38.574,0.000,-2.930
1687530583.588,-55.176,-98.633,45.898,8.301,100.098
1687530583.592,-71.777,-98.145,56.641,10.742,384.766
1687530583.596,-68.848,-100.098,65.430,6.836,201.660
1687530583.600,-58.594,-109.863,67.383,-7.812,-4.883
1687530583.604,-56.152,-114.258,62.988,-13.672,78.125
1687530583.606,-50.781,-109.863,66.406,12.695,43.945
1687530583.610,-60.059,-106.934,74.707,20.020,5.371
1687530583.614,-67.871,-109.863,76.172,6.348,92.285
1687530583.618,-58.105,-113.770,72.266,6.348,277.832
1687530583.622,-49.805,-110.352,73.730,12.207,260.742
1687530583.626,-39.551,-105.957,83.008,18.555,155.273
1687530583.630,-44.434,-105.469,82.520,23.926,131.836
1687530583.633,-56.641,-109.375,72.754,16.602,280.762
1687530583.637,-44.434,-109.863,69.336,15.137,312.500
1687530583.641,-25.391,-107.422,67.871,23.438,98.633
1687530583.645,-16.113,-102.539,61.523,24.902,95.703
1687530583.649,-23.438,-96.191,50.781,30.762,131.836
1687530583.651,-36.133,-94.727,38.086,31.250,77.148
1687530583.655,-30.762,-88.867,33.203,21.973,-35.156
1687530583.659,-20.020,-83.496,32.715,19.043,47.852
1687530583.663,-16.602,-81.055,28.809,19.043,162.109
1687530583.667,-29.297,-73.730,20.020,15.137,106.445
1687530583.671,-41.992,-72.754,17.578,10.254,66.895
1687530583.675,-30.762,-71.289,17.090,2.441,184.570
1687530583.678,-15.137,-65.918,17.578,6.348,365.723
1687530583.682,-3.418,-62.012,14.648,9.766,212.402
1687530583.686,-6.836,-58.105,12.207,7.812,91.797
1687530583.690,-26.855,-60.547,13.184,-0.977,65.918
1687530583.694,-24.902,-59.082,18.555,-4.395,84.473
1687530583.697,-18.066,-56.641,13.672,0.000,147.949
1687530583.701,-19.043,-58.594,2.930,-20.508,-48.828
1687530583.705,-18.066,-57.129,-2.441,-17.090,138.184
1687530583.709,-33.691,-56.641,-3.906,-6.348,341.309
1687530583.713,-39.551,-54.199,-5.371,-21.973,69.824
1687530583.717,-25.879,-49.316,-7.812,-26.367,60.059
1687530583.721,-19.043,-49.805,-5.859,-23.438,360.840
1687530583.724,-22.949,-51.270,-2.930,-16.602,347.168
1687530583.728,-32.715,-47.363,-6.348,-18.066,18.555
1687530583.732,-38.086,-50.293,-19.531,-25.391,56.152
1687530583.736,-30.273,-55.176,-25.391,-25.391,41.016
1687530583.740,-15.625,-48.828,-20.020,-20.508,-23.926
1687530583.744,-15.625,-43.457,-19.531,-13.184,-20.020
1687530583.748,-37.109,-44.922,-20.996,-19.531,115.723
1687530583.752,-41.504,-45.898,-17.578,-23.438,182.617
1687530583.756,-23.926,-48.340,-13.184,-20.020,16.602
1687530583.760,-8.789,-44.434,-10.254,-15.625,-5.859
1687530583.764,-10.742,-40.039,-12.207,-4.883,165.527
1687530583.768,-27.344,-42.969,-14.160,-6.348,416.504
1687530583.771,-30.762,-41.992,-18.066,-27.344,252.441
1687530583.775,-19.531,-40.039,-23.438,-35.156,9.277
1687530583.779,-16.602,-40.039,-26.367,-27.832,91.797
1687530583.783,-16.113,-37.109,-25.879,-20.020,119.629
1687530583.787,-27.344,-37.598,-26.367,-19.531,65.430
1687530583.801,-37.598,-39.062,-28.320,-30.273,63.477
1687530583.805,-24.414,-37.109,-31.250,-41.016,48.828
1687530583.809,-13.672,-36.133,-29.785,-37.598,96.680
1687530583.813,-11.719,-37.598,-27.344,-26.367,142.090
1687530583.817,-24.414,-40.527,-27.832,-31.738,144.531
1687530583.821,-36.621,-39.062,-27.832,-38.086,332.520
1687530583.825,-29.297,-33.203,-29.297,-25.879,548.828
1687530583.828,-14.160,-32.227,-29.785,-19.043,211.426
1687530583.832,-6.348,-35.156,-28.809,-16.113,-27.832
1687530583.836,-26.855,-35.645,-29.785,-19.531,95.703
1687530583.840,-38.574,-36.621,-30.762,-24.414,24.902
1687530583.844,-26.855,-41.016,-29.297,-23.926,-70.801
1687530583.846,-20.508,-45.410,-31.738,-27.832,37.109
1687530583.850,-15.625,-40.527,-28.809,-20.020,110.352
1687530583.854,-28.320,-36.621,-26.367,-17.090,41.016
1687530583.858,-50.293,-41.504,-35.645,-26.367,11.719
1687530583.862,-41.504,-41.016,-36.621,-23.438,32.715
1687530583.866,-20.020,-33.691,-31.250,-23.926,105.469
1687530583.870,-5.859,-35.156,-32.227,-20.020,112.793
1687530583.873,-16.602,-38.574,-32.715,-11.230,128.906
1687530583.877,-38.086,-40.039,-30.762,-11.230,244.629
1687530583.881,-34.180,-43.457,-35.156,-13.184,403.320
1687530583.885,-19.043,-39.551,-29.785,-19.043,201.660
1687530583.889,-9.766,-33.691,-29.297,-17.090,-4.883
1687530583.891,-22.949,-34.668,-31.250,-13.184,14.160
1687530583.895,-37.109,-36.621,-27.832,-14.160,23.926
1687530583.899,-25.879,-35.156,-28.320,-18.555,35.156
1687530583.903,-14.160,-33.691,-26.855,-22.461,29.297
1687530583.907,-10.742,-29.785,-23.926,-10.742,173.828
1687530583.911,-17.578,-31.738,-23.926,-13.184,270.020
1687530583.915,-29.785,-37.598,-29.297,-23.438,165.039
1687530583.918,-30.273,-37.598,-32.715,-20.020,63.477
1687530583.922,-17.578,-38.086,-30.762,-14.160,227.539
1687530583.926,-6.348,-36.133,-27.344,-14.160,351.074
1687530583.930,-11.230,-34.668,-25.879,-16.602,86.426
1687530583.934,-25.879,-30.273,-25.391,-7.324,30.762
1687530583.936,-27.344,-28.809,-22.949,-10.742,119.141
1687530583.940,-22.949,-32.227,-23.438,-22.461,78.613
1687530583.944,-15.625,-32.715,-25.391,-19.043,15.137
1687530583.948,-14.648,-34.180,-30.273,-23.438,109.863
1687530583.952,-34.668,-38.086,-33.203,-28.809,174.805
1687530583.956,-40.039,-39.062,-36.133,-31.738,166.992
1687530583.960,-28.320,-33.203,-34.668,-40.039,167.480
1687530583.963,-20.020,-35.645,-31.738,-39.551,232.910
1687530583.967,-17.090,-37.109,-34.180,-36.621,303.711
1687530583.971,-32.227,-31.738,-39.551,-36.621,126.465
1687530583.975,-42.969,-34.668,-39.062,-43.457,28.809
1687530583.979,-28.320,-33.691,-37.598,-43.457,84.473
1687530583.981,-17.090,-32.227,-39.551,-46.875,76.660
1687530583.985,-15.137,-34.180,-36.621,-41.504,33.691
1687530583.989,-26.367,-36.621,-35.645,-31.738,95.703
1687530583.993,-41.016,-38.086,-39.551,-38.574,270.020
1687530583.997,-24.902,-37.109,-39.551,-44.434,226.074
1687530584.001,-3.906,-31.250,-36.621,-40.039,104.004
1687530584.005,-0.977,-27.832,-33.203,-28.320,173.828
1687530584.008,-13.184,-31.250,-32.715,-20.020,329.102
1687530584.012,-29.297,-34.668,-33.203,-23.926,287.598
1687530584.016,-29.297,-36.621,-34.668,-34.180,0.977
1687530584.020,-17.090,-33.691,-34.180,-30.762,-21.484
1687530584.024,-14.648,-34.180,-29.785,-21.973,96.680
1687530584.029,-31.250,-38.574,-32.227,-27.832,122.559
1687530584.033,-43.945,-37.109,-38.086,-40.039,104.004
1687530584.037,-30.762,-32.715,-44.922,-52.246,186.523
1687530584.041,-12.207,-34.668,-44.434,-49.805,160.645
1687530584.045,-1.465,-32.227,-41.504,-39.062,31.250
1687530584.049,-4.395,-29.785,-40.527,-36.133,67.383
1687530584.053,-14.648,-28.320,-34.668,-34.180,186.035
1687530584.056,-9.766,-24.902,-35.645,-40.039,270.020
1687530584.060,-1.465,-27.832,-38.574,-40.527,25.879
1687530584.064,-1.953,-29.785,-38.086,-27.832,-88.379
1687530584.068,-13.184,-29.785,-37.109,-29.785,21.484
1687530584.072,-35.645,-33.203,-38.574,-44.434,96.191
1687530584.071,-38.574,-34.180,-36.621,-51.758,16.602
1687530584.075,-23.438,-32.227,-37.109,-44.434,-37.109
1687530584.079,-19.043,-31.738,-37.109,-34.180,103.516
1687530584.083,-27.344,-27.832,-36.133,-27.832,173.828
1687530584.087,-49.316,-32.715,-38.574,-32.715,203.125
1687530584.091,-54.688,-38.574,-31.738,-45.410,147.949
1687530584.095,-41.992,-34.668,-28.809,-39.551,252.441
1687530584.098,-37.598,-34.668,-33.203,-34.180,500.977
1687530584.102,-37.598,-33.691,-27.832,-43.457,183.105
1687530584.106,-50.781,-35.645,-22.949,-41.992,-24.414
1687530584.110,-63.965,-41.504,-32.227,-49.316,84.961
1687530584.114,-56.641,-40.039,-36.621,-57.617,58.105
1687530584.118,-41.992,-31.250,-34.668,-50.293,-8.789
1687530584.122,-41.016,-31.738,-34.668,-40.527,10.254
1687530584.126,-57.129,-37.598,-33.691,-33.691,90.820
1687530584.130,-59.570,-37.109,-30.273,-33.203,91.797
1687530584.134,-38.574,-35.645,-31.738,-38.086,0.000
1687530584.138,-31.250,-40.039,-35.645,-42.480,103.516
1687530584.142,-39.551,-45.410,-32.227,-37.109,212.402
1687530584.145,-35.645,-46.875,-23.926,-13.672,165.527
1687530584.149,-22.461,-32.715,-27.832,-10.254,47.363
1687530584.153,-27.832,-20.508,-43.457,-36.133,105.469
1687530584.157,-38.086,-24.902,-53.223,-49.805,288.086
1687530584.161,-39.551,-21.484,-57.129,-62.500,57.617
1687530584.176,-49.316,-5.859,-64.453,-62.500,-20.020
1687530584.180,-56.641,3.418,-75.684,-73.242,41.992
1687530584.184,-50.781,6.348,-83.496,-95.703,158.691
1687530584.188,-43.457,9.766,-90.820,-97.168,83.984
1687530584.192,-51.758,13.184,-97.656,-105.469,-130.859
1687530584.196,-63.477,22.461,-107.910,-111.328,250.977
1687530584.200,-82.031,25.879,-120.117,-123.535,427.246
1687530584.203,-79.590,25.391,-125.977,-130.371,45.898
1687530584.207,-53.223,30.762,-130.859,-115.234,69.824
1687530584.211,-55.664,33.691,-138.672,-115.723,283.203
1687530584.215,-63.477,33.691,-144.043,-112.793,195.312
1687530584.219,-63.477,39.062,-151.367,-111.816,48.340
1687530584.221,-57.617,42.969,-158.203,-120.605,68.359
1687530584.225,-41.992,36.621,-156.250,-118.164,52.734
1687530584.229,-36.133,29.785,-157.227,-118.164,11.719
1687530584.233,-44.434,29.297,-158.691,-111.816,13.184
1687530584.237,-52.734,30.762,-154.785,-101.074,102.051
1687530584.241,-39.551,31.738,-145.508,-92.285,140.137
1687530584.245,-25.391,29.785,-142.090,-86.426,116.699
1687530584.248,-15.137,24.414,-138.672,-80.078,75.684
1687530584.252,-18.555,22.461,-135.254,-71.777,170.898
1687530584.256,-36.621,21.973,-130.371,-65.918,337.402
1687530584.260,-28.809,21.484,-116.211,-69.824,160.645
1687530584.264,-13.672,16.113,-111.328,-65.430,41.016
1687530584.266,-10.254,13.184,-104.004,-53.223,103.516
1687530584.270,-13.672,17.090,-95.703,-46.387,130.859
1687530584.274,-22.461,18.066,-94.727,-45.898,108.887
1687530584.278,-20.996,15.625,-93.750,-45.898,38.086
1687530584.282,-5.371,17.090,-89.355,-46.387,128.418
1687530584.286,8.789,18.066,-85.449,-43.457,191.406
1687530584.290,3.906,15.137,-84.961,-37.598,118.652
1687530584.293,-10.254,14.160,-80.078,-35.645,113.770
1687530584.297,-15.137,7.324,-76.660,-35.645,281.738
1687530584.301,-8.789,0.977,-77.637,-39.062,269.531
1687530584.305,-2.441,-1.465,-75.684,-31.250,13.672
1687530584.309,-6.836,-2.930,-67.383,-18.066,45.898
1687530584.311,-26.367,-2.930,-62.988,-24.414,76.660
1687530584.315,-36.621,-4.883,-59.570,-25.391,65.430
1687530584.319,-23.438,-10.254,-58.594,-17.090,-14.160
1687530584.323,-11.230,-12.207,-57.129,-12.695,62.500
1687530584.327,-16.113,-8.789,-56.152,-15.625,187.988
1687530584.331,-29.785,-7.812,-54.688,-20.508,145.020
1687530584.335,-38.574,-10.742,-51.758,-26.367,74.707
1687530584.338,-33.691,-15.137,-58.105,-30.273,135.254
1687530584.342,-23.438,-14.648,-59.082,-20.020,318.848
1687530584.346,-16.113,-13.672,-55.176,-20.508,141.113
1687530584.350,-22.461,-15.625,-56.152,-27.344,-28.809
1687530584.354,-34.180,-7.812,-53.223,-19.531,153.809
1687530584.356,-19.043,-4.883,-45.898,-13.184,146.973
1687530584.360,-7.812,-12.207,-44.434,-10.742,-0.977
1687530584.364,-11.719,-20.020,-51.270,-19.531,12.207
1687530584.368,-17.578,-20.020,-44.434,-16.113,270.020
1687530584.372,-31.250,-19.531,-39.062,-10.742,324.707
1687530584.376,-38.574,-23.926,-47.363,-32.715,130.859
1687530584.380,-27.832,-20.996,-49.805,-41.504,117.188
1687530584.383,-18.555,-18.066,-44.922,-31.250,293.457
1687530584.387,-29.785,-19.043,-43.945,-24.902,373.047
1687530584.391,-47.852,-24.414,-45.898,-35.645,45.898
1687530584.395,-47.852,-28.320,-44.434,-42.969,11.719
1687530584.399,-33.203,-23.926,-39.551,-38.574,31.738
1687530584.402,-27.344,-26.367,-41.504,-36.621,44.434
1687530584.406,-40.527,-33.691,-44.922,-38.574,91.309
1687530584.410,-51.758,-31.250,-44.434,-40.039,127.930
1687530584.414,-41.504,-29.785,-44.434,-42.480,166.016
1687530584.418,-25.879,-37.109,-45.410,-32.227,64.941
1687530584.422,-20.020,-27.832,-48.828,-36.621,97.168
1687530584.426,-23.926,-17.578,-54.688,-39.062,272.461
1687530584.429,-42.480,-24.414,-55.664,-29.785,537.598
1687530584.433,-49.316,-27.344,-48.828,-39.062,289.551
1687530584.437,-27.832,-26.367,-49.316,-43.457,-39.551
1687530584.441,-13.672,-24.902,-52.246,-33.691,-11.719
1687530584.445,-16.113,-19.531,-49.316,-24.414,12.695
1687530584.446,-31.738,-20.996,-45.898,-31.738,31.738
1687530584.450,-31.250,-23.438,-46.875,-40.039,86.914
1687530584.454,-20.020,-16.602,-39.551,-34.668,115.723
1687530584.458,-16.602,-18.555,-35.156,-29.297,76.172
1687530584.462,-15.137,-28.809,-41.016,-27.344,17.090
1687530584.466,-26.367,-30.762,-43.457,-26.855,105.469
1687530584.470,-28.809,-22.461,-37.598,-24.902,360.840
1687530584.473,-17.090,-21.484,-31.250,-20.508,395.508
1687530584.477,-8.789,-27.832,-32.715,-22.949,187.012
1687530584.481,-13.184,-26.367,-34.668,-17.578,121.582
1687530584.485,-31.250,-25.391,-32.227,-17.090,161.621
1687530584.489,-42.969,-27.344,-31.738,-30.273,81.543
1687530584.496,-29.297,-27.344,-32.715,-38.574,-74.707
1687530584.500,-9.277,-25.391,-33.691,-40.039,-23.926
1687530584.504,-10.254,-24.414,-33.203,-33.203,11.719
1687530584.508,-24.414,-25.879,-33.691,-31.250,-10.742
1687530584.512,-27.832,-24.902,-37.598,-35.156,-52.246
1687530584.516,-18.555,-24.902,-37.109,-29.297,50.293
1687530584.520,-11.230,-25.879,-32.715,-22.949,196.289
1687530584.523,-7.324,-25.879,-31.738,-17.578,48.340
1687530584.527,-20.508,-26.855,-37.109,-14.160,-5.371
1687530584.531,-34.668,-28.320,-36.133,-14.648,171.875
1687530584.535,-29.297,-28.320,-29.785,-20.996,272.949
1687530584.539,-20.996,-23.438,-31.250,-21.973,43.457
1687530584.551,-19.531,-19.531,-33.691,-21.973,-27.344
1687530584.555,-34.668,-22.949,-36.621,-26.855,104.492
1687530584.559,-50.293,-26.855,-38.086,-34.668,173.828
1687530584.563,-42.480,-27.832,-42.480,-43.457,89.844
1687530584.567,-23.926,-25.391,-43.945,-42.480,-20.020
1687530584.571,-19.531,-28.320,-41.016,-27.344,292.969
1687530584.575,-28.320,-29.785,-38.574,-22.949,501.953
1687530584.578,-31.738,-23.926,-33.691,-33.203,100.586
1687530584.582,-25.879,-20.996,-33.203,-44.922,-10.742
1687530584.586,-16.113,-26.855,-32.227,-44.922,131.348
1687530584.590,-12.207,-29.297,-36.133,-43.945,11.719
1687530584.594,-17.090,-24.414,-36.621,-36.621,-109.863
1687530584.584,-26.855,-20.996,-35.645,-34.668,61.523
1687530584.588,-23.438,-17.578,-34.668,-40.039,153.809
1687530584.592,-13.184,-19.531,-35.645,-44.434,-34.668
1687530584.596,-18.066,-26.367,-39.062,-45.410,-148.438
1687530584.600,-27.344,-25.391,-37.598,-44.922,-6.836
1687530584.604,-38.086,-19.531,-33.691,-47.852,171.875
1687530584.608,-37.109,-19.043,-29.297,-51.758,251.465
1687530584.611,-23.926,-19.531,-29.297,-47.363,165.527
1687530584.615,-12.207,-24.902,-36.133,-36.621,170.410
1687530584.619,-18.066,-28.809,-38.086,-26.855,346.191
1687530584.623,-30.762,-30.762,-33.203,-24.414,152.832
1687530584.627,-30.762,-31.738,-29.785,-35.156,-41.016
1687530584.641,-18.555,-27.344,-32.715,-36.621,-17.578
1687530584.645,-13.672,-24.414,-34.668,-33.203,5.371
1687530584.649,-25.879,-26.367,-32.715,-39.062,20.020
1687530584.653,-39.062,-33.203,-39.062,-41.504,60.059
1687530584.657,-38.086,-34.668,-39.551,-35.645,239.746
1687530584.661,-25.391,-31.250,-34.668,-33.691,375.000
1687530584.665,-9.277,-30.273,-36.133,-42.969,124.512
1687530584.668,-8.789,-32.715,-35.645,-43.945,-12.695
1687530584.672,-25.879,-32.715,-40.039,-41.992,187.988
1687530584.676,-41.016,-31.250,-45.898,-51.758,213.867
1687530584.680,-33.203,-32.227,-41.016,-58.105,-23.926
1687530584.684,-20.508,-32.227,-40.527,-51.270,60.547
1687530584.686,-16.602,-30.273,-41.504,-37.109,91.309
1687530584.690,-25.391,-25.879,-38.086,-24.414,27.832
1687530584.694,-40.039,-28.320,-39.551,-24.902,27.832
1687530584.698,-36.621,-33.203,-38.574,-34.180,81.055
1687530584.702,-21.973,-31.738,-34.668,-25.391,148.926
1687530584.706,-22.461,-31.738,-32.715,-19.531,169.922
1687530584.710,-36.621,-32.227,-30.273,-26.855,90.820
1687530584.713,-57.129,-32.715,-30.762,-29.785,247.070
1687530584.717,-50.781,-31.738,-32.227,-20.996,497.070
1687530584.721,-30.273,-30.273,-27.344,-17.090,283.691
1687530584.725,-22.949,-35.156,-29.785,-22.461,106.934
1687530584.729,-33.691,-41.504,-37.109,-25.391,150.879
1687530584.731,-44.434,-37.109,-32.227,-27.832,95.703
1687530584.735,-28.809,-29.297,-27.832,-33.203,47.363
1687530584.739,-9.277,-28.809,-32.227,-33.691,62.500
1687530584.743,2.930,-29.785,-30.762,-20.996,270.508
1687530584.747,1.953,-26.367,-26.367,-10.742,261.230
1687530584.751,-10.742,-24.902,-30.273,-21.973,81.543
1687530584.755,-11.719,-29.785,-38.574,-41.992,69.336
1687530584.758,-1.465,-30.762,-36.133,-40.527,306.641
1687530584.762,1.953,-32.227,-30.762,-28.809,347.656
1687530584.766,-13.184,-34.668,-32.715,-25.391,43.945
1687530584.770,-32.715,-30.273,-32.227,-22.461,0.488
1687530584.774,-32.227,-28.809,-32.227,-24.902,30.762
1687530584.777,-26.367,-26.367,-30.762,-26.855,22.461
1687530584.781,-23.926,-27.344,-37.598,-31.250,11.719
1687530584.785,-29.785,-24.414,-41.504,-34.668,70.312
1687530584.789,-48.340,-22.461,-35.156,-35.156,41.016
1687530584.793,-41.504,-22.949,-34.668,-36.133,33.691
1687530584.797,-29.785,-25.391,-42.480,-43.945,86.426
1687530584.801,-27.832,-23.926,-44.434,-43.457,205.566
1687530584.804,-29.297,-21.484,-34.180,-25.391,369.629
1687530584.808,-47.852,-23.438,-28.809,-24.414,179.199
1687530584.812,-42.969,-24.414,-30.273,-35.156,52.246
1687530584.816,-27.832,-24.902,-28.809,-35.156,171.387
1687530584.820,-26.855,-29.785,-25.879,-27.832,186.035
1687530584.822,-25.879,-32.715,-25.879,-23.926,-11.230
1687530584.826,-39.062,-34.668,-31.250,-27.344,-0.977
1687530584.830,-47.852,-35.645,-37.598,-30.273,214.844
1687530584.834,-33.203,-32.227,-31.250,-23.438,267.090
1687530584.838,-20.508,-27.832,-27.832,-26.855,94.727
1687530584.842,-15.137,-23.926,-28.320,-27.832,77.148
1687530584.846,-30.273,-23.926,-24.414,-16.113,363.281
1687530584.849,-44.434,-28.320,-30.273,-22.461,391.113
1687530584.853,-30.273,-31.738,-30.273,-36.621,39.551
1687530584.857,-19.043,-26.855,-34.668,-39.551,52.734
1687530584.861,-25.879,-27.344,-37.109,-36.621,152.344
1687530584.865,-37.109,-33.691,-34.668,-34.668,83.008
1687530584.869,-41.504,-29.785,-38.086,-31.738,64.453
1687530584.873,-33.203,-28.320,-34.668,-20.020,70.801
1687530584.877,-19.043,-34.668,-22.461,-17.090,129.883
1687530584.881,-20.508,-33.203,-23.926,-27.344,68.359
1687530584.885,-40.527,-32.715,-34.180,-40.527,13.672
1687530584.889,-45.898,-31.738,-33.691,-41.504,190.918
1687530584.893,-33.691,-27.832,-32.715,-30.273,456.055
1687530584.896,-22.461,-32.715,-32.715,-34.668,244.141
1687530584.900,-16.602,-34.668,-34.668,-32.715,-28.809
1687530584.904,-26.855,-31.250,-31.250,-23.438,71.289
1687530584.908,-41.016,-31.250,-25.879,-30.762,44.434
1687530584.912,-31.250,-30.273,-29.297,-35.156,13.672
1687530584.927,-20.996,-31.250,-29.297,-31.250,10.254
1687530584.931,-15.625,-28.320,-24.414,-22.949,62.988
1687530584.935,-15.625,-26.367,-23.926,-17.090,175.781
1687530584.939,-32.715,-30.273,-28.809,-31.250,198.730
1687530584.943,-26.855,-30.762,-30.273,-48.828,128.906
1687530584.947,-8.301,-29.785,-31.250,-42.969,254.395
1687530584.951,-2.441,-26.855,-34.668,-19.531,522.949
1687530584.954,-2.930,-23.926,-32.227,-7.324,286.621
1687530584.958,-12.207,-23.438,-28.809,-3.906,21.973
1687530584.962,-17.090,-26.367,-32.715,-9.766,74.707
1687530584.966,-5.859,-22.461,-30.273,-17.090,54.688
1687530584.970,3.906,-17.090,-27.832,-21.973,37.598
1687530584.971,-8.301,-21.484,-36.133,-24.902,55.664
1687530584.975,-26.367,-22.949,-35.645,-25.391,74.219
1687530584.979,-28.320,-23.926,-34.668,-37.598,-8.301
1687530584.983,-15.625,-24.414,-34.668,-44.922,-61.523
1687530584.987,-9.277,-27.344,-32.715,-38.086,77.148
1687530584.991,-13.672,-26.855,-32.715,-27.832,260.742
1687530584.995,-21.973,-20.020,-29.785,-23.438,255.859
1687530584.998,-24.414,-20.020,-29.297,-27.344,110.352
1687530585.002,-14.648,-24.902,-30.762,-29.785,114.258
1687530585.006,-13.184,-30.762,-33.203,-25.879,322.754
1687530585.010,-15.625,-32.227,-31.738,-18.555,164.551
1687530585.014,-22.949,-29.297,-28.320,-14.648,0.488
1687530585.016,-31.250,-28.320,-27.832,-16.602,45.898
1687530585.020,-19.531,-31.250,-28.320,-19.531,58.594
1687530585.024,-9.277,-34.668,-34.180,-16.113,104.004
1687530585.028,-10.742,-33.691,-33.691,-4.883,122.559
1687530585.032,-29.297,-38.086,-28.809,0.488,252.930
1687530585.036,-40.527,-40.039,-30.273,-12.695,310.547
1687530585.040,-23.926,-33.203,-31.250,-17.578,120.117
1687530585.043,-11.719,-31.250,-32.227,-20.020,128.906
1687530585.047,-20.996,-33.203,-37.598,-20.996,339.355
1687530585.051,-37.598,-31.738,-34.180,-14.160,344.727
1687530585.055,-44.922,-30.273,-27.832,-24.414,33.691
1687530585.059,-32.227,-30.273,-32.715,-24.414,-10.742
1687530585.061,-13.672,-30.273,-32.715,-16.602,79.590
1687530585.065,-9.277,-35.156,-27.344,-7.812,4.395
1687530585.069,-25.391,-39.551,-29.297,-11.230,-31.738
1687530585.073,-41.992,-39.551,-34.180,-25.391,83.496
1687530585.077,-30.273,-34.668,-29.785,-26.855,73.242
1687530585.081,-20.508,-34.668,-33.203,-25.879,66.895
1687530585.085,-19.043,-37.109,-40.039,-21.973,71.289
1687530585.088,-27.344,-34.668,-33.691,-17.578,150.879
1687530585.092,-42.969,-27.832,-32.715,-15.137,322.754
1687530585.096,-30.273,-21.973,-32.227,-17.090,130.859
1687530585.100,-21.484,-31.250,-33.691,-25.879,-26.367
1687530585.104,-24.414,-39.062,-36.133,-20.508,117.676
1687530585.106,-29.785,-35.156,-36.621,-16.602,147.461
1687530585.110,-42.969,-37.598,-36.621,-22.949,17.578
1687530585.114,-34.180,-37.598,-33.203,-21.484,81.543
1687530585.118,-11.230,-31.738,-31.738,-13.184,224.121
1687530585.122,3.418,-25.391,-33.691,-8.301,158.691
1687530585.126,0.977,-25.391,-35.156,-7.324,93.262
1687530585.130,-20.508,-30.762,-36.621,-16.602,161.621
1687530585.133,-20.996,-32.715,-38.086,-22.949,302.246
1687530585.137,-7.324,-34.668,-41.504,-23.926,237.793
1687530585.141,1.465,-29.297,-38.574,-24.902,7.324
1687530585.145,1.465,-18.555,-33.691,-19.043,88.379
1687530585.149,-21.484,-23.438,-37.109,-20.996,103.516
1687530585.153,-26.855,-29.297,-41.992,-24.902,40.039
1687530585.157,-12.207,-24.902,-41.992,-29.297,3.906
1687530585.161,-15.625,-26.367,-37.109,-26.855,71.289
1687530585.165,-15.625,-25.391,-32.715,-12.207,174.316
1687530585.169,-24.902,-25.879,-34.180,-6.836,135.742
1687530585.173,-37.598,-29.785,-34.668,-19.531,99.609
1687530585.177,-30.762,-31.738,-34.180,-20.996,162.598
1687530585.180,-21.484,-35.645,-38.574,-15.625,324.219
1687530585.184,-20.020,-32.715,-41.992,-13.184,116.211
1687530585.188,-40.039,-30.762,-47.363,-13.184,-34.668
1687530585.192,-41.016,-31.250,-48.828,-21.484,86.426
1687530585.196,-20.508,-25.879,-43.457,-16.113,49.805
1687530585.197,-13.672,-25.879,-41.992,-8.301,-69.824
1687530585.201,-8.301,-28.809,-42.480,-5.859,-38.574
1687530585.205,-16.113,-28.320,-41.016,-3.906,231.934
1687530585.209,-30.273,-28.809,-41.992,-11.719,236.816
1687530585.213,-17.578,-29.785,-38.086,-15.137,8.789
1687530585.217,-3.906,-28.809,-32.715,-10.742,70.801
1687530585.221,-2.930,-31.250,-31.250,-2.441,253.418
1687530585.224,-14.160,-35.156,-33.203,1.953,381.836
1687530585.228,-19.531,-32.227,-34.668,-10.742,138.184
1687530585.232,-15.625,-35.156,-30.273,-18.555,-13.184
1687530585.236,-3.906,-34.668,-25.879,-11.719,79.102
1687530585.240,0.488,-30.273,-23.438,-8.789,50.293
1687530585.243,-19.043,-35.645,-29.297,-17.578,26.367
1687530585.247,-42.969,-37.598,-32.227,-27.344,79.102
1687530585.251,-42.480,-35.645,-34.180,-30.273,18.555
1687530585.255,-22.949,-30.762,-34.668,-21.973,-77.148
1687530585.259,-17.090,-26.367,-34.668,-13.184,-44.922
1687530585.263,-24.414,-33.691,-43.945,-13.184,109.863
1687530585.267,-37.109,-38.086,-43.945,-13.184,449.707
1687530585.270,-24.414,-36.621,-45.410,-24.414,270.508
1687530585.274,-3.906,-35.156,-48.828,-27.344,-35.645
1687530585.278,0.488,-34.668,-41.504,-20.508,75.684
1687530585.282,-10.254,-35.645,-37.598,-18.555,129.395
1687530585.286,-24.414,-38.574,-35.645,-18.555,115.234
1687530585.301,-26.855,-38.574,-35.156,-25.391,101.074
1687530585.305,-17.578,-35.156,-33.203,-24.414,98.633
1687530585.309,-14.160,-31.738,-36.621,-20.020,153.320
1687530585.313,-21.973,-32.715,-42.480,-21.973,161.133
1687530585.317,-32.715,-32.227,-37.109,-19.531,51.270
1687530585.321,-37.598,-32.227,-39.062,-14.160,291.016
1687530585.325,-25.879,-33.203,-40.039,-10.254,485.352
1687530585.328,-13.184,-33.203,-37.598,-15.137,172.363
1687530585.332,-20.020,-36.621,-42.969,-13.184,30.762
1687530585.336,-37.598,-35.645,-39.551,-6.348,230.957
1687530585.340,-34.180,-33.203,-36.133,-15.625,265.137
1687530585.344,-20.508,-34.180,-37.109,-23.926,39.551
1687530585.348,-13.672,-28.320,-32.227,-9.277,2.441
1687530585.352,-16.113,-26.367,-29.785,-9.766,35.645
1687530585.356,-37.109,-26.367,-29.785,-19.043,56.641
1687530585.360,-39.062,-30.273,-34.180,-24.902,11.719
1687530585.364,-27.344,-40.039,-36.133,-29.297,120.117
1687530585.368,-24.414,-37.109,-35.645,-29.785,210.938
1687530585.372,-21.973,-31.738,-35.645,-25.879,151.855
1687530585.375,-42.969,-34.668,-36.621,-30.762,103.516
1687530585.379,-52.734,-35.645,-41.504,-41.016,153.809
1687530585.383,-41.504,-35.156,-42.969,-34.668,418.945
1687530585.387,-33.691,-35.645,-41.016,-33.203,181.152
1687530585.391,-20.996,-35.645,-35.645,-28.809,-56.641
1687530585.391,-27.344,-33.691,-37.598,-28.320,43.945
1687530585.395,-40.039,-34.668,-45.410,-44.434,-17.578
1687530585.399,-9.766,-32.715,-48.828,-25.391,29.785
1687530585.403,3.418,-35.645,-34.668,-5.859,115.234
1687530585.407,-23.438,-42.480,-20.020,-22.461,100.586
1687530585.411,-34.668,-44.922,-16.602,-17.090,170.410
1687530585.415,-45.410,-51.270,-11.230,-17.578,176.758
1687530585.418,-49.805,-62.988,-6.348,-40.039,32.227
1687530585.422,-37.598,-72.266,4.395,-36.133,182.129
1687530585.426,-40.039,-81.055,14.648,-24.414,352.051
1687530585.430,-49.805,-83.984,17.090,-23.926,89.355
1687530585.434,-63.965,-90.332,23.926,-19.043,28.320
1687530585.436,-71.777,-97.168,31.738,-16.602,143.066
1687530585.440,-58.594,-96.680,40.039,-9.766,-8.301
1687530585.444,-51.758,-103.027,44.922,-5.859,-79.590
1687530585.448,-74.219,-109.375,44.434,-19.531,26.855
1687530585.452,-97.168,-112.305,49.805,-25.879,19.043
1687530585.456,-100.586,-119.629,56.641,-26.367,90.332
1687530585.460,-82.031,-124.023,62.012,-20.508,147.461
1687530585.463,-70.801,-120.605,64.941,-17.578,212.891
1687530585.467,-72.266,-117.188,65.430,-7.812,347.168
1687530585.471,-85.449,-116.699,71.777,3.418,164.062
1687530585.475,-85.449,-119.629,74.707,-7.324,31.738
1687530585.479,-61.523,-121.582,79.102,-0.977,56.641
1687530585.482,-53.223,-118.164,79.102,-0.977,71.777
1687530585.486,-51.758,-120.117,73.730,-6.836,133.301
1687530585.490,-55.176,-120.117,76.660,-5.859,142.090
1687530585.494,-55.664,-116.699,76.172,-9.277,251.465
1687530585.498,-40.527,-115.723,70.312,-8.301,270.020
1687530585.502,-7.812,-111.328,66.895,7.324,58.594
1687530585.506,13.672,-109.863,62.988,21.973,89.844
1687530585.509,-5.859,-108.887,57.617,20.996,313.965
1687530585.513,-5.371,-104.492,54.688,17.578,231.445
1687530585.517,6.348,-99.121,55.176,18.555,-78.613
1687530585.521,-5.859,-99.121,51.270,13.672,-38.574
1687530585.525,-23.926,-102.539,46.387,10.742,-9.277
1687530585.527,-31.738,-94.727,46.387,21.973,-24.414
1687530585.531,-24.902,-81.055,40.039,20.996,-51.270
1687530585.535,-14.160,-79.102,31.250,8.301,-39.551
1687530585.539,-4.883,-84.961,21.484,9.277,36.133
1687530585.543,1.953,-83.008,15.137,23.438,45.410
1687530585.547,-7.324,-76.660,12.695,28.320,139.648
1687530585.551,-14.160,-76.660,12.207,24.902,301.270
1687530585.554,0.000,-73.730,13.184,28.809,460.938
1687530585.558,18.066,-67.871,9.766,29.297,267.090
1687530585.562,19.531,-67.871,4.395,38.086,-17.578
1687530585.566,6.836,-67.871,3.906,49.316,58.594
1687530585.570,-3.418,-61.035,5.859,32.227,79.590
1687530585.571,1.465,-56.152,-0.488,20.508,2.930
1687530585.575,7.812,-56.641,-7.324,23.438,-2.441
1687530585.579,4.395,-53.711,-8.301,26.855,121.094
1687530585.583,1.953,-47.852,-12.207,23.438,187.012
1687530585.587,-5.371,-47.363,-6.836,17.090,108.887
1687530585.591,-2.930,-47.852,0.488,11.230,25.391
1687530585.595,8.789,-44.434,-4.395,13.184,330.078
1687530585.598,9.766,-45.410,-9.277,24.414,584.961
1687530585.602,-2.930,-46.387,-12.695,22.949,196.777
1687530585.606,-19.043,-46.875,-16.113,16.113,22.461
1687530585.610,-14.648,-51.758,-17.578,0.977,69.336
1687530585.614,-1.465,-46.387,-16.113,-6.348,65.430
1687530585.618,5.859,-43.457,-18.066,0.000,67.383
1687530585.622,-3.906,-46.875,-19.531,-0.977,76.172
1687530585.626,-25.879,-48.340,-17.578,-4.395,105.469
1687530585.630,-24.414,-48.828,-18.066,-15.137,21.973
1687530585.634,-14.160,-45.410,-18.066,-23.926,-76.660
1687530585.638,-5.859,-40.527,-15.625,-16.602,176.758
1687530585.642,-9.766,-40.039,-20.508,-8.301,333.984
1687530585.645,-24.902,-42.480,-21.973,-18.555,86.426
1687530585.649,-22.461,-44.922,-21.973,-30.762,52.246
1687530585.653,-8.301,-43.945,-24.414,-23.438,162.598
1687530585.657,1.465,-40.527,-26.855,-21.973,261.719
1687530585.661,-1.465,-37.598,-29.785,-26.367,116.699
1687530585.676,-19.531,-34.180,-29.297,-24.902,-55.664
1687530585.680,-22.949,-37.109,-28.320,-24.902,1.953
1687530585.684,-6.836,-35.645,-24.414,-27.832,98.145
1687530585.688,-0.977,-31.250,-28.809,-27.344,24.902
1687530585.692,-7.812,-33.203,-35.156,-14.160,-50.781
1687530585.696,-22.949,-38.086,-34.668,-13.672,316.895
1687530585.700,-19.531,-42.969,-33.203,-19.531,530.273
1687530585.703,0.000,-38.574,-27.832,-20.508,139.160
1687530585.707,6.836,-36.133,-25.879,-13.184,8.789
1687530585.711,3.906,-38.086,-25.391,-0.488,134.766
1687530585.715,-5.371,-38.574,-25.391,7.812,123.535
1687530585.719,-13.184,-40.527,-28.320,1.465,25.391
1687530585.709,-3.906,-38.574,-26.855,6.348,8.301
1687530585.713,12.695,-34.668,-19.043,8.789,77.637
1687530585.717,11.719,-32.715,-17.578,3.418,97.656
1687530585.721,-3.906,-32.227,-20.996,6.836,19.043
1687530585.725,-12.695,-32.227,-17.578,-0.488,108.887
1687530585.729,-0.488,-29.297,-19.531,-5.859,314.453
1687530585.733,9.277,-30.762,-22.949,3.418,202.148
1687530585.736,14.648,-32.227,-22.949,18.555,45.410
1687530585.740,-2.930,-33.691,-26.367,19.043,158.203
1687530585.744,-26.367,-34.668,-28.320,16.113,341.309
1687530585.748,-14.648,-31.738,-26.367,5.859,113.770
1687530585.752,2.441,-32.715,-25.879,-3.418,-2.930
1687530585.766,3.906,-29.785,-22.949,5.859,104.980
1687530585.770,-12.695,-32.227,-20.020,7.812,114.258
1687530585.774,-29.297,-37.109,-27.832,-0.977,59.570
1687530585.778,-24.414,-34.180,-30.762,-11.719,23.926
1687530585.782,-10.742,-29.785,-29.297,-9.277,212.891
1687530585.786,-6.836,-26.367,-24.902,3.906,481.934
1687530585.790,-12.695,-25.879,-18.066,7.324,294.922
1687530585.793,-25.879,-28.320,-23.926,-4.395,49.316
1687530585.797,-27.832,-32.227,-26.855,-13.672,174.316
1687530585.801,-18.555,-33.691,-24.902,-6.836,170.898
1687530585.805,-17.090,-35.156,-22.949,-3.418,-28.320
1687530585.809,-27.344,-37.598,-20.508,-1.953,60.059
1687530585.811,-36.621,-32.715,-22.461,-4.395,57.617
1687530585.815,-34.180,-29.297,-23.926,-13.184,-11.230
1687530585.819,-23.926,-33.691,-26.367,-21.484,-7.812
1687530585.823,-16.602,-36.621,-29.297,-19.043,116.699
1687530585.827,-20.996,-31.250,-31.250,-11.230,238.770
1687530585.831,-33.691,-23.438,-29.297,-18.066,76.660
1687530585.835,-34.180,-22.949,-30.762,-32.715,56.641
1687530585.838,-25.879,-24.414,-34.180,-37.109,128.906
1687530585.842,-24.902,-26.855,-31.738,-22.949,207.031
1687530585.846,-38.086,-27.832,-28.320,-14.160,108.887
1687530585.850,-53.223,-23.438,-24.902,-12.695,12.695
1687530585.854,-54.688,-23.438,-28.320,-15.137,55.664
1687530585.856,-44.922,-28.320,-32.227,-15.625,48.340
1687530585.860,-33.691,-33.691,-32.227,-7.324,25.879
1687530585.864,-36.621,-36.133,-34.668,-1.465,64.453
1687530585.868,-47.363,-32.715,-27.832,2.930,246.582
1687530585.872,-49.316,-32.227,-26.367,-2.441,251.953
1687530585.876,-39.062,-31.250,-26.855,-11.719,114.258
1687530585.880,-26.855,-29.297,-21.973,-9.766,49.805
1687530585.883,-26.367,-26.855,-21.973,-7.324,290.039
1687530585.887,-40.527,-23.926,-22.461,-3.906,437.500
1687530585.891,-39.062,-23.926,-20.020,-8.789,70.801
1687530585.895,-15.625,-27.344,-21.484,-16.113,-5.859
1687530585.899,-10.742,-32.227,-25.391,-20.508,68.848
1687530585.902,-17.578,-36.621,-26.855,-15.625,67.383
1687530585.906,-32.227,-33.691,-24.902,-7.812,22.949
1687530585.910,-42.480,-33.203,-26.855,-15.625,6.348
1687530585.914,-28.320,-33.203,-27.832,-19.531,12.695
1687530585.918,-15.625,-33.691,-29.785,-15.625,-16.113
1687530585.922,-11.230,-37.598,-32.227,-15.137,28.320
1687530585.926,-25.391,-35.156,-28.809,-10.742,174.316
1687530585.929,-42.969,-34.180,-28.809,-9.766,351.562
1687530585.933,-33.691,-36.621,-24.902,-18.066,162.598
1687530585.937,-16.602,-31.738,-20.508,-20.996,-38.574
1687530585.941,-16.113,-30.273,-20.996,-9.766,116.699
1687530585.945,-27.344,-34.180,-24.414,-10.254,204.102
1687530585.946,-37.109,-32.227,-29.297,-20.508,71.777
1687530585.950,-31.250,-31.250,-35.156,-27.344,4.395
1687530585.954,-21.484,-38.574,-35.645,-28.809,160.156
1687530585.958,-15.625,-40.039,-37.598,-26.855,186.523
1687530585.962,-24.902,-37.109,-40.039,-22.949,48.828
1687530585.966,-43.457,-36.621,-38.086,-25.391,95.215
1687530585.970,-47.363,-36.621,-42.480,-35.645,278.809
1687530585.973,-40.527,-36.133,-42.969,-31.250,339.844
1687530585.977,-26.855,-34.180,-36.133,-23.926,22.949
1687530585.981,-29.785,-36.621,-35.156,-23.926,-46.875
1687530585.985,-48.828,-39.062,-33.203,-20.996,116.699
1687530585.989,-42.969,-36.621,-28.320,-20.996,78.613
1687530585.993,-25.879,-36.133,-26.855,-23.926,-15.625
1687530585.997,-16.602,-37.598,-30.273,-16.602,54.688
1687530586.001,-20.996,-35.156,-31.738,-12.207,159.180
1687530586.005,-38.086,-29.785,-32.715,-13.672,149.902
1687530586.009,-37.598,-29.297,-29.785,-18.555,96.680
1687530586.013,-23.438,-28.809,-28.320,-25.879,232.910
1687530586.017,-14.648,-24.414,-31.738,-22.461,400.879
1687530586.020,-23.438,-31.738,-34.180,-21.973,187.500
1687530586.024,-28.320,-40.039,-28.809,-0.488,42.969
1687530586.028,-12.207,-24.902,-27.832,9.766,145.508
1687530586.032,-16.113,-10.254,-45.898,-25.391,83.984
1687530586.036,-19.531,-12.695,-50.293,-42.480,-30.273
1687530586.037,-30.762,-11.230,-55.664,-46.387,57.129
1687530586.041,-63.477,-6.836,-71.289,-58.594,164.551
1687530586.045,-73.242,5.371,-79.590,-76.660,190.918
1687530586.049,-68.848,7.324,-88.379,-95.703,100.586
1687530586.053,-64.453,10.742,-100.586,-104.004,-20.020
1687530586.057,-78.125,16.113,-110.840,-113.770,276.855
1687530586.061,-96.191,16.113,-122.559,-123.535,449.219
1687530586.064,-104.492,26.367,-130.371,-143.066,72.754
1687530586.068,-98.145,32.227,-138.184,-151.367,-2.441
1687530586.072,-93.750,31.738,-143.066,-154.785,94.727
1687530586.076,-104.980,36.133,-147.949,-160.156,44.434
1687530586.080,-109.375,44.922,-150.391,-155.273,13.184
1687530586.096,-114.258,48.340,-154.297,-157.227,34.180
1687530586.100,-104.492,47.363,-163.574,-165.039,-7.812
1687530586.104,-82.520,46.387,-163.086,-158.203,14.160
1687530586.108,-82.520,49.805,-168.945,-157.715,46.387
1687530586.112,-95.215,48.340,-172.852,-158.691,96.191
1687530586.116,-101.074,41.504,-168.457,-152.832,225.098
1687530586.120,-84.473,42.480,-166.992,-148.438,213.379
1687530586.123,-60.059,46.875,-165.527,-128.906,154.785
1687530586.127,-50.293,42.480,-157.227,-107.910,175.293
1687530586.131,-58.105,38.086,-152.344,-96.680,287.109
1687530586.135,-65.430,35.645,-148.438,-97.168,98.633
1687530586.139,-54.199,30.273,-137.207,-96.680,-77.637
1687530586.141,-34.668,24.902,-129.883,-90.820,14.160
1687530586.145,-32.227,21.973,-123.047,-91.797,105.469
1687530586.149,-43.945,19.531,-118.164,-86.914,147.461
1687530586.153,-47.852,16.113,-115.234,-84.473,109.863
1687530586.157,-38.086,17.090,-108.398,-82.031,197.266
1687530586.161,-22.949,15.137,-98.145,-72.754,281.250
1687530586.165,-11.719,12.207,-93.262,-62.500,188.477
1687530586.168,-15.625,9.766,-91.309,-57.617,115.234
1687530586.172,-31.250,3.418,-90.332,-48.828,224.609
1687530586.176,-26.855,0.977,-87.891,-47.363,341.309
1687530586.180,-7.812,3.906,-81.543,-53.223,44.434
1687530586.184,4.395,0.000,-77.148,-46.875,11.719
1687530586.186,0.000,-4.395,-79.102,-41.504,116.699
1687530586.190,-22.949,-6.348,-77.637,-40.039,41.504
1687530586.194,-23.926,-5.859,-67.871,-40.039,80.078
1687530586.198,-5.859,-1.465,-66.406,-43.457,135.742
1687530586.202,3.418,-1.465,-66.895,-45.410,97.656
1687530586.206,-2.441,-3.418,-67.383,-42.969,118.164
1687530586.210,-21.484,-6.348,-73.730,-49.805,137.207
1687530586.213,-19.531,-7.324,-68.359,-46.387,146.973
1687530586.217,-11.230,-10.742,-64.453,-39.062,416.992
1687530586.221,-5.859,-12.695,-62.988,-40.039,270.996
1687530586.225,-5.371,-12.207,-60.547,-32.715,17.578
1687530586.229,-20.996,-12.695,-61.523,-26.855,133.301
1687530586.231,-24.414,-19.043,-60.547,-30.762,129.395
1687530586.235,-24.902,-22.461,-58.105,-37.109,41.504
1687530586.239,-18.555,-17.578,-53.711,-42.969,62.012
1687530586.243,-14.648,-17.090,-57.129,-41.016,255.371
1687530586.247,-29.785,-20.020,-56.641,-38.086,295.410
1687530586.251,-31.738,-19.043,-51.270,-44.922,140.625
1687530586.255,-20.996,-15.137,-49.316,-46.875,98.633
1687530586.258,-17.090,-17.090,-52.246,-41.504,243.652
1687530586.262,-20.020,-21.973,-54.199,-35.645,261.719
1687530586.266,-36.133,-20.508,-51.270,-31.738,64.941
1687530586.270,-45.898,-19.531,-45.898,-29.297,64.941
1687530586.274,-35.156,-22.461,-41.016,-34.668,112.793
1687530586.276,-22.461,-20.508,-38.086,-41.504,34.180
1687530586.280,-26.367,-16.602,-37.109,-47.852,-44.922
1687530586.284,-40.039,-20.996,-41.992,-44.434,29.297
1687530586.288,-38.574,-24.902,-45.410,-46.875,64.453
1687530586.292,-24.902,-20.508,-42.969,-54.199,-8.301
1687530586.296,-11.719,-16.113,-39.551,-51.758,29.297
1687530586.300,-3.906,-22.949,-36.621,-33.691,282.227
1687530586.303,-3.418,-18.066,-35.156,-23.438,445.801
1687530586.307,-20.020,-4.883,-41.992,-42.480,194.824
1687530586.311,-30.762,-8.301,-47.363,-58.105,-67.383
1687530586.315,-16.113,-8.789,-46.875,-46.387,-34.668
1687530586.319,-2.930,-3.906,-44.434,-31.250,36.621
1687530586.322,-9.277,-5.371,-41.504,-15.137,71.777
1687530586.326,-25.879,-7.324,-38.086,-16.602,117.676
1687530586.330,-29.297,-7.324,-42.969,-29.785,344.727
1687530586.334,-22.949,-9.766,-41.504,-30.762,373.535
1687530586.338,-16.602,-11.230,-30.273,-29.785,41.504
1687530586.342,-22.949,-13.672,-36.133,-28.809,49.316
1687530586.346,-34.180,-13.672,-40.527,-30.273,354.980
1687530586.349,-35.645,-12.695,-38.086,-34.668,370.605
1687530586.353,-21.484,-12.695,-38.086,-30.762,-0.977
1687530586.357,-9.277,-17.090,-37.598,-21.973,-49.316
1687530586.361,-21.973,-20.020,-35.156,-21.973,64.941
1687530586.365,-41.016,-16.602,-34.180,-28.320,92.285
1687530586.369,-39.062,-18.066,-35.645,-34.668,12.207
1687530586.373,-19.531,-20.996,-34.180,-35.156,-4.883
1687530586.377,-11.230,-23.438,-33.691,-24.414,79.590
1687530586.381,-15.625,-21.973,-36.621,-21.973,69.336
1687530586.385,-24.902,-18.066,-36.133,-25.391,15.137
1687530586.389,-26.367,-18.555,-37.109,-29.297,135.254
1687530586.393,-22.461,-21.484,-37.109,-28.809,433.594
1687530586.396,-19.043,-22.461,-36.621,-26.855,315.918
1687530586.400,-18.066,-23.926,-36.133,-26.855,72.266
1687530586.404,-33.203,-26.367,-33.691,-27.344,140.137
1687530586.408,-36.133,-26.855,-30.762,-29.785,124.023
1687530586.412,-20.508,-23.926,-33.203,-28.809,-3.418
1687530586.426,-13.184,-17.090,-34.668,-24.414,-33.203
1687530586.430,-18.555,-18.066,-30.273,-14.648,15.625
1687530586.434,-33.203,-20.996,-30.762,-13.184,155.273
1687530586.438,-42.969,-20.508,-31.250,-25.879,156.250
1687530586.442,-37.109,-27.344,-34.668,-33.203,10.254
1687530586.446,-26.855,-29.297,-35.156,-28.320,255.371
1687530586.450,-22.949,-25.391,-35.645,-18.066,523.438
1687530586.453,-30.762,-27.832,-41.992,-22.461,282.715
1687530586.457,-47.363,-28.809,-42.480,-32.227,38.086
1687530586.461,-44.922,-25.879,-41.992,-44.922,101.562
1687530586.465,-34.668,-28.809,-48.340,-48.340,104.004
1687530586.469,-34.668,-33.203,-51.758,-46.387,50.293
1687530586.471,-47.363,-32.715,-45.410,-44.434,85.449
1687530586.475,-52.734,-29.297,-40.527,-43.457,120.117
1687530586.479,-44.434,-29.297,-40.039,-46.387,67.871
1687530586.483,-41.016,-30.762,-38.574,-39.551,13.184
1687530586.487,-37.109,-31.250,-39.062,-33.691,101.562
1687530586.491,-42.969,-28.320,-35.645,-36.621,201.172
1687530586.495,-52.734,-24.414,-34.180,-41.504,207.031
1687530586.498,-45.898,-24.902,-31.738,-48.340,106.445
1687530586.502,-39.551,-29.297,-30.273,-49.805,85.938
1687530586.506,-39.062,-31.250,-33.691,-41.504,352.539
1687530586.510,-41.992,-34.180,-38.086,-41.504,261.230
1687530586.514,-52.734,-34.180,-41.992,-47.852,71.777
1687530586.516,-46.875,-27.832,-36.133,-51.758,81.543
1687530586.520,-34.668,-22.949,-35.156,-45.410,-55.664
1687530586.524,-35.156,-23.926,-38.086,-39.062,66.406
1687530586.528,-43.457,-29.297,-37.109,-43.457,167.480
1687530586.532,-56.641,-29.785,-35.645,-48.340,129.883
1687530586.536,-55.176,-28.809,-28.809,-50.293,165.039
1687530586.540,-39.551,-36.621,-30.273,-50.781,111.328
1687530586.543,-29.297,-36.133,-24.902,-45.898,53.223
1687530586.547,-36.621,-31.250,-19.531,-28.809,222.656
1687530586.551,-58.594,-31.738,-28.809,-31.738,384.277
1687530586.555,-55.664,-34.180,-29.785,-53.711,97.656
1687530586.559,-41.992,-36.621,-24.902,-47.363,36.133
1687530586.561,-41.016,-32.227,-25.879,-33.691,147.949
1687530586.565,-40.527,-30.762,-26.367,-27.344,111.816
1687530586.569,-49.316,-31.738,-26.367,-25.879,2.441
1687530586.573,-50.781,-27.344,-28.320,-30.273,7.324
1687530586.577,-35.156,-26.367,-27.344,-25.879,6.836
1687530586.581,-26.367,-26.367,-24.902,-21.973,48.340
1687530586.585,-31.250,-27.344,-24.414,-17.090,152.344
1687530586.588,-41.016,-27.344,-26.855,-9.766,166.016
1687530586.592,-42.480,-26.855,-27.832,-13.672,239.258
1687530586.596,-27.344,-30.273,-26.367,-21.973,38.086
1687530586.600,-18.555,-28.809,-29.297,-20.996,-80.566
1687530586.604,-23.438,-21.484,-30.273,-28.809,101.562
1687530586.606,-30.273,-19.043,-29.297,-31.250,169.434
1687530586.610,-39.551,-19.043,-27.832,-34.180,74.707
1687530586.614,-39.062,-20.020,-30.273,-45.410,92.773
1687530586.618,-31.738,-23.926,-32.227,-50.293,261.230
1687530586.622,-28.809,-26.367,-30.762,-39.062,271.484
1687530586.626,-33.691,-24.902,-26.367,-26.367,156.738
1687530586.630,-47.363,-22.949,-23.438,-33.691,72.754
1687530586.633,-34.180,-23.438,-27.832,-26.855,202.637
1687530586.637,-15.625,-24.902,-25.879,-11.230,245.117
1687530586.641,-14.648,-26.367,-22.461,-16.602,-50.781
1687530586.645,-21.484,-26.855,-25.391,-17.578,-9.277
1687530586.649,-30.273,-26.855,-26.367,-20.508,88.867
1687530586.654,-25.391,-24.902,-24.902,-30.273,15.625
1687530586.658,-14.648,-25.391,-23.926,-29.297,-47.363
1687530586.662,-15.625,-28.320,-21.484,-21.973,-10.254
1687530586.666,-28.809,-28.809,-20.020,-20.020,123.535
1687530586.670,-37.598,-32.227,-18.066,-26.855,70.801
1687530586.674,-35.156,-32.227,-21.484,-37.109,44.922
1687530586.678,-20.996,-24.902,-21.484,-28.320,227.539
1687530586.681,-15.625,-24.414,-18.066,-15.625,350.098
1687530586.685,-24.414,-25.391,-26.367,-21.484,129.395
1687530586.689,-29.297,-22.461,-32.715,-27.832,-59.082
1687530586.693,-30.762,-26.855,-35.645,-35.645,-0.977
1687530586.697,-27.344,-30.762,-31.738,-32.715,13.672
1687530586.696,-19.531,-24.902,-23.438,-25.879,13.672
1687530586.700,-28.809,-27.344,-23.926,-23.438,107.422
1687530586.704,-41.992,-31.738,-28.809,-26.367,223.145
1687530586.708,-34.180,-30.762,-30.273,-34.668,163.086
1687530586.712,-22.461,-31.250,-26.367,-27.344,94.727
1687530586.716,-22.949,-32.227,-22.949,-24.414,94.238
1687530586.720,-30.762,-32.227,-24.414,-24.414,224.121
1687530586.723,-42.480,-28.320,-25.879,-23.438,489.746
1687530586.727,-49.316,-30.273,-34.668,-40.039,188.477
1687530586.731,-45.410,-33.691,-40.039,-52.734,-4.395
1687530586.735,-39.551,-32.715,-37.109,-56.152,26.367
1687530586.739,-38.574,-30.273,-36.133,-46.875,30.762
1687530586.743,-51.270,-28.809,-35.645,-45.898,54.199
1687530586.747,-53.711,-23.926,-35.645,-59.570,35.645
1687530586.751,-37.598,-23.926,-34.180,-57.129,47.363
1687530586.755,-30.273,-29.785,-31.738,-42.480,-0.977
1687530586.759,-30.762,-27.832,-32.227,-35.156,-73.730
1687530586.763,-44.434,-29.785,-30.762,-37.109,140.625
1687530586.767,-48.828,-34.668,-27.344,-33.691,409.668
1687530586.770,-34.668,-28.320,-24.414,-32.227,232.422
1687530586.774,-26.855,-25.391,-24.414,-36.621,77.148
1687530586.778,-32.227,-29.297,-27.832,-31.738,192.383
1687530586.782,-52.246,-35.156,-33.203,-23.438,274.902
1687530586.786,-57.617,-31.738,-31.250,-31.250,32.227
1687530586.816,-41.504,-22.949,-28.809,-40.527,-81.543
1687530586.820,-29.785,-26.367,-33.691,-41.016,-15.625
1687530586.824,-30.762,-33.203,-35.645,-39.062,81.055
1687530586.828,-44.434,-31.738,-36.621,-39.062,112.305
1687530586.832,-44.434,-25.391,-32.227,-36.621,-69.336
1687530586.836,-35.645,-19.043,-31.250,-30.762,106.445
1687530586.840,-37.109,-24.414,-32.715,-35.645,428.711
1687530586.843,-37.598,-31.738,-30.762,-41.992,127.930
1687530586.847,-55.176,-32.715,-30.762,-49.316,20.996
1687530586.851,-66.406,-30.762,-30.762,-43.945,209.961
1687530586.855,-54.688,-27.344,-29.785,-42.480,112.305
1687530586.859,-37.109,-21.973,-24.414,-46.387,-59.082
1687530586.846,-32.715,-20.508,-23.926,-37.598,26.855
1687530586.850,-41.504,-28.809,-28.809,-35.156,93.750
1687530586.854,-54.199,-32.715,-29.785,-44.434,39.062
1687530586.858,-47.852,-28.320,-26.855,-49.805,-10.254
1687530586.862,-34.180,-25.391,-21.484,-48.340,69.824
1687530586.866,-25.391,-22.949,-20.020,-42.969,163.574
1687530586.870,-27.832,-19.043,-19.043,-38.086,180.664
1687530586.873,-42.480,-22.461,-17.578,-41.016,85.938
1687530586.877,-41.016,-23.926,-19.043,-46.875,103.027
1687530586.881,-30.762,-20.020,-18.066,-51.270,148.438
1687530586.885,-24.902,-18.555,-20.508,-44.922,-12.207
1687530586.889,-29.785,-23.926,-26.855,-44.434,30.273
1687530586.891,-44.922,-23.926,-28.809,-47.852,193.359
1687530586.895,-43.945,-19.531,-23.926,-39.062,385.742
1687530586.899,-31.738,-15.625,-20.996,-33.691,283.691
1687530586.903,-24.414,-18.555,-22.949,-27.832,103.516
1687530586.907,-29.297,-26.855,-26.855,-16.113,141.602
1687530586.911,-43.457,-29.297,-26.855,-16.602,260.742
1687530586.915,-43.457,-30.273,-21.973,-26.855,182.617
1687530586.918,-33.691,-26.367,-22.461,-26.855,-10.254
1687530586.922,-34.668,-23.926,-25.391,-22.461,135.742
1687530586.926,-40.527,-25.391,-25.391,-28.320,205.566
1687530586.930,-53.711,-23.438,-27.832,-36.621,-10.254
1687530586.934,-59.570,-27.344,-35.645,-41.016,-3.418
1687530586.937,-42.969,-27.344,-35.645,-37.109,-10.254
1687530586.941,-31.250,-27.344,-32.715,-34.180,4.883
1687530586.945,-36.621,-32.227,-33.203,-38.086,26.367
1687530586.949,-45.898,-27.344,-31.250,-34.180,79.590
1687530586.953,-52.246,-23.438,-28.809,-37.109,176.758
1687530586.957,-43.945,-24.414,-31.250,-41.016,112.305
1687530586.961,-31.250,-22.949,-30.273,-35.156,90.332
1687530586.964,-32.227,-24.414,-28.809,-39.062,210.938
1687530586.968,-48.340,-26.855,-26.855,-39.062,348.633
1687530586.972,-49.316,-23.438,-22.949,-43.457,181.152
1687530586.976,-33.203,-21.973,-23.926,-43.945,-40.527
1687530586.980,-33.691,-25.391,-20.508,-38.086,92.773
1687530586.981,-38.574,-35.156,-22.461,-44.434,137.695
1687530586.985,-41.016,-36.133,-25.879,-45.898,-40.527
1687530586.989,-51.270,-27.832,-24.902,-46.875,29.297
1687530586.993,-49.316,-22.949,-23.926,-41.992,245.605
1687530586.997,-37.598,-20.020,-24.414,-43.945,151.367
1687530587.001,-34.180,-20.996,-21.484,-45.410,24.414
1687530587.005,-49.316,-20.996,-17.578,-45.410,74.219
1687530587.008,-58.105,-20.996,-20.996,-41.504,285.156
1687530587.012,-45.898,-20.508,-22.949,-38.086,379.883
1687530587.016,-36.133,-20.996,-21.973,-44.922,87.402
1687530587.020,-23.926,-17.090,-20.996,-40.039,45.898
1687530587.024,-26.855,-13.184,-17.090,-34.668,185.547
1687530587.027,-43.945,-17.578,-20.996,-47.363,116.211
1687530587.031,-41.504,-19.043,-25.879,-58.594,-1.465
1687530587.035,-33.691,-20.996,-27.832,-56.152,85.938
1687530587.039,-21.484,-22.949,-25.879,-46.387,105.957
1687530587.043,-16.602,-20.508,-23.926,-37.109,84.961
1687530587.047,-30.762,-20.508,-30.273,-35.645,167.480
1687530587.051,-24.902,-21.484,-27.344,-32.715,167.969
1687530587.054,-9.766,-17.090,-21.973,-26.367,384.277
1687530587.058,-0.977,-15.625,-23.438,-25.391,349.121
1687530587.062,-7.812,-21.484,-23.926,-33.203,16.113
1687530587.066,-31.738,-21.484,-26.367,-33.691,60.547
1687530587.070,-39.062,-20.996,-22.949,-31.738,94.238
1687530587.071,-35.156,-18.555,-24.902,-33.203,-4.883
1687530587.075,-34.180,-21.973,-30.762,-34.180,-18.066
1687530587.079,-38.574,-31.250,-32.227,-34.180,123.535
1687530587.083,-57.129,-33.691,-33.691,-39.551,176.270
1687530587.087,-61.035,-34.668,-35.645,-48.828,7.812
1687530587.091,-45.898,-33.691,-32.227,-41.016,35.645
1687530587.095,-36.133,-26.855,-27.344,-25.879,351.074
1687530587.098,-33.691,-25.391,-26.367,-16.602,419.922
1687530587.102,-41.992,-28.320,-29.297,-22.461,109.863
1687530587.106,-46.875,-27.832,-31.738,-32.715,-13.184
1687530587.110,-43.945,-30.273,-30.273,-41.992,42.969
1687530587.114,-36.133,-31.250,-27.832,-35.156,97.656
1687530587.118,-29.297,-24.414,-25.391,-27.344,41.504
1687530587.122,-44.922,-20.020,-24.902,-33.691,69.336
1687530587.126,-49.805,-24.414,-25.391,-24.902,120.605
1687530587.130,-33.203,-23.926,-22.461,-16.113,66.406
1687530587.134,-28.320,-20.508,-25.391,-29.785,-5.371
1687530587.138,-32.227,-19.043,-29.785,-41.992,177.734
1687530587.142,-45.898,-17.090,-27.832,-43.457,356.445
1687530587.145,-48.340,-19.043,-26.855,-47.852,160.645
1687530587.149,-34.668,-19.531,-22.949,-44.434,16.602
1687530587.153,-35.645,-20.996,-22.461,-36.133,108.887
1687530587.157,-35.156,-20.020,-24.414,-26.367,229.004
1687530587.161,-38.574,-19.043,-25.391,-26.855,128.906
1687530587.176,-51.270,-27.344,-37.109,-43.457,48.340
1687530587.180,-41.504,-26.855,-34.180,-44.922,134.277
1687530587.184,-24.902,-24.414,-29.785,-34.180,243.652
1687530587.188,-23.438,-24.414,-32.715,-36.133,122.070
1687530587.192,-36.621,-20.508,-28.320,-37.598,-52.246
1687530587.196,-53.223,-21.484,-28.320,-34.668,268.555
1687530587.200,-46.387,-26.367,-33.203,-31.250,472.656
1687530587.203,-25.879,-24.414,-33.203,-27.832,126.953
1687530587.207,-22.461,-21.973,-26.855,-30.273,-33.203
1687530587.211,-37.598,-22.949,-24.414,-30.762,84.473
1687530587.215,-58.105,-30.273,-25.879,-26.855,102.051
1687530587.219,-56.641,-35.645,-30.762,-43.457,-26.367
1687530587.209,-40.039,-30.762,-28.809,-49.316,70.801
1687530587.213,-39.551,-28.809,-22.461,-37.598,139.160
1687530587.217,-41.504,-29.785,-23.926,-26.367,105.957
1687530587.221,-41.504,-21.973,-22.949,-25.391,103.027
1687530587.225,-32.715,-14.160,-19.531,-26.367,95.703
1687530587.229,-19.531,-14.160,-22.461,-24.414,175.781
1687530587.233,-11.719,-17.090,-27.344,-20.508,166.504
1687530587.236,-16.113,-20.020,-30.762,-22.949,74.707
1687530587.240,-33.691,-18.555,-26.367,-25.879,145.508
1687530587.244,-36.621,-17.578,-26.855,-25.879,347.168
1687530587.248,-29.785,-23.438,-31.738,-31.250,123.047
1687530587.252,-22.949,-24.414,-30.762,-30.762,-5.859
1687530587.266,-27.832,-27.832,-32.227,-35.645,58.594
1687530587.270,-36.621,-21.973,-37.109,-41.504,91.309
1687530587.274,-18.555,-13.672,-35.156,-23.926,117.676
1687530587.278,-5.371,-22.461,-19.043,-23.926,66.406
1687530587.282,-19.531,-34.180,-10.254,-28.320,240.234
1687530587.286,-33.203,-36.133,-7.812,-23.926,475.586
1687530587.290,-55.664,-41.016,-3.418,-37.598,194.824
1687530587.293,-58.594,-49.805,3.906,-31.738,-58.594
1687530587.297,-45.898,-51.758,13.184,-17.090,168.457
1687530587.301,-41.992,-59.082,17.578,-18.066,198.730
1687530587.305,-40.527,-65.918,19.043,-25.879,-12.695
1687530587.309,-45.898,-67.383,27.832,-7.324,106.445
1687530587.311,-55.664,-74.219,34.668,-5.371,100.586
1687530587.315,-48.340,-81.543,37.598,-9.766,-20.996
1687530587.319,-27.832,-81.543,42.480,1.465,-16.113
1687530587.323,-30.273,-83.496,45.410,9.277,18.066
1687530587.327,-51.270,-87.402,54.688,10.254,69.336
1687530587.331,-62.500,-90.332,60.547,-2.441,139.648
1687530587.335,-61.523,-94.727,64.453,-14.648,76.172
1687530587.338,-54.199,-98.633,66.895,-11.719,107.910
1687530587.342,-52.246,-99.609,69.824,6.348,418.457
1687530587.346,-70.312,-102.539,75.684,7.324,303.223
1687530587.350,-83.984,-106.934,77.148,2.441,37.598
1687530587.354,-80.078,-107.910,77.637,-9.766,70.312
1687530587.356,-66.406,-104.980,74.219,-7.324,23.926
1687530587.360,-58.105,-104.004,70.801,7.812,41.504
1687530587.364,-68.848,-106.445,71.289,4.395,122.070
1687530587.368,-78.613,-101.074,74.219,11.230,262.695
1687530587.372,-64.453,-93.750,76.172,7.812,167.969
1687530587.376,-41.992,-92.285,72.754,-2.441,57.617
1687530587.380,-29.297,-91.309,72.266,7.324,106.934
1687530587.383,-44.434,-91.309,70.312,12.695,289.551
1687530587.387,-52.734,-90.820,61.523,16.602,294.922
1687530587.391,-53.223,-86.914,52.246,0.488,-31.250
1687530587.395,-39.062,-83.496,52.734,0.000,3.418
1687530587.399,-37.598,-87.891,54.688,6.348,160.645
1687530587.401,-43.945,-85.938,50.293,6.348,117.676
1687530587.405,-43.457,-78.613,44.922,-0.977,51.758
1687530587.409,-42.969,-74.219,39.551,-14.648,104.980
1687530587.413,-27.832,-70.801,39.551,-9.277,89.355
