timestamps,TP9,AF7,AF8,TP10,Right AUX
1687530755.042,-5.859,-28.320,-32.715,-14.648,-6.348
1687530755.046,42.480,-28.320,-25.879,16.113,158.203
1687530755.050,15.137,-26.367,-24.902,-10.742,116.699
1687530755.054,-63.965,-26.367,-29.297,-55.664,-28.320
1687530755.058,-93.262,-24.902,-25.879,-59.082,-91.309
1687530755.062,-19.043,-23.438,-28.320,-35.645,66.406
1687530755.066,56.641,-19.531,-27.344,7.812,257.812
1687530755.069,13.672,-21.484,-22.949,0.000,332.520
1687530755.073,-68.848,-23.926,-25.391,-46.387,93.262
1687530755.077,-87.891,-28.320,-25.391,-58.105,-253.906
1687530755.081,-33.203,-33.691,-26.855,-24.902,-66.895
1687530755.085,49.316,-29.785,-24.902,29.785,248.047
1687530765.951,-66.406,-18.555,-22.461,-63.477,257.812
1687530765.955,-64.941,-20.508,-22.461,-60.547,-63.965
1687530765.959,-76.172,-23.438,-20.020,-69.824,-61.523
1687530765.963,-87.402,-20.020,-18.555,-73.242,-33.691
1687530765.967,-79.102,-26.367,-20.020,-77.148,-91.309
1687530765.971,-65.918,-31.250,-19.531,-76.172,-88.379
1687530765.975,-65.918,-24.414,-20.508,-62.500,26.367
1687530765.978,-80.078,-23.926,-19.531,-52.246,251.465
1687530765.982,-85.938,-25.391,-16.602,-59.082,123.047
1687530765.986,-76.660,-30.273,-18.066,-68.359,-129.883
1687530765.990,-68.359,-31.738,-14.648,-66.406,-64.453
1687530765.994,-62.988,-28.809,-12.207,-56.641,41.992
1687530765.997,-82.520,-26.855,-10.742,-66.895,-114.746
1687530766.001,-75.195,-25.391,-15.625,-69.824,11.719
1687530766.005,-61.523,-25.391,-14.648,-56.152,74.219
1687530766.009,-50.781,-19.531,-8.789,-52.734,-85.449
1687530766.013,-59.570,-19.043,-7.812,-60.059,5.859
1687530766.017,-75.684,-20.508,-6.836,-57.617,209.473
1687530766.020,-68.848,-20.996,-11.719,-57.617,220.703
1687530766.024,-55.176,-23.438,-11.719,-62.500,-76.172
1687530766.028,-54.199,-26.367,-11.719,-60.059,-107.422
1687530766.032,-63.965,-24.902,-15.137,-58.105,35.645
1687530766.036,-76.660,-22.461,-12.695,-61.523,-21.484
1687530766.048,-72.266,-24.414,-11.230,-62.012,-151.367
1687530766.052,-67.871,-29.297,-16.113,-68.359,-106.445
1687530766.056,-73.242,-30.273,-21.484,-74.219,178.711
1687530766.060,-79.590,-25.879,-19.043,-62.012,185.547
1687530766.064,-89.355,-26.367,-12.207,-64.453,-64.453
1687530766.068,-83.496,-24.902,-11.230,-74.219,-29.785
1687530766.072,-67.871,-20.996,-15.137,-71.289,172.852
1687530766.075,-50.781,-14.160,-14.648,-60.547,78.125
1687530766.079,-57.129,-18.066,-15.625,-62.988,-95.703
1687530766.083,-86.426,-26.855,-17.578,-82.031,-20.996
1687530766.087,-84.961,-21.973,-19.043,-81.543,16.113
1687530766.091,-65.918,-17.578,-15.625,-81.055,-116.699
1687530766.048,-72.266,-24.414,-11.230,-62.012,-151.367
1687530766.052,-67.871,-29.297,-16.113,-68.359,-106.445
1687530766.056,-73.242,-30.273,-21.484,-74.219,178.711
1687530766.060,-79.590,-25.879,-19.043,-62.012,185.547
1687530766.064,-89.355,-26.367,-12.207,-64.453,-64.453
1687530766.068,-83.496,-24.902,-11.230,-74.219,-29.785
1687530766.072,-67.871,-20.996,-15.137,-71.289,172.852
1687530766.075,-50.781,-14.160,-14.648,-60.547,78.125
1687530766.079,-57.129,-18.066,-15.625,-62.988,-95.703
1687530766.083,-86.426,-26.855,-17.578,-82.031,-20.996
1687530766.087,-84.961,-21.973,-19.043,-81.543,16.113
1687530766.091,-65.918,-17.578,-15.625,-81.055,-116.699
1687530766.048,-72.266,-24.414,-11.230,-62.012,-151.367
1687530766.052,-67.871,-29.297,-16.113,-68.359,-106.445
1687530766.056,-73.242,-30.273,-21.484,-74.219,178.711
1687530766.060,-79.590,-25.879,-19.043,-62.012,185.547
1687530766.064,-89.355,-26.367,-12.207,-64.453,-64.453
1687530766.068,-83.496,-24.902,-11.230,-74.219,-29.785
1687530766.072,-67.871,-20.996,-15.137,-71.289,172.852
1687530766.075,-50.781,-14.160,-14.648,-60.547,78.125
1687530766.079,-57.129,-18.066,-15.625,-62.988,-95.703
1687530766.083,-86.426,-26.855,-17.578,-82.031,-20.996
1687530766.087,-84.961,-21.973,-19.043,-81.543,16.113
1687530766.091,-65.918,-17.578,-15.625,-81.055,-116.699
1687530766.048,-72.266,-24.414,-11.230,-62.012,-151.367
1687530766.052,-67.871,-29.297,-16.113,-68.359,-106.445
1687530766.056,-73.242,-30.273,-21.484,-74.219,178.711
1687530766.060,-79.590,-25.879,-19.043,-62.012,185.547
1687530766.064,-89.355,-26.367,-12.207,-64.453,-64.453
1687530766.068,-83.496,-24.902,-11.230,-74.219,-29.785
1687530766.072,-67.871,-20.996,-15.137,-71.289,172.852
1687530766.075,-50.781,-14.160,-14.648,-60.547,78.125
1687530766.079,-57.129,-18.066,-15.625,-62.988,-95.703
1687530766.083,-86.426,-26.855,-17.578,-82.031,-20.996
1687530766.087,-84.961,-21.973,-19.043,-81.543,16.113
1687530766.091,-65.918,-17.578,-15.625,-81.055,-116.699
1687530766.048,-72.266,-24.414,-11.230,-62.012,-151.367
1687530766.052,-67.871,-29.297,-16.113,-68.359,-106.445
1687530766.056,-73.242,-30.273,-21.484,-74.219,178.711
1687530766.060,-79.590,-25.879,-19.043,-62.012,185.547
1687530766.064,-89.355,-26.367,-12.207,-64.453,-64.453
1687530766.068,-83.496,-24.902,-11.230,-74.219,-29.785
1687530766.072,-67.871,-20.996,-15.137,-71.289,172.852
1687530766.075,-50.781,-14.160,-14.648,-60.547,78.125
1687530766.079,-57.129,-18.066,-15.625,-62.988,-95.703
1687530766.083,-86.426,-26.855,-17.578,-82.031,-20.996
1687530766.087,-84.961,-21.973,-19.043,-81.543,16.113
1687530766.091,-65.918,-17.578,-15.625,-81.055,-116.699
1687530774.488,-42.969,-39.062,-32.227,-43.457,128.906
1687530774.492,-54.199,-34.180,-32.715,-41.504,43.457
1687530774.496,-69.824,-31.738,-32.227,-54.199,-58.594
1687530774.500,-62.988,-31.738,-32.715,-51.270,-10.742
1687530774.504,-46.387,-34.668,-31.738,-39.062,-5.859
1687530774.508,-45.410,-37.109,-30.273,-42.480,22.461
1687530774.512,-48.828,-35.645,-29.785,-41.504,76.172
1687530774.515,-54.688,-34.668,-30.762,-39.551,35.156
1687530774.519,-48.340,-29.785,-32.715,-41.992,244.141
1687530774.523,-27.344,-29.785,-37.109,-54.688,45.898
1687530774.527,-17.090,-27.832,-37.109,-57.617,-132.812
1687530774.531,-23.438,-24.414,-34.668,-50.293,0.977
1687530774.531,-39.551,-29.785,-39.062,-58.105,-48.828
1687530774.535,-44.922,-32.227,-39.551,-68.359,-119.629
1687530774.539,-29.785,-30.273,-33.203,-62.500,-127.441
1687530774.543,-21.484,-29.297,-36.133,-51.758,-87.891
1687530774.547,-30.762,-31.250,-44.434,-51.758,2.441
1687530774.551,-39.551,-35.156,-42.969,-49.316,24.902
1687530774.555,-40.527,-36.133,-38.574,-45.898,8.789
1687530774.558,-24.902,-40.527,-37.109,-39.551,208.008
1687530774.562,-16.602,-37.109,-36.133,-30.762,269.531
1687530774.566,-20.508,-29.785,-32.227,-34.668,-91.309
1687530774.570,-35.645,-30.273,-32.227,-41.016,-77.637
1687530774.574,-43.457,-36.621,-33.203,-36.621,171.875
1687530774.573,-21.484,-30.762,-26.855,-29.785,-19.531
1687530774.577,-4.395,-23.926,-20.996,-28.320,-140.137
1687530774.581,-9.277,-25.391,-22.461,-24.902,-66.406
1687530774.585,-30.762,-25.879,-24.902,-23.438,-49.805
1687530774.589,-44.434,-27.344,-22.949,-34.180,-37.109
1687530774.593,-38.574,-28.320,-26.367,-43.457,-12.695
1687530774.597,-30.273,-24.414,-28.320,-37.598,107.422
1687530774.600,-29.785,-22.949,-30.273,-24.414,345.703
1687530774.604,-41.016,-26.367,-30.762,-29.297,126.953
1687530774.608,-55.664,-27.344,-34.180,-41.992,-104.980
1687530774.612,-50.781,-32.715,-37.598,-49.316,14.648
1687530774.616,-40.039,-38.574,-34.668,-55.664,46.387
1687530774.622,-38.574,-43.457,-37.109,-59.570,-70.312
1687530774.626,-59.082,-45.898,-43.457,-65.430,-69.824
1687530774.630,-79.102,-42.480,-44.922,-81.543,-13.184
1687530774.634,-60.547,-32.227,-41.016,-73.730,-15.625
1687530774.638,-40.039,-27.832,-35.645,-66.895,-79.590
1687530774.642,-37.109,-28.809,-34.668,-60.547,-10.254
1687530774.646,-48.828,-29.297,-35.156,-48.340,319.336
1687530774.649,-62.500,-30.273,-36.133,-58.594,224.121
1687530774.653,-53.223,-30.762,-32.227,-62.988,-80.078
1687530774.657,-29.785,-26.367,-26.367,-44.922,20.996
1687530774.661,-20.996,-24.414,-25.391,-20.508,339.844
1687530774.665,-45.898,-34.180,-20.508,-26.855,196.777
1687530774.663,-76.660,-34.180,-23.926,-55.176,-158.203
1687530774.667,-78.613,-31.250,-26.855,-64.941,-64.941
1687530774.671,-55.176,-31.250,-23.926,-55.664,47.852
1687530774.675,-46.875,-26.855,-28.320,-53.711,-49.316
1687530774.679,-53.711,-27.832,-30.762,-50.293,-62.500
1687530774.683,-66.406,-28.809,-28.320,-40.527,74.219
1687530774.687,-70.801,-30.273,-27.832,-48.340,156.738
1687530774.690,-52.246,-32.227,-28.809,-59.082,-2.930
1687530774.694,-47.363,-37.598,-29.297,-64.941,-131.836
1687530774.698,-49.805,-34.180,-26.367,-57.129,19.531
1687530774.702,-66.406,-35.156,-37.109,-59.082,78.613
1687530774.706,-79.102,-44.922,-44.434,-69.336,31.250
1687530774.722,-66.895,-37.598,-39.551,-68.848,-12.207
1687530774.726,-58.594,-33.203,-40.039,-65.918,44.922
1687530774.730,-62.988,-35.156,-40.039,-72.266,41.016
1687530774.734,-76.660,-31.250,-37.598,-75.195,-145.996
1687530774.738,-75.195,-28.809,-37.109,-71.289,-76.172
1687530774.742,-57.129,-30.273,-32.715,-67.871,141.113
1687530774.746,-50.293,-31.250,-33.203,-70.312,67.871
1687530774.749,-49.805,-36.621,-35.156,-67.871,-47.852
1687530774.753,-60.547,-38.574,-32.715,-57.129,-49.316
1687530774.757,-65.918,-34.180,-34.180,-53.711,166.992
1687530774.761,-50.293,-34.668,-37.109,-59.082,196.289
1687530774.765,-46.875,-37.598,-36.133,-58.105,-82.520
1687530774.770,-52.734,-32.227,-33.691,-53.223,-64.941
1687530774.774,-59.570,-26.367,-30.762,-48.828,184.082
1687530774.778,-69.824,-28.320,-31.738,-50.781,68.359
1687530774.782,-59.082,-30.762,-34.180,-50.781,-123.047
1687530774.786,-52.734,-33.691,-35.156,-60.547,-46.387
1687530774.790,-51.270,-35.645,-34.180,-56.152,39.062
1687530774.794,-61.035,-34.668,-30.762,-42.480,23.926
1687530774.797,-80.078,-34.180,-38.086,-59.082,-122.070
1687530774.801,-68.359,-32.715,-35.645,-59.082,-52.246
1687530774.805,-54.199,-30.273,-28.320,-56.641,200.684
1687530774.809,-47.852,-30.273,-26.367,-62.988,-31.250
1687530774.813,-63.477,-30.762,-30.273,-70.801,-164.551
1687530774.814,-80.566,-36.621,-33.691,-79.590,-53.711
1687530774.818,-70.801,-37.109,-31.250,-77.148,-78.613
1687530774.822,-60.059,-36.621,-31.250,-76.172,-86.426
1687530774.826,-55.176,-36.133,-32.715,-71.289,-9.277
1687530774.830,-63.965,-34.668,-33.203,-69.824,151.367
1687530774.834,-80.078,-36.133,-33.203,-73.242,153.809
1687530774.838,-73.730,-34.668,-31.738,-74.219,29.785
1687530774.841,-60.059,-30.273,-29.297,-63.965,-22.461
1687530774.845,-58.594,-32.715,-27.344,-55.176,189.453
1687530774.849,-64.453,-34.668,-29.785,-53.711,261.230
1687530774.853,-76.172,-31.250,-31.250,-57.129,-16.602
1687530774.857,-72.754,-32.715,-29.785,-63.477,-68.359
1687530774.858,-46.875,-31.738,-29.785,-42.969,92.285
1687530774.862,-38.086,-33.203,-23.926,-30.762,-28.809
1687530774.866,-59.570,-40.039,-17.578,-41.992,-141.602
1687530774.870,-85.449,-43.457,-16.602,-51.758,-83.496
1687530774.874,-92.285,-47.852,-20.020,-64.941,-74.707
1687530774.878,-77.148,-45.898,-22.461,-60.547,-17.578
1687530774.882,-64.453,-40.039,-18.066,-57.129,-19.531
1687530774.885,-71.289,-44.434,-23.926,-73.730,22.949
1687530774.889,-85.938,-42.480,-25.391,-69.824,295.898
1687530774.893,-79.102,-35.645,-20.508,-62.988,103.516
1687530774.897,-59.082,-36.621,-18.555,-70.801,-134.277
1687530774.901,-50.781,-39.062,-15.625,-74.219,-30.762
1687530774.910,-54.688,-41.992,-20.020,-64.941,-55.664
1687530774.914,-75.684,-41.504,-27.832,-63.965,-158.691
1687530774.918,-81.055,-36.621,-29.297,-71.777,-74.219
1687530774.922,-59.570,-34.668,-26.855,-70.312,-55.664
1687530774.926,-54.199,-34.180,-26.855,-62.500,-115.234
1687530774.930,-58.594,-34.180,-24.902,-57.617,-48.340
1687530774.934,-73.730,-33.691,-21.484,-59.082,52.246
1687530774.937,-86.914,-34.180,-24.414,-66.895,321.289
1687530774.941,-75.195,-36.133,-30.762,-70.801,242.676
1687530774.945,-65.918,-31.738,-30.273,-72.266,-0.488
1687530774.949,-61.035,-27.832,-24.902,-67.383,87.891
1687530774.953,-74.707,-33.691,-26.855,-54.688,269.531
1687530774.948,-87.402,-34.668,-32.715,-50.293,102.051
1687530774.952,-68.359,-32.715,-29.297,-52.246,-112.305
1687530774.956,-49.805,-30.762,-25.879,-53.223,-56.152
1687530774.960,-41.992,-27.832,-27.832,-39.551,-62.012
1687530774.964,-49.805,-25.879,-25.391,-28.320,-111.328
1687530774.968,-58.594,-20.020,-16.602,-31.738,-62.988
1687530774.972,-52.734,-21.484,-14.160,-33.691,101.562
1687530774.975,-41.016,-25.391,-18.555,-32.715,258.789
1687530774.979,-41.016,-23.926,-21.484,-40.039,20.996
1687530774.983,-49.805,-23.926,-20.508,-47.363,-116.699
1687530774.987,-61.035,-21.484,-20.996,-49.316,-0.977
1687530774.991,-59.082,-20.996,-21.484,-56.152,63.965
1687530774.992,-46.875,-23.926,-22.949,-56.152,-41.504
1687530774.996,-48.340,-28.320,-25.391,-50.293,-117.676
1687530775.000,-58.594,-31.738,-24.414,-52.246,61.523
1687530775.004,-66.895,-25.879,-26.855,-59.082,99.121
1687530775.008,-65.430,-24.414,-27.344,-64.453,-34.180
1687530775.012,-55.176,-27.832,-24.902,-69.824,83.496
1687530775.016,-50.293,-30.762,-27.832,-68.848,358.887
1687530775.019,-52.246,-33.691,-32.227,-69.336,253.418
1687530775.023,-57.617,-36.133,-32.715,-75.684,-59.570
1687530775.027,-48.828,-31.250,-33.203,-78.613,-62.988
1687530775.031,-29.785,-30.762,-35.156,-74.219,118.164
1687530775.035,-24.902,-29.785,-32.227,-70.312,-20.020
1687530775.041,-38.574,-28.320,-31.738,-64.453,-136.719
1687530775.045,-58.594,-29.297,-32.227,-64.941,17.578
1687530775.049,-70.801,-27.344,-30.762,-61.035,220.215
1687530775.053,-67.383,-31.250,-32.227,-58.594,11.719
1687530775.057,-60.059,-34.180,-29.785,-62.012,-192.383
1687530775.061,-75.684,-34.180,-30.762,-72.266,-38.086
1687530775.065,-93.262,-29.785,-33.691,-77.637,150.391
1687530775.068,-97.656,-24.414,-30.273,-74.707,22.949
1687530775.072,-88.867,-22.949,-30.762,-80.566,-190.430
1687530775.076,-78.125,-23.926,-31.738,-83.984,-79.590
1687530775.080,-73.730,-21.973,-29.785,-74.707,97.168
1687530775.084,-83.496,-22.949,-30.273,-75.195,3.906
1687530775.098,-92.285,-27.832,-37.598,-78.125,-73.242
1687530775.102,-78.125,-31.250,-36.621,-74.219,-28.809
1687530775.106,-64.453,-33.203,-32.715,-72.754,-55.176
1687530775.110,-64.941,-29.297,-33.203,-63.477,4.395
1687530775.114,-76.660,-28.809,-29.785,-58.594,12.207
1687530775.118,-89.355,-33.203,-28.320,-57.617,199.707
1687530775.122,-85.938,-32.227,-31.250,-65.430,290.527
1687530775.125,-68.848,-34.180,-30.762,-68.848,-29.785
1687530775.129,-61.523,-33.203,-29.297,-62.012,-78.613
1687530775.133,-77.637,-29.785,-30.273,-54.199,116.211
1687530775.137,-88.379,-32.715,-30.273,-67.871,80.566
1687530775.141,-65.430,-32.227,-35.156,-82.520,-109.375
1687530775.143,-43.945,-29.297,-28.809,-62.500,-84.473
1687530775.147,-60.059,-33.691,-17.578,-56.641,107.910
1687530775.151,-81.543,-37.109,-20.996,-70.312,6.836
1687530775.155,-90.332,-39.062,-22.949,-77.637,-126.953
1687530775.159,-86.914,-39.062,-23.438,-75.684,-72.754
1687530775.163,-71.289,-37.109,-21.973,-68.359,-24.902
1687530775.167,-57.617,-36.621,-19.043,-64.453,-25.879
1687530775.170,-67.871,-40.039,-23.438,-63.965,-54.199
1687530775.174,-82.031,-37.598,-22.949,-61.035,8.789
1687530775.178,-76.660,-38.574,-23.438,-57.129,282.227
1687530775.182,-55.664,-37.598,-23.926,-56.152,74.219
1687530775.186,-46.387,-34.180,-20.996,-51.270,-101.074
1687530775.187,-52.246,-32.227,-19.531,-50.781,-10.742
1687530775.191,-70.801,-32.227,-17.090,-65.430,-54.688
1687530775.195,-74.707,-34.180,-19.043,-69.336,-52.246
1687530775.199,-57.129,-35.156,-23.438,-69.336,-54.199
1687530775.203,-49.316,-34.180,-22.949,-67.871,-52.734
1687530775.207,-57.617,-34.180,-23.438,-65.430,92.285
1687530775.211,-76.660,-37.109,-24.902,-65.918,120.117
1687530775.214,-68.359,-32.227,-24.902,-58.594,38.574
1687530775.218,-54.199,-28.320,-24.414,-53.711,229.004
1687530775.222,-53.711,-33.691,-27.832,-57.129,93.262
1687530775.226,-51.758,-31.738,-25.391,-55.176,-87.402
1687530775.230,-66.406,-32.715,-27.344,-53.223,-62.012
1687530775.232,-71.777,-29.297,-30.762,-49.316,180.664
1687530775.236,-48.828,-27.344,-26.367,-46.387,167.969
1687530775.240,-39.551,-27.832,-23.926,-54.199,-72.266
1687530775.244,-50.781,-31.250,-23.438,-56.641,-69.824
1687530775.248,-60.059,-30.273,-24.902,-57.617,-98.145
1687530775.252,-60.547,-28.809,-28.320,-61.523,-67.383
1687530775.256,-51.758,-29.785,-25.879,-64.453,-33.691
1687530775.259,-46.387,-27.344,-24.902,-62.012,72.266
1687530775.263,-47.363,-28.809,-28.809,-54.688,295.898
1687530775.267,-62.012,-27.832,-30.273,-56.152,56.152
1687530775.271,-69.824,-24.902,-27.344,-62.500,-50.293
1687530775.275,-60.059,-32.227,-26.367,-69.824,108.398
1687530775.288,-49.805,-32.227,-25.879,-61.523,19.531
1687530775.292,-48.340,-31.250,-18.066,-53.711,-78.125
1687530775.296,-64.941,-31.250,-14.160,-59.570,-38.574
1687530775.300,-70.801,-27.832,-19.043,-53.711,30.273
1687530775.304,-60.547,-26.367,-17.578,-49.316,9.766
1687530775.308,-55.664,-25.391,-19.043,-51.758,23.438
1687530775.312,-56.152,-26.855,-22.461,-53.223,41.504
1687530775.315,-67.383,-29.297,-17.578,-50.293,205.566
1687530775.319,-74.219,-28.809,-15.625,-48.828,155.273
1687530775.323,-61.523,-27.344,-20.508,-50.293,-53.711
1687530775.327,-46.875,-28.320,-21.484,-52.246,71.289
1687530775.331,-51.270,-24.414,-18.066,-42.480,149.414
1687530775.325,-66.406,-25.879,-22.461,-49.805,-55.664
1687530775.329,-76.660,-27.344,-16.113,-63.965,-166.504
1687530775.333,-80.566,-30.273,-18.555,-75.684,-44.434
1687530775.337,-65.918,-34.180,-26.367,-76.172,22.949
1687530775.341,-51.758,-30.273,-19.531,-72.266,-78.125
1687530775.345,-66.895,-27.832,-14.648,-68.848,-22.949
1687530775.349,-86.426,-24.902,-15.625,-68.848,108.398
1687530775.352,-83.008,-20.996,-20.020,-71.777,265.137
1687530775.356,-65.430,-20.020,-20.508,-70.801,81.543
1687530775.360,-64.453,-22.949,-16.113,-63.965,-145.508
1687530775.364,-71.777,-24.414,-18.066,-59.082,-43.945
1687530775.368,-82.031,-22.949,-20.996,-63.477,6.348
1687530775.367,-76.660,-24.902,-22.949,-66.895,-111.816
1687530775.371,-53.223,-25.391,-19.531,-60.547,-143.555
1687530775.375,-54.199,-26.367,-22.949,-61.523,-58.594
1687530775.379,-58.594,-21.973,-25.391,-64.453,23.438
1687530775.383,-70.312,-21.484,-22.461,-61.035,-24.902
1687530775.387,-77.637,-21.484,-28.320,-63.477,50.781
1687530775.391,-66.406,-21.484,-27.344,-56.641,341.797
1687530775.394,-55.176,-19.531,-17.578,-50.781,328.613
1687530775.398,-54.688,-10.742,-17.578,-51.270,-43.457
1687530775.402,-74.219,-12.695,-19.531,-45.898,-45.898
1687530775.406,-77.637,-15.137,-17.578,-55.176,128.418
1687530775.410,-55.664,-12.695,-10.742,-55.664,-20.020
1687530775.440,-46.875,-13.672,-9.766,-55.176,-209.473
1687530775.444,-53.711,-16.602,-15.625,-62.012,-111.328
1687530775.448,-72.754,-16.602,-19.531,-70.312,65.430
1687530775.452,-80.078,-20.508,-22.461,-77.637,-49.316
1687530775.456,-62.988,-21.484,-22.949,-71.777,-130.859
1687530775.460,-49.316,-20.020,-20.508,-62.012,-6.348
1687530775.464,-53.711,-26.855,-24.902,-58.594,84.961
1687530775.467,-67.383,-31.738,-25.391,-48.828,33.691
1687530775.471,-64.941,-31.738,-24.902,-39.062,-90.820
1687530775.475,-61.035,-25.391,-25.391,-47.363,-9.277
1687530775.479,-58.594,-20.508,-20.508,-48.340,164.551
1687530775.483,-51.270,-23.926,-21.973,-44.434,-32.715
1687530775.473,-60.059,-26.855,-27.344,-40.527,-108.398
1687530775.477,-73.242,-25.391,-29.297,-43.457,-22.949
1687530775.481,-59.570,-23.438,-30.762,-51.270,-46.387
1687530775.485,-47.363,-27.832,-25.879,-54.199,-92.285
1687530775.489,-56.641,-25.879,-27.344,-51.270,-64.453
1687530775.493,-66.406,-21.973,-34.668,-53.223,124.023
1687530775.497,-77.148,-26.367,-34.668,-72.266,161.133
1687530775.500,-70.801,-25.879,-29.297,-80.566,26.855
1687530775.504,-44.922,-19.531,-24.902,-73.242,-49.805
1687530775.508,-39.062,-21.973,-23.438,-64.941,267.578
1687530775.512,-53.223,-25.391,-19.043,-55.664,528.809
1687530775.516,-62.500,-23.438,-20.996,-57.129,93.262
1687530775.518,-53.223,-23.438,-21.973,-56.152,-78.613
1687530775.522,-36.621,-24.414,-25.879,-53.711,21.973
1687530775.526,-34.180,-20.996,-24.902,-47.852,-78.613
1687530775.530,-45.898,-23.438,-24.414,-48.828,-89.355
1687530775.534,-62.988,-30.273,-28.320,-64.453,0.977
1687530775.538,-63.965,-28.320,-25.879,-73.242,81.543
1687530775.542,-46.387,-22.949,-25.879,-60.547,38.086
1687530775.545,-40.039,-27.344,-27.344,-54.688,-86.426
1687530775.549,-48.340,-25.391,-19.531,-55.664,24.414
1687530775.553,-64.453,-21.973,-18.066,-51.758,326.172
1687530775.557,-64.941,-20.996,-17.090,-58.594,118.164
1687530775.561,-47.363,-19.531,-12.695,-54.688,-127.441
1687530775.563,-41.992,-22.949,-10.254,-50.293,-35.156
1687530775.567,-52.246,-23.926,-16.113,-56.152,-51.758
1687530775.571,-62.500,-21.973,-22.461,-59.082,-187.988
1687530775.575,-61.035,-19.043,-17.090,-52.246,-98.633
1687530775.579,-44.434,-19.531,-14.648,-55.176,-17.578
1687530775.583,-41.992,-22.461,-21.973,-54.688,-15.625
1687530775.587,-45.898,-23.926,-25.879,-50.781,39.062
1687530775.590,-56.641,-26.367,-25.879,-51.758,-6.348
1687530775.594,-66.895,-27.344,-21.484,-46.875,168.457
1687530775.598,-41.504,-21.973,-19.043,-42.480,123.047
1687530775.602,-31.738,-19.531,-25.391,-48.340,-117.188
1687530775.606,-38.574,-21.973,-23.438,-56.152,-58.594
1687530775.607,-55.176,-24.414,-21.484,-54.688,244.141
1687530775.611,-69.824,-27.344,-27.832,-62.500,105.957
1687530775.615,-56.152,-24.902,-25.879,-67.871,-170.898
1687530775.619,-46.875,-22.949,-20.508,-64.453,-158.203
1687530775.623,-54.688,-24.414,-20.508,-68.359,-102.051
1687530775.627,-73.242,-24.902,-24.414,-72.754,-22.461
1687530775.631,-88.867,-28.320,-27.344,-80.078,-18.555
1687530775.634,-84.961,-36.621,-30.273,-82.520,43.457
1687530775.638,-75.684,-35.156,-30.273,-70.801,222.656
1687530775.642,-69.824,-27.344,-26.855,-68.848,21.484
1687530775.646,-79.590,-24.414,-24.902,-73.242,-104.004
1687530775.650,-93.262,-27.344,-25.879,-74.707,15.137
1687530775.655,-87.891,-28.809,-26.367,-73.730,11.719
1687530775.659,-73.242,-30.762,-20.508,-66.406,-21.484
1687530775.663,-67.871,-34.668,-20.996,-59.570,-27.344
1687530775.667,-74.219,-31.738,-27.344,-60.547,101.562
1687530775.671,-72.266,-25.391,-27.344,-59.082,-0.977
1687530775.675,-66.406,-22.461,-22.461,-56.641,-61.035
1687530775.679,-60.547,-21.973,-19.531,-63.477,22.461
1687530775.682,-49.316,-23.438,-18.066,-62.012,201.172
1687530775.686,-61.523,-29.297,-19.043,-60.059,192.871
1687530775.690,-75.684,-27.832,-20.020,-67.871,-18.066
1687530775.694,-67.383,-24.414,-17.090,-66.895,59.082
1687530775.698,-52.246,-24.902,-19.043,-55.664,159.180
1687530775.699,-52.734,-26.855,-23.926,-53.711,-6.348
1687530775.703,-64.941,-28.320,-27.344,-60.547,-80.566
1687530775.707,-75.195,-33.203,-31.738,-73.242,-62.500
1687530775.711,-64.453,-31.250,-30.273,-69.824,-59.570
1687530775.715,-33.691,-21.484,-22.949,-64.941,-61.523
1687530775.719,-21.973,-23.438,-22.949,-75.684,-101.074
1687530775.723,-26.855,-24.902,-28.809,-70.312,66.406
1687530775.726,-41.992,-23.926,-35.156,-70.801,358.887
1687530775.730,-53.711,-23.438,-35.156,-81.055,104.980
1687530775.734,-47.852,-18.555,-32.227,-80.078,-153.320
1687530775.738,-49.805,-20.020,-31.250,-77.148,-68.359
1687530775.742,-55.176,-24.414,-32.227,-67.871,-34.668
1687530775.742,-67.871,-21.484,-32.715,-65.918,-77.148
1687530775.746,-81.055,-21.484,-32.715,-73.242,-123.047
1687530775.750,-71.777,-27.344,-36.621,-81.055,-63.477
1687530775.754,-55.176,-29.297,-34.180,-71.777,-98.145
1687530775.758,-55.664,-28.320,-28.809,-60.059,-116.211
1687530775.762,-70.312,-26.855,-26.367,-62.012,-13.672
1687530775.766,-79.590,-17.578,-23.926,-60.059,248.047
1687530775.769,-66.895,-15.625,-24.902,-59.082,253.418
1687530775.773,-49.316,-21.484,-30.273,-65.918,-75.684
1687530775.777,-48.828,-26.367,-30.273,-67.871,-79.590
1687530775.781,-70.312,-27.832,-28.320,-58.594,245.605
1687530775.785,-81.543,-28.809,-28.320,-59.082,162.109
1687530775.787,-60.547,-26.855,-28.809,-59.570,-62.500
1687530775.791,-49.316,-26.855,-30.762,-52.246,-71.289
1687530775.795,-62.988,-28.320,-29.785,-49.805,-32.715
1687530775.799,-75.684,-28.320,-23.926,-53.223,-20.020
1687530775.803,-81.055,-33.691,-22.461,-63.477,-36.621
1687530775.807,-73.242,-34.668,-25.391,-62.012,123.535
1687530775.811,-57.617,-28.320,-22.949,-49.805,323.242
1687530775.814,-51.270,-31.250,-24.902,-50.293,58.105
1687530775.818,-62.988,-32.715,-30.273,-57.129,-105.469
1687530775.822,-74.707,-26.855,-30.273,-58.594,17.090
1687530775.826,-63.965,-31.250,-28.809,-65.918,82.520
1687530775.830,-47.852,-34.668,-29.297,-62.988,-67.871
1687530775.847,-42.480,-32.227,-26.855,-50.293,-114.258
1687530775.851,-44.922,-33.691,-20.996,-48.340,-40.527
1687530775.855,-57.617,-33.691,-25.391,-56.641,-41.504
1687530775.859,-54.199,-31.738,-27.832,-63.477,-70.801
1687530775.863,-41.992,-26.855,-22.949,-63.477,-112.305
1687530775.867,-41.016,-24.414,-23.926,-62.988,43.945
1687530775.871,-46.387,-25.391,-31.738,-62.500,98.633
1687530775.874,-65.430,-27.832,-31.738,-64.453,-85.938
1687530775.878,-62.012,-25.391,-25.879,-56.641,-127.441
1687530775.882,-43.457,-22.461,-21.973,-42.969,209.473
1687530775.886,-35.156,-19.531,-21.484,-39.551,229.492
1687530775.890,-37.598,-19.043,-21.484,-39.062,-37.109
1687530775.893,-58.105,-26.855,-20.508,-44.434,25.879
1687530775.897,-62.988,-28.320,-26.855,-46.387,194.336
1687530775.901,-48.828,-24.902,-27.832,-44.434,16.113
1687530775.905,-41.992,-23.438,-26.367,-45.410,-115.234
1687530775.909,-48.340,-28.809,-29.785,-46.387,12.207
1687530775.913,-64.453,-33.691,-34.180,-56.152,55.664
1687530775.917,-69.336,-30.273,-32.715,-64.941,-6.348
1687530775.920,-52.246,-25.879,-30.762,-62.500,-166.016
1687530775.924,-41.992,-25.391,-29.785,-56.152,-78.613
1687530775.928,-47.852,-30.762,-27.832,-50.293,198.242
1687530775.932,-64.453,-31.250,-26.855,-53.711,6.836
1687530775.936,-64.453,-26.855,-24.414,-61.035,-139.160
1687530775.940,-46.875,-21.973,-25.879,-60.547,-25.879
1687530775.944,-39.551,-28.809,-28.320,-57.617,-66.406
1687530775.948,-35.645,-33.203,-25.879,-52.734,-101.562
1687530775.952,-46.875,-26.367,-20.508,-47.363,-20.996
1687530775.956,-60.547,-28.809,-23.438,-52.246,143.555
1687530775.960,-49.316,-32.227,-22.461,-59.082,96.680
1687530775.964,-39.551,-31.738,-22.461,-52.246,-58.594
1687530775.967,-38.086,-31.738,-23.438,-43.945,-30.762
1687530775.971,-51.758,-30.273,-21.484,-36.621,108.887
1687530775.975,-65.918,-26.855,-20.996,-35.156,94.727
1687530775.979,-52.246,-25.879,-19.043,-41.504,-103.027
1687530775.983,-40.527,-27.344,-20.020,-38.086,-39.551
1687530775.983,-38.086,-30.762,-24.414,-38.574,190.430
1687530775.987,-51.270,-32.715,-26.367,-47.363,81.543
1687530775.991,-61.523,-32.715,-25.879,-49.316,-64.453
1687530775.995,-44.434,-31.738,-23.438,-47.852,-68.359
1687530775.999,-33.691,-31.738,-21.484,-51.758,-20.996
1687530776.003,-35.156,-30.762,-20.996,-54.688,44.922
1687530776.007,-44.434,-28.809,-16.113,-49.316,22.949
1687530776.010,-57.129,-24.902,-15.625,-54.199,75.195
1687530776.014,-50.293,-21.484,-22.949,-52.246,247.070
1687530776.018,-29.785,-18.066,-22.461,-43.457,28.320
1687530776.022,-24.414,-18.066,-20.508,-41.992,-180.176
1687530776.026,-39.062,-22.949,-24.414,-49.805,-57.617
1687530776.028,-56.641,-25.391,-25.391,-54.688,-48.340
1687530776.032,-49.805,-27.832,-22.949,-52.246,-67.871
1687530776.036,-36.133,-27.832,-22.949,-47.852,-56.641
1687530776.040,-41.016,-29.785,-22.949,-49.316,-40.527
1687530776.044,-49.805,-31.738,-20.508,-48.828,-30.762
1687530776.048,-64.941,-29.297,-27.344,-58.594,-49.805
1687530776.052,-65.918,-31.738,-31.738,-64.453,-8.789
1687530776.055,-55.176,-32.227,-26.367,-48.828,309.082
1687530776.059,-51.270,-30.762,-24.902,-40.039,333.496
1687530776.063,-50.781,-31.250,-23.438,-37.598,-80.078
1687530776.067,-65.430,-32.227,-25.879,-44.434,1.953
1687530776.071,-66.406,-33.203,-28.320,-51.270,205.078
1687530776.072,-45.898,-30.273,-23.926,-51.758,22.949
1687530776.076,-38.086,-27.832,-20.996,-57.129,-106.934
1687530776.080,-49.316,-27.832,-17.090,-59.570,-141.113
1687530776.084,-67.383,-30.273,-20.996,-60.547,-130.371
1687530776.088,-70.801,-28.809,-27.832,-62.988,-83.008
1687530776.092,-59.082,-25.391,-25.879,-60.547,-58.594
1687530776.096,-42.480,-26.367,-19.043,-50.781,0.977
1687530776.099,-48.828,-26.367,-19.043,-46.387,204.590
1687530776.103,-68.359,-24.902,-24.902,-51.270,31.250
1687530776.107,-71.777,-25.879,-22.461,-56.152,-128.418
1687530776.111,-57.617,-29.297,-20.020,-56.641,-25.391
1687530776.115,-47.852,-24.414,-24.902,-52.734,51.758
1687530776.118,-38.086,-14.648,-25.391,-41.504,-68.848
1687530776.122,-48.828,-19.531,-21.973,-37.109,-105.469
1687530776.126,-64.941,-28.320,-19.531,-47.363,-18.555
1687530776.130,-53.711,-26.855,-16.113,-54.688,-23.926
1687530776.134,-53.223,-25.391,-17.090,-60.547,-12.695
1687530776.138,-56.152,-29.297,-21.973,-50.293,29.297
1687530776.142,-63.965,-28.809,-21.484,-42.969,198.242
1687530776.145,-73.730,-30.762,-22.461,-57.129,205.566
1687530776.149,-59.082,-30.762,-22.949,-59.082,-79.590
1687530776.153,-41.016,-27.832,-17.090,-46.875,-108.887
1687530776.157,-43.945,-24.414,-17.578,-49.316,100.098
1687530776.161,-56.641,-20.020,-20.508,-53.223,116.699
1687530776.164,-58.105,-20.020,-23.438,-49.805,-76.660
1687530776.168,-51.270,-24.902,-25.391,-49.316,-101.074
1687530776.172,-39.551,-24.902,-19.531,-42.480,141.113
1687530776.176,-37.109,-25.391,-22.949,-48.828,40.527
1687530776.180,-43.945,-23.438,-24.414,-51.758,-116.211
1687530776.184,-49.316,-26.367,-20.508,-41.992,81.055
1687530776.188,-48.340,-29.785,-24.414,-45.898,229.980
1687530776.191,-37.109,-23.926,-22.949,-48.340,-23.438
1687530776.195,-34.180,-21.973,-21.484,-49.805,-178.223
1687530776.199,-47.363,-25.879,-29.297,-51.758,-83.496
1687530776.203,-63.965,-28.809,-33.203,-64.453,-38.574
1687530776.207,-56.641,-23.438,-28.320,-62.500,-178.223
1687530776.225,-38.086,-19.531,-23.926,-53.711,-137.695
1687530776.229,-36.621,-26.367,-25.391,-63.477,7.812
1687530776.233,-46.387,-25.391,-26.855,-66.895,-56.641
1687530776.237,-63.965,-22.461,-27.344,-66.895,-119.629
1687530776.241,-62.988,-25.391,-27.832,-70.801,-88.867
1687530776.245,-52.734,-27.832,-22.949,-64.941,121.094
1687530776.249,-45.410,-24.902,-21.484,-58.105,166.992
1687530776.252,-46.387,-22.949,-28.320,-57.617,-53.711
1687530776.256,-69.824,-28.809,-33.691,-61.523,-111.328
1687530776.260,-75.195,-27.344,-31.738,-55.176,110.840
1687530776.264,-53.223,-23.926,-29.785,-50.781,84.473
1687530776.268,-38.574,-27.344,-27.344,-52.246,-162.598
1687530776.289,-45.898,-29.785,-31.738,-41.992,-98.145
1687530776.293,-65.430,-31.250,-37.598,-35.645,146.484
1687530776.297,-68.359,-31.250,-34.668,-53.711,-6.348
1687530776.301,-56.641,-34.668,-26.855,-59.570,-120.117
1687530776.305,-45.410,-29.785,-25.391,-49.805,45.898
1687530776.309,-46.387,-24.414,-28.320,-47.852,167.969
1687530776.313,-65.918,-25.391,-23.926,-44.922,78.125
1687530776.316,-70.312,-26.855,-22.461,-47.852,-116.211
1687530776.320,-53.223,-27.344,-22.949,-49.316,-89.355
1687530776.324,-49.316,-27.832,-19.043,-43.945,196.289
1687530776.328,-55.664,-28.320,-19.531,-48.340,75.195
1687530776.332,-62.988,-28.809,-21.484,-55.664,-49.316
1687530776.321,-70.801,-29.297,-23.926,-61.035,17.578
1687530776.325,-61.035,-29.297,-28.809,-61.523,-21.484
1687530776.329,-44.434,-27.344,-27.344,-53.711,-45.410
1687530776.333,-41.992,-24.414,-24.414,-50.781,-56.152
1687530776.337,-55.664,-22.949,-26.367,-57.617,57.129
1687530776.341,-66.406,-22.461,-26.367,-57.129,93.750
1687530776.345,-56.152,-24.902,-26.855,-52.246,118.164
1687530776.348,-44.922,-26.855,-28.809,-48.340,153.809
1687530776.352,-44.434,-23.438,-26.367,-37.598,294.434
1687530776.356,-53.711,-22.461,-26.855,-31.250,319.824
1687530776.360,-59.082,-23.438,-25.391,-47.363,30.762
1687530776.364,-52.246,-28.320,-25.391,-52.734,-51.758
1687530776.357,-47.363,-30.762,-22.461,-41.016,77.637
1687530776.361,-48.828,-34.180,-20.020,-47.852,11.230
1687530776.365,-60.547,-34.668,-21.973,-52.734,-95.703
1687530776.369,-72.266,-32.227,-23.438,-49.316,-20.508
1687530776.373,-60.547,-25.879,-23.926,-43.945,-1.953
1687530776.377,-45.410,-21.484,-23.438,-47.363,-8.789
1687530776.381,-46.875,-26.367,-24.414,-64.941,29.785
1687530776.384,-55.664,-26.367,-28.320,-62.500,48.828
1687530776.388,-70.312,-23.438,-29.297,-63.965,284.668
1687530776.392,-69.824,-28.809,-31.250,-73.730,149.902
1687530776.396,-50.781,-23.438,-30.273,-70.801,-113.770
1687530776.400,-45.898,-18.555,-26.367,-59.082,-41.016
1687530776.402,-55.664,-23.438,-28.320,-54.199,-31.738
1687530776.406,-62.012,-16.113,-29.297,-62.012,-74.219
1687530776.410,-52.734,-13.672,-31.738,-64.941,-61.523
1687530776.414,-25.391,-21.484,-27.344,-48.340,-9.766
1687530776.418,-3.906,-20.996,-23.926,-32.715,-8.301
1687530776.422,-6.348,-17.578,-27.344,-33.691,14.160
1687530776.426,-18.555,-18.066,-25.879,-39.062,40.039
1687530776.429,-21.973,-19.531,-22.949,-41.016,196.777
1687530776.433,-15.137,-18.555,-19.531,-35.156,173.828
1687530776.437,-18.555,-21.484,-22.949,-31.250,-101.074
1687530776.441,-33.691,-19.531,-23.926,-35.645,5.859
1687530776.445,-58.594,-25.879,-19.043,-39.551,173.340
1687530776.449,-66.895,-30.762,-24.414,-45.898,-72.754
1687530776.453,-53.223,-25.879,-28.809,-56.152,-212.891
1687530776.457,-43.457,-24.414,-23.926,-47.363,-95.703
1687530776.461,-51.758,-28.320,-25.391,-37.109,77.148
1687530776.465,-65.918,-29.297,-27.344,-42.480,27.344
1687530776.469,-67.383,-26.855,-23.926,-44.922,-6.348
1687530776.473,-55.664,-25.879,-29.297,-45.898,156.738
1687530776.476,-41.504,-24.902,-28.809,-40.527,302.246
1687530776.480,-38.086,-22.461,-26.855,-32.715,30.762
1687530776.484,-45.898,-22.949,-28.320,-33.203,-133.301
1687530776.488,-54.199,-23.438,-22.949,-39.062,-30.762
1687530776.492,-46.875,-22.949,-19.531,-39.551,-45.898
1687530776.495,-39.551,-26.367,-19.531,-34.668,-63.965
1687530776.499,-42.969,-28.809,-22.949,-38.574,14.648
1687530776.503,-55.664,-27.832,-24.414,-43.457,84.473
1687530776.507,-62.500,-21.484,-21.973,-51.758,-26.367
1687530776.511,-55.664,-16.602,-25.391,-59.082,-136.719
1687530776.515,-44.922,-20.508,-28.809,-55.664,-75.195
1687530776.519,-47.852,-25.879,-30.762,-51.270,193.848
1687530776.522,-51.270,-23.926,-31.738,-52.246,234.863
1687530776.526,-56.641,-16.602,-29.785,-49.316,-43.457
1687530776.530,-53.711,-14.648,-28.320,-51.270,-51.758
1687530776.534,-41.992,-18.555,-28.320,-58.594,87.402
1687530776.538,-31.738,-18.066,-28.809,-54.199,-2.930
1687530776.537,-35.156,-20.508,-21.973,-42.969,-96.191
1687530776.541,-62.012,-25.391,-18.066,-45.898,-28.320
1687530776.545,-66.895,-28.809,-22.949,-54.199,21.484
1687530776.549,-54.688,-32.227,-24.902,-61.523,-19.043
1687530776.553,-47.363,-29.297,-23.438,-59.082,-100.098
1687530776.557,-59.570,-32.227,-27.832,-51.758,32.227
1687530776.561,-67.871,-32.715,-25.391,-41.992,444.336
1687530776.564,-59.570,-30.762,-23.926,-39.062,354.004
1687530776.568,-40.527,-35.156,-27.832,-44.922,-97.656
1687530776.572,-29.297,-37.598,-29.785,-40.039,-125.488
1687530776.576,-33.691,-35.156,-28.320,-35.156,-21.973
1687530776.580,-46.875,-36.621,-27.344,-35.156,-125.977
1687530776.597,-47.852,-36.133,-28.320,-39.551,-128.418
1687530776.601,-28.809,-30.762,-27.832,-32.227,3.418
1687530776.605,-23.438,-30.762,-26.855,-28.320,-42.969
1687530776.609,-34.180,-33.203,-26.367,-27.832,-145.020
1687530776.613,-52.734,-31.738,-26.367,-27.832,-49.805
1687530776.617,-52.734,-31.250,-26.367,-30.273,92.285
1687530776.621,-29.297,-31.250,-27.344,-33.203,82.031
1687530776.624,-26.855,-29.785,-28.809,-34.668,83.984
1687530776.628,-29.785,-28.320,-29.297,-31.250,4.883
1687530776.632,-38.086,-27.832,-32.715,-31.250,228.516
1687530776.636,-42.969,-26.367,-36.133,-37.109,388.672
1687530776.640,-30.762,-24.902,-34.180,-40.039,-38.086
1687530776.642,-19.043,-27.832,-31.738,-35.645,-145.508
1687530776.646,-22.461,-24.902,-32.715,-30.273,-30.273
1687530776.650,-38.086,-25.879,-32.715,-37.598,-50.781
1687530776.654,-46.875,-28.809,-32.227,-48.828,-76.660
1687530776.658,-35.645,-31.738,-32.227,-45.898,-87.402
1687530776.662,-23.926,-35.156,-30.762,-41.504,33.203
1687530776.666,-17.578,-32.715,-23.926,-29.785,28.809
1687530776.669,-39.062,-34.180,-25.879,-28.809,-112.793
1687530776.673,-49.805,-32.227,-31.738,-32.227,29.297
1687530776.677,-34.668,-29.297,-26.855,-22.461,312.988
1687530776.681,-29.785,-34.180,-24.902,-19.531,99.121
1687530776.685,-25.391,-37.598,-24.902,-21.973,-110.840
1687530776.688,-34.180,-34.180,-26.367,-23.926,-11.230
1687530776.692,-43.945,-34.180,-30.762,-31.250,26.855
1687530776.696,-35.156,-32.227,-31.738,-36.133,-40.039
1687530776.700,-26.855,-31.250,-32.715,-35.645,-64.941
1687530776.704,-28.320,-32.715,-34.180,-30.273,23.926
1687530776.708,-32.227,-31.250,-32.715,-19.531,51.758
1687530776.712,-34.668,-29.297,-35.156,-21.484,5.859
1687530776.715,-28.809,-29.785,-36.133,-25.879,5.371
1687530776.719,-21.484,-31.250,-33.203,-17.090,147.949
1687530776.723,-15.137,-26.855,-30.762,-12.695,104.004
1687530776.727,-21.484,-20.996,-28.809,-10.742,-73.242
1687530776.731,-37.109,-21.973,-33.691,-8.789,38.086
1687530776.732,-33.203,-23.926,-34.668,-13.184,245.117
1687530776.736,-17.090,-22.949,-31.738,-16.113,107.422
1687530776.740,-9.766,-29.785,-31.250,-7.812,-147.949
1687530776.744,-19.043,-33.691,-30.762,-6.836,-145.508
1687530776.748,-29.785,-27.832,-28.809,-9.766,-66.895
1687530776.752,-22.461,-30.273,-29.785,-15.137,-39.551
1687530776.756,-6.348,-33.203,-26.855,-17.578,-18.066
1687530776.759,1.465,-31.250,-20.996,-7.812,10.254
1687530776.763,-4.395,-32.715,-24.902,1.465,188.965
1687530776.767,-22.949,-36.133,-33.691,-3.906,58.105
1687530776.771,-29.297,-37.109,-32.227,-12.207,-113.281
1687530776.775,-11.230,-34.180,-37.598,-16.113,-79.590
1687530776.779,14.648,-27.832,-39.551,5.859,-41.992
1687530776.783,8.789,-31.250,-25.391,18.555,3.906
1687530776.787,-29.785,-38.574,-19.043,-7.324,-43.945
1687530776.791,-37.598,-37.598,-17.578,-15.625,6.348
1687530776.795,-19.043,-37.109,-19.043,-16.113,0.977
1687530776.799,-15.625,-46.875,-21.484,-23.438,16.602
1687530776.803,-21.973,-48.340,-20.020,-27.344,90.820
1687530776.806,-30.762,-42.969,-22.461,-25.879,183.594
1687530776.810,-32.227,-43.457,-23.926,-21.973,104.492
1687530776.814,-19.043,-46.387,-24.414,-28.809,-131.836
1687530776.818,-10.742,-44.434,-25.391,-20.508,-67.383
1687530776.822,-7.324,-39.551,-25.879,-5.859,183.594
1687530776.822,-11.230,-35.645,-25.391,-11.230,60.547
1687530776.826,-17.578,-37.598,-25.391,-13.672,-100.098
1687530776.830,-6.348,-41.992,-26.855,-8.789,-68.359
1687530776.834,3.906,-43.945,-33.691,-9.766,36.133
1687530776.838,5.371,-43.945,-36.621,-6.348,34.180
1687530776.842,-6.836,-42.480,-36.133,-11.230,4.883
1687530776.846,-19.531,-42.480,-37.598,-21.973,182.129
1687530776.849,-14.648,-40.527,-37.109,-15.137,375.000
1687530776.853,-3.906,-41.016,-32.227,-11.230,106.445
1687530776.857,1.465,-43.945,-32.227,-10.254,-139.648
1687530776.861,-11.230,-46.875,-35.645,-11.230,-38.574
1687530776.865,-22.949,-48.828,-40.527,-18.066,-73.730
1687530776.867,-13.672,-51.270,-44.922,-17.578,-167.969
1687530776.871,-0.488,-52.246,-41.016,-12.207,-144.531
1687530776.875,6.836,-48.828,-36.621,0.488,-53.711
1687530776.879,7.324,-46.875,-37.109,5.371,-19.043
1687530776.883,-2.930,-49.316,-41.016,2.930,-62.988
1687530776.887,5.859,-49.805,-39.062,4.395,-35.156
1687530776.891,18.066,-44.922,-32.227,7.812,245.117
1687530776.894,15.137,-49.316,-34.668,13.672,298.340
1687530776.898,11.230,-55.664,-41.504,17.578,-35.156
1687530776.902,-6.836,-54.199,-41.016,15.137,-59.570
1687530776.906,-9.766,-57.617,-41.992,12.695,243.652
1687530776.910,2.930,-65.918,-48.828,9.766,105.469
1687530776.912,8.789,-63.965,-49.805,13.672,-155.273
1687530776.916,7.324,-56.152,-44.922,18.066,-77.637
1687530776.920,-8.301,-54.688,-45.410,13.672,-32.227
1687530776.924,-8.301,-54.199,-46.387,3.418,-119.629
1687530776.928,8.789,-56.152,-44.922,4.395,-126.465
1687530776.932,18.066,-54.199,-42.969,10.254,43.945
1687530776.936,14.160,-43.457,-40.527,10.742,246.582
1687530776.939,-2.441,-46.387,-39.551,-2.930,56.152
1687530776.943,-1.953,-49.316,-46.387,-14.160,-49.316
1687530776.947,13.184,-46.387,-47.363,-10.254,9.766
1687530776.951,14.648,-45.898,-41.992,0.000,107.422
1687530776.955,13.672,-45.410,-41.504,5.371,-44.922
1687530776.972,-2.441,-49.805,-41.992,4.883,-120.605
1687530776.976,-9.766,-50.781,-41.992,10.254,-38.574
1687530776.980,10.254,-49.316,-46.387,12.207,-72.754
1687530776.984,23.926,-44.922,-46.875,7.812,-152.832
1687530776.988,22.461,-40.039,-43.945,16.113,-115.234
1687530776.992,8.301,-42.480,-40.527,27.344,66.406
1687530776.996,3.418,-44.922,-42.480,23.438,78.613
1687530776.999,18.066,-46.875,-45.898,17.578,-41.016
1687530777.003,30.762,-46.387,-41.504,21.973,-109.863
1687530777.007,32.715,-43.945,-45.410,26.855,147.461
1687530777.011,22.949,-46.387,-50.781,21.484,216.309
1687530777.015,14.648,-52.734,-45.898,18.066,9.277
1687530777.017,25.391,-51.270,-42.969,18.066,25.391
1687530777.021,35.645,-50.293,-45.898,18.555,231.445
1687530777.025,33.691,-50.781,-43.945,17.578,119.629
1687530777.029,20.996,-48.828,-43.457,18.555,-104.980
1687530777.033,9.277,-45.898,-45.410,24.414,-133.789
1687530777.037,17.090,-44.922,-46.875,15.625,-74.707
1687530777.041,25.879,-48.828,-50.293,5.371,-34.180
1687530777.044,20.996,-51.758,-52.734,3.906,-138.184
1687530777.048,8.789,-48.340,-52.246,6.836,-98.145
1687530777.052,0.977,-45.410,-53.223,15.625,182.129
1687530777.056,13.672,-48.828,-54.688,12.695,-44.434
1687530777.060,25.391,-51.270,-53.223,8.301,-161.621
1687530777.062,28.809,-48.828,-52.734,15.137,-34.668
1687530777.066,21.484,-49.316,-50.781,15.137,-68.848
1687530777.070,12.207,-47.363,-44.434,11.719,-115.723
1687530777.074,23.438,-41.504,-42.969,14.160,-130.859
1687530777.078,33.203,-40.527,-49.316,18.555,43.457
1687530777.082,31.738,-42.969,-48.828,20.020,92.285
1687530777.086,24.414,-42.969,-49.805,20.020,46.387
1687530777.089,10.742,-45.898,-48.340,23.926,61.035
1687530777.093,16.113,-48.828,-46.387,37.598,166.016
1687530777.097,23.926,-52.246,-48.828,41.016,116.699
1687530777.101,25.879,-59.570,-49.316,34.180,-79.590
1687530777.105,20.996,-56.641,-46.875,33.691,-45.410
1687530777.108,1.953,-54.199,-48.828,29.297,169.434
1687530777.112,6.348,-56.152,-54.199,20.508,4.395
1687530777.116,29.297,-57.617,-53.711,21.484,-125.977
1687530777.120,28.809,-55.176,-59.570,9.766,15.625
1687530777.124,23.438,-53.223,-61.035,4.883,20.020
1687530777.128,20.508,-54.199,-59.570,7.812,51.270
1687530777.132,22.949,-48.828,-62.500,-0.488,-3.418
1687530777.135,42.969,-45.898,-61.035,1.953,34.180
1687530777.139,49.316,-47.852,-62.012,14.160,232.422
1687530777.143,39.551,-48.828,-64.941,20.020,7.324
1687530777.147,20.508,-51.270,-63.965,20.020,-114.258
1687530777.151,10.742,-53.223,-64.453,6.836,9.766
1687530777.153,22.461,-55.664,-63.965,7.324,17.578
1687530777.157,26.855,-57.617,-57.617,14.648,-65.430
1687530777.161,27.344,-52.246,-57.617,16.113,-58.105
1687530777.165,22.461,-54.688,-55.176,29.297,34.668
1687530777.169,1.953,-61.035,-47.852,23.438,-37.598
1687530777.173,-6.836,-61.523,-48.828,-0.977,-88.867
1687530777.177,9.766,-54.199,-49.805,-0.977,-23.926
1687530777.180,13.184,-57.617,-47.363,15.137,334.473
1687530777.184,-6.836,-71.777,-51.758,20.508,465.332
1687530777.188,-18.066,-74.219,-50.293,11.719,24.414
1687530777.192,-11.719,-68.848,-41.016,4.395,-50.781
1687530777.196,0.488,-67.871,-40.527,10.254,149.902
1687530777.197,8.301,-65.430,-45.898,20.020,35.645
1687530777.201,1.953,-64.941,-49.316,13.672,-76.172
1687530777.205,-2.930,-61.523,-45.898,6.348,-56.641
1687530777.209,9.277,-61.523,-43.945,11.230,-40.527
1687530777.213,16.113,-61.523,-45.410,9.766,-94.238
1687530777.217,19.043,-59.082,-46.387,7.812,-56.641
1687530777.221,9.766,-62.012,-48.828,12.207,173.828
1687530777.224,-5.371,-62.500,-49.316,18.066,416.992
1687530777.228,5.859,-60.059,-48.828,13.672,156.738
1687530777.232,21.484,-57.617,-48.828,11.719,-97.656
1687530777.236,17.578,-52.734,-48.828,13.672,-25.391
1687530777.240,4.883,-52.734,-49.805,12.695,-43.457
1687530777.242,-8.301,-56.152,-49.805,7.324,-119.629
1687530777.246,-5.371,-56.152,-48.828,6.348,-82.031
1687530777.250,4.395,-57.129,-52.246,12.695,0.977
1687530777.254,10.742,-57.129,-52.246,18.066,-20.508
1687530777.258,11.230,-54.199,-48.340,24.902,-49.316
1687530777.262,2.930,-52.246,-43.457,27.832,-33.203
1687530777.266,7.324,-56.152,-44.434,27.344,153.320
1687530777.269,19.531,-58.594,-52.246,27.832,186.035
1687530777.273,23.438,-56.641,-52.734,25.391,-64.453
1687530777.277,19.531,-56.152,-48.828,26.367,-27.832
1687530777.281,6.348,-54.199,-43.945,29.297,140.625
1687530777.285,1.953,-60.059,-43.457,27.832,85.449
1687530777.287,20.996,-62.500,-43.457,32.715,-118.652
1687530777.291,34.668,-54.688,-44.434,33.203,-88.379
1687530777.295,24.414,-57.129,-50.293,35.156,186.035
1687530777.299,5.859,-59.570,-51.758,33.203,57.129
1687530777.303,3.906,-56.641,-47.363,25.391,-138.672
1687530777.307,15.625,-55.176,-46.875,25.879,91.309
1687530777.311,24.414,-53.711,-46.875,30.762,204.102
1687530777.314,25.391,-59.082,-47.363,35.645,9.766
1687530777.318,11.230,-63.965,-49.805,26.367,-77.637
1687530777.322,5.859,-59.570,-48.340,13.672,-61.035
1687530777.326,16.602,-56.641,-45.898,14.160,-66.406
1687530777.330,28.809,-60.547,-42.480,27.832,-114.746
1687530777.334,28.320,-63.477,-45.898,29.297,-58.105
1687530777.338,10.742,-60.547,-46.875,24.902,38.086
1687530777.342,7.324,-51.758,-43.945,26.367,15.625
1687530777.346,16.602,-53.711,-48.828,19.043,-124.023
1687530777.350,22.461,-57.129,-46.875,19.043,-109.863
1687530777.354,19.043,-56.152,-44.922,27.344,143.066
1687530777.358,10.742,-57.129,-41.016,30.273,119.141
1687530777.361,3.906,-52.246,-35.156,22.461,-117.676
1687530777.365,2.441,-50.293,-41.504,7.324,-175.293
1687530777.369,5.371,-47.852,-41.992,10.742,70.312
1687530777.373,15.625,-33.203,-26.855,17.090,182.129
1687530777.377,11.719,-30.273,-20.996,12.695,-46.387
1687530777.394,8.789,-31.250,-18.066,13.672,-100.586
1687530777.398,15.137,-31.250,-19.531,17.578,99.121
1687530777.402,21.973,-31.250,-27.832,17.090,104.492
1687530777.406,22.461,-27.832,-25.879,14.648,-36.133
1687530777.410,18.555,-22.461,-23.926,37.598,39.551
1687530777.414,14.160,-20.020,-24.902,46.387,224.121
1687530777.418,22.461,-23.438,-26.367,30.762,76.660
1687530777.421,35.645,-21.973,-24.414,33.691,-89.355
1687530777.425,37.598,-23.438,-22.461,41.504,-3.418
1687530777.429,20.508,-30.273,-28.809,32.715,139.648
1687530777.433,3.418,-30.273,-34.668,20.508,-58.594
1687530777.437,7.812,-28.809,-33.203,21.973,-153.809
1687530777.441,22.949,-30.273,-33.691,20.508,-81.055
1687530777.445,30.273,-33.203,-35.156,17.578,-53.711
1687530777.449,13.184,-33.691,-33.203,14.160,-73.730
1687530777.453,-7.324,-35.645,-31.738,9.277,-125.488
1687530777.457,-1.465,-38.574,-31.738,7.324,-21.973
1687530777.461,12.207,-42.480,-38.574,1.465,82.031
1687530777.465,15.625,-42.969,-39.551,1.953,-2.930
1687530777.468,8.301,-41.992,-40.039,3.418,-52.734
1687530777.472,-10.742,-43.457,-49.316,0.000,147.461
1687530777.476,-10.254,-42.480,-50.781,-0.488,244.629
1687530777.480,10.254,-42.969,-46.387,-9.277,-11.230
1687530777.484,16.602,-43.945,-46.875,-4.883,-23.926
1687530777.482,6.348,-37.598,-46.875,0.977,136.719
1687530777.486,-10.254,-38.086,-41.504,0.488,-32.227
1687530777.490,-1.465,-41.016,-33.203,13.672,-142.090
1687530777.494,12.695,-37.598,-35.645,11.719,0.977
1687530777.498,6.348,-42.480,-37.598,-1.953,5.371
1687530777.502,-5.859,-47.363,-37.109,-5.859,-58.105
1687530777.506,-22.949,-47.363,-41.016,-11.230,-37.109
1687530777.509,-27.832,-47.852,-45.898,-15.137,107.422
1687530777.513,-20.020,-50.293,-47.363,-8.301,333.984
1687530777.517,-10.254,-47.363,-43.457,1.465,99.609
1687530777.521,-6.348,-43.945,-42.969,-6.348,-106.445
1687530777.525,-22.949,-44.434,-46.875,-8.301,-50.781
1687530777.528,-36.133,-43.457,-46.387,-7.324,-45.410
1687530777.532,-24.902,-42.480,-43.945,-15.625,-89.355
1687530777.536,-8.301,-39.551,-43.945,-13.184,-91.797
1687530777.540,-10.742,-43.945,-45.898,-12.695,31.250
1687530777.544,-25.879,-51.758,-47.363,-17.090,20.508
1687530777.548,-32.715,-50.781,-46.387,-21.484,34.180
1687530777.552,-20.508,-46.387,-45.898,-19.043,106.445
1687530777.555,-7.324,-47.852,-41.992,-6.348,199.219
1687530777.559,-6.836,-49.316,-47.852,-2.441,173.340
1687530777.563,-28.809,-45.898,-52.246,-9.766,-13.184
1687530777.567,-40.039,-41.504,-47.852,-15.625,0.488
1687530777.571,-23.438,-40.039,-45.410,-17.578,216.309
1687530777.573,-15.137,-45.410,-43.457,-20.020,86.914
1687530777.577,-14.160,-46.875,-41.016,-21.484,-110.352
1687530777.581,-23.926,-42.969,-40.527,-17.578,-80.566
1687530777.585,-33.691,-41.504,-41.992,-18.555,-20.996
1687530777.589,-27.832,-43.457,-46.387,-26.855,39.062
1687530777.593,-16.602,-42.480,-44.922,-30.273,-4.883
1687530777.597,-5.859,-39.551,-44.434,-25.879,62.988
1687530777.600,-12.207,-39.551,-48.828,-13.184,280.273
1687530777.604,-31.250,-36.621,-53.223,-20.508,74.707
1687530777.608,-29.297,-38.086,-51.758,-40.527,-85.938
1687530777.612,-14.160,-43.945,-50.293,-42.480,-8.301
1687530777.616,-8.789,-36.621,-47.852,-34.668,-17.578
1687530777.618,-17.090,-34.180,-43.457,-29.297,-101.074
1687530777.622,-28.809,-37.598,-47.363,-25.879,-166.016
1687530777.626,-31.250,-41.504,-49.805,-29.297,41.992
1687530777.630,-16.602,-47.852,-49.316,-32.715,125.000
1687530777.634,-3.418,-46.875,-46.387,-25.879,-15.137
1687530777.638,-11.719,-46.387,-43.945,-23.438,26.367
1687530777.642,-27.344,-49.316,-46.387,-23.438,307.129
1687530777.645,-26.855,-46.875,-47.852,-18.555,245.117
1687530777.649,-15.625,-43.457,-45.898,-21.973,-123.047
1687530777.653,-9.277,-41.016,-47.363,-19.531,-73.730
1687530777.657,-11.719,-45.410,-49.316,-17.578,104.492
1687530777.661,-33.691,-43.945,-50.293,-21.484,43.945
1687530777.664,-41.992,-41.016,-49.805,-27.832,-68.359
1687530777.668,-26.855,-43.945,-44.922,-25.391,-69.824
1687530777.672,-22.949,-42.969,-41.992,-18.555,170.898
1687530777.676,-20.996,-37.598,-39.062,-15.137,33.691
1687530777.680,-33.203,-35.645,-39.062,-21.484,-153.320
1687530777.684,-46.387,-35.645,-38.086,-28.809,32.227
1687530777.688,-36.621,-32.715,-37.598,-29.297,205.566
1687530777.691,-23.438,-31.738,-36.133,-29.297,14.160
1687530777.695,-22.461,-33.203,-31.738,-30.273,-136.719
1687530777.699,-36.621,-33.691,-33.691,-26.855,-62.500
1687530777.703,-46.387,-42.480,-43.457,-31.738,-8.789
1687530777.707,-33.691,-41.992,-43.945,-32.715,-45.410
1687530777.722,-25.391,-38.086,-44.434,-35.645,-90.332
1687530777.726,-30.273,-39.551,-49.805,-46.387,-111.816
1687530777.730,-41.992,-40.527,-49.805,-46.875,-91.797
1687530777.734,-56.152,-47.852,-50.293,-48.828,-95.215
1687530777.738,-51.758,-44.434,-48.828,-55.176,-101.562
1687530777.742,-34.668,-38.574,-45.898,-43.945,182.617
1687530777.746,-27.832,-33.203,-44.922,-32.715,262.695
1687530777.749,-41.992,-32.715,-44.434,-36.621,-82.031
1687530777.753,-60.059,-37.598,-43.945,-35.645,-131.348
1687530777.757,-57.617,-41.016,-44.434,-36.133,160.156
1687530777.761,-41.016,-43.945,-41.504,-41.016,120.605
1687530777.765,-28.809,-37.109,-38.086,-43.457,-73.242
1687530777.770,-41.504,-37.598,-40.527,-40.039,-54.688
1687530777.774,-64.453,-46.875,-43.457,-44.922,110.352
1687530777.778,-55.664,-44.434,-42.969,-52.246,-0.488
1687530777.782,-44.434,-42.480,-41.992,-42.969,-139.160
1687530777.786,-51.270,-42.969,-42.969,-45.410,-44.434
1687530777.790,-61.523,-44.922,-40.527,-52.734,62.012
1687530777.794,-74.219,-42.480,-39.551,-50.781,44.434
1687530777.797,-66.406,-35.645,-36.133,-56.152,16.113
1687530777.801,-46.875,-34.668,-33.691,-59.082,16.113
1687530777.805,-40.527,-36.621,-37.109,-44.434,253.418
1687530777.809,-41.016,-36.133,-40.039,-42.480,135.254
1687530777.813,-53.711,-36.621,-41.504,-56.152,-68.359
1687530777.813,-50.781,-41.016,-42.969,-62.500,22.461
1687530777.817,-38.086,-41.016,-39.551,-56.641,-30.273
1687530777.821,-44.922,-39.062,-38.086,-48.340,-100.586
1687530777.825,-53.711,-38.574,-38.574,-49.316,-33.691
1687530777.829,-74.219,-39.062,-38.574,-58.105,-15.137
1687530777.833,-86.914,-41.504,-42.480,-64.941,67.383
1687530777.837,-74.219,-38.574,-43.457,-66.406,58.594
1687530777.840,-59.082,-31.738,-40.039,-61.523,-56.641
1687530777.844,-52.246,-29.785,-35.156,-50.293,122.559
1687530777.848,-68.359,-32.715,-38.574,-50.293,206.055
1687530777.852,-83.008,-35.645,-42.480,-69.824,-20.508
1687530777.856,-63.477,-37.598,-39.551,-74.219,-63.477
1687530777.858,-45.898,-33.691,-38.574,-56.641,211.426
1687530777.862,-50.293,-32.715,-38.086,-52.734,99.609
1687530777.866,-62.500,-29.297,-37.598,-61.523,-165.527
1687530777.870,-68.848,-25.879,-38.086,-58.594,-97.168
1687530777.874,-59.082,-27.832,-41.016,-54.199,-50.293
1687530777.878,-51.270,-27.832,-39.551,-49.805,-1.953
1687530777.882,-56.641,-31.250,-38.574,-50.293,-47.363
1687530777.885,-72.266,-34.180,-41.016,-48.340,37.598
1687530777.889,-76.660,-28.320,-34.180,-41.504,293.457
1687530777.893,-57.617,-23.438,-28.809,-42.969,24.414
1687530777.897,-48.340,-31.250,-30.762,-45.410,-182.129
1687530777.901,-49.316,-30.273,-35.156,-40.039,-61.035
1687530777.903,-62.500,-22.949,-36.133,-37.598,-56.641
1687530777.907,-74.219,-21.484,-33.203,-46.387,-160.645
1687530777.911,-64.453,-24.902,-32.715,-56.152,-147.461
1687530777.915,-54.199,-31.250,-33.203,-61.035,-74.219
1687530777.919,-47.852,-27.344,-38.086,-52.246,-76.172
1687530777.923,-61.523,-30.762,-41.992,-56.152,-49.316
1687530777.927,-75.195,-36.621,-42.969,-62.988,-66.406
1687530777.930,-66.406,-39.551,-43.945,-54.688,124.512
1687530777.934,-51.758,-37.109,-40.039,-55.176,144.531
1687530777.938,-46.387,-31.738,-39.551,-59.570,-156.738
1687530777.942,-58.105,-32.715,-34.180,-61.523,-39.062
1687530777.946,-74.219,-35.645,-32.715,-60.059,156.738
1687530777.949,-64.453,-36.621,-35.156,-52.246,14.648
1687530777.953,-45.410,-37.598,-32.227,-41.016,-24.414
1687530777.957,-40.039,-35.645,-28.320,-45.410,20.508
1687530777.961,-48.340,-35.645,-30.273,-51.270,-13.184
1687530777.965,-64.941,-37.598,-32.227,-49.805,11.230
1687530777.969,-61.035,-35.156,-34.180,-58.105,29.785
1687530777.973,-43.457,-30.762,-29.785,-52.734,143.066
1687530777.976,-51.270,-37.109,-32.715,-48.340,370.117
1687530777.980,-63.477,-45.898,-42.969,-57.129,83.496
1687530777.984,-68.848,-41.992,-39.062,-56.152,-74.707
1687530777.988,-62.500,-36.621,-32.715,-45.410,-9.277
1687530777.992,-33.691,-21.484,-21.484,-32.227,-12.695
1687530777.992,-10.742,-3.418,-7.812,-20.996,-92.773
1687530777.996,-10.254,-2.441,-5.371,-14.648,-96.191
1687530778.000,-31.738,-3.906,-4.395,-19.531,41.016
1687530778.004,-36.133,-0.977,-1.953,-22.949,48.828
1687530778.008,-20.508,0.488,-0.488,-23.438,-12.207
1687530778.012,-8.789,-2.930,-2.930,-16.113,-28.809
1687530778.016,0.000,-5.371,0.977,9.766,265.625
1687530778.019,-14.648,1.465,0.488,6.836,421.875
1687530778.023,-32.715,7.812,-5.859,-29.297,32.227
1687530778.027,-24.902,3.418,-4.883,-32.715,-55.664
1687530778.031,-20.020,0.488,-3.906,-37.598,68.359
1687530778.035,-20.020,4.395,-8.301,-40.527,-45.898
1687530778.037,-25.879,1.953,-14.648,-24.414,-106.445
1687530778.041,-38.086,-1.953,-15.137,-33.203,-58.105
1687530778.045,-32.227,-4.883,-15.625,-42.969,61.035
1687530778.049,-18.066,-6.836,-15.137,-35.645,-9.766
1687530778.053,-17.578,-5.371,-14.160,-33.203,-123.047
1687530778.057,-41.992,-12.207,-19.043,-39.062,128.418
1687530778.061,-64.941,-20.020,-21.973,-38.086,326.660
1687530778.064,-52.246,-23.926,-19.531,-39.551,28.320
1687530778.068,-36.133,-21.484,-14.160,-38.086,-134.277
1687530778.072,-35.645,-18.555,-13.672,-27.344,-35.645
1687530778.076,-48.828,-19.043,-19.531,-30.273,160.645
1687530778.080,-66.895,-20.020,-23.438,-49.316,-3.418
1687530778.098,-59.082,-18.066,-20.020,-56.152,-98.633
1687530778.102,-43.457,-16.602,-20.020,-46.875,0.488
1687530778.106,-44.434,-21.484,-23.438,-46.875,-31.738
1687530778.110,-61.523,-23.438,-26.855,-58.105,-33.691
1687530778.114,-75.684,-23.926,-28.320,-67.871,11.230
1687530778.118,-70.312,-23.926,-26.367,-68.848,161.133
1687530778.122,-61.523,-23.926,-25.391,-65.430,200.195
1687530778.125,-62.012,-27.344,-26.367,-65.918,53.711
1687530778.129,-71.289,-27.832,-25.391,-64.941,-48.828
1687530778.133,-90.332,-30.273,-27.344,-64.941,253.418
1687530778.137,-87.891,-28.809,-30.762,-64.941,450.684
1687530778.141,-62.012,-23.438,-29.785,-66.895,30.273
1687530778.142,-58.594,-25.391,-28.809,-67.871,-94.238
1687530778.146,-71.289,-27.832,-29.785,-72.266,-44.434
1687530778.150,-86.426,-28.320,-30.273,-73.730,-130.371
1687530778.154,-86.914,-28.320,-27.344,-75.195,-125.488
1687530778.158,-64.941,-26.855,-28.320,-79.590,-73.730
1687530778.162,-61.523,-27.832,-33.203,-71.777,20.996
1687530778.166,-69.336,-29.297,-33.203,-67.871,43.945
1687530778.169,-82.031,-28.809,-31.738,-71.289,-95.703
1687530778.173,-82.031,-24.414,-25.879,-65.918,-54.688
1687530778.177,-71.777,-25.879,-23.438,-64.453,236.816
1687530778.181,-64.453,-23.926,-22.461,-67.383,43.945
1687530778.185,-59.082,-19.043,-20.020,-53.711,-95.215
1687530778.187,-74.219,-20.996,-19.531,-50.781,11.230
1687530778.191,-76.660,-20.508,-21.973,-61.035,-37.598
1687530778.195,-62.012,-21.484,-26.855,-65.918,-114.746
1687530778.199,-54.199,-20.508,-23.438,-61.035,-126.465
1687530778.203,-51.270,-13.672,-18.555,-59.570,-86.914
1687530778.207,-66.895,-16.113,-19.043,-57.129,10.254
1687530778.211,-71.289,-22.461,-16.602,-56.152,88.867
1687530778.214,-57.617,-21.973,-20.508,-65.918,-3.418
1687530778.218,-48.340,-24.902,-21.484,-54.199,141.113
1687530778.222,-32.715,-24.414,-18.066,-30.273,151.855
1687530778.226,-54.199,-20.996,-32.227,-50.293,25.391
1687530778.230,-81.055,-23.926,-39.551,-79.102,20.508
1687530778.233,-65.918,-27.344,-43.457,-69.824,94.727
1687530778.237,-51.270,-26.367,-49.316,-59.570,14.160
1687530778.241,-49.316,-22.461,-47.852,-66.406,-197.266
1687530778.245,-68.359,-21.484,-52.246,-71.289,-155.273
1687530778.249,-84.473,-23.926,-61.035,-79.102,16.602
1687530778.253,-73.730,-25.879,-56.641,-79.590,17.090
1687530778.257,-54.688,-22.949,-49.316,-70.312,40.039
1687530778.260,-47.363,-20.508,-48.340,-64.941,95.215
1687530778.264,-61.523,-19.043,-47.852,-60.547,185.547
1687530778.268,-74.707,-19.531,-45.410,-64.453,-19.043
1687530778.272,-62.988,-22.949,-43.945,-64.453,-165.527
1687530778.276,-52.734,-26.367,-43.945,-63.477,-59.570
1687530778.277,-54.688,-24.902,-41.504,-64.941,-61.523
1687530778.281,-63.477,-26.855,-47.852,-64.941,-129.883
1687530778.285,-77.637,-29.297,-54.199,-71.289,-92.773
1687530778.289,-76.172,-27.344,-45.898,-68.848,64.453
1687530778.293,-62.500,-30.273,-44.922,-66.406,46.875
1687530778.297,-58.594,-30.273,-46.875,-66.895,-41.992
1687530778.301,-70.801,-29.297,-46.387,-59.570,-13.184
1687530778.304,-88.867,-26.855,-41.016,-54.688,194.824
1687530778.308,-87.402,-27.344,-35.156,-61.523,195.312
1687530778.312,-71.289,-28.320,-40.527,-69.336,-81.055
1687530778.316,-67.383,-28.809,-44.434,-70.801,27.832
1687530778.320,-79.590,-34.668,-41.504,-67.383,261.719
1687530778.322,-91.797,-35.645,-37.598,-63.965,78.125
1687530778.326,-84.473,-30.762,-36.133,-70.801,-99.121
1687530778.330,-68.848,-29.785,-37.598,-76.172,-62.012
1687530778.334,-62.500,-28.809,-39.551,-74.219,-5.859
1687530778.338,-72.266,-26.855,-40.527,-75.684,-5.371
1687530778.342,-92.773,-24.902,-42.480,-87.891,-25.879
1687530778.346,-99.121,-23.926,-43.457,-96.680,122.559
1687530778.349,-82.031,-25.391,-39.551,-86.914,404.297
1687530778.353,-73.242,-26.855,-39.062,-84.473,229.004
1687530778.357,-80.078,-28.320,-45.410,-91.309,-108.887
1687530778.361,-90.820,-26.367,-45.410,-90.820,-55.664
1687530778.365,-90.332,-23.926,-39.062,-85.938,-27.832
1687530778.367,-75.684,-24.414,-36.621,-90.820,-85.938
1687530778.371,-64.453,-25.391,-36.621,-89.844,-84.473
1687530778.375,-60.547,-21.973,-32.715,-74.219,-11.719
1687530778.379,-77.637,-26.855,-36.621,-77.637,-46.387
1687530778.383,-83.984,-32.227,-38.574,-86.426,-140.625
1687530778.387,-67.383,-27.832,-36.133,-82.520,-92.773
1687530778.391,-59.082,-28.320,-31.250,-78.613,253.906
1687530778.394,-63.965,-33.203,-25.879,-73.242,287.109
1687530778.398,-80.078,-31.738,-25.391,-67.871,-9.277
1687530778.402,-91.309,-31.738,-23.438,-73.730,-74.219
1687530778.406,-82.031,-33.203,-24.902,-78.125,189.941
1687530778.410,-71.289,-34.180,-28.809,-79.590,81.543
1687530778.413,-70.312,-35.645,-23.438,-78.613,-162.598
1687530778.417,-81.055,-34.180,-21.484,-76.172,-50.781
1687530778.421,-88.867,-32.715,-21.973,-83.496,21.484
1687530778.425,-78.613,-31.738,-21.484,-83.984,-52.734
1687530778.429,-69.336,-33.203,-25.391,-83.496,-83.496
1687530778.433,-69.336,-33.203,-24.414,-79.102,100.098
1687530778.437,-80.566,-26.367,-23.438,-83.984,231.445
1687530778.440,-94.727,-26.855,-24.902,-92.773,41.504
1687530778.444,-88.379,-30.273,-23.926,-86.914,-101.562
1687530778.448,-79.590,-28.320,-25.391,-93.750,-38.086
1687530778.452,-80.078,-27.832,-25.879,-89.844,136.230
1687530778.456,-92.285,-30.273,-26.367,-81.055,31.738
1687530778.473,-108.398,-30.762,-26.367,-83.496,-95.215
1687530778.477,-102.539,-35.156,-20.996,-77.637,-37.598
1687530778.481,-83.496,-37.109,-10.254,-66.895,-26.367
1687530778.485,-78.125,-35.156,-15.137,-66.895,-116.211
1687530778.489,-99.121,-36.133,-22.949,-80.078,-68.359
1687530778.493,-116.211,-35.645,-26.367,-83.984,135.742
1687530778.497,-108.398,-34.180,-28.809,-82.031,133.301
1687530778.500,-90.332,-35.645,-26.367,-77.637,-19.531
1687530778.504,-80.566,-34.180,-28.320,-76.660,-33.691
1687530778.508,-83.008,-31.250,-32.715,-81.055,236.328
1687530778.512,-94.727,-28.320,-32.227,-85.938,328.125
1687530778.516,-92.773,-28.809,-33.203,-92.773,-37.598
1687530778.517,-65.430,-24.414,-31.738,-86.426,-140.625
1687530778.521,-53.711,-20.996,-33.203,-75.684,178.223
1687530778.525,-62.500,-22.949,-39.551,-84.473,77.637
1687530778.529,-68.359,-21.484,-36.133,-95.215,-119.629
1687530778.533,-69.336,-18.555,-32.715,-90.332,-83.496
1687530778.537,-62.988,-18.066,-36.621,-88.867,-112.793
1687530778.541,-62.500,-21.484,-39.062,-90.820,-37.598
1687530778.544,-71.777,-23.438,-39.551,-89.355,-69.824
1687530778.548,-93.750,-24.414,-37.109,-93.262,-67.383
1687530778.552,-103.027,-21.973,-34.668,-91.797,213.379
1687530778.556,-90.332,-20.996,-35.156,-94.238,52.246
1687530778.560,-84.961,-24.902,-40.527,-101.074,-129.395
1687530778.564,-95.703,-20.508,-41.016,-99.121,-40.527
1687530778.568,-115.723,-20.996,-38.086,-101.074,-14.648
1687530778.572,-121.094,-26.367,-39.551,-101.562,-40.039
1687530778.576,-107.422,-26.367,-38.086,-98.633,18.066
1687530778.580,-97.656,-25.879,-35.645,-98.145,138.184
1687530778.584,-92.285,-24.414,-33.203,-89.844,151.367
1687530778.588,-98.633,-20.020,-34.668,-92.773,98.633
1687530778.591,-105.469,-18.555,-39.062,-96.680,0.000
1687530778.595,-93.262,-21.484,-36.133,-90.820,116.699
1687530778.599,-74.707,-16.602,-28.320,-88.379,166.504
1687530778.603,-69.824,-14.160,-24.902,-87.891,25.879
1687530778.607,-89.844,-20.508,-25.391,-84.961,-4.395
1687530778.609,-115.234,-25.879,-28.320,-87.891,90.820
1687530778.613,-107.422,-27.344,-30.762,-93.750,-16.113
1687530778.617,-95.215,-24.902,-32.227,-90.820,-105.469
1687530778.621,-99.609,-25.391,-32.715,-96.191,-74.219
1687530778.625,-115.234,-24.902,-33.691,-105.957,-22.461
1687530778.629,-127.441,-21.484,-35.645,-106.445,12.207
1687530778.633,-113.281,-20.508,-32.715,-105.469,-59.570
1687530778.636,-104.492,-20.020,-30.762,-106.445,25.879
1687530778.640,-109.863,-19.043,-33.691,-95.215,286.621
1687530778.644,-119.141,-19.531,-33.203,-94.238,161.133
1687530778.648,-125.977,-17.090,-29.785,-101.074,-44.434
1687530778.652,-123.535,-16.602,-27.832,-102.539,-42.969
1687530778.652,-131.348,-20.020,-21.484,-100.098,-64.941
1687530778.656,-118.652,-17.578,-20.020,-87.402,-84.473
1687530778.660,-117.188,-13.672,-24.902,-88.379,-70.801
1687530778.664,-139.160,-15.137,-36.133,-100.586,3.906
1687530778.668,-129.883,-14.160,-41.016,-98.633,-45.898
1687530778.672,-103.516,-14.160,-35.645,-87.402,-49.316
1687530778.676,-90.332,-11.719,-34.180,-81.543,1.953
1687530778.679,-96.191,-14.648,-33.691,-78.125,237.305
1687530778.683,-114.746,-19.043,-30.273,-85.938,338.379
1687530778.687,-114.746,-19.043,-26.855,-101.562,-19.043
1687530778.691,-100.586,-16.602,-23.926,-100.098,11.719
1687530778.695,-92.285,-18.066,-26.855,-90.820,175.781
1687530778.698,-92.773,-22.949,-34.180,-100.586,43.945
1687530778.702,-104.492,-18.555,-28.320,-104.980,-87.402
1687530778.706,-110.352,-20.020,-24.414,-99.121,-62.988
1687530778.710,-96.680,-25.391,-28.320,-99.121,-51.758
1687530778.714,-87.891,-21.973,-26.855,-93.750,-146.973
1687530778.718,-88.379,-21.973,-26.367,-89.844,-68.848
1687530778.722,-97.168,-18.066,-24.414,-83.008,87.402
1687530778.725,-104.004,-8.301,-18.555,-75.684,191.406
1687530778.729,-85.449,-11.230,-17.090,-82.031,-56.152
1687530778.733,-73.730,-12.695,-18.555,-84.473,-186.523
1687530778.737,-80.078,-16.113,-18.555,-81.055,35.645
1687530778.741,-86.914,-14.648,-18.555,-77.148,31.738
1687530778.742,-95.215,-9.277,-18.066,-82.520,-124.023
1687530778.746,-88.379,-11.719,-17.090,-86.914,-145.508
1687530778.750,-77.637,-10.254,-14.160,-87.402,-60.059
1687530778.754,-76.660,-4.883,-10.254,-82.031,-120.605
1687530778.758,-99.121,-11.230,-12.695,-87.891,-119.629
1687530778.762,-122.070,-19.043,-18.066,-102.539,-45.898
1687530778.766,-113.770,-24.414,-20.996,-92.773,197.754
1687530778.769,-104.980,-32.227,-28.320,-90.332,224.121
1687530778.773,-104.004,-28.320,-30.762,-94.727,-83.496
1687530778.777,-115.234,-23.438,-24.902,-92.285,-80.078
1687530778.781,-126.465,-24.414,-20.020,-96.191,64.941
1687530778.785,-112.305,-20.996,-19.043,-95.703,-5.859
1687530778.789,-88.379,-16.113,-15.625,-93.262,-122.559
1687530778.793,-85.449,-19.531,-18.555,-91.309,-90.332
1687530778.797,-98.633,-23.926,-26.855,-85.449,148.438
1687530778.801,-109.375,-27.344,-30.762,-90.820,79.102
1687530778.805,-101.074,-28.320,-25.879,-101.074,-106.934
1687530778.809,-80.078,-20.020,-20.020,-93.262,-9.277
1687530778.813,-76.172,-16.113,-21.973,-86.426,181.152
1687530778.816,-85.449,-16.113,-19.531,-87.402,77.637
1687530778.820,-97.656,-12.207,-14.648,-90.332,-74.219
1687530778.824,-97.168,-13.184,-16.113,-90.820,3.418
1687530778.828,-81.055,-12.695,-22.949,-82.031,115.234
1687530778.832,-77.148,-11.230,-21.973,-87.402,-32.227
1687530778.849,-80.078,-9.766,-14.160,-93.262,-143.066
1687530778.853,-89.844,-9.766,-13.672,-91.797,-46.875
1687530778.857,-92.773,-10.254,-13.672,-92.773,-13.672
1687530778.861,-73.730,-9.766,-12.207,-91.309,-66.895
1687530778.865,-62.500,-11.719,-7.812,-86.914,-107.910
1687530778.869,-71.289,-9.766,-6.836,-84.961,138.184
1687530778.873,-84.473,-9.766,-10.742,-79.590,300.293
1687530778.876,-86.914,-12.695,-10.254,-90.332,-47.363
1687530778.880,-72.754,-13.184,-6.348,-94.238,-139.648
1687530778.884,-64.453,-15.137,-7.324,-84.473,106.934
1687530778.888,-71.289,-19.043,-10.254,-87.402,112.793
1687530778.892,-89.355,-14.648,-13.672,-97.656,-41.016
1687530778.893,-100.098,-14.160,-17.090,-97.656,-41.016
1687530778.897,-89.355,-20.996,-14.648,-94.238,102.539
1687530778.901,-85.449,-23.438,-10.254,-96.191,-38.574
1687530778.905,-94.238,-17.090,-15.137,-96.191,-132.812
1687530778.909,-114.746,-16.113,-18.066,-103.027,-52.246
1687530778.913,-123.535,-21.484,-16.113,-104.004,45.898
1687530778.917,-107.910,-17.090,-15.137,-95.703,73.242
1687530778.920,-99.609,-15.137,-17.578,-97.168,-20.020
1687530778.924,-107.422,-13.184,-20.996,-97.168,0.000
1687530778.928,-125.488,-13.672,-24.902,-101.074,242.676
1687530778.932,-128.906,-17.578,-20.996,-102.539,107.910
1687530778.936,-115.234,-21.484,-20.508,-100.098,-26.367
1687530778.938,-105.957,-25.879,-25.879,-102.539,29.785
1687530778.942,-98.633,-24.902,-20.996,-93.262,26.855
1687530778.946,-107.910,-22.949,-16.113,-84.473,-20.020
1687530778.950,-125.488,-23.438,-21.973,-89.844,-77.637
1687530778.954,-113.281,-22.949,-20.020,-84.961,-16.113
1687530778.958,-105.957,-20.996,-13.184,-70.801,15.625
1687530778.962,-139.648,-18.066,-12.695,-73.730,-29.297
1687530778.965,-207.520,-15.137,-9.277,-79.590,26.367
1687530778.969,-274.414,-17.578,-10.254,-87.402,184.570
1687530778.973,-262.207,-21.484,-14.160,-90.820,310.547
1687530778.977,-208.008,-18.066,-13.184,-88.867,32.715
1687530778.981,-184.570,-19.531,-17.578,-94.238,-81.055
1687530778.982,-176.270,-21.973,-22.461,-91.309,146.484
1687530778.986,-175.781,-13.184,-17.578,-93.262,60.059
1687530778.990,-178.223,-14.648,-16.602,-92.285,-67.871
1687530778.994,-165.527,-16.113,-18.555,-88.379,-90.820
1687530778.998,-160.156,-11.719,-16.113,-84.473,-79.590
1687530779.002,-167.969,-8.789,-12.207,-76.172,3.906
1687530779.006,-185.059,-8.301,-12.207,-81.055,-51.758
1687530779.009,-200.195,-10.254,-15.137,-78.613,-38.574
1687530779.013,-197.266,-9.277,-9.277,-70.312,222.168
1687530779.017,-189.453,-9.277,-4.395,-70.801,79.102
1687530779.021,-185.547,-13.672,-7.324,-72.754,-145.508
1687530779.025,-191.406,-14.160,-9.766,-79.590,-24.902
1687530779.028,-174.316,-9.766,-2.441,-78.613,14.648
1687530779.032,-141.113,-11.230,-0.977,-73.242,-127.930
1687530779.036,-139.648,-16.602,-7.812,-73.730,-113.770
1687530779.040,-152.344,-18.555,-13.184,-73.242,-8.301
1687530779.044,-163.574,-15.137,-16.113,-83.008,-2.930
1687530779.048,-157.227,-10.254,-14.648,-81.055,-3.906
1687530779.052,-140.625,-12.207,-14.648,-76.172,26.855
1687530779.055,-134.277,-15.137,-15.137,-78.125,262.695
1687530779.059,-130.859,-12.207,-11.230,-67.383,230.469
1687530779.063,-134.277,-10.254,-10.254,-72.266,-59.570
1687530779.067,-131.348,-13.184,-7.812,-79.102,-8.301
1687530779.071,-115.723,-15.137,-1.953,-71.777,197.754
1687530779.074,-103.516,-11.230,-5.371,-73.730,114.746
1687530779.078,-122.070,-12.207,-8.789,-76.660,-152.344
1687530779.082,-159.668,-16.602,-7.324,-77.637,-59.570
1687530779.086,-153.809,-11.719,-6.348,-87.402,80.566
1687530779.090,-121.094,-8.301,-4.883,-96.191,-30.762
1687530779.094,-107.422,-9.766,-3.418,-89.355,-79.590
1687530779.098,-108.887,-14.160,-5.859,-83.496,89.355
1687530779.101,-112.793,-12.207,-5.371,-76.660,351.074
1687530779.105,-117.676,-8.789,-1.953,-77.148,86.914
1687530779.109,-109.863,-10.254,-7.324,-88.867,-162.109
1687530779.113,-95.703,-13.184,-16.113,-95.703,-108.887
1687530779.117,-92.773,-12.207,-17.090,-94.238,-68.848
1687530779.119,-104.004,-9.277,-16.113,-96.191,-46.387
1687530779.123,-115.234,-12.207,-15.137,-91.309,-18.555
1687530779.127,-108.398,-8.301,-13.672,-81.543,93.750
1687530779.131,-102.051,-3.906,-10.254,-74.219,-19.043
1687530779.135,-98.145,-7.324,-10.742,-73.730,-120.117
1687530779.139,-104.980,-7.324,-17.090,-78.613,44.434
1687530779.143,-121.094,-7.812,-22.949,-86.914,237.305
1687530779.146,-104.492,-7.812,-21.484,-75.195,245.605
1687530779.150,-76.172,-3.418,-19.043,-76.172,-117.188
1687530779.154,-72.266,0.977,-20.996,-93.750,-168.945
1687530779.158,-72.754,2.441,-20.508,-98.145,16.113
1687530779.162,-83.496,-2.930,-20.020,-106.445,-25.879
1687530779.163,-80.566,-8.789,-23.926,-113.770,-118.652
1687530779.167,-46.875,-9.766,-21.484,-102.539,-71.777
1687530779.171,-28.809,-8.789,-20.020,-97.656,36.621
1687530779.175,-31.250,-8.789,-24.902,-102.051,-42.969
1687530779.179,-40.527,-13.184,-23.926,-102.051,-62.500
1687530779.183,-36.133,-16.113,-24.902,-100.586,45.410
1687530779.187,-26.367,-19.043,-26.855,-93.750,311.035
1687530779.190,-25.879,-18.555,-24.902,-90.820,144.531
1687530779.194,-31.250,-18.066,-25.391,-93.262,-161.621
1687530779.198,-46.875,-15.137,-20.020,-91.309,-92.773
1687530779.202,-51.270,-19.043,-17.578,-93.750,-27.832
1687530779.206,-34.180,-19.043,-14.648,-89.355,-70.312
1687530779.225,-26.367,-15.625,-12.695,-81.055,-88.867
1687530779.229,-28.809,-18.555,-11.230,-79.102,-44.434
1687530779.233,-41.992,-23.438,-13.672,-83.984,-35.156
1687530779.237,-54.199,-27.832,-20.508,-93.262,-123.047
1687530779.241,-40.527,-26.855,-20.020,-94.727,-88.867
1687530779.245,-27.832,-22.949,-14.648,-93.262,105.469
1687530779.249,-34.180,-23.926,-16.602,-100.586,84.961
1687530779.252,-46.387,-22.949,-17.578,-103.516,28.320
1687530779.256,-51.270,-19.043,-13.184,-98.633,-68.848
1687530779.260,-33.203,-20.996,-13.184,-95.215,131.348
1687530779.264,-16.113,-20.508,-20.020,-85.938,400.879
1687530779.268,-13.184,-19.043,-19.531,-84.473,65.430
1687530779.270,-24.902,-17.090,-18.066,-90.332,-130.371
1687530779.274,-32.227,-9.766,-20.020,-92.773,-21.973
1687530779.278,-14.648,-4.883,-18.555,-92.773,-67.871
1687530779.282,0.488,-10.742,-18.066,-90.820,-79.590
1687530779.286,8.301,-12.207,-19.043,-81.543,-29.297
1687530779.290,0.000,-10.254,-16.602,-78.613,83.496
1687530779.294,-14.648,-12.207,-15.137,-91.797,158.691
1687530779.297,-7.812,-12.695,-17.090,-95.215,-81.543
1687530779.301,-3.906,-12.695,-19.043,-87.402,-95.703
1687530779.305,-13.672,-13.184,-21.484,-76.172,397.949
1687530779.309,-31.250,-10.254,-16.113,-76.660,222.656
1687530779.313,-49.316,-10.742,-15.137,-81.543,-101.562
1687530779.315,-45.898,-17.578,-20.996,-88.379,-16.113
1687530779.319,-33.203,-18.066,-24.414,-98.633,-16.113
1687530779.323,-30.762,-12.207,-23.926,-94.727,-45.410
1687530779.327,-38.574,-8.301,-18.066,-89.355,-68.848
1687530779.331,-59.082,-12.207,-18.066,-103.516,-38.574
1687530779.335,-44.922,-12.207,-22.949,-106.445,41.504
1687530779.339,0.488,-6.836,-16.602,-74.707,15.625
1687530779.342,4.395,-8.789,0.488,-68.359,-54.688
1687530779.346,-24.902,-16.113,1.465,-78.125,58.594
1687530779.350,-53.711,-21.484,-4.395,-85.938,132.812
1687530779.354,-65.918,-28.320,-1.465,-98.633,12.695
1687530779.358,-64.453,-36.621,4.883,-99.609,29.785
1687530779.358,-70.801,-47.852,11.719,-98.145,213.867
1687530779.362,-95.703,-57.129,19.043,-103.516,83.008
1687530779.366,-117.676,-64.941,30.762,-107.422,-133.789
1687530779.370,-133.301,-74.707,38.086,-124.023,-109.863
1687530779.374,-130.859,-80.078,43.945,-132.324,-93.750
1687530779.378,-113.281,-80.078,50.293,-119.629,-64.453
1687530779.382,-122.559,-77.637,51.270,-116.699,-35.156
1687530779.385,-154.297,-88.379,54.688,-125.000,27.344
1687530779.389,-173.828,-100.586,61.523,-130.859,187.988
1687530779.393,-166.504,-102.051,60.059,-141.602,1.465
1687530779.397,-151.367,-100.586,64.453,-139.648,-140.137
1687530779.401,-150.879,-98.633,78.125,-132.324,-81.055
1687530779.405,-169.434,-103.516,79.590,-140.137,-102.539
1687530779.409,-180.664,-110.840,79.102,-146.973,-77.148
1687530779.413,-166.992,-110.352,78.613,-146.973,7.812
1687530779.417,-154.785,-107.422,80.566,-143.555,31.738
1687530779.421,-154.785,-98.633,82.031,-140.625,9.277
1687530779.425,-158.691,-97.656,79.590,-124.512,39.062
1687530779.429,-156.250,-102.051,81.543,-109.375,2.441
1687530779.432,-130.371,-95.215,85.938,-92.773,173.828
1687530779.436,-109.863,-90.820,83.984,-77.637,253.418
1687530779.440,-98.145,-92.773,77.637,-71.777,-82.520
1687530779.444,-108.887,-93.262,76.660,-64.941,-66.406
1687530779.448,-119.141,-89.844,78.125,-54.199,154.785
1687530779.448,-96.191,-86.914,77.637,-47.363,31.738
1687530779.452,-79.590,-88.379,74.707,-45.898,-99.609
1687530779.456,-71.289,-83.008,73.242,-29.297,-32.715
1687530779.460,-82.031,-73.242,71.289,-29.785,32.227
1687530779.464,-88.867,-70.312,71.289,-24.902,89.355
1687530779.468,-61.035,-62.988,72.754,-8.301,23.438
1687530779.472,-48.828,-61.035,64.453,-4.883,68.359
1687530779.475,-55.664,-57.129,59.570,1.465,341.797
1687530779.479,-63.965,-54.688,54.688,-0.488,178.223
1687530779.483,-68.359,-61.035,45.898,-15.137,-136.230
1687530779.487,-50.293,-52.734,43.945,-8.789,-125.488
1687530779.491,-41.992,-44.434,42.480,5.859,-64.941
1687530779.493,-55.664,-42.480,39.062,-4.883,-101.074
1687530779.497,-84.473,-36.133,29.785,-0.488,-123.535
1687530779.501,-115.234,-31.250,22.949,-0.977,-32.227
1687530779.505,-122.070,-28.320,24.414,-16.113,10.742
1687530779.509,-110.840,-31.250,23.438,-14.648,-43.945
1687530779.513,-98.633,-33.203,14.648,-12.207,-94.238
1687530779.517,-99.609,-32.715,7.324,-8.301,182.617
1687530779.520,-113.281,-32.227,6.836,3.418,322.266
1687530779.524,-97.168,-31.738,14.160,-8.789,-41.016
1687530779.528,-64.453,-38.086,11.719,-21.973,-73.242
1687530779.532,-54.199,-42.969,1.465,-16.602,251.953
1687530779.536,-54.688,-35.156,5.371,-16.602,125.000
1687530779.537,-60.547,-31.738,7.812,-20.508,-150.391
1687530779.541,-54.688,-28.809,1.953,-21.973,-115.234
1687530779.545,-31.738,-24.414,0.488,-24.902,-36.621
1687530779.549,-16.602,-23.926,0.488,-17.090,-90.332
1687530779.553,-20.508,-24.902,-4.395,-16.602,-176.758
1687530779.557,-30.762,-24.414,-8.789,-24.902,40.527
1687530779.561,-28.320,-21.484,-5.371,-14.648,228.516
1687530779.564,-7.812,-22.949,-6.836,-11.719,0.000
1687530779.568,2.930,-22.949,-8.301,-26.367,-105.469
1687530779.572,-5.371,-21.484,-2.441,-25.391,32.227
1687530779.576,-24.902,-22.949,-2.930,-16.113,196.289
1687530779.580,-24.902,-22.461,-7.812,-25.391,78.613
1687530779.597,-9.766,-26.367,-2.441,-29.297,-22.461
1687530779.601,-1.953,-27.832,2.930,-17.578,19.531
1687530779.605,-12.207,-24.902,-0.488,-20.020,-43.457
1687530779.609,-32.227,-30.762,-2.441,-36.621,-87.402
1687530779.613,-44.922,-35.645,-1.953,-45.898,-56.641
1687530779.617,-36.621,-35.156,-0.977,-41.992,56.152
1687530779.621,-31.738,-34.180,-4.395,-36.621,73.730
1687530779.624,-35.645,-31.250,-14.160,-32.715,-20.020
1687530779.628,-51.270,-33.691,-15.137,-30.762,-72.266
1687530779.632,-63.965,-36.621,-14.648,-40.039,159.180
1687530779.636,-47.852,-33.203,-12.207,-39.062,189.941
1687530779.640,-32.715,-29.785,-6.348,-39.551,-4.883
1687530779.643,-35.645,-26.855,-11.230,-40.039,-46.387
1687530779.647,-54.199,-26.367,-13.184,-29.297,168.457
1687530779.651,-71.289,-18.066,-10.742,-35.156,91.797
1687530779.655,-60.547,-10.254,-12.207,-36.621,-200.684
1687530779.659,-55.176,-12.695,-11.719,-31.250,-140.625
1687530779.663,-58.594,-14.160,-14.648,-29.297,95.215
1687530779.667,-71.777,-11.230,-17.578,-31.250,95.703
1687530779.670,-86.914,-7.324,-12.207,-37.598,-66.406
1687530779.674,-98.145,-10.742,-15.625,-50.781,-48.340
1687530779.678,-121.094,-14.160,-19.531,-56.641,153.809
1687530779.682,-145.996,-12.695,-15.625,-52.246,-20.996
1687530779.686,-171.387,-14.648,-17.578,-52.734,-155.762
1687530779.689,-209.961,-18.555,-21.973,-55.664,-24.902
1687530779.693,-219.727,-19.043,-21.973,-58.594,54.199
1687530779.697,-183.105,-24.414,-20.508,-68.848,-56.152
1687530779.701,-163.574,-25.879,-23.438,-71.289,-145.508
1687530779.705,-168.457,-20.996,-24.414,-61.523,25.879
1687530779.709,-175.293,-22.461,-23.926,-62.988,88.867
1687530779.713,-160.156,-26.855,-24.902,-72.754,-13.184
1687530779.716,-124.023,-25.391,-19.043,-74.707,-6.348
1687530779.720,-102.051,-16.113,-13.184,-53.711,187.012
1687530779.724,-101.562,-14.160,-16.113,-43.457,214.844
1687530779.728,-107.422,-20.020,-24.414,-48.828,44.434
1687530779.732,-130.371,-23.926,-20.020,-52.734,57.129
1687530779.737,-178.711,-24.902,-16.113,-48.828,151.855
1687530779.741,-207.031,-23.438,-19.531,-54.199,5.371
1687530779.745,-213.379,-25.879,-19.531,-58.105,-153.320
1687530779.749,-238.770,-33.691,-18.555,-58.594,-57.617
1687530779.753,-244.629,-34.668,-19.043,-62.500,-13.184
1687530779.757,-211.914,-30.762,-15.137,-63.477,-12.207
1687530779.761,-185.059,-32.227,-14.648,-62.500,-41.016
1687530779.764,-182.617,-36.133,-15.137,-56.152,-45.410
1687530779.768,-192.871,-33.203,-12.695,-46.875,218.262
1687530779.772,-192.871,-31.738,-17.090,-56.641,59.082
1687530779.776,-175.781,-32.227,-23.438,-63.477,-140.137
1687530779.780,-158.691,-30.273,-23.438,-52.734,-45.410
1687530779.786,-144.531,-28.320,-18.066,-44.434,-62.012
1687530779.790,-140.137,-27.344,-16.113,-39.062,-47.363
1687530779.794,-136.230,-33.203,-22.461,-46.875,-19.043
1687530779.798,-108.887,-30.273,-19.531,-46.387,-69.824
1687530779.802,-141.602,-24.414,-13.184,-40.527,-138.184
1687530779.806,-222.168,-30.273,-19.531,-41.992,-54.199
1687530779.810,-293.945,-27.832,-20.020,-51.758,19.531
1687530779.813,-334.961,-34.668,-15.625,-61.523,186.035
1687530779.817,-268.066,-41.016,-9.277,-44.922,267.578
1687530779.821,-169.434,-27.832,-5.371,-23.438,-28.809
1687530779.825,-137.695,-14.648,-21.484,-41.016,4.883
1687530779.829,-137.695,-15.137,-39.551,-62.500,171.875
1687530779.823,-136.230,-19.531,-45.410,-76.172,19.043
1687530779.827,-125.000,-9.277,-47.363,-83.984,-122.559
1687530779.831,-126.953,-4.883,-62.500,-84.961,-55.664
1687530779.835,-133.301,-1.465,-73.242,-87.891,-5.371
1687530779.839,-135.254,10.742,-78.613,-80.566,10.254
1687530779.843,-150.391,14.648,-90.820,-83.008,20.020
1687530779.847,-141.113,19.043,-101.074,-94.727,89.844
1687530779.850,-125.488,30.762,-106.934,-95.703,276.367
1687530779.854,-120.605,37.109,-114.258,-95.703,96.191
1687530779.858,-118.652,35.645,-121.094,-100.098,-105.957
1687530779.862,-139.160,33.691,-124.512,-108.398,-30.762
1687530779.866,-144.531,37.598,-123.535,-112.793,39.062
1687530779.873,-134.277,41.992,-125.977,-116.211,-92.773
1687530779.877,-146.973,45.410,-131.348,-104.980,-103.027
1687530779.881,-194.824,48.828,-138.184,-91.309,19.043
1687530779.885,-254.883,49.316,-140.625,-100.586,8.789
1687530779.889,-265.625,49.805,-139.160,-105.469,-50.781
1687530779.893,-264.160,48.828,-142.090,-102.539,31.250
1687530779.897,-263.672,46.875,-139.160,-107.910,267.578
1687530779.900,-266.113,41.992,-137.695,-107.422,235.840
1687530779.904,-289.062,38.574,-134.766,-96.191,-89.355
1687530779.908,-305.176,38.086,-126.465,-93.750,-140.137
1687530779.912,-297.363,33.203,-122.559,-94.238,53.711
1687530779.916,-299.316,29.297,-115.723,-90.820,27.344
1687530779.924,-324.707,27.344,-105.469,-84.961,-78.613
1687530779.928,-347.656,28.320,-99.609,-82.520,-69.824
1687530779.932,-356.445,23.438,-99.121,-78.613,156.738
1687530779.936,-351.074,20.020,-93.262,-71.777,45.898
1687530779.940,-355.957,20.508,-85.449,-71.289,-160.645
1687530779.944,-357.910,18.555,-82.520,-67.871,21.973
1687530779.948,-360.352,14.160,-73.242,-60.547,220.703
1687530779.951,-367.676,12.207,-75.195,-64.941,-20.020
1687530779.955,-357.910,13.672,-81.055,-62.988,-156.250
1687530779.959,-360.352,11.719,-74.707,-60.059,-78.125
1687530779.963,-347.656,7.812,-72.266,-56.641,-13.672
1687530779.967,-323.242,8.789,-67.383,-50.781,-12.695
1687530779.966,-325.684,6.836,-63.965,-47.852,-61.523
1687530779.970,-331.543,5.859,-66.406,-55.176,32.715
1687530779.974,-328.125,3.418,-69.336,-59.082,43.457
1687530779.978,-317.383,-2.441,-70.312,-49.805,-80.566
1687530779.982,-311.035,-6.348,-66.406,-55.176,-135.254
1687530779.986,-298.828,-5.859,-64.453,-56.641,-38.574
1687530779.990,-275.879,-3.418,-65.430,-58.105,-44.434
1687530779.993,-257.812,-7.812,-62.500,-60.547,-82.520
1687530779.997,-246.094,-10.742,-57.129,-45.410,-81.055
1687530780.001,-255.859,-12.207,-56.641,-41.992,174.316
1687530780.005,-268.555,-9.766,-53.711,-49.805,225.098
1687530780.009,-251.465,-2.441,-52.246,-63.965,-112.305
1687530780.018,-238.770,-5.859,-55.176,-74.219,-103.027
1687530780.022,-244.629,-10.742,-58.105,-75.195,49.316
1687530780.026,-265.625,-13.184,-59.570,-71.777,-59.570
1687530780.030,-279.297,-18.066,-57.617,-71.777,-165.039
1687530780.034,-267.578,-17.090,-52.246,-66.406,-64.453
1687530780.038,-245.117,-13.672,-48.340,-53.223,235.840
1687530780.042,-229.492,-7.812,-47.363,-53.711,192.383
1687530780.045,-226.074,-1.953,-39.062,-52.734,-104.980
1687530780.049,-229.004,-5.859,-38.086,-53.711,-57.129
1687530780.053,-222.168,-9.277,-44.434,-52.734,172.852
1687530780.057,-212.891,-12.695,-43.945,-55.664,-64.941
1687530780.061,-218.750,-14.648,-39.551,-51.270,-138.184
1687530780.067,-237.793,-11.230,-34.180,-44.922,-60.547
1687530780.071,-257.324,-12.207,-40.527,-57.617,-72.754
1687530780.075,-256.348,-10.254,-46.387,-66.406,-121.094
1687530780.079,-244.629,-8.789,-43.945,-65.430,-127.930
1687530780.083,-243.164,-9.277,-40.039,-59.082,4.395
1687530780.087,-256.836,-10.254,-42.969,-55.664,51.270
1687530780.091,-278.809,-10.742,-46.875,-60.059,10.254
1687530780.094,-289.062,-9.766,-45.410,-60.059,-9.277
1687530780.098,-284.180,-11.230,-43.457,-47.852,156.738
1687530780.102,-291.016,-15.137,-43.945,-44.434,247.070
1687530780.106,-300.781,-15.625,-37.598,-53.223,43.945
1687530780.110,-297.852,-10.742,-33.691,-53.223,43.945
1687530780.108,-281.738,-12.695,-36.133,-51.270,139.648
1687530780.112,-260.742,-14.648,-32.715,-47.363,-107.910
1687530780.116,-243.164,-16.602,-33.691,-50.293,-214.355
1687530780.120,-233.398,-19.043,-36.133,-45.898,-82.520
1687530780.124,-250.488,-16.602,-34.668,-41.504,-5.859
1687530780.128,-265.137,-16.113,-35.156,-56.641,93.262
1687530780.132,-257.324,-18.555,-33.203,-60.059,10.254
1687530780.135,-256.348,-17.090,-31.250,-40.039,-35.156
1687530780.139,-267.090,-18.066,-35.156,-21.973,210.938
1687530780.143,-278.320,-12.207,-36.133,-36.133,53.223
1687530780.147,-271.973,-10.742,-34.668,-47.363,-153.809
1687530780.151,-244.629,-18.066,-32.715,-42.969,-81.543
1687530780.153,-232.910,-20.020,-37.109,-38.086,-35.645
1687530780.157,-246.582,-18.555,-37.598,-39.551,-56.152
1687530780.161,-261.230,-17.578,-33.691,-41.504,-72.754
1687530780.165,-270.020,-21.484,-33.691,-37.598,-7.324
1687530780.169,-258.301,-20.020,-29.297,-37.598,-43.457
1687530780.173,-246.094,-16.113,-24.414,-33.203,0.488
1687530780.177,-254.883,-17.578,-27.832,-36.621,103.027
1687530780.180,-269.531,-19.531,-33.203,-42.969,191.895
1687530780.184,-278.809,-18.066,-35.645,-46.875,145.020
1687530780.188,-265.625,-21.484,-34.668,-57.617,-64.453
1687530780.192,-233.887,-24.414,-33.203,-50.781,-54.688
1687530780.196,-202.637,-20.996,-33.203,-41.992,187.012
1687530780.204,-197.266,-21.484,-36.133,-43.945,178.711
1687530780.208,-201.660,-22.949,-36.133,-47.363,-88.379
1687530780.212,-186.523,-22.949,-34.668,-45.898,-123.047
1687530780.216,-163.086,-21.973,-33.691,-47.363,-54.199
1687530780.220,-150.391,-19.531,-32.227,-47.363,-102.051
1687530780.224,-142.090,-16.602,-30.762,-37.598,-59.570
1687530780.228,-143.066,-17.578,-32.715,-33.691,170.410
1687530780.231,-145.996,-17.090,-31.250,-24.902,321.289
1687530780.235,-130.371,-16.602,-28.809,-24.414,77.148
1687530780.239,-124.023,-16.602,-32.715,-37.598,-72.266
1687530780.243,-142.578,-10.254,-34.668,-33.203,-50.781
1687530780.247,-170.410,-12.207,-36.133,-35.156,-41.504
1687530780.244,-183.594,-22.461,-38.086,-44.922,-26.855
1687530780.248,-197.754,-23.438,-37.598,-40.039,-116.211
1687530780.252,-209.961,-28.320,-37.598,-27.344,-30.762
1687530780.256,-202.148,-24.902,-27.832,-21.484,37.109
1687530780.260,-214.844,-20.020,-23.438,-22.461,-20.508
1687530780.264,-233.887,-23.438,-27.832,-30.762,-2.441
1687530780.268,-215.332,-22.461,-27.344,-36.621,261.230
1687530780.271,-201.172,-19.531,-26.367,-28.320,299.316
1687530780.275,-214.355,-22.461,-25.391,-22.461,-48.828
1687530780.279,-231.445,-29.297,-25.879,-27.832,-127.441
1687530780.283,-228.516,-28.320,-23.926,-26.855,-16.113
1687530780.287,-207.520,-22.949,-22.949,-32.715,-81.055
1687530780.303,-197.266,-19.531,-25.391,-46.387,-163.086
1687530780.307,-195.801,-17.090,-24.902,-44.434,-93.750
1687530780.311,-212.891,-18.555,-25.879,-44.434,131.836
1687530780.315,-237.305,-17.578,-31.738,-55.664,68.359
1687530780.319,-228.027,-15.625,-30.273,-52.246,-65.430
1687530780.323,-211.426,-17.578,-26.855,-40.039,141.602
1687530780.327,-204.590,-20.508,-30.762,-24.414,418.457
1687530780.330,-205.078,-20.508,-31.250,-24.414,202.148
1687530780.334,-226.074,-17.578,-30.273,-30.273,-71.289
1687530780.338,-231.445,-17.090,-27.344,-28.809,-67.383
1687530780.342,-229.492,-23.438,-22.949,-39.551,-120.605
1687530780.346,-244.629,-21.973,-20.020,-36.133,-144.043
1687530780.348,-265.625,-21.484,-20.996,-30.273,-83.008
1687530780.352,-284.180,-25.879,-21.484,-41.992,-39.062
1687530780.356,-279.785,-25.391,-20.996,-49.316,-45.898
1687530780.360,-269.531,-22.461,-19.043,-48.340,-69.824
1687530780.364,-272.461,-25.879,-20.020,-52.246,-89.355
1687530780.368,-289.551,-28.809,-27.344,-59.082,68.848
1687530780.372,-303.711,-25.391,-30.762,-59.570,170.410
1687530780.375,-289.062,-23.438,-27.832,-58.105,74.219
1687530780.379,-271.973,-24.414,-26.855,-50.781,-126.953
1687530780.383,-272.461,-20.020,-24.902,-48.828,83.496
1687530780.387,-274.902,-15.625,-23.438,-56.152,331.055
1687530780.391,-291.016,-19.531,-23.438,-61.523,-54.688
1687530780.392,-292.480,-19.531,-24.414,-64.941,-145.996
1687530780.396,-280.273,-24.414,-25.391,-55.176,11.230
1687530780.400,-279.297,-31.738,-27.344,-48.340,-21.484
1687530780.404,-280.762,-28.320,-24.414,-44.434,-89.844
1687530780.408,-282.715,-27.344,-19.531,-42.480,-56.152
1687530780.412,-285.645,-27.832,-23.926,-47.363,5.859
1687530780.416,-268.066,-25.391,-23.926,-36.621,-87.891
1687530780.419,-245.117,-17.090,-14.160,-31.250,-125.000
1687530780.423,-248.535,-17.578,-13.184,-32.715,22.949
1687530780.427,-269.043,-28.320,-13.672,-35.156,279.297
1687530780.431,-275.879,-29.785,-12.207,-43.457,119.141
1687530780.435,-253.418,-27.344,-17.090,-45.898,-120.605
1687530780.437,-231.445,-29.785,-22.461,-31.738,-19.043
1687530780.441,-234.863,-31.738,-13.672,-26.855,-9.277
1687530780.445,-262.695,-32.227,-15.137,-47.363,-91.309
1687530780.449,-264.160,-29.785,-24.414,-59.082,-56.641
1687530780.453,-257.812,-32.715,-22.461,-67.383,-19.531
1687530780.457,-247.559,-35.645,-18.066,-67.871,42.969
1687530780.461,-236.816,-26.855,-12.207,-55.664,59.082
1687530780.464,-267.578,-30.273,-19.043,-67.871,-25.391
1687530780.468,-282.227,-36.133,-28.809,-69.336,167.480
1687530780.472,-260.742,-33.691,-26.855,-71.777,284.668
1687530780.476,-252.441,-36.133,-26.367,-77.637,84.473
1687530780.480,-257.812,-40.039,-29.785,-64.453,54.688
1687530780.482,-266.602,-40.039,-31.738,-58.105,212.891
1687530780.486,-274.414,-41.992,-30.273,-68.359,73.242
1687530780.490,-268.555,-41.016,-27.832,-75.195,-211.914
1687530780.494,-246.094,-35.156,-17.578,-59.570,-191.406
1687530780.498,-235.352,-34.668,-15.625,-54.199,-43.457
1687530780.502,-250.977,-38.086,-22.949,-61.523,-1.465
1687530780.506,-265.137,-35.645,-18.555,-69.336,-30.762
1687530780.509,-253.906,-30.273,-20.020,-60.059,84.961
1687530780.513,-236.816,-32.227,-23.438,-52.734,249.512
1687530780.517,-231.934,-39.062,-22.461,-62.012,5.371
1687530780.521,-240.723,-40.527,-27.832,-60.547,-167.480
1687530780.525,-246.582,-34.668,-26.367,-67.383,-6.348
1687530780.528,-233.398,-30.762,-28.809,-68.848,46.875
1687530780.532,-216.797,-29.785,-33.691,-62.988,-117.676
1687530780.536,-206.543,-31.250,-36.133,-61.035,-136.719
1687530780.540,-216.309,-26.855,-33.691,-62.012,41.992
1687530780.544,-229.980,-26.367,-30.273,-56.152,17.578
1687530780.548,-217.773,-28.320,-31.250,-55.664,-50.293
1687530780.552,-199.219,-26.367,-28.320,-61.523,38.574
1687530780.555,-191.895,-26.855,-28.809,-56.152,110.352
1687530780.559,-193.848,-26.367,-27.832,-40.527,125.977
1687530780.563,-205.566,-24.902,-24.414,-43.945,-5.371
1687530780.567,-206.055,-27.344,-24.414,-48.828,91.309
1687530780.571,-188.965,-27.344,-23.438,-39.551,248.535
1687530780.574,-183.105,-26.367,-22.461,-40.039,37.109
1687530780.578,-192.871,-32.715,-26.855,-44.922,-104.980
1687530780.582,-211.914,-34.180,-34.668,-56.641,58.594
1687530780.586,-209.961,-29.297,-36.621,-53.711,150.879
1687530780.590,-180.664,-29.297,-31.250,-48.340,23.438
1687530780.594,-172.363,-26.367,-28.320,-56.641,-17.578
1687530780.598,-178.223,-25.879,-26.367,-51.758,87.402
1687530780.601,-181.152,-27.832,-30.762,-42.480,263.184
1687530780.605,-175.781,-26.855,-33.691,-56.152,47.852
1687530780.609,-160.645,-26.855,-31.250,-66.895,-172.363
1687530780.613,-151.367,-29.297,-31.738,-58.594,-105.469
1687530780.617,-153.320,-29.785,-36.133,-51.758,-51.758
1687530780.618,-164.551,-33.691,-38.086,-54.688,-107.910
1687530780.622,-169.922,-33.203,-28.320,-53.711,-119.629
1687530780.626,-155.273,-27.344,-22.949,-41.504,-7.812
1687530780.630,-146.484,-26.367,-24.902,-33.691,6.836
1687530780.634,-143.066,-25.879,-23.438,-41.992,-41.504
1687530780.638,-150.391,-27.832,-24.902,-41.016,-34.668
1687530780.642,-161.621,-26.855,-21.484,-29.785,223.633
1687530780.645,-158.203,-21.973,-19.043,-26.855,398.438
1687530780.649,-145.020,-20.996,-24.902,-42.480,32.715
1687530780.653,-134.277,-22.461,-28.809,-42.969,-25.879
1687530780.657,-142.578,-23.926,-32.227,-35.156,240.723
1687530780.661,-144.531,-25.391,-29.297,-36.621,14.648
1687530780.665,-138.184,-28.320,-23.926,-36.621,-173.828
1687530780.669,-131.348,-27.344,-22.461,-32.715,-24.414
1687530780.673,-129.883,-21.484,-24.902,-31.250,24.902
1687530780.677,-145.996,-24.414,-27.832,-35.645,-24.414
1687530780.681,-163.574,-23.926,-25.391,-39.551,5.859
1687530780.685,-156.738,-21.973,-26.367,-50.293,59.570
1687530780.689,-143.066,-21.484,-29.785,-51.270,259.766
1687530780.692,-143.066,-19.043,-28.320,-43.457,184.082
1687530780.696,-158.691,-26.367,-27.344,-48.340,-62.988
1687530780.700,-171.387,-32.227,-28.320,-50.781,-29.785
1687530780.704,-155.273,-26.855,-27.344,-45.898,110.352
1687530780.708,-137.695,-25.879,-25.391,-54.199,7.324
1687530780.723,-142.090,-30.762,-27.344,-47.363,-61.523
1687530780.727,-148.438,-27.344,-27.344,-42.480,9.277
1687530780.731,-159.180,-28.320,-29.785,-49.316,-17.578
1687530780.735,-149.902,-30.762,-30.273,-39.062,-54.688
1687530780.739,-130.859,-28.809,-27.832,-33.691,-14.648
1687530780.743,-129.883,-32.715,-28.320,-32.715,47.852
1687530780.747,-136.719,-32.715,-26.855,-29.297,45.898
1687530780.750,-146.973,-29.297,-28.320,-38.574,-4.395
1687530780.754,-147.949,-31.250,-31.738,-52.246,-81.543
1687530780.758,-139.648,-30.273,-28.809,-50.293,176.270
1687530780.762,-127.441,-30.762,-27.832,-39.062,452.637
1687530780.766,-132.324,-34.668,-30.273,-49.316,154.785
1687530780.768,-151.855,-31.250,-27.832,-57.617,-39.551
1687530780.772,-151.367,-25.879,-28.809,-53.223,70.312
1687530780.776,-130.371,-26.855,-31.738,-51.758,-48.340
1687530780.780,-122.559,-27.344,-32.227,-52.246,-177.734
1687530780.784,-123.535,-26.855,-29.785,-62.012,-115.234
1687530780.788,-134.766,-28.320,-30.273,-66.406,71.777
1687530780.792,-139.648,-32.227,-38.086,-68.359,121.582
1687530780.795,-114.746,-34.668,-40.527,-70.801,-74.219
1687530780.799,-97.168,-32.715,-39.062,-61.523,-73.730
1687530780.803,-97.656,-30.273,-38.086,-45.410,178.711
1687530780.807,-114.258,-33.203,-35.645,-45.898,46.387
1687530780.811,-125.000,-33.691,-35.645,-47.852,-78.613
1687530780.812,-121.094,-32.227,-34.668,-36.621,45.410
1687530780.816,-118.652,-33.203,-33.203,-27.344,77.148
1687530780.820,-121.582,-36.133,-29.785,-30.762,-61.523
1687530780.824,-134.277,-38.574,-30.273,-35.645,-87.402
1687530780.828,-140.625,-35.645,-31.738,-42.480,-41.992
1687530780.832,-135.742,-34.180,-33.203,-51.270,10.742
1687530780.836,-122.559,-34.668,-32.227,-47.852,44.434
1687530780.839,-109.863,-32.227,-26.367,-35.645,-32.227
1687530780.843,-122.559,-33.691,-28.809,-33.691,123.535
1687530780.847,-136.719,-29.785,-30.273,-32.715,186.035
1687530780.851,-123.047,-25.391,-27.344,-43.945,-27.344
1687530780.855,-105.469,-23.926,-26.855,-51.270,-71.777
1687530780.859,-106.445,-22.461,-24.902,-31.250,108.887
1687530780.863,-118.652,-19.531,-28.809,-32.227,111.816
1687530780.867,-128.418,-21.973,-31.250,-43.457,-20.020
1687530780.871,-123.047,-27.344,-31.250,-50.293,-19.043
1687530780.875,-113.770,-27.344,-34.180,-44.922,103.516
1687530780.879,-109.375,-31.250,-33.691,-37.109,99.609
1687530780.883,-123.535,-35.156,-34.668,-41.992,-26.367
1687530780.886,-131.348,-32.715,-29.785,-39.062,8.301
1687530780.890,-122.559,-26.855,-28.809,-25.879,188.477
1687530780.894,-112.793,-26.855,-31.738,-40.039,-63.965
1687530780.898,-111.328,-32.715,-31.738,-52.734,-179.688
1687530780.902,-123.535,-31.250,-33.203,-46.387,-3.418
1687530780.903,-145.020,-31.738,-37.109,-52.246,-56.641
1687530780.907,-145.020,-34.668,-39.062,-70.801,-135.742
1687530780.911,-119.629,-32.715,-37.598,-69.336,-150.391
1687530780.915,-106.934,-29.297,-36.621,-54.199,-40.039
1687530780.919,-119.141,-27.344,-34.180,-47.852,52.734
1687530780.923,-133.301,-26.367,-31.250,-48.828,29.785
1687530780.927,-130.371,-23.926,-29.785,-53.711,-11.719
1687530780.930,-116.699,-20.020,-23.438,-44.434,157.715
1687530780.934,-109.863,-15.625,-21.484,-33.203,310.059
1687530780.938,-108.887,-13.672,-33.203,-29.785,4.395
1687530780.942,-108.398,-10.742,-24.902,-4.395,-46.387
1687530780.946,-120.605,-22.461,-10.254,5.859,150.391
1687530780.948,-119.629,-30.762,-7.812,-12.207,8.301
1687530780.952,-108.398,-35.645,-1.953,-17.578,-156.250
1687530780.956,-120.117,-46.875,3.418,-14.160,-102.051
1687530780.960,-149.902,-53.223,7.324,-42.480,-107.910
1687530780.964,-164.551,-58.105,9.766,-64.941,-127.441
1687530780.968,-165.527,-66.406,11.719,-63.965,-83.496
1687530780.972,-161.133,-70.801,22.949,-58.594,19.043
1687530780.975,-166.016,-77.637,24.902,-56.152,353.027
1687530780.979,-181.152,-82.520,23.926,-61.035,184.570
1687530780.983,-190.430,-89.355,34.668,-68.848,-183.105
1687530780.987,-181.152,-98.145,34.180,-74.219,-134.277
1687530780.991,-170.898,-103.516,35.645,-78.613,-49.805
1687530780.992,-174.316,-104.980,41.504,-84.961,-37.109
1687530780.996,-179.688,-102.539,43.945,-79.590,-68.848
1687530781.000,-189.453,-104.004,43.945,-77.637,-20.020
1687530781.004,-174.805,-106.934,48.828,-84.473,-17.090
1687530781.008,-145.508,-107.910,54.688,-72.266,-83.008
1687530781.012,-137.207,-98.633,54.199,-63.965,22.949
1687530781.016,-144.043,-92.773,58.594,-70.801,206.055
1687530781.019,-154.785,-96.191,59.082,-62.988,236.328
1687530781.023,-154.297,-92.773,61.035,-67.383,-19.043
1687530781.027,-144.043,-88.379,65.918,-62.988,-55.664
1687530781.031,-139.648,-87.402,61.035,-56.152,265.137
1687530781.035,-147.461,-89.355,51.758,-58.594,205.078
1687530781.037,-159.668,-93.262,48.828,-52.734,-82.520
1687530781.041,-159.668,-89.355,46.875,-54.688,-115.234
1687530781.045,-146.484,-83.984,40.039,-60.059,-70.312
1687530781.049,-144.531,-84.473,36.621,-64.453,-40.039
1687530781.053,-158.691,-81.543,27.832,-86.426,-92.773
1687530781.057,-163.574,-75.195,20.996,-104.492,-49.316
1687530781.061,-146.973,-70.801,24.414,-99.121,179.688
1687530781.064,-122.070,-67.383,24.902,-96.191,9.766
1687530781.068,-114.258,-58.105,27.344,-88.867,-181.641
1687530781.072,-116.699,-48.340,26.855,-89.355,-53.711
1687530781.076,-127.930,-49.805,20.508,-103.516,10.742
1687530781.080,-124.023,-52.734,17.578,-114.746,-73.242
1687530781.097,-101.562,-49.316,14.648,-111.816,-104.004
1687530781.101,-89.844,-48.828,11.719,-101.074,-36.621
1687530781.105,-96.191,-51.758,5.371,-101.074,7.812
1687530781.109,-116.211,-52.246,2.441,-114.746,-111.328
1687530781.113,-117.188,-49.316,1.953,-120.117,-126.465
1687530781.117,-103.027,-44.922,2.441,-118.652,94.238
1687530781.121,-96.680,-44.922,0.000,-122.559,119.141
1687530781.124,-102.051,-44.922,-5.859,-128.906,-29.297
1687530781.128,-121.094,-44.922,-2.930,-127.930,-56.152
1687530781.132,-120.117,-44.434,1.465,-115.723,145.996
1687530781.136,-109.375,-41.016,2.930,-88.379,166.992
1687530781.140,-106.445,-37.109,-2.441,-69.824,-47.852
1687530781.143,-103.027,-36.133,-5.859,-61.035,-37.598
1687530781.147,-114.746,-30.762,-10.742,-62.012,232.422
1687530781.151,-117.188,-27.832,-10.254,-61.035,138.672
1687530781.155,-92.773,-33.203,-5.371,-43.457,-91.309
1687530781.159,-69.336,-33.691,-7.812,-34.180,-59.082
1687530781.163,-72.266,-28.809,-4.883,-21.973,50.293
1687530781.167,-89.844,-26.367,-6.836,-9.277,-14.648
1687530781.170,-96.191,-28.320,-9.766,-10.742,-100.098
1687530781.174,-79.102,-30.273,-13.184,-14.648,29.785
1687530781.178,-69.336,-31.250,-12.695,-6.836,266.113
1687530781.182,-79.102,-33.203,-12.695,-16.602,25.391
1687530781.186,-89.844,-32.715,-17.090,-7.324,-131.836
1687530781.187,-90.820,-28.320,-15.137,-5.371,-40.527
1687530781.191,-85.938,-34.180,-18.555,-21.973,-44.434
1687530781.195,-69.824,-38.574,-20.020,-29.297,-103.516
1687530781.199,-72.266,-33.203,-20.508,-22.949,-116.699
1687530781.203,-97.168,-31.738,-19.531,-14.160,66.406
1687530781.207,-131.836,-36.133,-16.602,-11.719,123.047
1687530781.211,-127.441,-37.109,-11.719,-12.207,-15.137
1687530781.214,-100.098,-33.203,-10.742,0.000,-89.844
1687530781.218,-76.660,-32.715,-10.742,33.203,99.609
1687530781.222,-82.031,-35.645,-2.930,29.297,215.820
1687530781.226,-103.516,-31.250,-2.930,-6.348,-15.625
1687530781.230,-97.168,-30.273,-4.883,-18.066,-109.863
1687530781.233,-78.613,-32.715,-3.906,9.766,100.098
1687530781.237,-69.336,-32.715,0.977,20.996,33.691
1687530781.241,-83.984,-36.621,-0.977,-0.977,-153.809
1687530781.245,-99.121,-39.062,-2.441,0.000,-77.148
1687530781.249,-96.191,-41.016,-0.977,-0.488,-34.180
1687530781.253,-79.590,-38.086,1.953,1.465,-14.160
1687530781.257,-70.312,-35.156,1.953,5.371,98.633
1687530781.260,-76.660,-35.645,-0.977,2.441,116.699
1687530781.264,-88.867,-33.691,-5.859,9.277,293.945
1687530781.268,-93.750,-32.715,-8.789,5.371,109.863
1687530781.272,-81.543,-33.203,-7.324,-3.906,-164.062
1687530781.276,-73.730,-35.645,-9.277,-4.395,-85.938
1687530781.278,-83.496,-31.738,-12.207,-4.395,-82.031
1687530781.282,-113.770,-31.738,-11.230,-6.836,-134.277
1687530781.286,-125.000,-33.203,-15.625,-15.625,-137.695
1687530781.290,-107.422,-35.645,-22.949,-6.348,-45.410
1687530781.294,-102.539,-39.062,-23.438,1.465,12.695
1687530781.298,-106.934,-38.086,-25.391,-4.883,93.262
1687530781.302,-123.047,-38.574,-26.855,-2.930,89.355
1687530781.305,-124.023,-36.133,-22.949,0.488,220.215
1687530781.309,-100.586,-30.273,-20.508,-1.465,289.062
1687530781.313,-89.355,-31.250,-25.391,-4.883,9.766
1687530781.317,-97.656,-33.203,-26.367,-1.953,-29.297
1687530781.321,-111.816,-26.855,-19.043,0.977,197.266
1687530781.323,-117.188,-23.926,-18.555,-0.977,146.484
1687530781.327,-94.238,-28.809,-20.996,-2.441,-136.719
1687530781.331,-79.590,-32.227,-22.461,-6.836,-128.418
1687530781.335,-79.590,-24.414,-20.996,0.977,-87.402
1687530781.339,-89.355,-20.508,-22.949,-0.488,-84.961
1687530781.343,-94.727,-27.344,-29.785,-12.695,-6.348
1687530781.347,-94.727,-28.320,-30.762,-17.090,100.098
1687530781.350,-83.984,-31.738,-28.809,-22.949,310.059
1687530781.354,-82.520,-34.668,-30.273,-49.316,99.121
1687530781.358,-97.168,-28.809,-27.344,-85.938,-113.281
1687530781.362,-107.422,-28.320,-21.973,-110.352,15.625
1687530781.366,-95.703,-31.738,-22.461,-136.230,41.992
1687530781.367,-78.125,-31.250,-22.461,-160.156,-70.312
1687530781.371,-79.590,-30.762,-21.484,-163.574,-153.320
1687530781.375,-103.516,-34.180,-26.855,-168.945,-94.238
1687530781.379,-112.793,-31.738,-32.227,-185.059,-40.039
1687530781.383,-102.539,-27.832,-33.691,-187.500,-87.402
1687530781.387,-96.680,-23.438,-29.297,-191.406,-44.434
1687530781.391,-92.285,-24.414,-27.832,-187.012,196.289
1687530781.394,-106.445,-29.297,-31.250,-180.176,195.312
1687530781.398,-122.559,-28.320,-32.227,-185.059,-107.910
1687530781.402,-108.398,-29.785,-27.832,-182.129,-86.426
1687530781.406,-93.262,-29.297,-26.367,-164.062,120.117
1687530781.410,-89.844,-31.738,-27.832,-156.738,-61.035
1687530781.415,-102.539,-32.227,-23.926,-167.480,-109.375
1687530781.419,-134.277,-29.785,-24.414,-169.434,89.844
1687530781.423,-134.277,-27.344,-27.832,-153.320,202.148
1687530781.427,-108.398,-21.484,-26.367,-154.785,77.637
1687530781.431,-93.750,-20.020,-24.902,-157.227,-93.750
1687530781.435,-101.074,-23.926,-25.879,-143.555,100.098
1687530781.439,-126.465,-27.832,-29.297,-152.344,336.426
1687530781.442,-120.117,-20.508,-27.344,-156.250,66.406
1687530781.446,-97.168,-12.695,-22.461,-153.320,-182.617
1687530781.450,-94.727,-13.672,-18.066,-153.809,-95.215
1687530781.454,-105.957,-13.184,-19.531,-141.602,14.160
1687530781.458,-129.395,-8.301,-18.555,-145.996,-58.594
1687530781.473,-136.230,-18.066,-17.578,-167.969,-51.758
1687530781.477,-100.098,-29.297,-13.184,-154.297,-60.059
1687530781.481,-73.242,-16.113,-18.555,-148.926,-53.711
1687530781.485,-84.473,-6.348,-36.621,-175.293,76.660
1687530781.489,-103.516,-8.789,-41.992,-173.340,2.930
1687530781.493,-106.934,-12.207,-47.852,-127.930,206.543
1687530781.497,-92.285,-10.254,-55.176,-98.145,365.234
1687530781.500,-83.984,-1.465,-66.406,-104.004,-1.953
1687530781.504,-84.961,0.977,-74.707,-89.355,-141.602
1687530781.508,-104.004,1.953,-85.449,-71.289,62.988
1687530781.512,-132.324,7.324,-101.074,-81.055,109.863
1687530781.516,-128.418,5.859,-100.098,-72.754,-103.516
1687530781.517,-114.746,8.301,-102.539,-48.828,-156.738
1687530781.521,-122.559,14.160,-110.352,-40.039,115.234
1687530781.525,-135.254,20.508,-109.375,-38.086,53.223
1687530781.529,-136.719,23.926,-112.305,-39.551,-104.004
1687530781.533,-116.211,23.438,-117.188,-34.180,-40.527
1687530781.537,-104.980,22.949,-120.117,-28.320,41.992
1687530781.541,-108.887,25.879,-121.094,-23.438,6.348
1687530781.544,-122.070,28.809,-126.953,-26.367,-47.363
1687530781.548,-137.207,26.367,-133.789,-31.738,9.277
1687530781.552,-120.117,26.855,-128.906,-21.973,278.809
1687530781.556,-100.098,26.855,-128.418,-21.484,128.906
1687530781.560,-106.934,29.785,-137.207,-21.484,-147.949
1687530781.562,-124.512,29.785,-135.742,-21.973,-25.391
1687530781.566,-129.395,24.902,-134.277,-26.855,29.297
1687530781.570,-116.211,19.531,-136.719,-28.320,-58.594
1687530781.574,-100.098,20.020,-129.883,-25.391,-147.461
1687530781.578,-101.562,21.484,-120.117,-17.578,-94.238
1687530781.582,-105.957,20.996,-116.699,-16.113,38.086
1687530781.586,-118.164,18.066,-112.793,-35.156,17.090
1687530781.589,-117.188,13.672,-107.910,-49.805,-80.078
1687530781.593,-95.215,8.789,-99.609,-30.273,188.965
1687530781.597,-94.238,7.324,-95.215,-27.832,407.227
1687530781.601,-102.539,9.766,-99.609,-91.309,45.410
1687530781.605,-117.188,8.789,-96.680,-170.410,-49.805
1687530781.608,-118.652,6.836,-87.891,-214.844,129.883
1687530781.612,-98.145,5.371,-87.402,-251.465,-2.930
1687530781.616,-88.867,4.395,-84.473,-261.230,-128.906
1687530781.620,-93.262,3.418,-81.543,-219.727,-91.309
1687530781.624,-103.516,0.488,-79.590,-168.457,-29.785
1687530781.628,-109.863,-2.441,-73.242,-132.812,3.418
1687530781.632,-97.656,0.000,-66.895,-108.887,-47.852
1687530781.635,-84.473,1.465,-67.871,-88.867,-16.602
1687530781.639,-91.797,-4.883,-68.848,-66.895,224.609
1687530781.643,-106.934,-9.766,-63.477,-56.152,81.055
1687530781.647,-110.352,-5.371,-63.477,-49.316,-50.293
1687530781.651,-98.145,-4.395,-63.965,-52.734,9.277
1687530781.654,-83.984,-11.719,-65.918,-62.012,-16.602
1687530781.658,-86.914,-12.207,-65.430,-64.453,-99.121
1687530781.662,-107.910,-15.625,-63.965,-77.637,-91.797
1687530781.666,-110.840,-15.625,-62.012,-80.078,-15.137
1687530781.670,-96.191,-11.719,-58.105,-63.965,-63.965
1687530781.674,-77.148,-13.184,-52.246,-40.527,-18.066
1687530781.678,-69.824,-10.742,-44.434,-12.207,116.699
1687530781.681,-89.844,-10.742,-45.898,0.488,198.242
1687530781.685,-100.098,-11.719,-46.387,9.277,150.879
1687530781.689,-77.148,-5.371,-37.598,27.344,-91.797
1687530781.693,-52.734,-6.348,-31.250,32.715,-31.250
1687530781.697,-45.898,-2.441,-34.180,35.156,194.336
1687530781.700,-51.270,-1.465,-36.133,34.180,84.961
1687530781.704,-60.547,-5.859,-33.203,-4.883,-120.605
1687530781.708,-54.199,-1.953,-33.203,-31.738,-77.637
1687530781.712,-49.805,-2.441,-39.551,-33.691,68.848
1687530781.716,-58.594,-9.277,-41.992,-25.879,-16.602
1687530781.720,-82.031,-8.789,-38.086,-10.742,-113.281
1687530781.724,-87.891,-6.348,-34.668,2.441,19.043
1687530781.727,-69.824,-11.230,-35.156,18.066,290.527
1687530781.731,-54.688,-12.207,-32.715,26.855,111.816
1687530781.735,-53.223,-8.301,-31.738,32.227,-108.887
1687530781.739,-60.059,-9.277,-32.227,41.992,-61.523
1687530781.743,-70.312,-12.207,-33.691,39.551,-106.934
1687530781.744,-70.801,-14.160,-32.715,37.109,-140.625
1687530781.748,-53.223,-12.695,-27.344,43.457,-146.484
1687530781.752,-50.781,-10.254,-27.832,55.664,-66.895
1687530781.756,-71.777,-8.789,-35.156,57.617,56.641
1687530781.760,-89.844,-8.301,-34.668,44.922,-64.453
1687530781.764,-77.148,-11.230,-33.691,34.180,-24.414
1687530781.768,-63.477,-8.301,-35.645,31.250,269.531
1687530781.771,-61.523,-7.812,-30.273,41.992,381.348
1687530781.775,-74.707,-9.277,-27.832,34.668,18.555
1687530781.779,-80.566,-12.695,-29.785,25.391,-146.484
1687530781.783,-75.195,-18.066,-29.785,24.902,-48.828
1687530781.787,-69.336,-20.020,-36.133,20.508,-71.289
1687530781.787,-62.012,-16.602,-34.180,23.438,-129.395
1687530781.791,-67.383,-14.648,-34.668,18.555,-60.547
1687530781.795,-92.773,-16.113,-36.621,18.555,102.051
1687530781.799,-100.586,-20.020,-32.715,16.602,-12.695
1687530781.803,-81.543,-21.973,-27.344,16.602,-92.773
1687530781.807,-71.777,-20.996,-20.996,22.949,59.570
1687530781.811,-72.266,-20.508,-23.926,26.367,248.535
1687530781.814,-89.844,-25.391,-26.855,22.461,122.070
1687530781.818,-107.910,-28.809,-28.809,16.113,-88.379
1687530781.822,-97.656,-26.367,-32.715,12.207,-8.789
1687530781.826,-89.844,-20.508,-31.250,17.090,166.504
1687530781.830,-92.285,-17.578,-28.809,16.602,-13.672
1687530781.848,-113.281,-19.043,-25.879,15.625,-28.320
1687530781.852,-118.652,-18.555,-26.855,15.137,56.152
1687530781.856,-96.680,-21.484,-31.250,18.555,-67.871
1687530781.860,-81.543,-24.902,-27.344,22.949,-118.164
1687530781.864,-76.172,-22.461,-26.367,11.719,-147.949
1687530781.868,-95.215,-22.949,-26.855,6.836,63.965
1687530781.872,-116.699,-28.320,-29.297,1.465,130.371
1687530781.875,-109.375,-27.832,-32.715,-6.836,-6.836
1687530781.879,-93.750,-25.391,-29.785,-8.301,-65.430
1687530781.883,-87.402,-20.508,-23.926,6.348,153.809
1687530781.887,-101.074,-22.461,-25.391,17.578,494.629
1687530781.891,-117.676,-28.809,-24.902,9.277,131.348
1687530781.893,-102.051,-25.391,-19.531,5.371,-49.316
1687530781.897,-83.496,-24.414,-21.484,8.789,57.129
1687530781.901,-84.961,-25.879,-21.484,8.301,-51.758
1687530781.905,-96.680,-31.738,-22.461,10.742,-67.383
1687530781.909,-114.258,-33.203,-26.367,-1.953,-11.230
1687530781.913,-115.723,-31.738,-32.227,-1.465,68.359
1687530781.917,-98.145,-32.715,-29.785,13.184,82.520
1687530781.920,-85.938,-27.832,-26.855,20.996,-40.527
1687530781.924,-88.379,-25.879,-28.320,13.672,-19.043
1687530781.928,-103.027,-29.785,-28.320,7.324,286.133
1687530781.932,-89.844,-23.926,-28.809,6.836,148.438
1687530781.936,-66.406,-20.020,-34.668,0.000,-102.539
1687530781.939,-65.918,-20.020,-42.480,-3.418,-27.832
1687530781.943,-71.289,-15.625,-40.039,-3.906,58.105
1687530781.947,-96.191,-20.020,-39.551,-19.531,-26.367
1687530781.951,-101.562,-21.484,-38.086,-28.320,-138.184
1687530781.955,-88.379,-22.949,-36.133,-27.832,-61.523
1687530781.959,-76.172,-25.391,-29.785,-28.809,39.062
1687530781.963,-75.684,-13.184,-30.273,-37.109,11.719
1687530781.966,-104.492,-12.695,-39.062,-64.453,-81.543
1687530781.970,-101.074,-20.020,-41.016,-86.426,70.312
1687530781.974,-81.543,-17.090,-42.969,-79.102,160.645
1687530781.978,-58.594,-18.066,-41.992,-46.387,-45.410
1687530781.982,-57.129,-18.066,-38.086,-34.668,-36.621
1687530781.989,-86.426,-12.695,-38.086,-34.180,253.906
1687530781.993,-83.008,-12.695,-41.016,-20.020,160.156
1687530781.997,-62.988,-15.625,-37.598,-24.902,-116.699
1687530782.001,-55.176,-12.695,-34.180,-25.879,-122.070
1687530782.005,-45.898,-8.301,-39.551,-8.301,-126.465
1687530782.009,-54.688,-7.812,-44.434,-10.742,-62.988
1687530782.013,-73.730,-11.230,-40.527,-31.250,-38.086
1687530782.016,-50.781,-10.742,-35.156,-19.531,-37.109
1687530782.020,-38.574,-10.254,-36.133,-4.395,151.855
1687530782.024,-46.387,-9.766,-39.551,-14.160,37.598
1687530782.028,-50.293,-12.207,-38.086,-22.461,-178.711
1687530782.032,-46.875,-16.113,-35.645,-20.996,-155.273
1687530782.029,-34.180,-18.066,-39.551,-20.508,-77.637
1687530782.033,-15.137,-14.648,-31.250,-20.508,-44.922
1687530782.037,-9.277,-9.766,-20.508,-24.414,-7.324
1687530782.041,-29.785,-15.137,-21.973,-37.109,60.059
1687530782.045,-42.480,-16.602,-26.367,-28.809,38.574
1687530782.049,-25.391,-18.066,-22.949,-26.855,11.230
1687530782.053,-12.695,-20.996,-17.578,-21.484,23.438
1687530782.056,-11.719,-18.066,-16.602,0.977,196.289
1687530782.060,-27.344,-16.113,-20.020,9.277,265.137
1687530782.064,-39.062,-14.160,-20.996,-1.465,6.836
1687530782.068,-30.762,-21.973,-24.902,-12.207,-107.422
1687530782.072,-18.066,-28.320,-30.273,-16.113,57.129
1687530782.073,-3.906,-20.996,-27.832,-17.090,20.020
1687530782.077,-6.348,-16.602,-24.902,-11.719,-133.789
1687530782.081,-18.066,-16.602,-24.414,-11.230,-133.301
1687530782.085,-15.137,-19.531,-28.320,-14.160,-81.055
1687530782.089,-8.301,-22.949,-34.668,-17.090,-26.367
1687530782.093,-7.812,-18.066,-33.203,-20.508,-6.348
1687530782.097,-30.273,-18.555,-31.250,-25.879,54.688
1687530782.100,-62.500,-19.043,-35.156,-22.461,363.770
1687530782.104,-59.570,-19.043,-38.574,-16.113,237.793
1687530782.108,-40.039,-19.531,-38.086,-28.809,-110.352
1687530782.112,-36.133,-19.531,-32.715,-21.973,-125.488
1687530782.116,-47.852,-20.996,-33.691,-14.160,-86.426
1687530782.117,-63.477,-19.531,-35.645,-16.113,-96.680
1687530782.121,-66.406,-20.508,-35.645,-27.344,-126.465
1687530782.125,-56.152,-22.461,-32.227,-20.996,-88.867
1687530782.129,-46.387,-25.391,-27.832,-14.160,-62.012
1687530782.133,-57.129,-28.809,-31.250,-21.484,-119.141
1687530782.137,-76.660,-29.785,-34.180,-24.414,-55.176
1687530782.141,-75.684,-29.785,-33.691,-28.320,250.000
1687530782.144,-56.641,-24.414,-39.551,-28.320,343.750
1687530782.148,-44.922,-23.438,-42.969,-31.738,-24.414
1687530782.152,-45.410,-20.020,-43.945,-32.227,-155.762
1687530782.156,-48.340,-18.066,-45.898,-28.320,232.422
1687530782.160,-35.156,-17.090,-42.969,-30.762,256.348
1687530782.163,-20.020,-17.090,-42.480,-40.039,-54.688
1687530782.167,-14.160,-15.625,-43.457,-41.504,-64.941
1687530782.171,-24.414,-17.090,-41.504,-36.621,-30.762
1687530782.175,-53.711,-21.484,-40.527,-34.180,-47.852
1687530782.179,-63.477,-21.973,-40.039,-38.574,-99.609
1687530782.183,-56.641,-23.926,-37.109,-39.551,-3.418
1687530782.187,-70.312,-25.391,-34.180,-29.297,303.711
1687530782.190,-79.102,-25.391,-32.715,-25.879,30.273
1687530782.194,-92.773,-26.367,-36.133,-36.621,-209.961
1687530782.198,-104.492,-30.273,-34.180,-37.109,39.551
1687530782.202,-94.727,-29.785,-31.250,-28.809,126.953
1687530782.206,-86.914,-28.809,-35.645,-30.762,-57.617
1687530782.226,-87.891,-27.832,-39.062,-34.180,-94.238
1687530782.230,-102.051,-26.367,-39.551,-33.203,-63.965
1687530782.234,-112.793,-29.785,-34.668,-32.227,-97.656
1687530782.238,-96.680,-31.738,-32.715,-36.133,-133.789
1687530782.242,-83.496,-29.297,-36.133,-47.363,-103.027
1687530782.246,-89.844,-34.668,-39.062,-62.500,149.414
1687530782.250,-104.492,-34.180,-37.109,-52.734,247.559
1687530782.253,-109.375,-25.879,-33.691,-48.828,17.578
1687530782.257,-100.098,-27.832,-35.156,-68.848,-88.379
1687530782.261,-91.797,-27.344,-40.527,-52.734,127.930
1687530782.265,-97.656,-23.926,-43.945,-34.180,161.621
1687530782.269,-114.258,-23.926,-38.574,-40.039,-38.574
1687530782.267,-126.953,-27.344,-34.180,-45.898,-43.945
1687530782.271,-125.000,-30.762,-32.227,-46.387,104.492
1687530782.275,-113.770,-33.203,-34.180,-42.969,21.484
1687530782.279,-106.934,-30.762,-34.668,-35.156,-144.043
1687530782.283,-116.699,-28.809,-36.621,-37.109,-98.145
1687530782.287,-137.207,-32.227,-45.898,-42.480,8.301
1687530782.291,-141.602,-30.762,-46.875,-39.551,52.246
1687530782.294,-128.906,-27.832,-40.527,-45.898,-61.035
1687530782.298,-111.328,-30.762,-36.133,-43.945,-78.125
1687530782.302,-123.047,-30.273,-39.551,-24.902,223.633
1687530782.306,-135.742,-28.320,-39.062,-33.203,34.668
1687530782.310,-118.164,-26.855,-30.273,-58.594,-145.996
1687530782.314,-98.633,-25.879,-27.344,-56.152,-16.113
1687530782.318,-90.820,-27.832,-24.902,-38.574,23.438
1687530782.322,-94.727,-23.438,-23.438,-37.598,-32.227
1687530782.326,-113.281,-20.020,-30.273,-42.969,-116.699
1687530782.330,-113.281,-22.461,-33.203,-37.598,-21.973
1687530782.334,-88.867,-17.578,-29.297,-29.785,33.691
1687530782.338,-78.613,-15.137,-26.367,-26.855,20.996
1687530782.341,-80.566,-18.555,-22.949,-19.043,4.395
1687530782.345,-99.609,-21.484,-26.855,-20.508,125.000
1687530782.349,-113.770,-24.902,-33.203,-37.598,202.148
1687530782.353,-91.797,-24.414,-29.785,-41.992,8.301
1687530782.357,-79.590,-23.438,-30.273,-31.250,-85.938
1687530782.358,-82.520,-24.902,-30.273,-31.250,123.535
1687530782.362,-93.262,-24.902,-27.832,-41.504,111.328
1687530782.366,-102.051,-29.297,-28.809,-44.922,-87.402
1687530782.370,-85.938,-31.738,-27.344,-48.340,-129.395
1687530782.374,-67.383,-28.320,-29.785,-54.199,-114.746
1687530782.378,-67.383,-32.227,-32.715,-51.270,-6.836
1687530782.382,-86.426,-34.180,-33.203,-49.805,15.137
1687530782.385,-91.309,-30.273,-28.809,-43.457,-39.551
1687530782.389,-67.383,-23.438,-25.879,-36.621,179.199
1687530782.393,-53.711,-22.461,-31.250,-35.645,82.031
1687530782.397,-52.246,-21.484,-32.227,-38.086,-130.371
1687530782.401,-65.918,-22.949,-32.227,-33.691,-116.211
1687530782.403,-84.961,-25.879,-36.621,-27.832,-99.609
1687530782.407,-77.148,-25.879,-35.156,-35.156,-108.398
1687530782.411,-67.383,-24.414,-30.273,-38.086,-72.754
1687530782.415,-73.242,-24.414,-26.367,-32.715,11.719
1687530782.419,-88.379,-30.273,-28.809,-28.320,-14.648
1687530782.423,-101.074,-31.738,-31.738,-33.691,-18.555
1687530782.427,-92.285,-30.762,-26.367,-41.504,-16.602
1687530782.430,-79.102,-26.367,-20.996,-30.273,194.336
1687530782.434,-80.078,-21.973,-18.555,-20.508,355.469
1687530782.438,-89.844,-23.438,-17.578,-29.297,11.719
1687530782.442,-102.539,-26.855,-20.020,-38.574,-52.246
1687530782.446,-99.609,-30.273,-24.414,-37.598,114.258
1687530782.447,-82.520,-31.738,-26.367,-36.621,15.625
1687530782.451,-79.590,-29.297,-31.250,-41.504,-96.191
1687530782.455,-89.844,-29.297,-33.203,-46.387,-20.020
1687530782.459,-104.492,-30.762,-29.297,-42.480,-15.625
1687530782.463,-104.004,-32.227,-28.809,-44.922,-50.781
1687530782.467,-91.797,-30.273,-24.902,-55.176,-37.109
1687530782.471,-87.402,-31.738,-23.926,-50.293,20.508
1687530782.474,-100.586,-34.180,-28.320,-34.180,314.453
1687530782.478,-118.164,-32.715,-27.832,-37.109,153.809
1687530782.482,-113.770,-32.227,-27.832,-43.457,-117.676
1687530782.486,-85.449,-29.785,-29.785,-32.715,-84.473
1687530782.490,-83.496,-28.320,-31.738,-27.832,-49.805
1687530782.492,-93.750,-30.273,-24.902,-24.414,-73.242
1687530782.496,-100.098,-23.926,-22.461,-25.879,-50.293
1687530782.500,-104.980,-25.391,-25.391,-43.945,-25.391
1687530782.504,-88.379,-31.738,-21.973,-45.898,-50.293
1687530782.508,-78.613,-27.344,-21.484,-40.527,-89.844
1687530782.512,-90.820,-26.367,-22.949,-35.156,38.086
1687530782.516,-110.352,-25.391,-27.832,-31.250,263.672
1687530782.519,-107.422,-21.484,-29.785,-34.668,215.332
1687530782.523,-85.449,-21.973,-24.902,-32.715,-84.961
1687530782.527,-81.055,-21.484,-25.879,-29.297,-132.812
1687530782.531,-77.148,-21.484,-27.832,-34.668,94.727
1687530782.535,-90.820,-24.414,-29.297,-41.992,93.262
1687530782.538,-99.609,-22.949,-21.484,-41.016,-63.477
1687530782.542,-79.590,-20.996,-19.043,-39.551,-53.223
1687530782.546,-71.777,-23.926,-24.902,-41.504,168.457
1687530782.550,-75.195,-24.902,-21.484,-39.062,44.434
1687530782.554,-87.891,-21.973,-18.555,-41.016,-184.570
1687530782.558,-96.191,-28.809,-17.578,-39.062,-45.410
1687530782.562,-81.055,-34.180,-18.066,-31.738,141.113
1687530782.565,-67.871,-31.738,-21.484,-30.762,-0.488
1687530782.569,-66.406,-31.250,-20.996,-24.902,-96.680
1687530782.573,-86.426,-32.715,-18.555,-28.809,-37.598
1687530782.577,-109.863,-33.691,-19.043,-32.715,55.176
1687530782.581,-101.074,-34.180,-19.043,-37.598,-48.340
1687530782.584,-76.660,-34.180,-20.996,-34.180,-90.820
1687530782.588,-69.824,-32.715,-20.996,-32.715,33.691
1687530782.592,-80.078,-33.203,-22.949,-40.527,32.227
1687530782.596,-98.633,-33.691,-29.297,-42.480,-53.223
1687530782.600,-81.055,-29.785,-29.297,-38.574,-52.246
1687530782.604,-63.965,-26.367,-22.461,-37.109,211.914
1687530782.608,-73.242,-25.391,-19.531,-43.945,237.305
1687530782.611,-87.402,-29.785,-25.879,-46.875,-50.781
1687530782.615,-100.586,-28.320,-24.902,-53.711,-93.750
1687530782.619,-104.980,-29.785,-22.461,-59.570,124.023
1687530782.623,-93.262,-29.785,-28.809,-55.176,112.793
1687530782.627,-76.172,-15.625,-23.926,-37.109,-82.031
1687530782.643,-63.965,-10.742,-16.113,-10.254,-62.500
1687530782.647,-83.496,-20.508,-5.859,-9.277,201.172
1687530782.651,-109.375,-30.273,-2.441,-53.223,83.984
1687530782.655,-101.562,-40.527,-3.418,-66.895,-117.676
1687530782.659,-90.332,-43.457,2.441,-45.898,34.180
1687530782.663,-111.328,-49.316,9.766,-48.340,261.230
1687530782.667,-148.438,-59.570,15.137,-51.758,120.605
1687530782.670,-154.785,-65.430,17.578,-41.504,-123.047
