timestamps,TP9,AF7,AF8,TP10,Right AUX
1687530753.629,-110.840,-22.461,-24.902,-87.891,-226.562
1687530753.633,-115.234,-21.973,-23.438,-100.098,-234.863
1687530753.637,-45.898,-21.484,-22.949,-57.129,-41.504
1687530753.641,12.207,-23.926,-23.926,-15.625,104.492
1687530753.645,-18.555,-20.996,-24.902,-45.410,58.594
1687530753.649,-96.191,-20.020,-24.902,-93.750,-24.902
1687530753.653,-122.559,-22.461,-22.461,-102.051,244.629
1687530753.656,-58.594,-25.391,-19.531,-58.594,365.723
1687530753.660,16.602,-26.855,-17.090,-16.113,135.742
1687530753.664,-18.066,-25.391,-19.531,-31.250,44.434
1687530753.668,-107.422,-24.902,-21.973,-88.379,23.438
1687530753.672,-140.625,-28.320,-20.020,-110.352,-26.855
1687530877.833,-21.973,-31.250,-21.973,-19.043,42.969
1687530877.837,-37.109,-33.203,-23.926,-36.133,-74.219
1687530877.841,-63.477,-29.785,-19.043,-62.500,-185.547
1687530877.845,-68.848,-26.367,-16.602,-65.918,-193.848
1687530877.849,-44.434,-28.809,-19.531,-44.922,-125.000
1687530877.853,-20.020,-23.438,-18.066,-31.738,-41.016
1687530877.857,-33.203,-19.531,-20.996,-42.969,-51.758
1687530877.860,-65.918,-25.879,-23.438,-61.035,-30.273
1687530877.864,-75.684,-28.809,-22.461,-71.289,156.738
1687530877.868,-55.176,-29.297,-24.414,-43.457,172.363
1687530877.872,-30.762,-29.297,-22.949,-16.113,75.684
1687530877.876,-30.273,-25.879,-19.531,-20.508,88.379
1687530910.383,-8.789,-37.598,-33.691,-26.855,-20.508
1687530910.387,-10.742,-40.527,-37.598,-24.414,-90.820
1687530910.391,-12.207,-43.457,-38.086,-23.926,-182.617
1687530910.395,-25.391,-43.945,-36.621,-22.949,-95.703
1687530910.399,-30.762,-46.875,-37.598,-31.250,-106.934
1687530910.403,-25.391,-46.875,-38.574,-40.039,-115.234
1687530910.407,-21.973,-42.969,-40.527,-41.016,-22.949
1687530910.410,-23.926,-42.480,-41.992,-33.691,82.520
1687530910.414,-36.133,-41.504,-38.574,-14.648,177.734
1687530910.418,-41.992,-41.016,-39.551,-25.879,25.391
1687530910.422,-33.691,-42.480,-39.551,-43.945,8.301
1687530910.426,-30.762,-45.898,-40.039,-41.504,59.570
1687530910.428,-29.297,-49.316,-34.668,0.488,133.301
1687530910.426,-30.762,-49.805,-33.691,11.230,-154.785
1687530910.430,-42.969,-49.316,-34.180,9.277,-64.453
1687530910.434,-32.715,-50.781,-35.156,-5.859,-122.559
1687530910.427,-19.531,-36.133,-32.715,25.391,-115.723
1687530910.431,-21.484,-41.504,-33.203,21.973,-61.035
1687530910.435,-11.230,-41.992,-36.621,29.785,152.344
1687530910.439,-9.277,-36.133,-35.156,24.414,5.371
1687530910.426,-35.645,-49.316,-39.062,6.836,96.680
1687530910.430,-25.879,-46.875,-35.645,-2.441,-161.133
1687530910.434,-20.020,-44.434,-36.621,7.324,30.762
1687530910.438,-19.043,-45.410,-39.551,11.719,119.141
1687530910.442,-25.879,-46.875,-41.992,0.488,-124.512
1687530910.428,-21.973,-40.527,-37.598,2.441,-86.426
1687530910.432,-17.578,-43.457,-41.016,-1.953,-145.020
1687530910.436,-22.949,-45.898,-37.598,2.930,-127.930
1687530910.440,-37.109,-44.434,-35.156,0.977,93.750
1687530910.444,-37.598,-47.852,-36.621,-5.371,96.191
1687530910.447,-32.227,-55.176,-37.109,-1.953,-44.434
1687530910.451,-23.438,-51.758,-33.691,-2.441,-82.031
1687530910.455,-21.484,-44.922,-29.297,10.254,200.195
1687530910.459,-28.320,-41.992,-30.762,14.160,430.176
1687530910.463,-26.367,-41.504,-31.738,-7.324,9.766
1687530910.427,-17.578,-41.992,-38.086,-10.742,-45.898
1687530910.431,-18.066,-36.133,-33.203,6.348,-88.379
1687530910.435,-26.855,-32.715,-35.645,4.883,-176.270
1687530910.439,-35.156,-36.621,-37.109,-4.395,-85.938
1687530910.443,-27.344,-40.527,-36.133,-5.859,10.742
1687530910.447,-18.555,-38.574,-33.691,0.488,4.883
1687530910.450,-22.949,-33.691,-30.273,7.812,-19.531
1687530910.454,-36.133,-35.645,-28.809,0.000,-10.254
1687530910.458,-36.133,-40.527,-25.879,-8.789,210.938
1687530910.462,-24.902,-39.551,-28.320,-18.066,49.805
1687530910.466,-16.113,-32.227,-24.414,-13.672,-166.016
1687530910.465,-17.090,-21.973,-18.066,5.371,56.152
1687530910.469,-21.484,-21.484,-19.531,4.883,56.152
1687530910.473,-20.020,-24.414,-17.090,-5.859,-117.676
1687530910.477,-18.066,-23.438,-14.160,-13.184,-160.156
1687530910.481,-12.695,-21.973,-16.113,-9.277,-131.836
1687530910.485,-19.043,-22.461,-17.578,2.930,-47.363
1687530910.489,-31.738,-25.391,-15.625,0.977,48.340
1687530910.492,-25.391,-24.414,-15.137,-13.672,-24.902
1687530910.496,-20.020,-29.297,-18.555,-23.438,110.352
1687530910.500,-22.949,-31.250,-22.949,-14.160,301.270
1687530910.504,-27.344,-30.762,-22.461,-9.277,84.473
1687530910.508,-39.062,-37.598,-26.855,-11.230,-35.645
1687530910.503,-41.016,-40.527,-30.762,-10.742,173.340
1687530910.507,-38.086,-41.016,-29.785,-22.461,97.168
1687530910.511,-35.645,-45.410,-32.715,-26.367,-203.125
1687530910.515,-38.086,-51.270,-35.645,-25.391,-145.020
1687530910.519,-45.898,-50.781,-33.203,-32.715,-33.691
1687530910.523,-54.688,-51.270,-35.645,-38.086,-49.805
1687530910.527,-53.223,-51.758,-39.062,-50.293,-86.426
1687530910.530,-43.945,-47.363,-39.551,-49.316,14.648
1687530910.534,-46.387,-46.875,-38.086,-36.133,208.008
1687530910.538,-44.434,-49.316,-30.762,-32.227,31.738
1687530910.542,-34.668,-45.898,-29.297,-36.133,-137.207
1687530910.546,-24.902,-41.992,-34.668,-39.062,-66.406
1687530910.551,-16.113,-44.922,-38.086,-39.551,-128.418
1687530910.555,-8.301,-41.016,-36.133,-41.504,-173.828
1687530910.559,-3.906,-34.668,-36.133,-37.598,-70.312
1687530910.563,-2.930,-36.133,-35.156,-22.949,95.215
1687530910.567,-8.301,-36.621,-27.832,-29.785,0.977
1687530910.571,-23.926,-40.527,-28.320,-41.504,-74.219
1687530910.575,-27.344,-41.504,-32.227,-30.762,-28.320
1687530910.578,-32.227,-41.016,-30.762,-14.648,116.699
1687530910.582,-40.527,-40.039,-26.855,-7.812,150.879
1687530910.586,-36.621,-44.922,-28.320,-15.625,-105.957
1687530910.590,-31.250,-41.016,-29.297,-25.879,-104.004
1687530910.594,-33.691,-36.621,-28.320,-19.043,17.578
1687530910.593,-46.387,-40.527,-32.227,-11.230,11.230
1687530910.597,-55.664,-44.434,-33.203,-14.160,-100.098
1687530910.601,-45.898,-39.551,-30.762,-17.090,-109.863
1687530910.605,-45.410,-37.598,-28.320,-25.391,-101.074
1687530910.609,-46.875,-40.527,-32.715,-30.273,-45.898
1687530910.613,-47.852,-38.574,-38.574,-24.902,6.348
1687530910.617,-56.641,-33.203,-36.133,-20.996,127.930
1687530910.620,-52.734,-31.738,-30.762,-17.578,353.027
1687530910.624,-50.781,-32.227,-32.715,-29.297,167.480
1687530910.628,-49.316,-35.156,-37.598,-46.387,-147.949
1687530910.632,-37.109,-35.645,-32.227,-36.621,-92.285
1687530910.636,-39.062,-33.691,-33.203,-30.762,-78.613
1687530910.638,-46.875,-38.086,-37.598,-45.898,-148.926
1687530910.642,-40.039,-38.086,-34.180,-49.316,-125.977
1687530910.646,-33.203,-35.645,-32.715,-36.133,-82.520
1687530910.650,-34.180,-34.180,-31.738,-26.367,-55.664
1687530910.654,-42.969,-34.180,-32.715,-18.555,-70.801
1687530910.658,-46.875,-39.062,-31.250,-31.250,-68.848
1687530910.662,-37.598,-38.086,-29.297,-33.203,161.133
1687530910.665,-33.691,-35.645,-27.832,-21.973,184.570
1687530910.669,-37.598,-38.574,-25.391,-27.344,-73.730
1687530910.673,-46.875,-44.434,-31.738,-23.926,-29.297
1687530910.677,-53.223,-43.457,-34.668,-23.438,167.969
1687530910.681,-44.922,-43.945,-33.203,-36.621,101.074
1687530910.683,-44.434,-45.410,-37.598,-42.480,-165.527
1687530910.687,-47.363,-39.551,-34.668,-29.785,-83.008
1687530910.691,-43.457,-33.203,-31.250,-20.508,21.484
1687530910.695,-43.945,-33.691,-30.762,-25.391,-105.957
1687530910.699,-39.062,-34.668,-30.273,-28.809,-152.344
1687530910.703,-36.133,-38.086,-28.809,-25.879,10.254
1687530910.707,-36.621,-38.574,-31.250,-17.578,163.086
1687530910.710,-37.598,-34.668,-32.227,-10.742,-8.789
1687530910.714,-38.574,-34.668,-33.203,-19.531,-166.992
1687530910.718,-35.645,-36.621,-35.645,-30.273,57.617
1687530910.722,-26.367,-36.621,-36.621,-30.762,152.344
1687530910.726,-24.902,-31.250,-36.621,-30.273,-141.602
1687530910.743,-44.922,-32.227,-35.645,-23.926,-161.133
1687530910.747,-52.246,-32.227,-33.203,-20.508,-43.457
1687530910.751,-41.992,-27.344,-32.715,-35.156,-141.113
1687530910.755,-35.645,-27.344,-32.715,-32.715,-199.707
1687530910.759,-35.156,-30.762,-31.250,-20.996,-102.539
1687530910.763,-46.387,-38.086,-30.273,-20.508,53.711
1687530910.767,-52.246,-36.621,-30.273,-29.785,58.594
1687530910.770,-49.805,-36.133,-27.832,-32.715,-105.957
1687530910.774,-48.340,-37.109,-22.461,-35.156,-119.141
1687530910.778,-42.969,-34.668,-21.973,-36.621,10.742
1687530910.782,-45.410,-32.227,-22.461,-21.973,1.465
1687530910.786,-56.641,-33.691,-27.344,-22.461,-46.875
1687530910.788,-52.246,-36.133,-26.367,-25.879,-95.703
1687530910.792,-46.387,-39.062,-27.344,-28.320,101.074
1687530910.796,-37.109,-38.574,-29.297,-35.156,281.738
1687530910.800,-37.109,-36.133,-29.297,-34.180,-9.277
1687530910.804,-47.852,-36.133,-31.738,-27.832,-86.914
1687530910.808,-51.758,-35.645,-33.203,-30.273,-55.176
1687530910.812,-46.387,-30.762,-34.180,-36.621,-94.727
1687530910.815,-37.109,-31.250,-32.715,-30.273,-214.355
1687530910.819,-40.039,-29.297,-33.691,-20.020,-51.758
1687530910.823,-46.875,-29.297,-36.621,-17.578,225.098
1687530910.827,-46.875,-31.738,-35.156,-35.645,-9.277
1687530910.831,-44.922,-30.273,-37.109,-51.758,-186.035
1687530910.835,-38.574,-29.297,-36.621,-50.293,-178.223
1687530910.839,-41.992,-30.273,-33.203,-40.527,-72.266
1687530910.843,-62.012,-32.715,-38.086,-42.480,-25.879
1687530910.847,-65.430,-33.691,-36.621,-47.852,-138.184
1687530910.851,-61.035,-36.133,-31.738,-53.711,-90.332
1687530910.855,-61.035,-37.109,-31.250,-59.082,18.555
1687530910.859,-68.359,-40.527,-33.203,-46.387,-1.465
1687530910.862,-74.707,-39.551,-28.809,-39.551,-59.082
1687530910.866,-72.266,-42.480,-31.250,-40.039,140.625
1687530910.870,-62.500,-45.410,-36.621,-54.199,222.168
1687530910.874,-50.781,-40.527,-33.203,-59.082,-102.051
1687530910.878,-47.363,-39.551,-30.762,-44.922,-143.066
1687530910.879,-53.711,-37.598,-31.738,-41.016,71.777
1687530910.883,-58.105,-40.527,-32.715,-43.945,40.039
1687530910.887,-51.270,-37.109,-36.621,-55.176,-161.133
1687530910.891,-16.113,-21.484,-40.527,-41.016,-54.688
1687530910.895,2.930,-23.926,-21.484,-14.160,22.949
1687530910.899,-31.250,-37.598,-6.836,-22.461,-45.410
1687530910.903,-58.105,-39.062,-9.766,-45.898,1.465
1687530910.906,-62.500,-45.898,-7.812,-59.570,18.066
1687530910.910,-62.988,-50.781,-4.883,-51.758,219.238
1687530910.914,-67.871,-52.734,-8.301,-50.293,102.539
1687530910.918,-81.055,-62.500,2.441,-62.500,-114.746
1687530910.922,-93.262,-67.871,13.672,-68.359,-45.410
1687530910.923,-98.633,-72.266,15.625,-71.777,-132.324
1687530910.927,-102.051,-80.078,21.973,-73.242,-229.492
1687530910.931,-105.469,-86.914,30.762,-72.754,-164.551
1687530910.935,-108.887,-93.262,35.645,-74.219,-75.195
1687530910.939,-122.559,-96.680,39.551,-86.914,-74.707
1687530910.943,-129.395,-97.656,45.898,-93.750,-33.203
1687530910.947,-125.977,-103.027,44.434,-90.820,-19.043
1687530910.950,-124.023,-105.957,48.828,-72.754,228.027
1687530910.954,-125.977,-106.445,57.617,-48.340,351.562
1687530910.958,-138.184,-113.281,58.105,-57.617,18.066
1687530910.962,-135.254,-112.305,60.059,-72.754,-109.375
1687530910.966,-124.023,-109.863,67.383,-62.988,0.977
1687530910.968,-117.188,-112.305,68.359,-63.477,-6.348
1687530910.972,-116.211,-110.352,63.477,-62.012,-114.746
1687530910.976,-126.953,-113.770,61.523,-59.570,-81.055
1687530910.980,-126.465,-118.652,60.547,-65.918,-98.145
1687530910.984,-113.281,-112.305,60.059,-69.824,-136.230
1687530910.988,-93.750,-103.027,60.059,-41.992,-102.051
1687530910.992,-88.379,-103.027,59.570,-21.973,18.066
1687530910.995,-98.145,-105.957,53.711,-48.828,220.215
1687530910.999,-86.914,-102.539,49.316,-43.945,123.535
1687530911.003,-74.219,-98.145,50.293,-29.297,-50.781
1687530911.007,-78.613,-96.191,45.410,-25.879,-23.926
1687530911.011,-82.031,-96.191,49.316,-17.578,38.086
1687530911.013,-86.426,-97.168,54.688,-23.438,-90.332
1687530911.017,-86.426,-94.238,52.734,-25.879,-166.992
1687530911.021,-81.055,-90.820,48.828,-25.391,-102.539
1687530911.025,-74.707,-85.938,46.387,-17.578,-67.871
1687530911.029,-66.406,-79.102,41.504,-24.414,-151.367
1687530911.033,-70.312,-75.684,33.691,-22.461,-57.129
1687530911.037,-82.031,-75.195,30.762,-8.789,253.906
1687530911.040,-80.078,-77.148,32.227,-20.508,195.312
1687530911.044,-69.336,-69.824,29.785,-34.180,-170.898
1687530911.048,-62.500,-66.895,24.902,-28.809,-192.383
1687530911.052,-77.637,-66.406,18.066,-23.438,100.586
1687530911.056,-79.102,-60.059,14.648,-21.973,80.078
1687530911.060,-63.477,-55.176,19.043,-26.855,-150.879
1687530911.064,-53.223,-50.781,14.160,-36.621,-80.566
1687530911.068,-53.711,-48.340,8.789,-24.414,29.785
1687530911.072,-56.152,-45.898,4.395,-6.348,-44.434
1687530911.076,-58.594,-47.852,2.930,-23.926,-124.512
1687530911.080,-51.270,-41.992,5.371,-31.738,63.477
1687530911.084,-41.504,-37.109,3.906,-30.762,191.406
1687530911.087,-48.828,-43.457,-4.395,-32.715,17.090
1687530911.091,-55.176,-40.039,-6.348,-21.484,-52.246
1687530911.095,-58.594,-38.086,-2.441,-24.414,25.391
1687530911.099,-53.711,-41.504,-3.906,-23.926,-5.859
1687530911.103,-47.852,-37.598,-4.883,-26.855,-155.762
1687530911.119,-46.387,-38.086,-6.836,-31.250,-152.344
1687530911.123,-53.223,-38.086,-9.766,-20.020,33.691
1687530911.127,-57.617,-32.715,-10.254,-27.344,51.270
1687530911.131,-51.270,-32.715,-12.207,-43.457,-140.625
1687530911.135,-49.316,-37.598,-11.230,-49.805,-153.320
1687530911.139,-55.176,-41.504,-12.207,-49.316,38.574
1687530911.143,-64.453,-41.504,-13.184,-49.316,176.758
1687530911.146,-74.219,-41.504,-11.230,-56.152,54.199
1687530911.150,-62.988,-35.645,-7.812,-59.570,-158.203
1687530911.154,-49.316,-31.250,-12.695,-59.082,65.918
1687530911.158,-46.387,-34.180,-14.160,-60.059,117.676
1687530911.162,-42.969,-33.691,-8.789,-65.430,-215.820
1687530911.163,-56.641,-36.133,-20.020,-76.172,-171.875
1687530911.167,-62.012,-37.109,-24.414,-79.102,-38.086
1687530911.171,-53.223,-30.762,-20.020,-91.797,-118.164
1687530911.175,-52.246,-28.809,-22.949,-105.469,-108.887
1687530911.179,-53.711,-38.574,-24.902,-85.938,56.152
1687530911.183,-53.223,-37.109,-25.391,-81.543,109.375
1687530911.187,-55.176,-22.461,-24.414,-99.609,13.184
1687530911.190,-54.199,-24.414,-24.414,-96.191,-104.980
1687530911.194,-43.945,-30.273,-22.949,-86.914,-6.836
1687530911.198,-37.598,-28.320,-18.066,-69.824,214.844
1687530911.202,-45.898,-26.367,-13.672,-59.570,39.062
1687530911.206,-58.594,-29.297,-19.043,-64.453,-132.324
1687530911.208,-60.059,-33.691,-20.020,-80.566,-140.137
1687530911.212,-57.129,-33.691,-15.625,-90.820,-138.184
1687530911.216,-62.500,-33.691,-19.531,-84.473,-132.324
1687530911.220,-77.637,-36.133,-27.344,-81.055,-81.055
1687530911.224,-82.520,-36.133,-30.273,-94.238,-41.992
1687530911.228,-72.754,-36.621,-27.344,-92.773,-34.668
1687530911.232,-67.383,-34.180,-24.902,-80.566,22.461
1687530911.235,-71.777,-37.109,-29.297,-89.844,-45.410
1687530911.239,-81.543,-40.527,-29.785,-78.613,133.301
1687530911.243,-76.172,-35.156,-26.855,-63.477,400.879
1687530911.247,-60.059,-35.645,-23.438,-76.660,74.219
1687530911.251,-54.199,-34.668,-20.996,-83.008,-129.883
1687530911.254,-55.664,-33.691,-26.367,-74.219,10.254
1687530911.258,-57.617,-33.203,-30.762,-68.848,-40.527
1687530911.262,-62.012,-31.250,-30.762,-76.660,-116.211
1687530911.266,-58.594,-29.785,-27.832,-81.543,-76.172
1687530911.270,-60.547,-30.762,-31.250,-82.031,-61.523
1687530911.274,-65.430,-33.691,-31.250,-81.543,-10.742
1687530911.278,-66.895,-31.250,-26.367,-75.684,59.570
1687530911.281,-66.406,-30.273,-22.949,-68.848,23.926
1687530911.285,-62.988,-30.762,-21.484,-77.148,311.035
1687530911.289,-64.941,-30.273,-25.879,-85.938,206.055
1687530911.293,-60.547,-32.227,-28.320,-78.613,-102.539
1687530911.297,-57.129,-31.738,-27.344,-73.730,-18.555
1687530911.299,-59.082,-28.809,-28.809,-83.496,-7.812
1687530911.303,-55.664,-25.879,-28.320,-96.680,-95.703
1687530911.307,-45.410,-25.391,-30.273,-100.586,-142.578
1687530911.311,-36.133,-23.926,-29.297,-93.262,-108.887
1687530911.315,-33.691,-21.973,-29.785,-91.309,-110.352
1687530911.319,-39.551,-25.879,-29.785,-87.402,-39.062
1687530911.323,-50.293,-26.367,-29.785,-89.355,-23.438
1687530911.326,-52.734,-27.344,-30.273,-92.773,96.191
1687530911.330,-51.270,-29.297,-30.273,-88.867,122.559
1687530911.334,-69.336,-27.344,-29.297,-87.402,-74.219
1687530911.338,-79.590,-38.086,-25.879,-83.496,2.930
1687530911.342,-51.758,-48.340,-15.625,-53.711,214.844
1687530911.344,-30.762,-27.344,-14.160,-43.457,129.395
1687530911.348,-44.434,-12.207,-30.762,-70.801,-145.020
1687530911.352,-55.664,-14.160,-41.016,-79.590,-116.211
1687530911.356,-72.266,-11.719,-45.410,-81.055,-44.922
1687530911.360,-66.895,-2.441,-45.898,-82.520,-66.895
1687530911.364,-59.082,2.441,-53.711,-96.191,-166.504
1687530911.368,-71.777,0.977,-67.871,-100.098,-27.832
1687530911.371,-84.473,6.348,-78.125,-97.656,187.500
1687530911.375,-92.285,6.836,-90.820,-104.980,-10.742
1687530911.379,-92.773,17.090,-97.168,-109.863,-111.816
1687530911.383,-94.238,24.902,-104.492,-123.535,-75.684
1687530911.387,-82.031,29.297,-111.816,-132.324,-145.996
1687530911.390,-84.961,29.297,-120.605,-134.277,-201.172
1687530911.394,-98.145,28.320,-125.000,-129.883,-155.762
1687530911.398,-104.004,38.574,-122.070,-131.348,20.996
1687530911.402,-104.980,41.992,-128.418,-140.625,-42.480
1687530911.406,-93.750,38.574,-136.719,-138.672,-210.938
1687530911.410,-89.844,38.086,-137.695,-134.766,-90.332
1687530911.414,-99.609,41.992,-139.160,-131.348,268.066
1687530911.417,-95.703,40.039,-137.207,-118.652,289.062
1687530911.421,-83.496,36.621,-132.812,-113.281,-116.699
1687530911.425,-86.914,36.133,-129.883,-111.816,-147.461
1687530911.429,-91.309,30.273,-126.953,-105.469,76.660
1687530911.433,-89.844,23.926,-119.629,-90.820,87.402
1687530911.434,-83.496,24.902,-111.816,-93.262,-67.871
1687530911.438,-79.102,20.996,-107.422,-105.957,-72.266
1687530911.442,-74.707,17.090,-101.074,-99.609,-38.574
1687530911.446,-65.430,17.578,-96.191,-83.984,-69.824
1687530911.450,-65.430,15.625,-91.309,-80.078,-78.125
1687530911.454,-72.754,14.160,-84.961,-83.984,-29.785
1687530911.458,-71.777,12.207,-84.961,-82.520,328.125
1687530911.461,-57.617,10.742,-85.449,-87.402,220.215
1687530911.465,-44.922,13.184,-79.590,-93.750,-173.340
1687530911.469,-53.711,10.742,-74.219,-83.496,-67.871
1687530911.473,-63.965,4.883,-73.242,-82.520,-15.625
1687530911.477,-61.035,3.906,-74.219,-91.309,-144.043
1687530911.494,-51.758,5.371,-70.312,-82.520,-187.500
1687530911.498,-47.852,6.836,-70.801,-71.289,-85.938
1687530911.502,-45.410,8.789,-69.336,-71.777,-44.434
1687530911.506,-49.805,5.371,-70.312,-69.336,-87.891
1687530911.510,-60.059,-3.906,-72.754,-67.871,-80.078
1687530911.514,-54.688,-4.395,-66.406,-72.754,-2.930
1687530911.518,-45.410,-4.395,-62.012,-69.336,2.441
1687530911.521,-50.293,-1.465,-57.129,-66.406,54.688
1687530911.525,-52.246,-2.441,-51.758,-62.988,-1.953
1687530911.529,-47.852,-7.812,-50.293,-60.059,113.770
1687530911.533,-45.410,-6.836,-46.875,-57.617,335.938
1687530911.537,-41.504,-7.324,-46.875,-53.711,0.488
1687530911.546,-46.875,-12.695,-46.875,-54.688,-124.512
1687530911.550,-57.129,-12.695,-41.016,-51.758,0.977
1687530911.554,-53.711,-6.348,-42.969,-56.641,-90.820
1687530911.558,-41.016,-6.348,-41.016,-61.035,-238.281
1687530911.562,-38.574,-6.348,-39.551,-61.523,-183.594
1687530911.566,-45.410,-3.418,-41.504,-61.035,1.465
1687530911.570,-63.477,-13.184,-41.992,-62.012,92.285
1687530911.573,-69.336,-23.438,-48.340,-73.242,-19.043
1687530911.577,-69.336,-20.996,-50.781,-78.613,-49.805
1687530911.581,-70.801,-19.531,-42.480,-70.801,263.184
1687530911.585,-64.453,-20.508,-39.062,-69.824,111.816
1687530911.589,-65.430,-18.066,-43.457,-50.781,-166.992
1687530911.585,-70.312,-17.090,-44.434,-49.316,-64.453
1687530911.589,-60.059,-16.113,-41.016,-76.172,-101.074
1687530911.593,-46.387,-11.230,-42.480,-66.895,-153.320
1687530911.597,-42.969,-3.906,-38.086,-50.781,-103.516
1687530911.601,-51.758,-9.277,-37.598,-46.875,-39.062
1687530911.605,-67.383,-18.066,-41.992,-57.617,2.930
1687530911.609,-68.848,-21.484,-44.434,-79.590,-3.418
1687530911.612,-60.059,-19.043,-47.363,-76.172,-19.531
1687530911.616,-60.547,-11.719,-40.527,-61.523,183.594
1687530911.620,-71.289,-12.207,-34.180,-49.316,233.398
1687530911.624,-74.707,-17.090,-31.250,-49.805,51.270
1687530911.628,-62.500,-20.020,-32.227,-51.270,-4.883
1687530911.629,-54.199,-18.555,-34.668,-51.758,-51.758
1687530911.633,-54.688,-18.555,-35.645,-60.059,-134.766
1687530911.637,-62.988,-20.508,-37.109,-45.410,-172.363
1687530911.641,-71.777,-17.090,-32.715,-38.086,-89.355
1687530911.645,-66.406,-15.625,-31.738,-46.387,196.289
1687530911.649,-56.152,-16.113,-36.133,-54.688,143.066
1687530911.653,-54.199,-16.602,-40.039,-62.012,-112.793
1687530911.656,-60.547,-19.531,-42.969,-52.734,-4.395
1687530911.660,-57.129,-18.555,-40.039,-55.664,164.551
1687530911.664,-61.035,-17.090,-34.180,-81.055,-28.320
1687530911.668,-63.965,-17.578,-32.227,-80.078,-232.422
1687530911.672,-58.105,-12.695,-30.762,-62.988,-140.137
1687530911.674,-62.012,-13.672,-34.180,-60.547,-38.086
1687530911.678,-72.754,-23.438,-38.086,-54.199,-123.535
1687530911.682,-68.848,-24.414,-38.574,-54.688,-189.941
1687530911.686,-51.758,-17.090,-33.203,-62.500,-60.059
1687530911.690,-51.758,-19.043,-32.715,-54.688,-19.043
1687530911.694,-63.965,-22.949,-37.598,-63.477,2.441
1687530911.698,-73.730,-22.461,-35.645,-61.035,36.133
1687530911.701,-76.172,-21.973,-35.156,-53.223,181.641
1687530911.705,-67.871,-22.461,-33.691,-57.617,195.312
1687530911.709,-64.941,-23.926,-28.320,-59.082,-86.426
1687530911.713,-64.941,-19.531,-30.273,-64.453,-41.504
1687530911.717,-69.824,-19.531,-27.344,-49.316,94.238
1687530911.720,-67.871,-23.438,-24.902,-48.340,18.066
1687530911.724,-63.477,-23.926,-30.273,-71.289,-182.129
1687530911.728,-62.500,-20.508,-30.273,-72.266,-54.688
1687530911.732,-58.594,-20.508,-27.832,-59.082,23.926
1687530911.736,-55.176,-20.996,-27.344,-48.340,-92.773
1687530911.740,-51.270,-20.020,-25.879,-47.852,-99.121
1687530911.744,-46.387,-18.555,-23.926,-64.453,45.410
1687530911.747,-50.781,-16.602,-26.855,-63.965,279.785
1687530911.751,-43.945,-16.113,-27.344,-51.758,89.355
1687530911.755,-38.574,-15.625,-24.414,-39.551,-133.301
1687530911.759,-51.270,-19.043,-25.391,-41.992,-16.602
1687530911.763,-48.340,-18.066,-21.973,-46.387,-58.105
1687530911.766,-42.969,-20.996,-25.391,-52.734,-131.348
1687530911.770,-43.457,-23.926,-26.855,-60.547,-74.707
1687530911.774,-43.945,-22.949,-27.832,-53.223,-3.906
1687530911.778,-56.641,-22.461,-32.227,-59.570,-43.457
1687530911.782,-56.152,-20.996,-30.273,-66.895,-139.648
1687530911.786,-47.363,-18.066,-24.414,-60.059,-139.648
1687530911.790,-42.480,-23.438,-28.320,-54.199,201.660
1687530911.793,-46.875,-25.391,-34.180,-42.969,359.863
1687530911.797,-60.059,-21.973,-31.738,-56.152,-75.195
1687530911.801,-61.035,-21.484,-30.273,-80.566,-156.250
1687530911.805,-48.828,-19.531,-31.738,-73.242,57.129
1687530911.809,-42.969,-21.973,-31.250,-67.871,-22.949
1687530911.809,-47.852,-22.461,-30.762,-61.035,-140.137
1687530911.813,-53.223,-18.555,-31.738,-57.129,-50.781
1687530911.817,-58.105,-20.508,-31.250,-70.801,-117.676
1687530911.821,-50.293,-21.973,-27.832,-74.219,-181.641
1687530911.825,-52.246,-23.926,-26.855,-64.453,-223.633
1687530911.829,-57.129,-25.391,-25.879,-57.617,-71.777
1687530911.833,-61.523,-19.043,-26.855,-57.617,233.398
1687530911.836,-67.383,-17.578,-29.785,-65.918,150.879
1687530911.840,-60.059,-15.625,-28.320,-78.125,-95.215
1687530911.844,-47.852,-17.090,-27.832,-70.801,-47.363
1687530911.848,-48.828,-22.461,-28.809,-52.246,204.102
1687530911.852,-56.641,-22.949,-28.320,-62.500,68.359
1687530911.868,-53.223,-26.367,-27.832,-73.730,-126.953
1687530911.872,-40.039,-25.391,-26.855,-74.219,-93.750
1687530911.876,-37.598,-23.926,-30.762,-75.195,-128.906
1687530911.880,-40.039,-23.926,-30.762,-64.941,-142.090
1687530911.884,-41.016,-20.020,-23.926,-48.340,-67.383
1687530911.888,-40.039,-19.531,-24.414,-48.828,-3.906
1687530911.892,-37.109,-21.484,-34.668,-62.988,27.344
1687530911.895,-32.715,-16.113,-36.621,-61.035,-82.520
1687530911.899,-39.062,-16.113,-32.227,-54.199,-216.797
1687530911.903,-53.223,-25.391,-31.738,-55.664,95.703
1687530911.907,-48.340,-29.297,-33.691,-57.617,372.070
1687530911.911,-42.480,-27.832,-34.668,-68.359,-28.809
1687530911.915,-34.668,-27.832,-29.785,-71.777,-185.547
1687530911.919,-37.109,-27.832,-26.855,-58.105,-18.066
1687530911.923,-54.199,-25.391,-23.438,-49.805,-62.500
1687530911.927,-55.664,-25.391,-25.391,-57.129,-171.387
1687530911.931,-51.270,-25.879,-28.809,-68.359,-121.582
1687530911.935,-49.805,-25.391,-28.320,-65.430,-19.531
1687530911.939,-54.688,-26.855,-29.785,-52.734,-3.906
1687530911.942,-60.059,-28.320,-28.320,-43.945,-153.320
1687530911.946,-61.035,-29.297,-23.926,-46.387,-132.812
1687530911.950,-57.129,-25.879,-22.461,-58.105,107.910
1687530911.954,-51.270,-21.973,-23.438,-61.035,-67.383
1687530911.958,-48.340,-24.414,-23.926,-53.711,-279.297
1687530911.959,-56.641,-26.367,-22.949,-44.922,-20.508
1687530911.963,-68.848,-28.809,-28.320,-53.223,69.824
1687530911.967,-62.012,-26.367,-31.250,-57.129,-137.695
1687530911.971,-58.594,-20.508,-28.320,-57.129,-117.188
1687530911.975,-51.270,-20.996,-29.297,-60.059,-75.195
1687530911.979,-53.223,-23.926,-31.250,-50.781,21.484
1687530911.983,-71.289,-23.438,-33.691,-52.246,72.266
1687530911.986,-66.895,-24.414,-36.621,-58.594,-54.688
1687530911.990,-61.523,-24.902,-36.621,-59.570,72.754
1687530911.994,-57.617,-28.320,-37.598,-54.688,202.148
1687530911.998,-54.199,-24.902,-36.621,-47.363,35.156
1687530912.002,-59.082,-17.578,-31.250,-44.434,-1.953
1687530912.005,-64.453,-20.996,-29.785,-52.734,81.543
1687530912.009,-60.059,-26.367,-32.715,-66.406,-31.250
1687530912.013,-53.223,-24.414,-28.809,-63.965,-145.020
1687530912.017,-47.852,-20.508,-25.391,-55.664,-61.035
1687530912.021,-44.922,-20.020,-28.809,-52.734,-3.418
1687530912.025,-37.109,-23.926,-29.297,-61.035,-21.484
1687530912.029,-25.879,-23.438,-27.832,-66.895,-132.812
1687530912.032,-18.555,-19.043,-27.344,-50.781,-76.172
1687530912.036,-13.672,-18.066,-30.273,-34.668,147.949
1687530912.040,-19.043,-16.113,-33.691,-38.086,-7.812
1687530912.044,-25.391,-14.648,-32.227,-43.457,-179.688
1687530912.048,-31.738,-20.020,-32.715,-51.270,-47.852
1687530912.049,-36.133,-24.414,-34.180,-59.082,-17.090
1687530912.053,-40.527,-25.879,-33.691,-47.852,-119.141
1687530912.057,-50.293,-26.855,-31.250,-39.062,-129.883
1687530912.061,-55.176,-20.020,-27.832,-34.668,-62.012
1687530912.065,-51.270,-18.555,-23.926,-34.668,-38.574
1687530912.069,-48.828,-19.531,-23.926,-31.250,-23.926
1687530912.073,-41.992,-15.625,-28.320,-24.414,41.504
1687530912.076,-54.199,-18.066,-31.738,-23.926,155.273
1687530912.080,-73.242,-15.625,-27.344,-28.320,218.262
1687530912.084,-59.082,-11.719,-23.926,-36.621,3.906
1687530912.088,-50.293,-17.090,-26.855,-42.480,-115.723
1687530912.092,-66.895,-23.438,-29.785,-40.039,12.207
1687530912.093,-71.289,-25.391,-33.203,-36.621,6.836
1687530912.097,-66.895,-25.879,-34.668,-46.387,-155.762
1687530912.101,-70.801,-24.902,-37.598,-57.129,-146.973
1687530912.105,-65.918,-21.484,-39.062,-59.082,-139.160
1687530912.109,-56.152,-21.973,-36.133,-51.758,-128.906
1687530912.113,-61.035,-24.902,-35.645,-45.410,26.855
1687530912.117,-62.988,-22.461,-31.250,-46.875,111.816
1687530912.120,-50.293,-20.020,-23.438,-41.016,293.945
1687530912.124,-41.504,-20.020,-23.438,-40.039,129.395
1687530912.128,-41.016,-19.043,-27.832,-43.457,-205.566
1687530912.132,-52.734,-22.461,-27.344,-29.785,-140.137
1687530912.136,-59.082,-27.344,-27.832,-30.762,-89.844
1687530912.138,-54.688,-28.320,-34.180,-41.992,-166.992
1687530912.142,-51.270,-22.949,-34.180,-50.293,-218.262
1687530912.146,-50.781,-22.949,-28.320,-53.711,-164.062
1687530912.150,-55.664,-27.832,-28.320,-41.016,-57.129
1687530912.154,-62.500,-25.391,-25.879,-35.156,-36.133
1687530912.158,-63.477,-22.461,-20.996,-37.598,-64.453
1687530912.162,-55.664,-26.367,-21.973,-36.621,167.969
1687530912.165,-56.152,-31.738,-30.273,-42.480,218.750
1687530912.169,-56.152,-30.273,-33.203,-35.156,-67.871
1687530912.173,-53.711,-27.344,-32.227,-32.715,-6.836
1687530912.177,-59.570,-24.902,-36.621,-41.016,288.574
1687530912.181,-52.734,-22.461,-29.297,-44.434,211.426
1687530912.183,-43.945,-20.020,-26.367,-52.246,-101.074
1687530912.187,-46.875,-20.996,-33.203,-41.016,-78.125
1687530912.191,-53.223,-19.043,-30.762,-43.457,-59.082
1687530912.195,-46.875,-16.113,-25.879,-53.223,-115.234
1687530912.199,-38.086,-20.508,-23.926,-49.805,-117.188
1687530912.203,-36.621,-24.414,-27.832,-40.039,-23.926
1687530912.207,-44.434,-25.391,-28.809,-24.414,144.531
1687530912.210,-55.176,-23.438,-30.762,-30.762,-16.113
1687530912.214,-47.363,-21.484,-31.738,-42.969,-208.496
1687530912.218,-41.992,-26.367,-31.738,-46.387,-101.074
1687530912.222,-45.410,-28.809,-34.668,-51.270,-41.504
1687530912.226,-47.363,-30.273,-32.715,-41.992,-106.445
1687530912.230,-53.223,-26.855,-30.273,-33.203,-140.625
1687530912.234,-59.570,-24.902,-27.344,-35.156,-41.504
1687530912.238,-53.711,-26.855,-22.461,-31.738,-69.336
1687530912.242,-38.574,-24.902,-22.949,-35.645,-184.082
1687530912.246,-40.527,-29.785,-23.438,-37.109,-162.598
1687530912.250,-43.945,-29.785,-24.414,-22.949,18.555
1687530912.254,-43.457,-24.902,-22.949,-26.855,62.988
1687530912.257,-39.551,-22.461,-20.020,-42.480,-116.699
1687530912.261,-37.109,-22.461,-25.391,-38.086,-153.320
1687530912.265,-43.457,-28.320,-27.344,-22.949,167.480
1687530912.269,-55.176,-30.273,-26.367,-16.602,364.746
1687530912.273,-58.594,-29.785,-31.738,-31.738,-20.020
1687530912.290,-47.363,-33.203,-36.133,-56.641,-138.184
1687530912.294,-43.945,-29.297,-31.738,-62.500,-42.969
1687530912.298,-41.016,-22.949,-30.273,-49.316,-35.645
1687530912.302,-43.457,-25.879,-34.180,-42.480,-150.879
1687530912.306,-52.246,-25.391,-33.203,-40.527,-36.133
1687530912.310,-54.688,-21.973,-31.250,-44.922,147.461
1687530912.314,-50.293,-18.555,-26.855,-55.664,60.547
1687530912.317,-44.922,-19.531,-27.344,-44.922,-71.777
1687530912.321,-51.270,-20.996,-30.762,-44.922,-54.199
1687530912.325,-56.152,-18.555,-28.320,-52.734,111.328
1687530912.329,-43.457,-17.090,-23.438,-52.246,-86.914
1687530912.333,-35.645,-16.113,-21.973,-56.152,-227.051
1687530912.339,-41.992,-21.484,-26.367,-46.387,-122.559
1687530912.343,-51.758,-27.344,-26.855,-39.062,-33.691
1687530912.347,-58.105,-26.367,-24.414,-42.969,-59.082
1687530912.351,-53.223,-25.391,-20.508,-41.992,-103.027
1687530912.355,-52.246,-29.297,-20.020,-51.270,-28.320
1687530912.359,-45.898,-28.320,-17.578,-53.223,52.734
1687530912.363,-41.504,-24.414,-19.043,-30.273,54.688
1687530912.366,-55.664,-26.367,-21.973,-35.645,-127.930
1687530912.370,-60.059,-29.297,-24.414,-53.223,16.602
1687530912.374,-50.293,-27.832,-27.832,-52.246,231.445
1687530912.378,-41.992,-23.926,-26.367,-38.574,-80.078
1687530912.382,-41.504,-20.996,-26.367,-29.297,-144.531
1687530912.379,-50.293,-24.414,-28.320,-41.016,30.273
1687530912.383,-53.711,-23.926,-27.832,-50.293,-31.250
1687530912.387,-46.875,-19.043,-27.344,-61.523,-176.270
1687530912.391,-43.457,-19.043,-25.391,-57.129,-126.465
1687530912.395,-45.410,-18.555,-26.855,-44.434,-42.480
1687530912.399,-52.734,-23.926,-31.250,-44.434,-72.754
1687530912.403,-58.105,-26.855,-30.762,-48.828,-27.832
1687530912.406,-47.363,-24.414,-33.691,-50.293,33.691
1687530912.410,-41.504,-23.926,-33.691,-45.898,286.133
1687530912.414,-44.922,-25.879,-29.297,-45.410,166.016
1687530912.418,-48.828,-26.855,-31.250,-54.688,-174.805
1687530912.422,-59.082,-28.320,-34.180,-63.965,-60.059
1687530912.424,-50.781,-32.715,-33.691,-67.871,8.789
1687530912.428,-44.434,-31.738,-27.344,-64.941,-107.422
1687530912.432,-57.617,-30.762,-30.273,-55.176,-141.602
1687530912.436,-69.336,-34.180,-33.691,-46.875,-142.578
1687530912.440,-65.430,-33.203,-27.344,-43.457,-86.914
1687530912.444,-55.176,-30.273,-26.367,-43.457,1.465
1687530912.448,-54.199,-29.785,-32.715,-48.340,4.883
1687530912.451,-48.340,-32.715,-36.621,-35.156,138.672
1687530912.455,-49.805,-35.645,-33.203,-23.926,295.410
1687530912.459,-57.129,-32.715,-34.668,-38.086,108.887
1687530912.463,-48.340,-32.715,-36.621,-42.480,-149.902
1687530912.467,-34.180,-32.227,-29.785,-41.992,46.387
1687530912.469,-32.227,-27.344,-29.297,-50.293,153.320
1687530912.473,-46.387,-25.391,-30.273,-46.387,-133.789
1687530912.477,-63.477,-31.250,-28.809,-46.387,-86.426
1687530912.481,-62.500,-33.691,-32.715,-54.199,-43.457
1687530912.485,-55.664,-28.320,-30.762,-58.105,-187.500
1687530912.489,-52.734,-28.320,-25.879,-48.828,-127.441
1687530912.493,-61.523,-31.738,-29.297,-39.062,54.199
1687530912.496,-70.801,-29.785,-30.273,-36.621,227.051
1687530912.500,-59.570,-25.391,-25.391,-44.434,16.113
1687530912.504,-51.758,-29.297,-27.832,-46.875,-193.359
1687530912.508,-42.969,-33.691,-30.762,-44.922,4.883
1687530912.512,-41.992,-28.320,-30.762,-48.340,51.758
1687530912.514,-53.711,-24.902,-32.227,-41.016,-84.961
1687530912.518,-55.176,-29.785,-33.203,-39.062,-113.281
1687530912.522,-46.387,-29.785,-33.203,-37.598,-9.766
1687530912.526,-41.016,-28.809,-31.250,-32.227,16.602
1687530912.530,-48.828,-33.203,-33.203,-43.457,-120.117
1687530912.534,-60.547,-36.133,-30.762,-44.922,-24.902
1687530912.538,-58.105,-34.668,-29.297,-42.480,236.328
1687530912.541,-49.805,-30.762,-36.621,-57.129,227.539
1687530912.545,-47.852,-29.297,-38.086,-67.871,-97.656
1687530912.549,-54.688,-30.273,-38.574,-69.824,-134.277
1687530912.553,-62.500,-29.297,-36.621,-66.406,72.754
1687530912.557,-62.500,-28.320,-33.203,-72.754,-0.488
1687530912.560,-60.547,-31.738,-34.668,-73.730,-172.363
1687530912.564,-56.152,-31.738,-32.227,-65.430,-33.691
1687530912.568,-50.781,-27.344,-31.738,-59.570,98.633
1687530912.572,-61.523,-30.273,-32.227,-44.434,-7.812
1687530912.576,-57.617,-31.250,-32.227,-43.457,-90.332
1687530912.580,-45.898,-28.809,-33.203,-51.758,6.348
1687530912.584,-46.875,-30.273,-31.738,-52.734,166.504
1687530912.587,-43.457,-28.809,-35.156,-45.898,40.527
1687530912.591,-48.828,-28.320,-37.109,-44.434,-125.000
1687530912.595,-53.223,-32.227,-33.691,-48.340,-32.227
1687530912.599,-41.504,-29.785,-29.785,-52.734,17.578
1687530912.603,-36.621,-23.438,-28.320,-58.594,-112.305
1687530912.618,-40.527,-21.484,-28.320,-59.082,-124.512
1687530912.622,-48.828,-20.020,-29.297,-53.223,-39.062
1687530912.626,-51.758,-22.949,-35.156,-55.176,-51.270
1687530912.630,-25.391,-15.137,-41.016,-45.410,-96.191
1687530912.634,-3.418,-18.555,-27.832,-21.484,-68.359
1687530912.638,-19.043,-37.598,-14.160,-15.625,170.898
1687530912.642,-39.551,-43.945,-15.137,-27.832,303.711
1687530912.645,-44.434,-45.898,-7.324,-40.527,21.484
1687530912.649,-47.363,-45.410,3.906,-39.551,-114.258
1687530912.653,-57.617,-53.223,12.207,-42.969,123.535
1687530912.657,-60.059,-63.477,17.090,-43.945,155.762
1687530912.661,-63.477,-66.406,20.508,-42.480,-129.395
1687530912.664,-70.312,-68.359,22.461,-33.691,-82.031
1687530912.668,-67.383,-67.871,30.273,-33.203,-43.945
1687530912.672,-63.477,-72.754,35.156,-48.828,-86.914
1687530912.676,-53.223,-81.055,36.621,-53.711,-144.043
1687530912.680,-62.012,-83.984,43.945,-43.457,-110.352
1687530912.684,-85.449,-91.309,51.758,-35.156,-70.312
1687530912.688,-91.797,-95.215,52.246,-41.504,-59.570
1687530912.691,-82.031,-93.262,55.664,-49.316,-76.660
1687530912.695,-71.289,-96.191,59.082,-40.527,-57.129
1687530912.699,-71.777,-97.656,58.105,-17.090,291.504
1687530912.703,-74.707,-95.215,57.617,-11.719,137.695
1687530912.707,-66.895,-91.797,58.105,-22.949,-151.855
1687530912.708,-60.059,-91.797,60.547,-22.461,-102.539
1687530912.712,-61.523,-95.703,55.176,-22.461,-122.559
1687530912.716,-57.617,-88.379,54.688,-13.672,-93.262
1687530912.720,-62.500,-82.031,60.547,-8.301,-101.562
1687530912.724,-66.406,-82.520,56.152,-29.297,-67.383
1687530912.728,-54.688,-83.008,54.199,-33.203,45.898
1687530912.732,-40.039,-81.543,59.082,-19.531,33.691
1687530912.735,-42.480,-80.078,53.223,-10.742,-48.828
1687530912.739,-36.621,-77.148,46.387,4.883,160.645
1687530912.743,-33.203,-77.148,47.363,-2.930,466.309
1687530912.747,-26.855,-74.707,42.969,-17.578,123.535
1687530912.751,-13.672,-74.219,40.039,-21.973,-143.555
1687530912.801,-24.414,-74.707,35.156,-21.484,-48.340
1687530912.805,-37.109,-67.383,37.598,-4.395,-87.402
1687530912.809,-40.039,-65.430,39.551,0.000,-121.582
1687530912.813,-42.480,-67.871,29.297,-11.719,-127.930
1687530912.817,-37.598,-63.965,24.414,-15.625,-102.539
1687530912.821,-39.062,-55.176,15.137,-18.066,-35.645
1687530912.825,-44.434,-51.758,4.883,-17.090,-43.945
1687530912.828,-36.133,-51.270,3.418,-15.137,17.578
1687530912.832,-30.762,-50.293,5.859,-19.043,155.273
1687530912.836,-24.414,-49.316,5.859,-17.090,-0.488
1687530912.840,-18.555,-46.875,5.371,-6.836,-103.027
1687530912.844,-35.645,-44.922,8.789,-6.836,74.219
1687530912.803,-49.805,-41.504,17.090,-15.625,29.785
1687530912.807,-37.109,-45.898,17.090,-12.207,-142.090
1687530912.811,-24.414,-57.617,18.555,-12.207,-135.254
1687530912.815,-34.668,-61.035,18.555,-20.996,-124.512
1687530912.819,-40.039,-57.617,23.438,-10.254,-67.871
1687530912.823,-42.969,-58.105,22.461,-14.648,-3.906
1687530912.827,-35.645,-54.199,10.742,-31.738,-43.945
1687530912.830,-30.273,-48.340,5.859,-40.039,114.746
1687530912.834,-30.762,-49.316,0.977,-40.527,185.059
1687530912.838,-31.738,-45.410,4.395,-40.527,-16.602
1687530912.842,-42.480,-42.480,2.930,-49.316,-28.809
1687530912.846,-38.086,-45.898,-10.254,-52.246,26.367
1687530912.844,-32.227,-46.387,-14.648,-51.758,8.301
1687530912.848,-31.250,-45.410,-8.789,-55.176,-93.750
1687530912.852,-33.691,-44.922,-10.742,-41.016,-59.082
1687530912.856,-44.434,-43.945,-19.043,-40.039,2.930
1687530912.860,-45.410,-42.480,-14.648,-60.547,-81.055
1687530912.864,-29.785,-40.527,-5.859,-72.266,-74.707
1687530912.868,-23.926,-40.039,-8.301,-73.242,-3.906
1687530912.871,-32.715,-37.598,-9.277,-47.363,228.027
1687530912.875,-42.969,-36.621,-6.836,-39.062,78.613
1687530912.879,-38.574,-34.180,-0.488,-54.199,-192.383
1687530912.883,-32.227,-29.297,-0.488,-61.523,-123.535
1687530912.887,-24.902,-33.203,-7.324,-56.152,-125.488
1687530912.889,-20.996,-33.203,-8.301,-47.852,-139.648
1687530912.893,-36.133,-29.297,-10.742,-59.082,-101.562
1687530912.897,-34.180,-31.738,-16.113,-63.965,-73.242
1687530912.901,-23.438,-33.203,-17.090,-60.547,21.484
1687530912.905,-20.020,-33.691,-19.531,-75.195,-1.953
1687530912.909,-24.414,-35.645,-19.531,-79.102,39.551
1687530912.913,-39.551,-39.551,-20.996,-70.801,262.695
1687530912.916,-41.992,-40.527,-22.461,-60.547,286.621
1687530912.920,-31.738,-36.133,-20.020,-64.941,-38.574
1687530912.924,-21.973,-35.645,-21.484,-70.801,-160.156
1687530912.928,-20.508,-37.598,-18.066,-52.246,6.836
1687530912.932,-26.855,-39.551,-13.672,-65.430,25.879
1687530912.933,-21.973,-36.133,-12.695,-76.660,-107.910
1687530912.937,-17.090,-32.227,-11.230,-66.406,-156.250
1687530912.941,-19.043,-32.227,-11.230,-57.129,-154.785
1687530912.945,-14.648,-30.762,-8.789,-47.363,-108.398
1687530912.949,-16.113,-28.809,-13.184,-50.781,-123.535
1687530912.953,-20.996,-27.344,-11.719,-51.270,-2.930
1687530912.957,-20.508,-28.320,-6.836,-50.293,191.406
1687530912.960,-15.137,-26.855,-15.625,-63.965,47.852
1687530912.964,-9.277,-25.879,-16.113,-62.500,-117.676
1687530912.968,-23.926,-26.367,-14.160,-50.293,-48.828
1687530912.972,-32.715,-25.391,-15.625,-43.945,87.402
1687530912.976,-23.926,-24.902,-15.137,-52.734,-55.176
1687530912.994,-16.113,-26.855,-20.508,-57.129,-181.641
1687530912.998,-19.043,-31.738,-23.438,-43.457,-46.387
1687530913.002,-32.715,-32.227,-24.414,-41.504,23.926
1687530913.006,-40.527,-26.855,-25.879,-60.059,-111.816
1687530913.010,-34.668,-25.391,-23.438,-62.988,-190.918
1687530913.014,-23.438,-22.461,-16.113,-52.734,-6.348
1687530913.018,-22.461,-20.996,-16.113,-45.898,147.461
1687530913.021,-35.156,-23.438,-20.996,-37.109,32.227
1687530913.025,-46.387,-25.879,-17.578,-27.832,-33.203
1687530913.029,-40.039,-21.973,-12.695,-29.785,202.148
1687530913.033,-31.250,-18.555,-9.277,-39.551,434.570
1687530913.037,-25.391,-25.391,-14.648,-37.109,71.777
1687530913.039,-30.762,-34.668,-16.113,-31.738,-120.605
1687530913.043,-40.527,-36.133,-17.578,-26.367,-40.527
1687530913.047,-32.715,-29.297,-18.066,-25.879,-127.441
1687530913.051,-24.414,-28.809,-18.555,-40.527,-171.875
1687530913.055,-26.855,-31.250,-20.996,-37.598,-84.961
1687530913.059,-24.414,-29.297,-19.531,-23.926,-48.340
1687530913.063,-29.785,-30.273,-22.461,-26.855,-27.832
1687530913.066,-40.039,-28.809,-25.879,-33.691,-93.750
1687530913.070,-39.062,-26.367,-25.879,-35.645,-93.262
1687530913.074,-29.785,-29.785,-22.461,-28.809,161.133
1687530913.078,-29.785,-28.320,-20.508,-10.742,114.746
1687530913.082,-38.086,-23.926,-21.973,-16.602,-69.824
1687530913.083,-36.621,-26.367,-17.090,-30.273,-1.465
1687530913.087,-41.016,-27.832,-18.555,-34.180,-13.184
1687530913.091,-43.457,-26.367,-21.973,-36.133,-135.254
1687530913.095,-41.992,-31.250,-21.973,-28.320,-119.141
1687530913.099,-53.223,-36.133,-30.273,-27.832,-90.332
1687530913.103,-60.059,-38.574,-34.180,-30.273,-72.754
1687530913.107,-51.758,-36.133,-34.180,-40.039,-9.277
1687530913.110,-41.992,-29.785,-29.785,-41.504,-105.469
1687530913.114,-38.574,-27.832,-26.855,-33.203,76.660
1687530913.118,-50.781,-32.715,-33.691,-24.902,232.910
1687530913.122,-39.062,-40.039,-25.879,-10.254,-92.773
1687530913.126,-0.977,-28.320,-21.973,5.859,-219.727
1687530913.128,-0.488,-10.742,-30.273,-1.953,29.297
1687530913.132,-22.461,-11.719,-38.086,-25.879,90.820
1687530913.136,-31.250,-10.742,-45.898,-34.668,-137.207
1687530913.140,-41.504,-7.812,-50.781,-32.227,-43.945
1687530913.144,-40.527,-2.441,-64.941,-45.410,-25.391
1687530913.148,-35.156,8.789,-73.730,-54.688,-57.129
1687530913.152,-37.109,14.160,-74.219,-63.965,-103.027
1687530913.155,-46.875,13.184,-77.637,-67.383,-67.383
1687530913.159,-45.410,16.602,-87.891,-65.918,203.125
1687530913.163,-41.504,23.926,-93.750,-88.867,84.961
1687530913.167,-44.922,26.367,-100.098,-96.191,-127.930
1687530913.171,-46.387,30.762,-107.910,-95.215,-45.410
1687530913.173,-56.152,38.574,-111.328,-99.609,7.812
1687530913.177,-58.594,39.551,-121.582,-95.703,-117.188
1687530913.181,-50.781,44.922,-124.512,-98.633,-151.367
1687530913.185,-48.828,47.852,-127.930,-104.980,-20.508
1687530913.189,-52.246,47.852,-136.230,-120.117,-44.922
1687530913.193,-57.617,49.316,-141.602,-122.559,-31.738
1687530913.197,-72.266,45.898,-142.090,-108.887,17.090
1687530913.200,-74.707,41.504,-142.090,-114.746,146.484
1687530913.204,-62.500,40.527,-143.555,-125.977,150.391
1687530913.208,-55.176,34.668,-136.719,-122.559,-39.062
1687530913.212,-55.176,31.250,-136.230,-114.258,-25.879
1687530913.216,-60.059,30.762,-138.672,-102.051,42.969
1687530913.218,-56.152,28.809,-133.301,-97.168,-64.453
1687530913.222,-43.945,22.949,-122.070,-102.051,-199.707
1687530913.226,-37.598,16.602,-120.605,-99.609,-67.871
1687530913.230,-28.809,17.578,-113.770,-83.984,-47.363
1687530913.234,-27.832,21.484,-99.121,-84.961,-93.750
1687530913.238,-33.691,19.531,-97.168,-82.031,-47.852
1687530913.242,-30.273,14.648,-97.168,-72.266,30.762
1687530913.245,-23.926,15.137,-93.262,-67.871,268.555
1687530913.249,-31.250,9.766,-94.238,-62.988,140.625
1687530913.253,-38.574,6.348,-90.332,-56.152,-169.922
1687530913.257,-37.109,10.742,-83.008,-57.129,-71.289
1687530913.261,-35.156,7.324,-79.590,-66.406,-68.359
1687530913.264,-27.344,5.859,-74.219,-70.801,-231.445
1687530913.268,-26.367,0.488,-69.336,-60.547,-189.941
1687530913.272,-33.203,-3.418,-70.312,-51.270,-24.414
1687530913.276,-43.945,-4.883,-73.730,-56.641,-8.301
1687530913.280,-44.434,-9.766,-68.848,-63.965,-98.633
1687530913.284,-35.156,-11.719,-64.453,-63.965,-91.309
1687530913.288,-36.621,-16.602,-68.359,-56.152,186.523
1687530913.291,-36.133,-16.602,-62.988,-47.363,322.754
1687530913.295,-34.668,-10.742,-57.129,-41.016,16.602
1687530913.299,-29.785,-8.301,-57.129,-58.594,-70.312
1687530913.303,-20.020,-10.742,-54.199,-56.641,236.328
1687530913.307,-18.555,-14.648,-55.176,-38.086,200.195
1687530913.308,-21.973,-11.719,-54.199,-43.457,-106.934
1687530913.312,-34.180,-10.742,-54.199,-45.898,-118.164
1687530913.316,-34.180,-15.137,-53.711,-50.781,-145.996
1687530913.320,-19.043,-16.602,-46.387,-56.641,-170.898
1687530913.324,-20.996,-16.113,-44.434,-45.898,-164.062
1687530913.328,-38.086,-18.066,-47.363,-28.809,7.812
1687530913.332,-45.898,-18.066,-42.969,-27.832,155.762
1687530913.335,-36.621,-15.137,-43.457,-39.551,-7.812
1687530913.339,-28.320,-17.578,-47.363,-45.410,-190.918
1687530913.343,-25.391,-19.043,-44.922,-40.527,53.711
1687530913.347,-30.273,-15.625,-41.016,-33.203,321.289
1687530913.351,-36.133,-15.137,-41.016,-33.691,38.574
1687530913.368,-38.086,-23.926,-41.992,-46.387,-136.719
1687530913.372,-32.227,-24.902,-37.598,-55.176,-97.656
1687530913.376,-27.832,-18.066,-36.133,-44.434,-39.551
1687530913.380,-30.273,-18.555,-41.016,-29.297,-88.867
1687530913.384,-44.434,-22.949,-42.969,-33.691,-66.406
1687530913.388,-56.152,-24.902,-43.457,-55.176,26.367
1687530913.392,-48.828,-26.367,-42.969,-58.594,61.035
1687530913.395,-38.086,-34.180,-39.062,-43.457,-28.809
1687530913.399,-36.133,-33.203,-39.062,-43.457,-102.539
1687530913.403,-46.875,-31.738,-42.480,-53.711,184.082
1687530913.407,-47.852,-29.785,-37.598,-51.270,279.297
1687530913.411,-33.691,-22.949,-28.320,-59.082,-69.824
1687530913.413,-20.508,-24.414,-31.738,-68.848,-59.570
1687530913.417,-9.766,-24.414,-34.180,-51.270,26.855
1687530913.421,-21.484,-20.996,-36.621,-64.453,-40.039
1687530913.425,-23.438,-21.484,-39.551,-84.961,-150.391
1687530913.429,-11.230,-20.508,-35.645,-74.707,-115.234
1687530913.433,-5.371,-15.137,-26.855,-52.734,25.879
1687530913.437,-12.695,-22.461,-29.297,-36.621,38.574
1687530913.440,-30.273,-29.785,-34.668,-37.109,-65.918
1687530913.444,-37.109,-28.809,-33.203,-42.480,-87.891
1687530913.448,-31.738,-28.320,-32.715,-48.340,126.953
1687530913.452,-18.066,-25.879,-26.855,-43.945,-37.598
1687530913.456,-16.113,-25.391,-25.391,-47.852,-142.090
1687530913.459,-30.762,-22.949,-27.832,-51.758,-35.645
1687530913.463,-39.551,-23.926,-29.297,-43.457,-98.145
1687530913.467,-36.621,-28.809,-33.203,-52.246,-170.410
1687530913.471,-29.785,-24.902,-33.203,-51.758,-129.395
1687530913.475,-23.438,-21.973,-35.645,-30.273,-28.320
1687530913.479,-36.133,-24.414,-33.691,-16.113,63.477
1687530913.483,-44.922,-24.902,-27.344,-21.484,54.688
1687530913.486,-37.109,-24.414,-29.785,-41.992,-104.492
1687530913.490,-26.855,-22.949,-27.832,-38.086,18.066
1687530913.494,-26.367,-20.508,-23.438,-34.180,225.098
1687530913.498,-37.109,-21.484,-27.344,-40.527,-14.648
1687530913.502,-38.574,-20.996,-28.320,-38.086,-144.531
1687530913.511,-30.762,-17.578,-24.414,-40.527,2.441
1687530913.515,-33.691,-22.461,-27.832,-49.805,-48.828
1687530913.519,-29.785,-26.855,-31.250,-41.992,-178.711
1687530913.523,-26.367,-21.973,-32.227,-32.227,-99.609
1687530913.527,-32.715,-22.949,-30.762,-32.227,-20.508
1687530913.531,-27.832,-27.344,-26.367,-21.484,-56.152
1687530913.535,-20.020,-27.344,-26.855,-32.715,-15.625
1687530913.538,-17.090,-22.949,-24.902,-39.551,89.844
1687530913.542,-26.367,-23.438,-26.855,-25.879,327.637
1687530913.546,-37.109,-25.391,-31.738,-28.809,203.125
1687530913.550,-36.621,-26.855,-31.250,-37.598,-137.207
1687530913.554,-30.273,-27.832,-31.250,-45.898,-80.078
1687530913.549,-31.738,-26.855,-31.250,-47.852,-108.398
1687530913.553,-33.691,-23.926,-31.738,-45.410,-116.211
1687530913.557,-40.039,-20.996,-33.691,-42.969,-78.125
1687530913.561,-40.039,-22.461,-31.738,-39.062,-70.801
1687530913.565,-18.555,-20.508,-32.715,-32.715,-82.031
1687530913.569,-20.020,-21.484,-35.645,-35.156,-111.328
1687530913.573,-31.738,-24.902,-34.668,-41.992,-76.660
1687530913.576,-38.086,-21.973,-30.762,-30.273,166.016
1687530913.580,-41.504,-19.531,-32.227,-25.391,272.461
1687530913.584,-27.344,-18.066,-34.180,-40.527,-10.254
1687530913.588,-17.578,-16.602,-30.762,-40.039,-107.422
1687530913.592,-19.043,-20.508,-31.250,-24.902,5.859
1687530913.593,-23.926,-22.949,-28.809,-14.648,48.828
1687530913.597,-29.297,-27.344,-29.297,-27.344,-83.496
1687530913.601,-29.785,-28.809,-34.180,-45.410,-132.812
1687530913.605,-20.020,-24.414,-33.203,-39.062,-73.730
1687530913.609,-10.254,-23.438,-32.227,-24.902,-14.160
1687530913.613,-17.090,-28.320,-33.691,-26.367,-18.066
1687530913.617,-31.250,-24.414,-33.691,-33.203,52.246
1687530913.620,-29.785,-25.879,-30.762,-36.621,144.043
1687530913.624,-20.020,-29.297,-28.809,-33.203,-44.434
1687530913.628,-17.578,-22.461,-28.320,-29.785,-156.738
1687530913.632,-27.832,-22.461,-24.414,-24.414,17.090
1687530913.636,-26.367,-20.020,-23.438,-20.508,26.855
1687530913.638,-16.602,-19.043,-27.832,-25.391,-179.688
1687530913.642,-3.906,-22.461,-27.344,-18.066,-181.152
1687530913.646,4.395,-20.996,-24.902,-6.348,-56.152
1687530913.650,-20.508,-20.508,-31.250,-29.297,-80.566
1687530913.654,-38.086,-28.320,-30.762,-41.504,-114.258
1687530913.658,-32.227,-28.320,-25.391,-40.527,-113.281
1687530913.662,-36.133,-24.414,-27.344,-45.898,125.488
1687530913.665,-37.109,-22.461,-27.832,-34.180,254.395
1687530913.669,-44.434,-24.902,-32.227,-35.156,-52.246
1687530913.673,-49.805,-30.762,-34.180,-45.410,-76.660
1687530913.677,-37.109,-27.344,-31.738,-45.410,24.414
1687530913.681,-27.344,-25.391,-34.668,-48.340,-50.293
1687530913.685,-20.996,-22.461,-33.203,-43.945,-134.277
1687530913.689,-25.391,-22.461,-28.809,-25.391,-88.379
1687530913.693,-39.062,-23.438,-29.297,-21.973,-12.695
1687530913.697,-34.180,-20.020,-31.738,-35.645,-48.828
1687530913.701,-19.531,-24.414,-32.227,-37.109,-130.859
1687530913.705,-20.020,-23.926,-31.250,-28.809,26.855
1687530913.709,-41.504,-29.297,-34.180,-20.508,234.375
1687530913.712,-53.711,-33.691,-32.715,-30.273,49.805
1687530913.716,-49.316,-30.762,-28.320,-47.363,-136.230
1687530913.720,-41.504,-25.391,-24.902,-42.969,-76.660
1687530913.724,-35.156,-24.414,-23.438,-45.898,-49.316
1687530913.728,-36.133,-26.855,-20.996,-49.805,-128.906
1687530913.730,-44.434,-28.809,-24.414,-43.457,-111.328
1687530913.734,-41.016,-30.273,-29.785,-37.598,-48.340
1687530913.738,-30.273,-28.320,-28.809,-49.316,-97.168
1687530913.742,-28.809,-30.762,-33.203,-61.035,-133.789
1687530913.746,-34.180,-34.180,-39.551,-48.340,-114.258
1687530913.750,-48.340,-32.227,-39.062,-46.875,145.508
1687530913.754,-44.434,-29.785,-35.645,-56.641,239.746
1687530913.757,-35.645,-28.809,-34.180,-52.734,-81.543
1687530913.761,-31.738,-29.785,-33.691,-42.969,-200.684
1687530913.765,-29.297,-32.715,-35.156,-40.527,46.875
1687530913.769,-49.805,-41.504,-35.645,-25.391,175.293
1687530913.773,-48.340,-42.969,-35.645,-33.203,-101.562
1687530913.788,-30.273,-35.645,-33.203,-53.711,-186.523
1687530913.792,-23.438,-29.297,-32.227,-52.734,-113.281
1687530913.796,-30.762,-32.715,-34.180,-49.316,-78.613
1687530913.800,-43.457,-37.598,-32.227,-39.062,-104.492
1687530913.804,-46.875,-35.156,-30.762,-35.645,-2.930
1687530913.808,-59.570,-37.109,-37.109,-42.480,195.801
1687530913.812,-55.664,-33.203,-40.039,-50.293,104.980
1687530913.815,-41.016,-31.738,-36.133,-52.734,-94.238
1687530913.819,-43.945,-31.738,-37.109,-47.852,16.602
1687530913.823,-46.875,-26.367,-37.598,-50.293,135.254
1687530913.827,-40.527,-27.832,-33.203,-49.805,-58.105
1687530913.831,-31.738,-30.273,-34.180,-54.199,-177.734
1687530913.833,-29.297,-32.715,-35.645,-54.688,-92.773
1687530913.837,-35.645,-36.133,-35.156,-41.992,-80.566
1687530913.841,-41.504,-38.086,-37.598,-49.805,-144.531
1687530913.845,-40.527,-39.551,-42.480,-63.477,-215.332
1687530913.849,-41.992,-41.504,-45.898,-59.082,-126.953
1687530913.853,-41.504,-41.504,-40.039,-49.805,-14.160
1687530913.857,-46.875,-35.156,-38.574,-45.410,-33.203
1687530913.860,-54.199,-34.668,-39.551,-45.410,-73.730
1687530913.864,-43.945,-37.598,-39.062,-56.152,80.078
1687530913.868,-33.691,-32.715,-39.062,-52.246,321.289
1687530913.872,-27.832,-28.320,-34.180,-41.992,87.891
1687530913.876,-25.391,-25.391,-32.715,-29.297,-73.242
1687530913.879,-36.133,-22.461,-33.691,-29.297,-17.578
1687530913.883,-31.250,-20.508,-30.762,-40.527,-31.250
1687530913.887,-18.555,-19.531,-32.227,-35.645,-116.699
1687530913.891,-20.020,-25.391,-34.668,-44.434,-89.355
1687530913.895,-21.484,-24.414,-33.691,-41.504,-21.973
1687530913.899,-30.273,-18.555,-29.785,-31.250,11.719
1687530913.903,-32.715,-26.367,-32.715,-41.992,40.039
1687530913.906,-20.996,-23.926,-34.180,-48.340,11.719
1687530913.910,-21.973,-24.414,-29.785,-38.086,215.820
1687530913.914,-32.715,-31.738,-33.691,-39.062,128.418
1687530913.918,-35.156,-29.297,-30.762,-37.109,-104.980
1687530913.922,-35.156,-27.832,-23.926,-25.391,-30.273
1687530913.923,-28.320,-27.344,-26.367,-30.762,20.020
1687530913.927,-26.855,-25.879,-34.180,-49.805,-187.500
1687530913.931,-38.086,-27.832,-39.062,-50.293,-193.359
1687530913.935,-50.781,-30.762,-38.574,-34.180,-64.941
1687530913.939,-50.781,-33.203,-34.180,-39.551,-59.570
1687530913.943,-30.762,-30.762,-28.809,-37.109,-41.504
1687530913.947,-20.020,-26.367,-26.855,-34.180,-45.410
1687530913.950,-24.414,-26.855,-26.855,-26.367,208.984
1687530913.954,-26.367,-24.414,-23.926,-4.395,320.312
1687530913.958,-34.180,-24.902,-28.809,-17.578,28.809
1687530913.962,-35.156,-29.297,-34.668,-36.621,-121.582
1687530913.966,-33.203,-30.762,-38.574,-33.691,139.648
1687530913.968,-35.156,-33.691,-35.645,-35.645,194.336
1687530913.972,-38.574,-36.133,-30.762,-34.668,-62.988
1687530913.976,-44.922,-31.738,-33.203,-40.039,-41.504
1687530913.980,-41.016,-34.668,-32.227,-45.898,-17.578
1687530913.984,-32.227,-37.109,-27.344,-46.387,-81.055
1687530913.988,-37.598,-36.133,-29.785,-41.992,-11.230
1687530913.992,-38.574,-36.621,-27.832,-33.691,92.285
1687530913.995,-39.551,-33.691,-23.926,-29.785,183.594
1687530913.999,-45.898,-39.062,-33.203,-48.340,-20.508
1687530914.003,-29.297,-40.039,-35.156,-57.617,-186.035
1687530914.007,-27.832,-38.086,-33.203,-58.594,-81.055
1687530914.011,-42.969,-40.527,-36.621,-56.152,-45.898
1687530914.015,-45.898,-35.645,-35.645,-43.945,-61.035
1687530914.019,-39.551,-35.156,-38.086,-48.340,-83.496
1687530914.023,-25.391,-33.203,-38.574,-53.223,3.418
1687530914.027,-23.438,-31.250,-38.574,-46.387,-51.758
1687530914.031,-34.180,-32.227,-40.039,-41.016,-111.816
1687530914.035,-36.133,-34.668,-41.016,-41.016,-83.984
1687530914.039,-30.273,-34.180,-41.504,-39.551,90.332
1687530914.042,-26.855,-30.273,-32.227,-30.273,124.023
1687530914.046,-17.578,-30.762,-29.297,-33.691,-198.242
1687530914.050,-27.832,-30.273,-30.273,-30.762,-164.551
1687530914.054,-45.410,-28.809,-31.250,-15.137,50.781
1687530914.058,-37.598,-30.762,-34.668,-27.832,6.836
1687530914.059,-29.297,-30.762,-31.250,-51.270,-113.770
1687530914.063,-25.391,-22.461,-31.250,-48.828,-85.938
1687530914.067,-20.020,-16.602,-27.832,-35.645,-39.062
1687530914.071,-14.160,-13.672,-22.949,-40.039,11.230
1687530914.075,-4.883,-12.207,-23.926,-40.527,-37.598
1687530914.079,3.418,-17.090,-26.855,-44.434,-16.602
1687530914.083,2.441,-22.949,-28.809,-44.922,365.234
1687530914.086,-2.930,-20.508,-27.832,-31.738,300.293
1687530914.090,-18.066,-17.578,-22.949,-26.855,-75.195
1687530914.094,-20.996,-21.484,-20.508,-26.367,-29.297
1687530914.098,-18.555,-24.414,-22.949,-35.645,-60.059
1687530914.102,-26.367,-21.973,-19.043,-27.832,-103.516
1687530914.119,-28.320,-21.973,-21.484,-23.438,-72.266
1687530914.123,-34.668,-28.320,-25.391,-39.551,-4.395
1687530914.127,-44.922,-29.785,-23.438,-41.504,2.441
1687530914.131,-41.016,-28.809,-26.367,-49.805,-104.980
1687530914.135,-26.855,-29.297,-21.973,-45.410,-81.543
1687530914.139,-22.461,-23.926,-22.461,-23.438,25.879
1687530914.143,-30.273,-23.926,-25.391,-18.555,37.598
1687530914.146,-28.809,-26.855,-23.926,-27.344,45.898
1687530914.150,-22.461,-25.391,-26.367,-25.391,-40.527
1687530914.154,-26.367,-23.438,-24.414,-18.066,104.004
1687530914.158,-30.762,-25.391,-23.926,-8.789,418.457
1687530914.162,-33.691,-20.996,-24.414,-13.184,138.672
1687530914.163,-38.086,-17.578,-24.414,-36.133,-134.766
1687530914.167,-30.762,-17.578,-24.902,-45.898,-141.113
1687530914.171,-28.320,-19.043,-27.344,-43.945,-163.086
1687530914.175,-31.250,-23.926,-29.297,-44.922,-172.852
1687530914.179,-30.762,-19.531,-23.926,-38.574,-80.078
1687530914.183,-36.621,-17.090,-20.020,-33.691,2.441
1687530914.187,-27.832,-20.508,-19.043,-39.551,-2.930
1687530914.190,-22.949,-23.926,-19.531,-40.527,-163.086
1687530914.194,-26.855,-23.438,-20.508,-29.297,-24.414
1687530914.198,-32.715,-24.902,-25.879,-23.926,372.559
1687530914.202,-44.922,-26.855,-28.809,-33.691,233.887
1687530914.206,-41.992,-21.484,-26.367,-50.293,-117.676
1687530914.209,-36.133,-20.996,-27.832,-51.758,-181.641
1687530914.213,-33.691,-26.367,-28.809,-41.016,-132.812
1687530914.217,-36.133,-25.391,-28.809,-35.645,-99.121
1687530914.221,-40.527,-24.902,-28.320,-31.250,-128.906
1687530914.225,-32.715,-23.926,-25.879,-38.086,-77.637
1687530914.229,-26.855,-20.020,-25.879,-42.480,-38.574
1687530914.233,-20.996,-26.855,-25.391,-39.551,-52.734
1687530914.236,-30.273,-29.297,-21.973,-23.926,-104.004
1687530914.240,-48.340,-28.809,-20.508,-19.531,104.004
1687530914.244,-47.852,-34.180,-24.414,-37.109,310.059
1687530914.248,-27.344,-29.785,-21.484,-35.156,70.801
1687530914.252,-18.066,-28.809,-20.020,-29.785,-69.824
1687530914.253,-30.273,-30.273,-24.902,-24.902,160.645
1687530914.257,-36.133,-23.926,-27.832,-22.461,182.617
1687530914.261,-20.508,-22.949,-34.180,-25.391,-142.578
1687530914.265,-1.953,-30.273,-24.414,-11.230,-145.996
1687530914.269,-10.254,-35.156,-7.812,-6.836,-69.336
1687530914.273,-27.344,-40.527,-6.836,-20.508,4.395
1687530914.277,-34.668,-48.340,-1.953,-25.879,54.199
1687530914.280,-39.551,-53.223,0.977,-41.504,2.441
1687530914.284,-38.086,-58.594,0.488,-45.410,114.746
1687530914.288,-33.203,-59.570,3.906,-43.945,-17.090
1687530914.292,-36.621,-63.965,5.371,-41.992,-152.344
1687530914.296,-51.270,-72.754,6.348,-36.621,-52.246
1687530914.300,-65.918,-75.195,10.254,-46.875,-115.234
1687530914.304,-52.246,-73.730,16.602,-48.828,-153.809
1687530914.308,-44.434,-75.195,27.832,-48.340,-146.484
1687530914.312,-56.152,-85.449,35.156,-29.785,1.953
1687530914.316,-68.848,-92.773,38.086,-19.531,21.484
1687530914.320,-67.871,-95.703,42.480,-26.855,-16.602
1687530914.324,-62.988,-96.191,47.852,-33.203,-35.645
1687530914.327,-52.246,-96.191,49.805,-32.227,113.281
1687530914.331,-36.621,-95.215,46.875,-24.414,178.223
1687530914.335,-45.898,-88.379,50.293,-15.137,-71.777
1687530914.339,-52.734,-90.820,53.223,-14.648,-90.820
1687530914.343,-48.828,-95.215,55.664,-19.043,24.414
1687530914.343,-50.293,-94.238,52.734,-19.043,-38.086
1687530914.347,-41.016,-95.703,50.293,-17.578,-152.344
1687530914.351,-50.781,-98.145,59.082,-8.789,-67.871
1687530914.355,-62.012,-98.633,59.570,3.906,33.691
1687530914.359,-60.547,-95.703,54.688,-7.324,6.836
1687530914.363,-48.340,-93.262,54.199,-13.672,-71.289
1687530914.367,-36.133,-91.797,59.082,14.648,-35.645
1687530914.370,-48.828,-90.332,62.012,19.043,243.164
1687530914.374,-53.223,-87.402,53.223,2.930,158.203
1687530914.378,-40.039,-87.891,45.410,-6.836,-215.332
1687530914.382,-32.227,-88.867,41.016,-18.555,-106.934
1687530914.386,-29.785,-83.008,35.645,-7.812,-5.371
1687530914.389,-29.785,-79.102,34.180,14.160,-102.539
1687530914.393,-37.109,-77.637,27.832,10.254,-106.934
1687530914.397,-32.715,-74.707,27.344,-0.977,-49.316
1687530914.401,-23.438,-70.801,31.250,4.883,-129.395
1687530914.405,-22.461,-70.801,27.344,1.465,-208.008
1687530914.409,-26.367,-73.242,22.949,-4.395,-177.734
1687530914.413,-30.762,-71.777,10.742,-0.977,120.605
1687530914.416,-35.645,-64.453,9.277,0.000,313.965
1687530914.420,-34.180,-61.035,8.789,-15.137,-103.516
1687530914.424,-28.809,-63.965,5.371,-20.996,-206.055
1687530914.428,-28.320,-60.059,9.277,-12.207,131.836
1687530914.432,-44.922,-59.082,3.906,-13.184,154.785
1687530914.434,-53.223,-61.523,-6.836,-31.250,-125.000
1687530914.438,-34.180,-53.711,-5.371,-23.926,-158.691
1687530914.442,-23.926,-46.387,-0.488,-13.672,-103.516
1687530914.446,-29.297,-50.781,-4.395,-13.184,-143.066
1687530914.450,-42.480,-52.246,-7.812,-0.488,-129.883
1687530914.454,-41.992,-44.434,-2.441,-4.395,47.363
1687530914.458,-21.973,-44.434,-5.371,-15.137,225.098
1687530914.461,-14.160,-46.875,-10.742,-21.484,70.312
1687530914.465,-22.461,-46.875,-14.648,-20.020,-117.188
1687530914.469,-41.992,-50.293,-12.207,-22.949,20.020
1687530914.473,-45.898,-46.875,-13.672,-27.832,104.980
1687530914.477,-34.668,-35.156,-14.648,-29.297,-91.797
1687530914.682,-29.785,-32.715,-17.090,-38.574,-160.156
1687530914.686,-28.809,-35.645,-20.996,-27.344,-126.465
1687530914.690,-34.668,-35.156,-19.531,-18.555,-63.477
1687530914.694,-41.016,-40.039,-20.508,-29.785,-97.656
1687530914.698,-28.320,-41.016,-15.137,-37.598,-182.617
1687530914.702,-11.719,-37.109,-9.277,-19.531,-99.121
1687530914.706,-15.137,-34.180,-12.207,-16.602,16.113
1687530914.709,-31.250,-39.062,-18.555,-30.273,-3.906
1687530914.713,-34.668,-39.062,-14.648,-21.484,-112.305
1687530914.717,-20.996,-37.598,-10.742,-35.645,111.328
1687530914.721,-23.926,-42.969,-16.602,-46.387,317.383
1687530914.725,-34.668,-41.504,-16.113,-31.738,20.996
1687530914.691,-46.875,-47.363,-16.602,-35.156,-40.527
1687530914.695,-54.688,-47.852,-19.043,-38.086,64.453
1687530914.699,-46.387,-42.480,-17.578,-50.781,8.789
1687530914.703,-37.598,-45.410,-18.066,-57.129,-112.305
1687530914.707,-34.180,-44.434,-16.113,-47.852,-70.312
1687530914.711,-29.785,-44.922,-13.672,-49.805,117.676
1687530914.715,-35.645,-44.434,-17.578,-61.523,131.836
1687530914.718,-39.062,-43.945,-21.484,-68.359,-26.367
1687530914.722,-30.273,-38.574,-20.996,-74.707,-76.172
1687530914.726,-30.762,-36.621,-23.926,-74.219,96.191
1687530914.730,-30.273,-39.062,-25.879,-69.824,-32.227
1687530914.734,-38.086,-37.598,-27.832,-69.336,-166.504
1687530914.693,-43.457,-39.551,-29.297,-75.684,-104.980
1687530914.697,-43.457,-43.945,-28.809,-84.961,-143.066
1687530914.701,-39.551,-43.945,-30.273,-84.961,-197.754
1687530914.705,-40.527,-41.504,-27.832,-77.148,-175.293
1687530914.709,-48.340,-39.062,-25.391,-71.289,-43.457
1687530914.713,-40.039,-38.086,-25.879,-69.336,6.348
1687530914.717,-28.809,-38.574,-23.926,-69.336,-23.926
1687530914.720,-30.762,-36.621,-25.391,-65.430,-94.238
1687530914.724,-27.832,-29.297,-26.367,-58.105,61.035
1687530914.728,-31.250,-25.879,-23.438,-48.828,207.031
1687530914.732,-32.227,-26.367,-19.043,-49.805,-60.547
1687530914.736,-29.297,-28.809,-19.531,-64.453,-169.922
1687530914.696,-35.156,-35.645,-25.879,-60.059,-47.852
1687530914.700,-37.598,-41.504,-26.855,-41.504,-51.758
1687530914.704,-47.852,-41.504,-22.949,-35.645,-132.324
1687530914.708,-54.688,-40.527,-24.414,-39.551,-12.695
1687530914.712,-46.875,-37.598,-23.926,-42.480,51.270
1687530914.716,-40.039,-39.062,-25.391,-50.293,22.949
1687530914.720,-40.527,-48.340,-27.832,-41.992,-43.457
1687530914.723,-44.434,-41.992,-23.438,-19.043,-37.109
1687530914.727,-49.316,-35.645,-29.785,-26.855,100.586
1687530914.731,-44.922,-40.039,-34.668,-41.992,-15.625
1687530914.735,-28.809,-36.621,-32.227,-32.227,-145.508
1687530914.739,-27.832,-34.180,-33.691,-15.625,-52.246
1687530914.698,-36.133,-39.551,-37.598,-16.602,-50.781
1687530914.702,-40.527,-37.598,-39.062,-30.273,-132.324
1687530914.706,-37.109,-40.527,-41.016,-37.598,-148.438
1687530914.710,-29.785,-42.480,-40.527,-28.320,-112.305
1687530914.714,-32.715,-39.062,-37.598,-16.113,-76.660
1687530914.718,-37.109,-40.039,-41.016,-8.301,-5.371
1687530914.722,-43.945,-32.227,-43.945,-13.184,41.504
1687530914.725,-42.480,-30.762,-42.480,-27.832,216.797
1687530914.729,-26.855,-31.738,-39.062,-24.414,306.641
1687530914.733,-21.973,-29.785,-39.551,-15.625,61.523
1687530914.737,-27.832,-34.180,-42.969,-13.672,-58.105
1687530914.741,-37.109,-37.109,-41.504,-8.789,68.848
1687530914.719,-34.180,-34.180,-37.598,-13.184,66.406
1687530914.723,-25.391,-32.227,-37.109,-22.949,-127.441
1687530914.727,-26.855,-29.785,-33.203,-17.090,-128.418
1687530914.731,-30.762,-26.855,-35.645,-10.742,-58.105
1687530914.735,-43.457,-29.785,-46.387,-15.625,-53.223
1687530914.739,-45.410,-34.668,-48.828,-32.715,-94.238
1687530914.743,-38.574,-33.203,-47.363,-35.156,-79.102
1687530914.746,-35.156,-33.203,-47.852,-15.625,270.020
1687530914.750,-24.902,-36.621,-46.387,0.000,212.891
1687530914.754,-35.645,-34.180,-42.969,-14.648,-224.121
1687530914.758,-42.480,-33.203,-39.551,-27.832,-147.461
1687530914.762,-27.344,-31.738,-36.133,-22.461,-76.660
1687530914.764,-22.461,-31.738,-41.992,-20.996,-191.406
1687530914.768,-27.832,-36.133,-45.410,-14.160,-173.828
1687530914.772,-49.316,-38.574,-45.410,-20.020,-56.152
1687530914.776,-40.039,-48.828,-35.645,-16.113,-41.016
1687530914.780,0.488,-42.969,-30.273,10.742,-82.031
1687530914.784,4.883,-22.949,-47.852,-0.977,-64.453
1687530914.788,-4.883,-20.020,-58.594,-35.645,234.863
1687530914.791,-15.625,-16.602,-60.059,-35.645,308.594
1687530914.795,-27.344,-11.719,-65.430,-46.875,-95.215
1687530914.799,-27.344,-9.277,-77.148,-57.129,-95.215
1687530914.803,-14.648,-0.977,-92.773,-54.199,153.809
1687530914.807,-14.648,1.465,-99.121,-64.453,123.535
1687530914.808,-30.762,2.930,-100.098,-65.918,-72.266
1687530914.812,-42.969,9.766,-107.422,-67.383,-74.707
1687530914.816,-32.715,17.578,-118.164,-80.566,-100.098
1687530914.820,-31.250,23.438,-128.418,-77.637,-122.070
1687530914.824,-45.898,23.926,-137.695,-70.312,-164.551
1687530914.828,-52.734,28.809,-143.066,-75.684,-70.801
1687530914.832,-60.059,35.156,-143.066,-80.078,224.121
1687530914.835,-55.176,35.156,-148.438,-93.750,62.012
1687530914.839,-44.434,36.133,-158.691,-110.352,-190.918
1687530914.843,-37.109,37.109,-158.203,-104.004,-32.227
1687530914.847,-40.527,38.086,-158.203,-85.938,-41.016
1687530914.851,-41.016,38.574,-163.574,-85.449,-180.664
1687530914.855,-33.203,39.062,-163.086,-101.074,-88.867
1687530914.859,-34.180,36.621,-154.785,-91.797,12.207
1687530914.863,-37.109,28.320,-156.738,-79.590,8.301
1687530914.867,-41.992,23.438,-155.762,-76.172,-76.172
1687530914.871,-44.434,26.367,-146.484,-76.172,-110.352
1687530914.875,-37.109,22.949,-140.137,-83.008,43.945
1687530914.879,-25.879,18.555,-131.348,-76.172,80.566
1687530914.882,-22.949,17.090,-122.070,-67.871,-89.355
1687530914.886,-23.926,9.766,-118.164,-57.617,-105.469
1687530914.890,-28.809,3.906,-116.699,-43.457,168.457
1687530914.894,-33.203,3.418,-109.375,-49.316,274.414
1687530914.898,-23.926,2.930,-110.840,-58.594,-106.445
1687530914.915,-24.902,1.465,-111.816,-49.316,-202.637
1687530914.919,-35.645,-1.953,-109.863,-41.992,-64.453
1687530914.923,-36.133,-4.883,-102.539,-40.039,-39.062
1687530914.927,-27.832,-0.977,-95.703,-51.270,-91.797
1687530914.931,-15.137,2.441,-98.145,-46.875,-111.816
1687530914.935,-9.277,0.000,-92.773,-27.344,142.578
1687530914.939,-9.766,-2.441,-88.867,-29.785,83.984
1687530914.942,-19.043,-7.812,-87.891,-40.039,-159.180
1687530914.946,-24.414,-11.719,-80.566,-35.645,-81.543
1687530914.950,-23.438,-14.648,-73.730,-31.738,26.855
1687530914.954,-21.484,-14.648,-69.824,-38.574,-132.324
1687530914.958,-19.043,-14.648,-70.801,-30.273,-188.477
1687530914.958,-31.250,-19.043,-72.266,-22.461,-27.344
1687530914.962,-32.227,-19.043,-66.895,-21.973,-13.672
1687530914.966,-16.602,-17.090,-63.965,-26.855,-120.605
1687530914.970,-11.719,-19.043,-62.500,-13.184,-166.016
1687530914.974,-14.160,-18.555,-59.570,-9.766,-138.672
1687530914.978,-24.414,-21.973,-61.523,-21.973,-59.082
1687530914.982,-22.461,-22.949,-67.871,-19.043,7.324
1687530914.985,-6.836,-18.555,-65.430,-21.484,-117.676
1687530914.989,-7.324,-16.602,-55.664,-8.301,49.805
1687530914.993,-9.766,-16.113,-50.293,12.695,364.746
1687530914.997,-8.789,-12.695,-51.270,-0.977,68.359
1687530915.001,-11.719,-10.254,-50.781,-10.742,-162.598
1687530915.003,-15.625,-16.113,-49.805,-23.926,-62.500
1687530915.007,-14.648,-15.625,-50.781,-25.391,-83.008
1687530915.011,-12.695,-10.254,-47.852,-23.926,-148.438
1687530915.015,-13.184,-7.812,-44.922,-29.785,-97.656
1687530915.019,-19.043,-11.719,-43.457,-35.645,-86.426
1687530915.023,-14.648,-11.719,-44.434,-34.180,-107.422
1687530915.027,-11.230,-10.742,-43.945,-24.902,-70.801
1687530915.030,-20.020,-16.602,-41.992,-25.879,0.488
1687530915.034,-28.320,-20.508,-42.969,-14.160,266.113
1687530915.038,-29.297,-18.555,-40.039,-11.719,227.539
1687530915.042,-12.695,-17.578,-35.645,-7.812,-130.859
1687530915.046,-4.395,-12.207,-33.691,-19.043,-100.586
1687530915.049,-17.578,-13.184,-39.551,-50.293,-6.348
1687530915.053,-21.973,-18.066,-46.875,-45.410,-61.523
1687530915.057,-33.691,-20.020,-43.457,-36.133,-112.305
1687530915.061,-33.203,-19.043,-39.062,-42.480,-40.039
1687530915.065,-20.996,-19.043,-37.109,-38.086,-16.113
1687530915.069,-19.531,-21.484,-35.645,-33.691,21.973
1687530915.073,-24.902,-21.973,-36.133,-32.715,15.137
1687530915.076,-29.785,-22.949,-35.645,-20.020,117.188
1687530915.080,-25.391,-22.949,-34.668,-12.207,161.621
1687530915.084,-27.344,-29.785,-35.645,-29.297,-66.895
1687530915.088,-28.320,-33.203,-37.598,-44.434,-107.422
1687530915.092,-30.762,-31.250,-31.738,-29.297,139.160
1687530915.093,-40.039,-28.320,-32.227,-22.461,202.637
1687530915.097,-31.738,-24.414,-38.574,-41.016,-156.738
1687530915.101,-13.672,-23.926,-35.645,-47.852,-211.426
1687530915.105,-11.719,-24.414,-33.203,-41.504,-117.676
1687530915.109,-14.160,-21.484,-29.297,-31.738,-133.789
1687530915.113,-23.926,-25.879,-28.809,-25.879,-91.309
1687530915.117,-33.691,-31.250,-33.203,-33.203,62.012
1687530915.120,-33.691,-28.320,-33.691,-25.391,223.145
1687530915.124,-27.832,-31.738,-36.621,-16.113,61.523
1687530915.128,-24.902,-27.832,-39.062,-24.902,-178.223
1687530915.132,-37.109,-25.879,-32.715,-25.879,-84.473
1687530915.136,-36.621,-29.785,-34.180,-31.738,12.207
1687530915.172,-29.785,-31.738,-41.992,-40.527,-87.402
1687530915.176,-29.297,-29.785,-40.039,-33.691,-142.578
1687530915.180,-27.832,-30.273,-36.133,-30.762,68.848
1687530915.184,-30.762,-25.391,-37.598,-32.715,105.469
1687530915.188,-30.762,-20.020,-38.086,-35.645,-62.988
1687530915.192,-25.391,-24.414,-36.621,-33.203,-31.250
1687530915.196,-19.531,-25.391,-38.086,-27.344,225.586
1687530915.199,-19.043,-23.926,-36.133,-25.879,277.832
1687530915.203,-27.344,-29.785,-31.250,-19.043,-32.227
1687530915.207,-37.109,-28.809,-32.715,-27.344,-40.527
1687530915.211,-27.344,-21.973,-34.668,-29.785,93.750
1687530915.215,-18.066,-20.508,-30.762,-23.926,-6.836
1687530915.185,-14.648,-21.973,-29.297,-25.391,-144.043
1687530915.189,-29.785,-27.344,-36.133,-23.926,-89.844
1687530915.193,-40.039,-27.344,-34.668,-25.879,34.668
1687530915.197,-29.785,-27.832,-34.668,-33.691,-58.105
1687530915.201,-26.855,-34.668,-41.016,-45.410,-192.383
1687530915.205,-28.320,-31.738,-43.457,-40.039,0.000
1687530915.209,-46.387,-32.227,-44.434,-28.320,338.867
1687530915.212,-54.199,-39.551,-45.410,-35.156,169.434
1687530915.216,-36.133,-37.109,-41.504,-46.875,-227.051
1687530915.220,-35.156,-41.992,-37.598,-42.480,-142.578
1687530915.224,-35.156,-43.457,-38.086,-41.016,-57.617
1687530915.228,-25.879,-37.109,-39.062,-35.645,-122.070
1687530915.228,-30.273,-32.227,-38.574,-30.762,-84.961
1687530915.232,-27.344,-31.738,-34.668,-31.250,-46.875
1687530915.236,-19.043,-33.203,-36.621,-41.504,-108.887
1687530915.240,-17.578,-30.273,-37.598,-39.062,-134.277
1687530915.244,-35.645,-26.855,-32.227,-25.391,-66.406
1687530915.248,-51.758,-30.273,-38.574,-17.578,268.555
1687530915.252,-42.480,-31.738,-38.574,-26.855,304.688
1687530915.255,-38.086,-28.809,-31.738,-44.922,-90.332
1687530915.259,-33.691,-30.762,-38.086,-41.016,-125.488
1687530915.263,-34.180,-30.273,-37.598,-29.785,171.387
1687530915.267,-40.039,-25.879,-34.668,-27.344,263.672
1687530915.271,-38.574,-27.832,-39.062,-37.598,-114.258
1687530915.288,-30.273,-31.738,-41.992,-33.691,-201.660
1687530915.292,-15.625,-25.879,-40.039,-24.902,-81.543
1687530915.296,-20.020,-23.926,-37.598,-22.461,-52.734
1687530915.300,-33.691,-29.785,-35.156,-27.344,-56.152
1687530915.304,-41.504,-29.297,-35.645,-38.574,10.254
1687530915.308,-38.086,-26.855,-35.645,-40.527,110.840
1687530915.312,-36.621,-27.344,-37.109,-40.039,76.172
1687530915.315,-45.898,-30.273,-39.062,-44.434,2.930
1687530915.319,-61.523,-33.691,-40.527,-50.293,28.320
1687530915.323,-61.523,-37.598,-41.504,-45.410,261.230
1687530915.327,-46.875,-35.645,-38.086,-44.922,100.586
1687530915.331,-41.504,-35.645,-37.109,-47.852,-156.250
1687530915.333,-34.180,-36.133,-37.109,-27.832,-39.062
1687530915.337,-38.086,-35.645,-38.574,-15.625,-21.973
1687530915.341,-41.504,-36.621,-40.527,-26.855,-154.297
1687530915.345,-39.062,-34.180,-46.875,-39.551,-169.434
1687530915.349,-35.645,-31.738,-45.410,-30.762,-79.590
1687530915.353,-31.738,-32.227,-39.551,-24.902,17.578
1687530915.357,-32.715,-32.227,-40.527,-23.926,90.820
1687530915.360,-31.250,-28.320,-38.086,-27.344,-64.453
1687530915.364,-21.973,-24.414,-36.621,-35.645,60.059
1687530915.368,-24.902,-29.297,-38.574,-38.574,291.504
1687530915.372,-25.879,-31.250,-40.527,-32.715,1.465
1687530915.376,-28.320,-29.297,-39.062,-30.762,-157.715
1687530915.378,-40.039,-37.598,-41.016,-42.969,53.223
1687530915.382,-33.691,-37.598,-41.504,-46.387,7.324
1687530915.386,-25.391,-31.250,-39.062,-41.992,-202.637
1687530915.390,-31.250,-25.391,-36.133,-30.273,-121.094
1687530915.394,-33.691,-25.391,-36.621,-25.391,-22.461
1687530915.398,-37.598,-32.227,-41.992,-32.715,-0.488
1687530915.402,-41.504,-29.785,-37.109,-30.762,-77.148
1687530915.405,-31.250,-26.367,-31.250,-26.367,-51.758
1687530915.409,-29.785,-29.785,-36.621,-26.855,132.324
1687530915.413,-29.785,-25.879,-39.062,-20.508,4.395
1687530915.417,-33.203,-28.320,-37.598,-32.715,-150.391
1687530915.421,-32.715,-28.320,-37.598,-50.781,12.695
1687530915.423,-31.250,-30.762,-36.621,-49.805,52.734
1687530915.427,-33.203,-36.133,-37.598,-42.969,-179.199
1687530915.431,-32.715,-30.762,-39.551,-41.016,-164.551
1687530915.435,-38.086,-29.297,-40.527,-41.504,-56.641
1687530915.439,-42.480,-34.668,-38.574,-43.457,-92.285
1687530915.443,-45.898,-39.062,-38.574,-47.852,-12.695
1687530915.447,-36.621,-38.574,-39.551,-45.410,51.758
1687530915.450,-33.691,-33.203,-38.574,-30.762,171.875
1687530915.454,-42.480,-30.762,-38.574,-28.809,204.102
1687530915.458,-41.504,-34.180,-40.039,-39.062,-20.020
1687530915.462,-32.227,-35.156,-35.156,-36.621,-62.012
1687530915.466,-13.672,-30.273,-29.297,-29.785,11.719
1687530915.470,-22.949,-23.926,-39.062,-31.738,20.020
1687530915.474,-49.805,-25.879,-42.969,-43.457,-87.891
1687530915.478,-46.875,-29.785,-36.133,-51.758,-87.402
1687530915.482,-33.691,-27.344,-39.551,-57.129,-46.875
1687530915.486,-25.879,-27.344,-38.086,-52.246,-64.941
1687530915.490,-25.879,-24.902,-34.180,-41.504,-42.969
1687530915.494,-40.039,-22.461,-36.621,-47.363,45.410
1687530915.497,-50.781,-25.879,-36.133,-52.246,211.914
1687530915.501,-49.316,-28.320,-39.551,-53.223,80.566
1687530915.505,-39.551,-26.855,-41.992,-46.875,-152.344
1687530915.509,-34.180,-26.855,-36.133,-31.250,-30.273
1687530915.513,-44.434,-23.926,-34.668,-28.809,-28.809
1687530915.513,-54.688,-27.344,-34.668,-38.574,-136.230
1687530915.517,-49.805,-32.227,-32.715,-44.434,-158.203
1687530915.521,-36.133,-29.785,-32.715,-52.246,-109.375
1687530915.525,-29.297,-28.809,-33.203,-45.410,-6.836
1687530915.529,-35.156,-32.715,-33.203,-43.945,-43.945
1687530915.533,-24.414,-32.715,-35.156,-52.246,-32.227
1687530915.537,-11.719,-30.273,-35.156,-49.316,239.258
1687530915.540,-10.254,-27.832,-34.180,-40.039,281.250
1687530915.544,-3.906,-26.855,-35.156,-39.062,-62.500
1687530915.548,-13.672,-30.273,-34.180,-37.598,-91.797
1687530915.552,-29.785,-34.180,-35.645,-27.832,112.305
1687530915.556,-25.879,-38.086,-37.598,-27.832,43.945
1687530915.558,-21.484,-39.062,-35.156,-29.297,-143.555
1687530915.562,-27.344,-34.180,-35.156,-38.574,-137.695
1687530915.566,-34.668,-30.762,-34.668,-39.062,-83.496
1687530915.570,-36.621,-30.273,-34.668,-34.180,-76.172
1687530915.574,-42.969,-31.738,-31.738,-39.551,-106.934
1687530915.578,-43.457,-30.273,-29.297,-49.805,-15.137
1687530915.582,-45.410,-29.297,-31.738,-38.086,157.715
1687530915.585,-47.363,-30.762,-29.297,-22.949,87.891
1687530915.589,-51.758,-33.203,-29.785,-39.062,-99.121
1687530915.593,-50.781,-35.156,-32.715,-41.016,-72.754
1687530915.597,-40.527,-34.180,-40.039,-39.062,98.145
1687530915.601,-38.086,-35.645,-43.457,-46.387,-33.203
1687530915.619,-33.203,-37.598,-41.992,-38.574,-136.230
1687530915.623,-34.668,-33.203,-42.480,-31.250,-93.262
1687530915.627,-41.992,-32.227,-38.574,-45.410,-123.535
1687530915.631,-39.551,-33.203,-37.109,-60.059,-169.434
1687530915.635,-39.551,-35.645,-38.086,-51.270,-63.965
1687530915.639,-50.781,-37.598,-38.574,-44.922,96.191
1687530915.643,-54.199,-36.133,-36.621,-51.270,94.238
1687530915.646,-47.852,-34.180,-38.086,-57.617,-57.617
1687530915.650,-43.945,-36.621,-41.016,-60.059,-152.344
1687530915.654,-40.039,-40.039,-41.016,-60.059,74.707
1687530915.658,-45.898,-37.109,-41.504,-49.316,292.969
1687530915.662,-55.176,-31.250,-35.645,-47.852,41.016
1687530915.663,-53.711,-35.156,-30.762,-56.641,-131.348
1687530915.667,-40.527,-41.016,-32.227,-61.523,-92.773
1687530915.671,-31.738,-36.621,-31.250,-59.570,-111.816
1687530915.675,-37.109,-29.297,-28.809,-50.293,-166.016
1687530915.679,-52.246,-32.227,-31.738,-48.340,-135.254
1687530915.683,-47.852,-33.203,-29.785,-55.664,-29.297
1687530915.687,-38.086,-34.668,-36.133,-61.035,-5.859
1687530915.690,-35.645,-38.086,-41.016,-49.805,-63.965
1687530915.694,-45.410,-38.086,-39.062,-49.316,-32.227
1687530915.698,-53.711,-34.668,-41.992,-43.457,194.336
1687530915.702,-46.387,-30.273,-36.133,-41.992,103.516
1687530915.706,-44.922,-30.762,-38.574,-52.734,-93.262
1687530915.708,-31.738,-28.320,-38.086,-46.875,-11.719
1687530915.712,-29.297,-25.391,-30.273,-37.109,40.039
1687530915.716,-41.992,-32.227,-30.273,-41.016,-96.680
1687530915.720,-48.340,-36.133,-29.785,-48.340,-154.785
1687530915.724,-37.109,-30.762,-29.297,-42.969,-74.707
1687530915.728,-20.020,-31.250,-31.738,-41.016,-20.020
1687530915.732,-16.602,-32.715,-29.297,-43.945,13.184
1687530915.735,-22.949,-32.715,-26.855,-43.945,-31.738
1687530915.739,-32.227,-33.203,-33.203,-42.480,37.109
1687530915.743,-22.949,-31.738,-31.250,-35.645,183.105
1687530915.747,-13.672,-32.715,-31.738,-33.203,-30.273
1687530915.751,-20.020,-38.086,-36.133,-34.180,-179.199
1687530915.754,-28.809,-40.039,-29.785,-27.344,29.297
1687530915.758,-36.133,-34.180,-26.367,-28.809,110.352
1687530915.762,-30.762,-34.180,-27.344,-32.715,-192.871
1687530915.766,-14.648,-31.250,-26.367,-31.250,-205.078
1687530915.770,-17.578,-25.879,-25.391,-25.879,-30.762
1687530915.774,-27.344,-24.414,-22.461,-19.531,-62.988
1687530915.778,-39.062,-22.461,-26.367,-20.996,-55.176
1687530915.781,-42.969,-27.344,-26.367,-26.855,-6.836
1687530915.785,-33.203,-32.227,-21.484,-21.484,155.762
1687530915.789,-17.578,-28.809,-25.391,-27.344,60.059
1687530915.793,-13.672,-29.297,-27.344,-33.203,-119.629
1687530915.797,-31.250,-29.785,-19.531,-17.578,-27.832
1687530915.799,-31.250,-28.809,-18.555,-15.625,-26.367
1687530915.803,-18.066,-25.879,-18.066,-18.066,-126.465
1687530915.807,-15.137,-25.879,-16.602,-21.484,-153.809
1687530915.811,-29.297,-30.273,-20.508,-23.438,65.918
1687530915.815,-38.086,-31.738,-19.043,-21.484,124.512
1687530915.819,-35.156,-28.320,-17.090,-29.785,-41.016
1687530915.823,-36.133,-24.414,-16.602,-33.691,-45.410
1687530915.826,-23.438,-24.414,-17.578,-23.926,85.938
1687530915.830,-13.184,-21.484,-19.531,-14.648,170.410
1687530915.834,-31.250,-26.855,-24.414,-22.949,77.148
1687530915.838,-37.109,-31.250,-21.484,-34.668,15.625
1687530915.842,-25.391,-23.438,-19.043,-33.691,8.301
1687530915.843,-25.879,-22.461,-27.344,-32.715,-34.668
1687530915.847,-34.668,-25.391,-31.738,-40.039,-177.246
1687530915.851,-41.504,-27.832,-32.227,-41.016,-126.953
1687530915.855,-42.480,-27.832,-26.367,-41.016,-99.609
1687530915.859,-38.574,-26.367,-28.809,-54.688,-170.410
1687530915.863,-38.086,-27.832,-34.180,-60.059,-61.523
1687530915.867,-44.434,-28.809,-33.203,-53.223,26.367
1687530915.870,-59.082,-30.273,-33.691,-41.504,359.375
1687530915.874,-63.477,-31.738,-36.621,-45.410,299.805
1687530915.878,-48.340,-35.645,-38.086,-56.641,-104.980
1687530915.882,-37.109,-37.109,-32.715,-44.922,-115.723
1687530915.886,-33.691,-32.715,-32.715,-50.293,-71.777
1687530915.889,-40.039,-33.691,-37.109,-51.758,-95.703
1687530915.893,-46.387,-30.762,-31.738,-49.805,-98.145
1687530915.897,-35.156,-27.344,-23.926,-60.547,-88.379
1687530915.901,-28.809,-28.809,-21.484,-45.898,-132.324
1687530915.905,-24.902,-23.438,-22.949,-38.086,-96.191
1687530915.909,-28.809,-25.391,-28.320,-42.480,25.391
1687530915.913,-43.457,-34.180,-34.180,-43.457,308.105
1687530915.916,-43.457,-31.250,-32.715,-39.062,253.906
1687530915.920,-33.691,-29.297,-28.809,-44.922,-104.492
1687530915.924,-29.297,-35.156,-30.762,-44.434,-125.000
1687530915.928,-42.480,-34.180,-37.598,-36.621,133.789
1687530915.932,-61.035,-32.227,-37.598,-42.969,122.070
1687530915.934,-56.152,-33.203,-32.227,-52.734,-160.645
1687530915.938,-45.898,-30.762,-25.879,-55.176,-168.457
1687530915.942,-47.852,-34.180,-29.785,-57.129,-72.266
1687530915.946,-52.734,-34.668,-31.250,-50.293,-83.984
1687530915.950,-57.617,-30.762,-34.180,-42.969,-210.938
1687530915.954,-56.152,-31.738,-38.574,-49.805,-122.070
1687530915.958,-49.316,-31.250,-35.645,-62.988,100.586
1687530915.961,-40.039,-30.762,-34.668,-59.570,-59.570
1687530915.965,-42.480,-29.297,-33.203,-59.082,-195.312
1687530915.969,-54.688,-30.762,-34.180,-50.781,-48.340
1687530915.973,-46.875,-30.273,-29.785,-43.457,78.613
1687530915.977,-40.039,-29.297,-29.297,-51.758,-8.789
1687530915.978,-40.039,-26.367,-28.809,-54.199,-144.531
1687530915.982,-39.062,-25.391,-29.785,-47.852,-0.977
1687530915.986,-48.340,-25.879,-33.691,-50.781,93.262
1687530915.990,-50.781,-24.902,-34.180,-53.711,-64.453
1687530915.994,-36.621,-27.344,-26.855,-53.711,-125.977
1687530915.998,-28.320,-30.762,-23.438,-54.199,27.344
1687530916.002,-41.016,-33.691,-25.391,-48.340,112.305
1687530916.005,-58.105,-32.715,-22.461,-55.664,-43.457
1687530916.009,-52.734,-32.715,-27.344,-57.129,-143.555
1687530916.013,-42.480,-32.715,-30.762,-55.664,166.016
1687530916.017,-37.598,-27.344,-24.414,-51.270,326.660
1687530916.021,-35.156,-25.391,-24.414,-42.969,-82.031
1687530916.039,-48.828,-27.832,-23.438,-32.715,-127.930
1687530916.043,-50.293,-28.809,-20.996,-29.785,-6.348
1687530916.047,-41.992,-28.809,-19.043,-34.180,-98.145
1687530916.051,-40.039,-27.344,-15.625,-48.340,-227.539
1687530916.055,-44.922,-27.344,-18.555,-48.828,-120.117
1687530916.059,-60.547,-32.715,-23.926,-43.945,-30.273
1687530916.063,-59.082,-28.809,-23.438,-49.805,-89.844
1687530916.066,-47.363,-24.414,-21.973,-49.805,-144.531
1687530916.070,-42.969,-29.785,-24.902,-48.828,-88.379
1687530916.074,-39.551,-33.203,-24.902,-46.875,116.211
1687530916.078,-38.086,-29.785,-24.902,-43.945,28.320
1687530916.082,-41.504,-32.227,-27.832,-47.852,-125.977
1687530916.083,-39.062,-29.785,-23.438,-37.598,-61.035
1687530916.087,-38.086,-21.484,-20.996,-41.992,-0.488
1687530916.091,-35.156,-25.391,-22.461,-51.270,-78.613
1687530916.095,-36.621,-28.809,-26.855,-43.945,-52.734
1687530916.099,-49.805,-24.414,-30.273,-38.574,90.820
1687530916.103,-46.875,-26.367,-25.391,-39.551,111.328
1687530916.107,-39.551,-35.156,-29.785,-45.898,46.875
1687530916.110,-31.738,-33.691,-32.227,-37.598,-52.246
1687530916.114,-32.227,-27.832,-27.832,-36.621,117.676
1687530916.118,-39.551,-26.367,-25.391,-45.410,303.223
1687530916.122,-34.668,-32.227,-22.461,-47.852,9.766
1687530916.126,-26.855,-35.156,-24.414,-44.434,-145.020
1687530916.128,-29.785,-26.367,-26.367,-44.922,40.527
1687530916.132,-37.598,-28.809,-23.926,-48.828,68.848
1687530916.136,-46.387,-31.250,-26.855,-50.293,-77.637
1687530916.140,-47.852,-25.391,-28.320,-54.199,-64.941
1687530916.144,-37.109,-19.043,-24.902,-53.711,-33.691
1687530916.148,-34.668,-25.879,-25.879,-47.852,15.137
1687530916.152,-37.109,-35.156,-31.250,-40.527,-13.672
1687530916.155,-46.875,-32.715,-34.180,-52.734,37.109
1687530916.159,-46.387,-27.832,-27.344,-52.734,317.871
1687530916.163,-33.691,-27.832,-25.879,-48.340,178.223
1687530916.167,-24.902,-28.809,-26.367,-60.059,-215.332
1687530916.171,-18.555,-25.879,-26.367,-44.922,-129.395
1687530916.174,-12.207,-26.855,-18.555,-14.160,-52.734
1687530916.178,-24.414,-30.273,-4.395,-20.996,-133.789
1687530916.182,-42.969,-36.621,-5.371,-44.922,-161.133
1687530916.186,-49.316,-47.363,-2.441,-41.992,-53.711
1687530916.190,-60.059,-55.664,0.000,-36.133,-16.113
1687530916.194,-65.430,-61.035,3.906,-48.828,-61.035
1687530916.198,-54.688,-64.941,15.137,-57.129,-11.719
1687530916.201,-52.246,-69.336,21.484,-51.758,184.570
1687530916.205,-59.570,-72.266,20.508,-45.410,261.719
1687530916.209,-61.523,-74.707,24.902,-31.250,55.664
1687530916.213,-70.312,-79.590,34.668,-30.273,-33.691
1687530916.217,-71.777,-83.496,38.574,-38.086,20.508
1687530916.219,-63.477,-85.938,41.992,-37.109,-47.852
1687530916.223,-65.430,-90.332,49.316,-41.504,-180.176
1687530916.227,-54.199,-88.867,50.293,-39.062,-111.328
1687530916.231,-50.781,-85.938,50.781,-24.902,-33.691
1687530916.235,-67.871,-86.426,52.734,-26.367,-75.684
1687530916.239,-64.453,-83.496,55.176,-28.320,-57.129
1687530916.243,-53.223,-83.496,56.641,-13.184,16.113
1687530916.246,-48.340,-86.426,64.941,0.000,142.578
1687530916.250,-50.293,-89.844,70.312,2.930,47.363
1687530916.254,-54.688,-95.215,73.242,6.348,-135.742
1687530916.258,-49.805,-96.680,68.848,0.977,21.973
1687530916.262,-38.086,-99.121,63.477,-4.883,63.965
1687530916.263,-25.391,-100.098,62.012,4.395,-131.348
1687530916.267,-36.133,-94.238,63.965,22.949,-149.414
1687530916.271,-53.711,-91.797,66.895,16.113,-51.270
1687530916.275,-47.852,-89.355,62.988,-20.996,-117.188
1687530916.279,-42.480,-86.426,62.012,-21.484,-186.035
1687530916.283,-44.434,-88.867,57.617,-12.695,-150.879
1687530916.287,-45.410,-82.520,54.199,-3.906,133.789
1687530916.290,-41.504,-80.078,52.246,10.254,178.711
1687530916.294,-37.598,-80.566,43.457,-8.789,-144.043
1687530916.298,-23.926,-74.219,40.039,-18.555,-122.070
1687530916.302,-15.137,-71.777,40.039,-19.531,98.145
1687530916.306,-20.996,-69.336,35.156,-22.461,84.473
1687530916.310,-33.691,-63.965,26.855,-23.438,-45.898
1687530916.314,-42.480,-64.941,24.414,-34.180,-72.266
1687530916.318,-41.992,-63.477,20.996,-41.992,-47.363
1687530916.322,-33.203,-60.547,15.625,-30.273,-66.406
1687530916.326,-27.832,-60.547,15.137,-24.902,-144.531
1687530916.330,-43.457,-54.199,14.648,-19.531,-10.254
1687530916.334,-50.293,-52.734,13.184,-25.879,213.867
1687530916.337,-45.898,-55.176,12.695,-35.156,66.406
1687530916.341,-43.945,-52.734,10.254,-37.598,-168.457
1687530916.345,-43.457,-52.246,12.695,-38.086,-56.152
1687530916.349,-48.828,-50.781,9.766,-28.809,34.668
1687530916.353,-47.852,-50.781,10.742,-34.668,-49.805
1687530916.369,-41.504,-56.641,10.742,-51.270,-50.293
1687530916.373,-40.039,-59.082,3.906,-52.734,-51.270
1687530916.377,-39.551,-51.270,4.395,-35.156,33.691
1687530916.381,-45.898,-50.781,0.488,-30.762,82.031
1687530916.385,-45.898,-52.734,-7.812,-37.598,-77.637
1687530916.389,-35.645,-45.410,-8.301,-49.316,124.023
1687530916.393,-29.297,-41.016,-3.906,-48.340,216.797
1687530916.396,-32.715,-50.781,-4.395,-34.180,-63.477
1687530916.400,-46.875,-56.152,-4.883,-31.738,-182.129
1687530916.404,-60.059,-50.781,-5.859,-41.504,68.359
1687530916.408,-56.152,-48.828,-9.766,-44.434,213.867
1687530916.412,-44.434,-43.457,-14.160,-53.711,-99.609
1687530916.414,-33.691,-41.016,-17.578,-58.105,-174.316
1687530916.418,-43.457,-42.969,-15.625,-39.551,-86.914
1687530916.422,-53.223,-39.551,-15.625,-44.434,-108.398
1687530916.426,-32.227,-34.180,-15.137,-62.988,-207.520
1687530916.430,-12.207,-34.668,-8.789,-47.363,-103.516
1687530916.434,-19.531,-40.527,-4.395,-31.738,15.625
1687530916.438,-31.738,-42.480,-5.371,-34.668,74.219
1687530916.441,-42.480,-38.574,-0.977,-39.551,28.320
1687530916.445,-39.551,-41.504,4.883,-39.551,-87.891
1687530916.449,-29.297,-44.922,6.348,-45.410,145.996
1687530916.453,-25.879,-44.922,0.000,-58.594,38.574
1687530916.457,-34.668,-45.898,-0.488,-54.199,-156.738
1687530916.458,-55.176,-48.340,4.395,-57.617,9.766
1687530916.462,-54.688,-49.316,5.371,-62.988,45.410
1687530916.466,-48.340,-50.293,-3.418,-61.035,-83.008
1687530916.470,-45.898,-46.875,-1.953,-52.734,-169.922
1687530916.474,-49.316,-46.387,1.465,-46.875,-65.918
1687530916.478,-64.941,-50.293,-6.348,-52.246,107.910
1687530916.482,-55.176,-49.805,-7.324,-61.035,48.340
1687530916.485,-38.574,-52.246,-10.254,-67.383,-15.137
1687530916.489,-37.109,-51.270,-12.695,-55.664,173.828
1687530916.493,-41.016,-44.434,-10.254,-44.434,352.051
1687530916.497,-50.293,-44.922,-13.672,-57.129,80.078
1687530916.501,-47.852,-47.852,-12.695,-70.801,-138.184
1687530916.504,-38.086,-42.969,-13.672,-75.684,-57.617
1687530916.508,-36.133,-41.504,-13.184,-69.336,-90.820
1687530916.512,-44.434,-39.062,-10.254,-51.270,-147.461
1687530916.516,-33.691,-31.250,-8.789,-49.805,-100.098
1687530916.520,-36.621,-37.109,-11.230,-59.082,-81.543
1687530916.524,-47.852,-38.574,-9.766,-52.246,-68.359
1687530916.528,-34.668,-39.551,-9.766,-53.711,-58.594
1687530916.531,-29.297,-41.504,-13.184,-51.758,-34.180
1687530916.535,-40.527,-41.504,-12.207,-46.875,130.859
1687530916.539,-41.504,-36.133,-10.742,-56.641,79.590
1687530916.543,-28.809,-29.297,-6.348,-61.035,-150.879
1687530916.547,-21.484,-33.203,-8.301,-43.945,-61.035
1687530916.549,-20.996,-31.738,-12.207,-43.457,35.156
1687530916.553,-32.715,-26.855,-17.090,-52.246,-119.629
1687530916.557,-35.156,-24.902,-16.113,-49.805,-117.188
1687530916.561,-24.414,-24.902,-14.648,-51.270,-61.523
1687530916.565,-13.184,-25.391,-15.625,-46.387,-127.441
1687530916.569,-14.160,-22.461,-14.160,-32.227,-107.910
1687530916.573,-31.738,-22.949,-14.160,-26.855,-26.855
1687530916.576,-41.992,-25.879,-15.137,-22.949,133.301
1687530916.580,-29.785,-24.414,-11.719,-10.742,144.531
1687530916.584,-20.020,-23.926,-13.672,-13.672,-49.316
1687530916.588,-19.043,-27.344,-14.648,-24.414,-62.012
1687530916.592,-30.762,-33.203,-15.137,-24.414,53.223
1687530916.593,-42.969,-31.738,-17.578,-27.832,52.734
1687530916.597,-37.109,-26.367,-17.578,-42.480,-107.422
1687530916.601,-23.926,-24.414,-16.602,-31.250,-106.934
1687530916.605,-23.438,-25.879,-14.160,-26.855,-42.969
1687530916.609,-28.320,-25.391,-14.648,-30.762,-104.004
1687530916.613,-34.180,-26.855,-15.625,-38.086,-62.012
1687530916.617,-26.855,-26.367,-19.043,-39.062,112.793
1687530916.620,-17.578,-26.855,-21.484,-25.391,264.648
1687530916.624,-18.066,-24.414,-20.020,-22.461,85.449
1687530916.628,-23.926,-19.043,-18.555,-13.672,-107.422
1687530916.632,-39.551,-17.578,-18.555,-7.812,-14.648
1687530916.636,-39.062,-23.438,-16.113,-23.926,-69.336
1687530916.640,-32.715,-24.902,-12.695,-29.785,-109.375
1687530916.644,-38.086,-29.297,-17.090,-20.508,-89.355
1687530916.648,-46.875,-32.227,-23.438,-11.719,58.105
1687530916.652,-45.898,-26.855,-25.391,-10.254,93.262
1687530916.656,-45.410,-32.227,-26.367,-22.461,-98.145
1687530916.660,-39.062,-36.621,-24.414,-26.855,-57.129
1687530916.664,-28.320,-27.344,-23.926,-7.324,139.160
1687530916.667,-28.809,-22.461,-20.508,15.625,205.566
1687530916.671,-47.363,-23.438,-19.043,7.812,-58.594
1687530916.675,-43.457,-24.414,-20.996,-15.137,-97.168
1687530916.679,-27.832,-29.785,-23.926,-20.508,30.762
1687530916.683,-33.203,-28.320,-24.902,-9.277,-59.082
1687530916.683,-40.039,-25.879,-26.855,-6.836,-180.664
1687530916.687,-52.734,-31.738,-31.738,-7.324,-89.355
1687530916.691,-51.270,-31.250,-34.668,-12.695,-108.887
1687530916.695,-39.551,-32.227,-37.598,-26.367,-115.723
1687530916.699,-40.039,-36.133,-37.598,-30.762,-85.449
1687530916.703,-43.945,-34.180,-35.156,-23.926,-30.762
1687530916.707,-53.711,-33.691,-37.598,-11.230,326.172
1687530916.710,-57.617,-31.738,-39.062,-6.348,285.156
1687530916.714,-50.293,-25.879,-33.691,-17.090,-124.023
1687530916.718,-39.062,-26.367,-27.344,-20.020,-79.102
1687530916.722,-32.227,-28.320,-25.879,-17.090,-23.926
1687530916.726,-51.270,-32.715,-31.250,-21.973,-143.066
1687530916.728,-54.688,-44.434,-26.855,-11.719,-174.805
1687530916.732,-21.484,-45.410,-17.090,7.812,-27.832
1687530916.736,-14.160,-27.344,-26.855,2.441,16.602
1687530916.740,-24.902,-16.602,-43.945,-13.184,-81.055
1687530916.744,-41.504,-21.484,-50.781,-16.602,-37.598
1687530916.748,-49.805,-16.602,-56.152,-21.973,87.891
1687530916.752,-36.133,-9.277,-63.965,-35.156,119.141
1687530916.755,-36.621,-1.953,-68.848,-40.039,66.895
1687530916.759,-47.852,0.000,-79.102,-49.316,-48.828
1687530916.763,-62.500,-0.488,-87.891,-68.848,116.699
1687530916.767,-69.824,3.418,-90.820,-70.312,458.496
1687530916.771,-62.012,8.301,-99.609,-78.125,108.398
1687530916.790,-51.270,16.602,-109.375,-96.191,-190.430
1687530916.794,-51.270,16.602,-118.164,-95.703,-144.531
1687530916.798,-60.547,21.484,-124.512,-96.191,-159.668
1687530916.802,-73.730,30.273,-127.930,-104.980,-144.043
1687530916.806,-71.777,26.367,-131.348,-106.934,-102.051
1687530916.810,-70.801,25.879,-137.695,-106.445,19.531
1687530916.814,-77.148,30.273,-141.602,-110.840,20.508
1687530916.817,-82.031,34.180,-141.602,-109.375,-168.945
1687530916.821,-90.332,36.621,-143.555,-113.281,-119.629
1687530916.825,-94.238,34.180,-143.555,-110.840,219.727
1687530916.829,-86.426,36.621,-144.043,-109.863,76.172
1687530916.833,-77.148,34.180,-145.020,-120.605,-188.965
1687530916.849,-75.195,32.227,-141.602,-106.445,-66.895
1687530916.853,-68.848,35.156,-139.648,-85.449,-44.922
1687530916.857,-65.430,30.273,-137.207,-81.055,-145.508
1687530916.861,-58.105,27.832,-125.488,-84.473,-208.496
1687530916.865,-50.781,26.855,-116.699,-75.684,-74.219
1687530916.869,-56.152,22.461,-114.746,-70.312,54.199
1687530916.873,-57.129,18.555,-109.863,-65.430,17.090
1687530916.876,-58.105,12.695,-105.469,-70.801,-118.652
1687530916.880,-55.664,7.324,-105.469,-70.312,-5.859
1687530916.884,-47.363,8.789,-101.074,-49.805,232.422
1687530916.888,-43.457,6.348,-96.191,-48.340,-74.219
1687530916.892,-48.340,2.930,-92.285,-45.898,-171.387
1687530916.878,-55.664,-0.977,-87.402,-41.504,96.191
1687530916.882,-49.316,-2.930,-84.473,-50.781,111.816
1687530916.886,-44.434,-3.906,-81.055,-56.152,-129.395
1687530916.890,-41.016,-5.371,-76.660,-48.340,-70.312
1687530916.894,-49.316,-7.812,-76.172,-37.598,-12.695
1687530916.898,-53.711,-8.301,-76.172,-40.039,55.664
1687530916.902,-42.480,-8.301,-72.266,-42.969,41.992
1687530916.905,-36.133,-10.254,-67.871,-38.574,9.766
1687530916.909,-33.203,-4.883,-62.012,-34.668,17.578
1687530916.913,-41.504,-7.812,-61.523,-22.461,-90.332
1687530916.917,-53.223,-15.137,-59.570,-24.414,-156.738
1687530916.921,-41.992,-15.625,-57.617,-31.738,-55.176
1687530916.925,-30.762,-12.695,-58.594,-25.879,163.086
1687530916.929,-27.832,-13.672,-59.082,-25.879,36.621
1687530916.933,-35.156,-13.184,-59.570,-36.621,-124.023
1687530916.937,-41.016,-7.324,-54.199,-39.062,-24.414
1687530916.941,-27.344,-9.766,-49.805,-41.016,20.020
1687530916.945,-15.625,-10.742,-48.340,-44.922,-44.434
1687530916.949,-12.695,-11.230,-45.898,-32.227,-33.203
1687530916.952,-27.832,-15.137,-47.363,-22.949,187.988
1687530916.956,-41.016,-18.066,-47.852,-20.996,213.867
1687530916.960,-38.086,-20.020,-49.805,-40.527,11.719
1687530916.964,-33.691,-20.508,-48.828,-54.688,-41.504
1687530916.968,-29.297,-17.090,-41.016,-35.645,-7.812
1687530916.969,-33.203,-16.113,-41.504,-30.762,-7.324
1687530916.973,-41.992,-19.531,-44.922,-39.551,-188.477
1687530916.977,-41.992,-17.578,-40.527,-44.434,-238.281
1687530916.981,-33.691,-16.602,-37.598,-45.410,-156.738
1687530916.985,-31.250,-22.949,-42.480,-50.293,5.371
1687530916.989,-32.227,-23.438,-46.387,-45.410,-0.977
1687530916.993,-44.922,-21.484,-42.480,-40.039,-106.934
1687530916.996,-44.922,-25.879,-40.527,-40.039,154.785
1687530917.000,-34.180,-24.414,-43.945,-40.039,138.672
1687530917.004,-32.715,-24.414,-44.434,-45.898,-196.289
1687530917.008,-41.016,-26.367,-38.574,-32.715,-113.770
1687530917.012,-54.199,-25.879,-40.527,-22.949,-40.527
1687530917.015,-48.340,-27.832,-42.969,-34.180,-113.281
1687530917.019,-34.180,-26.855,-40.039,-45.410,-198.730
1687530917.023,-26.367,-30.273,-39.062,-35.156,-152.344
1687530917.027,-35.645,-33.691,-40.039,-20.508,-26.855
1687530917.031,-49.316,-28.809,-34.668,-23.926,-66.895
1687530917.035,-50.781,-28.809,-31.250,-40.527,-61.035
1687530917.039,-40.527,-30.762,-22.461,-26.367,228.516
1687530917.042,-35.645,-29.297,-21.973,-11.230,258.789
1687530917.046,-42.969,-22.461,-39.551,-35.156,-63.477
1687530917.050,-59.082,-18.555,-47.852,-50.781,-124.512
1687530917.054,-59.082,-17.090,-50.293,-50.781,134.277
1687530917.058,-36.133,-12.695,-44.922,-41.992,223.145
1687530917.058,-22.461,-12.207,-43.945,-45.898,-77.637
1687530917.062,-18.555,-12.695,-48.340,-43.945,-194.336
1687530917.066,-27.344,-15.137,-44.434,-40.039,-38.086
1687530917.070,-39.551,-17.090,-43.945,-57.129,0.000
1687530917.074,-29.785,-20.508,-45.898,-67.383,-135.742
1687530917.078,-13.184,-20.996,-48.340,-72.266,-75.195
1687530917.082,-9.766,-19.531,-50.781,-59.570,315.918
1687530917.085,-14.160,-16.602,-44.434,-39.062,234.863
1687530917.089,-24.902,-11.719,-38.086,-39.062,-103.516
1687530917.093,-32.227,-15.137,-41.992,-45.898,31.250
1687530917.097,-28.320,-20.996,-41.504,-45.898,49.316
1687530917.101,-31.738,-23.926,-39.062,-46.387,-78.125
1687530917.134,-48.340,-26.855,-39.551,-51.270,-90.820
1687530917.138,-55.664,-26.367,-39.062,-57.129,-93.750
1687530917.142,-52.246,-21.973,-36.621,-50.781,-130.859
1687530917.146,-41.992,-20.020,-38.574,-52.734,-138.672
1687530917.150,-34.668,-22.461,-39.551,-44.434,-122.070
1687530917.154,-40.527,-27.832,-39.551,-32.227,93.262
1687530917.158,-39.062,-31.738,-40.039,-34.180,149.414
1687530917.161,-32.715,-29.785,-41.016,-41.016,-83.984
1687530917.165,-31.738,-24.414,-37.598,-39.062,-232.910
1687530917.169,-27.832,-31.250,-36.133,-30.273,61.035
1687530917.173,-25.391,-30.273,-37.109,-24.902,305.664
1687530917.177,-39.062,-30.762,-37.109,-28.809,31.738
1687530917.163,-40.039,-34.668,-35.645,-42.480,-136.230
1687530917.167,-22.949,-28.320,-36.621,-36.621,-53.223
1687530917.171,-15.625,-25.879,-32.715,-28.809,-100.586
1687530917.175,-21.973,-27.344,-31.250,-35.645,-133.789
1687530917.179,-37.598,-28.320,-33.203,-33.691,-5.371
1687530917.183,-31.738,-31.738,-32.227,-29.785,6.836
1687530917.187,-19.531,-28.320,-30.273,-27.344,-4.883
1687530917.190,-24.414,-28.809,-29.785,-24.414,-53.711
1687530917.194,-33.203,-32.715,-33.691,-31.738,-68.848
1687530917.198,-39.551,-30.273,-34.668,-38.086,20.020
1687530917.202,-38.086,-28.809,-35.156,-37.598,-55.176
1687530917.206,-37.109,-29.297,-33.203,-40.527,-86.914
1687530917.208,-38.574,-33.203,-35.156,-39.551,-38.574
1687530917.212,-39.062,-37.109,-34.668,-23.926,259.277
1687530917.216,-41.992,-34.668,-33.691,-17.578,141.113
1687530917.220,-42.480,-32.227,-34.180,-27.832,-164.551
1687530917.224,-39.062,-31.738,-30.273,-34.180,-81.055
1687530917.228,-33.691,-34.668,-25.879,-32.715,-54.688
1687530917.232,-33.203,-38.086,-29.297,-27.344,-62.012
1687530917.235,-40.039,-39.062,-34.180,-27.344,-94.238
1687530917.239,-39.062,-31.738,-27.832,-33.691,57.129
1687530917.243,-39.551,-28.809,-26.855,-45.898,304.199
1687530917.247,-33.691,-30.762,-30.762,-55.664,37.109
1687530917.251,-34.668,-31.250,-31.250,-41.016,-130.371
1687530917.262,-53.711,-37.598,-33.203,-35.156,34.180
1687530917.266,-61.035,-37.109,-33.203,-46.875,-24.414
1687530917.270,-46.387,-29.785,-27.344,-54.199,-135.742
1687530917.274,-31.738,-26.367,-24.414,-54.688,-84.961
1687530917.278,-14.648,-27.832,-20.508,-36.621,66.895
1687530917.282,-20.020,-27.344,-22.461,-18.555,68.359
1687530917.286,-29.785,-25.391,-28.809,-8.789,-15.625
1687530917.289,-15.137,-18.555,-29.297,-20.996,-87.402
1687530917.293,-23.926,-10.254,-31.250,-44.434,26.855
1687530917.297,-37.109,-8.789,-31.250,-42.969,-61.523
1687530917.301,-34.180,-7.812,-32.715,-38.086,-197.266
1687530917.305,-31.250,-10.254,-32.715,-38.086,-66.895
1687530917.299,-26.367,-12.207,-23.438,-49.805,-99.609
1687530917.303,-21.484,-17.090,-24.414,-56.152,-180.176
1687530917.307,-9.277,-18.066,-32.715,-43.457,-87.891
1687530917.311,-20.020,-15.625,-30.762,-37.109,-31.738
1687530917.315,-37.598,-12.695,-30.762,-45.898,-44.434
1687530917.319,-27.344,-13.184,-34.180,-42.969,-46.875
1687530917.323,-13.672,-13.672,-32.227,-31.738,-55.664
1687530917.326,-14.160,-17.090,-29.297,-17.578,191.895
1687530917.330,-21.484,-21.484,-28.320,-7.324,340.332
1687530917.334,-26.367,-20.996,-25.879,-18.555,83.496
1687530917.338,-29.297,-21.973,-24.902,-20.020,-112.793
1687530917.342,-24.414,-20.996,-25.391,-19.043,-55.664
1687530917.344,-17.578,-20.020,-26.367,-22.461,-59.570
1687530917.348,-12.695,-13.672,-25.879,-22.461,-161.133
1687530917.352,-25.879,-14.648,-23.438,-18.555,-74.219
1687530917.356,-33.691,-22.461,-21.973,-22.949,-102.539
1687530917.360,-21.484,-19.531,-21.973,-26.855,-153.320
1687530917.364,-14.160,-18.066,-21.973,-20.996,-60.059
1687530917.368,-19.531,-26.855,-28.809,-29.297,35.156
1687530917.371,-29.785,-31.250,-29.785,-34.180,242.676
1687530917.375,-27.832,-26.855,-24.902,-39.551,167.969
1687530917.379,-30.762,-24.414,-28.320,-48.340,-134.766
1687530917.383,-37.598,-27.344,-32.715,-48.340,-13.672
1687530917.387,-34.668,-24.902,-30.273,-38.086,94.727
1687530917.389,-35.645,-20.020,-23.438,-25.879,-77.637
1687530917.393,-33.691,-20.996,-21.484,-27.344,-139.648
1687530917.397,-22.461,-21.973,-20.996,-28.320,-89.844
1687530917.401,-19.043,-18.066,-20.020,-33.691,-140.625
1687530917.405,-21.484,-21.973,-23.926,-35.645,-179.199
1687530917.409,-36.621,-26.367,-20.996,-20.508,-112.305
1687530917.413,-48.340,-25.391,-21.484,-37.598,167.969
1687530917.416,-38.574,-29.785,-27.344,-54.688,234.863
1687530917.420,-31.250,-28.809,-22.461,-43.945,-103.516
1687530917.424,-35.156,-26.367,-20.996,-37.109,-160.645
1687530917.428,-44.434,-29.297,-28.320,-32.227,166.504
1687530917.432,-44.434,-29.297,-27.344,-30.273,201.172
1687530917.433,-36.621,-25.391,-19.531,-38.086,-116.699
1687530917.437,-33.203,-24.414,-21.973,-29.297,-87.891
1687530917.441,-38.574,-29.785,-27.344,-24.414,-11.230
1687530917.445,-37.598,-28.809,-26.367,-30.273,-56.152
1687530917.449,-48.340,-28.320,-28.320,-39.062,-136.230
1687530917.453,-55.664,-29.297,-27.344,-47.852,-92.285
1687530917.457,-50.781,-27.832,-25.879,-44.922,145.996
1687530917.460,-48.340,-29.297,-25.879,-46.875,52.734
1687530917.464,-41.504,-27.832,-23.926,-35.645,-146.973
1687530917.468,-47.363,-23.438,-25.391,-32.715,-36.621
1687530917.472,-43.945,-22.949,-27.344,-47.852,-20.020
1687530917.476,-38.574,-28.809,-31.250,-50.293,-135.742
1687530917.480,-39.062,-30.762,-36.621,-50.293,-165.527
1687530917.484,-37.598,-24.902,-31.738,-39.062,-38.086
1687530917.488,-36.621,-26.367,-27.832,-45.410,54.199
1687530917.492,-31.250,-28.320,-31.250,-52.246,-85.449
1687530917.496,-20.020,-24.902,-30.273,-55.664,-161.621
1687530917.500,-17.578,-28.809,-26.367,-52.734,1.465
1687530917.504,-38.574,-34.180,-28.809,-38.086,142.090
1687530917.507,-44.434,-34.668,-35.156,-46.875,75.195
1687530917.511,-35.645,-33.691,-33.203,-64.453,-76.660
1687530917.515,-29.297,-30.762,-26.855,-55.176,147.949
1687530917.519,-16.113,-30.273,-24.902,-21.484,315.430
1687530917.523,-24.902,-28.809,-27.344,-27.344,-50.293
1687530917.538,-46.387,-24.902,-32.227,-56.152,-131.348
1687530917.542,-39.551,-22.949,-39.062,-56.641,-44.922
1687530917.546,-24.902,-19.531,-40.527,-45.898,-133.301
1687530917.550,-23.926,-17.578,-36.133,-29.785,-146.973
1687530917.554,-36.621,-17.090,-32.715,-24.902,-83.008
1687530917.558,-42.480,-18.555,-34.180,-36.133,162.109
1687530917.562,-40.527,-20.020,-37.598,-35.645,247.070
1687530917.565,-38.574,-17.090,-39.062,-44.922,-56.152
1687530917.569,-27.832,-16.602,-36.621,-49.805,-62.988
1687530917.573,-26.367,-21.484,-40.527,-41.504,65.430
1687530917.577,-31.738,-22.949,-40.039,-42.480,-40.039
1687530917.581,-19.531,-17.090,-38.574,-42.480,-116.211
1687530917.584,-21.484,-20.996,-38.574,-46.387,-56.641
1687530917.588,-37.598,-26.855,-35.645,-41.016,-31.250
1687530917.592,-33.203,-25.391,-34.668,-36.621,-100.586
1687530917.596,-38.574,-28.320,-30.273,-39.062,-72.266
1687530917.600,-41.504,-32.227,-28.809,-36.621,-100.586
1687530917.604,-30.273,-30.762,-29.297,-43.945,-69.824
1687530917.608,-17.578,-27.344,-30.273,-45.410,-51.758
1687530917.611,-5.859,-29.297,-34.180,-33.203,-30.273
1687530917.615,-22.461,-29.297,-39.062,-30.273,156.738
1687530917.619,-41.016,-25.879,-42.480,-37.598,370.117
1687530917.623,-34.668,-26.367,-37.598,-44.922,148.438
1687530917.627,-25.391,-32.227,-30.273,-42.969,-125.000
1687530917.628,-28.320,-31.738,-31.738,-34.668,6.348
1687530917.632,-33.203,-25.879,-30.273,-36.133,1.465
1687530917.636,-31.738,-23.438,-26.855,-36.621,-128.418
1687530917.640,-27.832,-25.391,-30.273,-46.875,-156.250
1687530917.644,-26.367,-26.367,-28.320,-47.363,-125.977
1687530917.648,-28.809,-23.926,-25.879,-35.156,-67.871
1687530917.652,-38.574,-24.902,-26.367,-35.645,-82.520
1687530917.655,-42.480,-28.320,-22.461,-35.645,-21.973
1687530917.659,-29.785,-24.414,-18.066,-44.922,13.672
1687530917.663,-34.668,-24.414,-21.973,-48.828,-83.496
1687530917.667,-43.457,-28.809,-25.391,-42.480,-119.629
1687530917.671,-45.898,-29.785,-24.902,-41.992,-41.016
1687530917.674,-51.758,-34.180,-29.297,-41.992,183.594
1687530917.678,-49.316,-32.715,-36.621,-51.270,-8.789
1687530917.682,-54.688,-29.297,-37.109,-62.500,-193.848
1687530917.686,-47.852,-28.809,-30.762,-55.176,-101.562
1687530917.690,-47.852,-27.832,-29.785,-51.270,-91.797
1687530917.694,-56.152,-28.809,-30.273,-59.570,-128.418
1687530917.698,-53.711,-27.344,-30.273,-64.453,-151.855
1687530917.701,-45.410,-26.855,-30.762,-61.035,24.414
1687530917.705,-40.039,-34.180,-29.785,-53.711,131.836
1687530917.709,-37.109,-34.180,-28.809,-46.387,-72.754
1687530917.713,-32.227,-28.320,-29.785,-50.293,-64.941
1687530917.717,-52.246,-33.691,-33.691,-66.406,192.383
1687530917.718,-54.199,-36.621,-36.133,-75.195,192.383
1687530917.722,-38.086,-36.133,-32.227,-62.500,-170.410
1687530917.726,-32.715,-35.156,-27.344,-52.734,-191.406
1687530917.730,-32.227,-30.762,-23.438,-54.199,-41.504
1687530917.734,-44.434,-26.855,-23.926,-57.617,-61.523
1687530917.738,-40.039,-28.320,-29.785,-59.082,-69.824
1687530917.742,-26.367,-31.250,-29.297,-55.176,-8.301
1687530917.745,-32.715,-30.762,-33.203,-47.363,130.371
1687530917.749,-51.270,-34.180,-42.480,-40.527,68.359
1687530917.753,-53.223,-34.180,-41.504,-47.363,-149.902
1687530917.757,-47.852,-40.039,-34.668,-60.547,-111.328
1687530917.761,-39.551,-42.969,-34.668,-58.105,-84.961
1687530917.765,-26.367,-37.109,-31.738,-49.805,-87.402
1687530917.769,-33.691,-33.691,-30.762,-55.664,-115.723
1687530917.773,-54.199,-34.180,-35.156,-53.711,-101.562
1687530917.777,-49.316,-41.992,-41.504,-55.664,-67.871
1687530917.781,-36.133,-42.969,-39.551,-64.453,-199.707
1687530917.785,-29.785,-34.180,-32.227,-50.293,-65.430
1687530917.789,-41.504,-35.156,-33.203,-39.062,229.980
1687530917.792,-52.246,-38.086,-37.109,-41.504,246.094
1687530917.796,-38.086,-34.180,-34.180,-56.641,-101.074
1687530917.800,-28.320,-32.715,-30.762,-55.176,-185.547
1687530917.804,-27.832,-33.691,-33.691,-38.086,52.246
1687530917.808,-39.062,-33.691,-36.621,-35.645,63.965
1687530917.823,-45.898,-31.738,-31.738,-37.598,-128.906
1687530917.827,-34.180,-29.785,-33.203,-43.457,-147.949
1687530917.831,-24.902,-25.879,-32.715,-51.758,-87.891
1687530917.835,-17.090,-22.461,-27.832,-38.574,-85.449
1687530917.839,-24.902,-26.367,-31.250,-28.320,-83.496
1687530917.843,-40.039,-28.809,-34.180,-37.109,-21.973
1687530917.847,-35.156,-20.996,-34.668,-43.945,308.594
1687530917.850,-22.461,-19.043,-34.668,-46.875,237.305
1687530917.854,-23.438,-28.809,-33.691,-41.992,-154.297
1687530917.858,-35.156,-28.320,-34.668,-34.668,-117.188
1687530917.862,-36.133,-25.879,-35.156,-38.574,-116.211
1687530917.866,-34.180,-27.832,-32.227,-48.828,-168.457
1687530917.854,-25.879,-27.832,-33.203,-49.316,-145.020
1687530917.858,-22.949,-29.785,-31.738,-41.992,-50.781
1687530917.862,-22.949,-27.344,-30.273,-26.367,-63.477
1687530917.866,-28.809,-30.273,-27.344,-14.160,-116.211
1687530917.870,-48.828,-41.504,-25.879,-29.785,-106.445
1687530917.874,-54.688,-46.387,-26.367,-41.504,89.355
1687530917.878,-37.598,-45.898,-22.461,-39.062,135.742
1687530917.881,-24.902,-46.875,-22.461,-38.086,58.105
1687530917.885,-34.668,-48.340,-22.461,-44.434,29.297
1687530917.889,-27.832,-45.410,-20.020,-39.062,187.500
1687530917.893,-15.137,-45.410,-24.414,-44.434,362.793
1687530917.897,-6.836,-43.457,-26.367,-54.199,-3.418
1687530917.913,-3.906,-38.574,-24.414,-41.504,-147.949
1687530917.917,-26.367,-34.668,-25.391,-31.738,-61.035
1687530917.921,-33.203,-30.762,-25.391,-35.156,-55.664
1687530917.925,-33.691,-33.691,-27.344,-40.527,-126.953
1687530917.929,-28.320,-35.156,-22.949,-27.344,-85.449
1687530917.933,-28.320,-37.598,-19.531,-27.832,86.914
1687530917.937,-46.387,-40.039,-15.625,-37.598,119.141
1687530917.940,-55.664,-42.969,-13.184,-35.645,12.695
1687530917.944,-49.805,-39.551,-15.625,-38.086,-59.082
1687530917.948,-44.922,-36.133,-16.602,-32.715,175.781
1687530917.952,-42.969,-39.551,-18.555,-30.273,76.660
1687530917.956,-48.828,-40.039,-21.484,-32.715,-169.434
1687530917.958,-55.664,-37.598,-20.020,-38.574,-115.234
1687530917.962,-47.363,-38.574,-20.508,-41.016,-147.461
1687530917.966,-35.156,-37.598,-21.484,-36.133,-224.609
1687530917.970,-39.062,-37.109,-20.508,-40.527,-197.266
1687530917.974,-54.199,-37.598,-26.367,-33.691,-4.395
1687530917.978,-58.105,-34.180,-24.902,-30.762,60.059
1687530917.982,-52.246,-31.250,-24.414,-36.621,13.184
1687530917.985,-43.457,-29.785,-27.832,-35.645,-97.656
1687530917.989,-39.551,-31.250,-27.832,-28.320,40.527
1687530917.993,-44.434,-27.832,-24.902,-8.301,230.469
1687530917.997,-45.898,-26.367,-24.902,-22.949,56.641
1687530918.001,-34.668,-31.738,-28.809,-43.945,-119.141
1687530918.003,-30.273,-28.320,-29.297,-35.156,3.906
1687530918.007,-32.227,-26.367,-27.832,-21.973,132.324
1687530918.011,-47.852,-31.738,-33.691,-29.785,-111.816
1687530918.015,-66.406,-33.203,-36.133,-41.504,-136.230
1687530918.019,-56.641,-34.180,-30.762,-41.016,-81.055
1687530918.023,-46.875,-31.738,-27.832,-47.363,6.836
1687530918.027,-41.992,-31.250,-23.926,-48.340,39.062
1687530918.030,-44.434,-31.250,-20.996,-38.086,-53.223
1687530918.034,-60.547,-30.762,-28.809,-37.109,165.039
1687530918.038,-58.594,-31.738,-30.273,-51.758,75.195
1687530918.042,-41.504,-30.273,-31.738,-51.758,-216.309
1687530918.046,-36.621,-36.621,-35.645,-44.922,-118.164
1687530918.048,-40.039,-41.016,-34.180,-45.898,-15.137
1687530918.052,-45.410,-38.086,-33.691,-42.969,-56.152
1687530918.056,-49.805,-37.598,-37.109,-42.969,-92.773
1687530918.060,-48.340,-37.598,-37.109,-54.199,-33.203
1687530918.064,-52.734,-40.527,-38.086,-56.641,-3.418
1687530918.068,-53.223,-40.527,-42.969,-46.387,-22.949
1687530918.072,-59.570,-39.551,-39.551,-38.086,4.395
1687530918.075,-65.430,-45.410,-36.621,-39.551,109.863
1687530918.079,-48.340,-47.363,-36.133,-38.574,155.762
1687530918.083,-33.203,-41.504,-33.691,-38.574,-88.867
1687530918.087,-41.016,-37.109,-35.156,-41.016,-179.199
1687530918.091,-47.852,-34.668,-32.715,-25.879,53.711
1687530918.095,-41.016,-30.762,-36.621,-32.715,81.055
1687530918.099,-15.625,-25.391,-45.410,-32.715,-147.949
1687530918.103,-4.395,-31.250,-27.344,-2.441,-94.727
1687530918.107,-20.508,-37.109,-11.230,-13.672,-15.137
1687530918.111,-27.832,-40.039,-14.160,-20.020,-86.914
1687530918.115,-23.438,-49.316,-11.230,-9.766,-69.336
1687530918.119,-24.902,-53.711,-5.859,-16.602,-28.320
1687530918.122,-20.508,-56.641,0.977,-9.277,134.277
1687530918.126,-12.207,-60.547,8.301,11.230,51.270
1687530918.130,-20.508,-66.895,16.113,4.883,-180.664
1687530918.134,-37.109,-76.172,20.508,-17.090,-40.527
1687530918.138,-44.922,-78.613,20.508,-26.367,-61.035
1687530918.138,-36.621,-76.172,27.832,-12.207,-205.078
1687530918.142,-32.715,-79.102,38.086,6.348,-195.312
1687530918.146,-38.086,-81.543,42.480,16.113,-74.219
1687530918.150,-42.480,-83.008,47.852,10.742,25.879
1687530918.154,-51.270,-91.797,50.781,0.977,-29.297
1687530918.158,-46.875,-96.680,55.176,13.184,-104.004
1687530918.162,-43.945,-91.797,60.547,2.930,169.434
1687530918.165,-55.176,-96.680,62.500,-5.859,431.641
1687530918.169,-58.105,-98.145,66.895,2.441,99.609
1687530918.173,-57.129,-93.262,67.871,0.488,-62.988
1687530918.177,-58.594,-95.215,67.871,-9.277,126.465
1687530918.181,-62.988,-98.145,67.383,-6.836,87.891
1687530918.183,-70.312,-96.191,62.500,0.977,-107.422
1687530918.187,-75.684,-91.309,54.199,-15.625,-76.172
1687530918.191,-62.500,-89.844,49.805,-21.973,-29.297
1687530918.195,-44.922,-88.867,57.129,-6.348,-109.375
1687530918.199,-45.898,-83.984,57.617,-12.207,-145.996
1687530918.203,-43.945,-79.102,54.199,-5.859,2.441
1687530918.207,-37.598,-81.055,53.711,9.277,212.891
1687530918.210,-35.156,-79.590,51.270,0.000,123.047
1687530918.214,-39.551,-77.148,46.387,-7.812,-133.789
1687530918.218,-29.297,-73.730,42.969,-1.953,-67.871
1687530918.222,-25.391,-70.312,36.133,4.395,102.539
1687530918.226,-43.457,-68.359,31.250,8.789,12.207
1687530918.228,-34.180,-61.523,35.645,11.230,-76.172
1687530918.232,-18.066,-59.082,31.738,2.441,-57.617
1687530918.236,-20.020,-60.059,20.508,-0.977,-42.480
1687530918.240,-24.414,-54.688,20.508,2.441,-48.340
1687530918.244,-35.156,-51.758,20.020,5.371,-30.762
1687530918.248,-38.086,-51.758,11.230,-2.930,52.246
1687530918.252,-26.367,-50.781,10.742,-3.906,78.125
1687530918.255,-22.949,-51.270,9.766,-10.742,-57.129
1687530918.259,-29.785,-52.734,4.883,-21.484,-143.066
1687530918.263,-42.969,-53.223,0.977,-11.719,55.664
1687530918.267,-44.922,-50.781,3.418,-19.531,167.969
1687530918.271,-34.668,-50.781,1.465,-26.855,3.906
1687530918.289,-23.438,-48.340,-1.953,-13.184,-187.988
1687530918.293,-20.020,-42.969,1.465,-9.766,28.809
1687530918.297,-33.203,-41.016,2.441,-10.254,327.148
1687530918.301,-39.551,-41.016,-1.465,-10.254,-18.066
1687530918.305,-28.320,-41.992,-3.906,-23.438,-154.297
1687530918.309,-24.414,-41.504,-9.766,-23.438,16.113
1687530918.313,-17.578,-41.016,-13.672,-22.949,-5.859
1687530918.316,-27.832,-40.527,-12.207,-32.227,-101.562
1687530918.320,-35.645,-35.645,-10.254,-27.344,5.859
1687530918.324,-20.996,-32.227,-12.695,-31.738,134.766
1687530918.328,-15.137,-30.273,-14.648,-37.109,-84.473
1687530918.332,-16.113,-29.297,-8.789,-26.855,-175.781
1687530918.334,-23.438,-32.715,-7.324,-15.137,-10.742
1687530918.338,-31.738,-40.039,-13.184,-23.438,-7.812
1687530918.342,-18.555,-38.574,-13.184,-33.203,-121.582
1687530918.346,-5.859,-30.762,-8.301,-12.207,-112.793
1687530918.350,-9.766,-30.762,-6.836,-11.230,-31.250
1687530918.354,-19.531,-36.133,-8.301,-24.414,44.922
1687530918.358,-22.949,-35.645,-7.812,-31.738,-45.410
1687530918.361,-28.320,-38.086,-5.371,-41.504,-186.523
1687530918.365,-28.809,-44.434,-0.977,-36.133,0.488
1687530918.369,-32.715,-41.992,-1.953,-27.832,299.316
1687530918.373,-34.180,-43.457,-3.418,-36.621,32.227
1687530918.377,-33.691,-44.922,1.953,-42.969,-170.898
1687530918.395,-36.133,-41.992,1.465,-48.340,-13.672
1687530918.399,-36.621,-41.992,-3.418,-62.500,-0.488
1687530918.403,-31.738,-44.434,-7.812,-63.477,-38.574
1687530918.407,-18.555,-41.992,-7.324,-44.434,-62.988
1687530918.411,-28.320,-39.062,-10.742,-32.715,21.973
1687530918.415,-32.715,-36.621,-13.184,-36.621,34.668
1687530918.419,-22.949,-35.156,-11.719,-37.598,-114.258
1687530918.422,-16.602,-37.109,-12.207,-38.086,-74.707
1687530918.426,-21.484,-41.504,-12.695,-33.691,153.320
1687530918.430,-33.691,-43.945,-14.160,-37.598,27.832
1687530918.434,-35.156,-41.504,-12.207,-29.785,-174.316
1687530918.438,-30.762,-41.504,-7.812,-22.461,-79.102
1687530918.423,-27.344,-42.480,-8.789,-41.504,-115.234
1687530918.427,-22.461,-41.504,-10.254,-31.738,-158.691
1687530918.431,-24.902,-41.992,-12.695,-19.531,-127.930
1687530918.435,-30.273,-38.574,-14.648,-21.973,-57.129
1687530918.439,-31.250,-42.480,-16.113,-32.227,-9.277
1687530918.443,-33.691,-45.410,-17.090,-56.152,-66.895
1687530918.447,-38.086,-42.480,-14.648,-54.688,-12.695
1687530918.450,-47.852,-46.875,-17.578,-39.551,43.945
1687530918.454,-43.945,-44.434,-20.508,-46.875,-67.383
1687530918.458,-38.574,-38.574,-21.973,-52.246,-98.145
1687530918.462,-33.203,-41.992,-22.461,-52.246,-74.707
1687530918.466,-29.785,-41.504,-24.902,-46.387,107.910
1687530918.469,-46.387,-37.109,-28.320,-40.039,413.086
1687530918.473,-44.922,-36.621,-28.809,-53.223,163.574
1687530918.477,-33.203,-40.039,-25.879,-64.453,-115.234
1687530918.481,-37.598,-41.016,-25.879,-56.641,-72.754
1687530918.485,-24.902,-34.668,-27.832,-30.273,-190.430
1687530918.489,-29.785,-32.715,-29.785,-33.691,-87.891
1687530918.493,-52.734,-36.133,-31.738,-62.500,111.816
1687530918.496,-50.293,-36.621,-28.320,-63.965,347.656
1687530918.500,-40.039,-32.715,-25.391,-60.059,190.430
1687530918.504,-29.785,-37.598,-27.832,-58.105,-204.102
1687530918.508,-29.785,-38.086,-27.344,-43.945,-75.684
1687530918.512,-47.852,-34.668,-27.344,-39.062,24.414
1687530918.786,-48.340,-34.668,-30.273,-46.875,-127.441
1687530918.790,-36.133,-34.180,-31.250,-65.918,-262.207
1687530918.794,-37.109,-34.668,-30.273,-59.082,-136.230
1687530918.798,-41.504,-31.738,-25.879,-47.363,-22.461
1687530918.802,-52.246,-32.715,-24.414,-56.152,-61.035
1687530918.806,-50.293,-35.645,-30.273,-70.312,-92.773
1687530918.810,-41.504,-33.691,-34.180,-61.523,133.789
1687530918.813,-37.598,-35.156,-34.180,-50.293,185.059
1687530918.817,-36.133,-34.180,-35.645,-49.316,-59.570
1687530918.821,-42.969,-30.762,-37.109,-50.781,-141.602
1687530918.825,-42.969,-32.227,-40.039,-72.266,35.645
1687530918.829,-41.016,-34.668,-41.016,-70.312,152.832
1687530918.791,-45.410,-34.180,-41.504,-64.453,-92.773
1687530918.795,-42.480,-34.180,-40.039,-58.105,-124.023
1687530918.799,-47.363,-32.715,-36.133,-46.875,-76.172
1687530918.803,-48.340,-30.273,-35.645,-45.898,-84.961
1687530918.807,-35.156,-26.855,-36.621,-51.270,-141.113
1687530918.811,-20.020,-22.949,-39.551,-56.152,-82.520
1687530918.815,-19.043,-29.785,-39.062,-49.316,218.750
1687530918.818,-35.645,-32.715,-36.133,-40.527,135.742
1687530918.822,-42.480,-25.879,-34.668,-46.387,-148.438
1687530918.826,-40.039,-24.902,-31.250,-45.898,-73.730
1687530918.830,-36.621,-23.438,-31.250,-38.086,-33.691
1687530918.834,-28.320,-27.344,-36.621,-28.320,-47.852
1687530918.795,-29.297,-26.367,-35.156,-15.625,-179.199
1687530918.799,-30.273,-25.879,-27.832,-8.789,-111.816
1687530918.803,-27.832,-30.273,-33.203,-24.902,18.066
1687530918.807,-26.367,-27.832,-36.133,-37.109,-167.480
1687530918.811,-26.855,-31.738,-36.621,-31.738,-191.406
1687530918.815,-44.922,-32.227,-39.551,-26.855,61.035
1687530918.819,-51.758,-34.180,-38.086,-31.738,104.980
1687530918.822,-40.039,-37.598,-38.574,-42.480,-78.125
1687530918.826,-34.180,-37.598,-39.062,-35.645,-219.727
1687530918.830,-39.551,-40.527,-33.203,-26.367,53.223
1687530918.834,-48.828,-41.016,-35.156,-23.438,334.961
1687530918.838,-50.293,-38.574,-38.086,-20.996,-20.996
1687530918.797,-49.805,-40.527,-36.621,-30.762,-155.762
1687530918.801,-37.109,-41.504,-38.086,-38.574,-32.715
1687530918.805,-39.551,-37.598,-36.133,-37.598,-97.656
1687530918.809,-48.340,-37.598,-39.062,-26.855,-239.258
1687530918.813,-48.828,-38.086,-41.016,-21.484,-175.293
1687530918.817,-51.758,-37.598,-36.621,-30.762,114.746
1687530918.821,-44.922,-34.668,-39.062,-32.715,96.191
1687530918.824,-31.738,-27.832,-42.480,-32.715,-152.832
1687530918.828,-38.574,-27.344,-41.504,-28.320,-39.551
1687530918.832,-44.434,-29.785,-41.992,-18.555,102.051
1687530918.836,-33.203,-30.273,-38.086,-26.855,-70.801
1687530918.840,-21.973,-27.832,-33.691,-29.297,-207.520
1687530918.800,-13.672,-30.762,-34.180,-29.785,-141.602
1687530918.804,-12.695,-30.762,-34.180,-30.273,-80.566
1687530918.808,-22.461,-22.461,-34.668,-22.949,-111.816
1687530918.812,-16.113,-25.879,-37.109,-30.273,-112.305
1687530918.816,-11.230,-29.785,-41.016,-37.109,38.086
1687530918.820,-29.297,-36.133,-46.387,-34.668,119.141
1687530918.824,-31.738,-44.434,-36.133,-14.160,112.305
1687530918.827,-19.043,-31.250,-24.902,14.160,18.555
1687530918.831,-29.785,-17.090,-35.645,5.859,109.375
