timestamps,TP9,AF7,AF8,TP10,Right AUX
1687530768.154,-15.625,-37.598,-32.715,-13.672,-59.570
1687530768.158,-20.996,-34.668,-35.156,-23.926,-143.555
1687530768.162,-7.324,-34.180,-33.203,-20.996,-167.969
1687530768.166,5.371,-34.668,-34.180,-11.719,-52.246
1687530768.170,1.465,-35.156,-33.203,-3.418,-55.664
1687530768.174,-9.277,-38.574,-29.785,-7.812,2.930
1687530768.178,-9.277,-39.551,-34.668,-24.902,91.797
1687530768.181,0.488,-36.133,-40.039,-29.297,330.566
1687530768.185,8.301,-34.668,-39.062,-25.879,211.426
1687530768.189,13.184,-35.156,-43.945,-28.809,-90.820
1687530768.193,2.441,-39.551,-43.945,-34.180,53.223
1687530768.197,-14.160,-42.969,-39.551,-28.320,182.129
1687530776.321,-70.801,-29.297,-23.926,-61.035,17.578
1687530776.325,-61.035,-29.297,-28.809,-61.523,-21.484
1687530776.329,-44.434,-27.344,-27.344,-53.711,-45.410
1687530776.333,-41.992,-24.414,-24.414,-50.781,-56.152
1687530776.337,-55.664,-22.949,-26.367,-57.617,57.129
1687530776.341,-66.406,-22.461,-26.367,-57.129,93.750
1687530776.345,-56.152,-24.902,-26.855,-52.246,118.164
1687530776.348,-44.922,-26.855,-28.809,-48.340,153.809
1687530776.352,-44.434,-23.438,-26.367,-37.598,294.434
1687530776.356,-53.711,-22.461,-26.855,-31.250,319.824
1687530776.360,-59.082,-23.438,-25.391,-47.363,30.762
1687530776.364,-52.246,-28.320,-25.391,-52.734,-51.758
1687530811.503,-4.395,-23.926,22.949,-30.762,-97.168
1687530811.507,23.926,-20.996,20.020,-14.160,13.672
1687530811.511,17.090,-23.438,14.648,-26.855,2.441
1687530811.515,-18.066,-21.484,17.578,-46.387,-88.867
1687530811.519,-31.250,-18.555,22.949,-54.199,-156.738
1687530811.523,-0.977,-25.879,19.043,-21.484,-38.086
1687530811.527,27.832,-22.949,19.531,14.648,173.340
1687530811.530,2.441,-16.113,16.602,-10.742,93.262
1687530811.534,-37.598,-19.531,10.254,-36.133,-139.648
1687530811.538,-40.527,-23.438,9.766,-31.738,-150.391
1687530811.542,-20.996,-25.391,6.836,-20.508,-14.648
1687530811.546,11.719,-21.973,5.859,-7.324,45.898
1687530825.333,-5.371,-20.020,-31.250,-21.973,-68.359
1687530825.337,31.738,-19.531,-29.785,6.348,-41.504
1687530825.341,-5.371,-20.508,-22.949,-25.879,-45.898
1687530825.345,-64.941,-24.414,-30.762,-62.500,-197.266
1687530825.349,-70.312,-26.367,-35.645,-56.152,-189.453
1687530825.353,-33.691,-27.832,-31.250,-27.832,-57.129
1687530825.357,2.441,-26.855,-31.738,-7.324,194.336
1687530825.360,-17.090,-23.926,-36.133,-21.484,445.312
1687530825.364,-69.824,-26.367,-32.227,-62.500,25.879
1687530825.368,-89.844,-32.227,-28.809,-79.102,-280.762
1687530825.372,-53.223,-34.668,-29.297,-51.270,-23.926
1687530825.376,-0.977,-32.227,-30.273,-19.531,182.617
1687530825.378,-5.371,-31.738,-34.668,-28.320,-11.719
1687530825.382,-40.527,-33.203,-37.109,-64.941,-145.508
1687530825.386,-46.387,-31.250,-34.668,-89.355,-124.512
1687530825.390,-24.902,-27.832,-31.250,-62.500,-119.141
1687530825.394,12.695,-27.344,-28.809,-10.254,-67.871
1687530825.398,10.742,-33.203,-30.273,-14.648,15.137
1687530825.402,-46.875,-34.180,-33.691,-53.223,191.895
1687530825.405,-78.613,-33.203,-35.645,-65.430,-4.395
1687530825.409,-60.059,-36.133,-39.062,-47.852,-140.137
1687530825.413,-22.949,-38.574,-39.062,-16.602,99.609
1687530825.417,-17.578,-36.133,-40.527,-14.648,268.066
1687530825.421,-64.453,-37.109,-41.504,-54.688,35.645
1687530825.378,-5.371,-31.738,-34.668,-28.320,-11.719
1687530825.382,-40.527,-33.203,-37.109,-64.941,-145.508
1687530825.386,-46.387,-31.250,-34.668,-89.355,-124.512
1687530825.390,-24.902,-27.832,-31.250,-62.500,-119.141
1687530825.394,12.695,-27.344,-28.809,-10.254,-67.871
1687530825.398,10.742,-33.203,-30.273,-14.648,15.137
1687530825.402,-46.875,-34.180,-33.691,-53.223,191.895
1687530825.405,-78.613,-33.203,-35.645,-65.430,-4.395
1687530825.409,-60.059,-36.133,-39.062,-47.852,-140.137
1687530825.413,-22.949,-38.574,-39.062,-16.602,99.609
1687530825.417,-17.578,-36.133,-40.527,-14.648,268.066
1687530825.421,-64.453,-37.109,-41.504,-54.688,35.645
1687530825.378,-5.371,-31.738,-34.668,-28.320,-11.719
1687530825.382,-40.527,-33.203,-37.109,-64.941,-145.508
1687530825.386,-46.387,-31.250,-34.668,-89.355,-124.512
1687530825.390,-24.902,-27.832,-31.250,-62.500,-119.141
1687530825.394,12.695,-27.344,-28.809,-10.254,-67.871
1687530825.398,10.742,-33.203,-30.273,-14.648,15.137
1687530825.402,-46.875,-34.180,-33.691,-53.223,191.895
1687530825.405,-78.613,-33.203,-35.645,-65.430,-4.395
1687530825.409,-60.059,-36.133,-39.062,-47.852,-140.137
1687530825.413,-22.949,-38.574,-39.062,-16.602,99.609
1687530825.417,-17.578,-36.133,-40.527,-14.648,268.066
1687530825.421,-64.453,-37.109,-41.504,-54.688,35.645
1687530843.063,0.977,-25.879,-33.691,-26.367,-125.977
1687530843.067,-9.277,-30.762,-35.645,-34.180,-95.703
1687530843.071,-10.254,-28.809,-40.039,-35.156,-21.973
1687530843.075,-16.602,-28.320,-38.086,-39.551,-85.449
1687530843.079,-7.324,-32.227,-38.574,-42.969,-162.109
1687530843.083,12.207,-30.762,-35.156,-38.086,37.598
1687530843.087,11.230,-35.156,-30.273,-33.691,295.898
1687530843.090,11.719,-34.180,-28.320,-28.809,96.191
1687530843.094,17.578,-30.762,-27.344,-32.715,-131.348
1687530843.098,21.973,-31.738,-30.762,-41.992,-56.641
1687530843.102,19.531,-33.203,-36.133,-34.180,217.773
1687530843.106,18.555,-36.133,-34.668,-25.391,124.023
1687530843.107,-0.977,-39.551,-37.598,-44.434,-85.449
1687530843.111,-4.883,-38.574,-35.156,-32.715,-118.652
1687530843.115,-10.254,-34.668,-33.203,-26.367,30.273
1687530843.119,-23.438,-33.203,-31.250,-12.207,41.016
1687530843.122,-16.113,-29.785,-31.250,-11.230,-86.426
1687530843.126,-3.418,-24.902,-27.832,-19.531,-126.465
1687530843.130,3.418,-24.414,-25.879,-15.137,112.793
1687530843.134,-6.348,-26.855,-32.715,-11.719,352.051
1687530843.138,-27.344,-28.809,-37.109,-28.320,12.695
1687530843.153,-27.344,-30.273,-32.715,-29.297,-104.492
1687530843.157,-29.297,-32.227,-26.855,-17.578,-36.133
1687530843.161,-20.996,-36.621,-26.855,-17.090,-51.758
1687530843.165,-20.020,-32.715,-24.902,-20.508,-70.801
1687530843.169,-38.086,-34.180,-28.809,-28.320,-69.824
1687530843.173,-32.227,-36.133,-32.715,-22.461,64.453
1687530843.177,-9.277,-33.203,-28.809,-20.508,71.777
1687530843.180,-1.465,-37.598,-29.785,-31.250,-72.266
1687530843.184,-12.207,-38.086,-32.715,-28.809,-28.809
1687530843.188,-22.461,-37.109,-33.691,-23.926,230.469
1687530843.192,-16.602,-36.621,-33.203,-27.832,193.359
1687530843.196,-6.348,-32.227,-35.156,-22.461,-82.520
1687530843.198,6.348,-30.273,-36.133,-19.043,-59.570
1687530843.202,-1.465,-30.762,-36.621,-13.672,247.070
1687530843.206,-14.160,-28.320,-35.645,-19.531,80.078
1687530843.210,-11.230,-29.297,-33.203,-34.180,-99.121
1687530843.214,-5.859,-31.738,-34.180,-36.133,-76.660
1687530843.218,-10.254,-29.785,-33.691,-21.973,-60.059
1687530843.222,-22.949,-30.273,-27.832,-16.113,16.602
1687530843.225,-31.738,-30.273,-25.879,-29.297,-74.707
1687530843.229,-37.598,-32.227,-29.297,-33.691,-5.859
1687530843.233,-45.410,-33.203,-26.367,-26.855,104.492
1687530843.237,-34.180,-29.297,-23.926,-26.367,-101.562
1687530843.241,-23.926,-29.785,-24.902,-36.621,-66.895
1687530843.244,-37.109,-32.227,-26.855,-39.551,-4.883
1687530843.248,-40.039,-29.297,-30.762,-51.758,-35.645
1687530843.252,-24.902,-25.879,-30.762,-65.918,18.555
1687530843.256,-24.414,-26.855,-32.227,-64.941,-17.090
1687530843.260,-25.879,-27.344,-29.785,-56.641,61.523
1687530843.264,-28.320,-30.762,-31.250,-62.988,171.387
1687530843.268,-38.086,-35.645,-35.645,-70.312,94.727
1687530843.271,-29.785,-34.668,-33.203,-70.312,22.949
1687530843.275,-15.137,-34.668,-29.785,-58.105,195.801
1687530843.279,-10.254,-35.645,-29.785,-49.805,111.816
1687530843.283,-20.996,-36.133,-31.250,-52.734,-46.387
1687530843.287,-23.926,-36.133,-28.809,-49.316,-0.977
1687530843.288,-13.184,-36.133,-30.762,-42.480,26.367
1687530843.292,-23.926,-43.945,-32.227,-49.316,-152.344
1687530843.296,-24.414,-43.457,-27.344,-41.016,-196.289
1687530843.300,-21.484,-39.062,-25.879,-36.621,-132.324
1687530843.304,-40.039,-38.086,-27.832,-43.457,-115.723
1687530843.308,-39.062,-38.574,-25.879,-43.457,-18.066
1687530843.312,-24.414,-42.480,-24.902,-50.781,2.930
1687530843.315,-18.555,-39.062,-25.391,-53.223,104.980
1687530843.319,-30.273,-35.156,-27.344,-51.270,264.160
1687530843.323,-36.621,-40.527,-28.320,-59.570,14.648
1687530843.327,-29.297,-42.480,-27.832,-60.059,-108.887
1687530843.331,-32.715,-38.574,-28.809,-66.895,-75.684
1687530843.333,-30.762,-39.551,-27.344,-65.918,-152.832
1687530843.337,-32.715,-43.457,-28.809,-59.570,-159.668
1687530843.341,-44.434,-38.574,-28.320,-60.547,-57.129
1687530843.345,-38.086,-33.203,-28.320,-64.453,2.930
1687530843.349,-33.691,-36.621,-36.133,-73.730,-79.102
1687530843.353,-29.297,-36.133,-34.668,-76.660,-8.789
1687530843.357,-31.250,-34.668,-34.180,-67.871,108.887
1687530843.360,-42.480,-35.645,-41.504,-73.730,326.660
1687530843.364,-52.246,-37.109,-42.480,-85.449,241.211
1687530843.368,-50.293,-36.621,-41.992,-84.961,-79.590
1687530843.372,-45.898,-34.668,-41.992,-76.172,14.160
1687530843.376,-46.875,-33.691,-43.457,-66.406,125.000
1687530843.378,-46.875,-33.691,-41.016,-61.035,-52.246
1687530843.382,-55.176,-35.156,-32.227,-67.383,-47.852
1687530843.386,-55.176,-37.109,-31.738,-79.590,18.555
1687530843.390,-45.898,-41.016,-37.109,-79.102,-79.590
1687530843.394,-43.945,-38.086,-37.109,-76.660,-93.262
1687530843.398,-64.453,-34.180,-34.668,-74.707,-50.293
1687530843.402,-66.895,-36.133,-32.227,-66.895,173.828
1687530843.405,-51.270,-38.086,-30.762,-62.988,260.254
1687530843.409,-45.410,-34.668,-33.691,-72.266,-37.109
1687530843.413,-41.504,-33.691,-38.086,-81.055,-65.918
1687530843.417,-51.270,-36.621,-39.551,-79.590,110.352
1687530843.421,-56.152,-35.156,-37.109,-78.125,-5.859
1687530843.423,-40.527,-32.715,-31.250,-83.008,-179.688
1687530843.427,-42.480,-34.668,-28.809,-83.984,-125.000
1687530843.431,-35.156,-32.227,-30.762,-66.406,-30.273
1687530843.435,-39.062,-29.297,-32.227,-57.129,-34.180
1687530843.439,-50.293,-30.762,-33.691,-62.988,-102.539
1687530843.443,-39.062,-27.344,-31.738,-67.383,-92.773
1687530843.447,-31.250,-26.367,-29.785,-61.523,174.316
1687530843.450,-22.461,-31.250,-34.668,-63.965,93.750
1687530843.454,-26.367,-34.180,-42.969,-71.289,-106.445
1687530843.458,-42.969,-31.738,-41.016,-63.477,-46.387
1687530843.462,-34.180,-28.809,-37.598,-61.035,2.441
1687530843.466,-23.438,-25.879,-32.227,-53.711,-107.910
1687530843.516,-15.137,-28.320,-33.203,-46.387,-165.039
1687530843.520,-17.578,-27.344,-35.645,-41.016,-19.043
1687530843.524,-47.852,-25.391,-33.203,-39.551,193.848
1687530843.528,-51.758,-29.785,-37.598,-46.875,-5.859
1687530843.532,-19.531,-25.391,-39.551,-46.875,-169.434
1687530843.536,-6.348,-21.973,-38.086,-44.922,-77.637
1687530843.540,-18.066,-24.902,-43.945,-37.109,3.418
1687530843.543,-31.250,-28.320,-42.969,-37.109,-76.172
1687530843.547,-26.855,-28.320,-42.969,-43.457,-174.805
1687530843.551,-21.484,-23.438,-46.387,-37.598,-59.082
1687530843.555,-21.973,-24.414,-45.898,-40.039,-21.973
1687530843.559,-18.555,-26.855,-45.898,-46.875,-157.715
1687530843.528,-26.367,-25.879,-41.992,-55.664,-157.715
1687530843.532,-36.133,-29.785,-43.457,-57.129,-73.242
1687530843.536,-21.973,-28.809,-42.969,-44.922,-4.395
1687530843.540,-12.207,-27.344,-37.598,-46.875,-97.168
1687530843.544,-21.484,-32.227,-38.574,-41.504,-64.453
1687530843.548,-32.227,-31.738,-36.621,-35.645,215.820
1687530843.552,-30.273,-26.367,-31.738,-37.598,192.383
1687530843.555,-26.367,-28.809,-33.691,-36.133,-43.457
1687530843.559,-25.391,-28.320,-39.062,-42.480,-48.828
1687530843.563,-26.367,-26.855,-38.086,-47.852,204.102
1687530843.567,-35.645,-29.785,-37.598,-45.410,134.766
1687530843.571,-37.109,-30.273,-40.039,-47.363,-135.254
1687530843.573,-22.461,-33.691,-41.992,-52.734,-98.145
1687530843.577,-16.113,-31.250,-38.086,-49.805,33.203
1687530843.581,-17.090,-26.367,-40.039,-39.551,-88.867
1687530843.585,-26.367,-22.461,-38.086,-43.945,-126.953
1687530843.589,-31.250,-21.973,-33.691,-50.781,-7.812
1687530843.593,-23.926,-21.973,-32.715,-53.711,12.207
1687530843.597,-7.812,-19.531,-29.785,-43.945,-106.445
1687530843.600,-5.371,-20.996,-33.203,-33.203,-137.207
1687530843.604,-15.625,-21.973,-34.668,-40.039,19.043
1687530843.608,-17.578,-23.438,-32.227,-41.016,110.352
1687530843.612,-21.973,-24.414,-35.156,-46.387,-124.512
1687530843.616,-18.555,-30.762,-34.668,-54.688,-183.594
1687530843.618,-8.789,-36.133,-30.762,-50.293,-49.316
1687530843.622,-18.555,-32.715,-30.273,-38.086,-52.246
1687530843.626,-25.879,-29.297,-31.250,-44.922,-159.180
1687530843.630,-19.531,-30.273,-35.156,-42.969,-136.719
1687530843.634,-10.254,-32.227,-32.715,-28.320,-58.105
1687530843.638,-4.395,-30.762,-28.320,-19.531,-25.391
1687530843.642,-12.695,-26.855,-28.809,-22.949,-26.367
1687530843.645,-21.484,-27.344,-29.297,-19.531,-52.246
1687530843.649,-23.926,-27.832,-34.180,-10.742,245.117
1687530843.653,-13.184,-29.785,-36.133,-17.578,223.633
1687530843.657,-4.395,-29.785,-31.250,-16.602,-34.668
1687530843.661,-16.113,-34.180,-28.320,-18.066,-14.648
1687530843.663,-24.414,-33.203,-28.320,-21.973,90.820
1687530843.667,-12.207,-29.297,-31.250,-21.973,-81.543
1687530843.671,-3.418,-29.297,-31.250,-5.859,-208.496
1687530843.675,8.789,-27.832,-27.344,-11.719,-169.922
1687530843.679,-4.883,-31.250,-31.738,-19.043,-137.695
1687530843.683,-19.531,-38.574,-35.645,-18.066,-47.363
1687530843.687,-19.043,-36.621,-31.738,-29.785,-24.902
1687530843.690,-22.949,-33.203,-27.832,-32.227,69.824
1687530843.694,-26.855,-37.598,-29.297,-29.297,210.938
1687530843.698,-21.484,-35.156,-33.203,-33.691,33.691
1687530843.702,-23.438,-32.227,-29.785,-24.902,-86.914
1687530843.706,-30.762,-34.668,-28.320,-26.855,-0.977
1687530843.709,-21.973,-36.133,-29.785,-36.133,-47.852
1687530843.713,-14.648,-34.180,-32.227,-39.551,-161.133
1687530843.717,-27.344,-32.227,-31.250,-35.645,-121.094
1687530843.721,-43.945,-37.109,-30.762,-24.902,-36.133
1687530843.725,-39.062,-39.551,-31.250,-26.855,-83.496
1687530843.729,-26.855,-37.598,-29.297,-28.809,-61.523
1687530843.733,-28.320,-36.133,-32.227,-20.020,31.250
1687530843.736,-29.297,-34.180,-35.645,-18.066,272.949
1687530843.740,-36.621,-32.715,-36.133,-23.926,178.711
1687530843.744,-42.969,-32.227,-36.621,-32.715,-142.578
1687530843.748,-27.344,-29.785,-31.250,-30.273,-46.875
1687530843.752,-20.020,-30.762,-31.250,-21.484,247.559
1687530843.755,-25.879,-34.180,-31.250,-21.484,57.617
1687530843.759,-35.645,-36.621,-30.762,-26.367,-107.910
1687530843.763,-44.434,-35.645,-33.691,-27.344,-31.250
1687530843.767,-36.621,-32.715,-34.668,-20.996,-41.016
1687530843.771,-20.508,-35.156,-35.645,-25.391,-64.941
1687530843.775,-18.555,-35.156,-37.109,-30.762,-79.102
1687530843.779,-28.320,-29.297,-33.691,-36.133,140.137
1687530843.782,-33.203,-31.738,-35.645,-38.574,256.836
1687530843.786,-22.949,-35.645,-40.039,-47.852,-10.254
1687530843.790,-10.742,-33.203,-39.551,-53.711,-110.352
1687530843.794,-5.371,-28.809,-36.621,-39.551,-58.594
1687530843.798,-14.648,-29.297,-38.574,-41.992,-67.383
1687530843.800,-22.461,-29.297,-38.086,-49.316,-77.148
1687530843.804,-19.043,-32.227,-34.180,-49.316,4.395
1687530843.808,-15.137,-36.133,-36.621,-41.504,117.188
1687530843.812,-24.902,-37.598,-38.086,-38.086,1.953
1687530843.816,-34.668,-46.387,-32.227,-41.504,-159.180
1687530843.820,-38.086,-49.316,-35.156,-26.367,-42.480
1687530843.824,-40.527,-33.203,-40.039,-20.996,286.133
1687530843.827,-41.016,-24.414,-43.457,-37.109,205.566
1687530843.831,-39.062,-20.508,-43.945,-52.734,-111.328
1687530843.835,-42.480,-19.531,-44.434,-54.688,-42.480
1687530843.839,-59.570,-14.648,-56.152,-59.570,71.777
1687530843.843,-71.777,-2.441,-65.918,-59.570,-37.109
1687530843.843,-61.523,2.441,-67.383,-65.918,-50.293
1687530843.847,-66.895,6.348,-75.195,-82.520,0.488
1687530843.851,-76.172,10.254,-81.055,-102.539,19.531
1687530843.855,-83.496,14.648,-85.449,-115.234,-57.617
1687530843.859,-84.473,16.602,-86.426,-111.816,-106.934
1687530843.863,-81.543,17.578,-86.426,-118.652,41.016
1687530843.867,-97.168,18.555,-87.891,-116.211,341.309
1687530843.870,-93.262,20.508,-92.285,-101.562,97.168
1687530843.874,-96.191,21.973,-102.539,-119.141,-123.047
1687530843.878,-101.562,21.973,-102.539,-123.047,-52.734
1687530843.882,-88.379,23.438,-101.562,-122.559,-86.426
1687530843.886,-92.285,20.020,-101.562,-122.559,-107.910
1687530843.903,-92.773,16.113,-102.539,-106.934,-95.215
1687530843.907,-83.984,17.090,-99.609,-106.445,-42.969
1687530843.911,-78.613,18.555,-93.750,-100.586,-47.363
1687530843.915,-62.500,18.066,-91.797,-90.332,-120.605
1687530843.919,-58.594,15.625,-88.867,-97.168,-83.496
1687530843.923,-60.059,15.137,-86.914,-92.773,4.883
1687530843.927,-60.059,11.719,-84.473,-80.078,-10.254
1687530843.930,-69.824,6.348,-83.008,-72.266,-35.645
1687530843.934,-61.035,9.766,-77.148,-62.500,-13.184
1687530843.938,-52.246,6.348,-72.266,-55.176,-11.719
1687530843.942,-51.270,2.441,-74.219,-50.781,20.020
1687530843.946,-53.223,2.930,-67.871,-54.199,3.418
1687530843.948,-62.988,-0.488,-61.035,-49.316,-15.137
1687530843.952,-44.434,-3.418,-59.082,-34.180,339.844
1687530843.956,-35.645,-1.953,-59.082,-47.852,356.934
1687530843.960,-40.527,2.441,-61.523,-53.223,-3.906
1687530843.964,-46.875,3.906,-57.617,-43.457,2.441
1687530843.968,-49.805,2.441,-55.176,-49.316,127.930
1687530843.972,-35.645,-0.488,-54.199,-40.039,48.828
1687530843.975,-26.367,-3.906,-52.246,-27.344,-75.195
1687530843.979,-21.484,-4.883,-53.223,-19.531,102.539
1687530843.983,-14.160,-7.324,-54.199,-20.020,376.953
1687530843.987,-30.762,-14.160,-55.176,-39.551,108.887
1687530843.991,-32.715,-16.113,-52.246,-32.227,-120.117
1687530843.993,-12.207,-12.207,-44.434,-16.602,-69.824
1687530843.997,-8.301,-16.113,-40.039,-24.414,-81.055
1687530844.001,-13.672,-23.438,-43.457,-28.809,-112.305
1687530844.005,-17.578,-25.391,-46.387,-31.250,-77.637
1687530844.009,-21.484,-21.484,-42.969,-38.574,-45.410
1687530844.013,-21.973,-19.043,-39.551,-32.715,7.324
1687530844.017,-19.531,-20.996,-39.062,-21.973,44.922
1687530844.020,-13.672,-16.602,-37.598,-23.438,22.949
1687530844.024,-16.602,-15.625,-37.109,-26.367,240.723
1687530844.028,-13.184,-20.020,-41.504,-27.344,154.785
1687530844.032,-10.254,-21.973,-42.969,-21.484,-44.434
1687530844.036,-7.812,-20.020,-38.086,-22.461,98.145
1687530844.038,-3.418,-20.996,-38.574,-22.949,261.230
1687530844.042,-9.277,-22.949,-39.551,-26.855,-25.391
1687530844.046,-10.254,-22.949,-33.203,-32.227,-164.062
1687530844.050,-0.488,-24.902,-32.715,-22.461,-97.656
1687530844.054,13.184,-22.949,-34.180,-10.742,-111.328
1687530844.058,10.742,-20.996,-31.250,-5.371,-81.543
1687530844.062,-13.672,-23.438,-32.227,-17.578,-32.715
1687530844.065,-19.531,-24.902,-33.691,-21.484,93.262
1687530844.069,-2.930,-23.438,-30.762,-19.043,200.684
1687530844.073,15.137,-21.973,-29.297,-10.742,-7.324
1687530844.077,4.883,-23.438,-28.320,3.418,-125.000
1687530844.081,-18.066,-22.461,-30.762,-4.883,-100.098
1687530844.084,-14.160,-22.461,-31.250,-10.742,-77.148
1687530844.088,3.906,-22.949,-30.762,-11.230,-50.781
1687530844.092,19.531,-22.461,-31.250,-8.301,-42.969
1687530844.096,22.461,-22.949,-23.926,0.000,80.566
1687530844.100,2.930,-25.391,-23.926,-0.977,29.297
1687530844.104,-15.137,-30.273,-27.344,-2.930,-27.344
1687530844.108,-11.719,-28.809,-26.367,-4.395,24.902
1687530844.111,3.418,-23.926,-21.973,0.488,214.844
1687530844.115,14.648,-22.461,-18.555,24.414,49.805
1687530844.119,10.254,-23.438,-19.043,19.043,-174.316
1687530844.123,4.883,-26.855,-21.484,-6.348,-76.660
1687530844.127,7.324,-27.344,-24.902,-14.160,-4.395
1687530844.128,9.277,-30.762,-25.879,-9.277,-109.863
1687530844.132,10.742,-29.297,-27.344,-10.254,-180.176
1687530844.136,5.859,-26.855,-24.414,-15.625,-133.789
1687530844.140,-5.371,-26.855,-21.484,-9.277,-32.227
1687530844.144,-1.465,-25.391,-26.855,-11.230,-50.293
1687530844.148,1.465,-23.438,-25.391,-8.301,-35.156
1687530844.152,-2.441,-29.297,-28.809,-8.301,121.582
1687530844.155,1.465,-34.180,-29.297,3.906,310.547
1687530844.159,-4.395,-30.762,-22.461,0.977,40.527
1687530844.163,-5.859,-27.832,-24.902,-12.207,-161.621
1687530844.167,0.488,-29.297,-26.855,-4.883,-40.039
1687530844.171,15.137,-28.809,-26.855,0.000,-98.633
1687530844.174,12.207,-25.879,-28.809,-1.465,-153.809
1687530844.178,-15.625,-27.344,-34.180,-3.418,-106.934
1687530844.182,-7.324,-25.879,-33.691,-3.906,-40.039
1687530844.186,15.137,-24.414,-29.297,-5.371,-55.176
1687530844.190,20.020,-25.879,-25.391,-14.648,-126.465
1687530844.194,18.066,-28.320,-23.438,-11.719,-24.902
1687530844.198,4.395,-32.227,-26.855,6.836,297.363
1687530844.201,5.859,-35.645,-26.367,6.836,151.367
1687530844.205,20.020,-35.645,-24.414,-4.395,-165.039
1687530844.209,8.789,-37.598,-29.785,-8.789,-98.633
1687530844.213,-0.977,-34.180,-34.668,-6.836,289.551
1687530844.217,-6.348,-29.297,-31.250,-9.277,183.105
1687530844.219,-14.648,-31.738,-33.203,-10.254,-134.766
1687530844.223,-9.277,-29.297,-36.621,-12.695,-105.469
1687530844.227,3.906,-29.297,-35.156,-17.090,-113.770
1687530844.231,0.977,-29.785,-33.203,-18.555,-108.398
1687530844.235,-17.578,-31.250,-39.551,-33.203,-81.543
1687530844.239,-4.395,-27.832,-47.363,-25.391,27.344
1687530844.243,16.113,-23.438,-35.645,0.488,73.730
1687530844.246,-2.441,-40.527,-17.090,-10.254,-46.387
1687530844.250,-12.695,-54.688,-13.184,-22.949,-54.688
1687530844.254,-16.113,-57.617,-18.066,-20.020,98.633
1687530844.258,-28.320,-58.105,-16.602,-14.160,210.938
1687530844.262,-25.391,-61.035,-8.789,-17.578,18.555
1687530844.266,-23.438,-69.336,-0.488,-26.367,-77.148
1687530844.270,-27.832,-76.172,5.859,-24.414,-9.277
1687530844.274,-24.414,-83.496,2.930,-10.254,-64.453
1687530844.278,-29.297,-85.449,4.395,0.488,-120.605
1687530844.282,-31.738,-88.867,12.695,-9.766,-68.359
1687530844.286,-26.855,-100.098,15.625,-12.207,-26.855
1687530844.290,-36.133,-104.004,14.648,-12.207,-45.898
1687530844.293,-45.410,-104.492,16.602,-8.301,-127.930
1687530844.297,-45.410,-105.469,21.973,-14.648,-100.098
1687530844.301,-46.875,-109.863,24.902,-20.508,211.914
1687530844.305,-44.434,-111.328,29.297,-11.230,94.238
1687530844.309,-47.363,-113.281,33.691,-13.184,-94.727
1687530844.325,-53.711,-117.676,27.832,-14.160,-38.574
1687530844.329,-44.434,-110.840,24.902,-13.672,-61.523
1687530844.333,-41.016,-101.562,20.996,-15.137,-129.883
1687530844.337,-31.250,-99.609,15.625,-10.254,-212.891
1687530844.341,-24.414,-98.145,15.625,0.488,-137.695
1687530844.345,-31.250,-94.238,12.695,2.441,360.352
1687530844.349,-34.180,-98.633,2.930,-12.207,272.949
1687530844.352,-35.645,-94.238,0.000,-20.996,-83.008
1687530844.356,-29.297,-84.473,4.395,-14.648,1.465
1687530844.360,-20.508,-79.590,3.906,-9.277,30.762
1687530844.364,-24.902,-73.730,1.953,-11.719,-95.215
1687530844.368,-35.156,-74.219,-1.953,-15.625,-102.539
1687530844.368,-36.621,-73.242,-6.836,-16.602,-13.184
1687530844.372,-34.180,-67.383,-8.789,-12.207,-68.359
1687530844.376,-28.320,-67.383,-6.348,-15.625,-175.293
1687530844.380,-16.602,-63.965,-5.371,-6.348,-76.172
1687530844.384,-22.461,-63.477,-10.742,3.418,36.133
1687530844.388,-30.762,-61.035,-14.160,-5.371,0.488
1687530844.392,-26.367,-54.688,-17.090,-4.395,-61.523
1687530844.395,-25.391,-50.781,-17.090,-8.789,-37.109
1687530844.399,-24.414,-53.711,-17.090,-19.043,187.988
1687530844.403,-14.648,-51.758,-18.066,-16.602,129.883
1687530844.407,-15.137,-48.828,-18.555,-19.531,-47.363
1687530844.411,-19.043,-47.852,-16.602,-28.320,-48.340
1687530844.413,-25.879,-47.852,-8.301,-28.320,83.984
1687530844.417,-19.531,-45.410,-9.766,-30.762,-95.215
1687530844.421,-10.254,-45.898,-17.578,-43.945,-166.992
1687530844.425,-14.160,-47.852,-26.855,-57.129,53.711
1687530844.429,-11.230,-46.875,-27.344,-59.082,10.254
1687530844.433,-11.719,-43.457,-25.391,-58.105,-42.480
1687530844.437,-10.254,-46.387,-28.320,-53.711,-4.395
1687530844.440,-19.043,-48.828,-26.367,-53.711,104.980
1687530844.444,-34.180,-49.805,-27.344,-54.199,160.645
1687530844.448,-40.039,-44.922,-28.809,-50.781,-141.602
1687530844.452,-45.410,-42.969,-26.855,-60.547,-213.379
1687530844.456,-50.293,-45.410,-26.855,-70.801,-113.770
1687530844.458,-50.781,-44.434,-27.832,-61.035,-67.871
1687530844.462,-47.852,-45.410,-27.344,-50.293,-81.543
1687530844.466,-50.293,-41.992,-28.320,-54.688,-88.379
1687530844.470,-48.340,-37.598,-27.344,-60.059,-5.859
1687530844.474,-33.203,-34.180,-27.344,-47.852,-43.945
1687530844.478,-29.785,-33.691,-28.320,-42.969,43.457
1687530844.482,-33.691,-32.715,-30.762,-52.734,112.305
1687530844.485,-30.762,-34.668,-28.809,-50.293,275.879
1687530844.489,-30.762,-40.039,-26.367,-60.059,212.891
1687530844.493,-31.250,-38.574,-31.738,-68.848,-137.695
1687530844.497,-31.250,-33.691,-34.180,-58.105,40.039
1687530844.501,-26.855,-34.668,-33.203,-56.641,288.574
1687530844.504,-23.926,-37.109,-31.250,-70.312,53.223
1687530844.508,-14.648,-36.621,-31.738,-77.637,-118.652
1687530844.512,-7.324,-34.180,-29.785,-75.195,-79.590
1687530844.516,3.418,-33.203,-28.320,-77.148,-137.695
1687530844.520,15.625,-29.785,-33.203,-72.754,-177.246
1687530844.524,2.930,-30.273,-31.250,-67.383,-102.051
1687530844.528,-15.625,-31.738,-32.227,-66.406,121.094
1687530844.531,-14.648,-31.250,-30.762,-42.969,267.578
1687530844.535,-10.254,-35.645,-27.832,-37.598,-68.359
1687530844.539,-23.926,-38.086,-33.203,-47.363,-160.156
1687530844.543,-35.645,-37.598,-32.715,-42.480,-21.973
1687530844.547,-34.668,-38.574,-34.180,-35.156,-108.398
1687530844.563,-29.297,-39.062,-36.621,-43.457,-220.703
1687530844.567,-23.926,-33.203,-33.203,-43.945,-125.488
1687530844.571,-20.508,-34.180,-35.156,-34.668,-23.438
1687530844.575,-21.973,-37.598,-36.621,-44.434,-94.727
1687530844.579,-29.785,-31.738,-34.180,-53.711,-133.301
1687530844.583,-25.879,-32.227,-38.086,-59.570,3.418
1687530844.587,-24.902,-36.133,-40.527,-55.176,303.711
1687530844.590,-30.273,-44.434,-39.551,-53.711,102.539
1687530844.594,-36.133,-47.363,-36.133,-60.059,-140.625
1687530844.598,-34.180,-39.551,-40.039,-49.316,-96.191
1687530844.602,-30.762,-39.062,-42.480,-44.434,170.410
1687530844.606,-28.809,-37.598,-36.621,-45.898,164.551
1687530844.593,-20.996,-35.645,-31.738,-38.086,-127.930
1687530844.597,-23.438,-36.621,-32.715,-41.992,-116.211
1687530844.601,-34.180,-38.574,-29.785,-34.180,124.512
1687530844.605,-36.621,-38.574,-28.809,-41.992,-59.570
1687530844.609,-31.250,-36.621,-29.785,-39.551,-189.453
1687530844.613,-27.832,-38.574,-28.320,-31.250,58.105
1687530844.617,-24.902,-36.133,-33.691,-31.738,187.988
1687530844.620,-30.762,-35.645,-33.691,-20.508,19.531
1687530844.624,-31.738,-33.691,-27.344,-14.648,-100.098
1687530844.628,-26.855,-34.180,-30.762,-15.137,-21.484
1687530844.632,-22.461,-35.645,-33.203,-11.719,0.977
1687530844.636,-27.832,-37.109,-31.738,-16.602,-102.051
1687530844.653,-47.363,-41.504,-34.180,-25.879,-83.984
1687530844.657,-42.480,-42.969,-28.320,-13.184,21.973
1687530844.661,-20.020,-34.668,-20.020,1.465,-11.719
1687530844.665,-20.020,-27.344,-30.762,-22.949,-119.141
1687530844.669,-28.809,-31.738,-42.480,-35.156,-70.312
1687530844.673,-32.227,-29.785,-43.457,-39.062,71.777
1687530844.677,-40.039,-32.227,-47.363,-46.875,20.508
1687530844.680,-29.297,-36.133,-45.410,-32.227,-80.566
1687530844.684,-8.301,-29.785,-42.969,-11.719,-89.355
1687530844.688,-1.953,-29.297,-41.992,-4.883,190.918
1687530844.692,-6.836,-31.250,-37.109,-16.113,175.293
1687530844.696,-17.090,-30.273,-36.621,-26.855,-114.258
1687530844.699,-24.414,-28.320,-36.621,-24.902,-111.328
1687530844.703,-19.531,-24.902,-38.574,-9.766,-4.883
1687530844.707,-14.160,-24.902,-43.945,-9.766,-48.340
1687530844.711,-21.484,-25.391,-40.039,-21.484,-130.371
1687530844.715,-35.645,-28.320,-36.621,-21.973,-93.750
1687530844.719,-31.250,-29.785,-38.086,-19.043,131.348
1687530844.723,-18.555,-32.227,-35.645,-5.371,83.984
1687530844.726,-11.719,-33.691,-32.227,-1.953,-106.934
1687530844.730,-12.695,-32.715,-35.645,-16.113,-4.395
1687530844.734,-23.926,-29.785,-28.320,-10.742,197.266
1687530844.738,-31.250,-27.344,-24.414,-13.672,-37.598
1687530844.742,-30.762,-28.320,-31.738,-19.043,-134.766
1687530844.743,-16.602,-27.344,-27.832,-15.625,-27.832
1687530844.747,-19.531,-23.926,-29.785,-17.090,-38.086
1687530844.751,-40.039,-26.367,-37.109,-24.414,-65.430
1687530844.755,-46.875,-30.273,-40.527,-30.273,-106.934
1687530844.759,-39.062,-23.926,-37.109,-24.902,-24.902
1687530844.763,-17.578,-18.555,-34.180,-18.555,25.879
1687530844.767,-16.113,-23.926,-37.109,-24.902,13.672
1687530844.770,-38.086,-31.738,-35.645,-28.809,-35.645
1687530844.774,-44.922,-33.203,-34.668,-19.043,117.188
1687530844.778,-39.551,-32.715,-33.691,-22.949,104.492
1687530844.782,-31.250,-33.691,-31.738,-31.738,-67.383
1687530844.786,-41.016,-33.203,-30.273,-35.645,10.742
1687530844.788,-61.035,-32.227,-28.320,-32.227,136.230
1687530844.792,-64.453,-29.297,-30.762,-28.320,-21.484
1687530844.796,-62.012,-24.902,-36.621,-26.367,-107.910
1687530844.800,-45.410,-26.367,-34.668,-24.902,-83.496
1687530844.804,-36.621,-29.297,-33.203,-30.273,-88.379
1687530844.808,-51.270,-29.297,-36.133,-31.738,-79.590
1687530844.812,-62.012,-27.344,-36.621,-26.367,-136.719
1687530844.815,-59.570,-29.297,-35.645,-28.809,8.789
1687530844.819,-44.434,-31.250,-39.551,-30.273,356.934
1687530844.823,-38.086,-28.809,-43.457,-39.551,103.516
1687530844.827,-52.734,-29.297,-36.621,-43.945,-161.133
1687530844.831,-72.266,-36.621,-41.016,-45.410,-38.086
1687530844.833,-68.359,-36.133,-39.062,-38.574,-36.133
1687530844.837,-51.758,-35.156,-36.133,-32.715,-65.918
1687530844.841,-42.480,-35.156,-43.457,-47.852,-40.039
1687530844.845,-46.387,-31.250,-37.598,-48.828,-31.738
1687530844.849,-64.453,-31.738,-34.668,-47.363,-71.289
1687530844.853,-67.871,-31.738,-36.133,-45.898,-9.277
1687530844.857,-53.223,-28.809,-36.621,-42.480,47.363
1687530844.860,-40.039,-29.785,-41.016,-53.223,187.988
1687530844.864,-47.852,-32.227,-41.504,-57.129,95.703
1687530844.868,-58.105,-31.738,-37.598,-53.223,-139.648
1687530844.872,-56.641,-33.203,-34.180,-57.617,-45.898
1687530844.876,-44.434,-33.203,-39.062,-49.805,214.355
1687530844.879,-29.785,-33.203,-47.852,-75.684,79.590
1687530844.883,-33.691,-30.273,-50.293,-92.285,-129.395
1687530844.887,-44.434,-27.344,-45.410,-72.754,-81.543
1687530844.891,-50.293,-30.273,-41.992,-79.590,-38.086
1687530844.895,-39.062,-34.668,-47.852,-79.102,-78.613
1687530844.899,-20.020,-35.645,-48.828,-78.613,-126.465
1687530844.903,-30.762,-39.062,-43.945,-85.938,104.492
1687530844.906,-52.734,-40.039,-36.133,-78.125,251.465
1687530844.910,-62.012,-39.062,-39.062,-73.242,-63.965
1687530844.914,-58.105,-36.621,-46.387,-71.289,-149.414
1687530844.918,-41.504,-35.645,-41.992,-79.102,10.254
1687530844.922,-44.922,-33.691,-41.504,-86.914,52.246
1687530844.925,-64.941,-31.250,-43.457,-90.332,16.602
1687530844.929,-74.707,-35.156,-39.062,-87.891,-32.227
1687530844.933,-55.664,-34.668,-48.340,-81.543,94.238
1687530844.937,-32.227,-30.762,-51.270,-82.031,44.922
1687530844.941,-34.180,-32.715,-43.457,-87.891,-104.980
1687530844.945,-53.711,-33.203,-44.922,-82.031,38.086
1687530844.949,-58.105,-30.273,-44.922,-62.500,320.312
1687530844.952,-41.992,-29.785,-40.039,-51.758,154.785
1687530844.956,-19.043,-29.785,-40.527,-53.711,-79.102
1687530844.960,-13.672,-30.762,-42.969,-61.035,-47.363
1687530844.964,-40.039,-33.203,-45.410,-67.383,52.246
1687530844.968,-59.570,-37.109,-45.898,-60.547,-90.820
1687530844.969,-56.641,-38.574,-44.922,-59.570,-187.012
1687530844.973,-41.992,-37.598,-47.852,-60.547,-98.145
1687530844.977,-26.367,-39.551,-48.340,-58.594,-0.977
1687530844.981,-35.645,-35.156,-46.875,-60.547,-23.438
1687530844.985,-52.734,-34.668,-45.410,-54.199,-130.371
1687530844.989,-47.363,-35.645,-45.410,-42.969,5.859
1687530844.993,-30.762,-34.180,-46.387,-28.320,304.199
1687530844.996,-19.531,-35.645,-48.340,-36.133,40.527
1687530845.000,-29.785,-38.086,-49.316,-40.039,-145.996
1687530845.004,-48.340,-33.203,-54.199,-41.504,-49.805
1687530845.008,-50.293,-32.227,-61.035,-47.363,-62.500
1687530845.012,-39.062,-36.133,-56.641,-39.551,-128.418
1687530845.028,-21.484,-36.621,-53.223,-41.016,-91.797
1687530845.032,-25.391,-36.621,-49.316,-38.086,-0.488
1687530845.036,-48.828,-38.574,-48.828,-32.715,-56.152
1687530845.040,-57.129,-37.109,-53.223,-33.203,-149.902
1687530845.044,-46.387,-34.668,-56.152,-30.762,-37.109
1687530845.048,-31.250,-36.133,-52.734,-29.785,233.887
1687530845.052,-34.668,-36.621,-45.410,-33.203,150.879
1687530845.055,-56.152,-34.668,-43.457,-36.621,-50.781
1687530845.059,-65.430,-36.621,-46.875,-29.297,-41.504
1687530845.063,-50.293,-39.062,-45.898,-21.973,201.172
1687530845.067,-26.855,-39.062,-45.410,-27.832,192.383
1687530845.071,-27.832,-34.180,-45.410,-37.109,-1.465
1687530845.073,-47.852,-30.762,-42.969,-40.039,24.414
1687530845.077,-54.199,-32.715,-43.457,-37.109,153.809
1687530845.081,-39.551,-35.645,-43.945,-38.086,34.180
1687530845.085,-18.066,-33.203,-47.852,-41.016,-61.035
1687530845.089,-24.414,-32.715,-49.805,-45.898,-7.324
1687530845.093,-46.387,-36.133,-48.340,-46.387,36.133
1687530845.097,-51.270,-29.297,-42.969,-38.086,59.082
1687530845.100,-39.551,-24.414,-42.480,-35.156,98.633
1687530845.104,-22.461,-29.297,-48.828,-40.039,202.148
1687530845.108,-25.391,-32.227,-43.945,-37.109,323.730
1687530845.112,-41.992,-32.715,-42.480,-35.156,39.062
1687530845.116,-47.363,-37.109,-44.434,-35.156,-108.887
1687530845.118,-43.945,-42.969,-41.992,-35.156,-15.137
1687530845.122,-35.645,-40.039,-43.945,-41.016,-66.895
1687530845.126,-27.344,-38.086,-42.969,-41.504,-108.398
1687530845.130,-35.156,-41.016,-41.992,-42.480,-88.379
1687530845.134,-52.246,-43.945,-45.410,-41.016,-76.660
1687530845.138,-49.805,-37.109,-44.922,-29.297,43.945
1687530845.142,-33.691,-34.668,-42.969,-21.484,86.914
1687530845.145,-28.809,-38.086,-44.434,-15.625,-20.020
1687530845.149,-53.223,-31.738,-49.805,-19.531,153.809
1687530845.153,-75.684,-36.621,-50.293,-32.227,185.547
1687530845.157,-66.406,-37.109,-53.223,-40.039,34.180
1687530845.161,-57.129,-33.691,-53.223,-33.691,-6.836
1687530845.163,-52.246,-33.691,-48.828,-23.926,145.508
1687530845.167,-55.176,-38.086,-45.410,-26.367,-49.316
1687530845.171,-67.383,-40.527,-44.434,-24.902,-220.703
1687530845.175,-70.801,-39.551,-43.945,-22.949,-99.609
1687530845.179,-63.477,-41.992,-43.457,-24.902,-48.340
1687530845.183,-54.199,-42.969,-45.410,-29.785,19.531
1687530845.187,-67.871,-41.992,-43.945,-36.621,-38.574
1687530845.190,-84.961,-37.598,-41.992,-34.668,12.207
1687530845.194,-85.449,-36.133,-38.086,-20.020,236.816
1687530845.198,-80.078,-37.598,-34.668,-25.391,16.113
1687530845.202,-76.172,-34.180,-37.598,-40.039,-117.188
1687530845.206,-78.125,-35.156,-39.551,-44.434,44.434
1687530845.223,-85.938,-35.645,-35.645,-44.434,-71.289
1687530845.227,-87.891,-32.715,-31.738,-41.992,-154.785
1687530845.231,-81.055,-31.738,-36.621,-40.527,-55.176
1687530845.235,-75.195,-34.180,-39.551,-43.945,-27.832
1687530845.239,-85.449,-43.945,-42.480,-53.223,-20.508
1687530845.243,-92.773,-40.527,-45.410,-58.594,35.156
1687530845.247,-90.820,-37.598,-42.480,-53.223,-3.418
1687530845.250,-87.402,-41.504,-44.434,-43.457,177.734
1687530845.254,-79.590,-36.133,-49.316,-43.945,123.535
1687530845.258,-73.730,-35.156,-49.316,-45.410,-113.770
1687530845.262,-66.406,-33.203,-43.457,-38.574,-62.988
1687530845.266,-61.035,-31.250,-38.574,-33.203,49.805
1687530845.254,-54.688,-30.762,-40.039,-26.855,-41.016
1687530845.258,-54.199,-29.785,-42.480,-16.113,-176.270
1687530845.262,-65.918,-34.668,-42.480,-21.484,-96.680
1687530845.266,-87.402,-42.969,-42.969,-24.902,136.230
1687530845.270,-98.145,-42.969,-42.969,-25.391,0.000
1687530845.274,-96.680,-39.062,-40.527,-29.785,-90.820
1687530845.278,-94.238,-40.039,-38.574,-32.715,19.531
1687530845.281,-89.844,-39.062,-38.574,-34.180,-78.613
1687530845.285,-96.191,-39.062,-38.574,-34.180,-166.992
1687530845.289,-97.656,-42.969,-40.039,-34.180,-174.805
1687530845.293,-93.262,-42.969,-37.109,-26.855,18.066
1687530845.297,-91.797,-39.062,-36.621,-33.203,151.367
1687530845.298,-89.355,-41.016,-42.480,-51.758,-62.500
1687530845.302,-92.285,-38.574,-39.062,-43.945,-96.191
1687530845.306,-99.121,-37.109,-37.109,-40.527,-24.414
1687530845.310,-91.797,-37.109,-38.086,-32.715,-38.574
1687530845.314,-86.914,-38.086,-35.156,-24.414,-16.602
1687530845.318,-86.914,-39.062,-34.180,-28.809,59.570
1687530845.322,-86.914,-36.621,-37.109,-23.438,269.531
1687530845.325,-84.961,-33.203,-39.551,-25.391,278.809
1687530845.329,-85.938,-31.250,-41.992,-36.133,-77.148
1687530845.333,-87.402,-30.273,-42.969,-41.992,-131.836
1687530845.337,-80.566,-31.250,-40.527,-28.809,28.320
1687530845.341,-80.566,-33.203,-37.109,-28.809,-55.176
1687530845.343,-88.379,-37.598,-39.062,-48.340,-129.395
1687530845.347,-83.984,-38.086,-39.062,-44.434,-59.570
1687530845.351,-71.777,-34.668,-32.227,-35.645,-12.695
1687530845.355,-72.754,-37.109,-30.273,-32.715,-91.797
1687530845.359,-71.289,-37.598,-33.691,-38.086,-137.207
1687530845.363,-66.895,-34.668,-35.645,-46.875,-26.367
1687530845.367,-60.059,-31.738,-32.227,-38.086,56.152
1687530845.370,-55.664,-29.297,-32.715,-35.156,6.348
1687530845.374,-60.059,-40.039,-40.527,-46.387,-91.309
1687530845.378,-60.547,-47.852,-42.969,-41.016,28.320
1687530845.382,-60.547,-43.457,-41.016,-22.949,110.840
1687530845.386,-57.129,-39.551,-39.551,-25.879,-143.066
1687530845.403,-56.152,-40.527,-44.922,-29.297,-175.293
1687530845.407,-56.152,-42.480,-47.363,-25.879,-86.914
1687530845.411,-42.480,-39.551,-43.945,-25.879,-133.789
1687530845.415,-40.039,-34.180,-40.527,-29.785,-187.500
1687530845.419,-37.598,-34.668,-38.086,-23.926,-123.047
1687530845.423,-31.250,-38.086,-38.086,-19.043,71.777
1687530845.427,-35.645,-35.645,-32.227,-21.973,94.238
1687530845.430,-40.039,-33.203,-30.762,-31.250,-64.453
1687530845.434,-34.180,-33.203,-36.621,-35.645,-71.777
1687530845.438,-25.391,-31.250,-37.598,-19.043,266.113
1687530845.442,-32.227,-29.785,-36.133,-8.301,301.758
1687530845.446,-34.180,-31.738,-33.691,-17.090,-49.805
1687530845.448,-33.691,-35.645,-31.738,-22.949,-106.934
1687530845.452,-31.250,-36.621,-33.203,-22.461,-16.113
1687530845.456,-20.508,-33.203,-29.785,-19.531,-88.379
1687530845.460,-25.879,-31.250,-25.391,-13.672,-118.164
1687530845.464,-27.344,-26.855,-23.926,-10.742,-39.062
1687530845.468,-23.438,-26.367,-21.484,-10.742,94.238
1687530845.472,-20.020,-29.297,-22.949,-3.906,55.664
1687530845.475,-17.090,-24.414,-38.086,-8.301,-142.578
1687530845.479,-22.949,-25.391,-37.598,-7.812,-20.020
1687530845.483,-22.949,-22.949,-23.438,7.812,184.082
1687530845.487,-26.367,-20.996,-29.785,-0.488,-36.133
1687530845.491,-32.715,-31.250,-38.574,-20.020,-65.918
1687530845.493,-33.203,-33.691,-32.227,-14.160,62.012
1687530845.497,-33.691,-32.715,-32.715,-10.742,-16.113
1687530845.501,-38.086,-33.691,-36.133,-16.602,-108.398
1687530845.505,-34.668,-29.297,-29.785,-18.066,-111.328
1687530845.509,-30.273,-26.367,-23.926,-21.484,-135.254
1687530845.513,-39.062,-28.320,-28.320,-17.578,-32.715
1687530845.517,-37.598,-28.320,-32.715,-7.324,-51.758
1687530845.520,-38.574,-28.809,-29.297,-11.230,-124.023
1687530845.524,-58.594,-34.668,-28.809,-17.578,166.504
1687530845.528,-58.105,-33.203,-29.785,-20.996,99.609
1687530845.532,-51.270,-32.227,-29.785,-29.297,-144.531
1687530845.536,-56.641,-32.715,-29.785,-22.461,-68.848
1687530845.540,-60.547,-30.762,-27.832,-13.184,37.109
1687530845.544,-68.359,-30.273,-24.902,-27.832,-17.090
1687530845.548,-61.523,-27.832,-21.973,-31.738,-80.078
1687530845.552,-57.617,-30.273,-24.414,-22.461,-69.336
1687530845.556,-50.781,-33.203,-21.484,-8.789,-56.152
1687530845.560,-39.062,-32.227,-14.648,-0.977,-45.898
1687530845.564,-47.852,-30.273,-20.508,-7.812,-19.531
1687530845.567,-45.410,-28.809,-20.996,-10.742,77.148
1687530845.571,-36.133,-25.879,-17.578,-3.906,202.637
1687530845.575,-32.715,-26.855,-20.020,-13.184,-12.695
1687530845.579,-34.180,-29.297,-21.973,-9.766,-72.754
1687530845.583,-41.016,-30.762,-18.066,-4.883,-13.672
1687530845.583,-41.016,-29.785,-15.625,-20.996,-128.906
1687530845.587,-36.133,-28.809,-20.996,-34.180,-151.367
1687530845.591,-30.762,-29.297,-23.926,-30.273,-85.938
1687530845.595,-42.480,-31.250,-24.414,-21.973,36.133
1687530845.599,-58.594,-31.738,-24.414,-24.902,19.531
1687530845.603,-49.805,-30.762,-25.879,-31.738,-3.418
1687530845.607,-42.969,-29.297,-27.344,-32.715,75.195
1687530845.610,-47.363,-31.250,-22.949,-21.484,276.367
1687530845.614,-48.340,-34.180,-19.531,-14.160,201.172
1687530845.618,-53.223,-34.180,-19.531,-19.531,-54.688
1687530845.622,-62.012,-33.691,-20.996,-32.227,51.270
1687530845.626,-52.246,-34.668,-23.926,-32.715,169.922
1687530845.628,-35.645,-30.273,-22.949,-20.020,-33.691
1687530845.632,-34.180,-29.297,-21.973,-16.602,-117.676
1687530845.636,-39.551,-28.809,-19.531,-15.137,-25.879
1687530845.640,-38.086,-27.344,-18.066,-15.137,-59.082
1687530845.644,-27.344,-29.785,-19.531,-23.438,-89.844
1687530845.648,-21.973,-31.738,-19.043,-32.715,9.766
1687530845.652,-24.902,-27.344,-19.043,-32.227,118.652
1687530845.655,-37.109,-25.879,-20.508,-20.020,365.723
1687530845.659,-38.574,-27.832,-18.555,-24.414,49.805
1687530845.663,-26.855,-27.832,-12.695,-40.039,-200.684
1687530845.667,-21.484,-22.949,-17.578,-41.504,-63.965
1687530845.671,-22.461,-20.508,-20.508,-30.273,-96.191
1687530845.673,-37.598,-24.414,-19.043,-20.996,-174.316
1687530845.677,-51.758,-26.855,-22.461,-28.809,-154.785
1687530845.681,-46.875,-35.156,-22.949,-35.645,-47.852
1687530845.685,-45.898,-40.527,-26.367,-32.227,-94.238
1687530845.689,-47.852,-38.574,-28.320,-37.598,-157.227
1687530845.693,-56.152,-37.109,-21.973,-46.387,-59.082
1687530845.697,-73.242,-32.715,-17.578,-41.016,289.551
1687530845.700,-57.129,-28.809,-17.578,-38.086,191.406
1687530845.704,-43.945,-27.832,-16.113,-44.434,-91.309
1687530845.708,-55.664,-28.809,-12.695,-38.086,6.348
1687530845.712,-56.152,-30.273,-12.695,-22.461,300.781
1687530845.716,-61.523,-30.762,-11.719,-24.902,58.594
1687530845.718,-61.035,-33.691,-14.648,-33.203,-147.949
1687530845.722,-43.457,-26.855,-16.602,-37.109,-34.180
1687530845.726,-45.410,-23.438,-14.160,-33.203,-53.711
1687530845.730,-51.758,-25.391,-18.066,-25.879,-109.863
1687530845.734,-58.105,-24.414,-16.602,-21.484,-106.934
1687530845.738,-52.246,-28.320,-19.043,-28.320,8.301
1687530845.742,-38.574,-28.809,-18.555,-30.273,5.371
1687530845.745,-28.320,-23.926,-14.648,-25.879,-6.836
1687530845.749,-39.062,-25.391,-16.602,-30.273,-42.480
1687530845.753,-61.035,-26.367,-14.160,-36.133,65.918
1687530845.757,-55.664,-20.996,-14.648,-34.668,203.613
1687530845.761,-42.480,-21.973,-19.043,-35.156,-14.648
1687530845.778,-41.504,-22.949,-16.602,-20.020,-118.652
1687530845.782,-48.340,-18.555,-9.277,-16.113,72.754
1687530845.786,-63.965,-21.484,-14.160,-27.832,31.738
1687530845.790,-62.500,-24.414,-20.020,-33.691,-120.117
1687530845.794,-51.270,-23.926,-17.578,-49.805,-81.543
1687530845.798,-44.922,-28.809,-15.137,-46.875,106.445
1687530845.802,-50.781,-28.809,-13.184,-42.480,122.559
1687530845.805,-66.895,-25.391,-14.648,-41.992,-72.754
1687530845.809,-67.871,-27.344,-21.973,-41.992,-93.750
1687530845.813,-51.758,-29.297,-22.461,-44.434,135.254
1687530845.817,-52.246,-36.133,-23.438,-48.828,65.918
1687530845.821,-59.082,-36.621,-28.809,-54.199,-128.906
1687530845.823,-62.500,-33.203,-27.344,-47.852,2.441
1687530845.827,-61.035,-33.691,-23.438,-43.457,259.277
1687530845.831,-48.828,-26.367,-23.438,-60.059,66.895
1687530845.835,-40.039,-26.855,-23.438,-65.430,-113.770
1687530845.839,-41.504,-32.715,-21.973,-51.758,-77.148
1687530845.843,-52.734,-29.297,-21.973,-48.828,10.254
1687530845.847,-60.547,-24.414,-22.949,-51.758,61.035
1687530845.850,-44.434,-26.855,-21.484,-58.594,-124.023
1687530845.854,-28.320,-35.645,-22.461,-58.594,-25.879
1687530845.858,-43.945,-32.227,-25.391,-40.039,172.363
1687530845.862,-58.594,-28.320,-23.438,-49.316,-39.062
1687530845.866,-60.059,-31.738,-22.461,-55.176,-101.562
1687530845.868,-53.223,-33.691,-20.996,-63.477,2.930
1687530845.872,-45.410,-33.203,-18.066,-71.777,-102.539
1687530845.876,-43.457,-32.227,-16.602,-59.570,-127.930
1687530845.880,-51.758,-30.273,-17.578,-55.664,15.137
1687530845.884,-59.082,-29.297,-20.996,-52.734,122.070
1687530845.888,-40.527,-31.738,-18.555,-38.574,74.707
1687530845.892,-13.184,-28.809,-18.066,-26.855,-26.367
1687530845.895,-10.254,-18.066,-25.391,-27.344,-28.809
1687530845.899,-22.949,-11.719,-30.273,-27.832,203.125
1687530845.903,-35.645,-10.254,-34.668,-32.715,92.285
1687530845.907,-37.598,-8.301,-36.133,-48.340,-104.980
1687530845.911,-31.738,-0.977,-39.062,-59.570,-54.688
1687530845.913,-26.855,8.301,-43.457,-54.688,103.027
1687530845.917,-43.945,9.766,-54.199,-50.781,-17.578
1687530845.921,-61.035,11.719,-61.523,-59.570,-169.434
1687530845.925,-56.152,14.648,-63.965,-77.148,-97.168
1687530845.929,-37.598,15.625,-67.383,-85.938,-62.988
1687530845.933,-29.785,22.949,-69.824,-72.266,-86.426
1687530845.937,-43.457,28.809,-74.219,-71.289,-74.707
1687530845.940,-60.547,29.785,-83.008,-98.145,80.566
1687530845.944,-63.965,31.250,-86.914,-103.516,327.148
1687530845.948,-53.711,26.855,-84.961,-94.238,50.293
1687530845.952,-48.828,31.250,-86.914,-95.703,-165.039
1687530845.956,-49.316,38.086,-87.891,-102.051,0.488
1687530845.958,-55.176,37.598,-88.379,-95.703,-45.898
1687530845.962,-56.152,30.273,-89.844,-95.215,-134.277
1687530845.966,-41.992,22.949,-89.355,-93.262,-83.984
1687530845.970,-48.828,27.344,-90.332,-91.797,-72.266
1687530845.974,-42.480,27.344,-86.426,-80.078,-34.668
1687530845.978,-48.340,27.832,-83.008,-60.547,20.996
1687530845.982,-57.129,27.344,-78.613,-76.660,25.879
1687530845.985,-27.832,24.414,-72.754,-75.684,191.895
1687530845.989,-8.301,22.949,-70.312,-60.547,65.918
1687530845.993,-6.348,16.113,-72.266,-64.453,-186.035
1687530845.997,-20.996,14.160,-69.824,-68.359,-59.082
1687530846.001,-25.391,13.672,-66.895,-60.547,166.504
1687530846.003,-2.930,11.719,-64.453,-62.988,-27.832
1687530846.007,5.859,12.695,-62.012,-63.965,-181.152
1687530846.011,-2.930,13.184,-57.617,-48.340,-121.094
1687530846.015,-20.020,11.230,-55.664,-46.387,-126.953
1687530846.019,-28.809,8.789,-52.246,-49.316,-120.117
1687530846.023,-17.578,1.953,-46.875,-44.434,-59.570
1687530846.027,-25.879,-3.418,-49.316,-40.039,101.562
1687530846.030,-40.039,-3.906,-45.410,-35.156,301.758
1687530846.034,-40.039,-4.395,-33.203,-35.156,23.926
1687530846.038,-53.223,-0.977,-32.715,-31.250,-69.824
1687530846.042,-53.223,-5.859,-35.156,-37.598,66.406
1687530846.046,-45.898,-14.648,-37.109,-42.969,-26.855
1687530846.051,-44.922,-13.184,-35.645,-31.738,-97.168
1687530846.055,-44.922,-14.160,-34.180,-29.297,-34.668
1687530846.059,-54.688,-14.648,-36.621,-38.574,84.961
1687530846.063,-46.387,-10.254,-35.156,-45.898,22.949
1687530846.067,-30.273,-6.348,-33.203,-41.992,-79.590
1687530846.071,-28.320,-10.742,-37.598,-38.574,-21.484
1687530846.075,-30.273,-9.766,-36.133,-27.344,260.742
1687530846.078,-44.922,-6.836,-33.203,-20.508,190.918
1687530846.082,-40.039,-6.836,-31.738,-29.297,-83.496
1687530846.086,-18.066,-7.324,-27.832,-29.297,-17.578
1687530846.090,-30.273,-10.742,-29.785,-35.156,18.555
1687530846.094,-47.363,-13.184,-35.156,-41.992,-41.992
1687530846.094,-58.594,-11.719,-32.715,-41.504,-12.207
1687530846.098,-59.570,-14.648,-33.691,-47.852,41.504
1687530846.102,-41.504,-17.090,-33.691,-47.852,128.906
1687530846.106,-26.855,-8.301,-31.250,-51.270,-45.410
1687530846.110,-33.691,-8.789,-30.762,-55.664,-165.039
1687530846.114,-59.570,-13.184,-38.574,-61.523,-0.488
1687530846.118,-66.406,-14.160,-48.828,-66.406,110.352
1687530846.121,-45.410,-16.113,-46.387,-68.848,-34.180
1687530846.125,-30.762,-19.531,-40.527,-66.895,-111.328
1687530846.129,-40.527,-22.461,-34.180,-53.711,-48.340
1687530846.133,-69.336,-15.625,-35.156,-48.340,-13.672
1687530846.137,-65.430,-20.020,-39.062,-49.805,-149.414
1687530846.154,-27.344,-25.391,-35.156,-43.945,-176.758
1687530846.158,-21.973,-19.043,-30.762,-25.391,-83.984
1687530846.162,-43.457,-16.602,-34.180,-21.973,-44.922
1687530846.166,-57.617,-18.066,-31.738,-39.062,-75.195
1687530846.170,-54.199,-19.043,-32.227,-33.691,-91.309
1687530846.174,-33.691,-20.508,-36.133,-27.344,108.887
1687530846.178,-22.949,-18.066,-31.250,-29.785,71.777
1687530846.181,-16.113,-11.230,-25.879,-22.949,-92.285
1687530846.185,-24.414,-7.324,-22.949,-15.137,-33.691
1687530846.189,-41.992,-10.742,-21.973,-17.090,54.688
1687530846.193,-29.297,-12.695,-22.461,-29.297,27.832
1687530846.197,-19.043,-16.602,-23.438,-33.691,-96.680
1687530846.198,-27.832,-20.996,-23.438,-38.574,-23.926
1687530846.202,-45.410,-18.555,-21.484,-30.273,276.855
1687530846.206,-57.617,-18.066,-22.461,-29.785,142.090
1687530846.210,-42.969,-24.902,-27.344,-45.410,-93.262
1687530846.214,-33.691,-28.320,-29.785,-46.875,-62.988
1687530846.218,-34.668,-24.902,-28.320,-52.734,41.016
1687530846.222,-42.480,-27.344,-29.297,-56.641,35.645
1687530846.225,-56.641,-34.668,-31.250,-58.594,-41.016
1687530846.229,-52.246,-33.691,-30.273,-64.453,1.953
1687530846.233,-26.367,-27.832,-28.320,-56.641,164.062
1687530846.237,-12.207,-28.809,-23.438,-44.434,-40.039
1687530846.241,-18.066,-29.785,-20.508,-35.645,-127.930
1687530846.243,-33.691,-24.414,-19.043,-24.902,-18.555
1687530846.247,-20.996,-23.926,-17.578,-28.809,-73.242
1687530846.251,-1.465,-23.926,-19.043,-36.133,-122.559
1687530846.255,0.000,-22.461,-20.508,-32.715,-104.004
1687530846.259,-8.301,-26.855,-19.043,-29.297,-43.945
1687530846.263,-36.133,-28.809,-22.949,-26.855,-6.348
1687530846.267,-34.180,-28.320,-26.367,-25.391,21.973
1687530846.270,-10.742,-22.461,-24.902,-23.926,-62.500
1687530846.274,-2.441,-17.090,-25.391,-19.531,121.094
1687530846.278,-9.766,-20.020,-25.879,-23.438,227.051
1687530846.282,-27.832,-20.996,-24.902,-25.879,-10.254
1687530846.286,-29.297,-23.438,-23.926,-22.949,-86.426
1687530846.288,-19.043,-26.855,-20.508,-34.668,49.316
1687530846.292,-5.371,-22.461,-17.578,-45.410,-2.441
1687530846.296,-12.695,-23.438,-20.508,-37.109,-89.844
1687530846.300,-38.086,-25.391,-26.855,-39.062,-76.660
1687530846.304,-39.551,-26.855,-27.344,-47.852,-63.965
1687530846.308,-25.879,-26.855,-26.855,-40.039,52.734
1687530846.312,-22.461,-31.250,-31.738,-40.039,16.602
1687530846.315,-21.484,-26.367,-29.785,-32.227,33.691
1687530846.319,-26.855,-22.949,-25.879,-24.414,177.734
1687530846.323,-35.645,-27.832,-30.762,-30.273,45.898
1687530846.327,-24.414,-26.855,-25.879,-29.297,-9.766
1687530846.331,-8.301,-24.902,-20.508,-32.227,33.691
1687530846.348,-15.137,-20.996,-19.531,-29.297,-46.875
1687530846.352,-33.691,-20.996,-19.531,-22.949,-150.879
1687530846.356,-49.805,-23.438,-19.531,-20.996,-122.559
1687530846.360,-29.785,-22.461,-20.508,-20.996,-30.762
1687530846.364,-7.812,-26.855,-21.484,-23.438,-69.824
1687530846.368,-17.090,-27.344,-22.949,-20.508,-121.582
1687530846.372,-39.551,-26.367,-22.461,-20.020,65.430
1687530846.375,-54.199,-31.738,-24.902,-31.738,258.789
1687530846.379,-35.156,-34.180,-29.785,-33.203,36.133
1687530846.383,-19.043,-31.738,-27.832,-37.109,-162.598
1687530846.387,-24.902,-32.227,-28.809,-38.574,43.945
1687530846.391,-40.039,-29.785,-26.367,-25.391,166.992
1687530846.378,-56.152,-32.227,-30.273,-25.879,0.000
1687530846.382,-49.805,-34.668,-33.691,-41.504,-134.766
1687530846.386,-32.715,-29.297,-27.832,-48.340,-94.238
1687530846.390,-23.926,-30.762,-27.344,-37.109,32.227
1687530846.394,-30.273,-33.691,-29.297,-33.203,-49.805
1687530846.398,-48.828,-34.668,-26.855,-40.039,-77.148
1687530846.402,-45.410,-36.133,-27.344,-34.668,50.781
1687530846.405,-21.973,-34.180,-24.902,-35.156,34.180
1687530846.409,-22.949,-29.785,-22.949,-31.250,-83.984
1687530846.413,-40.527,-29.297,-24.902,-21.484,-109.375
1687530846.417,-44.434,-30.762,-30.762,-21.973,41.504
1687530846.421,-14.160,-22.949,-37.598,-16.113,151.855
1687530846.526,20.996,-24.902,-29.785,-10.254,-66.406
1687530846.530,4.395,-36.621,-13.672,-11.230,-74.707
1687530846.534,-36.621,-41.504,-10.254,-17.578,99.609
1687530846.538,-62.012,-45.410,-10.742,-22.461,-5.859
1687530846.542,-51.270,-47.852,-8.301,-27.344,-155.762
1687530846.546,-30.273,-51.270,-2.930,-23.438,-13.184
1687530846.550,-34.668,-58.594,-1.953,-19.043,318.848
1687530846.553,-49.316,-67.871,5.371,-17.578,228.516
1687530846.557,-63.965,-71.777,10.254,-23.438,-40.527
1687530846.561,-61.035,-77.148,9.766,-18.555,-1.953
1687530846.565,-43.945,-82.031,15.625,-13.184,11.719
1687530846.569,-46.387,-84.961,23.926,-14.648,-114.258
1687530846.528,-44.434,-86.426,30.273,-14.648,-189.941
1687530846.532,-58.594,-91.797,30.762,-10.742,-29.785
1687530846.536,-74.707,-104.004,32.715,-11.719,97.168
1687530846.540,-52.246,-103.516,38.574,-10.742,-65.430
1687530846.544,-47.852,-101.074,39.551,-12.207,-186.035
1687530846.548,-50.781,-104.492,42.969,-7.324,3.906
1687530846.552,-60.059,-104.004,37.109,-2.930,321.777
1687530846.555,-63.477,-104.004,27.344,-6.836,22.949
1687530846.559,-48.828,-99.121,22.949,-6.836,-128.906
1687530846.563,-41.016,-92.285,20.996,-1.953,0.000
1687530846.567,-39.062,-90.820,22.461,-4.883,6.348
1687530846.571,-35.645,-85.449,24.414,0.488,-108.398
1687530846.532,-44.922,-82.520,26.855,9.766,-110.352
1687530846.536,-36.133,-83.496,20.508,2.441,-31.738
1687530846.540,-14.160,-82.520,18.555,6.836,-35.156
1687530846.544,-17.578,-77.637,20.020,0.000,-74.707
1687530846.548,-32.227,-73.730,13.672,-9.766,-20.020
1687530846.552,-40.527,-69.336,11.719,-5.859,48.340
1687530846.556,-30.273,-66.895,8.789,-8.789,-53.711
1687530846.559,-17.090,-66.895,7.324,-13.672,-50.781
1687530846.563,-17.090,-61.035,5.859,-16.113,-44.434
1687530846.567,-30.273,-60.547,1.953,-17.090,201.660
1687530846.571,-36.621,-58.105,2.930,-8.301,251.465
1687530846.575,-31.738,-55.176,6.836,-4.883,-57.617
1687530846.573,-22.461,-52.246,3.418,-4.395,-57.617
1687530846.577,-22.949,-49.805,-1.465,0.000,55.176
1687530846.581,-27.832,-52.246,-1.953,2.930,11.230
1687530846.585,-37.598,-49.316,-1.465,-1.953,2.441
1687530846.589,-36.621,-45.898,0.977,-24.902,-5.859
1687530846.593,-23.926,-42.969,-4.395,-31.250,-45.410
1687530846.597,-20.020,-42.480,-5.371,-30.762,55.176
1687530846.600,-24.902,-48.340,-5.371,-23.926,-34.668
1687530846.604,-40.039,-49.805,-12.207,-31.250,-23.926
1687530846.608,-49.316,-50.781,-10.254,-40.039,354.492
1687530846.612,-31.250,-49.805,-3.418,-34.180,120.117
1687530846.616,-18.555,-43.457,-6.836,-43.945,-125.000
1687530846.618,-21.973,-45.898,-9.766,-54.688,48.340
1687530846.622,-27.344,-49.805,-12.695,-53.711,5.859
1687530846.626,-38.574,-46.387,-12.207,-45.410,-74.707
1687530846.630,-24.414,-44.434,-10.254,-58.105,-127.930
1687530846.634,-8.789,-43.457,-16.602,-63.477,-130.371
1687530846.638,-21.484,-37.109,-18.555,-46.875,-32.715
1687530846.642,-45.898,-35.156,-21.484,-37.109,-22.461
1687530846.645,-40.039,-36.621,-20.996,-34.668,-14.648
1687530846.649,-14.160,-34.180,-15.137,-26.367,232.422
1687530846.653,-6.836,-32.227,-14.648,-32.715,103.516
1687530846.657,-2.441,-32.715,-17.578,-42.480,-93.262
1687530846.661,-1.953,-31.250,-19.531,-26.855,48.340
1687530846.663,-8.301,-28.809,-15.137,-23.926,235.352
1687530846.667,-3.418,-28.809,-16.113,-20.020,90.820
1687530846.671,9.277,-29.297,-16.602,-9.277,-134.277
1687530846.675,4.883,-31.738,-15.137,-27.832,-142.090
1687530846.679,-17.578,-32.227,-19.043,-44.434,-45.898
1687530846.683,-16.602,-31.250,-15.137,-22.949,33.203
1687530846.687,-9.277,-33.691,-8.789,-27.832,-63.477
1687530846.690,-17.578,-32.227,-1.953,-32.227,-10.742
1687530846.694,-16.113,-33.691,2.441,-16.602,174.316
1687530846.698,-3.906,-29.785,3.906,-27.832,21.973
1687530846.702,-12.207,-23.438,-1.465,-39.062,-61.523
1687530846.706,-6.836,-26.855,-5.859,-52.246,26.855
1687530846.709,5.859,-26.367,-6.348,-53.223,-90.820
1687530846.713,8.789,-26.855,-13.672,-56.641,-90.332
1687530846.717,5.371,-26.855,-15.625,-62.012,-10.254
1687530846.721,0.000,-23.438,-12.695,-55.664,4.883
1687530846.725,15.137,-19.531,-12.695,-56.641,-84.961
1687530846.729,32.227,-18.066,-12.695,-62.500,-135.254
1687530846.733,45.898,-20.020,-7.812,-48.340,-64.941
1687530846.736,32.227,-15.625,-14.160,-40.039,186.523
1687530846.740,6.836,-11.719,-18.066,-62.988,119.141
1687530846.744,5.371,-20.996,-18.066,-72.266,-129.395
1687530846.748,15.137,-22.949,-16.602,-56.152,-44.922
1687530846.752,16.113,-14.160,-8.789,-45.410,86.426
1687530846.753,13.672,-13.184,-4.883,-50.781,-64.941
1687530846.757,13.672,-16.602,-4.883,-53.223,-170.410
1687530846.761,12.695,-17.578,-5.859,-66.406,-130.371
1687530846.765,14.160,-14.648,-8.789,-62.988,-99.609
1687530846.769,16.113,-13.672,-7.324,-45.898,-83.496
1687530846.773,6.348,-17.578,-1.465,-40.039,-77.148
1687530846.777,-2.441,-22.461,-3.418,-58.594,96.680
1687530846.780,2.930,-20.508,-3.418,-74.707,324.219
1687530846.784,16.602,-20.508,-4.883,-79.590,-15.137
1687530846.788,19.531,-25.391,-10.254,-78.125,-181.641
1687530846.792,13.672,-24.902,-8.789,-60.547,-22.461
1687530846.796,11.230,-18.066,-3.418,-57.617,-68.848
1687530846.798,9.766,-21.484,-2.441,-64.453,-132.812
1687530846.802,19.043,-22.461,-1.953,-85.449,-117.676
1687530846.806,30.762,-15.137,-3.906,-92.285,-16.602
1687530846.810,27.344,-17.090,-5.859,-80.566,-11.719
1687530846.814,17.090,-20.020,-8.789,-76.172,-94.238
1687530846.818,19.043,-17.578,-9.766,-73.730,27.344
1687530846.822,23.926,-18.066,-7.812,-82.031,297.852
1687530846.825,22.461,-22.949,-10.254,-78.613,213.379
1687530846.829,17.090,-20.508,-13.672,-79.102,-36.621
1687530846.833,12.207,-19.043,-9.766,-76.660,-20.996
1687530846.837,8.301,-25.391,-6.348,-65.918,291.016
1687530846.841,15.625,-27.832,-9.766,-76.660,201.660
1687530846.858,17.090,-23.438,-10.254,-78.125,-93.750
1687530846.862,7.812,-23.926,-8.789,-69.824,-70.312
1687530846.866,2.930,-27.832,-10.742,-69.824,-40.527
1687530846.870,1.953,-27.344,-11.719,-59.082,-111.328
1687530846.874,3.906,-21.484,-14.160,-49.316,-161.621
1687530846.878,2.930,-20.020,-12.695,-52.734,-1.953
1687530846.882,-0.977,-23.438,-11.719,-56.152,180.664
1687530846.885,-1.953,-26.855,-15.625,-46.875,-38.574
1687530846.889,-8.301,-29.785,-17.578,-38.574,-130.371
1687530846.893,-3.906,-26.367,-11.230,-49.805,38.574
1687530846.897,-0.977,-23.438,-8.789,-46.875,87.402
1687530846.901,-5.859,-30.273,-18.066,-39.551,-73.242
1687530846.903,-12.207,-28.809,-20.508,-39.062,-93.750
1687530846.907,-12.695,-27.344,-19.531,-32.715,-58.594
1687530846.911,-2.441,-25.391,-17.578,-21.484,-95.703
1687530846.915,0.977,-21.484,-14.648,-18.555,-132.324
1687530846.919,2.441,-20.996,-17.578,-22.461,-19.043
1687530846.923,-19.531,-25.391,-24.414,-18.555,141.113
1687530846.927,-26.855,-30.273,-27.344,-9.766,-24.414
1687530846.930,-13.184,-25.391,-26.367,1.465,-164.062
1687530846.934,-23.438,-23.438,-25.391,-20.508,-100.586
1687530846.938,-28.809,-26.855,-27.832,-22.949,171.387
1687530846.942,-27.344,-24.902,-24.902,-11.719,95.215
1687530846.946,-27.344,-31.250,-30.273,-22.949,-98.145
1687530846.948,-24.902,-35.156,-33.691,-21.973,-34.180
1687530846.952,-31.250,-33.203,-28.809,0.000,226.074
1687530846.956,-33.203,-29.785,-27.344,6.836,78.125
1687530846.960,-30.762,-29.297,-27.832,-6.836,-203.613
1687530846.964,-25.391,-31.738,-29.297,-5.371,-99.121
1687530846.968,-31.738,-31.738,-33.203,-13.672,22.949
1687530846.972,-47.363,-35.645,-34.668,-30.273,9.277
1687530846.975,-53.223,-38.086,-34.668,-22.461,-32.227
1687530846.979,-46.875,-35.156,-39.062,-1.465,46.387
1687530846.983,-38.086,-35.645,-39.551,-7.324,162.598
1687530846.987,-36.621,-33.691,-37.109,-21.973,-122.070
1687530846.991,-46.387,-36.133,-36.621,-22.461,-190.918
1687530846.993,-54.688,-36.133,-36.133,-7.812,-52.246
1687530846.997,-59.082,-34.180,-40.039,-11.230,-67.383
1687530847.001,-54.199,-31.738,-38.574,-12.695,-105.957
1687530847.005,-46.387,-34.668,-40.039,-17.090,-96.680
1687530847.009,-58.105,-39.062,-48.340,-19.531,69.336
1687530847.013,-66.895,-37.598,-41.504,-21.973,90.820
1687530847.017,-69.824,-40.039,-40.039,-26.855,-60.059
1687530847.020,-51.270,-39.062,-43.945,-18.555,-59.570
1687530847.024,-45.898,-37.598,-41.016,-12.207,144.043
1687530847.028,-54.688,-33.203,-43.457,-19.043,109.375
1687530847.032,-57.129,-27.344,-45.410,-19.043,-68.848
1687530847.036,-58.105,-31.738,-46.875,-22.949,-59.082
1687530847.038,-50.293,-35.156,-53.711,-24.902,102.051
1687530847.042,-43.457,-33.691,-51.758,-27.344,-50.781
1687530847.046,-51.758,-31.250,-46.387,-30.762,-241.211
1687530847.050,-60.059,-31.738,-43.457,-18.555,-119.141
1687530847.054,-57.129,-30.762,-41.016,-9.766,-1.953
1687530847.058,-41.504,-28.809,-39.551,-19.531,6.348
1687530847.062,-34.180,-35.645,-39.062,-31.738,7.812
1687530847.065,-43.945,-39.551,-42.480,-36.133,26.367
1687530847.069,-49.805,-36.621,-45.898,-33.203,212.891
1687530847.073,-46.875,-33.691,-42.969,-24.902,36.133
1687530847.077,-47.852,-29.785,-40.527,-22.461,-96.191
1687530847.081,-36.133,-26.367,-39.062,-7.324,-38.086
1687530847.083,-19.531,-28.320,-38.574,-3.906,-85.449
1687530847.087,-33.203,-32.715,-35.645,-12.695,-120.605
1687530847.091,-60.547,-28.320,-34.668,-19.531,-103.027
1687530847.095,-54.199,-27.832,-37.109,-22.461,-97.168
1687530847.099,-37.598,-31.250,-38.086,-22.461,-8.301
1687530847.103,-48.340,-31.738,-33.691,-12.695,32.227
1687530847.107,-61.523,-30.762,-32.227,-24.414,-40.039
1687530847.110,-57.617,-28.809,-33.691,-25.391,263.672
1687530847.114,-39.551,-26.367,-37.109,-16.602,294.922
1687530847.118,-25.879,-25.879,-39.062,-20.508,-80.566
1687530847.122,-32.227,-31.738,-36.133,-10.254,-40.039
1687530847.126,-57.129,-33.691,-32.715,-15.625,106.934
1687530847.128,-60.059,-30.762,-35.156,-37.109,-69.336
1687530847.132,-48.340,-28.320,-37.598,-34.668,-126.953
1687530847.136,-42.969,-35.645,-39.062,-28.320,-60.059
1687530847.140,-36.621,-36.133,-36.621,-36.621,-29.297
1687530847.144,-50.293,-33.203,-34.668,-27.344,-66.406
1687530847.148,-61.523,-37.598,-37.109,-14.648,-16.602
1687530847.152,-47.363,-36.621,-40.039,-22.949,188.477
1687530847.155,-35.156,-36.621,-41.992,-26.855,314.453
1687530847.159,-31.738,-35.156,-43.457,-30.762,114.746
1687530847.163,-51.758,-36.621,-47.852,-39.062,-89.355
1687530847.167,-63.477,-35.156,-47.363,-31.738,-11.230
1687530847.171,-55.176,-31.250,-42.969,-22.949,26.855
1687530847.173,-35.156,-34.668,-43.945,-34.668,-68.848
1687530847.177,-24.414,-34.668,-45.410,-38.574,-37.598
1687530847.181,-41.016,-36.133,-41.504,-23.926,-16.113
1687530847.185,-62.988,-39.062,-38.574,-17.578,-131.348
1687530847.189,-63.965,-32.715,-37.109,-23.926,-187.012
1687530847.193,-37.109,-29.297,-36.133,-25.391,-33.203
1687530847.197,-28.809,-29.785,-41.504,-22.949,251.465
1687530847.200,-44.922,-32.715,-45.898,-30.762,123.535
1687530847.204,-61.035,-33.691,-38.574,-34.668,-212.891
1687530847.208,-61.523,-33.691,-36.133,-18.555,-159.668
1687530847.212,-41.016,-37.598,-39.551,-7.812,79.102
1687530847.216,-39.551,-40.039,-38.086,-16.602,54.688
1687530847.218,-67.383,-41.016,-42.969,-21.973,-71.289
1687530847.222,-80.078,-35.645,-45.410,-20.996,-67.871
1687530847.226,-71.289,-36.133,-49.805,-28.320,120.605
1687530847.230,-60.059,-37.598,-52.246,-39.062,-50.293
1687530847.234,-44.922,-30.762,-45.410,-35.645,-230.957
1687530847.238,-42.480,-29.297,-44.922,-44.922,-25.391
1687530847.242,-70.801,-31.738,-44.922,-38.086,128.418
1687530847.245,-74.219,-28.320,-41.016,-23.438,-59.570
1687530847.249,-61.523,-28.809,-39.062,-30.273,-132.324
1687530847.253,-52.734,-32.227,-41.016,-28.809,-16.602
1687530847.257,-55.664,-31.738,-40.527,-30.273,-23.926
1687530847.261,-72.266,-30.762,-33.691,-29.785,-146.973
1687530847.278,-81.543,-32.715,-35.645,-37.598,-114.258
1687530847.282,-68.359,-26.367,-41.504,-39.551,90.332
1687530847.286,-42.480,-23.438,-43.945,-41.504,42.480
1687530847.290,-52.246,-27.832,-46.387,-51.270,-106.445
1687530847.294,-74.707,-29.297,-42.480,-54.199,-104.980
1687530847.298,-75.195,-30.762,-41.992,-47.852,73.242
1687530847.302,-66.406,-33.203,-48.340,-40.527,143.555
1687530847.305,-49.316,-36.621,-51.270,-48.340,-11.230
1687530847.309,-44.922,-35.645,-45.410,-46.387,-101.074
1687530847.313,-58.594,-30.762,-42.969,-31.738,164.062
1687530847.317,-63.477,-26.855,-40.527,-33.203,91.797
1687530847.321,-47.363,-27.344,-38.574,-37.598,-166.016
1687530847.323,-36.133,-30.762,-42.969,-34.668,-89.355
1687530847.327,-39.062,-31.738,-45.410,-23.926,51.270
1687530847.331,-51.758,-30.273,-43.457,-25.879,-50.293
1687530847.335,-67.383,-31.738,-41.992,-23.438,-123.047
1687530847.339,-58.105,-37.109,-39.062,-19.043,1.953
1687530847.343,-45.410,-39.551,-41.504,-23.926,198.242
1687530847.347,-36.621,-40.039,-41.992,-22.949,94.727
1687530847.350,-40.527,-39.062,-41.504,-23.926,-96.680
1687530847.354,-51.758,-39.062,-41.992,-23.438,-37.109
1687530847.358,-51.270,-37.109,-35.645,-14.648,121.582
1687530847.362,-37.598,-30.762,-34.180,-23.926,-74.707
1687530847.366,-26.367,-25.391,-36.621,-33.691,-171.387
1687530847.368,-42.969,-33.691,-39.062,-39.551,-43.945
1687530847.372,-61.523,-35.156,-43.945,-49.316,-89.355
1687530847.376,-58.594,-27.832,-43.945,-44.434,-134.766
1687530847.380,-50.293,-29.297,-43.945,-45.898,-127.441
1687530847.384,-37.598,-30.762,-47.363,-51.270,-43.945
1687530847.388,-46.387,-30.273,-42.480,-49.805,-13.672
1687530847.392,-61.035,-32.715,-40.527,-35.645,-85.938
1687530847.395,-55.176,-33.203,-47.363,-39.062,-16.602
1687530847.399,-37.109,-37.598,-45.410,-34.668,252.441
1687530847.403,-27.832,-35.645,-44.434,-26.855,226.074
1687530847.407,-43.457,-27.344,-49.316,-50.293,-65.918
1687530847.411,-68.848,-25.391,-52.734,-53.223,-26.367
1687530847.413,-66.895,-25.391,-48.828,-36.133,104.980
1687530847.417,-38.086,-26.367,-41.992,-31.738,-39.551
1687530847.421,-27.832,-25.879,-40.039,-31.250,-103.516
1687530847.425,-43.457,-28.320,-41.992,-49.316,-87.402
1687530847.429,-62.500,-31.250,-40.527,-54.688,-64.453
1687530847.433,-58.594,-31.250,-34.668,-30.762,-6.836
1687530847.437,-38.086,-32.227,-38.086,-33.691,-36.621
1687530847.440,-20.996,-35.156,-45.898,-33.691,78.125
1687530847.444,-32.715,-37.598,-51.270,-25.391,323.242
1687530847.448,-49.316,-38.086,-51.758,-34.180,11.719
1687530847.452,-52.734,-34.180,-46.875,-41.992,-246.094
1687530847.456,-44.434,-35.156,-41.016,-34.668,-111.816
1687530847.458,-22.949,-39.551,-45.410,-38.086,-43.945
1687530847.462,-15.625,-40.039,-50.781,-39.062,-83.008
1687530847.466,-32.715,-37.109,-45.410,-31.250,-89.355
1687530847.470,-36.133,-37.109,-44.434,-30.762,-47.363
1687530847.474,-15.137,-38.574,-46.875,-29.785,-55.176
1687530847.478,5.859,-33.691,-44.922,-42.480,-73.242
1687530847.482,8.789,-28.809,-44.434,-41.016,-30.762
1687530847.485,-23.438,-31.250,-43.457,-18.555,207.520
1687530847.489,-42.480,-36.621,-43.457,-26.367,115.723
1687530847.493,-27.344,-32.715,-44.434,-38.574,-81.543
1687530847.497,-12.695,-30.762,-42.480,-31.738,53.223
1687530847.501,-11.719,-28.320,-35.645,-17.090,256.836
1687530847.503,-24.414,-25.879,-32.715,-25.879,55.664
1687530847.507,-40.527,-28.320,-38.086,-25.391,-188.477
1687530847.511,-34.180,-28.809,-37.109,-14.160,-118.652
1687530847.515,-15.137,-33.691,-39.551,-11.230,-36.621
1687530847.519,-20.996,-36.133,-41.992,-5.859,1.953
1687530847.523,-43.457,-33.691,-41.016,-28.809,58.105
1687530847.527,-45.898,-30.762,-40.527,-33.691,59.570
1687530847.530,-34.180,-29.297,-36.621,-26.367,178.711
1687530847.534,-23.438,-35.645,-38.086,-23.438,29.785
1687530847.538,-17.090,-38.086,-39.062,-6.836,-114.746
1687530847.542,-34.180,-36.133,-38.086,-31.738,-87.402
1687530847.546,-47.852,-38.086,-42.480,-46.875,-59.082
1687530847.551,-43.945,-41.992,-41.992,-35.645,-14.648
1687530847.555,-33.203,-42.969,-43.457,-36.133,-83.008
1687530847.559,-25.391,-37.598,-43.945,-30.273,-25.879
1687530847.563,-32.715,-37.598,-40.527,-22.461,-1.953
1687530847.567,-47.363,-36.621,-37.109,-19.531,-47.363
1687530847.571,-50.293,-35.156,-34.180,-20.020,-2.441
1687530847.575,-26.367,-34.668,-35.156,-30.273,239.258
1687530847.578,-5.371,-29.785,-39.062,-32.227,94.238
1687530847.582,-10.254,-27.832,-41.992,-24.414,-247.559
1687530847.586,-44.922,-27.344,-39.551,-32.227,-78.613
1687530847.590,-51.270,-29.785,-39.062,-43.457,134.277
1687530847.594,-32.227,-31.738,-46.387,-55.176,-50.293
1687530847.609,-19.043,-31.738,-48.340,-53.223,-120.605
1687530847.613,-26.855,-32.715,-45.410,-34.668,-61.523
1687530847.617,-36.621,-35.156,-41.992,-23.438,-33.203
1687530847.621,-31.250,-34.668,-39.551,-13.672,-30.273
1687530847.625,-21.973,-34.180,-38.574,-3.906,-92.285
1687530847.629,-14.160,-35.645,-35.645,-6.836,96.680
1687530847.633,-27.832,-36.133,-33.691,-20.020,434.570
1687530847.636,-34.180,-35.156,-37.109,-31.250,97.656
1687530847.640,-35.156,-34.180,-34.668,-25.391,-187.012
1687530847.644,-35.156,-37.598,-34.180,-2.441,-42.969
1687530847.648,-21.973,-41.016,-34.180,2.441,-35.645
1687530847.652,-21.484,-36.621,-36.621,-17.090,-74.219
1687530847.654,-36.133,-31.738,-39.062,-21.484,-81.543
1687530847.658,-35.645,-33.691,-33.691,-18.066,-37.598
1687530847.662,-27.344,-33.691,-31.738,-20.508,-62.988
1687530847.666,-17.578,-32.227,-35.645,-19.531,-97.168
1687530847.670,-19.043,-35.645,-35.645,-10.742,-56.152
1687530847.674,-34.668,-35.156,-37.109,-17.578,32.715
1687530847.678,-37.109,-33.203,-39.062,-20.020,76.172
1687530847.681,-26.855,-27.832,-35.156,-20.020,12.695
1687530847.685,-20.996,-27.344,-37.109,-21.484,-81.055
1687530847.689,-25.879,-31.250,-38.574,-7.812,208.496
1687530847.693,-32.227,-30.762,-32.227,-21.484,308.105
1687530847.697,-34.668,-31.250,-31.250,-38.086,-39.062
1687530847.713,-34.180,-32.227,-34.668,-23.926,-107.422
1687530847.717,-34.668,-34.180,-32.715,-19.531,0.000
1687530847.721,-25.879,-35.156,-32.715,-34.180,-83.984
1687530847.725,-29.785,-31.738,-36.133,-41.016,-172.363
1687530847.729,-44.434,-29.297,-37.598,-32.715,-108.887
1687530847.733,-43.457,-28.320,-38.086,-19.043,-26.367
1687530847.737,-26.367,-27.344,-35.645,-20.020,37.598
1687530847.740,-23.926,-30.273,-32.715,-32.227,-14.648
1687530847.744,-35.156,-29.297,-35.156,-37.109,50.293
1687530847.748,-42.480,-26.367,-36.621,-23.438,315.918
1687530847.752,-36.621,-30.762,-36.621,-21.973,38.574
1687530847.756,-24.902,-34.668,-39.062,-31.738,-97.656
1687530847.743,-27.832,-34.180,-41.016,-31.738,6.836
1687530847.747,-36.133,-34.180,-36.621,-24.414,-79.590
1687530847.751,-56.152,-31.738,-38.086,-30.273,-125.977
1687530847.755,-55.664,-31.250,-40.527,-29.297,-107.422
1687530847.759,-40.039,-35.156,-41.016,-33.691,-31.738
1687530847.763,-43.457,-39.062,-43.457,-48.828,11.719
1687530847.767,-41.016,-41.016,-41.504,-32.715,16.113
1687530847.770,-22.949,-42.969,-38.086,-7.324,-35.645
1687530847.774,-20.020,-34.668,-43.457,-9.766,3.906
1687530847.778,-17.578,-25.879,-49.805,-36.133,-60.059
1687530847.782,-13.672,-22.461,-56.641,-59.570,-56.152
1687530847.786,-23.926,-13.672,-60.547,-61.035,91.309
1687530847.788,-35.645,-8.301,-64.941,-58.105,283.691
1687530847.792,-49.316,-6.836,-72.754,-69.336,356.445
1687530847.796,-41.992,1.465,-77.148,-79.102,3.418
1687530847.800,-23.438,10.742,-75.195,-70.312,-124.512
1687530847.804,-24.414,14.160,-77.148,-69.824,-29.297
1687530847.808,-47.363,15.625,-84.473,-86.426,-40.527
1687530847.812,-55.176,15.625,-90.332,-93.262,-69.336
1687530847.815,-49.316,12.695,-94.727,-85.938,-27.832
1687530847.819,-37.109,16.602,-101.562,-85.449,131.348
1687530847.823,-32.715,21.484,-106.934,-99.609,-86.426
1687530847.827,-56.152,20.996,-107.422,-109.863,-199.707
1687530847.831,-65.430,22.949,-106.445,-102.051,-64.941
1687530847.833,-46.387,25.879,-110.840,-90.332,-111.328
1687530847.837,-30.273,24.902,-109.375,-89.844,-182.617
1687530847.841,-20.508,30.273,-104.980,-77.148,-125.000
1687530847.845,-20.996,35.645,-106.445,-66.406,-17.578
1687530847.849,-24.414,35.645,-106.934,-74.219,-37.109
1687530847.853,-16.602,38.086,-108.887,-76.172,-28.320
1687530847.857,-6.348,36.621,-107.422,-77.148,87.402
1687530847.860,-5.859,31.250,-105.469,-68.359,269.043
1687530847.864,-0.977,31.738,-101.562,-50.293,98.633
1687530847.868,-6.348,35.156,-98.145,-56.641,-166.992
1687530847.872,-13.672,26.855,-96.680,-45.410,-2.441
1687530847.876,8.301,19.531,-92.285,-29.297,168.945
1687530847.879,4.395,17.090,-90.332,-38.086,-52.734
1687530847.883,-14.160,12.695,-88.379,-42.480,-124.023
1687530847.887,-18.066,7.324,-84.961,-40.527,-32.715
1687530847.891,-22.949,4.395,-80.078,-33.203,28.809
1687530847.895,-25.879,3.906,-83.008,-45.410,-41.016
1687530847.899,-16.113,4.395,-80.566,-53.711,-69.336
1687530847.903,-19.043,2.441,-75.195,-46.387,74.707
1687530847.906,-31.738,1.465,-71.777,-32.227,203.125
1687530847.910,-28.320,-2.441,-69.336,-22.461,-43.457
1687530847.914,-12.695,-5.859,-64.453,-28.320,-136.230
1687530847.918,-9.277,-5.859,-62.500,-42.969,-5.371
1687530847.922,-17.090,-6.348,-63.965,-46.875,-51.270
1687530847.923,-18.066,-6.348,-64.941,-35.156,-157.715
1687530847.927,-13.184,-3.418,-59.082,-18.066,-85.938
1687530847.931,-12.695,-3.906,-49.805,-29.785,23.438
1687530847.935,-30.273,-2.441,-52.246,-51.758,-21.484
1687530847.939,-43.945,1.465,-57.129,-41.992,-67.383
1687530847.943,-39.551,1.465,-58.105,-40.039,-56.152
1687530847.947,-37.109,-2.441,-57.617,-52.246,286.133
1687530847.950,-29.785,-4.395,-51.270,-40.527,322.754
1687530847.954,-23.438,2.441,-42.480,-21.484,-86.426
1687530847.958,-31.250,-2.930,-43.457,-28.320,-73.730
1687530847.962,-49.805,-9.277,-42.969,-25.391,211.914
1687530847.966,-44.434,-9.277,-40.039,-9.277,-2.441
1687530847.968,-30.762,-16.113,-41.504,-15.625,-177.246
1687530847.972,-27.832,-22.949,-41.504,-20.996,-77.148
1687530847.976,-29.785,-18.555,-39.062,-27.344,-41.504
1687530847.980,-35.645,-18.066,-35.645,-18.066,-119.629
1687530847.984,-39.551,-15.625,-36.621,-15.137,-121.582
1687530847.988,-28.809,-13.672,-43.945,-10.742,88.867
1687530847.992,-14.648,-17.090,-39.062,1.465,265.625
1687530847.995,-21.973,-14.648,-36.133,-14.160,150.879
1687530847.999,-23.926,-14.648,-40.039,-18.555,-21.973
1687530848.003,-23.438,-19.043,-37.109,-20.508,-14.648
1687530848.007,-38.086,-16.602,-36.621,-20.996,85.938
1687530848.011,-27.344,-14.648,-38.574,-11.230,-79.590
1687530848.088,-27.344,-18.555,-35.156,-21.484,-184.570
1687530848.092,-34.180,-18.555,-36.621,-27.344,-119.141
1687530848.096,-35.645,-14.160,-39.062,-20.020,-90.332
1687530848.100,-32.227,-15.137,-35.156,-10.742,-143.555
1687530848.104,-22.461,-20.020,-30.273,6.348,-99.121
1687530848.108,-26.855,-23.438,-29.785,-5.859,80.566
1687530848.112,-36.133,-20.020,-32.227,-19.043,30.762
1687530848.115,-30.762,-22.949,-35.645,-12.695,-53.223
1687530848.119,-29.785,-27.344,-36.621,-21.484,-62.012
1687530848.123,-23.438,-27.832,-38.574,-15.137,275.879
1687530848.127,-18.555,-28.320,-43.945,0.000,319.336
1687530848.131,-30.762,-28.809,-44.434,-6.348,-77.148
1687530848.132,-32.715,-32.715,-31.250,-16.602,-38.086
1687530848.136,-17.578,-22.461,-30.273,-18.555,-114.746
1687530848.134,-25.879,-30.762,-33.203,-18.555,-4.395
1687530848.138,-24.414,-31.738,-34.668,-12.695,-3.906
1687530848.142,-28.809,-30.273,-34.180,-18.066,-8.301
1687530848.145,-31.250,-27.344,-30.273,-22.461,53.711
1687530848.149,-23.438,-27.832,-27.344,-20.508,187.500
1687530848.153,-17.090,-29.297,-27.832,-14.160,44.434
1687530848.157,-15.137,-28.320,-29.297,-13.184,-137.207
1687530848.161,-13.672,-28.809,-33.691,-21.484,-97.168
1687530848.164,-12.207,-25.879,-28.320,-23.926,16.602
1687530848.168,-1.953,-26.367,-27.344,-19.043,-84.961
1687530848.172,-1.953,-26.855,-25.879,-5.371,-111.816
1687530848.176,-9.766,-26.855,-25.391,-9.277,-100.586
1687530848.180,-4.883,-27.832,-28.809,-24.902,-81.543
1687530848.184,-12.695,-28.320,-26.855,-26.367,-95.703
1687530848.188,-20.508,-26.367,-26.855,-21.484,-130.371
1687530848.191,-20.508,-24.902,-22.461,-14.648,17.090
1687530848.195,-12.695,-30.762,-21.484,-11.719,199.219
1687530848.199,6.348,-29.297,-25.391,-9.766,15.625
1687530848.203,5.371,-24.414,-28.320,-7.324,-164.551
1687530848.207,-11.719,-27.344,-37.109,-30.762,-117.676
1687530848.208,13.184,-21.484,-42.480,-16.113,-109.375
1687530848.212,31.738,-25.391,-28.809,23.438,-146.973
1687530848.216,21.484,-40.039,-4.883,11.230,-104.980
1687530848.220,2.930,-47.363,-0.488,0.000,-9.277
1687530848.224,-21.484,-52.734,-4.395,5.371,36.621
1687530848.228,-15.137,-60.547,0.977,17.578,-3.906
1687530848.232,-0.488,-63.965,11.230,-0.977,-16.113
1687530848.235,-4.395,-70.801,11.230,-5.859,276.855
1687530848.239,-6.836,-76.660,9.766,14.648,321.289
1687530848.243,4.883,-83.008,16.602,17.578,-56.641
1687530848.247,16.113,-85.449,22.949,16.113,-31.250
1687530848.251,9.277,-87.402,26.855,7.324,134.766
1687530848.253,13.184,-96.191,28.320,2.930,-4.883
1687530848.257,15.137,-100.098,31.738,17.578,-112.793
1687530848.261,6.348,-103.027,41.504,22.949,-112.305
1687530848.265,-7.324,-107.910,39.551,21.973,-114.746
1687530848.269,-15.625,-114.258,34.180,15.625,-102.051
1687530848.273,-19.043,-119.141,32.715,11.230,26.855
1687530848.277,-22.949,-114.258,31.738,11.719,157.227
1687530848.280,-24.902,-106.934,29.297,16.113,279.297
1687530848.284,-28.320,-101.562,27.832,18.555,53.223
1687530848.288,-23.926,-95.703,26.367,8.301,-159.668
1687530848.292,-24.414,-99.121,21.973,11.230,-93.750
1687530848.296,-30.273,-93.750,19.043,19.531,-74.707
1687530848.298,-39.551,-90.820,11.719,11.719,-137.695
1687530848.302,-37.598,-92.285,6.348,4.395,-127.930
1687530848.306,-33.691,-87.402,8.789,13.184,-14.160
1687530848.310,-19.531,-85.938,6.348,24.902,-8.301
1687530848.314,-7.324,-81.543,0.000,18.066,-182.617
1687530848.318,-16.602,-79.590,-1.953,7.812,-150.391
1687530848.322,-31.738,-82.031,-5.371,2.930,172.852
1687530848.325,-30.762,-79.102,-7.324,5.859,87.891
1687530848.329,-19.043,-81.055,-11.719,-1.465,-115.723
1687530848.333,-23.438,-75.684,-17.090,-3.418,30.762
1687530848.337,-35.156,-69.336,-14.648,-4.883,330.566
1687530848.341,-28.809,-67.871,-12.695,-11.230,132.812
1687530848.343,-17.090,-58.594,-12.695,5.371,-144.531
1687530848.347,-13.672,-53.223,-14.648,17.578,-40.527
1687530848.351,-20.508,-52.246,-16.113,-4.883,22.461
1687530848.355,-23.438,-53.223,-15.137,-14.648,-79.102
1687530848.359,-24.902,-54.688,-15.625,-12.695,-156.738
1687530848.363,-18.555,-55.176,-16.602,-11.230,53.223
1687530848.367,-8.789,-54.688,-16.113,3.418,241.699
1687530848.370,-20.508,-51.758,-18.066,7.812,2.930
1687530848.374,-26.855,-53.223,-24.902,0.977,-111.816
1687530848.378,-30.273,-54.688,-28.809,-10.254,-5.371
1687530848.382,-39.062,-51.270,-31.250,-17.578,32.715
1687530848.386,-34.668,-49.316,-35.645,-13.672,53.711
1687530848.403,-30.762,-48.828,-37.109,-14.648,25.391
1687530848.407,-35.156,-48.828,-29.297,-27.832,75.195
1687530848.411,-29.297,-49.316,-28.320,-19.531,31.250
1687530848.415,-24.414,-47.363,-29.785,-15.625,-118.652
1687530848.419,-33.691,-45.898,-28.809,-14.648,-76.172
1687530848.423,-37.598,-44.434,-30.273,-4.395,127.930
1687530848.427,-37.598,-41.992,-33.203,-9.766,126.953
1687530848.430,-33.691,-44.922,-33.203,-20.508,-101.562
1687530848.434,-27.344,-47.363,-33.203,-10.254,-125.977
1687530848.438,-26.367,-43.945,-34.180,-12.695,135.254
1687530848.442,-20.508,-44.434,-34.180,-19.043,93.262
1687530848.446,-15.625,-45.898,-37.598,-15.137,-125.488
1687530848.449,-16.602,-44.434,-36.621,-20.508,-106.934
1687530848.453,-26.855,-43.457,-33.691,-22.949,122.559
1687530848.457,-31.738,-41.016,-34.668,-22.461,-3.418
1687530848.461,-27.832,-40.527,-32.715,-19.043,-161.621
1687530848.465,-31.250,-40.527,-34.668,-19.531,-46.387
1687530848.469,-23.926,-39.062,-35.156,-10.254,76.660
1687530848.473,-19.531,-43.457,-32.715,-13.672,-18.066
1687530848.476,-22.949,-44.434,-35.156,-22.949,-112.305
1687530848.480,-17.578,-39.551,-33.691,-10.254,-14.648
1687530848.484,-23.926,-39.062,-32.227,-0.488,217.773
1687530848.488,-26.855,-42.480,-30.762,-4.883,9.766
1687530848.492,-17.578,-39.062,-29.785,-19.043,-124.512
1687530848.493,-21.484,-37.109,-31.250,-25.879,-41.992
1687530848.497,-19.043,-38.086,-31.738,-11.719,-40.527
1687530848.501,-20.020,-33.691,-33.203,-1.465,-90.820
1687530848.505,-31.250,-32.227,-33.691,-17.578,-83.008
1687530848.509,-30.762,-39.551,-35.645,-30.273,141.602
1687530848.513,-17.578,-43.457,-37.109,-28.320,152.344
1687530848.517,-16.602,-42.480,-39.551,-24.414,15.625
1687530848.520,-16.602,-43.945,-38.086,-21.484,-41.504
1687530848.524,-22.461,-45.898,-33.691,-20.996,182.617
1687530848.528,-28.809,-44.922,-34.180,-29.297,120.117
1687530848.532,-32.715,-41.504,-32.227,-34.668,-111.328
1687530848.536,-36.621,-46.387,-31.738,-23.926,-41.504
1687530848.553,-35.645,-50.293,-32.715,-24.414,75.195
1687530848.557,-31.738,-41.504,-32.715,-42.480,-52.246
1687530848.561,-30.762,-37.109,-35.156,-44.434,-159.668
1687530848.565,-33.691,-42.480,-36.133,-38.086,-95.215
1687530848.569,-30.273,-41.992,-36.133,-27.344,-58.105
1687530848.573,-20.020,-37.598,-37.598,-16.602,-21.973
1687530848.577,-25.391,-43.945,-43.945,-24.414,-13.672
1687530848.580,-32.715,-46.875,-41.016,-23.926,101.562
1687530848.584,-32.715,-45.410,-39.551,-17.090,250.488
1687530848.588,-32.227,-43.457,-40.527,-31.738,-13.672
1687530848.592,-37.109,-39.551,-40.039,-26.855,-123.535
1687530848.596,-39.062,-46.387,-48.828,-40.039,-26.855
1687530848.583,-42.969,-50.293,-52.246,-68.848,-87.402
1687530848.587,-39.062,-45.410,-47.852,-61.035,-124.512
1687530848.591,-36.133,-45.410,-47.363,-48.828,-44.434
1687530848.595,-35.156,-46.875,-44.922,-44.434,-28.809
1687530848.599,-37.109,-46.875,-42.480,-40.527,-100.586
1687530848.603,-49.805,-48.828,-44.922,-29.297,-108.398
1687530848.607,-46.387,-43.457,-43.457,-31.738,20.508
1687530848.610,-30.273,-38.574,-38.574,-26.855,101.074
1687530848.614,-19.043,-44.434,-37.109,-17.090,34.180
1687530848.618,-15.137,-43.457,-35.645,-15.625,-23.926
1687530848.622,-14.160,-40.039,-37.109,-30.273,-38.574
1687530848.626,-25.391,-41.992,-42.480,-34.668,238.770
1687530848.628,-21.973,-41.504,-47.363,-20.996,323.242
1687530848.632,-23.926,-42.480,-46.875,-21.484,-21.484
1687530848.636,-38.086,-40.527,-40.527,-27.832,-119.629
1687530848.640,-39.551,-38.574,-36.133,-38.574,-70.312
1687530848.644,-38.086,-37.109,-38.574,-44.922,-137.695
1687530848.648,-28.320,-34.668,-40.527,-42.969,-91.797
1687530848.652,-28.320,-38.086,-40.039,-39.062,32.715
1687530848.655,-34.180,-40.039,-41.016,-28.320,206.543
1687530848.659,-42.969,-38.574,-39.551,-27.832,-71.777
1687530848.663,-40.039,-40.527,-40.527,-45.410,-221.680
1687530848.667,-35.645,-38.086,-42.480,-43.945,-75.195
1687530848.671,-38.574,-35.156,-37.598,-32.227,-85.938
1687530848.673,-44.922,-39.062,-41.504,-42.969,-144.531
1687530848.677,-54.199,-44.922,-47.363,-58.105,-126.465
1687530848.681,-52.734,-41.504,-44.922,-49.316,58.594
1687530848.685,-44.434,-40.527,-36.621,-31.738,41.992
1687530848.689,-32.715,-43.457,-38.086,-18.066,-153.809
1687530848.693,-39.062,-42.480,-44.434,-16.602,-28.320
1687530848.697,-42.969,-41.504,-39.551,-33.203,235.840
1687530848.700,-32.227,-38.574,-39.551,-44.922,132.812
1687530848.704,-31.738,-36.133,-39.062,-49.805,-102.539
1687530848.708,-34.180,-39.062,-38.574,-43.945,-67.383
1687530848.712,-32.715,-42.480,-41.504,-35.645,90.332
1687530848.716,-34.668,-40.527,-38.086,-33.691,21.973
1687530848.719,-39.551,-43.945,-37.598,-38.574,-143.555
1687530848.723,-39.062,-46.875,-40.527,-40.527,-3.906
1687530848.727,-39.551,-39.062,-34.668,-25.879,229.004
1687530848.731,-50.781,-34.180,-32.715,-27.832,52.246
1687530848.735,-59.082,-39.551,-40.039,-47.852,-109.863
1687530848.739,-67.871,-41.504,-43.457,-57.129,80.078
1687530848.743,-66.895,-40.039,-41.504,-55.176,165.039
1687530848.746,-62.012,-40.039,-40.527,-48.340,-32.227
1687530848.750,-64.453,-41.016,-41.504,-46.387,-139.160
1687530848.754,-62.500,-43.457,-41.504,-51.758,-106.934
1687530848.758,-57.129,-37.109,-36.621,-41.504,-103.516
1687530848.762,-57.129,-34.180,-37.598,-40.527,-144.043
1687530848.778,-55.176,-35.156,-40.039,-34.668,-105.957
1687530848.782,-42.480,-33.691,-41.016,-22.949,128.418
1687530848.786,-42.969,-34.180,-41.504,-19.531,180.176
1687530848.790,-39.062,-37.598,-39.551,-31.250,8.789
1687530848.794,-35.156,-37.109,-42.480,-40.527,-53.711
1687530848.798,-35.156,-34.668,-47.363,-27.344,212.891
1687530848.802,-33.691,-35.156,-49.805,-35.156,234.375
1687530848.805,-30.273,-33.203,-47.363,-47.363,-126.465
1687530848.809,-37.598,-33.691,-43.945,-51.758,-179.199
1687530848.813,-52.246,-30.273,-41.992,-48.340,14.648
1687530848.817,-47.363,-29.785,-42.969,-39.062,-25.391
1687530848.821,-41.992,-32.227,-43.945,-26.855,-149.414
1687530848.823,-48.828,-32.715,-44.922,-25.879,-66.406
1687530848.827,-56.641,-36.621,-43.945,-43.457,92.285
1687530848.831,-50.293,-38.086,-41.992,-36.621,-59.570
1687530848.835,-38.574,-38.086,-39.062,-29.785,-138.672
1687530848.839,-43.945,-40.039,-43.945,-37.598,-83.984
1687530848.843,-57.129,-41.992,-50.781,-41.504,-18.066
1687530848.847,-62.988,-40.039,-51.758,-55.664,-21.973
1687530848.850,-56.641,-36.133,-43.457,-58.105,-93.262
1687530848.854,-57.129,-35.156,-40.039,-57.617,11.719
1687530848.858,-67.383,-34.180,-43.457,-52.246,319.336
1687530848.862,-64.941,-31.250,-43.457,-35.156,123.047
1687530848.866,-61.035,-28.320,-43.457,-43.457,-141.113
1687530848.868,-67.383,-28.809,-42.480,-60.059,10.742
1687530848.872,-49.316,-25.391,-39.551,-43.457,18.555
1687530848.876,-33.691,-23.926,-40.039,-18.066,-97.168
1687530848.880,-59.082,-29.297,-37.598,-25.391,-59.082
1687530848.884,-74.219,-36.621,-38.086,-50.781,19.043
1687530848.888,-62.500,-33.203,-40.527,-49.805,44.434
1687530848.892,-69.824,-28.320,-41.016,-39.551,1.465
1687530848.895,-66.895,-24.902,-42.480,-28.320,-69.824
1687530848.899,-46.387,-26.367,-40.039,-20.996,166.504
1687530848.903,-41.992,-32.715,-36.621,-12.207,199.219
1687530848.907,-43.945,-32.227,-37.109,-20.508,-31.250
1687530848.911,-46.387,-35.645,-40.039,-41.992,-22.461
1687530848.913,-49.805,-33.691,-36.133,-37.109,72.754
1687530848.917,-45.898,-27.344,-32.715,-22.949,-102.539
1687530848.921,-44.434,-29.297,-36.621,-27.832,-168.945
1687530848.925,-58.594,-33.203,-36.621,-48.340,-103.516
1687530848.929,-61.523,-34.668,-36.133,-52.246,-87.402
1687530848.933,-62.012,-33.203,-40.527,-36.133,-36.621
1687530848.937,-56.641,-32.715,-38.086,-39.551,-6.836
1687530848.940,-54.199,-35.645,-36.621,-46.387,101.562
1687530848.944,-56.152,-36.133,-38.574,-41.504,188.477
1687530848.948,-51.758,-32.227,-35.156,-34.668,-71.289
1687530848.952,-52.246,-34.180,-39.062,-27.832,-77.148
1687530848.956,-52.734,-36.133,-41.504,-30.273,18.555
1687530848.958,-49.316,-30.273,-38.574,-36.621,-79.590
1687530848.962,-44.434,-28.320,-37.109,-36.621,-155.762
1687530848.966,-44.922,-31.738,-37.109,-26.367,-119.141
1687530848.970,-37.598,-28.320,-40.039,-26.367,-20.508
1687530848.974,-26.367,-27.344,-32.715,-31.738,-78.125
1687530848.978,-23.438,-26.367,-31.738,-35.156,-115.234
1687530848.982,-20.996,-24.902,-36.621,-37.109,-65.918
1687530848.985,-15.625,-27.832,-35.156,-29.785,90.332
1687530848.989,-8.789,-28.320,-34.668,-34.668,34.180
1687530848.993,-1.465,-32.715,-33.203,-44.922,-161.133
1687530848.997,-5.859,-36.133,-38.086,-50.781,-35.645
1687530849.001,-5.371,-32.715,-40.527,-47.363,163.574
1687530849.005,0.000,-33.691,-39.062,-43.945,62.988
1687530849.009,-8.301,-33.691,-40.039,-39.551,-140.625
1687530849.013,-13.184,-30.762,-38.574,-37.109,-103.027
1687530849.017,-13.672,-30.762,-36.133,-18.066,-15.625
1687530849.021,-21.484,-31.738,-36.133,-13.184,-91.797
1687530849.025,-30.273,-34.668,-38.574,-44.434,-27.832
1687530849.029,-24.414,-30.762,-30.273,-43.457,159.180
1687530849.032,-15.625,-24.414,-27.832,-22.949,301.270
1687530849.036,-14.160,-22.949,-34.180,-26.367,36.621
1687530849.040,-11.719,-27.832,-33.691,-23.926,-124.023
1687530849.044,-6.836,-29.785,-29.785,-7.812,-9.277
1687530849.048,-19.043,-26.367,-31.250,-29.785,-96.680
1687530849.048,-21.484,-23.438,-34.180,-47.852,-208.984
1687530849.052,-19.531,-26.367,-33.203,-26.367,-124.512
1687530849.056,-35.645,-28.320,-35.645,-25.391,22.461
1687530849.060,-39.551,-27.832,-38.574,-35.645,6.836
1687530849.064,-27.832,-29.785,-34.668,-25.391,-104.492
1687530849.068,-23.926,-30.273,-33.691,-22.461,-18.066
1687530849.072,-30.762,-32.227,-35.645,-23.438,270.020
1687530849.075,-29.297,-33.691,-37.109,-19.043,319.824
1687530849.079,-27.832,-31.250,-36.621,-21.973,-35.645
1687530849.083,-30.273,-30.273,-33.203,-26.855,-129.883
1687530849.087,-15.625,-31.250,-30.273,-29.297,44.922
1687530849.091,-26.367,-32.715,-32.715,-31.250,-41.992
1687530849.093,-41.992,-33.691,-36.621,-34.180,-149.902
1687530849.097,-35.156,-32.715,-37.109,-35.156,-121.582
1687530849.101,-33.203,-33.691,-37.598,-36.621,5.859
1687530849.105,-30.273,-33.691,-36.621,-41.016,12.695
1687530849.109,-36.621,-35.156,-40.039,-37.109,-87.891
1687530849.113,-41.992,-35.156,-41.504,-42.969,26.367
1687530849.117,-35.645,-36.133,-39.551,-45.898,150.391
1687530849.120,-31.738,-34.180,-40.527,-48.340,23.438
1687530849.124,-26.367,-36.621,-43.457,-49.316,-78.125
1687530849.128,-28.809,-39.062,-42.969,-40.527,-0.977
1687530849.132,-41.992,-36.621,-38.574,-26.855,232.910
1687530849.136,-41.016,-33.203,-37.598,-27.344,-0.977
1687530849.153,-28.320,-32.715,-38.574,-43.457,-176.270
1687530849.157,-30.762,-33.691,-43.457,-45.410,-52.734
1687530849.161,-34.668,-31.738,-44.922,-43.457,-25.879
1687530849.165,-27.344,-33.691,-43.457,-34.668,-80.566
1687530849.169,-31.738,-41.504,-47.363,-36.133,-24.902
1687530849.173,-35.645,-39.551,-47.363,-50.781,119.141
1687530849.177,-34.180,-36.621,-46.387,-41.504,50.293
1687530849.180,-29.297,-35.156,-42.480,-33.203,39.551
1687530849.184,-28.809,-32.227,-38.574,-39.551,36.621
1687530849.188,-29.785,-30.762,-39.062,-41.016,253.906
1687530849.192,-19.531,-30.273,-38.086,-34.668,397.461
1687530849.196,-21.973,-27.344,-35.645,-32.715,-28.809
1687530849.198,-25.879,-28.320,-36.133,-30.273,-150.879
1687530849.202,-31.250,-30.273,-41.016,-34.180,-80.078
1687530849.206,-41.992,-28.320,-40.039,-41.016,-134.277
1687530849.210,-41.504,-32.715,-34.180,-38.086,-189.941
1687530849.214,-39.062,-34.180,-32.715,-32.715,-155.273
1687530849.218,-32.227,-36.133,-37.109,-27.832,35.645
1687530849.222,-27.832,-36.621,-33.691,-15.625,20.020
1687530849.225,-30.762,-33.203,-30.762,-31.738,-152.344
1687530849.229,-39.551,-32.715,-33.203,-57.129,-73.242
1687530849.233,-43.457,-33.203,-35.156,-42.969,167.969
1687530849.237,-42.480,-34.180,-40.527,-40.039,-25.391
1687530849.241,-41.016,-31.738,-38.086,-41.992,-95.703
1687530849.243,-38.574,-31.250,-34.180,-43.457,62.988
1687530849.247,-43.945,-32.227,-41.504,-42.480,-41.016
1687530849.251,-40.039,-28.320,-39.062,-34.668,-155.762
1687530849.255,-31.250,-30.273,-35.645,-30.273,-106.445
1687530849.259,-38.086,-32.715,-36.621,-30.762,-45.410
1687530849.263,-60.059,-29.785,-39.062,-38.574,24.414
1687530849.267,-62.988,-27.832,-37.598,-57.129,16.602
1687530849.270,-56.641,-28.809,-37.598,-59.570,-96.680
1687530849.274,-63.477,-33.203,-42.969,-47.852,70.801
1687530849.278,-56.641,-36.133,-40.527,-45.410,100.586
1687530849.282,-56.152,-33.203,-41.504,-44.434,-45.410
1687530849.286,-64.941,-28.320,-41.504,-41.504,-39.062
1687530849.288,-52.734,-26.367,-34.180,-35.645,-12.207
1687530849.292,-44.922,-30.762,-31.738,-24.414,-90.820
1687530849.296,-43.457,-31.250,-34.668,-28.320,-128.906
1687530849.300,-43.945,-25.879,-35.645,-43.945,-37.598
1687530849.304,-56.641,-31.738,-35.156,-44.434,208.984
1687530849.308,-57.129,-33.203,-34.180,-33.203,184.570
1687530849.312,-43.457,-32.227,-41.992,-39.551,-48.828
1687530849.315,-39.062,-35.156,-47.363,-46.875,-1.465
1687530849.319,-44.922,-32.227,-43.945,-33.691,239.258
1687530849.323,-40.039,-33.691,-45.898,-41.992,0.000
1687530849.327,-37.598,-37.109,-44.434,-42.480,-143.066
1687530849.331,-32.227,-39.551,-41.504,-27.344,-41.992
1687530849.334,-27.832,-36.133,-39.062,-26.367,-46.875
1687530849.338,-39.551,-30.273,-36.621,-36.133,-76.172
1687530849.342,-39.551,-25.879,-37.109,-37.598,-3.418
1687530849.346,-42.480,-34.668,-36.621,-29.785,104.004
1687530849.350,-45.410,-42.969,-41.504,-28.809,22.461
1687530849.354,-46.387,-43.945,-44.922,-45.898,-47.363
1687530849.358,-49.316,-40.527,-41.016,-42.969,5.859
1687530849.361,-41.504,-31.738,-41.504,-36.133,186.035
1687530849.365,-38.574,-30.273,-42.969,-44.434,147.949
1687530849.369,-40.039,-32.715,-38.086,-36.621,-174.316
1687530849.373,-39.551,-31.738,-37.109,-28.809,-52.734
1687530849.377,-41.504,-31.250,-39.062,-33.691,194.824
1687530849.378,-36.133,-27.344,-39.062,-38.086,-39.551
1687530849.382,-40.527,-31.250,-41.992,-41.992,-183.594
1687530849.386,-51.270,-34.668,-41.016,-44.922,-126.953
1687530849.390,-35.645,-37.109,-41.016,-37.109,-108.398
1687530849.394,-30.762,-41.016,-40.039,-41.016,-86.426
1687530849.398,-45.410,-42.969,-39.062,-41.504,-44.434
1687530849.402,-41.504,-43.945,-45.410,-36.133,70.801
1687530849.405,-25.391,-41.992,-43.945,-36.621,316.406
1687530849.409,-24.902,-39.551,-38.086,-40.039,65.918
1687530849.413,-30.762,-36.621,-39.551,-36.133,-218.750
1687530849.417,-33.691,-35.156,-44.434,-46.387,-142.578
1687530849.421,-30.273,-33.691,-35.645,-44.434,-142.090
1687530849.423,-32.715,-35.645,-32.715,-41.016,-174.805
1687530849.427,-36.621,-37.109,-38.574,-38.574,-49.805
1687530849.431,-36.133,-34.180,-40.527,-37.598,32.715
1687530849.435,-42.969,-33.203,-41.016,-44.922,-20.508
1687530849.439,-41.992,-33.691,-38.086,-52.734,-22.461
1687530849.443,-37.109,-35.156,-37.598,-48.828,53.711
1687530849.447,-27.832,-30.273,-36.133,-32.227,313.477
1687530849.450,-33.203,-31.738,-37.109,-24.902,305.176
1687530849.454,-45.410,-36.133,-40.527,-29.785,-58.105
1687530849.458,-47.852,-32.715,-37.598,-40.039,-118.164
1687530849.462,-46.387,-34.668,-37.109,-29.785,162.109
1687530849.466,-37.598,-35.156,-40.527,-24.902,56.152
1687530849.469,-26.367,-33.691,-41.992,-36.621,-95.703
1687530849.473,-23.438,-31.738,-39.551,-41.016,-37.109
1687530849.477,-23.926,-35.645,-42.480,-35.645,14.160
1687530849.481,-22.949,-36.621,-41.504,-28.320,-51.758
1687530849.485,-25.391,-32.715,-38.574,-33.203,-119.629
1687530849.489,-29.785,-29.785,-37.109,-34.180,64.453
1687530849.493,-30.762,-29.785,-41.016,-35.645,150.879
1687530849.496,-27.832,-31.738,-39.551,-39.062,-73.242
1687530849.500,-29.297,-32.715,-33.691,-25.391,-194.824
1687530849.504,-40.039,-35.156,-33.691,-21.973,-23.926
1687530849.508,-37.109,-33.691,-35.156,-26.855,186.523
1687530849.512,-22.461,-33.203,-35.156,-23.926,-39.551
1687530849.528,-24.902,-33.691,-33.203,-27.344,-158.691
1687530849.532,-31.738,-34.180,-35.156,-36.133,-70.312
1687530849.536,-29.785,-35.645,-41.016,-31.738,-38.086
1687530849.540,-30.762,-35.645,-37.109,-12.695,-111.328
1687530849.544,-41.992,-33.691,-35.645,-15.625,-70.801
1687530849.548,-43.457,-33.203,-36.621,-20.020,83.008
1687530849.552,-29.297,-29.785,-33.691,-24.902,29.785
1687530849.555,-21.973,-27.344,-37.109,-28.809,-46.875
1687530849.559,-26.855,-31.250,-38.574,-19.043,-90.820
1687530849.563,-30.762,-31.250,-37.598,-23.438,149.902
1687530849.567,-38.574,-32.715,-40.527,-45.898,142.578
1687530849.571,-33.203,-31.250,-39.062,-44.434,-93.750
1687530849.573,-23.438,-26.855,-32.227,-37.109,-62.988
1687530849.577,-24.902,-31.250,-28.320,-18.555,241.211
1687530849.581,-18.066,-32.227,-34.180,-10.742,140.625
1687530849.585,-26.367,-31.738,-39.551,-30.273,-104.004
1687530849.589,-31.738,-31.738,-33.691,-33.203,-71.777
1687530849.593,-26.855,-26.367,-26.367,-25.879,-42.480
1687530849.597,-28.320,-25.391,-26.367,-28.809,-68.848
1687530849.600,-31.250,-28.320,-31.250,-19.043,-137.695
1687530849.604,-35.645,-26.367,-29.297,-19.043,0.000
1687530849.608,-28.809,-25.391,-25.391,-26.367,257.324
1687530849.612,-12.207,-26.855,-27.344,-22.461,-21.973
1687530849.616,-18.555,-27.344,-33.691,-26.855,-235.840
1687530849.619,-22.949,-27.832,-34.180,-37.109,-116.699
1687530849.623,-27.344,-27.344,-32.715,-34.180,-86.914
1687530849.627,-23.438,-27.344,-33.203,-31.250,-147.461
1687530849.631,-25.391,-25.391,-32.715,-39.062,-178.711
1687530849.635,-33.203,-26.367,-34.668,-28.809,14.160
1687530849.639,-27.832,-30.273,-30.762,-19.043,23.926
1687530849.643,-34.180,-30.762,-31.738,-34.668,-130.371
1687530849.646,-38.574,-32.227,-33.203,-44.922,-75.684
1687530849.650,-36.133,-33.203,-30.762,-33.203,86.426
1687530849.654,-35.156,-36.621,-33.203,-32.227,42.969
1687530849.658,-23.438,-40.527,-36.621,-38.574,-44.922
1687530849.662,-23.438,-38.086,-33.691,-26.367,-31.738
1687530849.664,-32.227,-34.668,-28.320,-15.625,89.844
1687530849.668,-31.738,-37.109,-27.832,-15.137,-44.922
1687530849.672,-27.344,-34.180,-29.785,-17.578,-234.375
1687530849.676,-24.902,-29.297,-30.762,-25.879,-143.555
1687530849.680,-35.645,-33.203,-35.156,-33.691,-48.340
1687530849.684,-39.551,-30.762,-40.039,-42.480,-19.043
1687530849.688,-41.992,-27.344,-37.109,-56.152,-73.730
1687530849.691,-35.645,-28.809,-37.109,-44.434,-6.348
1687530849.695,-39.062,-29.785,-40.527,-26.855,305.664
1687530849.699,-54.199,-27.832,-36.621,-31.250,150.879
1687530849.703,-45.410,-25.879,-32.715,-42.969,-129.883
1687530849.707,-37.109,-26.367,-34.180,-47.363,-46.387
1687530849.710,-27.344,-27.344,-32.715,-42.480,-65.918
1687530849.714,-9.766,-25.879,-33.203,-31.738,-141.602
1687530849.718,-14.648,-25.879,-35.645,-30.762,-121.094
1687530849.722,-17.578,-33.203,-39.551,-36.621,-69.336
1687530849.726,-11.719,-34.180,-38.086,-43.945,-86.426
1687530849.730,-11.719,-28.320,-38.086,-55.176,-88.867
1687530849.734,-6.836,-28.809,-40.527,-45.898,-41.016
1687530849.737,-12.695,-30.273,-35.156,-23.926,334.473
1687530849.741,-33.691,-30.273,-39.062,-38.086,323.730
1687530849.745,-33.691,-32.715,-40.039,-45.898,-55.176
1687530849.749,-41.016,-35.156,-33.691,-39.551,-16.113
1687530849.753,-56.641,-36.621,-35.156,-48.828,83.008
1687530849.756,-53.223,-38.574,-33.691,-55.664,-109.375
1687530849.760,-52.734,-38.086,-30.273,-50.781,-182.129
1687530849.764,-53.223,-32.715,-29.297,-36.133,-129.883
1687530849.768,-47.852,-30.273,-26.367,-31.738,-98.145
1687530849.772,-50.781,-30.273,-31.250,-44.434,-66.895
1687530849.776,-44.922,-27.832,-37.598,-43.457,-66.895
1687530849.780,-43.457,-26.855,-34.668,-43.945,121.582
1687530849.783,-62.500,-34.180,-34.180,-55.664,306.641
1687530849.787,-60.059,-38.574,-31.738,-39.062,52.734
1687530849.791,-35.645,-34.668,-27.832,-19.043,-22.461
1687530849.795,-45.410,-33.691,-31.738,-37.109,76.172
1687530849.799,-50.293,-26.855,-36.133,-48.828,19.043
1687530849.798,-44.434,-22.949,-41.504,-45.898,-122.559
1687530849.802,-39.551,-26.367,-45.410,-41.992,-112.305
1687530849.806,-33.691,-21.484,-44.922,-34.180,-79.590
1687530849.810,-50.293,-23.926,-46.387,-53.223,-49.316
1687530849.814,-49.316,-31.250,-44.434,-53.223,-58.594
1687530849.818,-51.758,-28.809,-43.457,-40.527,-8.301
1687530849.822,-50.781,-25.879,-48.340,-41.992,291.016
1687530849.825,-41.016,-26.367,-51.270,-40.527,189.941
1687530849.829,-36.621,-29.297,-50.781,-31.250,-113.281
1687530849.833,-30.273,-27.344,-49.805,-38.574,-75.195
1687530849.837,-30.273,-26.855,-52.246,-43.945,37.109
1687530849.841,-26.367,-29.297,-51.758,-37.598,-28.809
1687530849.845,-23.438,-28.320,-46.875,-29.785,-157.715
1687530849.849,-29.785,-27.344,-41.016,-23.926,-151.367
1687530849.853,-35.645,-24.414,-40.527,-33.203,110.352
1687530849.857,-36.621,-22.949,-41.992,-46.387,33.691
1687530849.861,-27.832,-23.926,-35.645,-41.504,-131.836
1687530849.865,-14.160,-22.949,-26.367,-18.555,13.184
1687530849.869,-3.418,-19.043,-31.250,-0.488,131.348
1687530849.872,-5.371,-16.602,-34.180,-9.277,-43.457
1687530849.876,-14.648,-11.230,-33.691,-28.809,-154.785
1687530849.880,-22.949,-7.812,-41.504,-32.715,-94.727
1687530849.884,-12.695,-0.977,-50.293,-44.434,-53.711
1687530849.888,-11.719,3.906,-58.105,-46.387,-126.465
1687530849.903,-27.832,0.488,-68.848,-58.594,-107.910
1687530849.907,-37.109,4.883,-71.289,-69.824,24.902
1687530849.911,-33.203,11.719,-74.707,-65.918,56.152
1687530849.915,-38.574,14.160,-80.078,-64.941,-6.836
1687530849.919,-43.457,17.090,-83.496,-70.801,-77.637
1687530849.923,-30.273,19.043,-86.914,-80.078,181.641
1687530849.927,-31.250,24.902,-88.867,-89.844,306.641
1687530849.930,-32.715,32.227,-93.262,-87.402,38.086
1687530849.934,-11.719,35.645,-94.238,-69.336,-44.922
1687530849.938,-1.953,37.598,-92.773,-65.430,126.465
1687530849.942,-4.395,36.133,-88.867,-55.664,126.465
1687530849.946,2.930,35.156,-87.402,-58.105,-33.691
1687530849.948,-1.465,32.715,-87.402,-61.035,-25.879
1687530849.952,-7.812,27.344,-84.473,-41.016,142.090
1687530849.956,-3.418,26.367,-79.102,-50.781,-20.996
1687530849.960,7.812,26.367,-75.195,-43.945,-90.820
1687530849.964,7.324,17.578,-72.266,-42.480,122.559
1687530849.968,-4.883,10.254,-72.266,-48.828,160.156
1687530849.972,-6.836,10.742,-69.336,-45.898,4.883
1687530849.975,-5.371,8.301,-65.430,-36.621,-21.484
1687530849.979,-2.930,5.371,-62.988,-29.785,24.414
1687530849.983,-4.883,3.906,-61.035,-28.320,170.410
1687530849.987,-1.953,2.441,-56.152,-41.992,-36.621
1687530849.991,-8.789,-2.441,-56.152,-56.152,-112.793
1687530849.993,-21.484,-7.812,-57.617,-55.664,-6.836
1687530849.997,-17.578,-11.230,-51.758,-45.410,-76.660
1687530850.001,-15.137,-13.184,-54.688,-39.062,-111.816
1687530850.005,-12.207,-10.742,-56.152,-41.016,-71.777
1687530850.009,-9.766,-11.230,-50.781,-38.086,-0.977
1687530850.013,-9.277,-11.230,-51.758,-38.574,6.836
1687530850.017,-10.742,-13.672,-52.246,-36.621,14.648
1687530850.020,-8.789,-21.484,-48.340,-26.855,63.477
1687530850.024,-2.441,-17.090,-51.758,-23.438,229.492
1687530850.028,-0.977,-11.719,-56.152,-39.062,242.188
1687530850.032,-16.602,-10.254,-56.152,-53.223,-12.207
1687530850.036,-27.344,-7.812,-53.711,-58.105,-84.473
1687530850.038,-30.273,-5.371,-53.711,-65.430,79.102
1687530850.042,-32.715,-3.418,-57.617,-76.172,2.441
1687530850.046,-31.738,-4.395,-60.547,-75.195,-107.422
1687530850.050,-35.645,0.977,-62.500,-69.824,-113.770
1687530850.054,-39.062,5.371,-65.430,-68.359,-111.328
1687530850.058,-45.898,4.883,-64.941,-68.848,12.695
1687530850.062,-42.480,5.371,-58.594,-72.266,33.203
1687530850.065,-37.109,3.906,-53.223,-66.895,67.383
1687530850.069,-43.945,-0.488,-50.781,-55.664,267.578
1687530850.073,-32.227,-4.395,-48.828,-57.617,1.465
1687530850.077,-25.879,-7.324,-46.875,-54.199,-195.801
1687530850.081,-32.715,-11.230,-42.969,-52.246,-36.621
1687530850.083,-35.156,-6.348,-40.527,-54.688,49.316
1687530850.087,-35.156,-6.836,-40.039,-53.711,-32.227
1687530850.091,-28.320,-9.766,-38.086,-48.340,-111.816
1687530850.095,-24.902,-6.836,-32.227,-42.969,-35.156
1687530850.099,-28.809,-10.742,-32.227,-53.711,-24.902
1687530850.103,-26.855,-13.184,-34.180,-41.992,-37.109
1687530850.107,-37.598,-13.184,-34.180,-26.855,59.082
1687530850.110,-52.246,-15.137,-33.203,-43.945,234.375
1687530850.114,-49.805,-13.672,-33.203,-46.875,166.016
1687530850.118,-48.828,-17.578,-33.691,-46.387,-120.605
1687530850.122,-41.992,-15.625,-33.203,-41.016,-67.871
1687530850.126,-30.273,-11.230,-29.297,-27.832,189.941
1687530850.128,-26.855,-10.254,-26.367,-24.414,44.434
1687530850.132,-30.762,-10.742,-23.926,-19.531,-186.523
1687530850.136,-31.250,-14.160,-26.855,-26.367,-167.969
1687530850.140,-28.809,-15.137,-34.180,-25.391,-135.742
1687530850.144,-22.461,-14.160,-35.156,-19.043,-133.789
1687530850.148,-14.648,-13.184,-37.598,-26.855,-94.238
1687530850.152,-15.137,-11.230,-36.133,-26.367,50.781
1687530850.155,-11.230,-10.742,-30.273,-15.137,224.609
1687530850.159,-6.836,-15.137,-29.297,-24.902,-2.930
1687530850.163,-9.766,-17.090,-24.902,-31.738,-107.910
1687530850.167,-5.371,-15.625,-22.461,-26.855,-29.297
1687530850.171,-3.906,-16.602,-24.414,-22.461,-2.930
1687530850.174,-11.230,-19.531,-28.320,-29.785,-40.527
1687530850.178,-29.297,-22.949,-30.273,-44.922,-68.848
1687530850.182,-34.668,-24.902,-29.297,-37.598,69.824
1687530850.186,-28.320,-26.855,-31.738,-29.785,22.949
1687530850.190,-28.320,-24.902,-32.715,-32.715,-128.906
1687530850.194,-32.227,-21.973,-32.227,-29.785,-61.523
1687530850.198,-28.320,-25.879,-30.273,-26.855,185.059
1687530850.201,-9.277,-27.832,-25.391,-30.762,166.992
1687530850.205,-13.184,-23.438,-22.461,-30.762,-108.398
1687530850.209,-25.879,-20.996,-21.973,-20.508,-100.586
1687530850.213,-23.438,-23.926,-25.879,-22.461,65.430
1687530850.217,-25.391,-24.902,-30.762,-37.109,-68.848
1687530850.218,-34.668,-24.902,-31.738,-28.809,-220.215
1687530850.222,-29.297,-31.250,-31.738,-33.691,-123.535
1687530850.226,-19.531,-33.691,-33.691,-41.504,21.484
1687530850.230,-9.766,-29.785,-28.320,-36.621,22.461
1687530850.234,-11.719,-29.785,-24.414,-43.945,-108.887
1687530850.238,-24.902,-32.715,-30.762,-43.945,-1.953
1687530850.242,-35.156,-35.645,-36.133,-26.855,349.121
1687530850.245,-29.297,-37.109,-41.992,-31.250,114.746
1687530850.249,-27.832,-37.109,-44.922,-34.668,-122.559
1687530850.253,-40.527,-33.691,-38.086,-36.621,-31.250
1687530850.257,-33.691,-33.203,-35.645,-37.109,-44.922
1687530850.261,-37.109,-34.668,-37.598,-37.109,-115.723
1687530850.278,-48.828,-40.039,-42.969,-35.156,-94.238
1687530850.282,-44.434,-41.016,-38.086,-30.762,-89.844
1687530850.286,-44.922,-36.621,-28.320,-28.320,-131.348
1687530850.290,-37.598,-34.180,-25.391,-33.691,-110.840
1687530850.294,-21.484,-28.809,-24.902,-25.391,-70.801
1687530850.298,-23.438,-30.273,-27.832,-15.625,92.285
1687530850.302,-29.785,-31.250,-27.832,-11.719,125.488
1687530850.305,-37.598,-31.250,-29.297,-20.996,57.617
1687530850.309,-31.250,-29.785,-40.527,-43.945,-43.457
1687530850.313,-1.953,-15.137,-46.387,-16.602,171.875
1687530850.317,11.719,-17.578,-40.039,13.672,247.070
1687530850.321,-17.578,-39.551,-25.879,-5.371,-48.340
1687530850.323,-38.574,-46.387,-20.020,-30.273,-41.016
1687530850.327,-35.156,-48.340,-17.090,-37.109,77.148
1687530850.331,-27.344,-57.617,-4.395,-28.320,-40.527
1687530850.335,-24.414,-63.965,3.418,-20.508,-127.441
1687530850.339,-28.809,-68.848,10.254,-10.742,-74.707
1687530850.343,-38.086,-78.613,9.766,-20.996,52.734
1687530850.347,-41.504,-86.914,10.254,-25.879,69.824
1687530850.350,-39.551,-87.891,21.484,-2.441,-152.832
1687530850.354,-41.016,-87.891,24.414,3.906,-42.480
1687530850.358,-45.410,-93.750,24.902,7.324,366.211
1687530850.362,-48.828,-101.562,29.297,-1.465,164.551
1687530850.366,-48.340,-104.980,24.902,-19.531,-62.500
1687530850.368,-53.223,-111.816,23.926,-20.508,-20.020
1687530850.372,-51.270,-111.328,24.902,-18.555,-77.637
1687530850.376,-39.551,-104.004,19.531,-20.020,-66.406
1687530850.380,-40.527,-103.516,18.555,-19.531,-40.039
1687530850.384,-48.828,-100.586,19.531,-18.555,-41.016
1687530850.388,-43.945,-98.145,21.484,-7.812,-76.660
1687530850.392,-38.086,-93.262,18.555,-8.301,-56.641
1687530850.395,-41.504,-84.473,11.230,-13.184,-28.320
1687530850.399,-53.711,-79.102,9.277,1.465,155.762
1687530850.403,-52.734,-79.590,9.766,-6.836,129.395
1687530850.407,-45.898,-79.590,10.254,-26.855,-125.488
1687530850.411,-47.363,-81.543,9.277,-23.926,-58.105
1687530850.414,-51.758,-83.496,1.465,-21.484,212.891
1687530850.418,-48.340,-76.660,-2.930,-35.156,85.449
1687530850.422,-62.500,-72.754,-0.977,-49.316,-134.277
1687530850.426,-69.336,-71.289,-1.465,-49.316,-117.676
1687530850.430,-60.059,-69.824,-5.371,-42.480,-71.777
1687530850.434,-62.012,-67.383,-10.742,-40.527,58.105
1687530850.438,-57.129,-65.430,-15.625,-46.387,95.703
1687530850.441,-57.617,-67.383,-16.113,-62.988,83.008
1687530850.445,-61.523,-62.012,-17.090,-52.246,210.938
1687530850.449,-56.152,-60.547,-21.973,-45.898,-17.090
1687530850.453,-50.781,-59.082,-20.020,-46.875,-162.109
1687530850.457,-52.246,-61.035,-18.555,-39.551,-87.402
1687530850.459,-50.293,-62.500,-20.020,-45.898,-54.199
1687530850.463,-31.250,-52.734,-15.625,-50.293,-107.422
1687530850.467,-22.461,-51.758,-15.137,-42.969,-191.406
1687530850.471,-25.391,-52.734,-20.996,-45.898,10.742
1687530850.475,-21.484,-52.246,-18.555,-45.410,50.293
1687530850.479,-27.344,-48.828,-21.973,-44.922,10.742
1687530850.483,-19.043,-44.434,-27.344,-42.969,127.930
1687530850.486,1.465,-43.457,-23.438,-44.434,262.695
1687530850.490,0.488,-40.039,-24.414,-52.734,167.969
1687530850.494,-5.371,-41.016,-26.855,-51.758,-114.258
1687530850.498,-8.789,-42.969,-21.973,-37.598,18.555
1687530850.502,-8.789,-42.480,-17.090,-24.414,141.113
1687530850.526,-14.160,-48.340,-20.020,-33.691,-93.262
1687530850.530,-21.973,-49.316,-20.020,-44.922,-195.801
1687530850.534,-20.508,-47.363,-20.508,-38.574,-99.121
1687530850.538,-27.832,-45.898,-20.508,-33.203,79.590
1687530850.542,-34.180,-44.922,-18.066,-31.250,-37.109
1687530850.546,-33.203,-46.387,-19.043,-34.668,-100.098
1687530850.550,-35.645,-50.293,-19.531,-45.898,81.055
1687530850.553,-41.016,-49.316,-21.484,-25.391,315.918
1687530850.557,-54.688,-50.293,-27.344,-31.250,81.543
1687530850.561,-54.199,-56.641,-30.273,-61.035,-165.527
1687530850.565,-28.320,-49.805,-33.203,-50.781,-89.355
1687530850.569,-6.836,-40.527,-34.668,-36.133,-110.352
1687530850.665,-10.742,-47.852,-24.902,-47.363,-110.352
1687530850.669,-44.434,-54.688,-19.531,-48.828,-109.375
1687530850.673,-57.129,-51.270,-25.391,-50.293,-57.129
1687530850.677,-42.969,-45.898,-29.785,-63.477,-19.531
1687530850.681,-41.016,-45.410,-33.691,-59.082,-114.258
1687530850.685,-30.273,-47.363,-35.156,-59.570,-47.852
1687530850.689,-29.785,-43.457,-30.273,-54.199,296.387
1687530850.692,-43.945,-41.016,-26.367,-41.504,240.723
1687530850.696,-31.738,-39.062,-25.391,-51.270,-82.031
1687530850.700,-26.855,-39.551,-28.320,-63.477,-130.859
1687530850.704,-25.391,-41.992,-25.879,-36.621,196.289
1687530850.708,-20.508,-38.086,-27.344,-21.973,155.762
1687530850.667,-20.508,-33.691,-23.926,-27.344,-147.949
1687530850.671,-18.066,-34.180,-21.484,-34.180,-144.531
1687530850.675,-2.441,-27.832,-23.438,-35.156,-147.949
1687530850.679,3.418,-20.508,-28.320,-31.738,-118.164
1687530850.683,-0.488,-27.832,-28.320,-37.598,-73.730
1687530850.687,-13.672,-31.738,-26.855,-48.828,42.969
1687530850.691,-30.273,-31.738,-24.902,-57.617,114.258
1687530850.694,-24.902,-35.645,-24.902,-67.383,13.672
1687530850.698,-20.508,-37.109,-29.785,-83.008,-78.613
1687530850.702,-34.668,-36.133,-28.320,-76.660,-18.066
1687530850.706,-34.180,-32.715,-24.414,-82.520,152.344
1687530850.710,-14.160,-29.297,-24.414,-86.426,-74.707
1687530850.670,-13.672,-29.785,-17.578,-76.660,-182.617
1687530850.674,-21.484,-29.785,-20.020,-95.215,-100.586
1687530850.678,-24.902,-30.273,-20.996,-108.887,-141.602
1687530850.682,-35.156,-34.180,-15.137,-116.211,-188.965
1687530850.686,-47.363,-34.668,-16.602,-125.488,-105.469
1687530850.690,-44.922,-33.691,-23.926,-118.164,58.105
1687530850.694,-34.180,-32.227,-26.367,-116.211,76.660
1687530850.697,-24.414,-31.738,-24.902,-121.094,-70.312
1687530850.701,-38.086,-33.203,-25.391,-136.230,-74.707
1687530850.705,-41.504,-36.621,-28.320,-132.324,144.043
1687530850.709,-29.297,-41.016,-28.320,-114.746,69.336
1687530850.713,-20.020,-38.086,-25.879,-123.047,-46.387
1687530850.698,-17.578,-32.227,-23.438,-122.070,3.906
1687530850.702,-38.086,-29.785,-20.996,-105.957,251.465
1687530850.706,-51.758,-32.227,-21.973,-113.281,162.109
1687530850.710,-37.109,-28.320,-20.020,-113.281,-74.707
1687530850.714,-20.996,-24.902,-19.531,-106.445,-95.215
1687530850.718,-21.973,-26.855,-23.438,-105.469,-13.184
1687530850.722,-33.691,-26.855,-23.438,-94.238,79.102
1687530850.725,-42.969,-27.832,-22.461,-83.496,-101.562
1687530850.729,-37.109,-28.809,-20.508,-76.660,-76.172
1687530850.733,-22.461,-25.391,-22.949,-57.617,231.934
1687530850.737,-13.184,-24.902,-29.785,-63.477,-0.488
1687530850.741,-22.949,-29.297,-30.273,-67.871,-139.160
1687530850.743,-39.551,-29.785,-25.391,-78.125,32.715
1687530850.747,-35.156,-21.973,-21.973,-75.684,-58.594
1687530850.751,-15.137,-24.414,-20.508,-55.664,-117.188
1687530850.755,-5.371,-29.297,-23.438,-38.574,-143.066
1687530850.759,-28.809,-28.809,-21.484,-16.113,-49.316
1687530850.763,-43.945,-30.273,-18.555,-36.621,28.809
1687530850.767,-37.598,-30.273,-20.508,-58.105,-48.340
1687530850.770,-24.414,-27.344,-20.020,-36.621,-69.824
1687530850.774,-19.531,-24.414,-16.602,-24.902,101.562
1687530850.778,-34.180,-25.879,-20.996,-31.738,145.996
1687530850.782,-41.504,-28.320,-29.785,-42.480,31.738
1687530850.786,-33.203,-32.227,-31.250,-22.949,10.254
1687530850.791,-19.043,-33.691,-28.809,-10.254,108.887
1687530850.795,-27.832,-28.809,-28.320,-34.180,-40.527
1687530850.799,-28.809,-27.832,-25.879,-28.809,-104.004
1687530850.803,-40.527,-32.227,-22.461,-7.324,33.691
1687530850.807,-44.922,-34.668,-24.902,8.789,3.418
1687530850.811,-27.832,-28.320,-23.926,0.488,-31.250
1687530850.815,-25.391,-24.902,-23.438,-8.789,-82.520
1687530850.818,-27.832,-28.809,-27.344,5.859,-6.836
1687530850.822,-51.270,-33.691,-26.367,7.324,218.262
1687530850.826,-54.688,-34.668,-25.879,-13.672,58.105
1687530850.830,-34.180,-31.738,-26.367,-12.207,-139.648
1687530850.834,-27.832,-30.762,-27.832,-0.977,-20.020
1687530850.833,-43.457,-33.203,-26.855,4.883,-3.418
1687530850.837,-49.805,-33.203,-27.344,12.207,-92.773
1687530850.841,-41.992,-34.668,-27.832,1.953,-63.477
1687530850.845,-38.574,-35.645,-27.832,-1.465,-70.801
1687530850.849,-28.320,-27.344,-28.809,4.883,-70.801
1687530850.853,-41.504,-30.762,-25.879,2.441,-22.949
1687530850.857,-57.129,-36.133,-27.832,-11.230,-20.508
1687530850.860,-54.688,-31.738,-37.598,-14.648,303.223
1687530850.864,-47.363,-34.180,-36.621,-6.836,353.027
1687530850.868,-31.738,-37.598,-35.645,-3.906,-84.961
1687530850.872,-21.484,-35.156,-36.133,7.812,-142.578
1687530850.876,-37.109,-34.668,-34.668,14.648,-48.828
1687530850.878,-42.969,-38.574,-37.598,12.207,-142.578
1687530850.882,-26.367,-39.062,-37.598,6.836,-216.309
1687530850.886,-34.180,-39.062,-39.062,10.254,-103.516
1687530850.890,-37.598,-35.156,-40.039,27.832,147.949
1687530850.894,-35.645,-32.715,-33.691,20.020,13.184
1687530850.898,-38.574,-31.250,-33.203,7.812,-51.758
1687530850.902,-28.809,-30.762,-34.668,17.578,53.711
1687530850.905,-17.578,-34.180,-37.598,24.414,323.242
1687530850.909,-23.438,-32.715,-38.574,22.949,195.312
1687530850.913,-38.574,-36.621,-41.016,24.902,-109.375
1687530850.917,-39.062,-41.504,-39.551,22.461,-50.293
1687530850.921,-31.738,-38.086,-35.645,9.766,-63.477
1687530850.923,-20.996,-35.645,-37.109,14.160,-160.156
1687530850.927,-24.902,-35.645,-35.156,10.742,-169.922
1687530850.931,-45.898,-31.250,-36.133,6.348,-86.914
1687530850.935,-47.363,-36.133,-38.574,4.395,-98.145
1687530850.939,-35.645,-38.574,-37.598,-7.324,-125.000
1687530850.943,-27.344,-33.691,-39.551,-3.418,-72.754
1687530850.947,-27.832,-37.109,-42.480,6.836,189.453
1687530850.950,-33.691,-41.504,-43.457,5.859,176.270
1687530850.954,-46.875,-40.527,-44.922,0.000,-143.555
1687530850.958,-50.293,-37.598,-43.945,-3.906,-153.320
1687530850.962,-36.133,-38.574,-44.434,4.883,82.520
1687530850.966,-21.973,-36.133,-42.969,14.160,9.277
1687530850.968,-29.297,-32.227,-43.945,16.113,-108.887
1687530850.972,-45.410,-33.203,-44.434,14.160,-79.102
1687530850.976,-42.480,-33.691,-39.062,6.836,41.016
1687530850.980,-33.203,-33.203,-40.039,6.836,-43.457
1687530850.984,-24.414,-33.691,-36.621,12.695,-107.422
1687530850.988,-25.879,-31.250,-30.762,20.508,12.207
1687530850.992,-36.133,-31.250,-31.250,14.160,141.113
1687530850.995,-35.645,-31.250,-26.855,5.371,27.832
1687530850.999,-22.949,-34.668,-28.320,4.395,-97.168
1687530851.003,-14.160,-39.062,-37.598,-3.418,-33.691
1687530851.007,-18.066,-37.109,-39.062,-4.883,58.105
1687530851.011,-23.926,-38.574,-40.039,5.371,-57.129
1687530851.028,-22.461,-38.574,-42.480,0.977,-116.211
1687530851.032,-11.230,-34.180,-43.945,-5.859,32.227
1687530851.036,-11.230,-34.180,-44.434,6.348,10.254
1687530851.040,-22.949,-35.156,-40.527,-16.113,-74.707
1687530851.044,-27.832,-33.691,-44.434,-17.578,-9.766
1687530851.048,-31.738,-34.180,-49.316,-4.395,140.137
1687530851.052,-35.645,-34.180,-49.805,-12.695,159.668
1687530851.055,-38.086,-33.203,-44.922,-24.902,-14.160
1687530851.059,-36.133,-32.227,-42.480,-22.461,-83.984
1687530851.063,-37.598,-33.691,-43.945,-2.930,210.449
1687530851.067,-53.223,-40.039,-41.504,-2.930,228.027
1687530851.071,-52.734,-38.574,-41.016,-27.344,-83.496
1687530851.084,-34.668,-32.227,-39.062,-31.738,-77.148
1687530851.088,-32.227,-37.598,-36.621,-17.578,116.699
1687530851.092,-54.199,-39.551,-40.039,-16.602,105.469
1687530851.096,-70.801,-41.992,-41.992,-36.133,-97.656
1687530851.100,-60.059,-43.945,-41.504,-43.457,-115.234
1687530851.104,-35.645,-41.016,-41.504,-21.973,37.109
1687530851.108,-40.039,-46.387,-35.156,-21.484,25.879
1687530851.111,-75.684,-54.688,-34.668,-52.734,-20.508
1687530851.115,-77.637,-48.828,-35.645,-52.734,34.180
1687530851.119,-63.965,-43.945,-35.645,-27.344,223.633
1687530851.123,-60.059,-42.969,-35.156,-38.574,-16.602
1687530851.127,-57.129,-43.457,-31.738,-41.992,-142.578
1687530851.133,-64.941,-47.363,-32.227,-33.691,-43.945
1687530851.137,-72.266,-43.457,-31.738,-38.086,-88.867
1687530851.141,-57.617,-42.480,-31.250,-36.621,-197.754
1687530851.145,-45.898,-42.969,-36.621,-34.180,-208.984
1687530851.149,-56.641,-40.039,-34.668,-41.504,-26.855
1687530851.153,-60.547,-35.645,-31.250,-35.645,41.016
1687530851.157,-69.824,-38.086,-34.180,-37.109,63.965
1687530851.160,-65.430,-37.598,-32.715,-40.039,-35.156
1687530851.164,-46.387,-33.691,-32.227,-25.391,135.254
1687530851.168,-43.945,-31.250,-30.273,-15.625,311.523
1687530851.172,-54.688,-29.785,-32.227,-33.691,-7.324
1687530851.176,-64.453,-34.180,-35.156,-55.664,-69.824
1687530851.163,-65.918,-36.621,-31.738,-54.688,131.348
1687530851.167,-47.852,-35.156,-28.320,-53.711,-51.758
1687530851.171,-38.574,-38.574,-32.227,-52.246,-166.504
1687530851.175,-51.270,-40.039,-35.645,-47.363,-41.504
1687530851.179,-73.242,-41.016,-35.645,-42.969,1.953
1687530851.183,-67.383,-40.039,-33.203,-22.949,-32.715
1687530851.187,-44.434,-32.227,-32.227,-30.273,-55.664
1687530851.190,-32.715,-28.809,-35.645,-44.434,47.363
1687530851.194,-44.434,-35.156,-37.598,-41.016,32.715
1687530851.198,-62.988,-38.574,-36.133,-38.574,-98.633
1687530851.202,-62.012,-37.109,-35.645,-39.062,-174.316
1687530851.206,-44.434,-32.227,-30.762,-29.785,-62.012
1687530851.208,-39.551,-31.250,-31.738,-27.832,265.625
1687530851.212,-50.293,-34.180,-39.062,-24.902,56.152
1687530851.216,-63.477,-39.062,-39.062,-22.949,-179.199
1687530851.220,-66.406,-37.598,-38.086,-45.410,-66.895
1687530851.224,-64.453,-35.156,-42.969,-49.805,-52.734
1687530851.228,-63.477,-37.109,-41.992,-41.992,-42.969
1687530851.232,-58.105,-34.180,-39.551,-41.992,-24.902
1687530851.235,-69.336,-34.180,-41.016,-43.457,191.406
1687530851.239,-76.172,-38.086,-43.945,-48.340,169.922
1687530851.243,-57.129,-38.086,-47.852,-54.688,-16.113
1687530851.247,-35.156,-34.668,-44.434,-45.898,74.219
1687530851.251,-16.602,-33.691,-37.598,-22.949,253.906
1687530851.253,-24.902,-30.762,-38.574,-32.715,61.035
1687530851.257,-36.621,-29.297,-43.457,-50.293,-205.566
1687530851.261,-22.461,-28.809,-43.945,-50.781,-145.508
1687530851.265,-10.254,-27.832,-42.480,-50.293,-95.215
1687530851.269,-10.742,-28.320,-44.434,-41.992,-101.562
1687530851.273,-27.344,-28.320,-44.922,-43.457,-17.578
1687530851.277,-31.250,-28.320,-38.574,-38.574,41.504
1687530851.280,-15.625,-25.391,-32.227,-25.391,141.113
1687530851.284,-26.855,-23.438,-32.227,-24.414,-100.098
1687530851.288,-41.016,-23.438,-38.574,-35.645,-196.777
1687530851.292,-45.410,-24.902,-42.480,-51.758,-55.664
1687530851.296,-55.176,-24.902,-38.574,-63.477,-41.504
1687530851.298,-51.270,-24.414,-39.062,-54.199,-71.777
1687530851.302,-37.598,-27.344,-41.504,-37.598,-140.137
1687530851.306,-30.273,-29.785,-38.574,-32.227,-32.227
1687530851.310,-44.434,-26.855,-34.180,-31.250,21.973
1687530851.314,-60.547,-25.391,-34.668,-36.621,-109.375
1687530851.318,-51.270,-29.297,-38.574,-38.574,-69.336
1687530851.322,-36.621,-30.762,-37.109,-30.762,247.070
1687530851.325,-37.109,-31.250,-38.086,-35.156,219.238
1687530851.329,-39.062,-36.621,-37.598,-44.922,-102.051
1687530851.333,-52.246,-36.621,-33.203,-33.203,-107.910
1687530851.337,-46.875,-30.762,-34.180,-34.668,19.043
1687530851.341,-23.438,-29.297,-33.691,-40.039,-55.176
1687530851.344,-20.996,-31.738,-35.156,-39.062,-142.578
1687530851.348,-24.902,-32.715,-34.668,-42.480,-97.168
1687530851.352,-37.598,-30.273,-30.762,-38.574,147.949
1687530851.356,-42.480,-33.203,-31.738,-45.898,-5.371
1687530851.360,-35.156,-38.086,-32.227,-47.363,-207.031
1687530851.364,-29.785,-35.156,-29.785,-48.828,46.387
1687530851.368,-33.203,-30.273,-32.227,-44.434,201.660
1687530851.371,-43.457,-33.203,-35.645,-36.621,-36.621
1687530851.375,-28.809,-35.156,-30.762,-26.367,-164.062
