timestamps,TP9,AF7,AF8,TP10,Right AUX
1687769987.657,-58.105,-68.359,-6.836,-19.531,-112.305
1687769987.661,-48.340,-73.730,-7.324,-8.789,-167.480
1687769987.665,-45.898,-89.844,-8.301,-28.320,-58.594
1687769987.669,-52.246,-76.172,-36.621,-46.387,-34.180
1687769987.673,-33.691,-51.270,-48.340,-36.133,-93.262
1687769987.677,-25.391,-55.176,-24.414,-20.996,26.367
1687769987.681,-30.762,-57.617,-25.879,-3.418,236.328
1687769987.684,-39.062,-44.434,-31.250,-3.906,265.137
1687769987.688,-38.574,-54.688,-32.715,-29.785,-70.801
1687769987.692,-31.250,-64.941,-15.137,-25.391,-257.812
1687769987.696,-27.832,-46.875,-0.488,-14.648,-85.449
1687769987.700,-33.691,-39.551,-16.602,-13.672,-4.883
1687769987.718,-41.016,-42.969,-21.973,-17.090,-116.699
1687769987.722,-28.809,-44.922,-26.367,-20.996,-116.211
1687769987.726,-22.949,-48.340,-18.066,-12.695,-62.500
1687769987.730,-17.090,-39.062,4.395,-7.812,-64.941
1687769987.734,-15.137,-53.223,-3.906,-9.277,-91.309
1687769987.738,-24.902,-72.754,-13.672,-14.648,-37.598
1687769987.742,-28.809,-58.594,-20.996,-26.367,148.438
1687769987.745,-29.785,-39.062,-29.785,-33.691,63.477
1687769987.749,-23.438,-36.133,-17.090,-18.555,-78.613
1687769987.753,-19.531,-46.387,-8.301,-0.977,-23.438
1687769987.757,-15.625,-50.781,-16.602,-0.977,-33.691
1687769987.761,-22.949,-59.570,-38.086,-15.625,-95.215
1687769987.747,-30.273,-55.664,-28.320,-33.203,-167.480
1687769987.751,-17.578,-59.570,-12.207,-23.438,-26.367
1687769987.755,-8.301,-54.688,-29.297,-5.859,97.656
1687769987.759,-18.555,-47.852,-40.039,-7.812,12.207
1687769987.763,-20.996,-44.434,-19.531,-20.508,-115.234
1687769987.767,-5.859,-33.203,-11.719,-24.414,-31.250
1687769987.771,4.395,-41.992,-22.461,-18.066,111.328
1687769987.774,1.465,-51.758,-24.902,-1.953,63.965
1687769987.778,-9.766,-68.848,-13.672,-7.324,30.273
1687769987.782,-20.508,-61.523,-2.441,-15.625,87.402
1687769987.786,-32.715,-33.203,-25.391,-16.602,348.145
1687769987.790,-30.273,-24.414,-32.227,-12.207,214.355
1687769987.807,-3.418,-19.043,-4.883,9.277,-95.215
1687769987.811,2.930,-30.273,-17.578,14.160,-99.609
1687769987.815,-12.695,-42.480,-29.785,-6.348,-131.836
1687769987.819,-17.578,-39.062,-23.926,-28.809,-216.797
1687769987.823,-11.230,-44.434,-34.668,-29.297,-140.625
1687769987.827,-8.789,-41.504,-34.668,-10.254,73.242
1687769987.831,-16.602,-37.598,-27.344,-14.648,55.664
1687769987.834,-20.020,-44.434,-30.273,-31.250,-3.906
1687769987.838,-14.160,-47.852,-21.973,-23.926,-48.828
1687769987.842,-11.230,-38.086,-27.344,-14.648,-16.113
1687769987.846,-12.207,-28.809,-34.180,-9.277,-8.789
1687769987.850,-7.812,-57.617,-29.297,-3.906,-122.559
1687769987.843,-9.766,-75.195,-38.574,-18.555,-123.047
1687769987.847,-25.391,-38.574,-52.246,-28.320,130.371
1687769987.851,-21.484,-22.949,-62.012,-27.832,57.129
1687769987.855,-11.719,-54.199,-35.156,-29.785,-168.945
1687769987.859,-18.066,-53.711,-10.254,-15.137,-99.121
1687769987.863,-31.250,-22.949,-14.160,-28.320,-107.910
1687769987.867,-36.133,-29.297,-30.273,-56.641,-124.023
1687769987.870,-24.414,-32.227,-46.387,-49.805,-38.574
1687769987.874,-19.531,-45.898,-42.969,-26.367,213.379
1687769987.878,-23.438,-49.316,-32.715,-15.137,228.027
1687769987.882,-27.832,-26.367,-29.297,-22.461,-87.402
1687769987.886,-29.785,-33.203,-38.086,-25.391,-180.664
1687769987.897,-25.879,-46.387,-43.945,-20.020,-113.770
1687769987.901,-20.020,-41.992,-34.668,-8.789,-67.383
1687769987.905,-22.949,-44.434,-35.645,-11.230,-118.652
1687769987.909,-26.367,-44.922,-58.105,-23.926,-150.391
1687769987.913,-21.973,-50.293,-71.289,-25.391,65.430
1687769987.917,-22.949,-62.988,-46.875,-18.555,421.387
1687769987.921,-33.203,-62.500,-25.391,-23.438,223.145
1687769987.924,-38.086,-49.805,-45.410,-22.461,-79.102
1687769987.928,-36.133,-35.156,-70.801,-23.438,-49.316
1687769987.932,-30.762,-36.621,-31.250,-34.668,-109.863
1687769987.936,-39.551,-50.293,-8.301,-40.527,-157.715
1687769987.940,-35.156,-57.129,-28.320,-29.297,-46.387
1687769987.942,-16.602,-27.832,-24.902,-18.066,132.812
1687769987.946,-24.414,-6.836,-34.180,-24.414,32.715
1687769987.950,-40.039,-30.273,-37.598,-35.645,-100.098
1687769987.954,-41.016,-27.344,-26.855,-33.203,-74.707
1687769987.958,-36.133,-23.438,-32.715,-26.367,-80.078
1687769987.962,-34.180,-41.992,-39.551,-24.902,-80.566
1687769987.966,-47.852,-41.504,-42.969,-40.039,-49.805
1687769987.969,-49.805,-39.062,-37.598,-50.293,122.070
1687769987.973,-39.062,-43.457,-30.273,-42.480,86.426
1687769987.977,-41.504,-36.621,-31.738,-40.527,-138.184
1687769987.981,-31.250,-20.020,-35.645,-29.785,-169.434
1687769987.985,-19.043,-25.391,-32.715,-15.137,-18.066
1687769987.988,-21.973,-38.574,-29.785,-25.391,176.270
1687769987.992,-24.902,-28.809,-38.086,-51.270,-106.934
1687769987.996,-22.949,-18.555,-45.410,-42.969,-213.867
1687769988.000,-42.480,-27.832,-40.039,-22.949,-54.688
1687769988.004,-62.500,-33.691,-30.273,-20.508,-19.531
1687769988.008,-81.543,-40.527,-20.996,-31.250,-104.492
1687769988.012,-96.191,-31.738,-28.809,-35.645,-94.238
1687769988.015,-89.355,-16.602,-44.922,-34.180,22.949
1687769988.019,-87.891,-29.785,-41.992,-24.902,-98.633
1687769988.023,-89.355,-36.133,-23.926,-24.902,-202.148
1687769988.027,-88.379,-26.367,-30.273,-40.039,-112.793
1687769988.031,-98.633,-26.367,-39.062,-41.504,-59.082
1687769988.047,-117.188,-25.391,-21.484,-56.152,-121.094
1687769988.051,-129.395,-26.367,-11.230,-54.688,-163.574
1687769988.055,-130.859,-25.879,-5.859,-30.762,-27.832
1687769988.059,-137.695,-16.602,-15.625,-19.531,31.250
1687769988.063,-153.320,-22.949,-38.574,-46.387,-123.047
1687769988.067,-161.621,-38.086,-41.992,-68.359,-179.688
1687769988.071,-162.598,-44.922,-43.457,-60.059,41.016
1687769988.074,-164.551,-39.551,-45.410,-38.574,378.418
1687769988.078,-172.363,-50.781,-53.223,-29.785,83.008
1687769988.082,-171.387,-48.828,-53.711,-44.434,-245.117
1687769988.086,-163.574,-40.527,-43.945,-57.129,-116.699
1687769988.090,-157.715,-35.156,-37.598,-45.898,-51.758
1687769988.077,-144.531,-35.645,-38.574,-30.762,-148.438
1687769988.081,-119.629,-30.762,-26.855,-31.738,-175.781
1687769988.085,-109.863,-2.930,-22.949,-49.805,-90.332
1687769988.089,-107.910,-3.906,-31.738,-62.012,-69.336
1687769988.093,-103.027,-16.602,-27.832,-45.898,-167.480
1687769988.097,-101.074,-24.902,-36.133,-33.203,-53.711
1687769988.101,-104.492,-25.391,-34.668,-36.621,81.055
1687769988.104,-110.352,-28.320,-44.434,-46.387,-23.926
1687769988.108,-91.309,-27.832,-59.570,-52.734,-67.383
1687769988.112,-76.660,-26.367,-30.762,-47.852,-81.055
1687769988.116,-73.242,-39.062,-24.414,-21.973,186.035
1687769988.120,-68.359,-44.434,-37.109,-27.344,191.406
1687769988.122,-60.547,-46.875,-32.227,-48.828,-182.617
1687769988.126,-42.480,-39.551,-31.738,-51.270,-148.438
1687769988.130,-26.855,-34.180,-19.043,-35.156,-102.539
1687769988.134,-18.555,-41.992,-30.273,-24.902,-134.277
1687769988.138,-15.625,-19.043,-37.109,-32.715,-90.820
1687769988.142,-12.207,-2.441,-23.926,-36.621,52.246
1687769988.146,-17.090,-10.254,-31.738,-55.176,115.723
1687769988.149,-12.695,-22.461,-40.039,-56.152,-2.930
1687769988.153,-8.789,-28.320,-55.176,-48.828,4.395
1687769988.157,-8.301,-15.137,-32.227,-34.180,56.152
1687769988.161,7.324,-7.324,-21.484,-23.438,-46.875
1687769988.165,7.324,-22.949,-33.203,-37.598,-113.770
1687769988.182,1.953,-26.855,-11.230,-38.574,-154.297
1687769988.186,0.977,-15.625,-7.324,-20.020,54.199
1687769988.190,-17.090,-23.438,-23.438,-26.855,288.086
1687769988.194,-28.809,-42.480,-33.203,-46.875,-23.438
1687769988.198,-20.020,-40.527,-31.738,-47.852,-144.043
1687769988.202,-13.184,-30.273,-28.809,-45.410,34.180
1687769988.206,-2.930,-29.785,-46.875,-41.992,98.145
1687769988.209,-4.395,-20.020,-49.316,-43.945,-45.898
1687769988.213,-8.789,-27.832,-35.645,-38.086,-98.145
1687769988.217,-0.488,-25.879,-29.297,-42.969,93.262
1687769988.221,5.859,-24.414,-27.832,-54.199,28.809
1687769988.225,5.859,-31.738,-42.969,-37.109,-121.094
1687769988.228,6.836,-10.254,-39.551,-14.648,20.020
1687769988.232,2.441,-14.160,-28.320,-19.531,43.945
1687769988.236,-4.395,-28.809,-30.273,-50.293,-124.512
1687769988.240,-0.977,-21.484,-27.832,-52.734,-151.367
1687769988.244,-10.254,-26.855,-35.645,-39.551,-85.449
1687769988.248,-15.137,-30.273,-36.621,-32.715,31.250
1687769988.252,-1.953,-27.344,-42.480,-29.297,57.129
1687769988.255,0.000,-49.805,-41.016,-39.062,-58.594
1687769988.259,-7.324,-58.105,-20.020,-48.340,73.730
1687769988.263,-5.859,-40.039,-8.789,-43.457,339.355
1687769988.267,-4.883,-40.527,-17.090,-32.227,106.445
1687769988.271,-9.766,-42.480,-37.109,-39.062,-92.285
1687769988.273,-17.090,-37.598,-33.691,-63.965,36.133
1687769988.277,-11.719,-49.805,-30.762,-62.012,-6.836
1687769988.281,-2.441,-35.645,-36.621,-45.898,-144.531
1687769988.285,-3.906,-17.090,-41.016,-37.598,-94.238
1687769988.289,-13.672,-35.645,-54.199,-41.016,37.598
1687769988.293,-17.578,-37.598,-33.691,-60.059,-12.207
1687769988.297,-14.160,-29.297,-18.066,-62.012,0.977
1687769988.300,-13.672,-39.551,-26.367,-42.480,-4.395
1687769988.304,-18.555,-50.781,-22.461,-26.367,159.180
1687769988.308,-19.531,-31.250,-17.090,-31.738,198.242
1687769988.312,-12.207,-8.301,-27.832,-51.758,-121.094
1687769988.316,-7.324,-25.391,-41.504,-57.617,-61.523
1687769988.318,-3.418,-28.809,-34.180,-53.711,-31.738
1687769988.322,-6.836,-17.578,-29.297,-44.434,-92.285
1687769988.326,-20.996,-27.832,-44.922,-42.480,-37.598
1687769988.330,-26.855,-21.973,-41.992,-37.109,35.156
1687769988.334,-14.648,-23.438,-33.203,-35.645,-11.230
1687769988.338,-17.090,-38.086,-40.527,-46.387,-65.430
1687769988.342,-28.809,-48.340,-36.621,-39.062,-50.781
1687769988.345,-20.996,-47.852,-23.438,-20.020,38.574
1687769988.349,-16.602,-22.949,-33.691,-24.414,320.801
1687769988.353,-20.508,-13.672,-49.316,-33.203,64.453
1687769988.357,-8.301,-24.414,-34.180,-17.578,-248.047
1687769988.361,0.000,-37.109,-31.738,-7.812,-125.000
1687769988.363,-15.625,-30.762,-44.434,-11.230,-89.355
1687769988.367,-21.484,-43.945,-37.598,-28.809,-159.668
1687769988.371,-26.855,-55.664,-32.715,-51.270,-132.324
1687769988.375,-29.297,-30.273,-39.551,-50.293,-33.203
1687769988.379,-22.949,-15.625,-44.922,-34.180,8.789
1687769988.383,-21.484,-40.039,-42.969,-27.832,-1.465
1687769988.387,-16.113,-46.875,-47.852,-41.504,-34.668
1687769988.390,-12.695,-19.531,-43.457,-34.668,169.922
1687769988.394,-26.367,-33.203,-37.109,-38.574,180.664
1687769988.398,-16.113,-51.758,-49.316,-23.438,-136.230
1687769988.402,17.578,-32.227,-44.922,19.043,-63.477
1687769988.406,-4.395,-13.672,-41.504,-28.320,-1.953
1687769988.408,-40.039,-10.254,-57.129,-90.332,-125.000
1687769988.412,-39.551,-3.906,-59.082,-96.680,-185.547
1687769988.416,-29.785,-10.254,-46.875,-84.961,-60.059
1687769988.420,-35.156,-6.348,-47.363,-83.008,24.414
1687769988.424,-56.152,6.836,-54.199,-116.699,-46.387
1687769988.428,-66.895,2.441,-53.711,-139.648,-52.246
1687769988.432,-72.754,4.395,-51.270,-135.254,135.254
1687769988.435,-77.148,19.043,-51.758,-127.930,279.785
1687769988.439,-74.707,29.297,-58.594,-139.648,126.953
1687769988.443,-78.125,40.527,-52.246,-153.809,-102.051
1687769988.447,-76.172,42.480,-46.875,-152.344,-17.578
1687769988.451,-67.871,40.527,-45.898,-153.320,62.988
1687769988.453,-82.520,41.992,-47.852,-162.598,-195.801
1687769988.457,-81.055,52.734,-55.664,-159.668,-214.355
1687769988.461,-65.430,58.105,-60.547,-159.180,-157.715
1687769988.465,-74.707,33.691,-55.664,-175.293,-189.453
1687769988.469,-75.684,41.016,-38.574,-177.246,-207.520
1687769988.473,-72.754,63.965,-29.297,-161.133,-104.492
1687769988.477,-69.824,68.359,-28.320,-137.695,269.531
1687769988.480,-69.824,67.871,-39.062,-140.625,185.547
1687769988.484,-75.684,57.617,-51.270,-162.598,-181.152
1687769988.488,-78.125,54.199,-41.016,-169.922,-73.730
1687769988.492,-73.242,49.316,-40.527,-155.762,57.617
1687769988.496,-55.664,48.828,-46.387,-130.859,-95.215
1687769988.498,-47.852,36.621,-49.316,-126.465,-101.562
1687769988.502,-45.410,20.020,-42.480,-125.488,-59.570
1687769988.506,-52.734,31.738,-45.898,-127.441,-133.789
1687769988.510,-46.875,45.898,-58.594,-121.094,-174.805
1687769988.514,-31.250,50.781,-62.500,-96.191,-150.391
1687769988.518,-30.762,45.410,-56.641,-74.219,116.699
1687769988.522,-34.180,34.668,-54.199,-80.078,189.941
1687769988.525,-31.738,25.391,-46.387,-90.820,-40.039
1687769988.529,-34.668,24.902,-35.156,-74.219,-103.516
1687769988.533,-36.621,28.809,-50.293,-60.547,66.895
1687769988.537,-26.367,28.320,-47.363,-58.105,156.250
1687769988.541,-23.438,34.180,-33.203,-67.871,-100.098
1687769988.573,-29.785,23.926,-47.852,-77.637,-142.578
1687769988.577,-25.391,-2.441,-50.293,-61.035,-6.348
1687769988.581,-11.719,-7.812,-41.016,-53.711,29.297
1687769988.585,-17.578,14.648,-36.133,-54.688,-138.672
1687769988.589,-25.391,25.879,-43.457,-60.547,-156.738
1687769988.593,-23.438,24.414,-38.086,-71.289,-42.969
1687769988.597,-18.066,25.879,-24.414,-65.918,-89.355
1687769988.600,-6.348,10.254,-27.832,-51.270,-118.164
1687769988.604,-11.230,-5.859,-48.828,-45.410,-74.219
1687769988.608,-30.762,-5.859,-48.828,-50.293,78.125
1687769988.612,-44.434,-9.277,-31.250,-61.035,-33.203
1687769988.616,-43.945,-10.742,-28.320,-58.594,-145.508
1687769988.604,-39.551,-3.906,-45.410,-48.340,-46.875
1687769988.608,-29.785,2.441,-58.594,-39.062,1.465
1687769988.612,-20.020,-0.977,-39.062,-39.551,-48.828
1687769988.616,-26.367,-22.949,-19.043,-52.734,-80.566
1687769988.620,-29.785,-23.926,-14.160,-53.711,49.805
1687769988.624,-28.809,-26.367,-26.367,-46.875,134.766
1687769988.628,-35.645,-20.996,-34.668,-44.434,39.062
1687769988.631,-36.621,-7.812,-31.738,-48.340,37.598
1687769988.635,-39.062,-15.625,-26.855,-57.617,92.285
1687769988.639,-34.668,-26.367,-26.367,-56.641,-39.062
1687769988.643,-31.250,-35.645,-41.504,-48.340,-162.109
1687769988.647,-37.109,-23.438,-57.617,-52.246,-193.848
1687769988.648,-27.832,-24.902,-32.227,-39.062,-2.441
1687769988.652,-26.855,-44.922,-29.785,-36.621,228.027
1687769988.656,-43.945,-36.133,-46.875,-68.359,-48.828
1687769988.660,-44.434,-17.578,-43.945,-51.270,-175.781
1687769988.664,-36.133,-16.113,-32.715,-29.297,-4.883
1687769988.668,-44.434,-17.090,-29.297,-37.109,28.320
1687769988.672,-46.875,-21.484,-29.297,-49.316,-47.363
1687769988.675,-44.922,-26.855,-12.695,-58.105,-74.219
1687769988.679,-39.062,-36.133,-16.602,-39.062,21.484
1687769988.683,-34.180,-45.410,-32.227,-22.949,23.926
1687769988.687,-43.945,-48.828,-34.180,-40.039,-144.531
1687769988.691,-43.457,-54.199,-29.785,-49.805,-121.094
1687769988.693,-40.039,-50.293,-39.551,-43.945,67.871
1687769988.697,-37.109,-28.320,-57.129,-47.363,-1.465
1687769988.701,-26.367,-18.555,-34.668,-40.039,-85.449
1687769988.705,-22.461,-25.879,-30.762,-26.855,8.301
1687769988.709,-28.809,-25.391,-59.570,-45.410,-43.945
1687769988.713,-30.762,-18.555,-43.945,-59.082,-83.496
1687769988.717,-29.785,-20.020,-20.020,-39.551,-94.238
1687769988.720,-31.738,-34.668,-17.578,-31.738,81.543
1687769988.724,-23.926,-22.949,-18.066,-12.207,529.297
1687769988.728,-28.809,-8.301,-8.301,-23.926,267.578
1687769988.732,-42.969,-22.461,-20.508,-56.152,-168.945
1687769988.736,-36.133,-20.020,-38.574,-47.852,-89.844
1687769988.737,-29.297,-24.414,-41.016,-36.621,-99.121
1687769988.741,-38.086,-50.293,-39.062,-42.969,-130.371
1687769988.745,-42.480,-39.062,-31.250,-46.387,-81.543
1687769988.749,-34.180,-29.785,-27.832,-50.293,-51.270
1687769988.753,-29.785,-42.480,-51.270,-49.805,-88.867
1687769988.757,-25.391,-34.668,-60.059,-41.016,-41.016
1687769988.761,15.137,-11.719,-34.180,-4.395,15.625
1687769988.764,14.160,-8.301,-11.230,2.930,153.809
1687769988.768,-67.383,-30.273,-10.742,-70.312,98.633
1687769988.772,-78.613,-33.691,-24.414,-78.613,-173.340
1687769988.776,-44.434,-39.062,-29.297,-41.992,-48.340
1687769988.780,-66.406,-49.316,-26.367,-56.152,0.488
1687769988.783,-86.914,-49.316,-20.996,-77.148,-179.688
1687769988.787,-77.637,-41.016,-6.836,-87.891,-208.008
1687769988.791,-81.055,-49.316,-14.648,-82.031,-110.352
1687769988.795,-75.684,-65.430,-35.645,-67.383,-87.891
1687769988.799,-63.965,-49.805,-37.598,-48.828,-118.652
1687769988.803,-65.918,-19.531,-29.297,-53.223,-51.758
1687769988.807,-65.918,-22.949,-24.902,-63.477,110.352
1687769988.810,-59.082,-43.457,-15.137,-49.316,263.672
1687769988.814,-50.781,-30.273,-12.695,-37.109,22.461
1687769988.818,-57.129,-23.438,-20.996,-34.180,-144.043
1687769988.822,-69.336,-34.668,-25.391,-29.785,77.148
1687769988.826,-64.941,-29.297,-39.551,-41.504,116.699
1687769988.831,-92.285,-35.156,-46.875,-61.523,-103.516
1687769988.835,-145.996,-33.691,-49.805,-54.688,-132.324
1687769988.839,-158.203,-38.086,-47.852,-34.668,10.254
1687769988.843,-152.832,-32.715,-26.367,-35.156,9.766
1687769988.847,-199.707,-18.066,-19.531,-51.270,-176.758
1687769988.851,-331.055,-37.109,-29.785,-67.871,-130.371
1687769988.855,-423.340,-60.547,-40.039,-64.941,261.230
1687769988.858,-392.578,-67.871,-44.434,-47.363,287.109
1687769988.862,-315.430,-53.711,-40.039,-39.551,-80.566
1687769988.866,-259.277,-38.574,-40.039,-42.969,-122.070
1687769988.870,-220.215,-29.785,-37.598,-49.805,-139.648
1687769988.874,-194.336,-18.555,-34.180,-41.016,-167.480
1687769988.874,-176.758,-21.484,-47.852,-34.668,-113.281
1687769988.878,-163.574,-40.039,-63.965,-23.438,28.809
1687769988.882,-151.855,-51.758,-49.316,-24.902,75.684
1687769988.886,-162.109,-42.969,-19.531,-35.156,-129.395
1687769988.890,-208.984,-43.945,-21.973,-39.551,-152.832
1687769988.894,-251.953,-47.852,-39.551,-29.785,53.223
1687769988.898,-288.086,-43.945,-53.223,-20.508,330.078
1687769988.901,-283.203,-47.363,-40.527,-38.086,204.102
1687769988.905,-242.188,-59.082,-24.414,-49.805,-110.840
1687769988.909,-212.402,-53.711,-35.156,-41.992,-25.879
1687769988.913,-189.453,-36.133,-41.016,-26.367,125.000
1687769988.917,-171.875,-38.086,-46.875,-32.715,-24.414
1687769988.933,-155.273,-48.340,-54.688,-40.527,-130.859
1687769988.937,-132.812,-50.781,-44.922,-40.039,-107.910
1687769988.941,-107.422,-29.785,-37.109,-41.504,-99.609
1687769988.945,-97.168,-30.273,-34.668,-42.969,-144.531
1687769988.949,-77.637,-39.062,-27.832,-36.621,-77.148
1687769988.953,-57.129,-34.180,-33.691,-34.668,190.918
1687769988.957,-55.176,-34.180,-41.504,-55.176,90.820
1687769988.960,-34.180,-37.109,-37.109,-51.758,-158.203
1687769988.964,-9.277,-41.504,-38.086,-30.762,-103.516
1687769988.968,-0.488,-35.645,-43.945,-23.926,23.438
1687769988.972,-2.441,-36.621,-38.086,-42.969,-73.730
1687769988.976,0.488,-44.922,-31.738,-54.688,-226.074
1687769988.977,3.418,-44.434,-41.504,-40.527,-170.898
1687769988.981,14.648,-35.156,-47.363,-41.016,-70.801
1687769988.985,41.992,-26.855,-50.781,-20.020,-97.168
1687769988.989,47.852,-34.668,-44.922,0.488,-149.414
1687769988.993,15.137,-48.340,-30.762,-42.480,-66.406
1687769988.997,0.000,-51.758,-31.250,-61.523,9.277
1687769989.001,17.578,-52.734,-35.156,-19.531,-3.906
1687769989.004,27.832,-57.617,-34.668,2.930,-24.414
1687769989.008,30.762,-67.871,-28.809,-3.906,78.613
1687769989.012,22.461,-82.031,-43.457,-7.324,366.211
1687769989.016,13.672,-90.332,-40.039,-20.508,198.242
1687769989.020,26.367,-88.379,-18.555,-16.113,-109.375
1687769989.022,40.527,-92.285,-26.855,1.953,-75.195
1687769989.026,47.852,-98.145,-34.668,14.648,-113.770
1687769989.030,38.086,-111.328,-33.203,15.137,-145.020
1687769989.034,41.992,-107.422,-33.203,8.301,-118.164
1687769989.038,60.547,-95.703,-40.039,29.297,-82.520
1687769989.042,58.594,-105.469,-32.227,55.176,1.465
1687769989.046,43.457,-104.980,-23.926,46.875,35.645
1687769989.049,42.480,-86.914,-29.785,34.668,-89.844
1687769989.053,22.949,-92.773,-31.250,49.316,159.180
1687769989.057,-10.742,-97.656,-41.992,55.176,243.164
1687769989.061,-13.672,-87.402,-57.617,60.547,-108.887
1687769989.065,-25.879,-106.445,-45.410,70.801,-63.965
1687769989.067,-47.363,-116.699,-29.297,55.176,-50.293
1687769989.071,-44.434,-92.773,-32.227,49.316,-151.855
1687769989.075,-40.039,-81.055,-33.203,57.129,-230.957
1687769989.079,-38.086,-83.496,-32.715,67.383,-152.832
1687769989.083,-41.016,-94.238,-40.527,69.824,-62.988
1687769989.087,-50.293,-101.074,-36.133,63.965,-71.289
1687769989.091,-37.109,-96.191,-31.250,45.410,-72.754
1687769989.094,-10.742,-84.961,-35.645,42.969,111.816
1687769989.098,-10.742,-81.055,-30.762,74.219,421.387
1687769989.102,-7.324,-80.078,-29.785,83.496,145.996
1687769989.106,5.371,-78.125,-44.434,60.059,-114.258
1687769989.110,4.883,-80.566,-55.664,26.855,-9.277
1687769989.113,17.578,-67.383,-34.180,36.133,-59.082
1687769989.117,28.320,-69.824,-35.156,61.035,-126.953
1687769989.121,28.809,-71.289,-55.176,52.734,-132.812
1687769989.125,27.344,-62.012,-30.273,48.828,-120.117
1687769989.129,23.438,-67.383,-20.020,42.480,-129.395
1687769989.133,21.973,-67.383,-37.598,30.273,-140.625
1687769989.137,35.645,-54.688,-33.203,41.016,-57.129
1687769989.140,50.293,-57.617,-18.555,55.176,222.656
1687769989.144,40.527,-68.359,-20.508,33.203,142.090
1687769989.148,25.391,-68.848,-25.391,6.348,-154.785
1687769989.152,25.391,-65.918,-21.484,6.348,-169.434
1687769989.156,35.645,-55.176,-15.625,20.508,-148.926
1687769989.158,50.293,-48.828,-20.508,45.410,-142.578
1687769989.162,53.223,-57.129,-29.297,42.480,-45.410
1687769989.166,41.992,-54.688,-29.297,24.414,88.867
1687769989.170,41.504,-33.203,-22.461,23.438,69.824
1687769989.174,53.711,-40.527,-19.531,25.879,-111.328
1687769989.178,53.711,-49.805,-23.438,34.180,-70.312
1687769989.182,44.434,-37.109,-21.484,22.949,226.074
1687769989.185,41.016,-39.551,-21.484,20.996,387.207
1687769989.189,36.621,-41.504,-40.039,6.348,79.590
1687769989.193,36.133,-39.551,-34.668,-3.906,-137.695
1687769989.197,40.039,-35.645,-20.996,16.602,36.621
1687769989.201,36.133,-52.246,-37.109,3.906,55.664
1687769989.203,28.320,-62.012,-41.992,-13.672,-94.727
1687769989.207,22.461,-43.945,-29.297,-17.578,-96.191
1687769989.211,23.926,-43.457,-24.902,-19.043,-26.855
1687769989.215,26.855,-24.902,-25.879,-15.137,14.648
1687769989.219,21.484,-22.949,-22.949,-8.301,-78.613
1687769989.223,14.160,-41.992,-27.344,-22.461,-109.375
1687769989.227,12.695,-38.574,-32.715,-15.625,200.684
1687769989.230,17.090,-34.668,-33.203,0.977,229.980
1687769989.234,21.484,-35.156,-31.738,1.465,-121.582
1687769989.238,16.602,-36.133,-26.367,2.930,-120.117
1687769989.242,3.418,-37.109,-24.902,-17.578,-57.617
1687769989.246,3.906,-36.621,-27.344,-24.902,-210.449
1687769989.248,8.301,-36.133,-24.902,-19.531,-238.770
1687769989.252,6.836,-36.621,-25.879,-16.602,-122.070
1687769989.256,14.160,-30.273,-17.578,0.977,-54.688
1687769989.260,11.230,-26.367,-31.250,-10.742,-84.473
1687769989.264,5.859,-30.273,-51.758,-28.320,-167.480
1687769989.268,2.930,-28.320,-32.227,-30.273,-1.465
1687769989.272,-4.395,-30.762,-18.555,-17.578,210.449
1687769989.275,0.000,-26.367,-20.020,-17.578,128.906
1687769989.279,-1.465,-24.414,-27.832,-28.809,-12.207
1687769989.283,-11.230,-33.691,-38.574,-37.598,83.496
1687769989.287,-10.742,-51.270,-34.668,-37.598,287.109
1687769989.291,-6.836,-37.109,-22.949,-24.414,103.516
1687769989.308,-7.324,-19.531,-19.531,-27.832,-106.934
1687769989.312,-11.719,-28.809,-34.180,-32.227,-86.426
1687769989.316,-14.648,-23.438,-34.180,-22.461,-103.027
1687769989.320,-14.648,-33.691,-19.043,-23.926,-116.699
1687769989.324,-4.395,-40.039,-17.090,-24.414,-77.148
1687769989.328,0.977,-29.297,-29.297,-6.836,40.527
1687769989.332,-9.766,-33.691,-27.344,-17.090,6.836
1687769989.335,-19.531,-25.879,-29.785,-40.039,-97.656
1687769989.339,-24.902,-20.020,-43.945,-36.133,-41.992
1687769989.343,-25.879,-22.461,-41.504,-18.555,206.543
1687769989.347,-20.996,-22.949,-38.086,-13.672,196.777
1687769989.351,-27.832,-31.738,-51.758,-28.809,-62.988
1687769989.353,-34.668,-36.621,-54.199,-30.762,-83.496
1687769989.357,-24.414,-32.227,-34.668,-36.133,-99.609
1687769989.361,-12.695,-39.551,-26.367,-28.320,-151.367
1687769989.365,-15.137,-41.016,-33.691,-14.160,-133.301
1687769989.369,-25.879,-26.855,-37.598,-16.113,-16.602
1687769989.373,-34.180,-22.461,-27.344,-25.879,65.430
1687769989.377,-39.062,-32.227,-35.645,-38.574,2.930
1687769989.380,-36.621,-49.805,-50.293,-35.645,-80.078
1687769989.384,-34.180,-49.805,-32.227,-16.113,55.664
1687769989.388,-41.504,-35.645,-20.508,-16.113,359.375
1687769989.392,-60.059,-31.250,-45.898,-43.457,146.484
1687769989.396,-66.406,-24.902,-41.992,-50.781,-146.973
1687769989.399,-67.383,-20.996,-27.344,-33.691,-60.547
1687769989.403,-75.684,-22.949,-40.527,-15.137,-20.996
1687769989.407,-81.055,-34.180,-39.062,-19.531,-81.543
1687769989.411,-83.984,-37.598,-23.438,-37.109,-67.383
1687769989.415,-87.891,-22.461,-18.066,-52.734,-122.559
1687769989.419,-89.844,-28.320,-33.691,-52.734,-105.469
1687769989.423,-77.637,-44.434,-35.645,-33.203,-12.695
1687769989.426,-62.500,-42.969,-26.367,-22.461,-29.785
1687769989.430,-52.734,-38.574,-37.598,-24.902,119.141
1687769989.434,-44.434,-46.875,-45.898,-43.945,78.613
1687769989.438,-32.227,-36.621,-33.203,-36.133,-186.035
1687769989.442,-22.461,-18.066,-33.203,-17.090,-110.352
1687769989.444,-8.301,-22.461,-41.016,-27.344,6.348
1687769989.448,-0.488,-25.879,-41.992,-28.809,-51.270
1687769989.452,-15.625,-40.039,-28.809,-37.598,-128.418
1687769989.456,-16.113,-52.246,-3.418,-45.410,-71.777
1687769989.460,-12.695,-43.945,-14.160,-24.902,-19.043
1687769989.464,-30.273,-38.086,-26.855,-19.043,14.648
1687769989.468,-34.180,-31.738,-1.953,-36.621,0.488
1687769989.471,-36.133,-27.832,5.371,-52.734,29.297
1687769989.475,-41.504,-37.598,-9.766,-57.129,254.883
1687769989.479,-29.785,-56.152,-9.766,-44.922,103.516
1687769989.483,-35.156,-53.711,-4.395,-30.762,-126.465
1687769989.487,-66.895,-45.898,-5.859,-47.363,-72.754
1687769989.488,-81.055,-51.758,-13.184,-71.289,-81.543
1687769989.492,-76.172,-56.641,-32.227,-62.500,-188.965
1687769989.496,-70.801,-59.082,-32.227,-56.641,-156.250
1687769989.500,-69.824,-52.246,-19.531,-52.734,-51.758
1687769989.504,-68.359,-53.711,-27.832,-50.293,-71.289
1687769989.508,-57.617,-51.758,-30.762,-61.035,-94.727
1687769989.512,-41.992,-41.016,-36.133,-69.824,-78.613
1687769989.515,-37.598,-41.992,-47.852,-47.852,141.113
1687769989.519,-39.551,-41.992,-26.367,-21.973,183.594
1687769989.523,-48.340,-45.410,-21.973,-33.203,-138.184
1687769989.527,-62.500,-39.062,-39.062,-42.480,-169.922
1687769989.531,-62.988,-28.809,-31.738,-46.387,-106.445
1687769989.534,-47.363,-32.227,-34.668,-50.781,-121.094
1687769989.538,-45.898,-38.574,-41.016,-45.410,-122.070
1687769989.542,-55.176,-46.875,-47.852,-50.293,-11.719
1687769989.546,-59.082,-50.293,-56.641,-55.664,5.859
1687769989.550,-59.082,-50.293,-37.109,-60.547,-65.918
1687769989.554,-53.223,-43.945,-16.602,-61.523,-28.320
1687769989.558,-55.664,-37.598,-14.648,-42.480,208.984
1687769989.561,-87.891,-40.039,-28.320,-41.504,269.531
1687769989.565,-132.324,-48.340,-40.527,-55.176,72.266
1687769989.569,-156.738,-45.410,-44.434,-58.105,-33.203
1687769989.573,-156.738,-33.691,-32.715,-51.758,82.520
1687769989.577,-156.738,-29.297,-26.367,-38.574,240.723
1687769989.579,-164.551,-28.809,-25.391,-31.738,-49.805
1687769989.583,-161.133,-41.992,-26.855,-34.180,-154.297
1687769989.587,-166.016,-51.758,-42.480,-42.480,-125.000
1687769989.591,-173.828,-41.992,-33.691,-35.645,-133.789
1687769989.595,-152.344,-36.133,-45.410,-32.227,-120.605
1687769989.599,-127.930,-33.691,-48.340,-32.227,-31.738
1687769989.603,-108.398,-33.203,-33.203,-12.207,191.895
1687769989.606,-90.820,-27.344,-44.434,-14.160,140.625
1687769989.610,-79.102,-23.438,-40.039,-39.551,-124.512
1687769989.614,-70.312,-31.738,-26.855,-33.691,-95.215
1687769989.618,-82.520,-41.992,-32.227,-31.738,132.324
1687769989.622,-83.496,-37.109,-52.734,-54.688,39.062
1687769989.623,-76.172,-29.297,-47.852,-55.176,-144.531
1687769989.627,-68.848,-41.992,-27.344,-40.527,-106.934
1687769989.631,-48.828,-32.715,-25.879,-17.090,-80.566
1687769989.635,-46.875,-29.297,-51.270,-15.625,-104.004
1687769989.639,-60.547,-42.480,-52.246,-39.062,-141.113
1687769989.643,-59.570,-20.508,-27.832,-52.246,-48.828
1687769989.647,-47.363,-12.695,-41.504,-57.129,62.012
1687769989.650,-35.645,-23.926,-42.480,-40.039,-0.488
1687769989.654,-39.551,-20.996,-24.902,-30.762,-85.938
1687769989.658,-43.945,-26.855,-25.391,-31.738,-20.996
1687769989.662,-38.086,-31.738,-32.715,-23.926,305.176
1687769989.666,-33.691,-28.809,-34.668,-32.227,35.156
1687769989.698,-13.184,-27.832,-25.879,-35.645,-285.156
1687769989.702,3.906,-29.297,-27.832,-18.555,-113.281
1687769989.706,2.441,-32.715,-37.598,-26.855,-108.398
1687769989.710,0.000,-46.387,-33.203,-47.363,-257.324
1687769989.714,-2.441,-52.246,-31.738,-51.758,-217.285
1687769989.718,0.977,-43.945,-49.316,-44.922,-15.625
1687769989.722,13.184,-31.738,-46.875,-29.785,5.859
1687769989.725,21.484,-30.273,-31.738,-25.391,-92.773
1687769989.729,15.137,-48.828,-34.668,-42.969,-93.750
1687769989.733,21.484,-47.852,-32.227,-53.711,-76.660
1687769989.737,22.949,-39.062,-26.855,-38.086,-121.094
1687769989.741,21.484,-37.109,-29.297,-22.949,-137.207
1687769989.729,33.203,-31.738,-31.250,-28.809,20.020
1687769989.733,22.461,-31.738,-23.438,-23.438,263.184
1687769989.737,16.602,-32.227,-27.344,-17.090,109.863
1687769989.741,32.227,-25.879,-22.461,-25.879,-177.734
1687769989.745,36.133,-19.043,-29.297,-23.438,-83.008
1687769989.749,27.832,-24.902,-29.785,-13.184,12.207
1687769989.753,17.578,-28.320,-15.625,-35.156,-44.922
1687769989.756,18.555,-33.691,-8.301,-45.410,-14.160
1687769989.760,32.715,-37.109,-10.254,-18.066,70.801
1687769989.764,35.156,-20.020,-21.973,-6.348,8.789
1687769989.768,26.855,-19.043,-20.508,-12.207,-111.816
1687769989.772,24.902,-18.555,-30.762,-14.160,-153.320
1687769989.774,32.227,-11.719,-31.250,-18.066,55.664
1687769989.778,26.855,-26.367,-12.695,-15.137,333.008
1687769989.782,23.438,-34.180,-11.230,-10.742,108.398
1687769989.786,25.391,-34.668,-19.531,-10.254,-43.457
1687769989.790,14.648,-38.086,-29.297,-20.996,27.832
1687769989.794,7.324,-37.598,-29.297,-43.457,74.707
1687769989.798,12.695,-49.316,-48.340,-39.551,-28.320
1687769989.801,20.508,-56.152,-52.246,-22.461,-131.836
1687769989.805,11.230,-39.062,-31.738,-17.578,186.523
1687769989.809,0.977,-31.250,-32.715,-28.809,159.180
1687769989.813,4.883,-24.902,-24.902,-36.621,-198.242
1687769989.817,-1.465,-23.438,-30.273,-33.691,-113.770
1687769989.817,-8.301,-30.762,-35.645,-30.273,-51.758
1687769989.821,4.883,-36.133,-32.715,-17.578,-132.324
1687769989.825,7.812,-34.668,-47.363,-14.648,-151.367
1687769989.829,-9.277,-33.203,-42.969,-29.297,-109.863
1687769989.833,-19.531,-44.434,-26.855,-39.551,-124.023
1687769989.837,-23.926,-53.711,-33.203,-37.598,-89.844
1687769989.841,-26.367,-41.504,-31.738,-9.766,-16.113
1687769989.844,-25.879,-39.062,-35.645,4.395,82.520
1687769989.848,-28.320,-44.434,-47.852,-32.227,392.090
1687769989.852,-41.504,-39.062,-41.504,-48.828,198.730
1687769989.856,-37.109,-35.156,-34.180,-40.527,-164.551
1687769989.860,-27.344,-44.434,-36.621,-25.879,-10.254
1687769989.863,-14.160,-38.086,-35.156,-18.066,-29.785
1687769989.867,-14.160,-35.645,-34.668,-44.922,-175.781
1687769989.871,-17.578,-44.434,-38.574,-62.988,-210.938
1687769989.875,-20.020,-42.969,-36.133,-32.227,-173.340
1687769989.879,-36.621,-45.898,-33.203,-4.395,-93.262
1687769989.883,-39.062,-41.504,-27.832,-22.461,-37.598
1687769989.887,-34.668,-35.645,-25.879,-47.363,-19.531
1687769989.890,-30.273,-44.434,-35.645,-40.039,284.668
1687769989.894,-32.227,-52.734,-39.551,-23.438,325.195
1687769989.898,-32.715,-46.387,-42.969,-28.809,-38.574
1687769989.902,-28.320,-39.062,-44.922,-28.320,-64.941
1687769989.906,-36.133,-33.691,-31.250,-33.203,-82.031
1687769989.908,-37.109,-32.227,-14.648,-42.969,-164.062
1687769989.912,-41.016,-40.039,-14.160,-30.762,-146.484
1687769989.916,-41.504,-50.293,-23.926,-5.371,-35.645
1687769989.920,-14.160,-43.945,-24.902,13.184,-24.414
1687769989.924,-18.066,-23.438,-41.016,-2.441,-124.512
1687769989.928,-45.410,-8.301,-51.270,-40.039,-128.906
1687769989.932,-52.734,0.488,-48.828,-54.199,66.895
1687769989.935,-50.293,5.371,-42.969,-45.410,381.836
1687769989.939,-56.641,8.301,-43.945,-58.105,201.172
1687769989.943,-70.801,4.395,-43.457,-83.496,-72.266
1687769989.947,-80.078,-8.301,-40.527,-103.027,77.148
1687769989.951,-85.449,6.836,-43.457,-113.770,96.680
1687769989.953,-94.238,30.762,-48.828,-122.070,-141.602
1687769989.957,-96.191,29.297,-53.711,-123.047,-168.945
1687769989.961,-91.797,21.484,-66.406,-132.324,-125.977
1687769989.965,-100.098,27.344,-59.570,-158.691,-135.742
1687769989.969,-105.957,31.250,-29.785,-154.785,-117.188
1687769989.973,-114.746,33.203,-27.344,-142.578,-13.672
1687769989.977,-120.117,38.086,-37.598,-136.719,184.082
1687769989.980,-113.281,25.391,-45.898,-139.160,108.887
1687769989.984,-113.281,38.086,-41.504,-166.504,-194.336
1687769989.988,-111.816,57.617,-44.434,-177.246,-167.969
1687769989.992,-113.281,54.688,-58.105,-167.969,-107.910
1687769989.996,-123.047,57.617,-46.875,-143.555,-77.637
1687769989.999,-126.953,59.082,-41.504,-140.137,-32.227
1687769990.003,-138.184,55.664,-45.410,-176.758,-48.340
1687769990.007,-138.184,57.129,-37.109,-169.434,-56.152
1687769990.011,-107.910,58.105,-41.016,-136.719,-87.891
1687769990.015,-94.727,57.617,-48.340,-131.348,-81.055
1687769990.019,-94.238,43.945,-50.293,-119.629,24.902
1687769990.023,-102.539,35.156,-53.223,-137.695,125.488
1687769990.026,-108.398,54.688,-59.082,-158.203,-7.812
1687769990.030,-87.402,67.871,-52.246,-128.418,-69.824
1687769990.034,-74.707,57.617,-51.270,-109.375,62.012
1687769990.038,-72.754,46.875,-56.152,-105.469,148.926
1687769990.042,-65.918,40.527,-52.734,-109.375,-67.383
1687769990.060,-58.105,36.621,-44.922,-108.887,-82.031
1687769990.064,-49.805,38.574,-39.062,-92.285,-63.965
1687769990.068,-37.109,38.574,-33.203,-75.684,-31.250
1687769990.072,-40.039,31.738,-35.645,-69.824,-75.195
1687769990.076,-72.754,18.066,-36.133,-78.125,-180.176
1687769990.080,-101.074,19.531,-28.809,-77.637,146.484
1687769990.084,-99.121,27.832,-39.062,-66.895,309.082
1687769990.087,-85.449,7.324,-55.664,-69.336,-60.059
1687769990.091,-74.219,-0.977,-50.293,-68.848,-79.102
1687769990.095,-69.824,4.395,-36.621,-69.824,47.363
1687769990.099,-95.215,0.488,-31.250,-82.520,-82.031
1687769990.103,-104.980,5.371,-40.039,-74.707,-168.457
1687769990.103,-79.102,1.465,-53.711,-52.734,-41.016
1687769990.107,-67.383,0.000,-50.781,-62.012,-12.695
1687769990.111,-61.523,1.465,-44.434,-76.660,-87.891
1687769990.115,-41.504,-2.930,-50.293,-65.430,-145.508
1687769990.119,-22.461,-4.883,-47.852,-54.199,-57.129
1687769990.123,-15.625,-12.695,-31.738,-58.105,55.176
1687769990.127,-16.113,-31.250,-28.809,-47.852,3.418
1687769990.130,-14.648,-33.203,-29.785,-48.340,-1.465
1687769990.134,-4.883,-14.648,-28.320,-52.734,33.691
1687769990.138,-3.418,-14.648,-29.297,-36.621,266.113
1687769990.142,-2.441,-11.230,-30.273,-29.297,95.215
1687769990.146,4.883,5.859,-36.621,-25.879,-166.504
1687769990.148,-9.766,-9.277,-48.828,-31.738,-60.059
1687769990.152,-16.113,-21.484,-38.086,-47.852,-114.746
1687769990.156,-6.836,-15.137,-27.832,-55.664,-231.445
1687769990.160,3.906,-20.020,-41.504,-54.199,-144.043
1687769990.164,12.207,-28.809,-41.504,-42.969,-16.113
1687769990.168,12.207,-24.902,-35.156,-55.176,20.996
1687769990.172,5.371,-12.207,-47.852,-71.289,-23.926
1687769990.175,6.836,-12.207,-45.898,-64.941,-57.129
1687769990.179,16.113,-17.578,-42.480,-39.551,215.820
1687769990.183,3.906,-23.438,-36.621,-33.203,266.602
1687769990.187,-4.883,-22.949,-32.715,-38.086,-75.684
1687769990.191,-0.977,-26.367,-42.969,-52.246,-105.957
1687769990.193,-4.395,-31.250,-41.016,-53.711,-69.824
1687769990.197,-6.836,-31.738,-25.879,-37.109,-111.328
1687769990.201,-0.488,-26.855,-20.508,-20.996,-104.980
1687769990.205,-8.301,-22.461,-34.180,-15.625,-47.363
1687769990.209,-32.715,-30.273,-29.785,-36.133,-90.332
1687769990.213,-39.551,-24.902,-23.926,-39.062,-130.859
1687769990.217,-48.340,-36.133,-32.715,-29.785,-94.238
1687769990.220,-53.711,-44.922,-29.297,-28.809,92.285
1687769990.224,-48.828,-25.391,-24.902,-22.461,397.949
1687769990.228,-49.316,-25.391,-38.086,-44.922,189.941
1687769990.232,-46.387,-33.691,-30.762,-52.246,-157.715
1687769990.236,-38.086,-28.809,-18.555,-25.879,-71.777
1687769990.238,-31.738,-17.578,-20.508,-15.137,-13.672
1687769990.242,-27.344,-19.043,-24.414,-26.367,-75.684
1687769990.246,-33.203,-22.461,-37.109,-36.621,-83.008
1687769990.250,-35.156,-28.320,-17.578,-51.758,-69.336
1687769990.254,-22.949,-19.531,-11.719,-48.828,-58.105
1687769990.258,-27.832,-3.906,-28.320,-30.762,5.371
1687769990.262,-38.086,-12.207,-26.367,-34.668,73.242
1687769990.265,-39.062,-8.789,-23.438,-32.227,183.594
1687769990.269,-46.875,-1.465,-17.090,-35.156,17.578
1687769990.273,-62.012,-16.113,-21.484,-44.922,-188.965
1687769990.277,-72.754,-17.090,-29.297,-39.551,-98.633
1687769990.281,-70.312,-5.371,-29.297,-28.320,-34.668
1687769990.283,-71.289,-6.836,-41.016,-40.039,-101.562
1687769990.287,-71.289,-14.160,-28.809,-58.594,-217.285
1687769990.291,-62.988,-13.672,-24.902,-52.246,-136.230
1687769990.295,-64.941,-9.766,-27.344,-41.992,-23.926
1687769990.299,-68.359,-7.324,-17.578,-37.109,-79.102
1687769990.303,-64.453,-15.625,-20.508,-48.340,-94.238
1687769990.307,-65.430,-12.695,-33.203,-65.430,78.613
1687769990.310,-59.570,-14.648,-44.434,-55.664,372.559
1687769990.314,-54.688,-27.344,-38.574,-33.203,148.926
1687769990.318,-48.828,-21.973,-26.855,-24.414,-136.230
1687769990.322,-36.133,-17.090,-27.832,-34.668,-51.758
1687769990.326,-32.227,-21.973,-21.973,-45.410,-110.352
1687769990.329,-36.133,-30.273,-39.062,-58.594,-168.457
1687769990.333,-39.551,-20.508,-53.711,-50.293,-97.168
1687769990.337,-43.945,-16.602,-46.875,-34.180,0.000
1687769990.341,-40.039,-12.695,-40.527,-29.785,-18.555
1687769990.345,-32.227,-7.812,-28.809,-36.133,-170.410
1687769990.349,-29.297,-20.508,-26.855,-51.270,-151.367
1687769990.353,-33.691,-20.020,-31.738,-41.992,112.793
1687769990.356,-18.066,-8.789,-27.344,-17.578,119.141
1687769990.360,-11.230,-24.902,-32.227,-34.180,-153.809
1687769990.364,-21.484,-20.508,-38.574,-46.875,-165.527
1687769990.368,-13.672,-19.043,-30.273,-34.180,-92.285
1687769990.372,-16.602,-32.227,-46.875,-31.738,-119.141
1687769990.373,-23.926,-12.695,-52.734,-30.273,-147.949
1687769990.377,-19.531,-22.461,-34.668,-33.691,-71.777
1687769990.381,-13.184,-27.832,-17.578,-39.062,-47.363
1687769990.385,-8.301,-13.184,-22.461,-36.133,-118.652
1687769990.389,-9.277,-20.020,-28.809,-29.297,-101.074
1687769990.393,-0.488,-29.297,-22.461,-34.668,68.848
1687769990.397,-1.465,-25.391,-25.391,-25.391,318.848
1687769990.400,-21.973,-16.113,-25.391,-39.062,93.262
1687769990.404,-30.273,-14.160,-20.508,-57.617,-219.727
1687769990.408,-25.391,-18.066,-22.949,-53.711,-12.695
1687769990.412,-23.438,-23.438,-32.227,-34.668,100.586
1687769990.416,-19.043,-17.090,-30.762,-31.738,-71.289
1687769990.433,-18.555,-19.043,-41.992,-51.270,-69.824
1687769990.437,-21.973,-31.738,-48.340,-60.547,-64.453
1687769990.441,-20.020,-31.738,-45.410,-55.664,-38.086
1687769990.445,-16.602,-37.598,-57.129,-41.504,-72.754
1687769990.449,-20.020,-47.363,-30.273,-29.297,-104.004
1687769990.453,-28.809,-38.086,-13.184,-37.109,62.500
1687769990.457,-33.203,-30.273,-24.902,-52.246,88.867
1687769990.460,-21.973,-28.809,-25.879,-43.457,39.551
1687769990.464,-13.184,-31.738,-23.438,-39.062,-6.348
1687769990.468,-24.414,-37.598,-29.297,-39.062,180.176
1687769990.472,-45.410,-31.738,-39.062,-46.875,204.590
1687769990.476,-54.199,-27.832,-41.016,-54.199,-190.430
1687769990.479,-56.641,-31.250,-37.109,-41.016,-167.480
1687769990.483,-60.059,-31.738,-43.457,-22.461,-108.887
1687769990.487,-71.289,-37.598,-40.527,-29.785,-131.836
1687769990.491,-80.566,-30.762,-20.508,-43.457,-96.680
1687769990.495,-81.543,-34.668,-29.785,-52.734,-36.133
1687769990.499,-68.359,-41.016,-40.527,-59.082,163.086
1687769990.503,-41.504,-15.137,-37.109,-36.621,100.098
1687769990.506,-49.316,-20.508,-39.551,-33.203,9.766
1687769990.510,-73.730,-37.598,-24.414,-49.316,150.879
1687769990.514,-86.914,-41.016,-11.719,-49.805,388.672
1687769990.518,-101.562,-53.223,-14.160,-49.316,225.586
1687769990.522,-120.117,-41.992,-30.762,-49.805,-91.797
1687769990.523,-151.367,-12.695,-42.969,-44.922,-22.461
1687769990.527,-177.734,-21.973,-43.945,-57.129,-47.363
1687769990.531,-174.805,-32.227,-38.086,-68.359,-173.828
1687769990.535,-164.062,-21.484,-35.645,-61.523,-180.664
1687769990.539,-172.852,-26.367,-45.410,-45.410,-112.305
1687769990.543,-194.336,-32.715,-50.293,-43.945,-32.227
1687769990.547,-209.473,-28.809,-38.574,-44.434,-41.504
1687769990.550,-193.848,-30.762,-26.855,-51.758,-126.953
1687769990.554,-158.203,-46.387,-32.715,-56.152,120.605
1687769990.558,-129.395,-46.875,-49.316,-46.875,109.375
1687769990.562,-105.957,-40.039,-51.758,-43.457,-161.621
1687769990.566,-75.684,-23.926,-45.898,-35.156,-65.430
1687769990.568,-62.988,-48.828,-35.156,-43.457,7.812
1687769990.572,-63.477,-57.617,-31.250,-59.570,-114.746
1687769990.576,-55.664,-26.367,-50.293,-53.223,-158.203
1687769990.580,-46.387,-41.992,-41.992,-33.203,-30.273
1687769990.584,-42.480,-55.664,-21.973,-41.016,10.254
1687769990.588,-47.852,-58.105,-36.133,-58.105,0.488
1687769990.592,-39.062,-41.016,-43.457,-53.711,5.859
1687769990.595,-17.578,-25.879,-31.250,-42.480,118.652
1687769990.599,3.906,-27.344,-40.039,-26.855,446.777
1687769990.603,-4.395,-36.621,-47.852,-41.992,256.836
1687769990.607,-8.789,-39.062,-43.945,-60.547,-80.078
1687769990.611,14.648,-31.250,-42.480,-55.176,-107.910
1687769990.614,11.719,-34.668,-28.320,-53.711,-147.461
1687769990.618,0.977,-41.992,-31.738,-47.363,-65.430
1687769990.622,9.277,-32.227,-41.992,-42.969,-77.148
1687769990.626,10.742,-41.992,-38.086,-52.246,-68.359
1687769990.630,3.906,-50.293,-39.551,-55.664,-23.926
1687769990.634,8.301,-34.180,-37.598,-49.316,-55.176
1687769990.638,20.508,-27.832,-40.039,-36.133,-70.312
1687769990.641,20.996,-33.691,-41.016,-23.926,126.465
1687769990.645,10.254,-47.852,-38.086,-41.504,98.145
1687769990.649,8.789,-27.832,-40.039,-59.570,-196.777
1687769990.653,20.020,-14.648,-35.645,-51.270,-143.555
1687769990.657,28.320,-29.785,-37.109,-36.133,-42.480
1687769990.658,17.090,-31.738,-41.504,-35.156,-143.555
1687769990.662,5.859,-33.691,-49.316,-48.828,-156.250
1687769990.666,3.418,-36.621,-54.688,-65.430,-152.832
1687769990.670,7.324,-42.480,-41.016,-63.965,-125.488
1687769990.674,2.441,-47.363,-37.109,-54.199,-28.320
1687769990.678,-13.672,-61.523,-47.363,-51.270,-61.035
1687769990.682,-13.184,-74.707,-58.105,-45.410,98.145
1687769990.685,-8.789,-73.242,-48.340,-48.828,442.871
1687769990.689,-11.230,-67.871,-43.457,-41.992,248.535
1687769990.693,-15.625,-65.430,-54.688,-39.062,-85.938
1687769990.697,-18.066,-69.824,-48.340,-40.527,-85.449
1687769990.701,-24.902,-67.871,-47.852,-39.551,-95.215
1687769990.703,-30.762,-65.918,-34.668,-56.152,-167.480
1687769990.707,-40.527,-65.430,-49.316,-69.336,-186.035
1687769990.711,-41.992,-60.547,-64.941,-50.293,-55.664
1687769990.715,-32.227,-65.430,-48.340,-33.691,28.809
1687769990.719,-26.855,-53.711,-51.270,-46.875,-40.039
1687769990.723,-18.066,-45.898,-61.523,-50.781,-42.969
1687769990.727,-4.395,-48.340,-46.387,-29.785,205.566
1687769990.730,-17.578,-58.594,-32.227,-34.668,184.570
1687769990.734,-44.434,-67.871,-28.320,-53.711,-118.164
1687769990.738,-114.746,-70.312,-20.020,-42.480,-99.121
1687769990.742,-189.453,-77.637,-42.480,-29.785,-20.996
1687769990.746,-207.520,-95.703,-49.316,-43.945,-161.133
1687769990.748,-196.777,-100.098,-28.809,-61.035,-209.473
1687769990.752,-150.391,-105.957,-34.668,-41.992,-106.445
1687769990.756,-144.531,-110.352,-43.457,-28.809,-62.500
1687769990.760,-205.566,-101.562,-36.133,-38.086,-161.133
1687769990.764,-225.098,-114.258,-35.645,-35.156,-282.715
1687769990.768,-204.102,-125.000,-37.109,-6.836,-55.176
1687769990.772,-198.242,-120.117,-39.551,18.555,168.945
1687769990.775,-180.664,-126.953,-38.574,23.438,-4.883
1687769990.779,-145.020,-150.879,-37.598,14.648,-124.512
1687769990.783,-114.746,-133.789,-37.109,20.020,-6.348
1687769990.787,-88.379,-102.539,-20.996,47.363,196.289
1687769990.791,-73.730,-115.723,-27.832,53.711,0.000
1687769990.808,-66.895,-117.188,-42.480,52.246,-163.574
1687769990.812,-56.152,-119.629,-43.945,39.551,-158.691
1687769990.816,-53.223,-126.953,-41.992,31.738,-160.156
1687769990.820,-44.922,-123.535,-31.738,33.203,-155.273
1687769990.824,-34.668,-116.211,-28.320,47.852,-75.684
1687769990.828,-79.102,-116.211,-31.738,57.129,98.633
1687769990.832,-150.879,-113.770,-32.227,45.410,85.449
1687769990.835,-191.895,-111.816,-35.645,37.109,-118.164
1687769990.839,-178.223,-117.676,-36.133,35.645,-135.254
1687769990.843,-155.762,-110.840,-29.785,50.781,119.141
1687769990.847,-150.391,-97.656,-22.461,50.781,89.844
1687769990.851,-132.324,-95.215,-26.367,27.344,-125.977
1687769990.854,-117.188,-100.098,-28.320,29.785,-50.293
1687769990.858,-106.934,-101.562,-11.230,32.715,-28.809
1687769990.862,-93.750,-96.191,-4.395,13.184,-144.043
1687769990.866,-81.055,-88.379,-6.836,20.020,-127.930
1687769990.870,-72.266,-89.844,-15.137,22.949,-78.125
1687769990.874,-52.734,-92.285,-32.227,15.625,16.602
1687769990.878,-40.527,-92.285,-38.086,-0.488,-70.801
1687769990.881,-35.645,-82.031,-25.391,5.859,-61.523
1687769990.885,-33.203,-70.312,-11.719,23.926,119.141
1687769990.889,-35.645,-65.918,-1.953,7.324,282.715
1687769990.893,-30.762,-63.965,-9.277,-21.484,83.008
1687769990.897,-30.762,-68.848,-16.602,-30.273,-202.148
1687769990.899,-26.367,-86.426,-19.043,-2.441,-108.887
1687769990.903,-6.348,-92.773,-27.832,9.766,-83.008
1687769990.907,9.277,-63.477,-15.137,0.488,-162.109
1687769990.911,11.230,-51.270,-3.906,-1.953,-206.543
1687769990.915,15.625,-48.340,-22.461,-0.977,-89.355
1687769990.919,28.320,-46.387,-35.645,0.488,17.090
1687769990.923,27.832,-63.477,-35.645,0.488,55.664
1687769990.926,25.879,-66.406,-43.457,-5.371,-7.324
1687769990.930,25.391,-57.617,-49.805,-12.207,92.285
1687769990.934,24.902,-50.781,-35.156,-18.555,133.301
1687769990.938,32.227,-50.781,-32.715,-26.367,-138.672
1687769990.942,34.180,-55.664,-42.969,-31.250,-118.652
1687769990.944,31.738,-51.270,-43.945,-15.625,-9.277
1687769990.948,35.645,-37.598,-36.133,-14.160,-69.336
1687769990.952,41.016,-48.340,-21.973,-20.508,-140.137
1687769990.956,47.363,-51.270,-26.367,-9.277,14.160
1687769990.960,47.363,-35.156,-33.691,3.906,173.340
1687769990.964,31.738,-37.109,-34.668,-3.906,53.223
1687769990.968,-13.184,-37.109,-39.062,-28.809,-26.855
1687769990.971,-67.871,-38.574,-47.852,-35.156,85.449
1687769990.975,-70.801,-39.551,-42.480,-13.672,411.133
1687769990.979,-49.316,-36.133,-33.691,-7.812,204.102
1687769990.983,-68.848,-47.363,-47.363,-20.508,-90.820
1687769990.987,-106.445,-58.594,-54.688,-24.902,-30.762
1687769990.988,-107.910,-51.758,-45.410,-31.738,-39.062
1687769990.992,-80.078,-42.969,-31.250,-21.484,-41.504
1687769990.996,-71.777,-45.410,-36.621,-10.742,-45.898
1687769991.000,-70.801,-56.641,-44.922,-20.020,-72.266
1687769991.004,-64.453,-61.523,-39.062,-25.879,-92.773
1687769991.008,-65.430,-61.523,-33.691,-27.832,-114.258
1687769991.012,-63.477,-61.035,-46.387,-39.551,-108.887
1687769991.015,-62.500,-57.617,-51.270,-28.320,257.324
1687769991.019,-61.523,-52.246,-43.457,-11.230,267.578
1687769991.023,-79.590,-49.805,-43.457,-38.574,-195.312
1687769991.027,-109.863,-54.199,-38.574,-41.504,-169.434
1687769991.031,-134.766,-69.336,-43.945,-23.438,-160.156
1687769991.034,-146.484,-64.453,-54.199,-23.438,-208.984
1687769991.038,-129.883,-44.434,-66.406,-15.625,-73.730
1687769991.042,-129.395,-56.152,-83.984,-29.297,-39.062
1687769991.046,-128.418,-67.383,-54.199,-48.340,-33.691
1687769991.050,-102.051,-64.941,-28.320,-42.969,-54.199
1687769991.054,-75.684,-56.641,-37.598,-26.855,-71.289
1687769991.058,-62.500,-49.805,-42.480,-18.066,90.820
1687769991.061,-57.129,-40.039,-36.133,-18.555,327.637
1687769991.065,-54.688,-31.250,-35.645,-28.320,146.484
1687769991.069,-53.223,-35.645,-37.598,-34.180,-153.809
1687769991.073,-48.340,-37.598,-46.387,-10.742,-43.945
1687769991.077,-34.668,-33.691,-56.152,-10.742,149.414
1687769991.078,-20.020,-32.715,-42.480,-34.180,-91.309
1687769991.082,-31.738,-42.480,-60.547,-47.363,-166.016
1687769991.086,-34.668,-46.387,-63.965,-44.434,-124.023
1687769991.090,-17.090,-40.039,-29.297,-33.203,-171.387
1687769991.094,-18.555,-45.898,-16.113,-21.973,-106.445
1687769991.098,-41.016,-48.340,-39.062,-24.414,-31.250
1687769991.102,-56.641,-35.156,-44.922,-34.180,182.617
1687769991.105,-48.340,-36.621,-32.227,-42.969,116.699
1687769991.109,-29.785,-53.711,-52.246,-40.039,-185.547
1687769991.113,-26.855,-51.270,-62.988,-26.855,-142.578
1687769991.117,-37.109,-39.551,-59.570,-28.320,-62.988
1687769991.121,-38.086,-42.480,-56.641,-34.668,-112.305
1687769991.122,-25.391,-45.410,-41.992,-41.992,-207.520
1687769991.126,-16.602,-43.945,-42.969,-44.922,-123.535
1687769991.130,-6.348,-38.574,-48.828,-30.762,6.348
1687769991.134,-0.977,-44.434,-50.293,-23.926,-69.336
1687769991.138,-9.766,-67.383,-47.852,-46.387,-98.145
1687769991.142,-14.648,-56.641,-34.668,-52.246,81.543
1687769991.146,-12.695,-40.039,-35.156,-36.133,137.695
1687769991.149,-11.719,-45.898,-41.016,-26.855,28.320
1687769991.153,-20.508,-35.156,-35.156,-45.410,-54.688
1687769991.157,-23.926,-31.738,-39.551,-56.152,14.648
1687769991.161,-18.555,-41.016,-51.758,-40.527,136.719
1687769991.165,-15.625,-40.527,-45.410,-44.922,-112.793
1687769991.182,-15.625,-48.828,-33.691,-50.293,-138.672
1687769991.186,-13.184,-59.570,-32.715,-35.156,-45.898
1687769991.190,-21.484,-48.828,-37.598,-36.133,-75.684
1687769991.194,-37.109,-49.316,-58.594,-68.848,-156.250
1687769991.198,-30.273,-48.828,-56.641,-63.965,-180.176
1687769991.202,-27.344,-41.504,-36.621,-35.156,23.926
1687769991.206,-32.227,-39.551,-34.180,-28.320,141.113
1687769991.209,-27.832,-41.992,-40.527,-38.574,-56.152
1687769991.213,-30.762,-43.457,-43.945,-47.852,-187.988
1687769991.217,-60.059,-49.316,-54.688,-59.570,51.270
1687769991.221,-91.309,-56.152,-56.152,-63.477,107.910
1687769991.225,-113.281,-52.734,-42.480,-45.410,-49.316
1687769991.228,-125.000,-55.664,-41.992,-43.945,74.707
1687769991.232,-143.555,-53.223,-44.922,-64.453,38.086
1687769991.236,-151.367,-50.781,-47.852,-63.477,-89.844
1687769991.240,-130.859,-57.129,-51.270,-52.734,-83.008
1687769991.244,-99.609,-46.387,-41.504,-40.039,78.613
1687769991.248,-77.637,-45.898,-39.551,-32.715,145.508
1687769991.252,-69.824,-52.734,-36.621,-49.805,-58.594
1687769991.255,-64.453,-48.828,-21.973,-60.547,-123.535
1687769991.259,-58.594,-45.410,-33.203,-41.504,100.098
1687769991.263,-46.387,-41.016,-36.621,-22.949,393.066
1687769991.267,-48.340,-49.316,-32.715,-32.715,69.336
1687769991.271,-63.965,-56.641,-41.504,-41.992,-250.977
1687769991.272,-66.406,-40.527,-30.273,-39.551,-104.004
1687769991.276,-83.496,-36.621,-40.039,-36.133,-137.695
1687769991.280,-120.117,-46.387,-47.852,-49.805,-145.020
1687769991.284,-146.973,-47.363,-33.691,-51.758,-108.398
1687769991.288,-161.621,-39.551,-38.086,-40.527,-131.836
1687769991.292,-173.340,-35.156,-41.992,-51.270,-97.656
1687769991.296,-189.453,-45.410,-30.273,-45.410,-19.531
1687769991.299,-194.336,-36.621,-29.785,-29.297,-52.246
1687769991.303,-194.336,-45.898,-39.551,-14.648,104.980
1687769991.307,-184.570,-54.199,-39.551,-31.738,181.152
1687769991.311,-162.598,-38.574,-33.203,-44.434,-168.457
1687769991.315,-138.672,-39.062,-38.086,-33.203,-185.059
1687769991.318,-112.305,-26.367,-17.090,-15.625,-82.031
1687769991.322,-97.656,-28.320,-13.672,-16.113,-135.254
1687769991.326,-89.844,-40.039,-34.180,-36.621,-160.156
1687769991.330,-82.520,-30.762,-40.039,-36.621,-146.973
1687769991.334,-70.801,-30.762,-55.664,-28.320,-140.625
1687769991.338,-64.453,-39.551,-52.734,-26.367,-76.172
1687769991.342,-68.359,-38.574,-31.738,-23.926,10.742
1687769991.345,-73.730,-35.156,-27.832,-24.414,171.387
1687769991.349,-86.426,-30.762,-36.621,-21.973,444.336
1687769991.353,-92.773,-16.602,-41.504,-23.926,333.008
1687769991.357,-100.098,-20.996,-41.504,-27.832,-8.301
1687769991.361,-112.305,-27.344,-26.367,-20.996,-49.805
1687769991.362,-117.188,-13.184,-18.555,-22.461,-79.102
1687769991.366,-134.766,-20.508,-27.832,-27.344,-166.016
1687769991.370,-156.250,-40.039,-41.992,-29.785,-134.277
1687769991.374,-154.297,-40.527,-41.016,-23.926,-93.750
1687769991.378,-157.715,-31.738,-35.645,-12.207,-13.184
1687769991.382,-173.340,-34.180,-23.926,-4.883,56.152
1687769991.386,-177.734,-36.133,-25.391,-22.949,-60.547
1687769991.389,-169.922,-32.227,-39.551,-16.113,114.746
1687769991.393,-158.203,-31.738,-31.738,-11.719,132.812
1687769991.397,-158.691,-33.691,-31.738,-33.691,-110.352
1687769991.401,-175.781,-37.598,-40.527,-34.668,-36.621
1687769991.405,-181.152,-43.457,-47.363,-40.039,-6.836
1687769991.407,-169.922,-41.504,-47.852,-47.363,-130.371
1687769991.411,-165.039,-37.109,-30.273,-28.809,-138.672
1687769991.415,-158.691,-40.039,-33.203,-11.230,-41.504
1687769991.419,-146.484,-42.480,-39.062,-5.859,-74.219
1687769991.423,-136.230,-34.668,-24.902,-20.996,-215.332
1687769991.427,-116.699,-28.320,-24.902,-35.645,-115.723
1687769991.431,-111.816,-23.438,-40.527,-26.367,120.605
1687769991.434,-106.934,-29.297,-36.621,-19.531,282.715
1687769991.438,-81.543,-41.992,-28.809,-37.109,104.004
1687769991.442,-52.734,-37.598,-32.715,-49.316,-165.527
1687769991.446,-22.461,-37.109,-41.504,-42.969,-72.266
1687769991.450,0.000,-35.156,-50.293,-25.879,-17.578
1687769991.453,12.207,-21.484,-35.645,-13.184,-110.352
1687769991.457,18.066,-42.480,-21.973,-16.113,-100.586
1687769991.461,44.434,-75.684,-32.715,-6.348,-24.414
1687769991.465,80.566,-40.527,-47.363,15.137,-49.316
1687769991.469,78.613,1.953,-61.035,-0.977,-121.582
1687769991.473,57.617,-2.441,-60.547,-25.391,-30.273
1687769991.477,50.293,-6.348,-53.711,-39.551,221.191
1687769991.480,39.062,-4.883,-59.570,-74.219,107.422
1687769991.484,27.344,1.953,-60.059,-105.957,-211.914
1687769991.488,27.344,5.859,-56.641,-113.281,-117.676
1687769991.492,32.715,8.301,-50.293,-112.793,-64.941
1687769991.496,21.484,11.719,-44.434,-118.652,-141.113
1687769991.512,8.301,19.043,-42.480,-143.066,-168.457
1687769991.516,2.930,18.066,-50.293,-168.457,-108.398
1687769991.520,-10.742,13.184,-66.895,-172.852,-16.602
1687769991.524,-8.789,26.367,-56.152,-160.156,-20.020
1687769991.528,-6.836,26.855,-51.758,-161.621,-77.148
1687769991.532,-28.809,12.207,-64.941,-191.895,48.340
1687769991.536,-30.762,14.648,-56.641,-193.359,302.246
1687769991.539,-22.461,23.438,-50.781,-175.293,168.457
1687769991.543,-23.926,29.297,-44.922,-178.223,-80.078
1687769991.547,-20.508,36.621,-37.109,-170.410,68.359
1687769991.551,-25.879,24.902,-48.340,-166.992,82.031
1687769991.555,-35.645,16.113,-60.059,-178.711,-197.266
1687769991.557,-33.691,28.320,-56.152,-181.641,-167.480
1687769991.561,-36.133,33.691,-63.965,-177.246,-30.762
1687769991.565,-37.598,30.762,-69.824,-169.922,0.977
1687769991.569,-20.020,8.301,-59.082,-163.086,-65.918
1687769991.573,-6.836,16.113,-49.805,-154.785,-111.328
1687769991.577,-12.695,28.320,-53.711,-149.414,89.355
1687769991.581,-11.719,14.160,-62.988,-131.836,189.941
1687769991.584,0.000,15.137,-61.523,-106.445,3.906
1687769991.588,-3.906,9.277,-71.289,-124.512,-65.918
1687769991.592,-19.043,1.953,-72.266,-132.812,163.574
1687769991.596,-34.180,3.418,-69.336,-107.422,82.520
1687769991.600,-54.688,6.348,-62.500,-102.539,-118.652
1687769991.602,-93.262,0.488,-41.992,-89.844,18.555
1687769991.606,-120.605,-7.324,-44.922,-68.848,29.297
1687769991.610,-104.980,-9.766,-48.828,-93.262,-79.102
1687769991.614,-74.219,-15.137,-38.574,-103.027,-106.934
1687769991.618,-48.340,-24.414,-40.039,-69.824,-81.543
1687769991.622,-33.203,-28.320,-43.457,-70.801,-38.574
1687769991.626,-24.902,-19.043,-42.969,-77.637,-16.113
1687769991.629,-14.160,-20.508,-46.875,-76.172,-11.719
1687769991.633,-0.488,-21.484,-41.992,-81.055,107.422
1687769991.637,6.836,-12.695,-36.133,-55.176,383.301
1687769991.641,2.930,-20.020,-60.059,-51.270,304.199
1687769991.645,-8.789,-36.133,-62.012,-74.219,-82.031
1687769991.647,-5.371,-34.668,-41.016,-70.312,-115.234
1687769991.651,8.301,-22.949,-52.734,-66.406,-89.844
1687769991.655,8.789,-26.367,-51.270,-70.312,-124.023
1687769991.659,1.953,-30.762,-32.227,-54.688,-59.082
1687769991.663,1.465,-36.133,-28.809,-46.387,-46.875
1687769991.667,-1.465,-56.641,-36.621,-55.176,-61.523
1687769991.671,-12.695,-44.434,-40.039,-56.641,-71.777
1687769991.674,-9.277,-28.809,-49.316,-55.664,-111.328
1687769991.678,0.000,-26.367,-52.734,-38.574,114.746
1687769991.682,-20.508,-23.926,-37.109,-40.039,160.645
1687769991.686,-31.738,-27.344,-28.320,-60.547,-203.125
1687769991.690,-15.625,-31.738,-42.969,-63.965,-194.336
1687769991.692,-13.672,-35.645,-54.688,-61.035,-27.344
1687769991.696,-13.184,-42.969,-50.293,-53.223,-32.715
1687769991.700,-5.859,-41.016,-47.363,-45.410,-66.406
1687769991.704,-9.277,-37.598,-45.410,-51.270,-56.152
1687769991.708,-8.789,-40.527,-55.176,-66.406,-71.777
1687769991.712,7.324,-31.250,-67.383,-58.105,-77.148
1687769991.716,10.742,-28.320,-62.012,-40.039,-29.785
1687769991.719,5.859,-37.598,-44.434,-29.785,146.973
1687769991.723,9.277,-35.156,-37.598,-41.016,445.312
1687769991.727,10.742,-29.297,-45.898,-73.730,167.969
1687769991.731,19.531,-36.133,-45.898,-64.941,-225.586
1687769991.735,21.973,-53.711,-42.969,-43.457,-60.059
1687769991.737,12.207,-50.781,-44.434,-45.898,20.020
1687769991.741,14.160,-27.344,-37.109,-45.410,-107.422
1687769991.745,22.461,-25.879,-33.203,-48.340,-96.191
1687769991.749,12.207,-32.227,-42.969,-63.477,-24.414
1687769991.753,20.996,-35.645,-42.969,-29.785,14.648
1687769991.757,46.875,-39.551,-41.992,14.648,55.176
1687769991.761,19.531,-40.039,-57.617,-30.762,0.488
1687769991.764,-21.973,-40.527,-55.176,-83.008,90.820
1687769991.768,-23.926,-36.133,-41.992,-84.473,33.203
1687769991.772,-2.441,-38.574,-45.410,-66.895,-195.312
1687769991.776,-11.719,-38.086,-37.598,-62.500,-96.680
1687769991.780,-42.969,-36.621,-32.227,-98.145,-65.918
1687769991.783,-39.551,-38.086,-43.945,-108.398,-162.109
1687769991.787,-39.551,-32.227,-41.504,-110.352,-182.617
1687769991.791,-52.246,-41.016,-39.062,-111.328,-52.246
1687769991.795,-30.762,-41.992,-41.992,-89.844,28.809
1687769991.799,-20.996,-34.180,-39.551,-76.660,-85.938
1687769991.803,-45.410,-43.457,-51.758,-93.750,-129.883
1687769991.807,-52.246,-53.223,-54.688,-109.863,22.949
1687769991.810,-45.898,-49.316,-39.062,-82.520,231.934
1687769991.814,-39.551,-51.270,-26.367,-65.430,25.879
1687769991.818,-35.156,-45.898,-23.926,-67.871,-174.805
1687769991.822,-41.992,-38.574,-38.086,-70.312,-34.668
1687769991.826,-41.992,-39.551,-36.133,-71.777,-30.762
1687769991.827,-29.785,-38.574,-37.598,-63.965,-188.477
1687769991.831,-19.531,-39.062,-49.316,-48.828,-160.156
1687769991.835,-13.184,-32.227,-34.180,-49.316,-45.898
1687769991.839,-15.137,-37.109,-39.062,-69.336,-44.922
1687769991.843,-25.879,-46.875,-59.082,-85.938,-92.285
1687769991.847,-20.020,-38.574,-36.133,-70.801,-75.195
1687769991.851,-10.742,-30.762,-30.762,-42.969,213.867
1687769991.854,-14.648,-36.133,-51.270,-34.668,328.613
1687769991.858,-17.578,-43.457,-47.363,-51.758,-49.805
1687769991.862,-20.508,-43.457,-41.504,-64.453,-141.113
1687769991.866,-3.418,-34.180,-54.199,-61.035,-58.594
1687769991.870,5.371,-45.898,-45.898,-49.316,-90.332
1687769991.872,-14.160,-55.176,-37.109,-37.598,-131.348
1687769991.876,-14.648,-36.133,-42.480,-42.969,-113.770
1687769991.880,-19.043,-33.203,-40.039,-50.293,-130.371
1687769991.884,-70.801,-33.203,-39.062,-31.250,-145.508
1687769991.888,-121.582,-33.203,-46.387,-28.320,-144.043
1687769991.892,-157.227,-45.898,-46.387,-33.203,142.090
1687769991.896,-187.012,-40.039,-30.762,-40.039,303.711
1687769991.899,-202.148,-30.762,-31.738,-53.223,54.688
1687769991.903,-179.199,-38.574,-48.828,-52.734,-57.617
1687769991.907,-141.113,-41.992,-40.527,-43.945,86.914
1687769991.911,-120.605,-36.621,-31.738,-34.668,359.375
1687769991.915,-104.492,-42.969,-41.504,-34.668,55.176
1687769991.932,-97.656,-50.293,-53.711,-45.410,-233.887
1687769991.936,-79.590,-33.691,-53.223,-43.945,-148.926
1687769991.940,-65.918,-27.832,-46.387,-24.902,-124.023
1687769991.944,-65.918,-39.062,-50.293,-25.879,-84.961
1687769991.948,-62.988,-44.434,-54.199,-50.293,-23.438
1687769991.952,-54.199,-53.711,-49.316,-63.477,71.289
1687769991.956,-49.316,-53.711,-44.434,-60.059,55.176
1687769991.959,-36.133,-44.434,-53.711,-49.316,-34.668
1687769991.963,-26.367,-43.945,-49.316,-42.969,-16.113
1687769991.967,-27.344,-48.828,-32.715,-39.551,274.414
1687769991.971,-31.738,-49.316,-34.180,-51.270,133.789
1687769991.975,-19.043,-28.809,-35.645,-61.523,-208.008
1687769991.977,-1.465,-24.414,-49.805,-44.434,-66.406
1687769991.981,-11.719,-48.828,-66.895,-37.598,-14.160
1687769991.985,-15.625,-45.898,-45.898,-46.875,-123.535
1687769991.989,-13.184,-34.668,-25.879,-55.176,-160.156
1687769991.993,-16.113,-37.598,-48.340,-59.082,-61.523
1687769991.997,-4.883,-41.992,-61.523,-48.828,49.805
1687769992.001,-2.441,-53.711,-32.227,-41.504,49.316
1687769992.004,-6.836,-56.641,-15.137,-32.715,-41.016
1687769992.008,-9.277,-45.410,-30.762,-31.738,-4.395
1687769992.012,-6.348,-40.527,-46.387,-38.574,242.188
1687769992.016,5.859,-50.293,-46.387,-38.086,106.445
1687769992.020,9.277,-46.387,-35.645,-35.645,-63.965
1687769992.023,6.348,-25.879,-35.156,-26.855,43.945
1687769992.027,4.883,-23.926,-43.945,-37.598,1.953
1687769992.031,6.836,-35.645,-35.645,-41.992,-140.625
1687769992.035,0.977,-46.875,-38.574,-35.645,-169.922
1687769992.039,-1.465,-36.621,-41.504,-34.180,-101.562
1687769992.043,-2.441,-28.809,-45.898,-32.715,46.875
1687769992.047,-10.254,-30.762,-55.176,-43.945,78.613
1687769992.050,-13.672,-32.715,-55.176,-48.828,-74.707
1687769992.054,-11.230,-34.668,-55.664,-38.574,98.633
1687769992.058,-15.137,-34.668,-54.199,-30.762,200.684
1687769992.062,-10.254,-36.133,-43.945,-19.531,-41.504
1687769992.066,-11.230,-41.992,-41.016,-33.203,-98.633
1687769992.068,-27.344,-41.992,-59.570,-61.035,-123.047
1687769992.072,-30.762,-42.480,-67.871,-56.152,-102.539
1687769992.076,-14.648,-30.762,-54.199,-41.504,-83.008
1687769992.080,-8.301,-34.668,-35.156,-28.809,-18.555
1687769992.084,-16.602,-49.805,-33.203,-34.180,29.785
1687769992.088,-6.836,-41.992,-36.621,-44.922,-117.188
1687769992.092,-5.371,-40.039,-34.668,-51.270,-121.094
1687769992.095,-14.160,-30.273,-38.574,-40.527,34.180
1687769992.099,-10.254,-25.391,-40.039,-17.578,342.773
1687769992.103,-15.625,-26.367,-55.176,-33.691,158.691
1687769992.107,-27.832,-31.738,-46.387,-51.758,-225.586
1687769992.111,-24.902,-36.133,-33.691,-47.852,-148.438
1687769992.112,-14.648,-35.156,-33.203,-33.691,-115.234
1687769992.116,-15.625,-40.039,-36.621,-24.414,-192.383
1687769992.120,-24.414,-53.223,-47.363,-34.180,-202.148
1687769992.124,-27.344,-53.711,-41.504,-54.688,-125.000
1687769992.128,-23.438,-44.434,-29.297,-61.035,-104.492
1687769992.132,-9.766,-33.203,-30.762,-37.109,-27.832
1687769992.136,-1.465,-27.344,-37.598,-26.367,-26.367
1687769992.139,-3.906,-21.973,-23.438,-23.438,94.727
1687769992.143,-17.578,-35.156,-32.227,-28.320,240.723
1687769992.147,-20.508,-51.758,-41.992,-40.039,-25.391
1687769992.151,-18.555,-42.480,-32.715,-34.668,-69.824
1687769992.155,-16.602,-36.133,-32.227,-22.461,-10.742
1687769992.157,-13.672,-35.156,-22.461,-30.273,-77.637
1687769992.161,-17.090,-47.852,-22.949,-43.457,-193.359
1687769992.165,-24.414,-50.781,-35.645,-40.527,-154.785
1687769992.169,-24.902,-37.598,-46.387,-41.992,-119.141
1687769992.173,-11.719,-32.227,-41.992,-31.250,-145.996
1687769992.177,-6.836,-32.715,-31.250,-23.926,-84.473
1687769992.181,-13.184,-37.109,-33.203,-41.504,33.691
1687769992.184,-18.555,-33.691,-35.645,-48.828,286.621
1687769992.188,-17.578,-35.156,-48.828,-44.922,170.410
1687769992.192,-19.043,-44.922,-50.293,-35.645,-88.867
1687769992.196,-24.414,-40.039,-42.969,-23.438,75.684
1687769992.200,-29.785,-40.039,-40.527,-34.180,108.887
1687769992.202,-30.273,-37.598,-37.109,-47.852,-192.383
1687769992.206,-25.391,-32.715,-34.668,-37.598,-233.398
1687769992.210,-15.625,-44.434,-34.668,-29.297,-131.348
1687769992.214,-16.113,-41.992,-36.133,-32.227,-54.688
1687769992.218,-32.715,-36.621,-44.922,-45.898,-130.859
1687769992.222,-38.574,-36.133,-46.387,-55.664,-171.875
1687769992.226,-40.039,-36.621,-63.965,-52.734,157.715
1687769992.229,-37.109,-40.527,-67.871,-31.250,184.082
1687769992.233,-36.621,-42.480,-38.086,-42.969,-120.117
1687769992.237,-36.621,-36.621,-29.297,-62.500,-96.680
1687769992.241,-36.133,-46.387,-37.109,-51.758,-47.363
1687769992.245,-35.645,-52.246,-36.621,-56.152,-92.285
1687769992.247,-20.508,-30.762,-32.715,-42.480,-119.629
1687769992.251,-20.508,-23.438,-34.668,-29.297,-33.203
1687769992.255,-31.250,-37.109,-48.340,-49.316,-10.254
1687769992.259,-20.508,-47.363,-49.316,-46.875,-104.980
1687769992.263,-19.043,-50.293,-31.738,-30.273,-192.383
1687769992.267,-44.434,-55.664,-27.344,-49.805,73.242
1687769992.271,-55.664,-62.012,-30.762,-45.410,279.785
1687769992.274,-49.316,-65.918,-34.668,-33.203,30.762
1687769992.278,-58.594,-72.754,-30.273,-63.477,-154.785
1687769992.282,-66.895,-78.125,-27.832,-59.570,-18.066
1687769992.286,-59.082,-81.543,-28.320,-23.438,271.484
1687769992.290,-52.246,-84.473,-25.391,-26.855,151.367
1687769992.308,-45.410,-84.473,-26.367,-27.344,-87.402
1687769992.312,-46.875,-84.961,-24.902,-19.531,-72.266
1687769992.316,-50.781,-87.402,-15.137,-29.297,9.766
1687769992.320,-41.992,-90.332,-19.531,-18.555,-78.125
1687769992.324,-37.109,-96.191,-26.855,-1.465,-96.680
1687769992.328,-38.574,-99.121,-21.973,-2.441,52.734
1687769992.332,-33.203,-99.121,-17.578,-13.184,70.801
1687769992.335,-37.109,-104.004,-15.137,-24.902,-168.457
1687769992.339,-30.273,-104.492,-19.043,-16.113,-192.383
1687769992.343,-15.625,-104.004,-20.020,15.625,-16.602
1687769992.347,-21.973,-114.258,-15.137,34.668,-11.719
1687769992.351,-25.391,-120.117,-14.648,20.996,-118.652
1687769992.353,-6.836,-112.305,-13.184,25.391,-129.883
1687769992.357,20.996,-104.004,-21.484,61.523,178.223
1687769992.361,16.602,-105.469,-53.711,62.988,115.234
1687769992.365,8.301,-120.117,-48.340,66.406,-154.297
1687769992.369,13.184,-125.000,-15.137,78.125,-45.898
1687769992.373,3.906,-99.121,-23.926,64.941,15.137
1687769992.377,4.395,-86.426,-33.203,60.059,-63.965
1687769992.380,3.906,-87.402,-27.832,65.430,-23.926
1687769992.384,4.883,-84.961,-31.738,78.613,41.016
1687769992.388,9.766,-83.984,-35.645,86.914,307.617
1687769992.392,0.977,-86.914,-37.109,62.500,86.426
1687769992.396,10.254,-84.961,-42.969,49.805,-208.496
1687769992.397,11.719,-78.613,-42.480,64.941,-67.871
1687769992.401,15.137,-75.195,-41.016,75.195,-36.621
1687769992.405,14.648,-71.289,-44.434,53.223,-117.676
1687769992.409,11.230,-74.219,-38.086,32.227,-122.559
1687769992.413,15.625,-70.801,-37.109,39.551,-73.242
1687769992.417,6.836,-60.059,-51.270,43.945,-32.227
1687769992.421,11.230,-60.547,-59.570,42.480,29.785
1687769992.424,4.883,-54.199,-44.434,35.156,-50.293
1687769992.428,-15.625,-54.688,-39.062,26.855,80.078
1687769992.432,-15.137,-61.523,-40.527,22.461,111.816
1687769992.436,-7.324,-56.641,-39.062,15.625,-147.949
1687769992.440,-9.766,-76.172,-52.734,6.836,-150.879
1687769992.443,-8.789,-70.801,-54.199,8.789,-48.828
1687769992.447,0.977,-40.039,-44.434,14.160,-107.910
1687769992.451,8.301,-41.504,-37.109,12.207,-166.992
1687769992.455,0.488,-52.246,-31.738,22.949,-75.684
1687769992.459,-7.324,-49.805,-30.273,25.391,3.906
1687769992.463,-8.789,-55.664,-31.738,10.742,-40.039
1687769992.467,0.977,-48.340,-31.250,3.906,-100.586
1687769992.470,10.254,-29.297,-35.156,-2.441,93.262
1687769992.474,-0.977,-39.551,-43.457,11.230,458.008
1687769992.478,-5.859,-46.387,-54.688,29.297,327.637
1687769992.482,0.977,-48.340,-45.410,15.625,-65.430
1687769992.486,-10.254,-45.898,-47.363,-3.418,-107.422
1687769992.487,-28.809,-47.852,-55.176,-9.277,-113.770
1687769992.491,-38.086,-43.945,-41.992,-11.719,-166.504
1687769992.495,-34.668,-37.109,-36.133,-0.977,-141.602
1687769992.499,-28.320,-46.875,-37.598,3.418,-107.910
1687769992.503,-31.738,-51.758,-35.645,-7.812,-151.855
1687769992.507,-25.391,-45.898,-33.203,-15.625,-62.012
1687769992.511,-17.578,-41.504,-36.133,-9.766,-10.742
1687769992.514,-19.043,-35.645,-35.645,13.184,198.242
1687769992.518,-21.973,-45.898,-33.691,12.207,260.742
1687769992.522,-27.344,-59.082,-49.316,-19.043,-98.633
1687769992.526,-30.273,-53.223,-43.945,-35.645,-120.605
1687769992.530,-25.391,-43.457,-25.879,-22.461,-71.289
1687769992.532,-18.555,-50.293,-34.180,-12.207,-127.930
1687769992.536,-17.090,-54.688,-58.105,-4.883,-144.531
1687769992.540,-17.578,-50.293,-58.105,-14.160,-100.098
1687769992.544,-17.090,-56.152,-39.062,-34.180,-98.145
1687769992.548,-13.184,-49.316,-32.227,-27.344,-105.957
1687769992.552,-3.418,-36.133,-28.809,-21.973,-41.504
1687769992.556,-4.883,-44.434,-37.598,-21.973,95.703
1687769992.559,-14.648,-50.293,-40.039,-15.137,237.305
1687769992.563,-19.043,-55.664,-42.480,-33.203,52.734
1687769992.567,-7.812,-58.105,-47.852,-26.855,-181.152
1687769992.571,-1.953,-41.504,-41.504,-5.859,1.465
1687769992.575,-9.277,-28.809,-31.250,-3.906,123.047
1687769992.578,-9.277,-33.691,-29.785,-29.785,-119.141
1687769992.582,0.977,-40.039,-30.762,-47.852,-182.617
1687769992.586,5.371,-40.039,-20.996,-24.902,-130.371
1687769992.590,1.465,-51.270,-24.414,-19.043,-91.797
1687769992.594,0.000,-51.758,-42.969,-27.832,-105.469
1687769992.598,-24.414,-47.363,-40.039,-41.016,-64.941
1687769992.602,-40.039,-55.176,-23.926,-52.734,182.129
1687769992.605,-24.902,-60.547,-27.344,-52.246,104.492
1687769992.609,-16.113,-55.176,-39.062,-45.898,-197.754
1687769992.613,-18.066,-38.574,-43.457,-41.504,-115.234
1687769992.617,-23.438,-42.969,-32.227,-37.598,-53.711
1687769992.621,-40.039,-61.523,-35.156,-39.551,-90.820
1687769992.623,-39.551,-55.176,-40.039,-39.062,-145.508
1687769992.627,-29.785,-44.922,-41.016,-29.785,-59.082
1687769992.631,-33.203,-44.434,-36.621,-28.320,-0.488
1687769992.635,-44.434,-39.062,-34.180,-34.668,-95.215
1687769992.639,-46.387,-43.945,-41.992,-50.781,-164.551
1687769992.643,-35.156,-56.641,-34.668,-57.129,16.602
1687769992.647,-31.250,-42.969,-27.344,-44.922,123.535
1687769992.650,-31.250,-37.109,-34.668,-39.551,-12.695
1687769992.654,-35.645,-38.574,-41.992,-31.250,-39.062
1687769992.658,-44.434,-37.109,-46.875,-49.316,-53.711
1687769992.662,-32.227,-45.410,-42.480,-54.199,-60.059
1687769992.666,-12.207,-47.363,-42.969,-20.508,-34.668
1687769992.682,-22.461,-38.086,-48.340,-25.879,-35.645
1687769992.686,-38.086,-32.227,-32.715,-31.250,116.211
1687769992.690,-36.133,-28.320,-35.156,-27.832,232.910
1687769992.694,-29.785,-31.738,-53.711,-50.781,15.137
1687769992.698,-22.949,-42.969,-58.594,-38.574,-149.902
1687769992.702,-19.531,-45.410,-62.988,-14.160,128.418
1687769992.706,-28.809,-42.969,-49.805,-15.625,346.680
1687769992.709,-39.062,-33.203,-44.434,-33.691,-39.551
1687769992.713,-37.109,-30.762,-41.992,-41.504,-123.535
1687769992.717,-39.551,-39.551,-19.531,-36.133,23.438
1687769992.721,-45.898,-38.574,-34.668,-26.367,-68.359
1687769992.725,-52.734,-50.293,-59.570,-33.203,-117.676
1687769992.727,-60.547,-51.758,-40.527,-42.480,-47.363
1687769992.731,-56.152,-43.457,-40.527,-37.598,-81.543
1687769992.735,-47.852,-45.898,-51.758,-40.039,-146.973
1687769992.739,-52.246,-49.316,-36.133,-33.203,-140.137
1687769992.743,-51.270,-55.664,-22.949,-25.391,-30.762
1687769992.747,-48.828,-59.570,-36.621,-30.762,94.238
1687769992.751,-51.270,-47.363,-42.480,-34.180,49.316
1687769992.754,-46.875,-42.969,-34.668,-34.668,-12.207
1687769992.758,-49.316,-51.758,-51.758,-30.273,170.898
1687769992.762,-57.129,-62.500,-55.176,-20.996,448.242
1687769992.766,-55.664,-52.246,-44.922,-33.203,282.227
1687769992.770,-57.617,-41.992,-47.852,-61.523,-91.309
1687769992.772,-41.992,-39.062,-38.086,-52.734,-161.133
1687769992.776,-32.715,-42.969,-32.715,-21.973,-132.324
1687769992.780,-55.176,-51.758,-48.828,-18.066,-134.277
1687769992.784,-61.035,-47.852,-51.270,-47.852,-100.098
1687769992.788,-51.758,-42.969,-42.480,-55.176,-151.367
1687769992.792,-54.199,-53.223,-33.691,-41.992,-155.273
1687769992.796,-48.828,-43.457,-35.645,-30.762,1.465
1687769992.799,-46.387,-27.832,-49.805,-37.109,-6.348
1687769992.803,-70.312,-42.969,-53.223,-41.504,190.918
1687769992.807,-73.242,-46.387,-51.758,-44.434,245.117
1687769992.811,-54.199,-37.109,-63.965,-45.898,-126.465
1687769992.815,-52.734,-31.738,-58.594,-25.391,-145.508
1687769992.817,-61.035,-25.879,-49.316,-17.090,-33.691
1687769992.821,-70.801,-36.621,-45.410,-28.809,-134.277
1687769992.825,-83.496,-53.711,-45.898,-52.246,-221.191
1687769992.829,-76.660,-47.363,-62.500,-41.992,-105.957
1687769992.833,-68.848,-47.363,-49.805,-22.461,-5.371
1687769992.837,-67.383,-45.898,-31.250,-9.277,-43.945
1687769992.841,-74.219,-43.945,-37.598,-18.066,-62.988
1687769992.844,-85.449,-50.293,-58.594,-50.293,35.156
1687769992.848,-78.613,-42.969,-55.664,-49.805,234.375
1687769992.852,-61.035,-38.086,-48.828,-33.691,120.117
1687769992.856,-44.922,-39.551,-60.547,-21.484,-98.145
1687769992.860,-44.922,-37.598,-52.734,-18.066,37.109
1687769992.905,-47.363,-34.668,-38.574,-35.156,14.648
1687769992.909,-43.945,-30.762,-34.180,-54.199,-210.449
1687769992.913,-38.086,-41.016,-40.039,-41.016,-188.477
1687769992.917,-40.039,-48.828,-45.898,-23.438,-19.043
1687769992.921,-38.086,-45.898,-45.898,-19.531,13.184
1687769992.925,-28.809,-45.898,-49.805,-27.344,-39.062
1687769992.929,-29.785,-35.156,-58.594,-37.598,-95.703
1687769992.932,-24.414,-39.062,-49.316,-35.645,50.293
1687769992.936,-11.230,-45.410,-26.367,-11.719,109.863
1687769992.940,-19.043,-29.297,-17.578,-16.602,-102.539
1687769992.944,-35.645,-37.109,-29.297,-50.781,-78.613
1687769992.948,-32.227,-48.828,-39.062,-58.105,-63.477
1687769992.929,-22.949,-35.156,-44.922,-48.340,-84.473
1687769992.933,-24.414,-30.762,-44.922,-32.715,-124.512
1687769992.937,-24.414,-41.504,-37.109,-19.531,-61.523
1687769992.941,-22.461,-47.363,-33.691,-26.367,62.988
1687769992.945,-27.832,-38.086,-43.457,-49.316,-53.711
1687769992.949,-28.320,-34.668,-51.270,-36.621,-92.285
1687769992.953,-21.484,-33.691,-46.387,-15.137,43.457
1687769992.956,-22.461,-33.203,-48.828,-17.578,336.914
1687769992.960,-31.250,-31.738,-34.668,-31.250,163.086
1687769992.964,-29.785,-32.227,-30.273,-43.945,-143.555
1687769992.968,-22.461,-29.297,-34.180,-27.344,105.469
1687769992.972,-17.578,-24.414,-24.902,-8.789,197.266
1687769992.966,-14.160,-32.715,-31.738,-28.809,-31.250
1687769992.970,-24.902,-39.062,-46.387,-43.457,-92.285
1687769992.974,-35.645,-45.898,-37.109,-47.852,-70.312
1687769992.978,-32.227,-35.645,-22.949,-46.387,-68.359
1687769992.982,-28.809,-29.785,-31.250,-38.086,-136.230
1687769992.986,-37.109,-35.156,-40.039,-31.738,-16.602
1687769992.990,-40.039,-23.926,-34.180,-41.992,84.961
1687769992.993,-41.016,-36.621,-40.527,-58.594,2.930
1687769992.997,-41.992,-43.457,-40.039,-53.711,-103.027
1687769993.001,-36.621,-27.832,-40.039,-41.504,-173.828
1687769993.005,-33.691,-29.785,-36.133,-17.090,173.828
1687769993.009,-36.133,-40.039,-39.062,-16.113,225.098
1687769992.997,-44.922,-44.434,-40.039,-55.664,-130.859
1687769993.001,-42.969,-38.086,-19.043,-64.453,-114.258
1687769993.005,-35.645,-34.668,-29.785,-50.293,-74.219
1687769993.009,-38.574,-46.387,-34.668,-41.992,-133.789
1687769993.013,-37.598,-59.082,-33.203,-40.527,-136.719
1687769993.017,-35.156,-46.875,-48.340,-41.992,36.621
1687769993.021,-33.691,-28.809,-43.457,-41.504,187.500
1687769993.024,-41.992,-27.344,-27.344,-44.434,14.648
1687769993.028,-50.781,-32.715,-18.066,-28.809,-119.141
1687769993.032,-49.316,-35.645,-19.043,-26.367,75.195
1687769993.036,-54.199,-34.180,-22.949,-49.316,173.340
1687769993.040,-54.688,-37.109,-20.996,-58.105,-127.441
1687769993.057,-47.363,-44.922,-29.785,-29.297,-188.965
1687769993.061,-37.598,-44.434,-47.852,-22.949,-84.473
1687769993.065,-41.992,-44.434,-40.039,-31.250,-76.660
1687769993.069,-47.852,-41.016,-32.227,-29.785,-154.785
1687769993.073,-50.293,-37.598,-40.039,-52.734,-173.340
1687769993.077,-51.270,-42.480,-27.344,-48.340,-34.668
1687769993.081,-41.504,-44.922,-16.602,-21.973,2.441
1687769993.084,-36.133,-41.992,-37.598,-40.527,29.297
1687769993.088,-40.039,-41.504,-48.828,-56.641,-11.230
1687769993.092,-36.133,-41.992,-23.438,-52.246,110.352
1687769993.096,-23.438,-48.828,-26.367,-36.621,129.883
1687769993.100,-24.414,-45.898,-58.105,-27.344,-93.262
1687769993.103,-31.738,-41.992,-51.758,-33.203,-4.883
1687769993.107,-38.086,-46.387,-36.133,-50.293,10.742
1687769993.111,-38.574,-40.039,-47.363,-58.594,-128.906
1687769993.115,-29.297,-33.691,-37.109,-49.316,-140.625
1687769993.119,-26.367,-32.227,-20.508,-31.738,-41.016
1687769993.123,-35.156,-42.480,-30.762,-31.738,-17.578
1687769993.127,-47.363,-44.922,-45.898,-42.480,-28.320
1687769993.130,-47.363,-41.992,-43.945,-43.945,-2.441
1687769993.134,-41.992,-42.480,-37.598,-38.574,52.246
1687769993.138,-45.898,-48.828,-55.176,-23.438,181.641
1687769993.142,-41.016,-49.805,-58.105,-23.926,24.902
1687769993.146,-37.109,-47.852,-40.527,-38.574,-134.766
1687769993.148,-33.691,-62.988,-34.668,-36.133,39.551
1687769993.152,-0.488,-47.363,-37.109,-3.906,297.363
1687769993.156,16.602,-19.531,-54.688,20.020,30.273
1687769993.160,-16.602,-11.719,-57.617,-25.391,-148.926
1687769993.164,-29.297,-6.348,-51.758,-56.152,-52.246
1687769993.168,-37.598,-8.789,-52.734,-65.918,-46.875
1687769993.172,-61.035,-12.695,-62.012,-84.473,-142.578
1687769993.175,-66.895,-7.324,-71.777,-96.191,-255.371
1687769993.179,-64.941,-6.836,-68.359,-85.938,0.000
1687769993.183,-75.195,-1.465,-57.617,-98.145,85.449
1687769993.187,-96.680,10.742,-60.059,-146.484,-229.004
1687769993.191,-97.656,7.324,-67.383,-151.367,-162.109
1687769993.193,-101.562,5.859,-62.988,-146.973,-51.758
1687769993.197,-115.234,15.625,-62.988,-161.621,-169.922
1687769993.201,-124.512,24.414,-63.477,-173.340,-207.031
1687769993.205,-118.652,30.273,-62.500,-180.664,-202.148
1687769993.209,-112.793,33.203,-63.965,-190.430,-179.688
1687769993.213,-119.629,40.527,-54.688,-198.730,-184.082
1687769993.217,-120.117,51.270,-52.246,-187.988,-155.273
1687769993.220,-119.141,43.945,-44.434,-166.504,71.289
1687769993.224,-111.328,39.551,-42.969,-154.297,412.109
1687769993.228,-118.164,46.387,-49.805,-182.617,174.316
1687769993.232,-114.258,44.434,-43.945,-179.199,-134.766
1687769993.236,-105.957,36.621,-47.852,-155.762,-49.316
1687769993.239,-115.234,37.598,-57.129,-162.109,-79.102
1687769993.243,-113.281,42.969,-56.152,-168.457,-104.004
1687769993.247,-104.980,41.016,-47.363,-170.898,-91.309
1687769993.251,-102.539,38.086,-50.781,-154.785,-41.992
1687769993.255,-92.773,35.645,-58.105,-128.906,-15.137
1687769993.259,-76.660,27.344,-52.734,-116.699,12.207
1687769993.263,-77.148,16.602,-52.246,-131.836,69.824
1687769993.266,-69.824,16.602,-50.293,-134.766,190.430
1687769993.270,-62.500,20.508,-45.410,-110.840,177.246
1687769993.274,-62.012,14.648,-46.387,-93.750,-124.023
1687769993.278,-61.523,11.719,-50.781,-84.961,-131.348
1687769993.282,-65.918,13.184,-45.898,-82.031,-74.219
1687769993.283,-51.758,7.324,-57.129,-81.543,-100.586
1687769993.287,-39.551,-5.859,-60.059,-81.055,-99.121
1687769993.291,-43.945,-6.348,-56.641,-76.660,-85.938
1687769993.295,-49.316,2.930,-62.500,-78.613,-22.461
1687769993.299,-45.898,-4.395,-49.316,-62.500,-48.340
1687769993.303,-41.992,-7.324,-45.410,-69.824,-145.508
1687769993.307,-37.109,-0.488,-63.965,-65.430,-32.227
1687769993.310,-32.227,-4.395,-64.941,-42.969,368.652
1687769993.314,-37.109,-13.184,-57.129,-61.035,224.121
1687769993.318,-40.039,-20.020,-45.898,-84.473,-194.824
1687769993.322,-38.574,-14.160,-39.551,-84.961,-206.055
1687769993.326,-31.738,-19.531,-43.457,-70.801,-133.301
1687769993.328,-21.484,-20.996,-38.574,-48.828,-112.793
1687769993.332,-21.484,0.977,-41.992,-42.480,-62.988
1687769993.336,-29.785,-8.301,-38.086,-52.734,-63.965
1687769993.340,-33.203,-17.090,-27.832,-66.895,-116.699
1687769993.344,-29.785,-4.395,-22.461,-66.895,-110.840
1687769993.348,-34.668,-10.742,-39.062,-57.617,-17.578
1687769993.352,-50.293,-22.461,-51.270,-50.781,281.738
1687769993.355,-58.105,-20.508,-34.668,-50.293,299.805
1687769993.359,-64.453,-28.809,-23.926,-72.266,-76.660
1687769993.363,-61.523,-22.949,-29.297,-74.707,-182.129
1687769993.367,-58.594,-16.113,-23.926,-58.105,-76.172
1687769993.371,-68.359,-33.691,-31.738,-51.758,-114.746
1687769993.373,-80.078,-33.691,-39.062,-51.270,-162.598
1687769993.377,-79.102,-32.715,-28.320,-72.266,-118.164
1687769993.381,-64.453,-26.855,-19.043,-80.566,-70.312
1687769993.385,-57.129,-15.625,-30.273,-63.477,-84.473
1687769993.389,-58.594,-37.598,-35.645,-58.594,-101.562
1687769993.393,-70.801,-41.016,-26.855,-58.594,42.969
1687769993.397,-83.008,-30.762,-33.691,-70.801,152.344
1687769993.400,-85.449,-35.156,-41.504,-85.938,-95.215
1687769993.404,-85.938,-37.598,-51.270,-82.031,-100.586
1687769993.408,-92.285,-30.273,-49.805,-72.266,125.488
1687769993.412,-90.332,-19.531,-29.785,-53.223,291.016
1687769993.416,-86.914,-26.855,-30.273,-62.500,57.617
1687769993.433,-92.285,-37.109,-51.758,-83.008,-202.637
1687769993.437,-87.891,-27.832,-41.504,-67.871,-91.309
1687769993.441,-103.027,-27.344,-26.855,-62.988,-6.348
1687769993.445,-123.047,-28.320,-44.434,-62.500,-62.500
1687769993.449,-121.582,-25.391,-43.945,-60.547,-145.996
1687769993.453,-124.023,-36.133,-25.391,-67.871,-107.910
1687769993.457,-131.836,-41.016,-50.293,-65.430,-44.434
1687769993.460,-134.766,-39.551,-53.711,-55.664,-98.145
1687769993.464,-141.602,-58.594,-35.645,-59.082,-97.168
1687769993.468,-141.602,-57.617,-43.945,-60.059,132.324
1687769993.472,-144.043,-41.504,-50.781,-61.035,105.469
1687769993.476,-143.066,-41.016,-44.922,-66.895,-75.195
1687769993.478,-142.578,-47.852,-36.621,-58.594,5.371
1687769993.482,-137.695,-62.988,-50.293,-39.551,152.832
1687769993.486,-119.629,-54.688,-59.082,-22.461,47.363
1687769993.490,-144.531,-42.480,-35.156,-56.641,-157.715
1687769993.494,-180.664,-48.340,-17.578,-104.004,-81.055
1687769993.498,-159.180,-43.457,-20.508,-89.355,101.562
1687769993.502,-141.113,-41.504,-31.738,-73.730,-16.602
1687769993.505,-144.043,-41.504,-34.668,-72.266,-54.199
1687769993.509,-146.973,-41.992,-33.203,-91.309,76.660
1687769993.513,-137.207,-43.945,-45.410,-88.379,265.625
1687769993.517,-112.305,-37.109,-60.059,-74.707,108.398
1687769993.521,-100.098,-45.410,-45.898,-80.566,-155.273
1687769993.525,-86.426,-44.922,-30.273,-73.730,-94.727
1687769993.529,-87.402,-44.434,-35.645,-83.496,-105.957
1687769993.533,-86.426,-46.387,-34.668,-85.938,-150.879
1687769993.537,-64.453,-35.645,-33.203,-63.965,-138.672
1687769993.541,-66.406,-42.969,-52.734,-47.363,61.523
1687769993.545,-74.219,-57.617,-48.340,-48.340,149.902
1687769993.549,-63.477,-51.270,-28.809,-64.941,-37.109
1687769993.552,-61.035,-37.598,-27.344,-87.402,-152.344
1687769993.556,-57.617,-30.273,-26.367,-67.383,161.621
1687769993.560,-45.898,-37.598,-29.785,-39.551,208.984
1687769993.564,-46.387,-35.645,-43.945,-63.477,-104.004
1687769993.568,-41.016,-24.902,-42.480,-76.172,-17.578
1687769993.568,-28.320,-42.969,-41.504,-62.988,-15.137
1687769993.572,-20.020,-55.176,-44.922,-58.105,-81.543
1687769993.576,-20.020,-38.574,-52.734,-55.664,-137.695
1687769993.580,-24.414,-29.297,-57.617,-52.246,-18.555
1687769993.584,-34.180,-28.320,-42.969,-63.477,104.004
1687769993.588,-28.320,-26.367,-35.645,-59.082,-49.316
1687769993.592,-13.184,-39.062,-38.086,-54.199,-41.992
1687769993.595,-12.207,-52.246,-44.434,-44.922,104.004
1687769993.599,-7.812,-57.617,-45.898,-24.902,402.344
1687769993.603,-3.418,-49.805,-38.086,-36.621,218.750
1687769993.607,4.395,-25.391,-39.551,-49.805,-138.184
1687769993.611,3.418,-23.438,-51.270,-42.969,-100.586
1687769993.614,-2.930,-36.133,-48.340,-30.762,-103.027
1687769993.618,-1.953,-37.109,-34.668,-28.320,-135.742
1687769993.622,2.930,-39.062,-31.250,-35.645,-148.438
1687769993.626,1.465,-41.504,-51.758,-37.598,-178.711
1687769993.630,-6.348,-49.805,-60.059,-43.457,-145.996
1687769993.634,-4.395,-44.922,-33.691,-31.738,5.859
1687769993.638,4.883,-28.320,-25.879,-19.531,14.648
1687769993.641,2.441,-32.715,-28.320,-27.832,188.477
1687769993.645,5.859,-19.043,-30.273,-31.738,239.258
1687769993.649,-4.883,-11.719,-34.180,-47.363,-106.934
1687769993.653,-13.184,-31.738,-20.508,-38.574,-184.570
1687769993.657,-10.254,-43.945,-31.250,-30.273,-104.004
1687769993.658,-14.648,-35.156,-51.270,-35.645,-86.914
1687769993.662,-19.531,-28.320,-54.199,-41.992,-186.523
1687769993.666,-10.742,-36.621,-41.992,-41.016,-143.066
1687769993.670,-9.766,-40.527,-27.344,-29.297,-32.227
1687769993.674,-16.602,-28.320,-35.645,-22.461,-60.547
1687769993.678,-11.230,-30.762,-33.691,-20.020,-65.430
1687769993.682,-21.973,-49.316,-21.973,-41.992,96.191
1687769993.685,-24.902,-49.805,-31.738,-37.598,350.586
1687769993.689,-8.301,-38.574,-41.016,-10.254,173.340
1687769993.693,-9.766,-38.574,-36.133,-12.207,-114.258
1687769993.697,-21.973,-39.551,-32.227,-22.949,27.832
1687769993.701,-25.879,-46.875,-28.809,-16.602,70.312
1687769993.704,-29.297,-52.246,-47.852,-38.086,-155.273
1687769993.708,-29.297,-32.227,-45.898,-45.410,-143.066
1687769993.712,-29.297,-28.809,-36.133,-19.043,-112.305
1687769993.716,-32.715,-39.551,-43.457,-30.762,-98.145
1687769993.720,-31.250,-41.992,-35.156,-51.758,-153.320
1687769993.724,-24.414,-24.902,-32.715,-41.992,-165.527
1687769993.728,-20.996,-12.207,-33.203,-20.508,175.293
1687769993.731,-24.414,-24.414,-47.363,-18.555,204.590
1687769993.735,-40.527,-46.875,-56.641,-45.410,-124.512
1687769993.739,-59.570,-51.758,-45.410,-54.688,-163.086
1687769993.743,-59.082,-43.457,-62.988,-45.410,-42.480
1687769993.747,-47.363,-47.363,-57.129,-43.945,7.324
1687769993.749,-48.340,-47.852,-32.227,-49.805,-47.852
1687769993.753,-51.270,-44.922,-36.133,-40.527,29.297
1687769993.757,-50.293,-47.852,-44.434,-41.992,102.539
1687769993.761,-42.969,-40.039,-49.805,-46.875,-33.691
1687769993.765,-37.109,-31.738,-63.477,-35.156,-144.531
1687769993.769,-42.969,-39.551,-56.152,-23.438,105.469
1687769993.773,-42.480,-51.270,-30.762,-19.531,294.922
1687769993.776,-41.504,-53.711,-30.762,-33.203,11.719
1687769993.780,-36.133,-43.457,-32.715,-49.316,-100.586
1687769993.784,-27.832,-36.621,-34.668,-41.016,99.609
1687769993.788,-31.250,-36.621,-47.852,-29.785,211.914
1687769993.792,-31.250,-43.945,-43.945,-34.180,-8.789
1687769993.795,-24.902,-42.480,-39.551,-35.645,-99.609
1687769993.799,0.000,-40.527,-49.316,-28.809,-29.785
1687769993.803,22.949,-43.457,-38.574,-11.230,-90.332
1687769993.807,1.953,-49.805,-23.438,-1.465,-146.973
1687769993.811,-26.855,-55.176,-18.066,-17.578,-146.973
1687769993.815,-38.086,-63.477,-16.113,-42.969,30.273
1687769993.819,-31.738,-67.871,-18.066,-45.410,12.207
1687769993.822,-31.738,-72.266,-15.625,-37.598,-216.797
1687769993.826,-43.457,-73.730,-12.207,-30.762,-203.125
1687769993.830,-56.641,-88.379,-16.113,-24.902,8.301
1687769993.834,-60.059,-104.004,-18.555,-25.391,-29.297
1687769993.838,-51.758,-99.609,-29.785,-33.203,-168.457
1687769993.853,-40.039,-98.145,-30.273,-35.645,-103.027
1687769993.857,-43.457,-102.051,-22.461,-25.391,-63.965
1687769993.861,-46.875,-102.051,-25.391,-10.742,-41.016
1687769993.865,-36.621,-100.098,-24.902,-8.301,-108.887
1687769993.869,-34.668,-100.586,-13.672,-10.742,-80.566
1687769993.873,-34.668,-104.492,-1.953,-7.812,183.105
1687769993.877,-19.531,-108.398,-1.465,1.465,145.020
1687769993.880,-6.836,-112.793,-3.418,18.066,16.113
1687769993.884,-15.137,-107.910,3.906,24.414,74.707
1687769993.888,-12.695,-108.887,-11.719,26.367,186.035
1687769993.892,8.301,-110.352,-22.949,27.832,-57.617
1687769993.896,18.066,-107.910,-12.695,40.527,-149.414
1687769993.898,20.996,-114.746,-14.160,62.988,-64.453
1687769993.902,27.832,-118.164,-25.879,60.059,-91.309
1687769993.906,35.645,-115.723,-28.320,59.082,-112.305
1687769993.910,39.062,-116.211,-20.996,67.871,-94.727
1687769993.914,38.574,-121.582,-41.504,67.871,15.625
1687769993.918,42.480,-118.164,-53.711,76.660,66.895
1687769993.922,46.875,-105.957,-40.527,83.008,65.430
1687769993.925,58.105,-98.633,-33.691,75.195,-29.785
1687769993.929,62.988,-97.168,-36.133,82.031,87.891
1687769993.933,57.617,-97.656,-39.062,80.078,172.852
1687769993.937,45.898,-100.586,-34.668,76.172,-96.191
1687769993.941,32.227,-96.191,-34.668,74.707,-116.211
1687769993.943,31.738,-87.402,-27.344,50.781,-72.266
1687769993.947,33.203,-83.984,-20.508,41.016,-149.414
1687769993.951,33.203,-83.496,-26.367,46.875,-208.984
1687769993.955,36.133,-82.520,-28.320,60.059,-74.707
1687769993.959,36.621,-75.195,-25.391,61.035,-21.973
1687769993.963,30.273,-64.941,-26.367,50.781,-4.395
1687769993.967,26.367,-70.801,-36.621,34.180,7.812
1687769993.970,31.250,-80.078,-35.156,25.391,49.805
1687769993.974,25.879,-71.777,-27.344,37.598,417.969
1687769993.978,13.672,-63.477,-41.992,42.480,312.012
1687769993.982,11.230,-62.988,-41.016,27.832,-116.699
1687769993.986,3.418,-57.617,-15.137,15.625,-188.477
1687769993.988,-0.488,-63.477,-13.184,12.207,-187.988
1687769993.992,8.301,-69.336,-26.367,20.996,-170.410
1687769993.996,4.395,-50.293,-31.250,31.250,-176.270
1687769994.000,4.883,-35.645,-29.297,28.809,-154.297
1687769994.004,10.254,-49.316,-29.297,7.812,-143.066
1687769994.008,8.301,-70.801,-28.809,-1.465,-149.902
1687769994.012,2.441,-71.777,-28.320,6.836,-54.688
1687769994.015,-8.789,-61.523,-34.668,2.441,183.105
1687769994.019,-7.812,-48.340,-42.480,9.277,103.516
1687769994.023,0.000,-32.227,-37.598,0.000,-204.590
1687769994.027,-1.465,-31.738,-30.273,-14.160,-105.469
1687769994.031,-6.348,-43.457,-27.344,-11.230,15.137
1687769994.033,-4.883,-47.363,-23.438,-0.977,-51.270
1687769994.037,-2.441,-38.086,-15.625,-0.488,-130.371
1687769994.041,0.488,-34.668,-16.113,-8.789,-119.629
1687769994.045,-8.789,-55.176,-41.992,-11.230,-71.777
1687769994.049,-20.508,-62.012,-55.176,-17.578,-85.938
1687769994.053,-9.766,-48.340,-32.227,-10.742,-43.945
1687769994.057,-7.324,-42.480,-19.043,-8.301,136.230
1687769994.060,-16.113,-44.922,-25.391,-28.809,417.969
1687769994.064,-19.043,-52.734,-22.461,-32.227,168.457
1687769994.068,-16.113,-50.293,-27.832,-17.578,-134.277
1687769994.072,-10.742,-41.992,-21.973,-1.465,-38.574
1687769994.076,-7.812,-36.621,-16.113,3.906,-76.660
1687769994.079,-8.301,-38.574,-29.785,-17.578,-164.062
1687769994.083,-16.602,-45.898,-36.621,-30.762,-168.945
1687769994.087,-13.184,-45.898,-35.645,-26.855,-13.184
1687769994.091,-4.395,-44.434,-47.852,-23.438,38.086
1687769994.095,-2.441,-47.852,-50.293,-17.090,-127.441
1687769994.099,-6.348,-41.504,-36.133,-28.809,-168.945
1687769994.103,-9.277,-57.129,-34.668,-37.598,150.391
1687769994.106,-7.812,-67.871,-42.480,-23.438,251.465
1687769994.110,-12.207,-40.527,-43.457,-24.902,-49.805
1687769994.114,-14.160,-29.297,-31.738,-21.973,-30.762
1687769994.118,-15.625,-52.246,-39.062,-23.926,-0.488
1687769994.122,-11.719,-64.453,-47.852,-33.691,-146.484
1687769994.123,-4.395,-43.457,-37.598,-14.160,-151.367
1687769994.127,-10.742,-41.016,-25.879,-6.836,-79.102
1687769994.131,-10.254,-51.758,-27.344,-18.555,-19.043
1687769994.135,-14.160,-46.875,-36.621,-24.902,-43.457
1687769994.139,-14.648,-40.527,-35.645,-34.668,-127.441
1687769994.143,0.488,-44.922,-35.645,-25.391,-18.066
1687769994.147,-1.465,-46.387,-32.227,2.930,341.797
1687769994.150,-13.672,-43.945,-32.715,1.465,318.848
1687769994.154,-18.066,-42.480,-31.738,-25.391,-44.434
1687769994.158,-20.996,-41.504,-38.086,-34.180,-68.848
1687769994.162,-16.113,-40.039,-62.988,-24.414,-26.855
1687769994.166,-14.648,-56.152,-50.293,-27.344,-135.254
1687769994.184,-19.043,-66.895,-13.672,-20.508,-89.844
1687769994.188,-32.227,-50.781,-19.531,-28.809,-94.727
1687769994.192,-46.875,-39.551,-39.062,-59.082,-139.648
1687769994.196,-44.434,-41.992,-42.969,-53.223,-192.871
1687769994.200,-34.668,-47.363,-38.574,-31.738,-183.594
1687769994.204,-27.344,-42.969,-38.574,-13.184,17.578
1687769994.208,-27.344,-46.387,-49.316,-32.227,105.957
1687769994.211,-19.531,-44.922,-41.504,-48.828,20.020
1687769994.215,-13.184,-47.363,-30.762,-40.039,-122.070
1687769994.219,-17.090,-45.898,-47.363,-28.320,61.035
1687769994.223,-16.602,-32.227,-47.852,-11.719,185.059
1687769994.227,-19.043,-31.738,-36.133,-10.254,-93.750
1687769994.227,-31.250,-39.062,-42.969,-41.504,-163.086
1687769994.231,-25.391,-47.852,-43.457,-55.664,-106.445
1687769994.235,-21.484,-46.875,-53.711,-38.574,-106.445
1687769994.239,-28.809,-36.621,-49.805,-20.508,-117.676
1687769994.243,-26.367,-34.668,-33.203,-14.160,26.855
1687769994.247,-31.250,-39.551,-41.992,-40.527,79.590
1687769994.251,-25.879,-39.551,-44.434,-54.199,-23.438
1687769994.254,-21.484,-40.039,-43.457,-39.551,-61.523
1687769994.258,-29.297,-40.527,-55.176,-27.832,106.934
1687769994.262,-31.738,-45.410,-54.199,-11.230,410.645
1687769994.266,-40.527,-43.457,-55.176,-33.691,250.977
1687769994.270,-41.992,-47.852,-58.105,-54.688,-116.211
1687769994.272,-27.344,-48.340,-62.988,-41.504,-140.137
1687769994.276,-22.461,-40.527,-69.336,-37.598,-109.863
1687769994.280,-27.832,-49.316,-46.875,-45.898,-151.367
1687769994.284,-29.785,-45.410,-36.133,-51.270,-178.711
1687769994.288,-31.738,-30.762,-34.668,-54.199,-120.605
1687769994.292,-33.691,-37.598,-38.574,-50.293,-62.012
1687769994.296,-38.086,-42.480,-50.293,-45.898,-119.629
1687769994.299,-38.574,-39.551,-50.781,-46.387,-98.145
1687769994.303,-38.574,-41.016,-43.457,-35.156,124.023
1687769994.307,-34.668,-42.969,-37.598,-40.039,104.492
1687769994.311,-34.180,-46.387,-32.715,-62.012,-70.801
1687769994.315,-32.227,-45.898,-47.852,-51.270,-48.828
1687769994.317,-25.879,-46.387,-66.895,-23.438,15.625
1687769994.321,-31.738,-54.688,-67.383,-38.574,-57.617
1687769994.325,-41.016,-65.430,-56.152,-65.918,-146.484
1687769994.329,-33.203,-65.918,-40.039,-59.082,-115.234
1687769994.333,-27.832,-52.734,-25.879,-44.434,-107.910
1687769994.337,-27.832,-28.809,-26.855,-24.902,2.441
1687769994.341,-33.691,-19.043,-34.668,-36.133,6.348
1687769994.344,-43.945,-31.738,-43.457,-61.035,47.363
1687769994.348,-41.504,-41.992,-41.992,-47.363,295.898
1687769994.352,-36.621,-47.852,-33.203,-34.668,95.215
1687769994.356,-37.598,-51.270,-40.039,-42.480,-148.438
1687769994.360,-41.016,-44.434,-38.574,-40.527,66.406
1687769994.363,-42.969,-40.039,-34.180,-51.270,163.574
1687769994.367,-31.738,-31.250,-28.809,-56.641,-67.383
1687769994.371,-21.484,-21.973,-32.227,-30.762,-169.922
1687769994.375,-25.879,-27.344,-42.480,-27.832,-55.176
1687769994.379,-34.180,-26.855,-39.551,-42.969,-0.488
1687769994.383,-47.363,-34.668,-44.434,-48.340,-57.617
1687769994.387,-47.363,-41.016,-52.734,-45.898,-81.055
1687769994.390,-41.504,-31.250,-39.062,-36.621,95.703
1687769994.394,-42.969,-29.297,-21.973,-24.414,186.035
1687769994.398,-51.270,-37.598,-24.902,-35.645,-111.328
1687769994.402,-52.734,-46.875,-23.438,-44.434,-186.035
1687769994.406,-50.293,-48.340,-26.367,-49.316,-131.348
1687769994.408,-50.293,-40.527,-32.227,-51.758,-141.113
1687769994.412,-43.457,-26.855,-25.391,-36.133,-130.371
1687769994.416,-43.457,-28.320,-39.551,-34.180,-17.578
1687769994.420,-42.969,-41.992,-45.898,-47.852,3.418
1687769994.424,-45.898,-40.039,-32.715,-45.898,-181.641
1687769994.428,-57.129,-38.574,-42.969,-40.527,-92.285
1687769994.432,-54.199,-29.297,-39.062,-28.320,124.512
1687769994.435,-62.012,-22.949,-33.691,-12.695,391.113
1687769994.439,-64.941,-23.438,-51.270,-33.691,193.359
1687769994.443,-57.617,-24.902,-62.012,-62.988,-179.199
1687769994.447,-52.734,-26.855,-47.363,-55.176,-128.418
1687769994.451,-41.992,-20.996,-22.949,-26.367,-64.453
1687769994.452,-46.387,-34.668,-18.555,-33.203,-88.379
1687769994.456,-47.363,-48.340,-33.203,-48.340,-148.438
1687769994.460,-42.480,-50.781,-38.086,-50.781,-118.164
1687769994.464,-42.480,-40.039,-44.922,-52.734,-133.301
1687769994.468,-38.574,-27.832,-49.805,-35.645,-71.289
1687769994.472,-37.109,-36.133,-31.250,-26.855,-29.297
1687769994.476,-45.410,-43.945,-30.762,-37.598,198.730
1687769994.479,-47.363,-42.969,-28.320,-41.992,276.855
1687769994.483,-31.738,-32.715,-16.602,-37.598,-162.109
1687769994.487,-23.438,-30.273,-12.695,-20.996,-170.898
1687769994.491,-33.691,-45.410,-31.250,-21.973,-19.531
1687769994.495,-44.434,-46.387,-45.898,-43.457,-78.125
1687769994.497,-49.316,-41.992,-38.086,-51.270,-171.875
1687769994.501,-51.270,-42.969,-36.133,-47.852,-179.199
1687769994.505,-51.270,-48.828,-34.668,-42.480,-90.820
1687769994.509,-46.387,-53.223,-17.578,-27.344,-37.109
1687769994.513,-41.016,-40.039,-25.879,-30.762,-118.164
1687769994.517,-38.574,-33.691,-41.504,-39.551,22.949
1687769994.521,-38.086,-35.156,-41.016,-34.668,199.219
1687769994.524,-25.391,-36.133,-50.293,-20.020,2.441
1687769994.528,-20.508,-52.734,-40.039,-11.719,11.719
1687769994.532,-38.574,-42.969,-14.160,-30.273,133.789
1687769994.536,-46.875,-29.297,-19.531,-50.781,220.703
1687769994.540,-40.527,-38.086,-26.855,-44.434,13.672
1687769994.557,-33.691,-23.926,-37.598,-22.461,-152.344
1687769994.561,-34.180,-20.996,-45.898,-21.484,-46.875
1687769994.565,-33.691,-31.738,-32.227,-25.391,-50.781
1687769994.569,-38.574,-34.180,-28.320,-47.852,-145.508
1687769994.573,-41.016,-35.645,-33.691,-50.781,-141.113
1687769994.577,-31.250,-32.227,-29.785,-20.020,62.012
1687769994.581,-32.715,-38.574,-30.273,-14.648,68.848
1687769994.584,-34.668,-38.574,-30.273,-30.762,-132.324
1687769994.588,-26.855,-25.879,-37.109,-36.133,-235.352
1687769994.592,-26.855,-21.973,-32.715,-24.902,104.004
1687769994.596,-37.598,-38.574,-26.367,-28.809,265.625
1687769994.600,-35.156,-41.016,-37.598,-30.273,-85.449
1687769994.602,-35.156,-28.320,-46.387,-21.484,-83.984
1687769994.606,-39.551,-37.109,-26.367,-25.879,-63.477
1687769994.610,-43.457,-51.270,-20.508,-31.250,-105.469
1687769994.614,-51.270,-39.551,-34.180,-38.086,-142.578
1687769994.618,-52.246,-20.996,-32.227,-44.434,-71.289
1687769994.622,-58.594,-20.996,-41.992,-38.086,54.688
1687769994.626,-66.406,-35.645,-38.574,-41.992,-26.367
1687769994.629,-57.129,-32.715,-25.391,-47.363,-71.289
1687769994.633,-61.035,-41.504,-19.531,-41.992,56.152
1687769994.637,-56.641,-67.383,-20.020,-14.160,381.348
1687769994.641,-18.066,-53.223,-45.898,23.438,246.094
1687769994.645,-28.809,-38.086,-59.570,-5.371,-117.676
1687769994.647,-53.711,-35.645,-47.363,-48.828,-13.672
1687769994.651,-57.617,-33.691,-49.316,-56.641,-22.461
1687769994.655,-70.312,-35.645,-60.547,-70.801,-70.312
1687769994.659,-88.379,-18.555,-62.988,-96.191,-35.645
1687769994.663,-102.051,-10.742,-68.848,-128.418,-33.691
1687769994.667,-121.582,-22.949,-63.965,-150.879,19.531
1687769994.671,-126.953,-15.137,-43.457,-156.738,-4.395
1687769994.674,-128.906,-15.137,-42.969,-157.715,-69.824
1687769994.678,-146.484,-17.090,-40.527,-149.902,99.609
1687769994.682,-157.715,-2.930,-39.551,-171.387,114.258
1687769994.686,-166.504,10.742,-51.270,-209.961,-163.086
1687769994.690,-163.086,15.137,-49.805,-199.219,-185.547
1687769994.693,-168.457,2.930,-51.758,-198.730,-67.383
1687769994.697,-178.711,-4.395,-55.176,-219.727,-67.383
1687769994.701,-174.805,3.418,-58.105,-219.727,-71.777
1687769994.705,-179.688,-2.930,-62.500,-236.328,1.465
1687769994.709,-175.781,-14.648,-76.172,-239.746,4.883
1687769994.713,-160.156,-10.742,-81.055,-199.707,-71.777
1687769994.717,-163.086,20.996,-61.523,-200.195,-35.156
1687769994.720,-177.734,29.297,-47.852,-228.516,66.406
1687769994.724,-169.434,9.277,-48.828,-215.332,286.133
1687769994.728,-155.762,6.836,-56.152,-198.242,115.723
1687769994.732,-127.441,26.855,-58.105,-180.664,-175.781
1687769994.736,-112.305,31.250,-65.430,-176.758,-92.773
1687769994.753,-134.277,6.348,-77.148,-183.594,-61.523
1687769994.757,-129.883,2.930,-64.941,-170.898,-136.719
1687769994.761,-112.793,25.879,-58.105,-161.133,-145.020
1687769994.765,-103.516,16.602,-61.523,-154.785,-57.617
1687769994.769,-102.051,0.977,-54.688,-122.070,36.621
1687769994.773,-98.633,-1.465,-58.105,-106.934,18.555
1687769994.777,-99.609,-4.883,-66.406,-117.676,-84.961
1687769994.780,-100.586,9.766,-65.918,-112.793,103.516
1687769994.784,-86.914,-1.465,-75.684,-97.656,259.277
1687769994.788,-77.637,-8.789,-60.059,-89.844,-46.387
1687769994.792,-84.961,5.371,-54.199,-91.797,-97.656
1687769994.796,-84.961,-2.441,-70.801,-92.285,-76.660
1687769994.783,-71.289,-2.441,-51.758,-76.660,-195.801
1687769994.787,-67.383,-12.207,-47.852,-70.801,-155.273
1687769994.791,-72.266,-25.391,-59.570,-71.289,-55.664
1687769994.795,-73.730,-13.672,-52.734,-74.707,-44.434
1687769994.799,-71.777,-13.184,-43.945,-80.078,-81.543
1687769994.803,-64.453,-21.973,-46.875,-86.914,-75.684
1687769994.807,-52.734,-23.438,-53.711,-77.148,47.852
1687769994.810,-45.410,-22.949,-54.199,-55.176,95.703
1687769994.814,-43.457,-29.297,-62.988,-45.410,15.137
1687769994.818,-40.527,-26.855,-50.781,-52.246,-71.777
1687769994.822,-35.645,-21.973,-26.367,-57.617,-104.980
1687769994.826,-23.926,-18.066,-31.738,-32.715,307.129
1687769994.828,-26.367,-27.832,-50.781,-42.969,291.992
1687769994.832,-30.273,-40.527,-57.617,-49.805,-54.688
1687769994.836,-28.320,-32.715,-42.480,-34.180,-71.289
1687769994.840,-28.320,-31.738,-48.828,-55.664,-102.051
1687769994.844,-28.320,-38.086,-60.059,-63.965,-104.980
1687769994.848,-38.574,-30.762,-38.574,-52.246,68.848
1687769994.852,-39.551,-23.438,-38.574,-35.156,345.215
1687769994.855,-40.039,-29.297,-51.270,-47.363,244.629
1687769994.859,-39.062,-20.020,-46.387,-70.312,-176.270
1687769994.863,-32.227,-26.367,-54.199,-60.059,-227.051
1687769994.867,-28.320,-48.828,-61.035,-49.805,-108.398
1687769994.871,-37.109,-35.645,-45.898,-42.480,-86.426
1687769994.878,-27.832,-39.062,-39.551,-35.156,-150.391
1687769994.882,-21.973,-28.320,-48.340,-49.316,-147.949
1687769994.886,-49.316,0.000,-48.340,-80.078,-128.418
1687769994.890,-72.266,-21.973,-54.199,-84.473,-109.863
1687769994.894,-61.523,-38.086,-65.430,-66.406,-95.703
1687769994.898,-54.688,-20.996,-57.617,-72.266,9.766
1687769994.902,-65.918,-10.742,-49.805,-86.426,154.785
1687769994.905,-71.777,-30.273,-55.176,-95.703,15.625
1687769994.909,-59.570,-35.645,-49.316,-74.219,-123.535
1687769994.913,-48.828,-16.113,-41.504,-49.805,-20.508
1687769994.917,-56.641,-22.949,-50.781,-63.965,69.336
1687769994.921,-60.547,-33.203,-42.480,-82.031,-111.328
1687769994.918,-51.758,-26.855,-33.691,-80.566,-217.285
1687769994.922,-40.527,-20.020,-41.992,-57.617,-12.695
1687769994.926,-36.621,-36.621,-37.598,-47.852,113.281
1687769994.930,-44.434,-56.152,-38.086,-67.383,7.812
1687769994.934,-52.246,-50.781,-58.105,-68.848,-96.680
1687769994.938,-41.992,-39.551,-42.969,-54.199,26.855
1687769994.942,-37.109,-32.715,-33.691,-47.363,359.863
1687769994.945,-35.156,-34.668,-41.992,-37.598,220.215
1687769994.949,-20.020,-35.645,-29.297,-38.574,-64.453
1687769994.953,-30.273,-35.156,-35.156,-62.500,-107.422
1687769994.957,-52.246,-40.039,-55.664,-74.219,-167.969
1687769994.961,-50.293,-45.410,-56.641,-66.895,-181.152
1687769994.977,-37.598,-39.062,-40.039,-49.316,-118.164
1687769994.981,-29.785,-44.922,-30.762,-37.109,23.438
1687769994.985,-26.367,-38.086,-29.297,-41.016,32.715
1687769994.989,-22.949,-22.949,-29.785,-53.711,-144.043
1687769994.993,-23.438,-32.227,-35.645,-47.852,-119.141
1687769994.997,-24.902,-41.504,-33.203,-24.414,191.406
1687769995.001,-18.066,-40.039,-25.391,-24.902,164.062
1687769995.004,-21.484,-48.828,-28.809,-38.086,-77.148
1687769995.008,-31.738,-55.176,-40.527,-63.477,-115.234
1687769995.012,-24.902,-44.434,-50.781,-59.082,176.270
1687769995.016,-19.531,-32.715,-55.664,-32.227,97.656
1687769995.020,-23.438,-39.062,-43.945,-31.250,-115.723
1687769995.022,-28.809,-50.293,-22.461,-50.293,-83.984
1687769995.026,-37.598,-44.922,-28.320,-71.289,-132.812
1687769995.030,-38.574,-34.668,-39.062,-56.641,-174.316
1687769995.034,-32.227,-27.344,-31.738,-44.922,-133.789
1687769995.038,-20.020,-14.160,-25.391,-37.109,28.320
1687769995.042,-22.949,-22.461,-41.992,-34.668,14.160
1687769995.046,-35.645,-33.203,-51.758,-53.223,-74.707
1687769995.049,-26.367,-28.320,-25.879,-50.781,-96.191
1687769995.053,-15.625,-38.574,-19.043,-32.715,112.305
1687769995.057,-22.949,-51.270,-43.945,-31.738,184.082
1687769995.061,-32.715,-38.574,-42.969,-46.875,-101.074
1687769995.065,-38.574,-22.949,-34.668,-57.129,-132.812
1687769995.067,-41.016,-21.973,-33.203,-51.270,-100.098
1687769995.071,-40.527,-21.484,-39.062,-37.109,-112.305
1687769995.075,-45.898,-25.391,-44.434,-31.738,-147.949
1687769995.079,-48.340,-31.738,-34.668,-32.715,-108.887
1687769995.083,-49.805,-37.109,-40.039,-39.551,-60.547
1687769995.087,-44.434,-31.738,-31.738,-38.574,16.113
1687769995.091,-41.016,-28.809,-27.344,-30.273,55.176
1687769995.094,-46.875,-32.715,-36.133,-20.020,84.961
1687769995.098,-54.199,-35.156,-32.227,-17.090,395.020
1687769995.102,-61.035,-40.039,-39.551,-26.855,303.223
1687769995.106,-46.387,-39.062,-42.969,-42.480,-128.906
1687769995.110,-37.598,-41.992,-29.297,-32.715,-151.855
1687769995.112,-42.480,-28.320,-25.879,-16.113,-103.027
1687769995.116,-52.734,-32.715,-44.434,-35.156,-135.254
1687769995.120,-55.176,-39.062,-52.246,-51.758,-157.227
1687769995.124,-50.293,-31.250,-33.203,-41.504,-217.773
1687769995.128,-51.758,-39.551,-8.301,-31.250,-170.410
1687769995.132,-54.199,-30.273,-12.695,-27.832,-6.836
1687769995.136,-68.848,-22.949,-28.320,-31.738,5.859
1687769995.139,-72.754,-25.391,-31.250,-38.086,84.961
1687769995.143,-67.383,-28.809,-45.898,-47.363,110.352
1687769995.147,-62.012,-26.367,-51.270,-39.551,-55.664
1687769995.151,-60.059,-29.785,-36.621,-22.949,-85.449
1687769995.155,-68.359,-43.457,-25.879,-33.203,-20.020
1687769995.157,-75.684,-56.152,-26.855,-53.223,-107.422
1687769995.161,-72.754,-48.828,-49.316,-60.059,-183.105
1687769995.165,-66.406,-23.926,-50.293,-39.551,-123.535
1687769995.169,-63.477,-42.969,-30.273,-32.715,-55.664
1687769995.173,-66.895,-51.270,-35.156,-47.852,-53.711
1687769995.177,-70.312,-24.414,-36.621,-52.246,-95.703
1687769995.181,-70.312,-32.715,-33.691,-43.945,35.156
1687769995.184,-58.105,-49.316,-44.922,-32.715,300.293
1687769995.188,-45.410,-45.410,-27.832,-26.367,87.402
1687769995.192,-43.945,-21.484,-8.301,-18.555,-184.570
1687769995.196,-49.316,-7.324,-18.555,-20.996,-34.180
1687769995.200,-52.246,-21.973,-30.762,-34.668,-2.441
1687769995.202,-41.992,-36.133,-24.414,-39.551,-202.148
1687769995.206,-28.320,-38.574,-29.297,-33.691,-210.938
1687769995.210,-40.039,-35.156,-47.363,-32.227,-22.461
1687769995.214,-53.223,-36.133,-39.551,-47.363,-12.695
1687769995.218,-42.480,-29.785,-31.738,-50.781,-139.160
1687769995.222,-33.691,-26.855,-40.527,-45.410,-87.891
1687769995.226,-35.156,-35.645,-34.668,-34.180,240.234
1687769995.229,-31.738,-35.645,-24.414,-9.277,319.824
1687769995.233,-32.715,-32.227,-39.551,-23.926,-35.156
1687769995.237,-34.668,-37.598,-45.898,-37.109,-125.488
1687769995.241,-28.809,-47.363,-35.645,-29.297,-62.012
1687769995.245,-21.973,-38.574,-37.109,-26.855,-63.965
1687769995.248,-25.879,-25.879,-33.691,-30.273,-121.582
1687769995.252,-36.621,-35.645,-38.574,-33.203,22.949
1687769995.256,-36.133,-34.668,-44.434,-41.992,56.152
1687769995.260,-36.621,-41.016,-34.668,-54.199,-172.363
1687769995.264,-39.062,-47.363,-30.273,-45.898,-185.059
1687769995.268,-33.691,-31.250,-28.320,-18.066,88.379
1687769995.272,-40.527,-28.320,-36.621,-16.113,230.957
1687769995.275,-44.434,-36.621,-44.922,-41.504,3.906
1687769995.279,-43.457,-36.133,-43.945,-54.199,-201.660
1687769995.283,-49.316,-36.133,-41.992,-40.039,-8.301
1687769995.287,-35.645,-28.320,-29.297,-23.438,214.355
1687769995.291,-26.367,-28.809,-21.973,-26.855,-14.160
1687769995.307,-37.109,-40.039,-29.297,-40.039,-140.625
1687769995.311,-42.969,-35.645,-35.156,-46.875,-123.047
1687769995.315,-36.133,-36.133,-35.645,-44.922,-141.602
1687769995.319,-18.066,-36.133,-46.387,-27.832,-69.824
1687769995.323,0.488,-45.410,-45.410,-13.672,-67.871
1687769995.327,-13.184,-55.664,-24.902,-21.484,163.086
1687769995.331,-43.457,-38.574,-23.438,-40.039,282.227
1687769995.334,-48.340,-42.480,-29.297,-42.969,-62.988
1687769995.338,-45.410,-56.641,-27.832,-26.855,-108.887
1687769995.342,-51.758,-62.500,-27.344,-30.762,41.992
1687769995.346,-58.105,-69.824,-25.391,-43.457,-2.441
1687769995.350,-52.246,-76.172,-29.297,-55.664,-167.480
1687769995.352,-45.898,-81.543,-29.297,-44.434,-112.793
1687769995.356,-45.898,-84.961,-21.484,-29.297,-31.250
1687769995.360,-41.992,-90.820,-27.832,-24.414,-79.102
1687769995.364,-39.551,-94.727,-31.738,-20.996,-66.406
1687769995.368,-41.504,-97.168,-21.484,-28.320,-75.684
1687769995.372,-39.062,-103.516,-22.949,-20.020,-1.465
1687769995.376,-38.086,-103.516,-29.785,-8.789,114.258
1687769995.379,-41.016,-105.957,-33.691,2.930,-18.066
1687769995.383,-42.969,-110.840,-21.484,12.207,-19.043
1687769995.387,-42.969,-107.422,-11.719,17.090,365.234
1687769995.391,-42.969,-100.098,-11.719,9.766,323.242
1687769995.395,-51.270,-103.027,-7.324,-4.883,-65.918
1687769995.397,-65.430,-107.910,-9.277,-4.883,-100.098
1687769995.401,-67.871,-112.793,-8.789,-2.930,-43.457
1687769995.405,-66.406,-115.234,-0.488,-16.113,-128.418
1687769995.409,-63.477,-109.375,4.883,-12.207,-195.312
1687769995.413,-67.383,-109.375,3.418,-3.906,-91.309
1687769995.417,-73.242,-113.770,2.930,-5.371,53.711
1687769995.421,-73.730,-120.605,0.000,-1.465,73.242
1687769995.424,-61.523,-123.047,-12.695,-3.906,-163.086
1687769995.428,-44.922,-110.840,-24.414,4.395,26.855
1687769995.432,-36.133,-95.215,-24.902,28.320,202.637
1687769995.436,-24.902,-95.703,-28.809,51.270,-68.359
1687769995.440,-8.789,-98.633,-22.949,62.500,-101.562
1687769995.442,4.883,-98.633,-20.020,51.758,-108.398
1687769995.446,13.184,-100.098,-35.645,51.758,-119.141
1687769995.450,24.414,-90.332,-36.621,65.430,-79.102
1687769995.454,22.949,-85.449,-32.227,74.219,-0.488
1687769995.458,27.832,-80.566,-37.598,83.008,-0.977
1687769995.462,36.621,-67.383,-36.621,77.148,16.602
1687769995.466,29.297,-68.848,-33.691,71.289,-29.785
1687769995.469,29.297,-75.195,-34.668,66.406,44.434
1687769995.473,20.508,-77.148,-33.691,74.707,475.098
1687769995.477,18.066,-72.266,-38.574,82.031,312.988
1687769995.481,25.391,-68.359,-40.527,68.848,-147.461
1687769995.485,24.902,-65.918,-31.738,63.965,-28.809
1687769995.487,28.809,-59.570,-27.344,65.918,47.852
1687769995.491,29.297,-71.289,-29.785,68.359,-24.902
1687769995.495,21.484,-77.148,-37.598,68.848,-57.617
1687769995.499,16.113,-58.594,-42.969,54.199,-113.281
1687769995.503,14.160,-50.293,-39.062,45.410,-134.277
1687769995.507,16.602,-58.105,-43.945,48.340,-55.176
1687769995.511,29.785,-63.477,-50.293,52.734,12.695
1687769995.514,32.227,-56.152,-46.387,52.246,155.762
1687769995.518,19.531,-56.641,-32.227,51.270,146.484
1687769995.522,11.230,-62.012,-30.273,33.203,-159.668
1687769995.526,18.066,-49.805,-38.574,25.391,-156.250
1687769995.530,25.391,-40.527,-40.527,38.086,-96.680
1687769995.533,25.879,-34.668,-41.016,35.645,-81.055
1687769995.537,24.414,-45.898,-44.434,23.438,-70.801
1687769995.541,14.648,-50.293,-41.504,21.484,-90.332
1687769995.545,16.602,-33.203,-31.250,27.832,-21.973
1687769995.549,12.207,-41.992,-43.945,38.086,-26.855
1687769995.553,-0.977,-39.551,-51.270,28.809,-21.484
1687769995.557,0.977,-27.344,-41.016,18.066,74.707
1687769995.560,-0.977,-34.668,-45.898,29.297,278.320
1687769995.564,-7.812,-32.227,-48.828,22.949,111.816
1687769995.568,-2.441,-34.668,-49.805,11.719,-198.730
1687769995.572,0.488,-32.227,-52.246,3.418,-60.547
1687769995.576,-5.859,-38.574,-40.039,-19.043,-44.434
1687769995.578,-14.160,-46.387,-35.645,-25.879,-247.070
1687769995.582,-17.090,-33.203,-52.246,-17.090,-222.168
1687769995.586,-19.531,-29.297,-55.176,-2.930,-102.051
1687769995.590,-20.020,-27.344,-39.551,1.465,-20.020
1687769995.594,-21.484,-36.133,-44.922,-6.348,-98.145
1687769995.598,-15.625,-43.945,-46.875,2.930,-148.438
1687769995.602,-12.207,-37.109,-47.363,4.883,84.961
1687769995.605,-15.625,-32.227,-47.852,4.883,213.379
1687769995.609,-10.742,-33.691,-44.434,-3.906,-61.523
1687769995.613,-10.742,-35.645,-49.316,-16.113,-136.230
1687769995.617,-7.812,-27.832,-60.547,-18.555,-146.484
1687769995.621,-7.324,-23.438,-62.988,-11.230,-231.934
1687769995.622,-14.160,-36.621,-45.410,4.395,-180.176
1687769995.626,-17.090,-37.109,-40.039,0.000,-79.102
1687769995.630,-24.414,-31.250,-50.293,-22.949,-53.711
1687769995.634,-33.203,-28.809,-54.199,-36.133,-93.262
1687769995.638,-33.691,-36.133,-37.598,-33.691,-166.504
1687769995.642,-22.461,-39.551,-25.391,-21.973,40.039
1687769995.646,-21.484,-31.250,-31.250,-14.160,301.758
1687769995.649,-34.668,-42.480,-54.199,-18.555,93.750
1687769995.653,-40.527,-50.781,-67.871,-25.391,-55.176
1687769995.657,-38.086,-41.504,-49.316,-34.180,10.742
1687769995.661,-27.344,-21.484,-35.156,-35.645,226.074
1687769995.665,-25.879,-19.531,-44.922,-31.250,102.539
1687769995.682,-41.504,-29.785,-55.176,-46.387,-114.746
1687769995.686,-40.039,-39.062,-44.922,-62.988,-97.656
1687769995.690,-33.203,-34.668,-40.039,-61.035,-120.605
1687769995.694,-37.109,-36.621,-49.316,-64.453,-162.109
1687769995.698,-27.832,-49.316,-58.105,-45.898,-161.133
1687769995.702,-24.414,-33.203,-55.664,-19.531,13.184
1687769995.706,-35.156,-26.855,-57.129,-31.250,75.195
1687769995.709,-36.133,-35.156,-53.711,-38.086,-41.504
1687769995.713,-35.645,-35.156,-33.691,-41.992,-86.426
1687769995.717,-36.133,-31.738,-20.508,-20.508,153.320
1687769995.721,-36.621,-30.762,-29.785,-7.324,192.871
1687769995.725,-45.410,-36.621,-30.762,-24.902,-171.387
1687769995.727,-44.434,-31.250,-24.414,-41.504,-237.305
1687769995.731,-43.457,-41.504,-44.922,-52.734,-133.789
1687769995.735,-46.875,-49.805,-45.410,-39.062,-94.238
1687769995.739,-39.062,-30.273,-39.551,-28.809,-186.523
1687769995.743,-44.922,-36.621,-46.387,-44.922,-145.996
1687769995.747,-44.922,-37.598,-38.574,-51.270,10.742
1687769995.751,-24.414,-31.250,-29.785,-41.016,46.875
1687769995.754,-18.066,-37.109,-53.223,-35.645,-16.602
1687769995.758,-28.320,-37.109,-65.430,-32.227,-17.090
1687769995.762,-36.621,-38.574,-41.504,-23.438,332.520
1687769995.766,-43.457,-34.668,-27.832,-30.762,226.562
1687769995.770,-39.551,-34.180,-30.273,-45.410,-193.359
1687769995.772,-30.762,-32.227,-37.109,-25.391,-91.797
1687769995.776,-26.855,-30.762,-34.668,-15.625,-105.469
1687769995.780,-26.367,-31.250,-44.434,-33.203,-193.848
1687769995.784,-33.203,-42.480,-60.059,-39.062,-137.207
1687769995.788,-33.691,-42.480,-58.594,-41.016,-85.449
1687769995.792,-23.926,-21.973,-47.363,-40.527,42.480
1687769995.796,-27.832,-28.809,-36.133,-34.180,33.691
1687769995.799,-39.062,-39.551,-32.715,-32.715,-41.504
1687769995.803,-34.668,-29.785,-28.809,-31.250,100.098
1687769995.807,-30.762,-21.484,-32.715,-48.340,95.703
1687769995.811,-27.832,-29.297,-52.246,-50.293,-180.664
1687769995.815,-27.832,-42.969,-56.641,-30.273,-95.215
1687769995.817,-29.785,-40.039,-37.598,-26.367,71.289
1687769995.821,-31.250,-35.645,-27.832,-41.016,-11.230
1687769995.825,-37.109,-39.551,-36.133,-51.270,-154.297
1687769995.829,-32.715,-38.086,-40.527,-41.016,-82.031
1687769995.833,-31.738,-47.852,-40.039,-28.809,84.961
1687769995.837,-40.039,-53.223,-47.852,-30.762,9.277
1687769995.841,-42.969,-49.316,-39.062,-46.875,-43.457
1687769995.844,-38.086,-41.016,-31.738,-46.387,39.062
1687769995.848,-26.855,-33.691,-33.203,-18.066,357.910
1687769995.852,-21.973,-39.062,-29.785,-13.184,250.488
1687769995.856,-22.461,-43.457,-39.551,-25.391,-149.902
1687769995.860,-14.160,-35.156,-35.645,-30.762,-138.672
1687769995.864,-20.020,-32.715,-28.320,-48.828,-145.508
1687769995.868,-23.438,-39.551,-39.062,-35.645,-195.312
1687769995.872,-15.137,-40.527,-44.434,-18.555,-84.961
1687769995.876,-28.320,-37.109,-35.156,-21.484,34.180
1687769995.880,-39.551,-49.316,-12.207,-32.227,-37.598
1687769995.884,-39.551,-52.246,-21.484,-56.152,-89.844
1687769995.888,-41.016,-37.109,-33.691,-50.781,-105.469
1687769995.891,-45.410,-33.203,-32.715,-27.832,80.566
1687769995.895,-45.898,-29.297,-40.527,-21.484,201.660
1687769995.899,-44.434,-18.555,-47.852,-32.715,-114.258
1687769995.903,-37.109,-22.949,-40.039,-46.387,-215.332
1687769995.907,-31.250,-37.598,-28.809,-41.016,-134.766
1687769995.908,-28.809,-33.203,-33.203,-30.762,-98.145
1687769995.912,-31.250,-33.691,-46.387,-36.621,-101.562
1687769995.916,-40.527,-41.016,-54.688,-42.480,-74.707
1687769995.920,-39.062,-40.527,-49.805,-41.016,-89.355
1687769995.924,-27.832,-39.062,-51.270,-39.551,-130.371
1687769995.928,-23.438,-33.203,-52.246,-30.762,-60.059
1687769995.932,-27.832,-31.738,-32.227,-30.273,83.984
1687769995.935,-40.527,-42.480,-32.715,-42.969,384.277
1687769995.939,-49.805,-42.480,-33.691,-53.711,205.078
1687769995.943,-57.129,-37.598,-29.297,-63.965,-187.988
1687769995.947,-66.895,-44.434,-32.715,-52.246,-73.242
1687769995.951,-70.312,-47.363,-25.391,-32.227,-27.344
1687769995.953,-67.871,-38.574,-32.227,-36.621,-163.574
1687769995.957,-67.871,-38.086,-40.039,-55.176,-100.098
1687769995.961,-60.547,-34.180,-42.969,-59.570,-74.707
1687769995.965,-47.363,-42.480,-49.805,-38.574,-90.332
1687769995.969,-41.504,-56.152,-42.969,-19.043,-79.590
1687769995.973,-49.316,-39.551,-48.340,-24.414,-121.094
1687769995.977,-55.176,-34.180,-47.363,-38.086,84.961
1687769995.980,-54.199,-48.828,-37.109,-49.805,219.238
1687769995.984,-48.828,-50.781,-36.133,-47.852,-47.852
1687769995.988,-38.574,-34.180,-26.367,-26.855,-79.590
1687769995.992,-43.945,-24.414,-23.926,-14.648,22.461
1687769995.996,-57.129,-27.344,-25.879,-35.645,-63.477
1687769995.998,-53.223,-31.738,-33.691,-45.898,-140.625
1687769996.002,-40.039,-28.809,-46.875,-29.785,-74.219
1687769996.006,-35.156,-29.785,-41.016,-21.484,-55.664
1687769996.010,-38.574,-37.109,-26.855,-24.902,-51.270
1687769996.014,-40.039,-36.133,-28.320,-42.969,-61.523
1687769996.018,-32.715,-36.133,-27.344,-52.246,86.426
1687769996.022,-30.273,-45.410,-32.227,-30.762,230.469
1687769996.025,-32.715,-49.316,-48.340,-13.672,69.824
1687769996.029,-30.762,-45.898,-48.828,-26.855,-15.625
1687769996.033,-30.273,-41.992,-43.945,-47.852,64.453
1687769996.037,-29.785,-38.086,-46.387,-44.922,277.832
1687769996.041,-27.344,-41.504,-32.715,-37.109,57.129
1687769996.058,-22.949,-41.504,-20.508,-35.156,-96.680
1687769996.062,-22.461,-34.668,-29.785,-23.438,-25.391
1687769996.066,-23.438,-41.992,-41.992,-27.832,-108.398
1687769996.070,-18.555,-49.316,-34.180,-41.016,-171.875
1687769996.074,-20.996,-43.945,-15.625,-34.180,-187.500
1687769996.078,-18.066,-43.945,-11.719,-19.043,-13.184
1687769996.082,-8.789,-43.945,-20.996,-7.812,86.914
1687769996.085,-20.508,-37.598,-31.738,-20.508,-141.602
1687769996.089,-30.273,-34.180,-30.762,-55.664,-228.027
1687769996.093,-17.090,-30.273,-18.555,-58.594,78.125
1687769996.097,-15.137,-27.344,-23.438,-23.926,127.441
1687769996.101,-11.719,-19.043,-28.320,-19.043,-64.941
1687769996.103,-16.602,-18.066,-25.391,-35.156,-29.785
1687769996.107,-32.227,-31.738,-29.785,-47.363,-43.457
1687769996.111,-24.902,-27.832,-31.738,-44.922,-166.016
1687769996.115,-13.184,-20.996,-37.598,-36.621,-196.777
1687769996.119,-14.160,-29.785,-43.457,-26.367,-45.410
1687769996.123,-22.949,-33.203,-46.875,-22.461,5.859
1687769996.127,-18.066,-27.344,-37.598,-33.691,-33.691
1687769996.130,-18.066,-26.367,-30.273,-38.086,32.715
1687769996.134,-23.926,-26.367,-33.203,-21.484,81.543
1687769996.138,-19.043,-29.297,-28.320,-4.883,312.012
1687769996.142,-21.973,-32.715,-21.484,-13.184,226.562
1687769996.146,-22.461,-36.133,-23.926,-38.086,-109.375
1687769996.149,-24.902,-36.133,-26.367,-48.828,-178.711
1687769996.153,-20.996,-29.785,-39.551,-40.039,-116.211
1687769996.157,-20.508,-32.227,-48.828,-32.715,-11.719
1687769996.161,-26.367,-39.551,-37.109,-37.109,-136.230
1687769996.165,-24.902,-32.227,-31.250,-30.762,-70.801
1687769996.169,-23.926,-27.832,-33.203,-32.227,45.898
1687769996.173,-21.484,-38.574,-33.203,-41.016,-147.461
1687769996.176,-23.926,-40.527,-30.273,-37.109,-155.273
1687769996.180,-20.020,-26.367,-20.508,-18.066,128.418
1687769996.184,-21.484,-36.621,-31.738,-36.133,130.859
1687769996.188,-22.949,-42.480,-41.504,-61.035,-172.363
1687769996.192,-26.367,-46.387,-28.809,-51.270,-128.906
1687769996.193,-36.133,-45.898,-24.902,-37.109,-75.195
1687769996.197,-37.598,-21.484,-26.855,-33.203,-106.934
1687769996.201,-34.180,-20.996,-28.320,-50.781,-159.180
1687769996.205,-36.621,-33.203,-36.133,-52.246,-132.812
1687769996.209,-39.062,-35.645,-37.598,-38.086,-19.043
1687769996.213,-29.785,-56.152,-30.273,-32.715,56.152
