timestamps,TP9,AF7,AF8,TP10,Right AUX
1678024724.263,44.434,-28.320,-43.945,-34.180,30.273
1678024724.267,-28.320,-27.832,-43.457,-38.574,-153.320
1678024724.271,-187.500,-33.203,-42.969,-47.363,-152.344
1678024724.275,-187.012,-35.645,-40.527,-57.617,-72.754
1678024724.279,-70.312,-32.227,-39.062,-53.711,-45.410
1678024724.283,34.668,-29.297,-36.621,-41.016,11.230
1678024724.287,-18.066,-30.273,-37.109,-38.086,130.371
1678024724.290,-168.945,-26.855,-36.621,-36.621,214.844
1678024724.294,-178.223,-25.879,-30.762,-44.922,-9.766
1678024724.298,-72.266,-27.344,-30.762,-54.688,-195.312
1678024724.302,43.457,-24.902,-32.715,-50.781,-133.301
1678024724.306,12.695,-25.391,-34.668,-56.641,-81.543
1678024724.309,-148.926,-21.484,-41.504,-62.500,-98.633
1678024724.313,-188.965,-18.555,-43.457,-64.941,-91.309
1678024724.317,-85.938,-22.461,-42.969,-55.176,62.988
1678024724.321,31.250,-18.555,-44.922,-57.617,75.684
1678024724.325,20.508,-19.043,-41.992,-69.824,-88.867
1678024724.329,-122.559,-18.066,-35.645,-57.617,-124.023
1678024724.333,-180.664,-13.184,-34.668,-52.246,100.098
1678024724.336,-101.562,-15.625,-34.668,-66.895,106.445
1678024724.340,24.414,-17.090,-34.180,-75.195,-165.527
1678024724.344,33.203,-17.578,-35.156,-67.871,-129.883
1678024724.348,-123.535,-20.996,-36.621,-58.105,45.410
1678024724.352,-204.102,-21.973,-34.180,-65.918,-69.336
1678024724.353,-125.977,-21.973,-31.250,-67.871,-206.055
1678024724.357,0.977,-26.855,-37.598,-56.152,-111.816
1678024724.361,37.598,-29.297,-45.410,-52.246,6.348
1678024724.365,-77.148,-30.273,-44.922,-59.570,-62.988
1678024724.369,-180.176,-33.203,-41.016,-69.336,-126.465
1678024724.373,-134.766,-35.156,-41.016,-69.824,17.578
1678024724.377,-8.789,-31.250,-43.945,-49.805,348.145
1678024724.380,49.316,-28.809,-41.504,-54.199,148.438
1678024724.384,-61.523,-31.250,-34.180,-63.965,-145.020
1678024724.388,-181.152,-33.203,-32.227,-57.617,-126.953
1678024724.392,-140.625,-31.738,-38.574,-59.570,-127.930
1678024724.396,-18.555,-26.855,-43.457,-51.270,-127.930
1678024724.413,58.105,-23.438,-40.039,-38.086,-105.957
1678024724.417,-41.016,-24.414,-34.668,-34.180,-32.715
1678024724.421,-171.875,-28.320,-30.273,-33.203,-36.621
1678024724.425,-142.578,-30.273,-32.227,-45.410,-123.535
1678024724.429,-29.297,-30.273,-30.273,-45.410,-99.609
1678024724.433,48.828,-27.344,-25.391,-29.785,148.438
1678024724.437,-39.062,-28.809,-24.414,-29.785,123.535
1678024724.440,-182.617,-32.715,-28.809,-41.992,-114.258
1678024724.444,-165.039,-30.762,-32.227,-49.316,-151.367
1678024724.448,-47.363,-31.738,-30.762,-38.086,183.105
1678024724.452,49.316,-29.297,-32.227,-22.949,445.801
1678024724.456,-12.695,-26.855,-33.203,-35.645,79.102
1678024724.458,-166.016,-28.320,-36.133,-43.945,-147.461
1678024724.462,-166.992,-31.250,-38.086,-39.551,-101.074
1678024724.466,-53.711,-36.133,-41.016,-41.504,-110.352
1678024724.470,49.316,-32.227,-45.898,-41.992,-65.430
1678024724.474,9.277,-29.297,-41.504,-39.551,-37.109
1678024724.478,-145.996,-32.227,-40.039,-46.875,-8.789
1678024724.482,-172.363,-29.297,-40.039,-50.293,-28.320
1678024724.485,-60.547,-28.809,-37.598,-47.852,-116.211
1678024724.489,54.199,-30.273,-39.062,-40.527,23.438
1678024724.493,18.066,-32.227,-37.598,-40.039,250.488
1678024724.497,-137.695,-34.180,-44.922,-56.152,-18.066
1678024724.501,-179.199,-32.227,-48.340,-58.105,-230.469
1678024724.503,-77.637,-27.832,-38.574,-52.734,-88.867
1678024724.507,39.551,-29.785,-37.598,-55.664,-66.406
1678024724.511,33.691,-30.273,-39.062,-55.664,-161.621
1678024724.515,-113.770,-25.879,-35.156,-55.176,-164.062
1678024724.519,-185.547,-26.855,-39.062,-55.176,-101.562
1678024724.523,-108.887,-28.809,-44.434,-53.223,-60.059
1678024724.527,17.578,-25.879,-42.480,-44.434,-42.480
1678024724.530,40.527,-25.391,-40.527,-47.363,-37.598
1678024724.534,-99.609,-31.250,-42.480,-52.246,139.160
1678024724.538,-173.340,-31.250,-37.598,-50.781,36.133
1678024724.542,-106.934,-29.297,-35.645,-54.199,-158.203
1678024724.546,15.137,-32.715,-35.645,-48.340,-2.930
1678024724.548,59.082,-34.180,-36.133,-42.969,253.418
1678024724.552,-63.477,-27.832,-38.086,-52.246,73.730
1678024724.556,-170.898,-30.273,-36.133,-56.641,-157.227
1678024724.560,-123.047,-37.109,-36.133,-51.758,-105.957
1678024724.564,5.859,-39.062,-36.133,-50.293,-36.621
1678024724.568,66.895,-31.738,-40.039,-51.270,1.953
1678024724.572,-45.898,-30.762,-39.062,-50.293,-11.719
1678024724.575,-181.152,-31.738,-36.621,-60.059,-59.082
1678024724.579,-157.715,-33.691,-39.551,-58.594,126.953
1678024724.583,-26.855,-36.133,-38.086,-59.082,3.906
1678024724.587,56.641,-33.203,-36.133,-64.941,-82.031
1678024724.591,-36.133,-32.715,-37.598,-67.383,-36.133
1678024724.594,-165.039,-30.762,-39.551,-70.801,-92.773
1678024724.598,-138.184,-30.762,-34.668,-63.965,-141.113
1678024724.602,-28.320,-32.715,-37.598,-73.730,-192.871
1678024724.606,54.688,-32.715,-47.852,-70.312,1.465
1678024724.610,-25.879,-34.668,-50.293,-54.688,22.461
1678024724.614,-181.152,-37.598,-47.852,-64.941,-103.027
1678024724.618,-169.922,-36.133,-46.875,-63.477,-51.270
1678024724.621,-46.875,-32.715,-48.340,-50.293,90.332
1678024724.625,53.223,-31.738,-43.945,-47.363,87.402
1678024724.629,-10.254,-25.879,-39.062,-52.246,-103.516
1678024724.633,-164.062,-25.391,-39.551,-65.430,-94.238
1678024724.637,-171.875,-28.809,-41.016,-61.523,79.590
1678024724.638,-55.176,-21.973,-41.992,-54.688,-73.242
1678024724.642,56.152,-23.926,-44.922,-60.059,-168.945
1678024724.646,14.648,-23.438,-47.852,-64.941,-50.781
1678024724.650,-134.277,-22.949,-47.363,-73.730,15.137
1678024724.654,-161.133,-25.391,-52.246,-75.684,-105.957
1678024724.658,-59.082,-23.926,-50.781,-71.777,-191.406
1678024724.662,59.570,-24.902,-43.945,-58.594,-11.230
1678024724.665,32.715,-23.926,-42.969,-48.340,311.035
1678024724.669,-124.023,-27.832,-43.945,-59.082,33.691
1678024724.673,-178.223,-33.203,-48.340,-62.012,-276.855
1678024724.677,-85.938,-29.297,-46.875,-54.688,-117.676
1678024724.681,44.434,-26.367,-38.574,-49.805,-50.781
1678024724.683,32.715,-31.250,-40.039,-54.199,-63.965
1678024724.687,-120.605,-33.691,-46.387,-63.965,-65.430
1678024724.691,-194.336,-37.109,-50.781,-69.824,-104.492
1678024724.695,-119.629,-36.133,-48.340,-70.312,-128.906
1678024724.699,7.324,-28.320,-45.898,-66.406,-59.082
1678024724.703,24.414,-30.273,-52.246,-62.988,58.105
1678024724.707,-106.934,-36.621,-53.711,-53.223,220.703
1678024724.710,-200.684,-33.203,-50.293,-51.270,126.465
1678024724.714,-142.578,-32.227,-51.758,-65.430,-151.367
1678024724.718,-11.230,-33.203,-53.223,-59.570,-118.164
1678024724.722,31.250,-33.691,-53.223,-46.387,262.695
1678024724.726,-94.238,-39.062,-54.199,-58.105,206.543
1678024724.743,-195.801,-35.645,-49.805,-63.477,-151.367
1678024724.747,-145.508,-32.227,-44.922,-66.895,-134.277
1678024724.751,-22.461,-33.691,-40.527,-69.336,-48.828
1678024724.755,41.016,-32.715,-42.480,-62.500,-93.750
1678024724.759,-71.289,-34.668,-45.410,-67.383,-187.012
1678024724.763,-202.637,-36.621,-50.293,-72.754,-0.488
1678024724.767,-166.504,-31.250,-49.805,-63.965,194.336
1678024724.770,-38.574,-31.738,-49.316,-68.359,58.105
1678024724.774,39.062,-31.250,-52.734,-71.777,-62.012
1678024724.778,-53.223,-33.691,-50.781,-70.801,-10.742
1678024724.782,-196.777,-37.598,-52.246,-72.266,83.496
1678024724.786,-182.617,-36.133,-51.758,-71.289,-111.816
1678024724.788,-58.594,-38.086,-55.176,-68.359,-207.031
1678024724.792,41.016,-38.086,-59.082,-62.012,-126.953
1678024724.796,-23.926,-30.762,-52.734,-58.594,-67.383
1678024724.800,-167.480,-26.367,-50.781,-64.941,-155.762
1678024724.804,-170.898,-30.762,-56.152,-71.777,-160.645
1678024724.808,-68.848,-36.133,-61.035,-68.848,1.953
1678024724.812,40.039,-34.668,-55.176,-53.223,-0.488
1678024724.815,-15.625,-35.645,-52.734,-50.781,-74.707
1678024724.819,-180.176,-42.969,-54.688,-64.941,-148.438
1678024724.823,-201.172,-45.898,-52.246,-62.500,51.270
1678024724.827,-94.238,-43.945,-50.293,-59.570,179.688
1678024724.831,26.855,-42.969,-42.969,-64.941,-37.598
1678024724.834,-4.395,-43.457,-44.922,-62.500,-61.035
1678024724.838,-166.504,-45.410,-47.852,-63.477,134.277
1678024724.842,-200.684,-42.480,-45.410,-62.012,-39.551
1678024724.846,-83.008,-41.016,-48.340,-53.711,-198.242
1678024724.850,41.992,-39.062,-51.758,-45.898,-93.262
1678024724.854,31.738,-35.156,-50.293,-33.203,7.812
1678024724.858,-116.699,-38.574,-49.805,-40.527,-7.812
1678024724.861,-174.316,-37.109,-52.246,-64.453,-169.922
1678024724.865,-86.426,-39.062,-54.199,-63.477,-117.676
1678024724.869,32.227,-38.086,-55.176,-54.688,150.391
1678024724.873,46.387,-30.762,-56.641,-68.359,64.453
1678024724.877,-104.004,-34.668,-54.688,-70.312,-138.184
1678024724.878,-186.035,-39.551,-53.223,-68.848,-107.422
1678024724.882,-100.586,-33.691,-49.805,-68.848,-107.910
1678024724.886,18.066,-26.855,-47.852,-58.105,-115.723
1678024724.890,39.551,-27.832,-52.246,-53.223,-38.086
1678024724.894,-101.074,-31.250,-54.688,-64.453,-11.230
1678024724.898,-203.613,-32.715,-50.293,-79.590,-36.621
1678024724.902,-148.926,-32.227,-48.340,-81.543,-12.695
1678024724.905,-20.020,-28.809,-48.340,-74.219,-59.570
1678024724.909,33.691,-26.367,-46.875,-62.012,170.898
1678024724.913,-89.355,-24.902,-45.898,-65.918,206.055
1678024724.917,-205.078,-22.461,-44.434,-72.754,-28.809
1678024724.921,-156.250,-20.996,-47.363,-76.172,-66.406
1678024724.924,-28.320,-19.531,-42.969,-61.523,118.652
1678024724.928,47.852,-16.602,-40.039,-53.711,29.785
1678024724.932,-57.129,-15.625,-41.016,-63.965,-112.793
1678024724.936,-194.824,-17.090,-38.086,-64.453,-48.828
1678024724.940,-170.410,-13.672,-32.715,-66.895,-40.527
1678024724.944,-47.363,-12.695,-27.344,-64.941,-29.297
1678024724.948,29.785,-13.184,-39.062,-71.777,5.371
1678024724.951,-80.566,-20.020,-53.711,-91.309,15.625
1678024724.955,-235.352,-21.973,-60.059,-100.098,129.395
1678024724.959,-229.980,-18.066,-53.223,-110.840,-84.473
1678024724.963,-139.648,-14.160,-51.270,-120.605,-170.898
1678024724.967,-72.266,-13.184,-66.406,-128.906,-92.773
1678024724.968,-171.387,-17.090,-77.148,-163.574,-139.160
1678024724.972,-345.215,-17.090,-76.660,-205.078,-191.895
1678024724.976,-378.906,-23.926,-84.473,-257.812,-153.809
1678024724.980,-310.547,-22.461,-101.074,-300.781,-40.527
1678024724.984,-235.840,-16.113,-109.863,-326.660,-20.996
1678024724.988,-321.777,-3.418,-108.398,-356.445,9.277
1678024724.992,-498.535,-2.930,-119.141,-392.090,-53.223
1678024724.995,-522.949,-6.348,-127.441,-391.602,144.531
1678024724.999,-419.922,-4.883,-118.652,-377.930,241.211
1678024725.003,-309.570,-8.301,-118.164,-397.949,-1.465
1678024725.007,-331.055,-7.324,-118.164,-400.879,72.266
1678024725.011,-485.352,-9.766,-107.422,-383.301,151.855
1678024725.013,-517.578,-8.789,-100.098,-369.629,-45.898
1678024725.017,-392.578,-7.324,-101.074,-364.746,-163.086
1678024725.021,-259.766,-8.789,-101.074,-348.633,-66.895
1678024725.025,-249.512,-7.812,-95.215,-336.426,-42.480
1678024725.029,-374.023,-4.883,-90.820,-317.383,-148.438
1678024725.033,-420.898,-2.441,-87.891,-292.969,-138.672
1678024725.037,-312.012,-6.348,-86.914,-273.926,-19.531
1678024725.040,-166.016,-15.137,-83.008,-235.840,358.398
1678024725.044,-135.254,-18.066,-71.777,-203.125,188.965
1678024725.048,-253.418,-20.020,-65.918,-194.336,-194.336
1678024725.052,-309.570,-30.273,-69.336,-164.551,-164.551
1678024725.056,-213.867,-32.715,-61.523,-135.254,-137.695
1678024725.058,-64.453,-32.715,-56.641,-130.859,-91.797
1678024725.062,-3.418,-36.133,-62.500,-106.445,-28.320
1678024725.066,-113.281,-37.109,-58.594,-85.938,-28.320
1678024725.070,-200.195,-41.016,-52.246,-75.195,-114.746
1678024725.074,-125.000,-47.852,-46.387,-60.547,-101.074
1678024725.078,19.531,-46.387,-41.016,-43.457,16.113
1678024725.082,82.031,-43.457,-42.480,-13.672,259.277
1678024725.085,-17.090,-46.387,-40.039,1.953,225.586
1678024725.089,-118.652,-46.387,-35.645,4.395,-123.047
1678024725.093,-71.289,-43.945,-36.133,11.230,-115.723
1678024725.097,58.594,-42.969,-35.645,21.973,198.242
1678024725.101,137.207,-43.457,-33.203,33.691,123.047
1678024725.103,41.992,-43.945,-32.715,36.133,-137.207
1678024725.107,-92.773,-43.457,-32.715,39.551,-129.883
1678024725.111,-61.035,-42.969,-28.809,45.898,73.730
1678024725.115,70.312,-45.898,-26.855,45.410,0.977
1678024725.119,165.527,-50.293,-24.902,51.758,-150.391
1678024725.123,85.449,-51.758,-20.020,56.641,-30.273
1678024725.127,-60.059,-51.270,-16.602,57.617,125.977
1678024725.130,-43.457,-49.316,-16.602,71.289,-24.902
1678024725.134,81.543,-51.758,-21.973,82.520,-117.188
1678024725.138,178.223,-55.176,-19.531,82.031,-44.434
1678024725.142,113.770,-51.270,-17.090,84.473,0.977
1678024725.146,-36.133,-45.898,-15.137,82.031,-99.121
1678024725.163,-40.039,-46.875,-13.672,74.219,-83.008
1678024725.167,78.125,-46.875,-10.254,83.496,51.758
1678024725.171,198.730,-41.992,-5.371,99.609,48.828
1678024725.175,151.855,-38.086,-5.371,93.750,-40.527
1678024725.179,-15.625,-39.551,-4.395,88.379,-38.574
1678024725.183,-41.016,-40.039,-0.488,81.543,91.309
1678024725.187,63.477,-41.016,-1.953,79.102,13.672
1678024725.190,175.781,-41.016,-3.418,74.707,-117.676
1678024725.194,142.578,-44.434,-8.301,65.430,-80.566
1678024725.198,-20.020,-45.898,-14.160,63.477,79.590
1678024725.202,-66.895,-47.852,-11.719,61.035,56.641
1678024725.206,21.973,-45.410,-6.836,55.176,-137.207
1678024725.209,137.207,-42.480,-13.672,63.477,-79.102
1678024725.213,132.324,-42.480,-17.578,71.777,153.320
1678024725.217,-16.113,-35.156,-16.602,51.758,42.480
1678024725.221,-82.520,-32.715,-16.602,45.410,-185.547
1678024725.225,-1.465,-36.133,-19.043,46.875,-51.758
1678024725.229,110.352,-38.574,-22.461,46.387,155.273
1678024725.233,125.488,-37.109,-20.996,45.898,65.430
1678024725.236,-10.254,-39.062,-23.438,43.457,-113.770
1678024725.240,-104.980,-42.969,-24.414,34.180,-121.094
1678024725.244,-32.227,-41.016,-21.484,37.109,55.664
1678024725.248,101.562,-35.645,-17.578,37.598,-76.172
1678024725.252,136.230,-33.691,-22.949,27.832,-151.855
1678024725.253,4.883,-32.227,-23.438,26.855,-83.496
1678024725.257,-112.305,-36.621,-20.508,20.020,-138.672
1678024725.261,-62.988,-42.480,-27.344,14.160,-161.621
1678024725.265,60.059,-40.527,-35.156,13.672,-65.430
1678024725.269,115.723,-32.715,-35.156,9.766,104.492
1678024725.273,1.953,-30.273,-32.227,3.418,66.406
1678024725.277,-121.582,-27.344,-24.902,5.859,-28.809
1678024725.280,-83.496,-30.273,-20.020,6.348,-44.922
1678024725.284,38.574,-36.621,-25.391,14.648,122.559
1678024725.288,115.234,-40.039,-30.273,12.695,196.777
1678024725.292,20.508,-36.133,-27.832,-10.254,-48.340
1678024725.296,-128.906,-35.645,-33.203,-21.484,-185.547
1678024725.298,-114.746,-39.551,-38.574,-22.949,-18.066
1678024725.302,13.672,-37.109,-34.668,-28.320,-53.711
1678024725.306,101.074,-32.715,-32.715,-25.391,-118.652
1678024725.310,11.719,-38.574,-34.180,-36.621,-42.480
1678024725.314,-137.695,-38.086,-35.156,-46.875,-80.566
1678024725.318,-131.836,-35.156,-36.621,-38.574,-99.121
1678024725.322,-19.531,-33.691,-33.691,-32.715,-63.965
1678024725.325,80.078,-33.203,-34.180,-32.227,65.430
1678024725.329,20.996,-33.691,-38.574,-37.598,79.102
1678024725.333,-138.184,-30.762,-37.109,-47.852,-121.582
1678024725.337,-160.645,-31.738,-36.133,-54.688,-181.152
1678024725.341,-50.781,-35.645,-38.086,-53.711,-14.648
1678024725.343,68.359,-33.203,-38.086,-50.781,63.965
1678024725.347,25.879,-32.715,-37.109,-53.711,-90.820
1678024725.351,-139.648,-40.039,-36.133,-60.059,-227.051
1678024725.355,-180.664,-38.086,-37.109,-55.664,-63.477
1678024725.359,-80.566,-30.273,-41.504,-51.758,19.043
1678024725.363,47.363,-27.344,-48.828,-64.453,-130.371
1678024725.367,21.484,-34.180,-50.781,-79.590,-81.543
1678024725.370,-132.324,-37.598,-44.922,-78.613,118.164
1678024725.374,-173.340,-35.156,-45.410,-76.660,95.703
1678024725.378,-89.355,-37.598,-47.363,-84.473,-108.887
1678024725.382,40.039,-35.645,-44.434,-78.613,-42.480
1678024725.386,47.363,-36.621,-42.969,-64.453,169.922
1678024725.403,-107.910,-41.504,-41.992,-77.637,48.340
1678024725.407,-184.570,-35.156,-40.039,-84.473,-182.129
1678024725.411,-98.633,-31.250,-38.574,-70.312,-161.133
1678024725.415,32.227,-33.203,-42.480,-71.289,-117.676
1678024725.419,58.594,-35.156,-43.457,-75.684,-123.047
1678024725.423,-76.172,-35.645,-48.828,-83.984,-155.762
1678024725.427,-173.828,-31.250,-49.316,-86.914,-23.438
1678024725.430,-115.723,-30.273,-47.363,-78.613,159.180
1678024725.434,15.137,-31.738,-54.199,-77.637,-50.781
1678024725.438,64.453,-26.367,-52.734,-79.590,-154.297
1678024725.442,-67.383,-25.391,-49.805,-77.637,-81.543
1678024725.446,-183.105,-26.367,-48.828,-73.242,-31.738
1678024725.434,-135.742,-24.414,-44.922,-77.148,-101.562
1678024725.438,-17.090,-28.320,-46.387,-81.055,-145.020
1678024725.442,48.828,-32.715,-45.898,-81.543,61.523
1678024725.446,-65.918,-33.691,-46.875,-83.984,60.059
1678024725.450,-200.195,-32.227,-49.316,-83.496,-144.043
1678024725.454,-165.527,-33.203,-48.340,-78.613,-80.566
1678024725.458,-40.039,-35.645,-44.434,-73.730,62.012
1678024725.461,49.316,-31.738,-43.457,-67.871,5.371
1678024725.465,-47.852,-30.762,-46.387,-72.266,-90.332
1678024725.469,-198.242,-32.227,-44.922,-78.125,-136.230
1678024725.473,-177.246,-32.715,-46.387,-67.383,195.801
1678024725.477,-49.316,-34.668,-43.945,-58.594,314.941
1678024725.479,51.270,-31.738,-45.898,-67.871,-2.441
1678024725.483,-30.273,-29.785,-45.898,-75.684,-41.992
1678024725.487,-177.734,-30.273,-40.039,-72.266,5.371
1678024725.491,-172.363,-28.320,-40.039,-76.172,-52.246
1678024725.495,-64.453,-34.668,-46.875,-71.777,-143.555
1678024725.499,41.016,-33.691,-42.969,-61.035,6.836
1678024725.503,-9.766,-33.203,-36.621,-60.059,318.848
1678024725.506,-166.504,-37.109,-42.480,-68.359,50.293
1678024725.510,-195.801,-36.621,-46.875,-69.824,-200.195
1678024725.514,-91.309,-34.668,-51.270,-74.707,-120.117
1678024725.518,26.367,-40.039,-54.199,-73.730,-27.832
1678024725.522,-11.719,-44.434,-54.199,-78.125,-95.215
1678024725.538,-171.875,-38.574,-53.711,-86.426,-194.336
1678024725.542,-211.426,-37.109,-54.688,-85.449,-137.207
1678024725.546,-102.539,-37.598,-52.246,-81.543,-122.070
1678024725.550,25.879,-34.668,-47.363,-77.148,-133.301
1678024725.554,9.766,-39.062,-51.758,-77.637,-12.207
1678024725.558,-143.555,-33.691,-53.223,-69.824,243.164
1678024725.562,-200.684,-28.320,-52.734,-72.266,229.492
1678024725.565,-112.305,-28.320,-52.734,-72.754,-95.703
1678024725.569,18.066,-21.973,-49.805,-60.547,-106.934
1678024725.573,27.832,-21.973,-48.828,-56.641,87.891
1678024725.577,-124.023,-27.832,-48.828,-77.637,30.273
1678024725.581,-206.055,-31.738,-48.340,-83.008,-150.391
1678024725.583,-132.812,-30.762,-51.758,-76.660,-165.039
1678024725.587,0.000,-28.320,-53.223,-62.012,64.453
1678024725.591,45.898,-26.855,-52.246,-60.059,-5.859
1678024725.595,-90.820,-24.414,-49.805,-67.871,-203.125
1678024725.599,-193.359,-20.020,-39.551,-56.152,-93.262
1678024725.603,-117.676,-18.555,-34.668,-43.945,-48.340
1678024725.607,13.184,-22.949,-35.645,-38.574,-47.852
1678024725.610,69.336,-25.391,-41.504,-40.039,25.391
1678024725.614,-45.410,-28.809,-42.480,-40.039,-20.020
1678024725.618,-164.062,-32.715,-41.992,-41.504,163.086
1678024725.622,-132.812,-27.832,-43.945,-55.176,-50.781
1678024725.626,-21.973,-22.461,-42.480,-64.941,-295.410
1678024725.643,43.945,-28.809,-44.922,-59.570,-85.938
1678024725.647,-57.129,-41.016,-48.828,-57.617,-56.641
1678024725.651,-186.035,-41.016,-47.852,-62.500,-152.344
1678024725.655,-156.738,-39.062,-53.223,-62.988,-188.965
1678024725.659,-29.785,-42.480,-57.617,-69.336,-112.305
1678024725.663,42.969,-41.016,-55.176,-64.453,80.078
1678024725.667,-48.340,-39.062,-54.688,-66.406,45.898
1678024725.670,-184.570,-36.133,-55.664,-68.848,-140.137
1678024725.674,-170.898,-32.227,-52.734,-53.223,103.516
1678024725.678,-42.969,-28.320,-49.805,-46.387,268.555
1678024725.682,54.199,-31.738,-51.270,-45.898,-43.945
1678024725.686,-19.531,-38.086,-52.246,-43.945,-71.289
1678024725.673,-177.246,-41.016,-51.270,-53.711,69.336
1678024725.677,-185.059,-41.992,-48.828,-61.035,-127.441
1678024725.681,-68.848,-38.086,-47.852,-56.152,-229.980
1678024725.685,34.668,-36.133,-53.223,-62.012,-117.676
1678024725.689,-18.555,-36.133,-55.664,-68.359,-90.332
1678024725.693,-171.387,-35.156,-50.293,-65.918,-62.988
1678024725.697,-191.895,-35.645,-50.781,-66.406,-87.402
1678024725.700,-88.379,-39.062,-54.199,-65.918,-100.098
1678024725.704,22.949,-36.621,-57.129,-61.523,-58.594
1678024725.708,-4.395,-36.133,-56.152,-59.082,-106.934
1678024725.712,-152.832,-41.016,-53.223,-69.824,-148.926
1678024725.716,-187.988,-41.016,-56.152,-67.383,-51.270
1678024725.718,-102.539,-39.551,-63.477,-54.688,258.789
1678024725.722,12.207,-42.969,-63.965,-61.523,127.441
1678024725.726,14.648,-39.062,-57.617,-60.547,-88.379
1678024725.730,-141.602,-37.109,-63.477,-62.500,-69.336
1678024725.734,-208.008,-38.574,-64.941,-65.918,-154.297
1678024725.738,-121.582,-34.668,-58.105,-67.383,-154.297
1678024725.742,3.906,-27.344,-56.641,-76.172,-11.719
1678024725.745,28.320,-26.855,-55.664,-69.824,177.734
1678024725.749,-112.793,-33.691,-57.617,-73.730,62.500
1678024725.753,-197.754,-36.133,-61.035,-86.914,-164.062
1678024725.757,-129.395,-35.156,-62.988,-89.355,-11.719
1678024725.761,-5.371,-32.715,-59.570,-83.496,185.059
1678024725.764,31.250,-31.738,-59.570,-69.824,15.625
1678024725.768,-99.609,-33.203,-56.641,-74.707,-121.094
1678024725.772,-200.684,-33.691,-53.711,-88.379,-73.242
1678024725.776,-145.996,-34.180,-53.223,-82.031,-36.621
1678024725.780,-28.809,-35.645,-55.176,-76.172,-98.145
1678024725.784,22.461,-36.621,-58.594,-68.359,-99.121
1678024725.788,-94.238,-37.109,-57.617,-67.383,83.984
1678024725.791,-211.914,-34.668,-59.570,-70.801,229.980
1678024725.795,-166.504,-30.762,-60.059,-77.637,15.625
1678024725.799,-34.668,-29.785,-53.711,-73.730,-83.984
1678024725.803,51.270,-32.227,-53.223,-61.523,-9.277
1678024725.807,-48.828,-35.156,-55.176,-69.336,-60.059
1678024725.808,-185.547,-32.715,-49.805,-76.172,-192.383
1678024725.812,-156.738,-30.273,-48.828,-68.848,-190.918
1678024725.816,-32.227,-32.715,-51.270,-68.359,-106.445
1678024725.820,53.223,-33.203,-53.711,-67.871,-91.797
1678024725.824,-43.457,-32.715,-54.199,-76.172,-85.938
1678024725.828,-184.082,-37.109,-53.223,-83.984,-29.785
1678024725.832,-164.551,-34.180,-53.223,-64.453,225.098
1678024725.835,-50.781,-30.762,-51.758,-45.410,313.477
1678024725.839,40.527,-34.668,-56.152,-54.199,-1.465
1678024725.843,-32.227,-35.156,-52.734,-62.012,-73.242
1678024725.847,-178.711,-25.391,-45.898,-56.152,116.211
1678024725.851,-185.547,-24.414,-46.387,-61.035,-24.902
1678024725.853,-73.242,-28.809,-44.922,-58.105,-203.125
1678024725.857,40.039,-32.715,-43.457,-47.363,-111.816
1678024725.861,-3.906,-38.086,-47.852,-51.270,-53.711
1678024725.865,-158.691,-34.180,-50.781,-57.617,-165.527
1678024725.869,-180.176,-29.785,-49.805,-47.852,-212.891
1678024725.873,-62.012,-30.762,-51.270,-36.133,-3.906
1678024725.877,49.316,-29.297,-47.852,-36.621,152.832
1678024725.880,22.461,-29.297,-41.504,-40.039,-63.965
1678024725.884,-125.977,-30.273,-43.457,-38.574,-232.910
1678024725.888,-179.688,-30.762,-42.480,-37.109,-93.750
1678024725.892,-88.379,-30.273,-37.598,-29.785,41.992
1678024725.896,49.316,-22.461,-37.598,-33.203,-74.707
1678024725.913,49.316,-20.996,-39.062,-37.598,-109.375
1678024725.917,-106.445,-23.438,-44.434,-39.062,-90.332
1678024725.921,-181.152,-24.902,-48.828,-42.969,-119.629
1678024725.925,-97.656,-23.926,-50.781,-49.316,-192.871
1678024725.929,34.668,-18.555,-53.711,-49.316,-125.977
1678024725.933,56.641,-22.461,-55.176,-41.504,161.621
1678024725.937,-83.984,-27.832,-54.199,-35.645,90.332
1678024725.940,-178.223,-25.879,-49.805,-43.457,-108.398
1678024725.944,-107.422,-26.367,-45.410,-44.434,-104.004
1678024725.948,23.926,-23.926,-46.875,-27.344,173.828
1678024725.952,65.430,-25.879,-46.387,-23.926,315.918
1678024725.956,-63.477,-29.785,-46.875,-43.457,-47.852
1678024725.958,-176.758,-27.344,-47.852,-44.434,-117.676
1678024725.962,-130.371,-26.855,-52.246,-42.480,29.297
1678024725.966,-4.883,-29.785,-57.617,-53.223,-44.434
1678024725.970,63.477,-26.367,-52.246,-52.246,-85.449
1678024725.974,-37.109,-26.855,-56.641,-47.852,-76.660
1678024725.978,-170.410,-24.902,-57.617,-48.340,-1.953
1678024725.982,-142.090,-23.438,-44.922,-40.527,13.672
1678024725.985,-7.324,-22.949,-35.645,-33.203,-75.684
1678024725.989,66.406,-23.438,-40.039,-39.551,11.719
1678024725.993,-43.457,-22.949,-47.363,-43.945,239.258
1678024725.997,-179.688,-20.996,-46.875,-45.898,66.895
1678024726.001,-169.922,-23.438,-46.387,-61.035,-104.492
1678024726.003,-59.570,-20.508,-59.570,-70.801,17.090
1678024726.007,14.160,-16.113,-60.059,-92.285,17.090
1678024726.011,-98.633,-7.812,-63.477,-127.930,-153.809
1678024726.015,-274.902,-14.648,-70.801,-161.621,-130.859
1678024726.019,-295.898,-30.273,-83.496,-197.754,-46.387
1678024726.023,-196.289,-29.785,-88.379,-216.797,-22.461
1678024726.027,-136.719,-28.320,-87.402,-247.070,-55.176
1678024726.030,-238.281,-30.273,-89.844,-285.645,-148.438
1678024726.034,-406.250,-22.949,-95.703,-299.805,43.945
1678024726.038,-434.570,-16.113,-101.562,-320.312,70.312
1678024726.042,-328.125,-13.672,-100.586,-327.637,-131.836
1678024726.046,-218.750,-6.348,-104.492,-315.430,-151.855
1678024726.049,-261.719,-0.977,-103.027,-311.523,-41.992
1678024726.053,-410.156,-0.977,-103.027,-320.801,-20.508
1678024726.057,-432.617,-0.488,-103.027,-318.848,-174.805
1678024726.061,-324.707,-5.859,-95.703,-302.734,-109.863
1678024726.065,-193.848,-5.371,-86.426,-282.715,202.637
1678024726.069,-189.941,-5.859,-86.914,-267.578,124.023
1678024726.073,-329.590,-16.113,-87.891,-249.023,-45.410
1678024726.076,-357.910,-10.742,-82.520,-239.258,-16.113
1678024726.080,-232.910,-3.418,-79.102,-224.121,50.781
1678024726.084,-86.426,-8.301,-76.172,-193.848,-31.250
1678024726.088,-54.688,-9.766,-69.824,-169.434,-116.211
1678024726.092,-165.527,-6.348,-67.383,-137.695,-32.715
1678024726.093,-226.074,-9.277,-58.594,-117.188,41.016
1678024726.097,-128.418,-13.184,-46.387,-109.863,-107.910
1678024726.101,23.926,-13.672,-45.410,-78.613,-144.043
1678024726.105,67.383,-12.207,-41.504,-51.270,0.977
1678024726.109,-45.898,-17.578,-38.574,-35.156,-58.105
1678024726.113,-133.301,-21.484,-36.133,-29.297,-126.465
1678024726.117,-70.801,-15.625,-34.668,-21.484,0.488
1678024726.120,69.336,-18.555,-34.180,-5.859,215.820
1678024726.124,136.230,-22.461,-33.691,8.789,233.887
1678024726.128,28.320,-20.996,-36.621,5.371,-88.867
1678024726.132,-79.102,-25.391,-33.691,5.859,-55.664
1678024726.136,-19.043,-24.902,-27.344,25.391,141.602
1678024726.138,130.859,-22.949,-24.414,43.945,-47.363
1678024726.142,203.125,-25.879,-24.414,62.012,-111.816
1678024726.146,97.168,-24.414,-19.043,52.734,-44.434
1678024726.150,-18.066,-25.879,-12.695,56.152,-80.566
1678024726.154,10.742,-32.227,-14.648,70.312,-74.219
1678024726.158,125.000,-29.297,-12.207,84.473,-28.320
1678024726.162,197.266,-30.273,-13.184,98.145,80.566
1678024726.165,102.539,-29.297,-16.602,89.844,330.566
1678024726.169,-22.461,-19.531,-10.742,86.914,74.707
1678024726.173,-3.906,-24.414,-5.859,82.520,-194.336
1678024726.177,112.305,-30.273,-7.812,73.730,-101.562
1678024726.181,213.867,-25.879,-7.324,84.473,-91.309
1678024726.183,144.043,-24.902,-3.906,90.820,-142.578
1678024726.187,-13.184,-27.832,-8.789,74.219,-171.875
1678024726.191,-22.949,-26.367,-11.719,71.289,-126.465
1678024726.195,100.098,-26.855,-17.578,75.684,-123.535
1678024726.199,213.867,-27.344,-16.602,77.637,-113.770
1678024726.203,152.832,-27.344,-9.277,63.965,26.855
1678024726.207,-1.953,-24.902,-7.324,64.453,235.840
1678024726.210,-19.043,-22.461,-9.277,77.148,142.578
1678024726.214,94.727,-26.367,-13.672,64.941,-126.465
1678024726.218,209.473,-31.738,-18.066,70.801,-82.520
1678024726.222,168.945,-29.785,-15.625,88.867,239.258
1678024726.226,21.973,-26.855,-11.230,85.449,64.453
1678024726.229,-16.113,-25.879,-11.719,77.148,-223.633
1678024726.233,71.289,-22.461,-16.113,92.285,-203.125
1678024726.237,184.570,-24.414,-14.648,104.492,-105.469
1678024726.241,168.945,-22.461,-12.207,101.074,-123.535
1678024726.245,19.043,-17.578,-16.113,91.797,-159.668
1678024726.249,-31.738,-21.484,-21.484,91.797,-31.250
1678024726.253,51.758,-20.020,-20.020,91.309,89.355
1678024726.256,162.109,-18.555,-22.461,87.891,-11.719
1678024726.260,166.504,-21.484,-28.320,85.449,-103.027
1678024726.264,23.438,-16.602,-23.438,65.918,-30.762
1678024726.268,-59.570,-16.113,-21.973,62.012,110.352
1678024726.272,12.695,-16.113,-23.438,70.801,-126.953
1678024726.288,145.996,-16.113,-20.996,75.195,-211.914
1678024726.292,176.270,-11.719,-26.367,77.148,-41.016
1678024726.296,37.109,-6.836,-30.273,75.195,-83.496
1678024726.300,-58.105,-11.719,-32.227,69.824,-151.855
1678024726.304,6.348,-13.672,-33.203,65.918,-173.828
1678024726.308,119.141,-9.277,-36.133,69.824,102.539
1678024726.312,166.016,-7.324,-36.621,67.383,245.605
1678024726.315,56.152,-8.301,-31.250,52.734,-134.766
1678024726.319,-74.219,-10.742,-33.691,43.457,-201.172
1678024726.323,-40.039,-14.160,-38.086,45.410,65.430
1678024726.327,82.520,-14.160,-41.992,47.363,-0.488
1678024726.331,144.531,-12.695,-44.922,44.922,-87.402
1678024726.333,51.270,-14.648,-41.992,45.410,5.371
1678024726.337,-79.590,-14.648,-41.992,49.316,150.879
1678024726.341,-60.059,-14.648,-45.898,41.992,-45.410
1678024726.345,59.570,-11.719,-43.945,39.062,-229.980
1678024726.349,132.324,-10.742,-43.457,41.992,-176.758
1678024726.353,41.992,-11.719,-42.480,35.645,-140.137
1678024726.357,-81.543,-4.395,-37.598,38.086,-107.910
1678024726.360,-60.547,-1.953,-38.574,34.180,-194.824
1678024726.364,56.152,-12.207,-43.457,39.062,-144.043
1678024726.368,149.902,-15.137,-49.316,52.734,188.965
1678024726.372,73.242,-10.742,-48.828,42.969,25.879
1678024726.376,-83.496,-11.230,-41.992,35.156,-172.363
1678024726.379,-80.566,-16.113,-39.062,33.203,-74.707
1678024726.383,35.156,-15.137,-42.480,32.227,-121.094
1678024726.387,134.277,-12.207,-41.016,36.621,-128.418
1678024726.391,76.172,-12.695,-42.480,17.090,24.414
1678024726.395,-87.402,-12.207,-49.316,4.883,85.938
1678024726.399,-112.305,-12.207,-46.387,9.766,2.441
1678024726.403,-7.324,-9.766,-44.922,7.812,8.789
1678024726.406,102.539,-12.695,-49.805,7.324,-8.789
1678024726.410,70.801,-11.719,-49.316,18.066,124.023
1678024726.414,-84.961,-10.742,-44.922,11.230,142.090
1678024726.418,-118.164,-9.277,-41.016,13.672,-83.984
1678024726.422,-21.973,-7.812,-35.156,30.273,-108.398
1678024726.423,95.703,-13.184,-36.133,40.527,118.652
1678024726.427,98.145,-13.184,-38.574,44.922,-21.973
1678024726.431,-51.758,-9.766,-35.645,35.645,-217.773
1678024726.435,-125.977,-4.395,-32.715,22.949,-137.695
1678024726.439,-46.387,0.977,-34.668,20.508,-94.238
1678024726.443,81.543,-2.930,-38.086,15.137,-36.621
1678024726.447,97.168,-6.348,-40.527,16.113,-10.742
1678024726.450,-35.156,-6.348,-41.016,20.996,4.883
1678024726.454,-111.328,-4.395,-40.039,28.809,241.699
1678024726.458,-42.480,-2.441,-35.645,21.484,101.074
1678024726.462,78.125,3.418,-35.645,19.043,-149.414
1678024726.466,108.887,2.930,-37.109,28.320,-28.809
1678024726.468,-22.949,-3.906,-37.109,8.789,-51.758
1678024726.472,-128.418,-1.465,-38.574,-5.859,-176.270
1678024726.476,-80.078,-2.930,-41.504,-9.277,-160.156
1678024726.480,42.480,-10.254,-44.434,-11.230,-4.883
1678024726.484,95.703,-11.230,-46.875,-6.348,5.371
1678024726.488,-19.043,-12.695,-48.828,-15.625,-42.969
1678024726.492,-138.672,-16.602,-47.852,-18.066,-19.043
1678024726.495,-96.680,-15.137,-47.363,-9.766,221.191
1678024726.499,24.414,-12.695,-39.062,-2.441,336.914
1678024726.503,96.680,-18.066,-35.156,-11.719,-25.879
1678024726.507,-5.859,-26.367,-42.969,-14.648,-5.371
1678024726.511,-149.414,-27.832,-45.898,-10.742,208.984
1678024726.513,-119.629,-19.531,-47.363,-13.672,-6.348
1678024726.517,-0.488,-20.020,-51.270,-24.414,-147.461
1678024726.521,76.660,-23.926,-52.246,-29.785,-102.051
1678024726.525,-8.301,-27.832,-46.875,-28.809,-77.637
1678024726.529,-148.926,-31.250,-43.945,-32.227,-109.375
1678024726.533,-146.973,-34.180,-44.922,-40.527,-145.508
1678024726.537,-34.180,-31.250,-42.480,-41.992,29.297
1678024726.540,75.195,-23.926,-46.387,-20.508,264.160
1678024726.544,20.020,-25.391,-50.293,-20.020,-4.395
1678024726.548,-137.695,-24.902,-50.293,-45.898,-131.836
1678024726.552,-149.414,-27.832,-48.828,-52.246,53.711
1678024726.556,-31.250,-25.879,-46.875,-43.945,-7.812
1678024726.558,76.172,-20.996,-45.898,-35.156,-202.637
1678024726.562,27.344,-22.949,-44.434,-36.621,-189.941
1678024726.566,-131.836,-19.531,-44.922,-42.969,-122.559
1678024726.570,-161.621,-21.973,-49.805,-46.387,-144.043
1678024726.574,-50.781,-22.949,-54.688,-42.480,-136.230
1678024726.578,71.777,-16.113,-50.293,-34.668,-37.109
1678024726.582,45.898,-13.184,-44.434,-36.133,160.156
1678024726.585,-114.258,-20.020,-48.340,-42.969,148.926
1678024726.589,-159.180,-18.066,-50.293,-50.293,-100.098
1678024726.593,-55.664,-10.254,-46.875,-39.551,-64.941
1678024726.597,65.430,-7.812,-46.875,-18.066,110.352
1678024726.601,46.387,-10.254,-44.434,-14.160,41.992
1678024726.604,-100.098,-14.648,-43.945,-25.879,-85.938
1678024726.608,-172.363,-18.066,-48.340,-40.039,-41.504
1678024726.612,-98.633,-18.066,-47.852,-45.898,202.637
1678024726.616,26.855,-16.602,-49.316,-40.039,50.781
1678024726.620,53.223,-15.625,-48.340,-43.457,-131.836
1678024726.624,-84.961,-16.602,-51.270,-50.781,87.891
1678024726.628,-178.711,-19.531,-50.781,-39.551,234.863
1678024726.631,-104.980,-21.973,-46.875,-40.039,-67.871
1678024726.635,22.949,-24.414,-47.852,-43.945,-194.824
1678024726.639,60.547,-21.484,-50.293,-39.062,-91.797
1678024726.643,-59.082,-27.344,-55.176,-42.480,-85.938
1678024726.647,-171.387,-27.344,-53.223,-54.199,-135.742
1678024726.664,-118.164,-24.414,-48.340,-66.406,-158.691
1678024726.668,10.742,-25.391,-47.363,-53.711,-69.824
1678024726.672,61.523,-26.367,-52.246,-49.316,34.668
1678024726.676,-50.781,-30.762,-55.176,-60.059,-108.398
1678024726.680,-171.387,-32.227,-50.293,-66.406,-173.828
1678024726.684,-141.113,-28.809,-49.805,-62.500,139.648
1678024726.688,-24.414,-23.926,-53.223,-60.059,230.469
1678024726.691,56.641,-20.996,-49.805,-63.477,-50.781
1678024726.695,-37.109,-24.902,-48.828,-62.500,-72.266
1678024726.699,-172.363,-23.926,-51.758,-65.430,55.664
1678024726.703,-150.879,-22.949,-49.316,-66.406,-41.504
1678024726.707,-37.109,-25.391,-51.270,-72.266,-174.316
1678024726.709,44.922,-27.832,-52.734,-63.477,-71.289
1678024726.713,-35.645,-32.227,-52.246,-54.199,72.266
1678024726.717,-181.641,-29.785,-56.641,-74.707,-71.289
1678024726.721,-172.852,-25.879,-51.758,-77.148,-202.637
1678024726.725,-52.246,-22.461,-49.316,-60.059,-109.375
1678024726.729,42.480,-23.438,-47.852,-52.246,21.973
1678024726.733,-13.672,-26.855,-45.410,-53.711,37.598
1678024726.736,-157.715,-22.461,-45.898,-66.895,-80.566
1678024726.740,-173.340,-20.508,-45.898,-66.406,-103.027
1678024726.744,-64.941,-22.949,-48.828,-55.176,210.938
1678024726.748,37.598,-21.973,-51.270,-68.359,93.262
1678024726.752,-9.766,-28.320,-51.758,-82.520,-111.816
1678024726.753,-162.109,-29.297,-50.293,-85.449,-51.758
1678024726.757,-192.871,-20.020,-48.340,-87.402,-86.426
1678024726.761,-96.680,-20.996,-47.363,-84.961,-59.570
1678024726.765,10.254,-24.902,-46.875,-86.914,-50.293
1678024726.769,-10.742,-30.762,-45.410,-87.891,-40.527
1678024726.773,-165.039,-37.598,-47.363,-86.914,11.230
1678024726.777,-207.031,-34.668,-48.828,-82.031,-31.250
1678024726.780,-110.840,-30.273,-50.293,-76.172,-30.762
1678024726.784,13.184,-29.297,-48.340,-69.336,187.988
1678024726.788,22.461,-31.738,-49.805,-65.918,357.910
1678024726.792,-133.301,-31.738,-54.199,-77.148,38.574
1678024726.796,-209.473,-28.320,-54.688,-84.473,-153.809
1678024726.799,-129.883,-27.832,-51.270,-78.613,45.898
1678024726.803,-4.883,-28.809,-52.246,-79.102,-32.715
1678024726.807,18.066,-26.367,-53.711,-77.148,-156.738
1678024726.811,-102.051,-27.832,-51.758,-75.195,-117.188
1678024726.815,-204.102,-33.691,-56.641,-84.961,-65.918
1678024726.819,-151.367,-33.691,-62.012,-73.242,-7.812
1678024726.823,-19.531,-34.668,-57.617,-64.941,-8.301
1678024726.826,28.320,-28.809,-47.852,-66.406,20.508
1678024726.830,-94.238,-24.902,-44.922,-63.477,230.957
1678024726.834,-206.543,-24.902,-39.551,-71.777,-1.465
1678024726.838,-159.668,-20.996,-36.621,-70.801,-238.281
1678024726.842,-41.504,-21.973,-42.480,-63.965,-71.289
1678024726.843,31.738,-24.902,-41.504,-75.684,-39.551
1678024726.847,-60.547,-26.855,-40.039,-89.844,-155.273
1678024726.851,-184.082,-26.855,-41.992,-88.379,-140.137
1678024726.855,-149.414,-26.367,-40.527,-87.402,-84.961
1678024726.859,-28.809,-24.902,-40.039,-89.844,-95.703
1678024726.863,48.828,-24.902,-40.039,-88.867,30.762
1678024726.867,-40.039,-28.320,-35.156,-88.379,47.852
1678024726.870,-186.035,-28.320,-32.227,-83.008,52.246
1678024726.874,-177.734,-26.855,-31.250,-80.078,24.414
1678024726.878,-56.641,-27.832,-31.738,-72.266,-169.434
1678024726.882,32.715,-29.785,-38.086,-61.035,-66.895
1678024726.886,-48.340,-27.344,-40.039,-64.941,156.250
1678024726.903,-199.707,-25.391,-40.039,-73.242,-50.781
1678024726.907,-195.801,-26.855,-43.945,-76.172,-237.793
1678024726.911,-86.914,-29.297,-46.387,-73.242,-114.258
1678024726.915,16.113,-31.738,-44.922,-72.754,11.719
1678024726.919,-36.133,-23.926,-36.621,-81.543,-51.270
1678024726.923,-185.547,-19.043,-31.738,-84.473,-115.234
1678024726.927,-206.055,-22.949,-33.691,-82.031,-17.090
1678024726.930,-108.398,-22.461,-31.250,-72.266,189.941
1678024726.934,11.230,-24.414,-32.715,-72.754,-3.418
1678024726.938,-14.160,-28.320,-32.715,-77.637,-157.715
1678024726.942,-163.086,-29.297,-31.250,-82.031,-107.422
1678024726.946,-202.148,-27.832,-32.227,-84.961,-136.230
1678024726.935,-109.863,-27.344,-28.320,-86.914,-165.039
1678024726.939,2.930,-24.902,-26.855,-82.520,-120.605
1678024726.943,-9.277,-19.043,-32.227,-82.520,37.109
1678024726.947,-156.738,-19.531,-33.203,-96.680,-12.695
1678024726.951,-224.121,-26.367,-34.668,-99.609,-166.504
1678024726.955,-135.254,-25.879,-32.715,-85.938,-55.664
1678024726.959,-0.977,-25.391,-31.738,-74.707,167.969
1678024726.962,5.371,-26.855,-34.668,-83.008,52.246
1678024726.966,-145.996,-27.832,-29.785,-89.355,-113.770
1678024726.970,-225.098,-31.250,-24.902,-89.844,-106.934
1678024726.974,-158.203,-29.297,-27.832,-100.586,214.844
1678024726.978,-41.504,-28.809,-29.785,-101.074,222.656
1678024726.978,-26.367,-34.180,-40.527,-120.605,-112.305
1678024726.982,-165.527,-29.785,-43.945,-139.160,-77.637
1678024726.986,-278.809,-24.414,-45.898,-156.250,153.320
1678024726.990,-252.930,-16.113,-52.734,-184.082,43.945
1678024726.994,-149.414,-16.113,-63.477,-201.172,-143.066
1678024726.998,-124.023,-17.090,-62.988,-221.191,57.617
1678024727.002,-280.762,-10.254,-61.035,-249.512,373.535
1678024727.005,-419.922,-3.418,-67.871,-289.062,61.523
1678024727.009,-402.344,1.465,-73.242,-318.848,-259.766
1678024727.013,-299.316,-3.906,-83.008,-330.078,-108.887
1678024727.017,-239.746,-2.930,-86.914,-340.820,55.176
1678024727.021,-343.750,5.859,-90.820,-358.398,-109.375
1678024727.038,-484.375,-3.418,-87.402,-366.699,-206.055
1678024727.042,-461.914,-7.812,-83.496,-359.375,-82.031
1678024727.046,-321.289,-8.301,-84.473,-340.332,-81.055
1678024727.050,-223.633,-12.695,-83.984,-326.660,-104.492
1678024727.054,-302.734,-10.254,-80.566,-318.848,-94.238
1678024727.058,-422.363,-11.719,-77.637,-313.477,-2.930
1678024727.062,-393.066,-15.625,-76.172,-304.688,-48.828
1678024727.065,-278.809,-18.066,-72.754,-288.086,-75.195
1678024727.069,-158.691,-17.090,-70.801,-264.648,-27.832
1678024727.073,-201.660,-15.625,-66.406,-235.352,170.898
1678024727.077,-332.031,-15.625,-59.570,-210.938,317.871
1678024727.081,-303.223,-17.578,-55.176,-197.754,-79.590
1678024727.083,-161.133,-13.672,-50.781,-161.133,-154.785
1678024727.087,-41.992,-15.625,-49.805,-143.066,-23.926
1678024727.091,-81.543,-22.461,-50.293,-136.230,-101.562
1678024727.095,-220.215,-23.438,-50.781,-117.676,-167.480
1678024727.099,-218.262,-18.555,-55.176,-104.004,-135.742
1678024727.103,-82.520,-23.438,-46.875,-86.426,30.273
1678024727.107,35.645,-21.973,-37.598,-61.523,25.879
1678024727.110,16.113,-19.043,-35.645,-48.828,-107.910
1678024727.114,-127.930,-32.715,-39.551,-43.457,-92.285
1678024727.118,-151.855,-37.598,-38.574,-34.180,28.320
1678024727.122,-48.340,-36.133,-39.551,-30.273,-90.332
1678024727.126,64.453,-36.133,-38.086,-21.484,-141.602
1678024727.128,66.895,-34.668,-33.203,-12.207,14.648
1678024727.132,-79.590,-40.527,-33.203,-20.020,245.605
1678024727.136,-139.648,-45.898,-36.621,-25.879,2.930
1678024727.140,-55.664,-45.898,-37.109,-26.367,-151.367
1678024727.144,72.266,-46.387,-33.203,-19.043,-53.223
1678024727.148,83.984,-47.852,-26.367,-3.418,7.324
1678024727.152,-47.363,-48.828,-25.391,-2.930,32.227
1678024727.155,-112.305,-47.363,-30.762,-6.836,-66.406
1678024727.159,-42.480,-51.270,-25.879,3.418,47.363
1678024727.163,82.031,-52.734,-21.973,21.484,170.410
1678024727.167,123.535,-50.781,-25.391,25.391,43.457
1678024727.171,3.418,-49.805,-23.926,20.508,0.488
1678024727.173,-102.051,-49.316,-19.043,27.344,108.887
1678024727.177,-55.176,-53.223,-21.484,27.832,-38.574
1678024727.181,67.871,-54.199,-21.484,25.879,-177.734
1678024727.185,125.977,-57.129,-21.484,26.855,-39.551
1678024727.189,8.301,-62.012,-25.391,22.949,-73.242
1678024727.193,-115.723,-62.012,-21.484,18.555,-60.059
1678024727.197,-82.031,-55.664,-21.484,13.672,-38.574
1678024727.200,39.551,-54.688,-25.879,8.301,3.906
1678024727.204,114.258,-59.082,-31.250,19.531,259.277
1678024727.208,18.555,-58.105,-30.273,13.672,44.434
1678024727.212,-115.723,-56.152,-26.855,3.906,-188.965
1678024727.216,-98.633,-53.223,-23.926,-1.465,-148.438
1678024727.219,14.648,-48.340,-20.996,1.953,-104.004
1678024727.223,99.609,-50.293,-20.508,3.418,-21.484
1678024727.227,16.602,-53.711,-27.832,-13.672,-79.102
1678024727.231,-134.766,-54.199,-36.133,-17.578,-71.289
1678024727.235,-124.512,-46.875,-33.203,-6.348,-69.336
1678024727.239,-10.254,-47.852,-33.203,-14.648,-69.824
1678024727.243,90.820,-48.828,-33.203,-18.066,2.441
1678024727.246,31.250,-45.410,-27.832,-9.766,166.992
1678024727.250,-127.930,-50.781,-33.691,-13.672,127.930
1678024727.254,-133.789,-48.340,-30.273,-13.184,-162.598
1678024727.258,-24.414,-41.016,-23.438,-10.742,-158.203
1678024727.262,76.172,-44.922,-30.273,-4.883,101.074
1678024727.263,23.438,-52.734,-34.668,-9.277,22.949
1678024727.267,-138.672,-48.828,-32.227,-25.879,-230.957
1678024727.271,-167.969,-46.387,-38.086,-32.227,-223.633
1678024727.275,-65.430,-47.852,-40.039,-37.598,-87.891
1678024727.279,42.969,-44.434,-43.457,-40.527,-58.594
1678024727.283,17.090,-46.387,-46.387,-42.969,-107.422
1678024727.287,-134.766,-49.805,-45.410,-57.129,-54.199
1678024727.290,-184.570,-42.480,-40.527,-54.199,175.293
1678024727.294,-89.844,-38.574,-38.086,-50.293,66.406
1678024727.298,23.438,-42.480,-46.875,-64.453,-151.367
1678024727.302,24.902,-41.992,-48.340,-63.477,-89.355
1678024727.306,-115.723,-39.551,-47.852,-61.035,-105.957
1678024727.308,-191.406,-36.133,-46.387,-71.289,-144.043
1678024727.312,-120.605,-36.133,-46.875,-72.266,-112.793
1678024727.316,0.977,-36.133,-46.875,-65.918,-62.500
1678024727.320,26.367,-31.738,-38.574,-64.453,-47.852
1678024727.324,-105.469,-33.691,-37.109,-74.219,-98.145
1678024727.328,-196.777,-41.016,-39.551,-88.867,-35.645
1678024727.332,-141.113,-43.457,-40.039,-80.078,229.492
1678024727.335,-23.438,-40.039,-37.598,-75.195,251.953
1678024727.339,22.461,-33.203,-39.551,-81.055,-94.727
1678024727.343,-97.656,-35.645,-45.898,-81.543,-104.492
1678024727.347,-205.566,-35.156,-43.457,-80.566,154.297
1678024727.351,-151.367,-26.367,-37.109,-79.590,60.547
1678024727.353,-27.344,-25.391,-38.574,-82.520,-101.562
1678024727.357,25.879,-25.391,-41.016,-82.031,-57.617
1678024727.361,-80.566,-24.414,-38.086,-82.520,-26.855
1678024727.365,-201.660,-32.715,-38.574,-83.496,-74.219
1678024727.369,-166.504,-34.668,-40.527,-84.961,-102.051
1678024727.373,-54.688,-29.297,-42.969,-89.844,-3.906
1678024727.377,20.996,-22.949,-42.480,-90.820,101.074
1678024727.380,-63.965,-22.949,-38.574,-85.938,14.160
1678024727.384,-212.891,-25.879,-43.457,-95.703,-92.773
1678024727.388,-189.453,-27.832,-47.363,-109.863,-69.336
1678024727.392,-57.129,-28.320,-50.293,-102.051,199.707
1678024727.396,20.996,-31.250,-52.734,-105.469,69.824
1678024727.413,-56.641,-34.668,-54.199,-104.980,-143.066
1678024727.417,-207.031,-33.691,-51.758,-97.656,-103.516
1678024727.421,-209.961,-35.156,-48.828,-107.910,-135.254
1678024727.425,-88.379,-39.551,-52.734,-111.328,-137.207
1678024727.429,9.766,-39.062,-49.805,-99.121,-113.281
1678024727.433,-83.984,-40.039,-48.340,-101.074,-48.828
1678024727.437,-224.121,-41.504,-45.898,-107.422,-58.594
1678024727.440,-210.938,-41.992,-47.363,-103.516,-135.254
1678024727.444,-101.074,-43.457,-47.363,-109.375,-114.746
1678024727.448,2.441,-40.039,-47.852,-102.539,142.090
1678024727.452,-42.969,-35.645,-52.246,-100.098,219.238
1678024727.456,-190.918,-36.621,-51.758,-112.305,-23.438
1678024727.458,-217.773,-36.133,-53.711,-107.422,-71.289
1678024727.462,-113.770,-32.715,-52.734,-93.750,166.016
1678024727.466,-0.977,-32.227,-54.199,-91.309,77.148
1678024727.470,-17.578,-30.762,-54.199,-97.168,-63.477
1678024727.474,-167.969,-28.809,-52.246,-103.516,-110.352
1678024727.478,-231.445,-29.297,-51.758,-108.887,-127.441
1678024727.482,-142.090,-29.297,-51.758,-112.305,-71.289
1678024727.485,-14.648,-33.203,-50.781,-104.492,-143.555
1678024727.489,-19.531,-40.039,-53.711,-120.605,-76.172
1678024727.493,-161.621,-34.668,-49.316,-127.441,121.582
1678024727.497,-231.934,-28.809,-40.527,-124.512,-108.398
1678024727.501,-152.344,-31.250,-46.875,-123.535,-280.762
1678024727.519,-31.250,-32.227,-46.875,-117.676,-146.973
1678024727.523,-5.371,-33.691,-42.480,-109.375,-45.898
1678024727.527,-134.277,-41.992,-44.922,-104.004,-119.141
1678024727.531,-227.051,-41.504,-49.316,-111.328,-201.660
1678024727.535,-167.969,-36.133,-50.293,-106.445,-53.223
1678024727.539,-52.246,-39.062,-52.246,-100.098,78.613
1678024727.543,-4.883,-39.062,-65.918,-105.957,14.160
1678024727.546,-119.629,-36.621,-61.035,-98.633,-67.383
1678024727.550,-230.957,-40.527,-55.664,-95.703,56.152
1678024727.554,-183.594,-41.992,-51.758,-99.121,68.848
1678024727.558,-70.801,-36.133,-49.316,-93.750,-105.469
1678024727.562,-13.184,-35.645,-57.129,-89.844,-20.508
1678024727.548,-109.863,-41.992,-56.641,-96.680,132.812
1678024727.552,-229.004,-41.992,-52.734,-112.305,-62.500
1678024727.556,-197.266,-38.574,-53.223,-106.934,-182.129
1678024727.560,-82.031,-36.133,-53.223,-89.844,20.508
1678024727.564,-2.441,-37.109,-51.758,-92.285,206.543
1678024727.568,-93.750,-39.551,-50.781,-104.492,52.246
1678024727.572,-229.980,-39.551,-54.199,-107.422,-69.824
1678024727.575,-202.637,-35.645,-50.781,-97.168,-108.398
1678024727.579,-78.613,-36.621,-45.410,-97.656,-101.074
1678024727.583,17.090,-38.086,-45.898,-92.285,-88.867
1678024727.587,-56.152,-37.598,-47.363,-91.797,-152.344
1678024727.591,-200.684,-34.668,-46.875,-113.281,-55.664
1678024727.609,-195.312,-32.227,-49.805,-125.977,199.707
1678024727.613,-87.891,-34.180,-51.270,-118.652,-47.363
1678024727.617,9.277,-32.227,-48.340,-118.652,-157.227
1678024727.621,-48.828,-34.180,-49.316,-121.582,27.344
1678024727.625,-202.148,-37.598,-50.293,-109.863,-74.707
1678024727.629,-224.609,-38.574,-47.363,-106.445,-138.184
1678024727.633,-117.188,-39.551,-47.852,-111.816,-4.395
1678024727.636,-0.977,-36.621,-41.992,-90.820,257.812
1678024727.640,-32.227,-34.668,-38.574,-82.031,178.223
1678024727.644,-190.430,-37.598,-42.969,-103.516,-118.652
1678024727.648,-229.004,-38.086,-44.434,-112.793,-115.234
1678024727.652,-141.113,-40.039,-47.363,-102.051,106.445
1678024727.638,-27.344,-40.527,-46.387,-88.379,118.164
1678024727.642,-31.738,-41.016,-43.945,-89.844,-105.469
1678024727.646,-175.781,-37.109,-45.410,-97.168,-72.266
1678024727.650,-228.027,-35.645,-45.898,-105.957,-102.051
1678024727.654,-134.766,-35.156,-45.898,-103.516,-192.871
1678024727.658,-20.996,-37.598,-46.387,-99.609,-24.902
1678024727.662,-18.555,-43.945,-50.293,-106.445,20.996
1678024727.665,-159.180,-47.363,-55.176,-108.887,-97.168
1678024727.669,-240.723,-45.898,-54.199,-105.469,-110.352
1678024727.673,-158.203,-39.062,-49.316,-98.633,-165.039
1678024727.677,-32.227,-38.086,-52.734,-96.191,-94.238
1678024727.681,0.977,-40.039,-57.129,-97.168,239.746
1678024727.683,-118.164,-41.016,-51.758,-99.609,81.055
1678024727.687,-223.145,-46.875,-51.758,-102.051,-183.594
1678024727.691,-171.875,-52.246,-54.199,-107.910,-38.086
1678024727.695,-52.246,-50.293,-51.758,-105.957,53.223
1678024727.699,1.953,-45.410,-50.781,-101.074,-63.477
1678024727.703,-115.723,-48.340,-51.758,-104.492,-49.805
1678024727.707,-228.027,-55.664,-54.688,-100.586,178.711
1678024727.710,-182.617,-51.270,-54.688,-97.168,115.723
1678024727.714,-65.918,-49.316,-59.082,-104.004,-202.637
1678024727.718,5.859,-54.199,-64.941,-97.656,-167.480
1678024727.722,-102.539,-56.641,-67.383,-104.004,6.348
1678024727.726,-244.141,-56.152,-69.824,-122.559,-26.855
1678024727.728,-202.637,-55.176,-72.266,-118.652,-165.527
1678024727.732,-87.402,-58.105,-72.266,-116.699,-149.414
1678024727.736,-13.672,-62.012,-73.242,-105.957,91.797
1678024727.740,-95.215,-64.941,-70.801,-107.422,13.184
1678024727.744,-236.328,-62.500,-71.289,-117.188,-181.152
1678024727.748,-216.309,-62.012,-75.684,-111.816,21.484
1678024727.752,-95.215,-65.430,-76.172,-110.352,172.852
1678024727.755,10.254,-64.453,-76.172,-112.793,-29.785
1678024727.759,-63.477,-64.941,-78.125,-115.723,-175.781
1678024727.763,-227.051,-64.453,-79.102,-122.070,-159.180
1678024727.767,-229.004,-68.359,-81.543,-117.188,-128.906
1678024727.771,-107.910,-67.383,-79.590,-106.445,-157.715
1678024727.774,-2.441,-64.453,-77.148,-111.328,-73.730
1678024727.778,-57.617,-65.918,-80.078,-117.188,25.879
1678024727.782,-210.938,-66.895,-78.125,-114.258,-67.383
1678024727.786,-223.145,-63.477,-72.266,-114.258,-183.594
1678024727.790,-114.746,-58.105,-72.266,-112.305,-175.293
1678024727.794,-12.207,-60.059,-72.754,-106.445,35.645
1678024727.798,-41.992,-61.523,-66.895,-99.609,96.191
1678024727.801,-187.988,-59.570,-65.430,-105.957,-48.340
1678024727.805,-235.352,-57.129,-70.312,-110.840,-169.434
1678024727.809,-133.301,-54.688,-65.430,-95.215,8.789
1678024727.813,-14.648,-56.641,-66.406,-92.285,71.289
1678024727.817,-28.320,-59.082,-70.801,-110.352,-114.258
1678024727.834,-162.109,-60.547,-67.871,-114.258,-114.258
1678024727.838,-223.633,-65.430,-64.941,-113.281,73.242
1678024727.842,-142.090,-63.477,-74.707,-112.305,-17.578
1678024727.846,-21.484,-60.547,-79.590,-104.980,-66.895
1678024727.850,-6.348,-60.547,-75.195,-92.773,58.594
1678024727.854,-137.695,-59.570,-72.754,-103.027,252.441
1678024727.858,-215.820,-62.500,-69.824,-121.094,113.281
1678024727.861,-140.625,-62.500,-70.801,-117.188,-144.043
1678024727.865,-28.809,-62.012,-65.430,-116.699,-76.660
1678024727.869,-0.977,-63.477,-66.406,-109.863,44.434
1678024727.873,-113.281,-64.941,-69.336,-97.168,2.930
1678024727.877,-212.402,-58.105,-64.941,-106.445,-62.988
1678024727.878,-167.969,-52.734,-62.500,-103.516,-8.789
1678024727.882,-58.105,-59.082,-61.035,-95.703,116.211
1678024727.886,-6.348,-62.988,-61.035,-100.586,-59.570
1678024727.890,-112.793,-62.988,-65.430,-101.074,-151.855
1678024727.894,-231.934,-64.453,-69.336,-103.516,-67.871
1678024727.898,-191.406,-62.012,-70.312,-110.352,-70.801
1678024727.902,-60.059,-59.082,-69.336,-108.398,-50.293
1678024727.905,12.695,-61.035,-71.777,-109.375,-32.715
1678024727.909,-83.984,-61.035,-66.406,-99.121,76.660
1678024727.913,-208.984,-60.059,-61.523,-93.750,168.945
1678024727.917,-187.500,-59.570,-66.895,-99.609,-117.188
1678024727.921,-71.777,-63.477,-64.453,-101.562,-204.590
1678024727.923,9.766,-62.012,-64.941,-102.539,31.250
1678024727.927,-68.848,-56.641,-65.430,-104.980,-64.453
1678024727.931,-198.242,-52.734,-59.082,-104.004,-227.539
1678024727.935,-187.988,-50.781,-59.082,-103.027,-133.789
1678024727.939,-68.848,-50.293,-63.477,-104.004,-121.582
1678024727.943,34.668,-49.805,-68.848,-100.098,-71.777
1678024727.947,-38.086,-49.805,-71.777,-114.746,22.949
1678024727.950,-193.359,-54.199,-67.383,-116.699,64.941
1678024727.954,-199.219,-62.012,-63.965,-96.680,268.066
1678024727.958,-87.402,-61.523,-64.941,-104.492,131.836
1678024727.962,11.719,-59.570,-65.918,-108.887,-114.746
1678024727.966,-41.992,-61.035,-62.012,-96.191,-77.148
1678024727.968,-187.988,-56.152,-49.316,-104.980,-88.379
1678024727.972,-212.891,-43.457,-49.316,-112.793,-149.414
1678024727.976,-112.305,-45.410,-64.941,-101.562,-136.719
1678024727.980,-3.418,-55.176,-67.383,-94.238,-61.523
1678024727.984,-26.367,-55.664,-65.430,-98.145,0.977
1678024727.988,-183.105,-49.805,-65.918,-123.047,9.277
1678024727.992,-265.625,-51.758,-59.082,-156.250,-88.867
1678024727.995,-212.891,-53.223,-64.941,-171.875,47.852
1678024727.999,-109.375,-57.617,-77.148,-193.848,94.727
1678024728.003,-129.883,-55.664,-83.984,-220.703,-102.051
1678024728.007,-323.730,-54.199,-79.102,-252.930,-121.582
1678024728.011,-432.129,-54.688,-79.102,-289.551,81.055
1678024728.013,-381.348,-54.688,-92.773,-330.078,28.320
1678024728.017,-271.973,-50.781,-98.633,-345.703,-183.105
1678024728.021,-265.137,-53.711,-99.609,-355.469,-117.188
1678024728.025,-408.691,-54.199,-99.609,-371.094,-92.773
1678024728.029,-486.328,-51.270,-93.750,-378.418,-210.938
1678024728.033,-418.457,-44.434,-88.867,-365.723,-215.820
1678024728.037,-280.762,-39.062,-92.773,-347.656,12.695
1678024728.040,-227.051,-41.504,-97.656,-324.219,230.957
1678024728.044,-341.797,-38.086,-99.609,-309.570,-5.859
1678024728.048,-430.176,-38.086,-95.703,-310.547,-132.812
1678024728.052,-363.770,-39.062,-91.797,-296.875,-104.980
1678024728.056,-226.074,-36.621,-93.750,-271.484,-107.910
1678024728.060,-149.902,-40.039,-93.262,-257.324,-10.742
1678024728.064,-234.375,-40.039,-91.797,-236.328,-60.547
1678024728.068,-323.730,-39.551,-90.820,-215.820,-55.664
1678024728.072,-271.973,-41.504,-84.961,-196.289,-54.688
1678024728.076,-137.695,-44.922,-83.984,-161.621,-148.926
1678024728.080,-32.715,-45.410,-81.055,-136.719,-60.547
1678024728.084,-102.051,-42.480,-79.102,-115.234,224.121
1678024728.087,-224.121,-44.434,-74.707,-85.449,194.336
1678024728.091,-186.035,-47.363,-70.801,-62.500,-108.887
1678024728.095,-44.434,-42.969,-62.500,-49.316,-43.457
1678024728.099,64.941,-42.969,-55.664,-38.574,180.664
1678024728.103,0.977,-47.363,-59.570,-35.156,30.762
1678024728.118,-129.395,-48.340,-58.594,-34.668,-221.680
1678024728.122,-122.070,-48.340,-52.246,-14.648,-169.922
1678024728.126,0.977,-49.316,-48.340,5.371,8.301
1678024728.130,115.234,-52.734,-42.480,17.578,-37.109
1678024728.134,59.570,-56.152,-37.598,23.438,-124.023
1678024728.138,-86.914,-57.617,-41.504,19.043,-125.488
1678024728.142,-92.773,-51.758,-44.434,29.785,259.277
1678024728.145,22.461,-51.270,-40.527,31.250,245.605
1678024728.149,143.066,-56.152,-37.598,42.480,-125.977
1678024728.153,103.516,-60.059,-34.180,48.828,-141.113
1678024728.157,-45.898,-58.594,-35.645,42.969,-116.211
1678024728.161,-65.918,-60.059,-39.551,55.176,-150.879
1678024728.164,30.762,-59.570,-37.598,58.594,-186.523
1678024728.168,145.996,-57.617,-35.156,69.336,-132.324
1678024728.172,135.254,-63.477,-34.668,81.055,-71.777
1678024728.176,-8.301,-63.477,-36.621,62.988,-139.160
1678024728.180,-61.523,-58.105,-29.297,57.617,-112.305
1678024728.184,27.344,-55.664,-23.926,71.777,119.141
1678024728.188,142.578,-55.176,-23.926,84.473,170.898
1678024728.191,146.484,-53.711,-25.879,89.355,65.918
1678024728.195,7.812,-55.176,-29.297,73.730,-96.680
1678024728.199,-63.965,-58.105,-30.762,67.383,107.910
1678024728.203,14.648,-57.617,-33.203,67.871,188.965
1678024728.207,145.996,-53.711,-32.227,62.988,-97.656
1678024728.208,177.246,-48.340,-29.297,63.965,-31.738
1678024728.212,43.945,-46.875,-26.367,65.430,84.961
1678024728.216,-48.340,-48.828,-22.949,66.406,-67.383
1678024728.220,5.859,-54.199,-20.996,61.523,-113.281
1678024728.224,120.117,-57.129,-24.414,62.012,-56.641
1678024728.228,158.691,-57.129,-29.297,64.941,-30.273
1678024728.232,32.227,-58.105,-31.250,56.641,-71.777
1678024728.235,-68.848,-53.223,-31.738,57.617,-191.406
1678024728.239,-19.043,-47.363,-35.645,64.453,-95.215
1678024728.243,101.562,-47.363,-34.180,74.219,234.375
1678024728.247,161.133,-48.828,-30.762,81.055,145.020
1678024728.251,63.965,-46.387,-27.832,56.641,-103.516
1678024728.253,-55.176,-45.410,-27.344,46.875,-123.535
1678024728.257,-39.551,-48.340,-31.250,49.316,-104.492
1678024728.261,76.172,-49.805,-33.203,45.898,-72.754
1678024728.265,154.297,-49.316,-32.227,45.898,-72.754
1678024728.269,46.875,-49.316,-27.832,41.992,-48.340
1678024728.273,-87.402,-54.688,-25.879,38.086,9.766
1678024728.277,-64.941,-56.152,-31.250,41.504,15.137
1678024728.280,41.504,-48.828,-33.691,47.363,-52.734
1678024728.284,129.395,-43.457,-36.621,46.387,115.723
1678024728.288,62.500,-38.086,-33.691,43.457,203.613
1678024728.292,-78.613,-37.109,-31.738,40.039,62.500
1678024728.296,-80.566,-41.016,-34.668,30.762,-25.391
1678024728.298,34.668,-43.457,-33.203,28.320,132.812
1678024728.302,131.836,-47.852,-29.297,27.832,116.211
1678024728.306,68.359,-50.293,-28.320,21.484,-112.305
1678024728.310,-80.078,-51.270,-33.691,18.555,-135.254
1678024728.314,-96.191,-55.176,-36.621,11.719,-99.609
1678024728.318,13.184,-56.641,-31.738,9.766,9.766
1678024728.322,117.676,-52.246,-30.762,1.953,19.043
1678024728.325,77.148,-51.270,-35.156,-3.418,10.742
1678024728.329,-69.336,-50.781,-35.156,2.930,167.969
1678024728.333,-95.703,-46.387,-39.062,-3.418,-49.805
1678024728.337,3.418,-40.527,-36.133,-2.930,-204.102
1678024728.341,124.023,-40.527,-31.738,8.789,-20.996
1678024728.343,115.234,-41.016,-36.133,13.184,3.418
1678024728.347,-36.621,-38.086,-32.715,5.371,-118.164
1678024728.351,-103.027,-40.039,-33.691,-5.371,-143.066
1678024728.355,-24.414,-38.086,-37.109,-1.465,-69.824
1678024728.359,83.496,-37.598,-33.691,6.348,-34.668
1678024728.363,86.426,-38.574,-27.832,5.859,-75.684
1678024728.367,-46.387,-37.109,-27.832,-0.488,-65.918
1678024728.370,-125.000,-43.945,-34.668,-5.859,133.301
1678024728.374,-52.246,-46.875,-34.668,-7.324,130.859
1678024728.378,72.266,-40.527,-27.344,-0.488,-145.020
1678024728.382,96.191,-36.133,-25.391,4.883,-71.777
1678024728.386,-37.598,-39.551,-27.832,-1.953,95.215
1678024728.389,-135.742,-43.457,-29.297,-5.371,-100.586
1678024728.393,-88.379,-41.504,-28.809,-6.836,-247.559
1678024728.397,27.832,-40.039,-30.273,-0.977,-79.102
1678024728.401,82.520,-42.480,-37.598,4.395,-10.254
1678024728.405,-21.484,-39.062,-37.598,-3.906,-113.770
1678024728.409,-131.836,-36.133,-32.715,-2.441,-74.707
1678024728.413,-100.098,-40.039,-36.133,-6.348,91.797
1678024728.416,17.090,-40.039,-40.039,-7.812,300.293
1678024728.420,75.195,-41.504,-40.039,-16.602,77.148
1678024728.424,-30.273,-44.922,-42.969,-35.645,-122.559
1678024728.428,-151.367,-43.457,-41.016,-26.367,-60.059
1678024728.432,-117.676,-40.039,-38.086,-14.648,-115.234
1678024728.434,13.672,-37.598,-36.621,-15.137,-149.902
1678024728.438,95.215,-37.598,-37.109,-20.508,-65.430
1678024728.442,3.906,-41.016,-38.086,-25.391,-3.418
1678024728.446,-129.883,-41.992,-38.086,-31.250,-105.957
1678024728.450,-117.676,-41.016,-33.691,-33.203,-103.027
1678024728.454,-8.301,-41.016,-33.203,-23.438,-34.180
1678024728.458,81.543,-44.922,-39.551,-21.973,221.191
1678024728.461,5.371,-52.734,-43.945,-34.668,345.215
1678024728.465,-137.207,-51.758,-43.945,-38.086,-37.109
1678024728.469,-128.418,-50.781,-41.504,-39.551,-199.219
1678024728.473,-26.367,-53.711,-40.039,-44.434,11.719
1678024728.477,73.730,-52.734,-41.504,-46.387,29.297
1678024728.493,22.949,-48.828,-42.969,-47.852,-116.699
1678024728.497,-131.836,-43.457,-43.945,-49.805,-137.695
1678024728.501,-144.531,-41.016,-47.363,-44.922,-67.383
1678024728.505,-38.574,-35.156,-46.875,-43.945,-104.492
1678024728.509,75.195,-38.574,-41.504,-43.457,-158.203
1678024728.513,53.223,-46.387,-42.969,-39.062,53.711
1678024728.517,-107.910,-48.340,-41.016,-35.156,263.672
1678024728.520,-151.367,-47.363,-36.621,-40.039,61.523
1678024728.524,-53.711,-49.316,-37.109,-53.711,-176.270
1678024728.528,61.035,-51.270,-38.574,-51.758,-129.883
1678024728.532,52.246,-50.293,-41.016,-53.223,49.805
1678024728.536,-90.820,-46.875,-41.016,-68.359,-67.871
1678024728.538,-149.902,-40.039,-37.109,-55.664,-183.594
1678024728.542,-73.242,-41.016,-36.133,-50.293,-114.746
1678024728.546,42.480,-40.527,-37.109,-53.711,-102.539
1678024728.550,65.918,-36.133,-35.645,-41.992,-139.648
1678024728.554,-62.988,-39.551,-35.645,-41.992,-113.281
1678024728.558,-162.598,-45.898,-37.598,-59.082,-15.137
1678024728.562,-101.074,-48.828,-33.691,-68.359,3.418
1678024728.565,24.414,-45.898,-34.668,-62.988,-101.562
1678024728.569,65.918,-39.551,-36.133,-55.664,-153.320
1678024728.573,-60.547,-48.828,-37.109,-56.641,160.645
1678024728.577,-165.527,-50.293,-39.551,-45.898,468.750
1678024728.581,-108.398,-43.457,-41.992,-49.805,153.320
1678024728.583,10.742,-45.410,-44.922,-53.711,-118.164
1678024728.587,66.406,-44.922,-44.922,-41.504,-84.473
1678024728.591,-42.969,-48.340,-42.969,-44.434,-145.508
1678024728.595,-160.156,-50.781,-41.016,-44.922,-184.082
1678024728.599,-125.488,-49.805,-37.598,-55.664,-122.559
1678024728.603,-12.695,-50.293,-36.133,-64.453,-52.734
1678024728.607,55.176,-48.340,-40.527,-57.129,-20.020
1678024728.610,-42.969,-51.270,-42.480,-64.453,-120.605
1678024728.614,-178.223,-53.223,-38.574,-70.312,-119.141
1678024728.618,-160.156,-54.199,-41.992,-61.523,175.293
1678024728.622,-38.086,-54.199,-45.410,-56.152,32.715
1678024728.626,48.340,-51.270,-41.504,-54.199,-184.082
1678024728.628,-25.879,-50.781,-40.039,-59.570,-81.055
1678024728.632,-161.133,-51.270,-36.133,-58.594,-67.383
1678024728.636,-160.645,-53.223,-35.645,-55.664,-82.520
1678024728.640,-47.852,-57.617,-37.109,-55.664,-115.723
1678024728.644,49.316,-59.570,-34.180,-51.758,-65.430
1678024728.648,-24.414,-58.105,-35.156,-54.199,61.035
1678024728.652,-177.246,-55.664,-42.480,-62.500,16.113
1678024728.655,-179.199,-51.758,-47.363,-64.941,-103.516
1678024728.659,-72.266,-45.898,-42.480,-68.359,62.012
1678024728.663,36.621,-41.504,-42.480,-63.965,142.090
1678024728.667,-4.395,-42.969,-43.457,-67.871,-14.648
1678024728.671,-159.180,-43.457,-42.480,-78.125,-51.270
1678024728.675,-180.176,-42.969,-38.086,-72.754,76.660
1678024728.679,-69.336,-42.969,-34.668,-72.754,-5.371
1678024728.683,41.504,-40.527,-30.762,-66.895,-110.352
1678024728.687,9.277,-39.062,-29.297,-63.477,-38.574
1678024728.691,-139.648,-39.062,-31.250,-69.824,29.297
1678024728.695,-180.176,-42.480,-32.227,-72.754,3.418
1678024728.699,-97.168,-44.922,-31.738,-69.336,-50.293
1678024728.702,15.625,-43.945,-27.832,-61.523,-4.395
1678024728.706,14.648,-43.457,-20.996,-54.199,231.934
1678024728.710,-130.371,-39.062,-23.926,-74.219,10.742
1678024728.714,-199.707,-40.039,-23.926,-95.703,-222.656
1678024728.718,-124.023,-44.434,-25.391,-96.680,-114.258
1678024728.718,-6.836,-44.434,-26.855,-97.168,-108.398
1678024728.722,12.207,-44.434,-29.785,-96.680,-111.816
1678024728.726,-114.746,-39.062,-31.250,-89.355,-169.922
1678024728.730,-203.125,-30.273,-28.320,-88.867,-83.984
1678024728.734,-141.113,-27.832,-26.855,-95.215,-26.367
1678024728.738,-19.531,-26.367,-24.902,-90.332,-56.152
1678024728.742,5.859,-23.438,-21.484,-82.031,-33.203
1678024728.745,-124.023,-28.320,-23.438,-81.543,106.934
1678024728.749,-220.703,-30.273,-24.414,-83.008,260.742
1678024728.753,-168.945,-25.391,-20.508,-93.750,-9.766
1678024728.757,-51.758,-26.367,-20.996,-96.191,-61.035
1678024728.761,8.301,-27.344,-27.344,-87.891,179.688
1678024728.763,-95.703,-29.297,-30.273,-97.656,-0.488
1678024728.767,-208.496,-29.785,-31.250,-102.051,-201.660
1678024728.771,-168.457,-26.855,-30.273,-104.980,-178.711
1678024728.775,-45.898,-28.809,-32.227,-97.656,-114.746
1678024728.779,29.297,-31.738,-37.109,-93.750,-79.590
1678024728.783,-62.500,-27.344,-28.809,-100.098,-139.648
1678024728.787,-198.242,-28.320,-27.344,-101.562,-92.285
1678024728.790,-192.871,-35.156,-39.062,-108.398,281.250
1678024728.794,-79.590,-37.598,-39.551,-118.164,141.113
1678024728.798,9.277,-35.645,-40.527,-121.582,-195.312
1678024728.802,-80.566,-37.109,-46.387,-121.094,-143.555
1678024728.806,-218.262,-36.621,-42.969,-119.629,-109.863
1678024728.808,-200.684,-36.133,-38.574,-115.234,-156.738
1678024728.812,-86.914,-37.109,-41.016,-116.211,-153.320
1678024728.816,12.695,-38.574,-41.992,-113.770,-3.418
1678024728.820,-51.758,-36.621,-36.133,-113.770,-1.953
1678024728.824,-208.984,-35.156,-34.180,-112.793,-126.953
1678024728.828,-231.445,-35.645,-42.480,-114.258,-110.840
1678024728.832,-126.953,-35.645,-38.086,-106.445,176.758
1678024728.835,-22.461,-37.598,-37.109,-98.633,160.645
1678024728.839,-57.129,-39.062,-44.922,-110.352,-114.746
1678024728.843,-205.566,-38.574,-43.945,-122.070,-111.328
1678024728.847,-236.816,-38.574,-40.039,-116.699,132.812
1678024728.851,-135.742,-43.457,-41.504,-109.375,142.578
1678024728.853,-18.066,-46.387,-42.969,-114.258,-113.281
1678024728.857,-34.180,-42.480,-41.992,-114.258,-144.531
1678024728.861,-189.941,-39.551,-37.598,-118.164,-94.727
1678024728.865,-241.211,-40.527,-36.621,-123.535,-128.906
1678024728.869,-150.879,-36.621,-36.621,-121.582,-217.773
1678024728.873,-40.527,-34.668,-39.062,-112.793,14.648
1678024728.877,-45.410,-33.203,-35.156,-108.887,271.484
1678024728.880,-188.477,-35.645,-37.109,-128.418,-40.039
1678024728.884,-281.250,-43.945,-41.992,-162.109,-168.945
1678024728.888,-240.723,-45.410,-44.434,-184.082,-12.695
1678024728.892,-142.578,-41.992,-44.922,-180.664,-7.324
1678024728.896,-153.809,-38.086,-54.199,-213.867,-61.523
1678024728.928,-317.383,-32.715,-75.195,-264.648,-93.750
1678024728.932,-453.613,-34.668,-81.543,-312.988,0.488
1678024728.936,-447.754,-41.016,-84.961,-367.188,-34.668
1678024728.940,-356.934,-28.320,-93.750,-393.555,-163.086
1678024728.944,-332.520,-10.742,-94.727,-409.668,-112.305
1678024728.948,-472.168,-10.742,-98.633,-438.965,61.035
1678024728.952,-597.168,-22.461,-99.609,-458.984,43.945
1678024728.955,-548.828,-17.090,-94.727,-463.867,-94.727
1678024728.959,-428.711,-4.883,-97.168,-458.008,-104.492
1678024728.963,-362.305,-5.859,-91.309,-441.406,113.770
1678024728.967,-461.426,-9.766,-91.797,-436.523,170.898
1678024728.971,-566.406,-9.277,-103.027,-426.758,-116.211
1678024728.958,-508.301,-3.418,-94.727,-408.203,-182.129
1678024728.962,-386.719,-1.465,-81.055,-392.090,122.070
1678024728.966,-301.758,-2.441,-74.707,-382.324,77.637
1678024728.970,-376.953,-1.953,-83.984,-377.930,-161.133
1678024728.974,-498.535,-6.348,-84.961,-355.469,-115.234
1678024728.978,-460.449,-10.254,-67.871,-341.309,-29.297
1678024728.982,-330.566,-8.301,-70.801,-325.195,-27.344
1678024728.985,-217.285,-9.766,-74.219,-288.086,-75.195
1678024728.989,-266.602,-24.414,-80.566,-270.020,-67.383
1678024728.993,-395.020,-39.551,-97.656,-261.230,-17.578
1678024728.997,-375.000,-45.410,-91.309,-241.699,-94.238
1678024729.001,-241.211,-46.387,-85.449,-218.262,-184.570
1678024729.004,-116.699,-48.828,-78.125,-193.848,-20.996
1678024729.008,-132.812,-47.852,-68.848,-165.527,86.914
1678024729.012,-256.348,-42.969,-67.871,-153.320,-88.379
1678024729.016,-260.254,-46.387,-65.918,-133.301,-177.734
1678024729.020,-129.883,-48.828,-64.453,-104.004,41.504
1678024729.024,5.371,-41.016,-55.664,-72.266,436.523
1678024729.028,-8.301,-36.621,-50.293,-57.129,128.906
1678024729.031,-146.973,-43.457,-52.734,-57.617,-159.668
1678024729.035,-171.387,-46.875,-46.387,-34.180,34.180
1678024729.039,-62.012,-41.504,-40.039,-13.672,122.070
1678024729.043,63.477,-41.992,-37.598,-12.207,-30.273
1678024729.047,55.664,-46.875,-35.156,-15.137,-68.848
1678024729.048,-81.543,-47.852,-27.832,-8.301,102.051
1678024729.052,-124.023,-43.457,-20.996,5.371,14.160
1678024729.056,-38.574,-41.504,-21.484,13.184,-143.066
1678024729.060,79.590,-43.457,-20.508,13.672,-95.215
1678024729.064,95.215,-42.969,-20.020,15.137,-25.879
1678024729.068,-25.391,-40.527,-12.207,12.695,-50.781
1678024729.072,-95.215,-35.645,-6.348,13.672,-100.098
1678024729.075,-23.438,-36.133,-11.230,15.625,36.621
1678024729.079,108.398,-40.527,-6.836,31.250,274.902
1678024729.083,144.043,-41.992,-6.348,43.945,109.863
1678024729.087,16.113,-43.457,-12.207,28.809,-147.949
1678024729.091,-78.125,-42.969,-9.277,19.043,-122.559
1678024729.093,-14.648,-42.969,-8.789,13.672,-56.152
1678024729.097,93.262,-43.457,-11.230,3.418,-20.996
1678024729.101,124.512,-45.898,-10.254,9.766,-36.621
1678024729.105,11.719,-42.969,-4.395,27.832,-29.785
1678024729.109,-95.215,-34.668,-5.859,22.949,-122.559
1678024729.113,-48.828,-32.715,-3.906,20.996,-114.258
1678024729.117,68.359,-33.691,0.488,25.879,-28.320
1678024729.120,118.652,-35.645,-4.883,35.156,129.395
1678024729.124,23.926,-34.668,1.953,36.133,189.941
1678024729.128,-95.215,-38.086,8.301,23.926,-103.027
1678024729.132,-71.777,-35.645,-0.488,14.160,-146.484
1678024729.136,42.480,-30.273,0.977,17.578,123.047
1678024729.138,116.211,-35.156,2.441,10.742,103.027
1678024729.142,35.156,-34.180,-3.418,-10.742,-130.859
1678024729.146,-108.398,-32.715,-11.230,-17.578,-141.113
1678024729.150,-99.609,-31.738,-4.883,-14.648,-148.438
1678024729.154,27.344,-26.367,3.906,-1.953,-203.613
1678024729.158,119.629,-21.484,-5.371,1.953,-104.004
1678024729.162,41.504,-19.043,-11.230,-3.418,43.457
1678024729.165,-111.816,-17.090,-4.883,-15.137,187.012
1678024729.169,-121.582,-19.043,-5.859,-29.785,3.418
1678024729.173,-12.207,-21.973,-12.695,-33.691,-185.547
1678024729.177,81.543,-23.926,-12.207,-31.738,-25.879
1678024729.181,28.320,-22.949,-11.719,-35.156,-2.930
1678024729.183,-122.070,-24.902,-20.508,-51.758,-208.984
1678024729.187,-149.414,-26.855,-22.949,-63.965,-231.934
1678024729.191,-48.340,-25.879,-22.949,-66.895,-54.688
1678024729.195,61.035,-26.855,-31.738,-65.430,10.742
1678024729.199,27.344,-26.367,-28.320,-70.801,-7.324
1678024729.203,-132.812,-22.461,-22.949,-70.312,0.000
1678024729.207,-181.641,-19.043,-23.438,-62.012,155.273
1678024729.210,-91.797,-23.926,-26.367,-65.918,177.246
1678024729.214,24.902,-22.949,-23.926,-66.895,-73.242
1678024729.218,17.578,-18.555,-17.090,-61.035,-76.172
1678024729.222,-128.418,-18.066,-20.508,-63.965,25.391
1678024729.226,-191.406,-20.508,-27.832,-76.660,-99.121
1678024729.229,-104.980,-19.531,-29.785,-84.473,-133.301
1678024729.233,15.625,-20.508,-29.785,-76.172,-12.695
1678024729.237,22.461,-21.484,-30.273,-78.125,149.414
1678024729.241,-111.328,-18.555,-30.273,-89.355,25.391
1678024729.245,-197.266,-18.066,-28.809,-94.727,-153.809
1678024729.249,-136.230,-19.043,-26.855,-88.379,-29.297
1678024729.253,-15.625,-21.484,-26.855,-81.543,72.754
1678024729.256,20.996,-25.391,-28.809,-79.590,38.086
1678024729.260,-105.957,-26.367,-31.738,-85.449,-126.953
1678024729.264,-211.426,-23.438,-29.297,-91.797,-197.266
1678024729.268,-155.273,-17.578,-29.297,-83.984,-50.781
1678024729.272,-31.250,-15.137,-31.250,-79.590,-120.117
1678024729.289,27.832,-16.602,-29.297,-74.219,-157.227
1678024729.293,-81.543,-15.137,-30.273,-73.730,-85.449
1678024729.297,-198.730,-13.672,-31.250,-77.637,-132.324
1678024729.301,-162.598,-16.602,-31.250,-74.707,-145.508
1678024729.305,-49.316,-13.184,-31.250,-77.148,-127.930
1678024729.309,13.672,-9.277,-30.762,-73.242,95.703
1678024729.313,-88.867,-13.184,-32.715,-71.777,274.414
1678024729.316,-203.613,-12.207,-39.062,-83.008,-7.812
1678024729.320,-172.363,-7.812,-34.668,-78.125,-91.309
1678024729.324,-61.523,-8.301,-29.297,-66.895,96.680
1678024729.328,23.926,-4.883,-31.250,-65.918,75.684
1678024729.332,-66.406,-10.254,-33.691,-74.707,-133.301
1678024729.333,-198.242,-16.113,-37.109,-76.660,-170.410
1678024729.337,-175.293,-2.930,-39.551,-68.848,21.973
1678024729.341,-77.637,-3.906,-36.133,-77.148,-81.543
1678024729.345,14.160,-10.254,-35.156,-71.777,-191.895
1678024729.349,-48.340,-9.766,-37.598,-75.195,-121.582
1678024729.353,-202.148,-8.301,-34.668,-86.914,-85.449
1678024729.357,-205.078,0.000,-35.156,-74.707,-4.883
1678024729.360,-100.586,-0.977,-38.086,-77.148,21.484
1678024729.364,10.254,-9.277,-33.203,-73.242,40.039
1678024729.368,-31.738,-15.137,-26.855,-56.152,261.230
1678024729.372,-188.477,-15.137,-27.344,-63.965,106.934
1678024729.376,-213.867,-14.648,-28.809,-75.684,-168.457
1678024729.379,-114.258,-16.113,-29.297,-79.102,-127.441
1678024729.383,-3.906,-12.695,-29.785,-73.730,-125.488
1678024729.387,-29.785,-7.324,-22.949,-69.336,-173.340
1678024729.391,-187.012,-12.207,-19.531,-80.078,-172.363
1678024729.395,-238.770,-17.090,-17.090,-87.402,-112.793
1678024729.399,-142.578,-9.766,-25.391,-77.148,-1.465
1678024729.403,-23.438,-11.719,-31.250,-66.406,64.453
1678024729.406,-17.578,-16.113,-27.832,-67.383,77.637
1678024729.410,-153.809,-11.719,-29.297,-73.730,184.082
1678024729.414,-224.609,-19.043,-28.809,-78.613,284.180
1678024729.418,-141.602,-18.066,-29.785,-82.031,70.312
1678024729.422,-16.113,-9.277,-28.320,-78.125,-58.594
1678024729.423,1.953,-11.230,-27.344,-89.844,107.422
1678024729.427,-125.977,-15.625,-34.668,-97.656,-19.043
1678024729.431,-211.426,-16.602,-40.039,-99.121,-230.957
1678024729.435,-150.879,-17.090,-35.645,-101.562,-188.965
1678024729.439,-30.273,-19.043,-30.762,-96.680,-101.562
1678024729.443,5.859,-18.066,-41.992,-91.797,-24.902
1678024729.447,-114.258,-18.555,-42.969,-102.539,-33.691
1678024729.450,-219.238,-21.973,-35.645,-109.375,-83.008
1678024729.454,-183.594,-23.926,-42.480,-96.191,104.004
1678024729.458,-63.477,-21.484,-40.039,-98.145,5.859
1678024729.462,5.371,-14.648,-36.621,-104.492,-142.090
1678024729.466,-98.145,-18.066,-37.109,-105.469,-72.266
1678024729.468,-213.379,-23.438,-33.691,-100.586,-47.363
1678024729.472,-178.711,-25.391,-38.574,-95.703,-97.656
1678024729.476,-58.105,-17.578,-33.691,-91.309,-86.426
1678024729.480,19.043,-16.113,-30.273,-82.520,4.883
1678024729.484,-73.730,-20.996,-29.297,-83.008,-73.242
1678024729.488,-211.426,-22.949,-36.621,-95.703,-170.410
1678024729.492,-198.242,-26.367,-41.992,-96.191,-72.754
1678024729.495,-78.613,-20.996,-35.156,-87.891,125.488
1678024729.499,16.602,-12.695,-34.180,-85.449,101.562
1678024729.503,-64.453,-7.324,-31.738,-86.426,-108.887
1678024729.507,-203.613,-7.812,-30.762,-92.285,-25.879
1678024729.511,-199.707,-12.695,-32.715,-98.145,128.418
1678024729.514,-83.496,-12.695,-32.227,-97.656,55.664
1678024729.518,16.602,-11.230,-31.250,-95.703,-125.977
1678024729.522,-52.246,-13.672,-36.621,-106.445,-62.988
1678024729.526,-203.125,-14.160,-36.621,-108.887,76.172
1678024729.530,-216.797,-16.113,-34.668,-108.398,-65.430
1678024729.534,-105.957,-15.137,-38.574,-103.516,-84.961
1678024729.538,-0.488,-13.184,-32.227,-93.750,86.426
1678024729.541,-45.410,-15.625,-24.414,-98.145,276.855
1678024729.545,-193.848,-11.719,-32.715,-105.957,56.641
1678024729.549,-230.957,-15.625,-33.691,-108.887,-212.891
1678024729.553,-136.230,-20.996,-33.691,-113.770,-120.605
1678024729.557,-8.789,-13.672,-32.715,-112.305,-104.980
1678024729.559,-22.461,-14.648,-34.180,-117.188,-131.836
1678024729.563,-177.734,-18.066,-37.598,-130.371,-116.211
1678024729.567,-231.445,-21.973,-32.715,-132.324,-45.410
1678024729.571,-144.531,-18.555,-31.250,-120.605,-17.578
1678024729.575,-29.297,-12.207,-31.738,-105.957,-83.984
1678024729.579,-21.973,-14.648,-35.645,-104.004,-84.473
1678024729.583,-161.133,-12.207,-39.551,-98.145,125.000
1678024729.586,-235.352,-12.207,-35.156,-95.215,233.398
1678024729.590,-155.762,-16.113,-37.109,-106.934,-119.141
1678024729.594,-32.227,-17.090,-45.410,-106.934,-163.574
1678024729.598,-7.324,-16.113,-42.969,-98.145,128.418
1678024729.602,-128.418,-15.625,-37.109,-93.750,-3.418
1678024729.603,-222.656,-23.438,-38.086,-101.562,-228.027
1678024729.607,-170.898,-29.785,-39.551,-110.352,-163.574
1678024729.611,-45.898,-22.949,-34.668,-97.656,-6.836
1678024729.615,-9.766,-17.578,-35.156,-96.680,-55.664
1678024729.619,-125.977,-15.137,-38.574,-109.375,-194.824
1678024729.623,-232.422,-19.531,-43.457,-111.816,-96.191
1678024729.627,-196.289,-21.973,-45.410,-103.516,187.500
1678024729.630,-75.195,-24.902,-48.340,-102.051,41.992
1678024729.634,-8.789,-22.461,-44.922,-105.957,-174.805
1678024729.638,-109.863,-20.020,-42.480,-102.051,-68.359
1678024729.642,-233.887,-26.855,-43.945,-97.656,-1.953
1678024729.646,-210.449,-36.133,-38.086,-103.027,-172.852
1678024729.664,-95.215,-33.203,-34.180,-110.840,-189.941
1678024729.668,-17.578,-32.715,-34.668,-103.516,-77.637
1678024729.672,-109.375,-37.598,-39.062,-107.422,-98.145
1678024729.676,-248.535,-35.645,-42.480,-114.746,-196.289
1678024729.680,-218.750,-30.762,-41.992,-105.957,-201.172
1678024729.684,-94.727,-29.297,-41.992,-101.074,71.777
1678024729.688,-9.277,-32.227,-44.434,-99.609,90.820
1678024729.691,-77.148,-28.809,-44.434,-100.098,-44.922
1678024729.695,-224.121,-28.809,-44.434,-110.352,-100.586
1678024729.699,-221.191,-32.227,-51.270,-111.328,-32.715
1678024729.703,-98.145,-28.809,-46.387,-103.516,17.090
1678024729.707,1.953,-29.297,-44.922,-105.469,-45.898
1678024729.708,-55.176,-36.133,-48.828,-108.887,-105.957
1678024729.712,-210.449,-32.227,-45.898,-118.652,95.703
1678024729.716,-231.445,-27.832,-45.410,-115.234,333.984
1678024729.720,-122.559,-32.227,-45.410,-112.793,61.035
1678024729.724,-10.742,-33.691,-41.992,-115.723,-78.613
1678024729.728,-41.504,-32.227,-48.828,-114.258,77.148
1678024729.732,-188.477,-32.715,-56.641,-124.023,-16.602
1678024729.735,-234.863,-27.832,-53.223,-121.582,-164.062
1678024729.739,-138.672,-24.902,-54.199,-110.840,-142.090
1678024729.743,-20.508,-26.855,-53.711,-99.121,254.883
1678024729.747,-30.762,-27.832,-49.316,-90.332,235.352
1678024729.751,-181.152,-28.320,-46.387,-104.004,-145.020
1678024729.753,-243.652,-27.344,-46.875,-108.887,-120.605
1678024729.757,-156.250,-29.297,-51.270,-99.121,-83.008
1678024729.761,-39.062,-30.273,-49.805,-100.098,-167.969
1678024729.765,-26.367,-28.809,-47.852,-104.980,-137.695
1678024729.769,-154.785,-28.809,-52.734,-105.957,-82.031
1678024729.773,-235.352,-27.832,-46.875,-107.422,-2.441
1678024729.777,-176.270,-22.949,-33.203,-110.840,-8.789
1678024729.780,-50.293,-23.438,-40.039,-112.793,-39.551
1678024729.784,-20.020,-21.484,-47.363,-108.887,171.875
1678024729.788,-162.598,-21.973,-44.922,-121.582,155.273
1678024729.792,-277.344,-24.902,-53.223,-146.484,-135.742
1678024729.796,-248.535,-27.832,-62.500,-175.293,-146.973
1678024729.813,-143.555,-21.484,-61.523,-188.965,124.023
1678024729.817,-108.398,-12.207,-62.500,-209.473,118.164
1678024729.821,-277.832,-20.996,-78.613,-283.203,-176.758
1678024729.825,-443.848,-18.555,-93.262,-340.332,-216.797
1678024729.829,-422.363,-12.207,-102.539,-362.793,-144.531
1678024729.833,-334.473,-17.090,-113.770,-406.738,-33.691
1678024729.837,-306.152,-11.230,-125.488,-454.102,-7.812
1678024729.840,-434.570,-4.883,-125.488,-483.398,13.672
1678024729.844,-583.008,-9.277,-118.652,-490.723,186.035
1678024729.848,-562.988,-11.230,-124.512,-488.281,-8.789
1678024729.852,-430.664,-4.395,-119.141,-473.145,-158.203
1678024729.856,-327.148,-4.883,-108.398,-452.148,-61.035
1678024729.845,-404.297,-7.324,-108.887,-434.082,-76.660
1678024729.849,-536.133,-6.348,-112.305,-433.594,-73.730
1678024729.853,-512.207,-8.301,-109.863,-420.410,-38.086
1678024729.857,-375.488,-7.324,-111.328,-378.418,55.664
1678024729.861,-245.605,-4.883,-105.957,-336.426,5.859
1678024729.865,-291.992,-10.742,-94.238,-316.406,-124.512
1678024729.869,-417.480,-11.230,-91.309,-297.852,-116.211
1678024729.872,-387.207,-7.812,-87.891,-268.066,9.277
1678024729.876,-248.047,-14.648,-84.473,-240.723,-59.570
1678024729.880,-118.652,-19.043,-80.078,-213.379,-166.504
1678024729.884,-137.695,-12.695,-74.707,-186.523,-14.160
1678024729.888,-265.137,-16.113,-71.777,-160.645,163.574
1678024729.888,-266.113,-22.949,-69.336,-143.555,92.285
1678024729.892,-144.531,-22.949,-66.895,-126.953,-203.125
1678024729.896,-14.160,-24.414,-60.547,-102.051,-129.883
1678024729.900,-20.996,-29.297,-48.340,-80.566,114.258
1678024729.904,-150.391,-31.738,-44.434,-73.730,-9.766
1678024729.908,-185.547,-34.180,-53.223,-71.777,-65.430
1678024729.912,-88.379,-35.645,-47.363,-59.082,45.898
1678024729.915,41.504,-39.551,-40.527,-33.203,269.531
1678024729.919,50.293,-51.758,-41.504,-23.438,233.887
1678024729.923,-80.078,-58.594,-40.527,-25.879,-106.445
1678024729.927,-140.137,-54.199,-37.109,-12.695,-116.211
1678024729.931,-60.059,-57.129,-37.109,-10.742,-78.125
1678024729.933,72.266,-60.059,-32.227,1.465,-104.980
1678024729.937,95.215,-55.176,-24.414,20.996,-108.398
1678024729.941,-31.738,-51.270,-21.973,20.508,-81.543
1678024729.945,-101.562,-52.734,-26.855,20.508,-87.891
1678024729.949,-31.738,-55.176,-28.320,29.785,-112.793
1678024729.953,90.332,-50.293,-25.391,44.434,-43.945
1678024729.957,133.789,-48.828,-23.926,61.523,191.895
1678024729.960,15.625,-49.316,-24.902,53.711,227.539
1678024729.964,-81.055,-50.293,-23.438,35.645,-112.305
1678024729.968,-21.973,-50.781,-19.043,41.016,-220.703
1678024729.972,100.098,-52.734,-25.879,57.129,113.281
1678024729.976,155.273,-56.641,-29.785,59.570,145.020
1678024729.978,56.152,-51.758,-28.809,57.129,-137.207
1678024729.982,-75.195,-50.781,-25.391,51.758,-195.801
1678024729.986,-43.457,-52.246,-19.531,49.805,-137.207
1678024729.990,90.820,-49.316,-19.531,56.152,-94.238
1678024729.994,157.227,-46.875,-18.066,47.363,-95.703
1678024729.998,55.664,-43.457,-22.949,45.410,62.012
1678024730.002,-74.219,-42.969,-23.926,55.176,293.457
1678024730.005,-51.758,-45.410,-25.879,47.852,35.156
1678024730.009,62.988,-41.504,-27.832,42.480,-133.301
1678024730.013,141.113,-41.504,-21.484,51.758,79.590
1678024730.017,66.406,-40.039,-14.648,55.664,58.594
1678024730.021,-78.613,-36.133,-18.555,44.434,-156.250
1678024730.038,-80.078,-35.645,-22.461,39.062,-133.789
1678024730.042,34.668,-34.180,-19.531,41.992,-110.352
1678024730.046,123.047,-38.574,-19.043,35.645,-88.379
1678024730.050,51.758,-39.551,-24.902,30.762,-70.312
1678024730.054,-91.309,-40.527,-29.297,22.461,-117.676
1678024730.058,-94.238,-42.480,-28.320,16.602,36.621
1678024730.062,-1.953,-35.645,-29.297,15.625,39.062
1678024730.065,104.004,-31.738,-30.762,12.207,-84.473
1678024730.069,64.453,-31.250,-32.227,12.207,-118.164
1678024730.073,-100.098,-30.273,-28.809,4.395,66.406
1678024730.077,-126.953,-27.344,-27.832,-5.859,76.172
1678024730.081,-39.551,-30.762,-35.156,-17.090,-168.945
1678024730.083,65.430,-32.227,-36.621,-16.602,-85.449
1678024730.087,43.457,-28.320,-30.273,-12.695,135.742
1678024730.091,-117.676,-32.715,-31.738,-33.203,-18.555
1678024730.095,-165.039,-33.691,-38.086,-46.387,-219.238
1678024730.099,-79.102,-32.227,-37.598,-34.668,-170.410
1678024730.103,40.039,-29.297,-39.062,-22.949,6.836
1678024730.107,44.922,-23.926,-41.504,-20.020,79.590
1678024730.110,-110.352,-25.391,-41.504,-37.109,-93.750
1678024730.114,-185.547,-29.297,-43.945,-56.152,-86.426
1678024730.118,-105.957,-25.391,-38.574,-57.617,146.484
1678024730.122,17.578,-23.926,-36.133,-48.828,-67.383
1678024730.126,35.645,-28.809,-41.016,-50.781,-164.062
1678024730.129,-107.910,-31.250,-43.945,-62.500,-72.754
1678024730.133,-191.895,-33.691,-48.828,-66.895,-112.793
1678024730.137,-129.395,-30.762,-48.340,-72.266,-84.473
1678024730.141,-12.695,-25.391,-43.945,-72.754,-106.445
1678024730.145,32.715,-29.297,-41.016,-57.129,7.324
1678024730.149,-83.008,-30.273,-40.039,-58.594,94.238
1678024730.153,-192.383,-28.320,-42.969,-70.312,-43.457
1678024730.156,-150.391,-35.156,-45.410,-76.172,-147.461
1678024730.160,-33.203,-39.062,-49.316,-72.754,38.086
1678024730.164,20.020,-37.598,-52.734,-64.453,181.152
1678024730.168,-79.102,-33.203,-53.223,-77.148,-4.883
1678024730.172,-194.824,-26.855,-52.734,-82.031,-127.441
1678024730.173,-172.363,-26.855,-50.781,-69.824,4.883
1678024730.177,-57.617,-29.785,-53.223,-81.055,-52.734
1678024730.181,30.273,-28.809,-50.781,-82.031,-140.137
1678024730.185,-58.594,-31.250,-47.363,-72.754,-78.613
1678024730.189,-193.848,-31.738,-50.293,-82.031,-20.996
1678024730.193,-172.363,-33.203,-51.758,-95.215,-62.012
1678024730.197,-62.500,-34.668,-48.340,-100.098,-31.250
1678024730.200,29.297,-29.297,-44.434,-85.449,66.406
1678024730.204,-42.480,-26.367,-43.457,-75.195,235.352
1678024730.208,-185.059,-33.691,-44.434,-81.543,12.207
1678024730.212,-187.012,-39.551,-45.410,-76.660,-188.965
1678024730.216,-75.195,-36.133,-43.945,-71.777,-118.652
1678024730.218,23.438,-39.062,-45.410,-77.148,-93.262
1678024730.222,-37.109,-39.551,-44.434,-77.148,-172.852
1678024730.226,-187.988,-34.180,-45.898,-77.148,-223.145
1678024730.230,-196.777,-34.180,-54.199,-86.914,-170.410
1678024730.234,-91.797,-40.039,-52.246,-82.520,-153.809
1678024730.238,5.859,-44.922,-50.781,-76.660,-67.871
1678024730.242,-27.832,-44.434,-52.246,-84.473,-75.195
1678024730.245,-166.504,-39.551,-48.828,-83.008,168.457
1678024730.249,-209.473,-35.645,-50.781,-71.289,284.668
1678024730.253,-106.934,-36.133,-47.852,-66.406,-131.348
1678024730.257,17.578,-38.574,-49.316,-66.895,-116.211
1678024730.261,-6.836,-36.621,-57.617,-72.266,119.629
1678024730.263,-152.832,-39.551,-59.082,-79.590,-44.922
1678024730.267,-201.172,-42.480,-53.223,-80.566,-217.285
1678024730.271,-116.211,-40.039,-47.852,-74.707,-147.461
1678024730.275,-0.488,-39.551,-50.293,-73.730,41.992
1678024730.279,6.836,-44.434,-48.340,-72.754,-32.715
1678024730.283,-137.207,-52.734,-45.410,-79.590,-146.484
1678024730.287,-211.426,-49.805,-49.316,-84.961,21.484
1678024730.290,-138.672,-37.109,-48.340,-70.312,201.172
1678024730.294,-12.695,-30.273,-47.363,-70.801,32.227
1678024730.298,20.508,-30.762,-51.758,-75.195,-108.398
1678024730.302,-115.723,-32.715,-53.711,-76.660,-57.129
1678024730.306,-208.008,-36.621,-49.316,-78.613,-55.176
1678024730.308,-149.902,-42.480,-46.875,-87.402,-173.828
1678024730.312,-32.227,-41.992,-52.246,-83.496,-167.480
1678024730.316,15.625,-41.504,-51.758,-77.637,-33.691
1678024730.320,-98.145,-41.016,-47.852,-80.078,-44.434
1678024730.324,-208.496,-39.551,-48.340,-86.914,-136.719
1678024730.328,-160.156,-43.945,-54.199,-87.402,-41.504
1678024730.332,-36.133,-41.992,-57.129,-74.219,175.781
1678024730.335,26.855,-36.621,-51.758,-64.941,192.383
1678024730.339,-68.848,-37.598,-52.734,-71.777,-62.500
1678024730.343,-191.895,-37.598,-51.758,-74.219,-133.789
1678024730.347,-164.551,-35.645,-46.875,-72.754,-31.250
1678024730.351,-52.734,-37.598,-49.316,-80.078,-26.367
1678024730.353,21.973,-40.527,-53.223,-75.684,-128.418
1678024730.357,-65.918,-41.504,-57.129,-71.777,-122.559
1678024730.361,-213.379,-38.086,-54.688,-71.777,50.293
1678024730.365,-203.613,-39.551,-56.152,-78.613,-9.766
1678024730.369,-72.754,-39.551,-57.617,-85.938,-161.133
1678024730.373,25.879,-35.156,-54.688,-77.148,2.930
1678024730.377,-44.434,-39.062,-49.805,-74.219,219.727
1678024730.380,-190.918,-41.504,-48.340,-90.820,-26.367
1678024730.384,-194.824,-40.527,-54.199,-96.680,-180.664
1678024730.388,-89.844,-41.504,-58.594,-91.309,-92.285
1678024730.392,19.531,-37.598,-57.617,-80.566,-13.184
1678024730.396,-31.738,-40.039,-56.152,-77.637,-26.367
1678024730.399,-183.105,-41.016,-56.641,-78.613,-143.066
1678024730.403,-197.266,-38.086,-58.594,-72.754,42.969
1678024730.407,-94.727,-44.922,-54.688,-74.219,132.324
1678024730.411,20.020,-41.504,-52.734,-76.660,-150.879
1678024730.415,-8.301,-40.039,-57.129,-78.613,-187.500
1678024730.419,-160.156,-43.945,-58.594,-75.684,-33.203
1678024730.423,-196.289,-43.945,-62.012,-72.754,-10.254
1678024730.426,-106.445,-42.969,-65.430,-81.543,-172.852
1678024730.430,8.789,-43.457,-59.082,-80.566,-210.449
1678024730.434,-2.930,-40.039,-55.176,-68.848,119.629
1678024730.438,-148.438,-37.109,-57.617,-67.383,216.309
1678024730.442,-201.660,-41.016,-57.129,-82.031,-133.301
1678024730.459,-127.930,-40.527,-55.176,-95.703,-227.539
1678024730.463,-7.812,-36.133,-54.199,-88.379,-8.789
1678024730.467,14.160,-37.109,-55.664,-84.473,-38.574
1678024730.471,-119.629,-38.086,-56.152,-91.309,-92.773
1678024730.475,-196.289,-41.504,-53.223,-93.750,-11.719
1678024730.479,-128.906,-41.504,-54.688,-89.844,148.926
1678024730.483,-6.836,-37.598,-57.617,-83.008,86.426
1678024730.486,26.367,-35.156,-57.617,-77.148,-79.590
1678024730.490,-100.098,-40.039,-58.105,-83.984,-68.359
1678024730.494,-193.359,-40.527,-58.594,-84.961,62.500
1678024730.498,-140.625,-33.691,-54.688,-80.566,-123.535
1678024730.502,-25.391,-42.480,-60.059,-83.008,-227.539
1678024730.503,23.438,-47.363,-66.895,-72.754,-83.496
1678024730.507,-83.008,-42.969,-61.035,-75.195,-62.988
1678024730.511,-194.336,-43.945,-60.547,-86.426,-88.867
1678024730.515,-162.598,-46.875,-65.430,-95.215,-111.816
1678024730.519,-42.480,-43.945,-64.453,-95.215,-102.539
1678024730.523,29.785,-41.992,-61.523,-78.125,-48.828
1678024730.527,-69.336,-41.504,-62.012,-71.777,-42.969
1678024730.530,-197.266,-43.457,-62.988,-89.355,-90.820
1678024730.534,-174.316,-48.828,-62.988,-92.285,47.852
1678024730.538,-43.945,-49.316,-62.012,-88.379,189.453
1678024730.542,42.480,-46.387,-56.152,-87.402,-11.230
1678024730.546,-40.527,-49.316,-56.152,-82.031,-81.055
1678024730.548,-174.316,-51.270,-57.129,-85.449,66.406
1678024730.552,-166.992,-46.387,-53.223,-89.355,-59.570
1678024730.556,-48.828,-41.992,-52.246,-88.867,-168.457
1678024730.560,59.082,-36.133,-48.340,-73.242,-68.359
1678024730.564,-19.531,-37.109,-44.922,-69.336,-56.641
1678024730.568,-182.129,-38.574,-48.340,-78.613,-45.898
1678024730.572,-187.500,-40.039,-46.875,-81.055,-6.348
1678024730.575,-79.590,-42.969,-49.805,-86.914,-53.711
1678024730.579,18.066,-46.387,-51.270,-81.055,155.762
1678024730.583,-27.832,-43.457,-49.316,-72.266,107.910
1678024730.587,-173.340,-43.457,-51.270,-79.590,-124.512
1678024730.591,-207.520,-49.316,-54.688,-82.520,-87.402
1678024730.593,-112.305,-52.734,-56.641,-74.219,42.480
1678024730.597,5.371,-47.852,-52.734,-71.289,-75.684
1678024730.601,-16.602,-43.945,-51.758,-82.520,-103.516
1678024730.605,-171.875,-46.387,-58.105,-85.938,-10.742
1678024730.609,-224.121,-46.387,-58.105,-85.938,44.922
1678024730.613,-107.910,-41.504,-57.129,-87.891,-19.531
1678024730.617,11.719,-41.016,-60.547,-86.914,-30.762
1678024730.620,-5.859,-45.410,-56.641,-77.637,168.945
1678024730.624,-148.438,-44.922,-51.758,-78.613,211.426
1678024730.628,-203.613,-47.852,-52.246,-86.914,-107.422
1678024730.632,-128.906,-47.852,-52.734,-78.125,-104.004
1678024730.636,-16.602,-44.922,-51.270,-64.941,199.707
1678024730.670,9.766,-43.945,-50.293,-61.035,159.668
1678024730.674,-122.559,-45.898,-57.617,-76.660,-124.023
1678024730.678,-211.914,-46.387,-61.035,-84.961,-138.672
1678024730.682,-137.695,-45.898,-59.082,-82.520,-55.176
1678024730.686,-12.695,-44.434,-61.035,-76.660,-80.078
1678024730.690,27.832,-43.945,-60.059,-73.242,-41.504
1678024730.694,-89.355,-40.527,-57.617,-76.172,41.016
1678024730.697,-189.453,-35.645,-60.059,-82.031,188.965
1678024730.701,-144.043,-39.551,-59.570,-87.891,-5.371
1678024730.705,-32.715,-35.645,-60.059,-83.984,-172.852
1678024730.709,20.020,-38.086,-59.570,-76.172,-90.820
1678024730.713,-82.031,-39.062,-54.688,-78.125,-62.012
1678024730.702,-207.520,-38.086,-54.199,-87.402,-128.906
1678024730.706,-180.664,-41.016,-52.734,-88.379,-152.344
1678024730.710,-46.387,-30.762,-47.363,-73.242,-38.574
1678024730.714,19.531,-33.691,-56.641,-81.055,30.762
1678024730.718,-93.750,-36.621,-66.406,-109.375,-88.867
1678024730.722,-233.887,-27.344,-63.477,-124.023,-115.234
1678024730.726,-246.094,-30.762,-69.336,-152.832,20.508
1678024730.729,-171.387,-32.715,-75.684,-187.988,-42.480
1678024730.733,-117.676,-26.855,-84.473,-222.168,-164.551
1678024730.737,-225.586,-26.855,-99.609,-259.766,-61.035
1678024730.741,-398.438,-27.344,-112.305,-291.992,168.945
1678024730.745,-419.922,-22.949,-109.863,-321.777,28.809
1678024730.743,-334.473,-20.020,-109.375,-349.609,-165.527
1678024730.747,-256.348,-17.090,-117.188,-353.516,-116.699
1678024730.751,-311.523,-11.719,-112.793,-345.703,149.902
1678024730.755,-462.891,-4.395,-113.281,-349.121,269.043
1678024730.759,-475.586,-7.324,-116.211,-354.492,-71.289
1678024730.763,-352.539,-15.137,-115.234,-349.121,-68.848
1678024730.767,-230.469,-11.719,-114.746,-331.543,83.496
1678024730.770,-256.836,-4.883,-108.398,-316.895,-35.645
1678024730.774,-387.207,-6.836,-97.656,-299.316,-188.477
1678024730.778,-384.766,-9.277,-93.750,-273.438,-207.520
1678024730.782,-259.766,-10.254,-94.727,-246.582,176.270
1678024730.786,-122.559,-10.254,-90.332,-212.891,305.176
1678024730.789,-102.051,-9.277,-88.379,-187.988,9.766
1678024730.793,-232.910,-14.648,-83.008,-180.176,-46.387
1678024730.797,-272.461,-16.602,-75.684,-151.855,-93.750
1678024730.801,-153.809,-13.672,-68.359,-128.418,-115.723
1678024730.805,-8.789,-19.043,-68.848,-111.816,-59.082
1678024730.809,-1.953,-26.367,-68.359,-88.867,54.688
1678024730.813,-136.230,-33.203,-65.430,-75.684,63.965
1678024730.816,-189.941,-36.133,-64.453,-60.547,-18.066
1678024730.820,-93.262,-38.574,-60.059,-41.992,-58.105
1678024730.824,36.133,-36.621,-57.129,-22.461,83.496
1678024730.828,57.129,-39.551,-58.594,-16.113,170.898
1678024730.832,-61.035,-43.945,-56.641,-12.207,-126.465
1678024730.833,-151.855,-47.363,-54.199,-5.859,-201.172
1678024730.837,-92.773,-53.223,-55.176,-8.301,42.969
1678024730.841,49.805,-50.293,-55.176,-1.953,-81.055
1678024730.845,99.121,-50.293,-52.734,6.348,-189.453
1678024730.849,-9.766,-49.316,-42.969,6.348,-57.617
1678024730.853,-113.281,-45.898,-34.668,13.672,207.520
1678024730.857,-65.918,-46.387,-31.250,23.438,125.000
1678024730.860,70.312,-42.969,-30.273,22.461,-162.109
1678024730.864,141.602,-38.574,-32.715,27.832,-62.012
1678024730.868,36.621,-41.016,-33.203,34.668,234.375
1678024730.872,-80.566,-46.387,-30.762,30.762,74.219
1678024730.876,-43.457,-43.457,-28.809,35.645,-218.750
1678024730.878,68.359,-44.434,-31.250,35.156,-159.180
1678024730.882,151.367,-48.340,-30.273,42.969,-61.523
1678024730.886,64.941,-46.875,-25.879,47.852,-129.395
1678024730.890,-79.102,-45.410,-28.809,35.156,-260.742
1678024730.894,-51.270,-47.363,-31.250,32.227,-109.375
1678024730.898,60.547,-47.852,-29.785,38.086,62.500
1678024730.902,133.789,-47.852,-24.902,42.480,-33.691
1678024730.905,59.570,-43.945,-20.508,31.250,-146.484
1678024730.909,-82.520,-41.016,-22.461,28.320,2.441
1678024730.913,-75.195,-49.316,-22.461,37.598,61.523
1678024730.917,26.367,-50.781,-25.391,34.180,-65.918
1678024730.921,129.883,-45.410,-28.809,33.691,-4.395
1678024730.923,78.613,-47.852,-27.344,30.273,137.207
1678024730.927,-83.496,-50.293,-29.785,16.113,20.508
1678024730.931,-103.027,-50.781,-32.227,7.324,-183.594
1678024730.935,0.488,-49.316,-33.691,18.066,-204.590
1678024730.939,104.980,-43.945,-38.574,20.508,-131.836
1678024730.943,67.871,-41.504,-36.621,12.207,-41.016
1678024730.947,-75.684,-42.480,-31.250,12.695,-92.773
1678024730.950,-110.352,-42.480,-26.367,19.531,-78.613
1678024730.954,-20.508,-40.039,-25.391,22.461,145.996
1678024730.958,94.727,-37.598,-27.344,17.090,23.926
1678024730.962,83.496,-36.621,-27.832,5.859,-193.848
1678024730.966,-65.918,-36.133,-26.855,-5.859,-121.582
1678024730.969,-130.371,-36.621,-32.227,-6.836,6.348
1678024730.973,-46.875,-38.086,-37.109,-11.230,-43.945
1678024730.977,76.172,-36.621,-34.180,-1.465,-75.684
1678024730.981,81.055,-34.180,-29.297,3.418,24.414
1678024730.985,-60.059,-35.156,-29.785,-4.395,-24.414
1678024730.989,-136.719,-38.574,-30.762,-6.836,-98.633
1678024730.993,-67.871,-44.922,-34.668,-16.602,-25.879
1678024730.996,49.316,-41.992,-33.691,-16.602,113.770
1678024731.000,77.148,-46.875,-37.598,-4.883,181.152
1678024731.004,-40.039,-47.852,-43.945,-19.531,-83.984
1678024731.008,-133.789,-40.039,-42.969,-29.785,-104.004
1678024731.012,-86.914,-39.062,-36.621,-16.602,137.695
1678024731.014,40.039,-35.645,-36.133,-13.184,56.152
1678024731.018,84.961,-30.762,-36.133,-20.508,-120.117
1678024731.022,-30.762,-35.156,-36.133,-21.973,-60.059
1678024731.026,-146.973,-44.434,-45.898,-30.273,-32.227
1678024731.030,-118.652,-42.480,-48.828,-41.016,-125.488
1678024731.034,6.348,-37.598,-46.387,-28.320,-86.426
1678024731.038,70.312,-40.527,-47.363,-29.785,-16.602
1678024731.041,-37.109,-43.945,-50.293,-34.180,190.918
1678024731.045,-152.832,-41.016,-51.270,-41.016,11.719
1678024731.049,-125.000,-41.992,-51.270,-56.641,-294.434
1678024731.053,-12.695,-44.434,-48.828,-63.477,-229.980
1678024731.057,69.824,-41.992,-43.945,-64.941,-82.031
1678024731.060,-19.531,-43.945,-47.363,-67.871,-127.930
1678024731.064,-159.668,-45.898,-48.340,-74.219,-150.879
1678024731.068,-150.879,-45.898,-45.898,-69.824,-73.730
1678024731.072,-40.039,-45.410,-47.363,-58.105,-64.941
1678024731.076,47.852,-44.434,-52.246,-57.129,-89.355
1678024731.080,-18.066,-45.898,-50.781,-60.059,-26.855
1678024731.084,-162.109,-47.363,-49.805,-48.828,182.129
1678024731.087,-166.992,-44.434,-52.246,-37.109,255.859
1678024731.091,-53.223,-41.016,-47.852,-39.551,-95.215
1678024731.095,51.758,-39.551,-49.316,-46.387,-61.523
1678024731.099,4.395,-41.992,-57.129,-58.594,146.484
1678024731.103,-145.020,-43.457,-56.641,-73.242,-69.824
1678024731.118,-174.316,-42.480,-56.641,-76.660,-230.469
1678024731.122,-73.730,-44.922,-59.570,-67.383,-158.691
1678024731.126,41.992,-41.992,-55.176,-51.270,104.004
1678024731.130,16.113,-37.109,-52.734,-58.105,81.543
1678024731.134,-132.324,-31.738,-51.758,-69.824,-142.578
1678024731.138,-170.898,-28.320,-48.340,-66.406,-125.977
1678024731.142,-84.473,-31.250,-50.293,-59.570,289.551
1678024731.145,34.180,-30.273,-47.363,-44.434,372.559
1678024731.149,37.598,-26.367,-40.039,-43.457,-53.223
1678024731.153,-103.027,-27.832,-40.039,-55.664,-121.094
1678024731.157,-164.062,-26.367,-37.598,-51.758,-37.109
1678024731.161,-83.008,-25.391,-36.621,-49.316,-140.137
1678024731.193,37.598,-17.090,-35.645,-48.828,-172.363
1678024731.197,53.223,-15.137,-32.715,-45.898,-121.094
1678024731.201,-85.449,-20.508,-31.738,-48.828,-69.824
1678024731.205,-169.434,-24.414,-33.691,-60.059,-92.773
1678024731.209,-98.633,-25.879,-42.480,-60.059,-124.512
1678024731.213,26.367,-22.949,-40.039,-37.109,60.547
1678024731.217,61.035,-29.785,-29.785,-38.574,64.453
1678024731.220,-59.570,-31.250,-34.668,-54.688,-69.336
1678024731.224,-164.551,-25.391,-39.062,-61.035,-171.875
1678024731.228,-118.164,-30.273,-44.922,-61.035,62.988
1678024731.232,-2.441,-32.227,-44.434,-52.734,382.324
1678024731.236,54.199,-29.785,-39.551,-59.570,66.895
1678024731.198,-50.293,-31.738,-39.551,-65.918,-140.625
1678024731.202,-180.176,-36.621,-42.480,-67.871,48.828
1678024731.206,-152.344,-37.109,-47.363,-75.195,-26.855
1678024731.210,-29.297,-38.086,-41.992,-75.195,-96.680
1678024731.214,45.410,-35.645,-40.039,-65.918,-9.277
1678024731.218,-50.293,-32.715,-43.945,-63.477,49.316
1678024731.222,-175.781,-35.645,-42.969,-77.637,36.621
1678024731.225,-143.555,-30.273,-43.945,-69.824,-98.145
1678024731.229,-27.344,-29.785,-42.480,-47.852,-132.812
1678024731.233,56.641,-31.738,-42.480,-46.875,-31.250
1678024731.237,-17.090,-30.762,-42.969,-56.641,-75.684
1678024731.241,-164.551,-34.180,-37.598,-60.547,-127.441
1678024731.253,-167.969,-37.598,-42.969,-55.176,-6.348
1678024731.257,-54.688,-41.504,-47.852,-51.758,27.344
1678024731.261,42.480,-39.062,-46.875,-55.664,-58.105
1678024731.265,-20.996,-36.133,-41.504,-58.105,-112.305
1678024731.269,-167.480,-39.551,-40.039,-60.059,-26.367
1678024731.273,-187.500,-41.504,-43.457,-65.918,368.164
1678024731.277,-80.078,-41.016,-44.434,-72.754,241.211
1678024731.280,38.086,-39.551,-40.527,-67.871,-124.023
1678024731.284,8.789,-37.109,-41.992,-64.453,9.277
1678024731.288,-133.789,-36.621,-43.945,-66.895,-31.250
1678024731.292,-158.691,-36.133,-41.992,-69.336,-182.617
1678024731.296,-60.059,-34.668,-44.434,-72.266,-157.227
1678024731.300,53.711,-33.203,-51.270,-72.266,-82.031
1678024731.304,24.414,-39.062,-57.617,-74.219,-59.570
1678024731.308,-132.812,-42.480,-52.734,-77.637,-56.641
1678024731.312,-181.152,-44.922,-50.293,-79.590,-83.984
1678024731.316,-101.074,-47.363,-55.176,-69.824,98.145
1678024731.320,14.648,-44.434,-56.641,-65.918,116.211
1678024731.324,21.484,-44.922,-52.734,-62.500,-36.133
1678024731.327,-116.699,-44.922,-54.199,-67.383,-54.199
1678024731.331,-195.312,-39.551,-55.176,-69.824,149.414
1678024731.335,-118.652,-38.086,-56.152,-65.430,30.273
1678024731.339,10.742,-37.109,-57.617,-62.500,-192.871
1678024731.343,27.344,-37.109,-53.223,-57.617,-135.254
1678024731.343,-105.469,-41.992,-50.293,-62.012,-83.008
1678024731.347,-189.941,-42.480,-50.293,-74.707,-155.762
1678024731.351,-129.883,-46.387,-55.664,-76.660,-133.789
1678024731.355,-13.184,-49.805,-62.012,-66.406,-91.797
1678024731.359,32.227,-46.875,-54.688,-55.664,-70.312
1678024731.363,-87.402,-45.898,-54.199,-62.500,-20.996
1678024731.367,-192.871,-48.340,-53.711,-67.383,-88.867
1678024731.370,-148.926,-48.828,-51.270,-65.918,81.055
1678024731.374,-32.715,-48.828,-55.664,-62.012,327.637
1678024731.378,25.879,-54.199,-57.129,-58.105,46.875
1678024731.382,-76.660,-54.688,-54.688,-57.617,-56.641
1678024731.386,-204.102,-51.270,-54.688,-52.734,121.582
1678024731.388,-171.875,-53.223,-50.293,-55.664,-22.461
1678024731.392,-44.434,-50.781,-49.316,-59.570,-163.086
1678024731.396,32.715,-47.852,-54.199,-59.570,-130.371
1678024731.400,-62.988,-48.828,-55.664,-70.312,-102.539
1678024731.404,-198.242,-46.387,-49.805,-80.566,-141.602
1678024731.408,-173.340,-44.922,-50.293,-74.707,-155.273
1678024731.412,-52.734,-43.457,-52.246,-64.941,-20.996
1678024731.415,45.410,-38.574,-53.223,-54.688,313.965
1678024731.419,-29.297,-35.645,-59.082,-58.105,190.918
1678024731.423,-178.223,-30.762,-61.523,-70.312,-174.316
1678024731.427,-174.805,-30.273,-56.641,-70.801,-196.289
1678024731.431,-60.547,-35.156,-57.617,-72.754,-169.922
1678024731.433,37.109,-38.086,-56.641,-64.453,-182.617
1678024731.437,-21.973,-42.969,-50.781,-62.500,-165.039
1678024731.441,-168.945,-46.387,-52.734,-70.312,-97.656
1678024731.445,-180.664,-42.480,-54.199,-70.801,-117.676
1678024731.449,-76.172,-43.945,-52.246,-70.312,-148.926
1678024731.453,39.551,-48.828,-52.734,-70.312,-83.984
1678024731.457,14.648,-44.434,-47.852,-55.664,106.445
1678024731.460,-132.812,-36.621,-47.363,-53.711,164.551
1678024731.464,-174.805,-41.504,-52.734,-64.453,-80.566
1678024731.468,-74.707,-43.945,-47.852,-59.570,-102.051
1678024731.472,31.250,-41.992,-46.875,-53.223,232.910
1678024731.476,13.672,-41.992,-50.781,-50.781,228.516
1678024731.478,-122.559,-38.086,-49.805,-64.941,-72.754
1678024731.482,-177.246,-34.180,-50.781,-68.848,-99.609
1678024731.486,-96.680,-37.109,-54.688,-62.500,-69.824
1678024731.490,16.113,-42.480,-58.105,-62.012,-80.078
1678024731.494,24.902,-41.504,-57.617,-62.988,-101.074
1678024731.498,-109.863,-42.969,-55.664,-71.289,-79.102
1678024731.502,-188.477,-41.992,-55.664,-74.219,128.418
1678024731.505,-114.258,-37.598,-54.688,-65.918,-56.641
1678024731.509,4.395,-39.062,-53.711,-58.105,-175.293
1678024731.513,35.645,-39.062,-49.805,-54.199,-13.672
1678024731.517,-96.191,-39.062,-48.340,-57.129,4.883
1678024731.521,-199.219,-40.039,-51.270,-65.430,-112.793
1678024731.524,-127.441,-42.480,-48.828,-63.477,-150.879
1678024731.528,-11.230,-44.434,-50.293,-62.988,-96.680
1678024731.532,22.461,-46.387,-55.664,-69.336,-25.391
1678024731.536,-85.938,-47.363,-54.199,-73.730,-111.328
1678024731.540,-190.430,-44.434,-53.711,-78.613,-184.570
1678024731.544,-159.668,-41.016,-51.758,-67.871,-25.879
1678024731.548,-43.457,-42.969,-46.875,-62.012,-0.488
1678024731.551,27.344,-43.457,-46.387,-63.477,-68.359
1678024731.555,-73.242,-45.410,-51.758,-62.500,-152.832
1678024731.559,-199.707,-42.969,-52.246,-62.988,74.219
1678024731.563,-166.504,-38.086,-56.641,-65.918,275.879
1678024731.567,-54.199,-43.945,-59.082,-75.684,-41.992
1678024731.583,22.461,-42.480,-50.293,-68.848,-96.680
1678024731.587,-59.082,-43.457,-50.781,-63.477,140.625
1678024731.591,-195.312,-44.434,-56.152,-70.801,95.215
1678024731.595,-184.082,-45.410,-51.758,-71.289,-135.254
1678024731.599,-68.848,-51.270,-50.781,-58.105,-96.680
1678024731.603,25.391,-44.922,-49.805,-55.176,296.875
1678024731.607,-41.504,-47.363,-50.293,-66.406,148.926
1678024731.610,-179.688,-45.898,-50.781,-64.453,-229.004
1678024731.614,-180.664,-41.504,-51.270,-62.988,-116.211
1678024731.618,-67.871,-43.457,-54.199,-67.383,65.430
1678024731.622,35.156,-41.992,-57.129,-73.242,-52.246
1678024731.626,-25.391,-45.410,-64.453,-83.496,-115.723
1678024731.644,-179.688,-49.316,-59.570,-81.543,-103.516
1678024731.648,-207.031,-49.316,-55.176,-83.496,-139.160
1678024731.652,-93.262,-43.945,-54.688,-94.238,-98.145
1678024731.656,19.043,-43.457,-56.641,-87.402,-36.621
1678024731.660,-28.320,-45.898,-57.617,-77.637,114.258
1678024731.664,-168.457,-40.527,-61.523,-88.379,33.203
1678024731.668,-212.402,-37.109,-62.012,-98.633,-79.590
1678024731.671,-132.324,-43.945,-58.105,-102.051,-96.680
1678024731.675,-27.344,-46.387,-60.547,-100.586,33.691
1678024731.679,-80.566,-47.852,-60.547,-123.047,168.945
1678024731.683,-260.254,-51.758,-66.406,-166.504,-50.293
1678024731.687,-343.750,-55.176,-75.195,-218.750,-119.629
1678024731.673,-281.250,-47.363,-89.844,-249.023,60.547
1678024731.677,-197.266,-35.645,-97.168,-273.438,21.484
1678024731.681,-231.934,-34.180,-104.980,-318.359,-131.348
1678024731.685,-396.973,-33.203,-116.699,-355.957,-182.129
1678024731.689,-490.234,-26.855,-117.188,-375.977,-163.574
1678024731.693,-439.941,-21.484,-118.164,-391.113,-113.770
1678024731.697,-326.660,-20.020,-121.094,-390.625,-43.457
1678024731.700,-276.367,-20.020,-127.441,-369.141,43.457
1678024731.704,-397.949,-20.020,-127.930,-372.070,-25.391
1678024731.708,-498.535,-19.531,-125.977,-374.023,-99.609
1678024731.712,-432.129,-14.648,-117.676,-361.328,-144.531
1678024731.716,-289.062,-8.301,-111.816,-341.309,-93.262
1678024731.719,-209.473,-6.348,-116.211,-303.711,269.531
1678024731.723,-292.969,-7.324,-112.305,-295.410,152.344
1678024731.727,-384.277,-11.719,-104.004,-288.574,-151.367
1678024731.731,-331.543,-13.184,-98.145,-259.766,-99.609
1678024731.735,-194.336,-13.672,-87.402,-234.375,-91.797
1678024731.739,-93.262,-13.184,-86.426,-192.383,-41.504
1678024731.743,-164.551,-20.508,-78.613,-172.852,14.160
1678024731.746,-274.902,-29.785,-76.660,-165.039,68.848
1678024731.750,-231.934,-29.785,-72.266,-136.230,59.082
1678024731.754,-84.473,-27.344,-65.430,-106.934,-100.586
1678024731.758,10.254,-35.156,-62.012,-92.285,-72.266
1678024731.762,-65.918,-43.945,-64.453,-73.730,132.324
1678024731.763,-184.082,-44.922,-65.430,-53.711,82.031
1678024731.767,-167.969,-49.805,-54.199,-61.523,-160.645
1678024731.771,-48.828,-54.688,-58.105,-51.270,-170.898
1678024731.775,64.941,-51.270,-61.035,-29.785,-63.477
1678024731.779,2.441,-55.664,-57.617,-34.180,-4.883
1678024731.783,-143.066,-54.688,-55.664,-33.203,-34.180
1678024731.787,-133.789,-53.711,-46.387,-8.789,-29.297
1678024731.790,-8.789,-58.594,-37.109,9.766,184.570
1678024731.794,107.422,-59.570,-36.621,12.695,51.758
1678024731.798,69.824,-58.594,-35.645,7.812,-178.711
1678024731.802,-77.637,-58.594,-36.133,5.371,-86.426
1678024731.806,-101.562,-63.965,-31.738,10.742,0.488
1678024731.808,9.277,-60.547,-35.645,16.113,-119.141
1678024731.812,130.859,-55.664,-36.621,30.762,-175.781
1678024731.816,107.422,-54.199,-28.320,37.598,-44.922
1678024731.820,-41.504,-52.246,-25.879,34.180,0.000
1678024731.824,-88.379,-52.246,-27.344,36.133,-136.719
1678024731.828,3.906,-54.688,-22.461,38.086,-97.168
1678024731.832,120.117,-54.199,-20.020,46.875,227.539
1678024731.835,124.512,-55.664,-29.785,55.664,308.594
1678024731.839,-7.324,-57.617,-31.250,47.363,-81.543
1678024731.843,-69.336,-55.176,-24.902,45.898,-176.758
1678024731.847,1.953,-55.176,-20.508,50.781,80.078
1678024731.851,121.094,-57.129,-20.996,51.758,32.715
1678024731.870,134.277,-56.152,-27.344,44.922,-125.488
1678024731.874,-1.953,-56.641,-27.832,40.527,-43.945
1678024731.878,-86.426,-56.641,-22.949,50.781,111.816
1678024731.882,-20.020,-54.199,-24.902,44.922,-65.430
1678024731.886,94.727,-51.270,-28.809,32.227,-200.684
1678024731.890,125.977,-47.852,-35.156,34.180,41.504
1678024731.894,7.324,-43.945,-37.109,32.715,260.742
1678024731.897,-98.145,-42.480,-35.645,25.391,-3.418
1678024731.901,-50.293,-44.922,-30.273,23.438,-214.844
1678024731.905,69.824,-47.852,-29.297,23.926,-125.488
1678024731.909,135.254,-41.504,-31.738,31.738,-37.109
1678024731.913,35.156,-40.527,-25.391,22.949,-114.258
1678024731.913,-89.355,-47.363,-30.273,8.789,-160.156
1678024731.917,-62.012,-48.828,-32.227,15.137,-138.672
1678024731.921,59.082,-41.504,-31.738,13.184,-84.473
1678024731.925,142.090,-34.180,-34.668,18.555,-41.504
1678024731.929,47.363,-34.180,-30.762,20.508,-55.664
1678024731.933,-94.238,-33.203,-27.344,13.184,-20.020
1678024731.937,-80.566,-34.668,-26.367,13.672,16.113
1678024731.940,27.832,-36.133,-28.809,11.719,-90.332
1678024731.944,113.281,-35.645,-32.227,6.836,-177.734
1678024731.948,34.668,-36.133,-31.738,7.812,83.984
1678024731.952,-113.281,-40.039,-31.250,8.789,476.074
1678024731.956,-106.445,-42.480,-31.738,2.930,99.609
1678024731.958,1.465,-45.898,-34.668,3.418,-172.852
1678024731.962,91.309,-50.781,-37.109,12.695,203.613
1678024731.966,35.645,-51.270,-35.645,-2.441,122.070
1678024731.970,-115.234,-55.176,-39.551,-19.043,-186.523
1678024731.974,-132.324,-52.734,-41.992,-18.066,-170.898
1678024731.978,-30.273,-45.898,-39.062,-11.719,-59.570
1678024731.982,67.871,-44.922,-43.457,-5.371,3.906
1678024731.985,23.926,-40.039,-45.898,-25.879,-22.461
1678024731.989,-121.582,-39.551,-48.340,-38.086,-89.844
1678024731.993,-150.391,-40.039,-51.270,-34.180,142.578
1678024731.997,-49.316,-40.527,-54.688,-44.434,68.359
1678024732.001,65.918,-43.457,-54.688,-46.387,-180.176
1678024732.003,50.293,-41.016,-47.363,-41.016,-102.539
1678024732.007,-98.633,-35.645,-46.387,-46.875,-106.445
1678024732.011,-157.227,-35.156,-42.480,-47.363,-169.922
1678024732.015,-66.895,-38.086,-43.945,-43.945,-130.371
1678024732.019,47.363,-36.621,-43.945,-42.969,-93.262
1678024732.023,51.270,-41.504,-41.992,-35.645,-43.945
1678024732.027,-88.379,-45.898,-40.527,-33.203,75.684
1678024732.030,-158.691,-44.922,-38.086,-41.504,-27.832
1678024732.034,-76.172,-40.527,-34.180,-41.504,74.707
1678024732.038,39.062,-38.574,-33.691,-34.668,309.082
1678024732.042,63.477,-42.480,-37.598,-38.086,8.789
1678024732.046,-59.082,-41.504,-37.109,-48.340,-149.902
1678024732.063,-152.832,-40.039,-39.062,-50.781,17.090
1678024732.067,-100.098,-38.574,-42.969,-46.875,-116.699
1678024732.071,15.137,-40.039,-42.480,-42.480,-220.215
1678024732.075,54.688,-41.504,-37.598,-37.598,-55.664
1678024732.079,-64.453,-42.969,-37.109,-40.527,-27.344
1678024732.083,-162.598,-47.363,-44.434,-47.852,-93.262
1678024732.087,-120.605,-44.922,-45.898,-44.434,-74.707
1678024732.090,-10.742,-42.969,-42.969,-43.945,-10.254
1678024732.094,48.340,-39.551,-41.992,-43.457,193.359
1678024732.098,-56.641,-40.039,-38.574,-47.852,57.617
1678024732.102,-174.805,-44.922,-41.504,-62.988,-202.148
1678024732.106,-136.719,-44.434,-41.016,-52.734,-102.539
1678024732.099,-13.672,-44.434,-38.086,-38.574,42.480
1678024732.103,55.664,-41.504,-38.086,-46.875,-46.875
1678024732.107,-24.902,-35.156,-35.645,-56.152,-125.977
1678024732.111,-153.809,-29.785,-37.598,-64.453,-152.344
1678024732.115,-148.926,-30.273,-38.574,-56.641,-119.141
1678024732.119,-29.785,-34.180,-36.621,-52.246,-99.121
1678024732.123,65.430,-37.109,-41.504,-54.688,-40.039
1678024732.126,-11.230,-36.133,-41.992,-56.641,63.965
1678024732.130,-160.156,-39.551,-35.645,-59.570,-0.488
1678024732.134,-155.273,-40.039,-37.109,-61.523,-118.652
1678024732.138,-50.293,-33.203,-38.574,-60.547,-22.949
1678024732.142,44.922,-34.180,-40.039,-45.410,128.418
1678024732.140,-7.324,-35.156,-40.039,-45.410,6.348
1678024732.144,-153.320,-35.645,-39.062,-53.711,-115.234
1678024732.148,-163.086,-35.645,-35.156,-56.641,-115.234
1678024732.152,-61.035,-32.715,-34.668,-41.016,-28.320
1678024732.156,45.410,-32.715,-38.086,-34.180,0.000
1678024732.160,8.789,-31.738,-39.062,-41.016,-35.156
1678024732.164,-138.184,-31.738,-41.992,-51.270,-58.105
1678024732.167,-163.086,-32.715,-47.852,-54.199,178.711
1678024732.171,-71.289,-30.762,-52.734,-47.852,381.348
1678024732.175,33.691,-31.250,-47.852,-49.805,194.824
1678024732.179,29.785,-33.691,-44.922,-57.129,-58.105
1678024732.183,-102.051,-34.180,-50.293,-65.918,-63.477
1678024732.183,-156.250,-35.645,-49.316,-70.801,-107.910
1678024732.187,-76.172,-33.203,-43.945,-64.941,-189.941
1678024732.191,41.992,-30.762,-46.387,-57.617,-112.305
1678024732.195,57.617,-30.762,-48.340,-58.594,55.176
1678024732.199,-82.520,-28.809,-48.828,-65.430,-20.508
1678024732.203,-168.945,-28.809,-46.875,-68.359,-100.098
1678024732.207,-101.074,-32.715,-44.434,-60.059,68.848
1678024732.210,23.926,-32.715,-43.945,-31.738,260.742
1678024732.214,54.688,-31.738,-47.363,-40.527,15.137
1678024732.218,-74.219,-37.109,-52.246,-56.152,-103.516
1678024732.222,-169.922,-43.457,-53.711,-48.828,87.891
1678024732.226,-127.930,-42.969,-57.617,-57.617,-72.266
1678024732.228,-11.230,-41.504,-57.129,-61.523,-205.566
1678024732.232,45.410,-41.504,-55.176,-58.594,-107.910
1678024732.236,-71.777,-42.480,-51.758,-57.129,-53.711
1678024732.240,-182.129,-41.016,-48.340,-58.594,-100.586
1678024732.244,-139.648,-41.504,-47.852,-64.453,-179.199
1678024732.248,-22.949,-41.504,-50.781,-59.082,-75.195
1678024732.252,44.434,-44.434,-51.758,-55.176,176.270
1678024732.255,-53.711,-45.898,-49.316,-68.848,84.473
1678024732.259,-182.617,-45.410,-51.758,-76.660,-130.859
1678024732.263,-159.180,-46.387,-54.688,-69.824,-49.805
1678024732.267,-36.133,-39.062,-55.176,-57.617,159.180
1678024732.271,56.641,-38.086,-55.176,-43.945,-29.785
1678024732.273,-18.555,-42.480,-49.316,-46.387,-147.461
1678024732.277,-149.414,-41.016,-51.758,-54.199,-48.828
1678024732.281,-131.348,-36.133,-49.805,-49.805,-75.195
1678024732.285,-30.762,-37.109,-43.945,-51.270,-144.531
1678024732.289,53.711,-35.156,-44.434,-52.246,-146.484
1678024732.293,-12.207,-36.621,-47.363,-41.992,40.039
1678024732.297,-157.715,-36.133,-48.828,-47.852,38.086
1678024732.300,-161.133,-30.762,-49.316,-55.664,-96.680
1678024732.304,-55.176,-35.156,-47.363,-54.199,-96.680
1678024732.308,48.828,-36.133,-43.457,-47.363,143.066
1678024732.312,1.953,-32.715,-41.016,-42.480,397.461
1678024732.316,-138.672,-35.645,-41.504,-52.246,-30.273
1678024732.322,-171.875,-37.109,-48.828,-48.828,-261.230
1678024732.326,-72.266,-31.738,-45.898,-47.852,13.184
1678024732.330,46.387,-29.785,-38.574,-44.922,-1.465
1678024732.334,20.020,-34.668,-45.410,-43.457,-171.387
1678024732.338,-132.324,-34.668,-49.805,-50.293,-193.359
1678024732.342,-176.270,-32.715,-51.270,-56.641,-82.520
1678024732.346,-89.355,-35.645,-54.688,-68.848,-47.363
1678024732.349,27.832,-37.598,-53.711,-62.500,-99.121
1678024732.353,21.973,-37.109,-55.664,-54.688,-66.406
1678024732.357,-133.301,-36.621,-54.199,-66.406,4.883
1678024732.361,-189.453,-38.574,-52.734,-68.848,-55.176
1678024732.365,-95.703,-34.180,-60.059,-59.570,-135.742
1678024732.378,28.809,-30.762,-60.059,-59.082,-95.215
1678024732.382,40.039,-33.203,-53.223,-59.570,17.578
1678024732.386,-90.820,-38.574,-48.340,-63.965,-89.355
1678024732.390,-171.875,-41.992,-50.781,-72.754,-238.770
1678024732.394,-113.281,-41.016,-51.270,-64.941,-93.750
1678024732.398,5.371,-37.598,-49.316,-48.340,363.770
1678024732.402,47.363,-29.297,-51.758,-43.457,212.402
1678024732.405,-72.266,-25.879,-52.246,-52.246,-109.375
1678024732.409,-174.805,-32.715,-45.898,-57.617,15.625
1678024732.413,-125.488,-34.180,-44.922,-56.152,68.359
1678024732.417,-11.719,-31.250,-49.805,-57.129,-96.191
1678024732.421,42.969,-37.109,-50.781,-51.758,-70.801
1678024732.423,-74.707,-34.668,-45.410,-54.688,72.266
1678024732.427,-186.035,-27.344,-41.992,-58.594,6.836
1678024732.431,-139.648,-28.320,-45.898,-52.246,-149.902
1678024732.435,-38.086,-30.273,-47.363,-55.664,-131.348
1678024732.439,12.207,-32.227,-48.340,-58.594,177.734
1678024732.443,-80.078,-30.762,-46.387,-62.012,162.598
1678024732.447,-197.266,-34.668,-44.922,-71.289,-36.621
1678024732.450,-178.711,-39.551,-46.875,-75.684,-30.762
1678024732.454,-61.035,-40.039,-45.410,-65.918,99.121
1678024732.458,27.832,-41.016,-44.434,-54.199,2.930
1678024732.462,-52.246,-39.062,-41.016,-53.223,-152.344
1678024732.466,-186.035,-33.691,-42.480,-61.035,-105.469
1678024732.468,-177.734,-33.691,-41.504,-65.918,-150.391
1678024732.472,-63.477,-34.180,-39.551,-63.477,-208.496
1678024732.476,42.969,-28.320,-38.086,-59.082,-76.660
1678024732.480,-13.184,-26.855,-33.691,-56.152,74.219
1678024732.484,-155.273,-27.832,-37.598,-54.688,17.578
1678024732.488,-162.598,-25.391,-40.527,-45.898,42.480
1678024732.492,-62.988,-23.926,-37.598,-38.086,70.801
1678024732.495,37.109,-20.996,-43.457,-34.668,144.531
1678024732.499,1.953,-21.973,-44.922,-28.320,184.570
1678024732.503,-138.184,-27.832,-42.480,-48.340,-82.031
1678024732.507,-177.246,-29.785,-46.387,-70.801,-113.770
1678024732.511,-83.496,-35.156,-49.316,-63.965,-28.809
1678024732.513,28.809,-33.691,-51.758,-55.664,-25.879
1678024732.517,1.465,-33.203,-53.223,-64.941,-37.598
1678024732.521,-140.625,-37.598,-50.293,-68.848,-94.727
1678024732.525,-186.523,-35.156,-49.805,-70.801,53.711
1678024732.529,-100.586,-34.180,-52.246,-78.125,-16.113
1678024732.533,12.695,-33.203,-52.246,-75.684,-100.098
1678024732.537,15.625,-32.715,-55.176,-73.730,62.988
1678024732.540,-125.977,-37.109,-58.105,-63.965,313.965
1678024732.544,-198.242,-38.574,-51.758,-70.312,187.012
1678024732.548,-123.047,-41.016,-53.223,-91.797,-86.426
1678024732.552,-13.672,-40.039,-59.082,-88.867,-132.324
1678024732.556,3.906,-38.574,-54.688,-86.426,-95.215
1678024732.558,-118.164,-41.016,-47.363,-91.309,-97.656
1678024732.562,-204.590,-41.504,-42.969,-98.145,-90.820
1678024732.566,-142.090,-37.109,-42.480,-94.238,-48.340
1678024732.570,-25.879,-26.855,-38.574,-85.449,-137.207
1678024732.574,-0.488,-35.645,-49.316,-101.562,-150.879
1678024732.578,-125.488,-40.039,-60.547,-106.934,-99.609
1678024732.582,-222.656,-32.227,-50.781,-96.191,115.234
1678024732.585,-190.430,-29.785,-54.199,-113.281,256.348
1678024732.589,-105.957,-32.227,-62.500,-150.879,-74.219
1678024732.593,-62.988,-34.668,-66.406,-179.199,-104.492
1678024732.597,-186.523,-27.832,-66.406,-205.078,216.797
1678024732.601,-364.258,-36.133,-77.637,-257.324,91.797
1678024732.603,-378.906,-43.945,-92.773,-307.617,-197.754
1678024732.607,-284.668,-33.691,-91.309,-335.449,-126.465
1678024732.611,-238.770,-29.785,-94.238,-353.516,-56.152
1678024732.615,-359.863,-32.227,-107.910,-377.441,-138.184
1678024732.619,-509.277,-32.227,-109.863,-395.996,-189.941
1678024732.623,-510.254,-33.203,-109.863,-404.297,-17.090
1678024732.627,-402.832,-39.062,-116.211,-411.621,124.023
1678024732.630,-301.758,-39.062,-120.117,-404.297,-40.527
1678024732.634,-371.094,-35.645,-114.258,-395.996,-163.086
1678024732.638,-499.023,-37.109,-112.793,-402.832,-118.164
1678024732.642,-470.703,-31.738,-107.910,-386.719,-72.754
1678024732.646,-341.797,-28.320,-102.539,-354.980,-150.879
1678024732.648,-208.984,-27.344,-100.098,-326.172,-140.625
1678024732.652,-229.492,-17.578,-94.727,-305.664,-87.891
1678024732.656,-356.934,-14.160,-90.332,-281.250,-92.773
1678024732.660,-357.422,-22.461,-84.961,-253.906,-150.391
1678024732.664,-238.281,-28.320,-79.102,-242.676,-189.941
1678024732.668,-105.957,-29.297,-74.707,-221.191,-20.020
1678024732.672,-114.746,-31.250,-69.336,-192.383,42.480
1678024732.675,-236.816,-39.551,-72.754,-169.434,-107.422
1678024732.679,-241.699,-42.969,-68.359,-143.066,-204.590
1678024732.683,-125.977,-36.133,-62.500,-104.004,61.523
1678024732.687,7.812,-36.621,-66.895,-76.660,255.859
1678024732.691,14.648,-37.109,-63.477,-62.500,-35.645
1678024732.708,-115.234,-38.574,-57.617,-52.246,-92.285
1678024732.712,-164.062,-40.039,-57.129,-34.668,128.906
1678024732.716,-55.664,-39.551,-52.734,-15.137,84.473
1678024732.720,87.402,-39.062,-44.434,1.465,-113.281
1678024732.724,104.004,-41.504,-39.062,20.020,-140.625
1678024732.728,-29.297,-48.340,-39.062,31.250,-120.605
1678024732.732,-96.680,-50.781,-37.109,36.133,-137.695
1678024732.735,-10.742,-47.363,-32.715,37.109,-218.750
1678024732.739,106.934,-44.922,-32.227,43.457,-189.453
1678024732.743,139.160,-46.387,-38.086,57.617,48.828
1678024732.747,25.879,-49.805,-36.133,56.152,-33.203
1678024732.751,-76.172,-52.734,-28.809,56.152,-172.852
