timestamps,TP9,AF7,AF8,TP10,Right AUX
1678025238.122,-15.137,-33.691,-68.359,-38.574,-98.633
1678025238.126,-24.414,-29.297,-64.453,-34.180,-85.938
1678025238.130,5.859,-28.320,-66.895,-32.715,-82.520
1678025238.134,29.297,-23.926,-70.801,-41.992,-103.027
1678025238.138,18.555,-25.879,-73.242,-52.734,-31.738
1678025238.142,-20.508,-31.250,-81.055,-55.176,42.480
1678025238.146,-38.574,-35.645,-84.961,-54.688,-60.059
1678025238.149,-20.020,-33.203,-91.309,-56.152,-135.742
1678025238.153,1.465,-30.762,-94.238,-59.570,76.172
1678025238.157,7.812,-37.109,-89.844,-51.270,415.039
1678025238.161,-14.648,-38.574,-88.379,-61.035,127.441
1678025238.165,-38.574,-37.598,-96.191,-87.402,-162.598
1678025238.167,-32.715,-35.645,-98.633,-91.797,-84.961
1678025238.171,-13.184,-30.762,-96.680,-95.703,-146.484
1678025238.175,-3.906,-27.344,-99.121,-105.957,-151.855
1678025238.179,-31.250,-31.250,-98.145,-112.305,-28.320
1678025238.183,-60.059,-32.715,-97.168,-108.887,-5.371
1678025238.187,-43.945,-35.156,-98.145,-104.004,91.797
1678025238.191,-17.578,-33.203,-103.516,-100.098,95.703
1678025238.194,-6.836,-29.785,-103.516,-90.332,11.719
1678025238.198,-29.785,-27.344,-102.539,-88.379,159.180
1678025238.202,-57.617,-29.297,-102.539,-95.215,-15.137
1678025238.206,-57.617,-34.180,-107.910,-98.633,-169.922
1678025238.210,-42.480,-37.109,-109.375,-95.703,-93.750
1678025238.212,-18.066,-34.180,-102.539,-91.797,-100.586
1678025238.216,-34.668,-31.250,-103.516,-98.145,-118.652
1678025238.220,-65.918,-31.250,-104.492,-94.238,-108.398
1678025238.224,-46.387,-31.250,-104.004,-91.797,-59.570
1678025238.228,-22.461,-29.785,-104.004,-104.492,-26.367
1678025238.232,-3.418,-31.250,-97.168,-101.074,-57.129
1678025238.236,-14.648,-31.738,-95.703,-94.238,-106.445
1678025238.239,-57.617,-33.203,-98.145,-82.031,34.668
1678025238.243,-63.477,-37.109,-100.098,-70.312,294.922
1678025238.247,-39.062,-38.574,-106.445,-74.219,10.254
1678025238.251,-12.207,-37.109,-105.469,-79.590,-143.066
1678025238.255,-27.344,-34.180,-98.633,-80.566,59.082
1678025238.258,-69.336,-36.621,-94.238,-73.242,50.293
1678025238.262,-71.289,-35.645,-91.309,-70.312,-104.492
1678025238.266,-47.363,-33.691,-93.262,-69.824,-71.777
1678025238.270,-23.926,-36.133,-93.750,-67.871,86.426
1678025238.274,-18.555,-35.645,-89.844,-80.566,37.598
1678025238.278,-43.945,-28.809,-88.867,-87.402,-65.918
1678025238.282,-61.523,-27.832,-85.938,-82.031,-85.449
1678025238.285,-39.062,-30.762,-78.125,-73.242,115.234
1678025238.289,-6.836,-29.785,-78.125,-79.102,46.875
1678025238.293,-3.418,-28.320,-76.660,-83.496,-120.117
1678025238.297,-24.414,-25.879,-68.848,-75.195,-127.441
1678025238.301,-44.434,-25.391,-71.289,-77.637,-139.160
1678025238.302,-38.574,-25.391,-71.289,-89.355,-133.789
1678025238.306,-15.625,-24.414,-67.383,-89.355,-155.762
1678025238.310,1.953,-23.926,-67.383,-86.426,-108.887
1678025238.314,-11.230,-24.414,-63.965,-89.355,-58.105
1678025238.318,-47.852,-24.414,-62.012,-87.402,4.883
1678025238.322,-45.898,-24.902,-63.477,-91.797,20.020
1678025238.326,-12.695,-28.809,-63.965,-93.750,101.562
1678025238.329,-0.977,-27.832,-62.988,-70.312,382.324
1678025238.333,-27.344,-26.855,-58.594,-57.617,118.164
1678025238.337,-54.688,-28.320,-56.152,-72.754,-175.293
1678025238.341,-35.645,-24.902,-55.176,-76.660,20.996
1678025238.345,-0.977,-23.926,-52.246,-71.289,18.066
1678025238.347,11.719,-21.973,-52.734,-65.918,-117.676
1678025238.351,2.930,-21.973,-54.688,-63.965,-102.051
1678025238.355,-41.992,-26.855,-59.570,-76.172,-67.383
1678025238.359,-44.434,-26.367,-55.176,-67.871,-73.242
1678025238.363,-17.578,-22.949,-51.758,-66.406,-122.559
1678025238.367,7.812,-22.461,-54.199,-69.824,-3.906
1678025238.371,2.930,-20.996,-55.176,-61.035,258.789
1678025238.374,-27.344,-21.973,-55.664,-68.848,138.184
1678025238.378,-11.230,-23.926,-52.246,-64.453,-133.301
1678025238.382,30.273,-23.926,-56.152,-50.781,-183.594
1678025238.386,33.203,-24.414,-61.523,-66.406,13.184
1678025238.390,2.930,-20.996,-61.035,-98.145,-82.031
1678025238.392,-24.414,-19.531,-59.082,-92.773,-186.035
1678025238.396,-29.297,-24.414,-63.477,-93.262,-117.676
1678025238.400,-10.254,-25.879,-71.289,-113.281,-112.305
1678025238.404,21.973,-20.508,-71.777,-100.098,-94.727
1678025238.408,12.695,-16.602,-77.148,-115.234,-56.152
1678025238.412,-33.203,-17.578,-86.426,-117.676,58.594
1678025238.416,-49.805,-25.391,-83.496,-98.633,51.270
1678025238.419,-18.555,-25.391,-76.660,-100.098,-68.848
1678025238.423,14.648,-20.508,-77.148,-106.445,-48.828
1678025238.427,8.789,-26.367,-81.055,-111.328,148.926
1678025238.431,-13.672,-28.320,-83.984,-98.633,403.809
1678025238.435,-41.992,-24.902,-90.820,-128.418,51.758
1678025238.452,-25.879,-25.391,-94.727,-125.000,-171.875
1678025238.456,6.836,-24.902,-93.750,-93.262,-42.480
1678025238.460,-4.395,-25.391,-92.285,-101.074,-89.844
1678025238.464,-24.902,-25.391,-93.262,-106.445,-223.633
1678025238.468,-41.016,-24.414,-94.727,-84.473,-183.105
1678025238.472,-37.109,-26.855,-94.727,-77.148,27.832
1678025238.476,-10.742,-26.367,-93.750,-81.055,-9.766
1678025238.479,-8.301,-27.832,-96.680,-86.914,-208.984
1678025238.483,-47.852,-28.320,-96.191,-87.891,-150.391
1678025238.487,-72.754,-23.438,-97.168,-87.891,144.531
1678025238.491,-51.758,-20.508,-98.145,-75.684,11.230
1678025238.495,-22.949,-20.020,-96.680,-61.523,-116.699
1678025238.497,-19.043,-21.973,-98.633,-63.477,-23.438
1678025238.501,-47.363,-26.855,-98.145,-63.965,24.414
1678025238.505,-73.730,-28.809,-97.168,-77.637,-82.031
1678025238.509,-60.547,-28.320,-100.098,-82.520,-124.512
1678025238.513,-34.180,-22.949,-99.609,-57.617,-39.551
1678025238.517,-22.461,-22.949,-94.727,-42.480,-13.672
1678025238.521,-34.668,-26.367,-93.262,-40.039,-12.207
1678025238.524,-62.500,-20.508,-90.332,-35.645,-92.773
1678025238.528,-55.176,-12.695,-90.332,-20.020,77.637
1678025238.532,-25.879,-15.625,-88.379,-4.883,360.840
1678025238.536,-2.441,-19.531,-88.379,-5.371,68.848
1678025238.540,-18.066,-17.578,-86.914,8.301,-153.320
1678025238.543,-61.035,-21.484,-84.473,20.020,-70.801
1678025238.547,-64.941,-23.926,-84.961,10.254,-25.879
1678025238.551,-34.180,-20.996,-83.984,14.160,-143.066
1678025238.555,0.488,-18.066,-83.496,32.227,-174.316
1678025238.559,-15.625,-17.090,-84.473,34.668,0.000
1678025238.563,-49.316,-21.973,-84.473,19.531,-18.555
1678025238.567,-47.363,-20.020,-85.449,16.113,-119.629
1678025238.570,-29.297,-20.996,-83.496,16.602,-126.953
1678025238.574,-3.418,-23.438,-78.613,6.836,133.301
1678025238.578,-13.184,-23.438,-81.055,-8.789,78.613
1678025238.582,-54.688,-26.367,-81.055,-22.461,-115.723
1678025238.586,-66.406,-23.438,-77.637,-32.715,-171.875
1678025238.587,-45.898,-22.461,-79.102,-38.574,-169.922
1678025238.591,-21.484,-28.809,-82.031,-36.621,-151.855
1678025238.595,-21.484,-32.715,-80.078,-29.785,-162.109
1678025238.599,-52.734,-34.668,-84.961,-33.691,-38.574
1678025238.603,-48.340,-23.926,-88.379,-13.184,-3.906
1678025238.607,-17.090,-24.414,-75.684,-5.371,17.578
1678025238.611,-4.883,-36.621,-67.383,-28.320,-34.668
1678025238.614,-8.301,-36.133,-64.453,-22.949,32.227
1678025238.618,-46.875,-41.504,-60.059,-12.207,389.648
1678025238.622,-72.754,-45.410,-55.176,-13.672,175.781
1678025238.626,-61.523,-44.922,-47.363,-24.902,-151.367
1678025238.630,-48.340,-55.176,-41.992,-28.320,-59.082
1678025238.647,-41.992,-62.012,-40.039,-25.391,-52.246
1678025238.651,-67.383,-64.453,-27.344,-23.438,-105.469
1678025238.655,-98.145,-63.965,-18.066,-15.625,-83.984
1678025238.659,-95.215,-67.871,-16.113,-13.672,-16.113
1678025238.663,-60.547,-67.871,-18.066,-8.789,-51.270
1678025238.667,-47.363,-67.871,-19.043,-10.742,-62.500
1678025238.671,-80.078,-72.754,-21.973,-12.207,38.086
1678025238.674,-99.121,-70.312,-22.949,-9.277,260.742
1678025238.678,-79.590,-65.430,-25.879,-23.438,209.961
1678025238.682,-46.875,-64.453,-30.762,-33.691,-72.266
1678025238.686,-35.156,-62.500,-34.180,-44.434,-137.695
1678025238.690,-57.129,-59.570,-39.062,-41.992,-159.668
1678025238.677,-80.566,-56.152,-43.457,-36.133,-237.305
1678025238.681,-68.359,-53.711,-42.480,-33.691,-235.352
1678025238.685,-36.621,-56.152,-45.898,-30.762,-137.695
1678025238.689,-16.602,-52.246,-53.223,-35.645,-45.898
1678025238.693,-23.926,-49.316,-48.340,-35.645,-64.941
1678025238.697,-49.805,-49.316,-48.828,-42.480,-59.082
1678025238.701,-46.875,-43.945,-55.176,-42.969,67.871
1678025238.704,-12.695,-39.551,-59.570,-33.203,32.715
1678025238.708,9.766,-38.574,-59.570,-34.668,-59.570
1678025238.712,-13.184,-39.062,-62.500,-34.668,-58.105
1678025238.716,-53.223,-38.086,-64.453,-38.086,54.688
1678025238.720,-62.012,-38.574,-62.500,-41.504,99.121
1678025238.722,-40.527,-38.086,-65.430,-45.410,-117.676
1678025238.726,-11.230,-43.457,-65.918,-50.293,-170.410
1678025238.730,-22.461,-44.434,-70.312,-54.688,88.867
1678025238.734,-52.734,-37.598,-77.148,-66.406,187.012
1678025238.738,-45.898,-33.203,-77.148,-80.078,-104.980
1678025238.742,-25.879,-30.273,-77.637,-85.449,-91.797
1678025238.746,-10.742,-34.180,-87.891,-85.449,209.961
1678025238.749,-8.301,-34.668,-89.844,-77.148,57.129
1678025238.753,-33.203,-28.809,-95.215,-72.266,-193.359
1678025238.757,-44.434,-30.762,-109.375,-83.984,-163.574
1678025238.761,-30.762,-36.133,-110.840,-93.750,-36.621
1678025238.765,-4.883,-35.156,-107.910,-99.609,-71.289
1678025238.767,0.488,-34.180,-113.770,-103.516,-144.531
1678025238.771,-34.180,-30.762,-113.770,-95.215,-93.262
1678025238.775,-54.199,-31.250,-118.164,-94.238,-6.836
1678025238.779,-33.203,-36.133,-124.512,-96.191,-64.453
1678025238.783,-9.277,-34.180,-125.488,-98.145,-120.605
1678025238.787,-9.766,-38.574,-125.977,-104.004,40.527
1678025238.791,-34.180,-38.086,-129.883,-101.562,21.973
1678025238.794,-55.176,-39.062,-134.277,-107.910,-110.352
1678025238.798,-42.480,-44.922,-139.160,-113.281,-67.871
1678025238.802,-11.230,-42.480,-145.996,-102.051,48.340
1678025238.806,2.441,-39.551,-147.461,-92.773,236.328
1678025238.810,-25.879,-38.086,-146.484,-94.238,-76.172
1678025238.827,-51.270,-38.086,-145.020,-86.914,-221.191
1678025238.831,-40.039,-38.574,-144.531,-77.637,67.871
1678025238.835,-6.836,-35.156,-148.926,-80.078,-14.648
1678025238.839,7.812,-36.621,-150.391,-90.332,-141.113
1678025238.843,-22.461,-41.016,-152.832,-101.562,-54.199
1678025238.847,-50.293,-41.504,-157.227,-106.934,42.969
1678025238.851,-46.387,-38.086,-158.691,-110.840,-59.082
1678025238.854,-10.254,-33.203,-157.715,-109.375,-173.828
1678025238.858,7.812,-35.156,-155.762,-106.445,-71.777
1678025238.862,-32.715,-36.621,-158.203,-120.117,27.344
1678025238.866,-62.012,-37.598,-158.691,-120.117,-69.336
1678025238.870,-56.641,-41.992,-159.668,-115.723,-149.902
1678025238.873,-32.715,-46.387,-156.250,-113.281,-54.199
1678025238.877,-9.277,-43.945,-157.227,-108.887,132.324
1678025238.881,-19.043,-38.086,-156.250,-116.211,29.785
1678025238.885,-56.152,-40.039,-150.879,-123.535,-40.039
1678025238.889,-64.941,-41.504,-152.344,-119.629,41.016
1678025238.893,-34.668,-38.574,-148.926,-119.141,152.344
1678025238.897,-11.230,-38.086,-143.066,-118.652,81.055
1678025238.900,-17.090,-41.016,-139.648,-119.629,-12.695
1678025238.904,-38.574,-42.969,-142.578,-118.164,77.148
1678025238.908,-41.016,-39.551,-142.090,-104.492,241.211
1678025238.912,-21.484,-37.598,-141.113,-109.375,25.879
1678025238.916,3.418,-39.551,-138.184,-113.770,-166.504
1678025238.917,-2.930,-40.527,-131.348,-107.422,-89.844
1678025238.921,-46.387,-38.086,-124.023,-109.375,-150.879
1678025238.925,-66.895,-36.133,-117.188,-117.188,-173.340
1678025238.929,-51.758,-35.645,-118.164,-116.699,-100.098
1678025238.933,-22.461,-35.645,-121.094,-108.398,-29.785
1678025238.937,-14.648,-33.691,-118.164,-98.633,23.926
1678025238.941,-48.828,-33.203,-114.746,-97.656,32.227
1678025238.944,-71.289,-38.086,-114.746,-104.492,43.457
1678025238.948,-57.617,-37.598,-111.816,-91.309,233.887
1678025238.952,-22.949,-35.645,-110.352,-81.543,164.551
1678025238.956,-12.695,-36.133,-106.934,-94.238,-109.863
1678025238.960,-46.387,-34.668,-106.445,-97.168,-85.938
1678025238.962,-66.895,-33.691,-107.422,-92.773,-130.371
1678025238.966,-50.293,-35.645,-100.586,-87.891,-216.309
1678025238.970,-26.855,-38.574,-98.145,-85.938,-142.578
1678025238.974,-18.066,-40.527,-101.074,-94.727,-132.324
1678025238.978,-50.781,-44.434,-102.539,-103.027,-151.367
1678025238.982,-71.289,-45.410,-102.539,-97.168,-24.902
1678025238.986,-55.664,-42.480,-102.539,-89.844,-15.137
1678025238.989,-35.645,-40.039,-102.051,-77.637,22.461
1678025238.993,-24.414,-38.574,-103.516,-62.500,416.504
1678025238.997,-49.316,-37.109,-99.121,-67.871,193.848
1678025239.001,-78.125,-39.551,-98.145,-80.078,-205.078
1678025239.005,-65.430,-39.062,-101.074,-77.148,-26.855
1678025239.008,-32.227,-33.203,-99.121,-72.754,14.648
1678025239.012,-9.766,-31.250,-102.051,-70.312,-118.164
1678025239.016,-27.832,-32.227,-104.492,-71.777,-76.660
1678025239.020,-60.547,-33.203,-98.145,-77.148,-3.906
1678025239.024,-54.199,-32.715,-100.098,-62.500,-51.758
1678025239.028,-28.320,-33.691,-98.145,-50.781,-62.500
1678025239.032,-9.277,-33.691,-89.844,-42.969,2.441
1678025239.035,-22.949,-35.156,-90.820,-38.574,203.125
1678025239.039,-54.688,-34.180,-91.309,-36.133,68.359
1678025239.043,-50.293,-29.297,-85.449,-32.715,-156.250
1678025239.047,-22.461,-29.785,-83.496,-35.156,2.930
1678025239.051,8.301,-25.391,-89.355,-36.621,76.172
1678025239.052,-2.930,-22.949,-89.355,-48.828,-57.617
1678025239.056,-41.504,-30.762,-83.984,-50.781,-96.191
1678025239.060,-42.969,-28.809,-82.520,-46.387,-63.477
1678025239.064,-23.926,-27.344,-80.078,-36.621,-108.887
1678025239.068,-7.812,-32.715,-80.078,-28.809,-117.188
1678025239.072,-18.555,-31.738,-82.520,-30.273,-83.496
1678025239.076,-53.223,-31.250,-85.449,-29.785,-23.926
1678025239.079,-61.035,-29.297,-85.449,-23.926,187.500
1678025239.083,-29.785,-23.926,-79.102,-32.715,87.402
1678025239.087,0.977,-22.461,-72.754,-42.480,-85.938
1678025239.091,1.465,-23.926,-73.242,-45.410,28.320
1678025239.095,-26.855,-21.973,-68.848,-48.828,-52.246
1678025239.099,-38.574,-21.973,-67.383,-43.457,-120.605
1678025239.103,-19.043,-27.344,-66.895,-36.133,-67.383
1678025239.107,2.441,-31.738,-64.941,-34.180,38.574
1678025239.111,4.395,-35.156,-67.871,-36.621,24.902
1678025239.115,-20.996,-34.180,-64.941,-31.738,-137.207
1678025239.119,-43.945,-28.809,-59.570,-29.297,31.250
1678025239.123,-29.785,-24.902,-59.082,-18.555,321.777
1678025239.126,-1.953,-24.902,-56.641,-25.391,58.594
1678025239.130,-7.324,-29.297,-57.129,-47.852,-205.078
1678025239.134,-39.062,-32.715,-55.176,-35.156,-144.531
1678025239.138,-58.105,-30.273,-55.176,-20.508,-58.594
1678025239.142,-42.969,-29.785,-56.641,-23.926,-112.305
1678025239.158,-16.602,-29.785,-56.641,-19.043,-122.559
1678025239.162,-13.672,-32.227,-57.129,-20.020,-40.527
1678025239.166,-32.715,-27.832,-58.594,-20.508,9.277
1678025239.170,-53.711,-23.438,-63.477,-19.043,22.461
1678025239.174,-46.875,-27.832,-63.477,-26.855,-110.840
1678025239.178,-19.043,-29.785,-59.082,-27.344,-0.977
1678025239.182,-0.977,-26.855,-62.500,-13.184,317.383
1678025239.185,-23.438,-29.297,-60.547,-18.066,84.473
1678025239.189,-61.523,-29.785,-56.641,-19.531,-68.848
1678025239.193,-53.223,-22.949,-59.082,-7.324,37.109
1678025239.197,-29.297,-25.391,-60.059,-13.184,-20.020
1678025239.201,-19.531,-26.855,-60.547,-30.762,-151.855
1678025239.202,-30.762,-24.902,-63.965,-39.551,-125.977
1678025239.206,-49.316,-20.020,-65.430,-43.457,-97.168
1678025239.210,-56.152,-18.066,-58.594,-48.828,-124.512
1678025239.214,-40.527,-28.809,-59.570,-53.711,-188.477
1678025239.218,-20.508,-29.297,-62.500,-51.270,-104.004
1678025239.222,-32.227,-31.738,-65.430,-50.293,40.039
1678025239.226,-76.660,-31.250,-69.336,-59.082,-71.777
1678025239.229,-95.703,-26.855,-69.336,-71.777,-114.746
1678025239.233,-81.055,-24.902,-68.848,-90.820,-105.469
1678025239.237,-66.406,-17.090,-67.383,-98.633,77.637
1678025239.241,-94.238,-14.648,-74.707,-140.137,20.996
1678025239.245,-153.320,-24.902,-92.285,-180.176,-218.262
1678025239.248,-175.293,-29.297,-101.074,-176.758,-199.219
1678025239.252,-165.039,-26.855,-100.098,-182.129,-198.730
1678025239.256,-165.527,-35.156,-100.586,-198.730,-162.598
1678025239.260,-185.059,-32.227,-109.863,-224.121,-198.242
1678025239.264,-224.121,-26.367,-120.605,-235.352,-171.875
1678025239.268,-253.906,-23.438,-123.047,-235.352,-55.176
1678025239.272,-236.816,-28.320,-127.441,-238.281,-8.789
1678025239.275,-190.430,-28.809,-129.883,-217.285,-66.406
1678025239.279,-175.781,-18.066,-125.000,-187.012,39.551
1678025239.283,-208.496,-19.531,-125.488,-169.434,333.984
1678025239.287,-207.031,-33.203,-128.418,-154.785,72.754
1678025239.291,-173.340,-36.621,-126.465,-134.277,-209.473
1678025239.292,-142.090,-36.133,-125.000,-127.441,-94.238
1678025239.296,-113.770,-39.551,-123.047,-121.582,-119.629
1678025239.300,-118.164,-35.645,-120.117,-94.727,-151.367
1678025239.304,-133.789,-32.715,-115.234,-77.148,-129.395
1678025239.308,-110.840,-36.621,-112.793,-58.105,-138.184
1678025239.312,-65.430,-36.133,-113.281,-45.410,10.254
1678025239.316,-39.062,-35.156,-110.352,-28.320,72.754
1678025239.319,-48.340,-37.109,-105.469,-7.812,-22.461
1678025239.323,-63.965,-42.969,-101.562,8.301,127.930
1678025239.327,-42.969,-40.527,-95.703,16.113,96.680
1678025239.331,-4.395,-34.180,-90.332,18.066,-61.035
1678025239.335,15.137,-34.180,-84.961,24.414,-86.914
1678025239.337,2.441,-31.250,-83.496,40.039,153.809
1678025239.341,-23.438,-26.855,-84.961,43.945,54.199
1678025239.345,-10.742,-28.320,-80.566,49.316,-153.809
1678025239.349,19.043,-30.273,-77.637,54.199,-57.129
1678025239.353,37.109,-30.273,-75.684,58.594,-37.109
1678025239.357,24.902,-31.250,-69.824,57.617,-97.656
1678025239.361,-0.488,-31.738,-62.988,57.129,-88.379
1678025239.364,-1.465,-35.645,-59.570,74.707,108.887
1678025239.368,22.949,-31.250,-59.570,86.426,394.531
1678025239.372,47.852,-27.344,-57.617,77.637,170.410
1678025239.376,43.945,-27.344,-48.828,73.242,-128.418
1678025239.380,14.648,-29.785,-47.852,76.660,-145.020
1678025239.382,10.742,-28.809,-47.852,75.684,-89.844
1678025239.386,30.273,-25.879,-44.922,66.406,-104.004
1678025239.390,52.246,-27.344,-44.434,60.059,-108.887
1678025239.394,49.316,-31.738,-44.922,66.895,78.125
1678025239.398,11.230,-35.156,-42.969,66.406,16.602
1678025239.402,9.277,-30.273,-37.598,66.406,-45.898
1678025239.406,34.180,-27.344,-35.645,66.895,128.906
1678025239.409,48.340,-29.785,-36.133,67.871,286.621
1678025239.413,52.246,-26.367,-33.203,68.848,116.699
1678025239.417,25.391,-30.273,-32.715,54.199,-62.500
1678025239.421,10.254,-29.297,-31.250,48.828,-72.266
1678025239.425,26.367,-21.973,-28.809,55.176,-68.359
1678025239.429,41.016,-23.438,-31.738,54.199,-115.723
1678025239.433,46.875,-23.438,-31.738,49.805,-167.480
1678025239.437,13.672,-21.484,-27.832,50.781,-3.906
1678025239.441,-6.348,-23.438,-30.273,63.477,44.434
1678025239.445,15.137,-19.531,-33.203,73.730,-64.941
1678025239.449,35.156,-19.043,-30.273,63.477,31.738
1678025239.453,42.480,-21.484,-30.273,63.477,205.566
1678025239.456,21.973,-21.973,-33.203,72.754,314.941
1678025239.460,-6.836,-28.809,-36.621,70.312,90.820
1678025239.464,1.953,-26.855,-38.086,63.965,-150.391
1678025239.468,24.902,-21.973,-35.156,60.059,-8.301
1678025239.472,33.691,-19.531,-32.715,64.453,9.277
1678025239.472,3.906,-23.438,-37.598,57.129,-210.938
1678025239.476,-29.297,-32.715,-37.598,50.293,-234.375
1678025239.480,-19.531,-35.645,-35.645,42.969,-84.961
1678025239.484,0.488,-34.180,-41.992,35.645,-60.547
1678025239.488,17.578,-30.273,-46.387,22.949,-120.605
1678025239.492,-0.977,-29.785,-46.875,8.789,-20.020
1678025239.496,-34.180,-32.227,-48.828,11.230,281.250
1678025239.499,-22.461,-32.227,-48.828,6.348,247.559
1678025239.503,15.625,-28.320,-48.828,0.977,-47.852
1678025239.507,35.645,-22.461,-50.293,-0.977,-83.008
1678025239.511,21.973,-19.043,-51.270,6.348,-13.184
1678025239.515,-5.859,-20.996,-49.316,23.438,-63.965
1678025239.517,-20.508,-21.484,-44.434,26.855,-125.000
1678025239.521,-0.488,-23.438,-45.898,28.320,-110.352
1678025239.525,20.508,-22.461,-46.387,32.715,-77.637
1678025239.529,0.000,-23.438,-44.922,20.996,-70.801
1678025239.533,-32.715,-26.367,-48.340,16.602,-107.910
1678025239.537,-39.551,-25.391,-50.781,24.902,10.742
1678025239.541,-21.484,-22.461,-49.805,20.020,180.664
1678025239.544,-2.441,-23.926,-51.270,7.812,70.312
1678025239.548,-11.230,-28.320,-54.199,5.371,-63.477
1678025239.552,-35.645,-25.879,-55.176,10.742,52.246
1678025239.556,-43.457,-24.902,-54.199,20.996,211.914
1678025239.560,-20.020,-27.832,-54.688,18.066,-27.344
1678025239.577,5.859,-27.344,-56.152,19.043,-182.129
1678025239.581,-3.418,-28.809,-53.223,25.879,-80.566
1678025239.585,-22.949,-32.715,-57.617,38.574,-194.336
1678025239.589,-25.879,-33.203,-65.430,39.551,-245.117
1678025239.593,-17.090,-30.273,-66.406,23.438,-149.414
1678025239.597,3.418,-30.762,-65.430,16.602,38.574
1678025239.601,0.000,-31.250,-68.359,23.438,70.312
1678025239.604,-32.227,-29.785,-70.801,29.297,-146.973
1678025239.608,-47.363,-29.785,-72.754,31.250,-120.605
1678025239.612,-37.109,-30.273,-77.148,37.598,231.934
1678025239.616,-18.555,-30.273,-75.684,24.414,107.910
1678025239.620,-15.137,-32.715,-75.195,4.395,-154.785
1678025239.622,-42.969,-33.691,-81.543,-0.488,-120.117
1678025239.626,-62.012,-29.785,-86.914,-0.977,-91.797
1678025239.630,-45.898,-28.320,-84.473,2.930,-142.578
1678025239.634,-17.578,-29.297,-83.984,1.953,-202.148
1678025239.638,-5.859,-30.273,-82.031,3.418,-120.117
1678025239.642,-30.273,-24.902,-77.637,14.160,4.395
1678025239.646,-51.758,-25.391,-82.520,12.695,-8.301
1678025239.649,-40.039,-28.320,-85.938,3.418,-104.492
1678025239.653,-21.973,-22.949,-81.543,14.160,-43.945
1678025239.657,-13.184,-28.809,-83.984,28.809,231.934
1678025239.661,-30.273,-34.180,-86.426,22.949,49.805
1678025239.665,-60.547,-31.738,-87.891,18.066,-180.664
1678025239.667,-53.711,-29.785,-90.332,20.020,-57.617
1678025239.671,-20.508,-29.785,-90.332,20.020,-108.398
1678025239.675,-2.930,-32.227,-89.355,12.695,-199.707
1678025239.679,-21.484,-27.344,-89.844,15.625,-96.191
1678025239.683,-45.898,-23.438,-86.426,24.414,16.602
1678025239.687,-39.551,-25.391,-78.613,20.020,2.441
1678025239.691,-14.648,-23.926,-74.707,13.672,-69.336
1678025239.694,0.488,-24.902,-76.660,9.277,-112.793
1678025239.698,-22.461,-33.691,-81.055,3.906,162.598
1678025239.702,-57.617,-35.645,-81.055,7.324,125.977
1678025239.706,-55.176,-31.738,-74.707,4.883,-129.883
1678025239.710,-35.645,-31.250,-73.730,-8.301,-130.859
1678025239.713,-12.207,-28.320,-73.730,-17.090,-84.961
1678025239.717,-19.531,-26.855,-67.383,-16.113,-31.250
1678025239.721,-50.293,-27.832,-67.871,-26.367,-71.777
1678025239.725,-47.852,-33.691,-70.312,-29.297,-79.102
1678025239.729,-28.320,-36.621,-69.824,-22.949,-22.949
1678025239.733,-11.719,-35.156,-59.570,-27.832,-2.441
1678025239.737,-10.742,-33.691,-58.594,-34.180,-20.996
1678025239.740,-40.039,-34.180,-62.500,-32.227,51.270
1678025239.744,-53.223,-35.645,-57.617,-25.391,329.590
1678025239.748,-37.109,-37.109,-54.688,-33.691,20.508
1678025239.752,-21.484,-36.133,-55.176,-48.828,-222.656
1678025239.756,-27.832,-35.645,-60.547,-53.711,-39.062
1678025239.757,-56.152,-37.109,-58.594,-44.434,-73.730
1678025239.761,-62.012,-35.156,-51.270,-40.527,-199.219
1678025239.765,-40.039,-36.133,-48.340,-32.227,-139.648
1678025239.769,-3.906,-36.621,-44.922,-15.137,-10.742
1678025239.773,-7.324,-28.809,-43.945,-27.344,-62.988
1678025239.777,-55.176,-32.227,-51.758,-48.828,-113.281
1678025239.781,-77.148,-33.691,-50.781,-48.340,0.488
1678025239.784,-66.406,-34.668,-47.852,-48.340,238.281
1678025239.788,-46.875,-37.109,-51.758,-52.734,191.895
1678025239.792,-46.875,-35.156,-48.828,-63.965,-105.957
1678025239.796,-76.172,-39.062,-46.387,-72.754,-102.051
1678025239.800,-84.473,-34.180,-44.434,-60.547,-65.430
1678025239.802,-66.406,-28.320,-41.504,-51.758,-170.898
1678025239.806,-53.711,-33.203,-41.992,-63.477,-214.844
1678025239.810,-36.133,-34.180,-40.527,-58.105,-92.773
1678025239.814,-45.898,-31.738,-41.992,-46.387,-117.188
1678025239.818,-61.035,-27.832,-42.480,-34.180,-135.254
1678025239.822,-49.316,-25.879,-39.062,-31.738,-90.332
1678025239.826,-28.809,-24.902,-38.574,-44.434,64.453
1678025239.829,-20.020,-23.438,-40.527,-39.551,327.637
1678025239.833,-32.227,-21.484,-37.598,-29.297,99.121
1678025239.837,-56.152,-20.996,-37.109,-29.785,-113.770
1678025239.841,-59.082,-24.414,-41.016,-28.809,48.340
1678025239.845,-37.598,-26.855,-43.945,-31.738,124.023
1678025239.847,-18.066,-24.902,-43.945,-28.809,-20.508
1678025239.851,-36.621,-29.297,-41.504,-21.973,-75.684
1678025239.855,-59.082,-25.879,-40.039,-27.832,-68.848
1678025239.859,-52.734,-25.391,-43.457,-26.367,-80.078
1678025239.863,-32.227,-28.320,-40.527,-16.602,-98.145
1678025239.867,-17.090,-25.879,-37.598,-18.066,-4.395
1678025239.871,-29.297,-29.785,-41.992,-16.113,252.930
1678025239.874,-57.129,-32.715,-41.992,-9.277,74.707
1678025239.878,-56.152,-28.809,-38.086,-13.184,-144.043
1678025239.882,-28.809,-23.926,-37.109,-13.672,-38.574
1678025239.886,-10.254,-25.879,-41.504,-12.207,-10.742
1678025239.890,-21.973,-29.297,-38.574,-18.066,-115.723
1678025239.892,-51.270,-29.785,-35.156,-21.484,-169.434
1678025239.896,-61.523,-23.926,-38.574,-13.184,-94.238
1678025239.900,-45.898,-20.996,-40.527,-9.277,-84.473
1678025239.904,-20.508,-23.926,-41.016,-13.672,-119.629
1678025239.908,-12.695,-27.344,-44.434,-14.648,-108.398
1678025239.912,-39.551,-24.902,-41.992,-5.371,52.246
1678025239.916,-44.922,-20.020,-37.598,10.254,111.816
1678025239.919,-24.414,-18.066,-33.691,14.648,-8.789
1678025239.923,-9.766,-17.090,-36.133,5.371,-95.215
1678025239.927,-8.301,-18.555,-38.086,1.953,12.207
1678025239.931,-39.062,-23.926,-39.062,3.906,217.285
1678025239.935,-61.523,-26.367,-40.527,-2.930,18.555
1678025239.952,-58.105,-26.855,-41.016,-15.625,-204.102
1678025239.956,-42.969,-25.879,-41.992,-22.949,2.930
1678025239.960,-34.180,-26.855,-42.480,-27.344,-29.785
1678025239.964,-57.617,-31.738,-43.945,-33.691,-230.957
1678025239.968,-62.500,-32.715,-44.922,-37.109,-108.398
1678025239.972,-50.781,-28.809,-44.922,-32.227,31.738
1678025239.976,-37.109,-24.902,-45.410,-36.133,26.367
1678025239.979,-14.648,-23.926,-44.922,-32.227,-91.797
1678025239.983,-32.715,-22.461,-41.016,-19.043,-83.984
1678025239.987,-68.359,-24.902,-42.480,-11.719,166.016
1678025239.991,-55.176,-25.391,-46.875,-8.301,63.965
1678025239.995,-30.273,-25.391,-43.945,-11.719,-100.586
1678025239.997,-29.297,-28.809,-41.992,-15.625,-68.359
1678025240.001,-46.387,-26.855,-41.016,-16.113,-35.645
1678025240.005,-62.988,-29.297,-46.387,-12.695,-88.379
1678025240.009,-58.594,-29.297,-43.457,-12.207,-144.043
1678025240.013,-48.340,-30.273,-41.992,-24.902,-63.965
1678025240.017,-41.992,-31.738,-49.316,-26.367,70.801
1678025240.021,-57.129,-34.180,-51.758,-27.832,23.438
1678025240.024,-91.309,-36.133,-55.664,-41.016,-108.887
1678025240.028,-89.844,-35.156,-56.152,-32.227,16.602
1678025240.032,-55.176,-32.227,-54.199,-15.137,271.484
1678025240.036,-37.109,-30.762,-55.664,-13.184,69.824
1678025240.040,-53.223,-36.133,-58.594,-24.414,-114.746
1678025240.042,-76.172,-35.156,-57.617,-29.785,-109.375
1678025240.046,-73.730,-30.762,-57.129,-23.926,-88.867
1678025240.050,-52.246,-32.715,-54.199,-28.809,-133.301
1678025240.054,-32.715,-32.715,-50.781,-35.156,-71.289
1678025240.058,-39.062,-30.762,-50.781,-35.156,157.227
1678025240.062,-69.824,-31.250,-53.223,-33.691,33.203
1678025240.066,-84.961,-34.180,-55.664,-37.598,-58.594
1678025240.069,-63.477,-34.668,-59.082,-39.062,-14.160
1678025240.073,-33.203,-27.832,-53.223,-31.250,137.207
1678025240.077,-36.621,-29.297,-51.758,-31.738,3.418
1678025240.081,-65.430,-35.645,-56.641,-35.645,-190.918
1678025240.085,-71.777,-33.691,-61.035,-33.691,-132.324
1678025240.087,-45.410,-30.762,-63.477,-36.621,-153.320
1678025240.091,-22.949,-31.250,-61.035,-42.480,-147.461
1678025240.095,-24.902,-30.762,-63.477,-40.527,-81.055
1678025240.099,-54.199,-28.320,-65.918,-33.203,-64.453
1678025240.103,-74.707,-31.738,-71.289,-38.086,-40.039
1678025240.107,-52.246,-33.691,-71.777,-34.668,31.250
1678025240.111,-30.273,-35.156,-64.941,-32.227,1.465
1678025240.114,-27.832,-35.156,-65.430,-27.344,94.238
1678025240.118,-37.598,-29.785,-69.824,-12.695,360.352
1678025240.122,-55.664,-33.691,-74.707,-14.648,61.523
1678025240.126,-55.176,-37.109,-79.590,-9.766,-237.305
1678025240.130,-30.762,-38.086,-77.148,-5.371,-27.344
1678025240.132,-26.367,-38.086,-71.289,-6.348,111.328
1678025240.136,-51.270,-38.086,-73.242,-15.625,-176.270
1678025240.140,-69.336,-36.133,-77.148,-15.625,-240.234
1678025240.144,-55.176,-30.273,-74.219,-5.859,-74.707
1678025240.148,-33.203,-28.809,-76.660,-10.254,-69.824
1678025240.152,-18.066,-28.809,-75.195,-14.160,-117.188
1678025240.156,-24.414,-27.344,-70.801,-10.254,-67.383
1678025240.159,-56.641,-24.902,-73.242,-11.719,122.559
1678025240.163,-65.918,-23.926,-80.566,-19.531,98.633
1678025240.167,-33.691,-25.879,-78.125,-22.949,-119.629
1678025240.171,-6.836,-26.367,-71.777,-24.902,-97.656
1678025240.175,-34.180,-30.762,-73.730,-29.785,14.648
1678025240.177,-63.477,-31.250,-76.660,-27.832,-53.223
1678025240.181,-56.641,-30.273,-74.219,-28.320,-113.770
1678025240.185,-41.992,-35.156,-80.566,-46.387,-122.070
1678025240.189,-20.508,-35.156,-84.473,-48.828,-95.703
1678025240.193,-24.902,-30.762,-80.078,-37.598,-67.383
1678025240.197,-44.922,-25.879,-76.660,-31.250,-25.391
1678025240.201,-43.945,-23.926,-73.242,-22.461,90.332
1678025240.204,-27.832,-29.297,-75.195,-10.254,238.770
1678025240.208,-14.160,-28.809,-76.660,-19.043,145.020
1678025240.212,-29.297,-31.738,-78.613,-35.156,-0.977
1678025240.216,-65.918,-36.621,-84.961,-38.574,73.242
1678025240.220,-73.242,-35.156,-85.938,-28.320,257.812
1678025240.237,-49.805,-33.691,-83.496,-25.391,-2.930
1678025240.241,-22.461,-29.297,-80.566,-28.320,-108.398
1678025240.245,-28.320,-29.785,-82.520,-22.949,-4.395
1678025240.249,-55.664,-28.809,-83.984,-21.484,-87.402
1678025240.253,-58.594,-27.344,-86.426,-30.273,-97.656
1678025240.257,-42.969,-30.273,-88.379,-35.156,-10.254
1678025240.261,-13.184,-29.785,-88.867,-33.691,195.312
1678025240.264,-8.789,-29.785,-91.797,-37.109,62.012
1678025240.268,-34.180,-28.809,-92.285,-32.227,-94.238
1678025240.272,-43.457,-27.832,-93.750,-28.320,-35.645
1678025240.276,-28.809,-28.809,-97.656,-26.367,-40.527
1678025240.280,-4.883,-26.367,-97.168,-12.207,-120.117
1678025240.283,-15.625,-25.879,-97.168,-12.207,-118.652
1678025240.287,-47.852,-28.809,-95.215,-9.277,8.789
1678025240.291,-64.941,-29.297,-91.309,-3.906,47.363
1678025240.295,-61.523,-27.832,-91.797,-13.672,-106.934
1678025240.299,-33.691,-26.367,-95.215,-15.625,-122.559
1678025240.303,-25.879,-27.832,-98.633,-22.461,65.430
1678025240.307,-55.176,-30.762,-103.027,-38.574,53.223
1678025240.310,-81.055,-30.762,-104.004,-44.434,-94.238
1678025240.314,-73.242,-28.809,-104.492,-40.527,-119.141
1678025240.318,-48.828,-32.227,-104.980,-36.621,23.926
1678025240.322,-31.250,-34.180,-107.910,-20.508,299.316
1678025240.326,-52.734,-32.227,-106.934,-15.625,41.992
1678025240.327,-80.566,-29.297,-100.098,-14.160,-131.836
1678025240.331,-72.266,-25.879,-100.098,-19.043,-65.918
1678025240.335,-42.969,-25.879,-104.980,-32.227,-157.227
1678025240.339,-22.461,-29.785,-106.934,-35.156,-115.723
1678025240.343,-42.969,-34.668,-106.934,-40.039,-50.293
1678025240.347,-71.777,-33.691,-112.305,-32.715,111.328
1678025240.351,-81.543,-32.227,-118.652,-35.156,29.297
1678025240.354,-66.406,-32.715,-118.164,-41.016,-148.438
1678025240.358,-49.805,-33.203,-120.605,-41.992,-109.375
1678025240.362,-70.801,-32.227,-123.535,-40.527,180.664
1678025240.366,-100.098,-37.109,-125.000,-38.086,99.609
1678025240.370,-95.215,-38.574,-119.141,-38.574,-204.590
1678025240.372,-73.730,-32.715,-114.258,-31.250,-177.734
1678025240.376,-61.035,-29.785,-117.188,-27.344,-152.832
1678025240.380,-72.266,-34.180,-115.234,-36.621,-185.059
1678025240.384,-103.516,-34.180,-109.863,-40.039,-170.898
1678025240.388,-117.676,-35.645,-110.840,-38.086,-115.234
1678025240.392,-103.027,-40.527,-117.188,-48.340,-45.410
1678025240.396,-85.449,-39.062,-117.188,-62.988,-7.812
1678025240.399,-87.891,-38.086,-112.305,-56.152,-41.016
1678025240.403,-114.258,-38.086,-116.211,-54.199,-3.906
1678025240.407,-130.859,-38.086,-114.258,-50.293,322.754
1678025240.411,-112.793,-38.574,-112.793,-46.875,134.766
1678025240.415,-82.520,-37.109,-115.723,-51.758,-170.898
1678025240.417,-86.914,-38.574,-112.793,-56.641,-113.281
1678025240.421,-118.164,-38.574,-111.816,-53.223,-167.480
1678025240.425,-130.371,-35.645,-109.375,-46.875,-129.883
1678025240.429,-111.816,-36.133,-110.840,-41.016,-46.875
1678025240.433,-83.008,-37.109,-108.887,-39.062,-115.723
1678025240.437,-73.242,-37.598,-103.027,-41.504,-78.613
1678025240.441,-94.238,-37.598,-101.074,-32.227,-68.848
1678025240.444,-111.328,-37.598,-100.586,-26.367,-142.578
1678025240.448,-96.191,-38.086,-104.004,-17.090,151.367
1678025240.452,-74.707,-38.086,-100.586,-8.301,205.566
1678025240.456,-65.430,-39.551,-94.727,-17.578,-81.543
1678025240.460,-92.773,-38.086,-91.797,-19.531,-149.414
1678025240.463,-145.508,-38.574,-86.914,-18.555,-188.477
1678025240.467,-169.434,-38.574,-84.473,-21.484,-177.246
1678025240.471,-168.945,-34.180,-83.008,-16.602,-148.926
1678025240.475,-179.199,-38.086,-80.078,-15.137,-125.000
1678025240.479,-208.984,-39.551,-76.172,-17.578,-137.207
1678025240.483,-236.816,-38.574,-71.777,-18.555,-187.012
1678025240.487,-218.262,-39.551,-69.336,-26.367,-202.637
1678025240.490,-172.363,-41.992,-69.336,-28.809,-38.086
1678025240.494,-133.789,-38.574,-64.453,-16.602,355.957
1678025240.498,-122.070,-35.645,-62.988,-19.043,158.691
1678025240.502,-125.000,-38.574,-63.965,-25.391,-29.297
1678025240.506,-104.980,-37.598,-60.547,-21.973,54.688
1678025240.507,-68.359,-31.738,-56.641,-24.414,-38.574
1678025240.511,-32.227,-31.738,-54.199,-27.344,-161.621
1678025240.515,-34.180,-30.273,-50.781,-25.879,-179.199
1678025240.519,-56.641,-27.344,-49.805,-25.391,-66.895
1678025240.523,-45.898,-28.809,-51.270,-29.297,-51.270
1678025240.527,-19.043,-33.691,-47.852,-40.039,-66.406
1678025240.531,7.812,-33.691,-43.945,-37.598,1.953
1678025240.534,-5.859,-30.273,-43.457,-32.715,138.184
1678025240.538,-41.016,-43.945,-42.480,-27.344,7.812
1678025240.542,-19.531,-44.922,-38.574,-15.137,-165.527
1678025240.546,2.441,-30.273,-52.246,-31.738,-82.031
1678025240.550,6.836,-29.785,-57.129,-51.270,-73.242
1678025240.553,-8.301,-26.855,-48.828,-57.129,-85.449
1678025240.557,-31.738,-27.344,-47.363,-57.617,-131.836
1678025240.561,-26.855,-31.738,-49.316,-50.781,-86.426
1678025240.565,-8.301,-33.691,-51.270,-51.758,11.719
1678025240.569,6.348,-33.203,-49.316,-52.246,-59.082
1678025240.573,-9.277,-27.832,-47.852,-54.199,13.672
1678025240.577,-41.016,-25.391,-51.270,-52.734,130.859
1678025240.580,-64.453,-26.367,-51.270,-35.645,208.496
1678025240.584,-73.730,-24.902,-47.852,-44.434,72.754
1678025240.588,-81.055,-23.438,-44.922,-56.152,-50.293
1678025240.592,-126.953,-21.484,-37.598,-54.199,-11.230
1678025240.596,-164.551,-14.648,-29.785,-48.828,-16.113
1678025240.597,-155.273,-17.578,-35.645,-50.293,-121.582
1678025240.601,-118.652,-29.785,-45.410,-53.223,-112.793
1678025240.605,-74.707,-29.297,-38.574,-56.152,-29.297
1678025240.609,-64.941,-17.090,-37.109,-77.148,-44.922
1678025240.613,-84.961,-19.531,-43.457,-89.844,-208.008
1678025240.617,-110.840,-31.738,-56.641,-113.281,-78.125
1678025240.621,-123.047,-27.344,-68.359,-134.766,312.988
1678025240.624,-122.559,-32.715,-71.289,-157.715,246.582
1678025240.628,-141.113,-35.156,-85.449,-208.008,-109.375
1678025240.632,-191.406,-24.902,-100.586,-253.418,-109.375
1678025240.636,-226.074,-20.508,-110.840,-277.832,-73.242
1678025240.640,-226.074,-20.508,-120.605,-293.457,-164.062
1678025240.642,-213.379,-20.508,-125.977,-305.176,-217.773
1678025240.646,-203.613,-12.695,-127.441,-307.129,-162.598
1678025240.650,-227.051,-5.859,-129.883,-306.641,-104.980
1678025240.654,-243.164,-11.230,-140.137,-304.688,-125.488
1678025240.658,-212.402,-10.254,-136.230,-290.039,-162.109
1678025240.662,-194.824,-10.254,-133.789,-281.250,-48.340
1678025240.666,-188.477,-14.648,-141.113,-280.273,20.020
1678025240.669,-179.199,-9.277,-137.695,-269.043,-55.176
1678025240.673,-187.012,-5.859,-128.906,-247.070,-130.371
1678025240.677,-183.594,-9.277,-123.047,-223.145,-9.277
1678025240.681,-163.574,-7.812,-122.070,-195.312,255.371
1678025240.685,-166.992,-5.371,-122.070,-197.266,-8.301
1678025240.702,-183.105,-2.930,-116.699,-185.059,-208.984
1678025240.706,-202.148,0.000,-108.887,-149.414,-137.695
1678025240.710,-218.262,0.000,-103.516,-131.348,-121.094
1678025240.714,-199.707,2.930,-99.121,-119.629,-138.184
1678025240.718,-176.270,3.418,-93.750,-92.285,-124.023
1678025240.722,-179.199,1.953,-86.426,-76.660,-38.086
1678025240.726,-175.781,1.953,-74.707,-68.359,22.461
1678025240.729,-148.438,3.418,-62.988,-42.969,-39.551
1678025240.733,-118.652,1.465,-52.246,-26.367,-43.945
1678025240.737,-115.723,0.000,-51.270,-20.508,181.152
1678025240.741,-120.605,-1.465,-44.922,-11.719,102.051
1678025240.745,-127.441,-4.395,-34.668,-5.859,-84.473
1678025240.747,-115.234,-4.395,-27.832,11.719,-72.754
1678025240.751,-91.309,-8.789,-21.973,25.391,-103.516
1678025240.755,-81.055,-9.766,-13.672,29.297,-136.230
1678025240.759,-67.383,-2.441,-6.836,42.480,-140.625
1678025240.763,-76.660,-4.883,0.488,52.246,-90.332
1678025240.767,-81.543,-12.695,2.930,49.316,15.137
1678025240.771,-55.664,-7.812,4.395,49.316,56.641
1678025240.774,-29.297,-5.859,17.578,55.664,-59.570
1678025240.778,-20.996,-12.695,21.973,56.641,4.883
1678025240.782,-35.156,-11.719,19.043,65.918,351.074
1678025240.786,-32.715,-10.742,24.414,80.078,250.488
1678025240.790,-17.090,-14.648,34.180,84.473,-61.035
1678025240.792,-9.766,-19.043,35.645,73.242,6.836
1678025240.796,-1.953,-21.484,35.645,65.918,-47.363
1678025240.800,6.348,-19.531,40.039,78.613,-187.012
1678025240.804,2.930,-16.113,44.434,88.379,-85.449
1678025240.808,10.254,-16.602,49.316,93.262,23.438
1678025240.812,26.367,-20.996,53.711,89.355,-35.156
1678025240.816,30.762,-18.066,57.129,81.543,-87.402
1678025240.819,17.578,-10.742,60.059,84.473,-118.652
1678025240.823,-8.301,-16.113,60.547,105.957,136.230
1678025240.827,-16.113,-18.555,61.523,108.398,119.141
1678025240.831,0.977,-14.648,59.082,94.238,-134.277
1678025240.835,16.602,-16.602,56.152,90.332,-104.980
1678025240.837,4.883,-18.066,57.617,92.773,-27.344
1678025240.841,-0.977,-21.484,57.129,98.633,-75.684
1678025240.845,27.344,-24.414,56.641,97.656,-55.176
1678025240.849,40.527,-24.414,54.199,87.891,-19.043
1678025240.853,36.621,-23.438,50.293,77.148,-23.926
1678025240.857,34.180,-22.461,49.316,76.660,-7.324
1678025240.861,24.414,-21.484,46.875,93.262,-63.965
1678025240.864,26.367,-24.902,42.969,100.586,36.621
1678025240.868,36.621,-27.344,40.039,94.238,349.609
1678025240.872,29.785,-25.879,36.133,76.660,56.152
1678025240.876,14.160,-23.926,30.273,62.012,-223.145
1678025240.880,29.785,-23.926,27.344,75.195,-83.984
1678025240.884,50.293,-24.902,26.367,85.938,-10.742
1678025240.888,56.641,-23.926,19.043,80.078,-67.383
1678025240.892,60.547,-20.508,13.672,68.848,-148.926
1678025240.896,67.871,-16.113,8.301,62.012,-49.316
1678025240.900,50.781,-14.160,-1.953,67.383,-54.199
1678025240.904,37.109,-17.578,-8.301,70.801,-57.617
1678025240.908,34.180,-16.113,-9.766,67.383,43.457
1678025240.911,23.926,-18.066,-14.648,63.965,182.129
1678025240.915,16.113,-21.484,-20.996,52.734,20.508
1678025240.919,5.371,-21.484,-23.438,52.734,-229.004
1678025240.923,0.000,-22.461,-33.203,55.664,-116.699
1678025240.927,6.836,-24.902,-40.527,44.434,27.344
1678025240.927,15.625,-24.414,-42.480,25.879,-112.305
1678025240.931,8.301,-23.926,-47.363,25.391,-231.934
1678025240.935,-1.465,-29.785,-55.176,38.574,-203.613
1678025240.939,1.465,-26.855,-62.988,47.363,-96.191
1678025240.943,5.371,-21.484,-67.871,47.852,-53.223
1678025240.947,3.906,-20.508,-70.801,26.367,-99.609
1678025240.951,-7.812,-17.090,-73.242,19.043,-46.875
1678025240.954,-5.859,-13.672,-82.031,36.133,239.746
1678025240.958,-0.488,-16.113,-89.844,41.504,219.238
1678025240.962,13.184,-19.043,-91.309,16.113,-64.941
1678025240.966,41.504,-20.020,-99.609,-8.789,-42.480
1678025240.970,64.453,-14.160,-100.586,-18.555,-152.344
1678025240.972,73.242,-17.578,-103.027,-26.367,-261.230
1678025240.976,85.449,-27.344,-111.816,-28.809,-112.305
1678025240.980,108.887,-24.414,-112.305,-35.156,69.824
1678025240.984,122.070,-20.508,-113.770,-57.129,-28.320
1678025240.988,123.047,-21.484,-111.816,-77.637,-219.238
1678025240.992,128.418,-23.438,-112.305,-72.266,-107.910
1678025240.996,121.582,-19.531,-120.605,-61.035,236.328
1678025240.999,108.887,-18.066,-126.465,-83.496,219.238
1678025241.003,111.816,-16.602,-131.348,-113.770,-88.867
1678025241.007,105.469,-15.137,-134.277,-137.207,-200.195
1678025241.011,98.145,-14.648,-131.836,-136.719,-58.594
1678025241.015,106.445,-10.254,-130.859,-118.652,-44.434
1678025241.017,113.281,-12.695,-132.812,-107.910,-110.840
1678025241.021,107.910,-15.625,-129.395,-115.723,-23.438
1678025241.025,98.633,-19.043,-124.512,-126.465,69.824
1678025241.029,94.727,-19.043,-121.582,-132.812,-95.215
1678025241.033,92.285,-20.508,-121.094,-122.559,-114.746
1678025241.037,93.262,-19.531,-123.535,-114.746,125.000
1678025241.041,94.727,-21.484,-124.023,-122.070,144.531
1678025241.044,95.215,-20.020,-125.000,-134.277,-67.383
1678025241.048,88.379,-13.672,-126.465,-134.766,-134.277
1678025241.052,76.660,-20.020,-125.977,-116.211,63.477
1678025241.056,86.914,-25.391,-125.000,-104.492,332.031
1678025241.060,100.586,-19.043,-123.047,-121.094,83.984
1678025241.093,93.750,-16.602,-120.605,-141.113,-172.363
1678025241.097,77.637,-22.949,-121.094,-144.043,-75.195
1678025241.101,70.801,-23.438,-117.676,-127.441,-37.598
1678025241.105,74.219,-19.531,-112.793,-108.398,-82.520
1678025241.109,74.219,-19.531,-111.816,-111.328,-94.727
1678025241.113,68.359,-22.461,-112.305,-119.629,-86.426
1678025241.117,59.570,-26.855,-106.934,-114.746,-107.910
1678025241.120,51.270,-27.344,-101.074,-93.750,-137.207
1678025241.124,55.664,-25.879,-102.051,-73.242,-40.039
1678025241.128,62.988,-21.484,-93.750,-67.383,187.988
1678025241.132,61.523,-21.484,-84.961,-80.566,38.574
1678025241.136,58.594,-27.344,-84.473,-94.238,-176.270
1678025241.123,53.711,-30.273,-77.148,-75.684,-41.504
1678025241.127,50.781,-30.273,-72.266,-64.941,82.031
1678025241.131,52.246,-31.250,-72.754,-74.707,-23.926
1678025241.135,43.457,-31.250,-69.824,-87.891,-159.180
1678025241.139,32.715,-27.344,-64.941,-100.098,-146.973
1678025241.143,27.832,-30.273,-65.430,-96.191,10.742
1678025241.147,28.320,-29.785,-60.547,-78.125,15.137
1678025241.150,37.598,-21.973,-47.363,-60.547,-62.500
1678025241.154,36.133,-25.879,-41.504,-70.312,-1.953
1678025241.158,29.297,-25.391,-36.621,-79.590,-87.891
1678025241.162,14.160,-28.809,-37.598,-71.777,-191.895
1678025241.166,14.648,-32.227,-34.668,-62.500,-150.879
1678025241.168,28.320,-26.367,-23.438,-55.664,41.016
1678025241.172,31.738,-29.297,-20.020,-67.383,347.168
1678025241.176,29.785,-31.738,-13.672,-92.285,111.328
1678025241.180,17.578,-26.855,-6.836,-87.891,-168.945
1678025241.184,13.184,-27.832,2.930,-67.871,56.641
1678025241.188,20.020,-33.203,8.301,-79.102,72.266
1678025241.192,26.367,-30.273,9.766,-96.680,-83.984
1678025241.195,28.809,-28.809,16.602,-108.398,-162.598
1678025241.199,26.855,-33.203,18.555,-100.098,31.738
1678025241.203,27.344,-30.762,22.461,-87.891,74.707
1678025241.207,27.344,-31.738,29.785,-91.309,-73.730
1678025241.211,26.367,-34.180,38.086,-101.074,-51.270
1678025241.212,22.949,-31.250,40.039,-120.117,-71.777
1678025241.216,7.812,-30.762,45.898,-117.188,-147.949
1678025241.220,-2.441,-36.133,50.293,-107.422,-118.652
1678025241.224,8.301,-36.621,49.316,-95.703,0.488
1678025241.228,37.598,-34.180,57.617,-71.289,115.234
1678025241.232,43.457,-32.715,67.871,-74.707,30.762
1678025241.236,12.695,-33.203,71.777,-99.121,-141.602
1678025241.239,-6.348,-33.203,79.102,-90.820,49.316
1678025241.243,-7.324,-33.203,92.773,-76.172,303.711
1678025241.247,-15.137,-37.109,105.469,-101.074,46.875
1678025241.251,-29.297,-41.504,117.676,-123.535,-136.230
1678025241.255,-41.016,-42.480,126.465,-128.906,10.254
1678025241.258,-50.781,-45.410,132.324,-135.254,48.828
1678025241.262,-40.039,-48.340,140.625,-126.953,-111.816
1678025241.266,-43.945,-51.758,150.391,-136.230,-137.695
1678025241.270,-59.570,-53.223,154.785,-150.879,54.199
1678025241.274,-70.801,-57.617,153.809,-157.227,-31.250
1678025241.278,-70.312,-57.129,152.344,-155.762,-154.297
1678025241.282,-53.223,-52.734,155.762,-139.160,17.090
1678025241.285,-40.039,-51.758,160.645,-114.258,260.254
1678025241.289,-34.668,-50.781,159.668,-123.047,163.574
1678025241.293,-34.668,-49.805,151.855,-144.043,-183.105
1678025241.297,-44.434,-51.270,145.508,-136.719,-143.066
1678025241.301,-44.434,-51.270,141.113,-111.328,112.305
1678025241.302,-27.832,-45.410,138.184,-102.539,-36.133
1678025241.306,-28.320,-43.945,136.230,-122.070,-228.516
1678025241.310,-37.109,-47.363,135.742,-126.953,-239.746
1678025241.314,-33.691,-44.922,131.836,-102.051,-214.355
1678025241.318,-25.879,-37.109,126.953,-74.707,-164.062
1678025241.322,-18.555,-42.480,125.000,-76.660,-95.703
1678025241.326,-21.973,-46.875,123.047,-72.754,51.758
1678025241.329,-24.902,-37.109,127.441,-48.828,181.152
1678025241.333,-35.645,-38.574,126.465,-45.898,-26.855
1678025241.337,-37.598,-42.969,117.676,-42.969,-143.555
1678025241.341,-19.531,-39.062,111.816,-21.484,56.641
1678025241.345,0.488,-35.645,109.375,-21.973,161.621
1678025241.347,-8.301,-31.250,107.422,-49.805,-136.230
1678025241.351,-18.066,-24.414,109.375,-51.270,-202.637
1678025241.355,-16.113,-25.391,108.398,-21.484,-47.363
1678025241.359,-15.137,-33.691,104.004,-19.531,-86.914
1678025241.363,-12.207,-32.715,97.168,-34.180,-139.648
1678025241.367,-15.625,-28.809,94.727,-51.270,-34.180
1678025241.371,-27.344,-29.785,97.656,-61.035,152.344
1678025241.374,-30.273,-32.227,100.586,-46.875,-13.184
1678025241.378,-22.949,-37.598,103.027,-35.156,-157.227
1678025241.382,-13.184,-35.156,101.562,-44.922,-74.219
1678025241.386,-1.953,-32.227,101.562,-60.547,-46.875
1678025241.390,-3.906,-32.227,101.074,-64.453,-121.094
1678025241.395,-11.230,-27.832,99.121,-49.316,-198.242
1678025241.399,-10.742,-27.344,100.098,-36.621,-117.188
1678025241.403,-9.766,-27.344,104.492,-25.391,154.785
1678025241.407,-13.672,-30.273,109.375,-32.715,12.207
1678025241.411,-23.438,-29.297,107.910,-44.922,-195.312
1678025241.415,-32.715,-27.832,101.074,-36.621,-7.812
1678025241.419,-26.855,-33.691,104.492,-27.344,127.441
1678025241.422,-22.461,-34.180,104.492,-39.551,51.270
1678025241.426,-30.762,-30.273,101.562,-68.359,-42.480
1678025241.430,-32.715,-31.738,102.051,-69.824,-89.355
1678025241.434,-34.180,-33.691,97.656,-51.270,22.461
1678025241.438,-29.785,-29.297,98.633,-50.293,-76.660
1678025241.454,-24.902,-25.879,105.957,-51.758,-109.863
1678025241.458,-18.066,-26.367,106.934,-60.059,-21.973
1678025241.462,-23.438,-29.297,105.957,-74.219,-95.215
1678025241.466,-30.273,-28.809,107.422,-51.758,-133.301
1678025241.470,-42.480,-27.832,106.934,-31.250,-72.754
1678025241.474,-45.898,-27.344,98.145,-24.902,180.176
1678025241.478,-38.574,-24.902,89.844,-27.344,145.508
1678025241.481,-43.457,-22.949,93.750,-46.875,-201.172
1678025241.485,-50.781,-23.438,96.680,-43.457,-233.887
1678025241.489,-53.711,-25.391,95.703,-21.484,46.387
1678025241.493,-54.688,-36.133,93.262,-24.902,-18.555
1678025241.497,-57.617,-36.621,90.332,-47.363,-224.609
1678025241.498,-57.129,-25.879,90.820,-55.176,-228.027
1678025241.502,-53.223,-32.227,87.891,-52.734,-142.578
1678025241.506,-57.617,-34.668,83.008,-48.340,-81.543
1678025241.510,-54.199,-32.715,83.984,-41.016,-64.941
1678025241.514,-46.875,-32.227,81.055,-46.875,-53.223
1678025241.518,-47.852,-28.809,71.777,-57.129,8.301
1678025241.522,-59.570,-29.297,67.383,-54.199,-41.016
1678025241.525,-67.871,-26.855,60.059,-48.828,-159.180
1678025241.529,-55.176,-21.484,53.711,-43.945,12.695
1678025241.533,-50.293,-24.414,55.176,-56.152,319.336
1678025241.537,-54.688,-25.391,51.758,-83.008,176.270
1678025241.541,-50.293,-26.855,44.434,-84.473,-112.793
1678025241.542,-62.500,-32.227,41.016,-76.172,-25.391
1678025241.546,-65.918,-34.180,36.621,-77.637,-24.414
1678025241.550,-55.176,-35.645,40.527,-83.496,-115.234
1678025241.554,-45.898,-32.715,39.062,-85.449,-141.602
1678025241.558,-54.199,-27.832,26.367,-93.262,-120.605
1678025241.562,-61.523,-27.832,20.020,-85.938,-18.555
1678025241.566,-42.969,-25.391,23.926,-72.266,67.383
1678025241.569,-34.668,-24.414,24.902,-72.754,17.578
1678025241.573,-49.316,-24.414,24.414,-73.242,143.066
1678025241.577,-56.641,-25.879,24.902,-74.707,126.953
1678025241.581,-60.547,-27.344,23.926,-75.195,-94.238
1678025241.585,-47.852,-24.902,25.391,-63.965,-104.492
1678025241.587,-31.738,-20.996,28.320,-62.988,-58.105
1678025241.591,-41.504,-25.879,27.832,-89.355,-105.957
1678025241.595,-55.176,-28.809,27.344,-103.027,-223.145
1678025241.599,-58.594,-24.414,26.367,-89.844,-153.809
1678025241.603,-62.012,-23.438,28.320,-88.379,-51.270
1678025241.607,-59.570,-20.508,24.902,-97.168,-8.789
1678025241.611,-52.734,-26.367,20.020,-108.398,-1.953
1678025241.614,-53.711,-27.344,26.855,-113.770,-7.812
1678025241.618,-61.035,-22.461,28.320,-99.121,298.828
1678025241.622,-64.453,-25.391,25.391,-92.773,270.508
1678025241.626,-53.711,-22.461,33.691,-101.074,-86.426
1678025241.630,-45.410,-20.020,39.062,-104.004,-44.434
1678025241.632,-41.992,-23.926,34.668,-106.445,-49.805
1678025241.636,-50.293,-22.461,36.621,-100.098,-207.520
1678025241.640,-64.453,-23.438,42.480,-88.867,-118.164
1678025241.644,-53.223,-25.391,45.410,-83.984,22.461
1678025241.648,-40.039,-24.902,44.922,-90.820,-40.039
1678025241.652,-34.668,-25.879,49.316,-90.332,-74.707
1678025241.656,-49.805,-26.367,52.734,-74.707,24.902
1678025241.659,-73.242,-32.227,47.363,-61.035,236.328
1678025241.663,-67.383,-32.715,45.898,-54.199,175.781
1678025241.667,-47.852,-28.320,45.898,-54.199,-38.574
1678025241.671,-39.551,-24.902,49.805,-64.453,-119.141
1678025241.675,-44.922,-20.508,49.316,-61.035,-102.051
1678025241.677,-49.805,-18.066,49.805,-47.363,-87.891
1678025241.681,-37.598,-14.648,53.711,-41.504,-46.387
1678025241.685,-14.160,-17.090,52.734,-39.551,19.531
1678025241.689,-11.230,-21.484,47.852,-49.805,28.809
1678025241.693,-16.113,-18.555,45.410,-46.875,-52.246
1678025241.697,-23.926,-19.531,50.781,-33.691,-74.707
1678025241.701,-31.738,-20.996,55.176,-25.879,121.582
1678025241.704,-29.297,-20.996,52.734,-20.020,326.172
1678025241.708,-30.273,-20.508,49.805,-29.785,68.848
1678025241.712,-45.898,-21.973,51.270,-38.574,-156.250
1678025241.716,-61.035,-19.531,54.199,-34.668,-85.449
1678025241.720,-60.059,-11.719,60.059,-37.598,5.859
1678025241.723,-45.410,-11.230,62.500,-43.945,-91.797
1678025241.727,-38.086,-17.090,55.176,-64.453,-69.336
1678025241.731,-54.688,-17.578,46.875,-77.637,77.148
1678025241.735,-74.707,-17.090,45.898,-70.312,-67.871
1678025241.739,-68.848,-18.066,44.922,-62.500,-181.152
1678025241.743,-50.781,-17.578,42.969,-67.871,-1.953
1678025241.747,-30.762,-13.184,37.598,-75.684,209.961
1678025241.750,-37.598,-6.348,41.016,-74.707,111.816
1678025241.754,-69.824,-5.859,40.527,-77.148,-91.309
1678025241.758,-75.684,-8.301,32.715,-66.406,-93.262
1678025241.762,-56.641,-8.301,33.691,-51.758,21.484
1678025241.766,-45.898,-14.160,30.273,-62.988,-59.570
1678025241.767,-43.457,-14.648,23.926,-65.918,-166.016
1678025241.771,-63.965,-9.766,27.344,-55.664,-131.836
1678025241.775,-81.543,-12.207,27.832,-53.223,-88.379
1678025241.779,-62.988,-12.207,30.273,-43.457,-63.477
1678025241.783,-42.969,-9.277,27.344,-47.363,-31.738
1678025241.787,-50.293,-12.207,21.484,-58.594,83.984
1678025241.791,-72.266,-17.090,26.855,-42.480,302.734
1678025241.794,-69.824,-10.254,26.855,-26.367,39.551
1678025241.798,-54.199,-1.465,12.207,-46.387,-118.164
1678025241.802,-37.109,0.000,1.953,-67.871,69.336
1678025241.806,-33.203,4.395,-3.906,-73.242,50.293
1678025241.810,-42.480,8.301,-5.371,-74.707,-161.621
1678025241.827,-57.617,6.836,-5.859,-69.824,-131.836
1678025241.831,-57.129,8.789,-10.254,-66.895,41.992
1678025241.835,-45.898,4.395,-11.230,-56.641,-9.766
1678025241.839,-37.109,0.488,-9.766,-44.922,-129.883
1678025241.843,-47.852,8.301,-8.789,-46.875,-78.125
1678025241.847,-68.359,6.348,-10.254,-52.734,90.332
1678025241.851,-68.359,1.953,-16.602,-51.758,85.938
1678025241.854,-49.805,5.371,-18.066,-48.340,-25.879
1678025241.858,-27.344,7.324,-14.648,-48.828,-40.039
1678025241.862,-37.109,-0.977,-12.695,-43.945,168.945
1678025241.866,-68.848,-5.371,-12.207,-42.480,112.305
1678025241.870,-65.918,0.000,-14.648,-42.969,-78.125
1678025241.873,-38.086,0.488,-11.230,-50.781,-46.875
1678025241.877,-24.902,-0.488,-5.859,-61.035,-20.508
1678025241.881,-39.062,-6.348,-5.859,-65.918,-76.172
1678025241.885,-63.965,-6.836,-7.812,-62.500,-166.016
1678025241.889,-63.965,-2.930,-11.719,-57.129,-111.328
1678025241.893,-35.645,0.000,-11.719,-55.176,3.906
1678025241.897,-23.926,-2.441,-8.301,-67.383,-23.438
1678025241.900,-39.551,-9.277,-8.789,-80.078,-126.465
1678025241.904,-71.777,-6.348,-12.207,-72.754,58.105
1678025241.908,-75.684,-2.930,-10.742,-49.316,422.363
1678025241.912,-53.223,-7.812,-6.836,-43.945,283.691
1678025241.916,-39.551,-8.789,2.930,-56.641,-95.215
1678025241.917,-47.852,-10.254,4.883,-61.523,-103.027
1678025241.921,-77.637,-15.137,-0.977,-59.082,-132.324
1678025241.925,-84.473,-15.137,-1.953,-55.664,-202.637
1678025241.929,-67.383,-17.578,0.488,-53.223,-160.645
1678025241.933,-56.152,-19.043,-5.371,-60.547,-113.770
1678025241.937,-61.523,-15.625,-10.254,-66.406,-102.539
1678025241.941,-78.613,-16.113,-7.812,-73.242,-92.285
1678025241.944,-89.844,-10.254,-3.906,-74.707,-43.945
1678025241.948,-76.172,-4.395,-1.465,-64.941,183.105
1678025241.952,-47.363,-8.301,-3.418,-76.660,146.973
1678025241.956,-46.875,-9.766,-4.883,-104.492,-76.172
1678025241.960,-80.566,-11.719,-1.953,-116.211,-73.730
1678025241.962,-99.121,-12.207,-1.953,-107.422,-21.973
1678025241.966,-82.031,-11.230,-1.953,-110.840,-104.004
1678025241.970,-63.477,-12.207,-3.418,-129.395,-141.602
1678025241.974,-60.059,-11.719,-2.930,-139.160,-72.266
1678025241.978,-76.172,-12.207,0.488,-131.348,-92.773
1678025241.982,-95.215,-10.742,1.953,-123.535,-63.477
1678025241.986,-85.449,-13.672,0.977,-122.559,29.297
1678025241.989,-63.477,-13.672,3.418,-119.141,41.016
1678025241.993,-62.988,-13.672,7.324,-119.141,41.504
1678025241.997,-82.520,-14.648,10.254,-131.348,-105.957
1678025242.001,-101.074,-12.207,18.066,-115.723,-195.312
1678025242.005,-102.051,-11.230,19.531,-83.008,-55.176
1678025242.008,-75.684,-7.324,15.137,-73.242,-3.418
1678025242.012,-64.941,-12.207,14.648,-73.242,-34.668
1678025242.016,-83.984,-11.230,18.066,-69.824,-110.840
1678025242.020,-109.863,-5.859,21.973,-69.336,32.715
1678025242.024,-103.027,-9.277,26.367,-67.383,319.824
1678025242.028,-74.707,-11.230,23.438,-79.102,35.156
1678025242.032,-60.059,-10.742,20.508,-91.797,-84.473
1678025242.035,-79.102,-12.207,29.297,-97.656,211.914
1678025242.039,-114.746,-14.160,30.273,-95.703,48.340
1678025242.043,-108.398,-14.160,30.762,-73.242,-178.223
1678025242.047,-90.332,-12.207,33.203,-65.918,-133.789
1678025242.051,-80.078,-11.230,35.645,-58.594,-169.434
1678025242.052,-83.008,-14.160,42.969,-46.387,-239.258
1678025242.056,-104.980,-13.672,45.898,-39.062,-213.379
1678025242.060,-109.863,-13.184,45.898,-28.809,-83.008
1678025242.064,-99.121,-13.672,49.805,-36.133,-6.348
1678025242.068,-81.055,-10.254,52.246,-49.316,-101.562
1678025242.072,-83.984,-10.742,52.246,-47.363,-126.953
1678025242.076,-109.375,-17.090,52.734,-43.457,-4.395
1678025242.079,-106.445,-17.090,56.641,-21.973,319.336
1678025242.083,-86.914,-14.648,58.105,-20.508,234.375
1678025242.087,-76.172,-17.578,56.152,-49.316,-123.047
1678025242.091,-83.008,-17.090,61.035,-58.105,-79.590
1678025242.095,-104.980,-15.137,62.500,-55.664,-75.684
1678025242.098,-104.004,-10.254,59.570,-53.711,-127.930
1678025242.102,-86.426,-7.812,59.082,-55.664,-129.883
1678025242.106,-76.172,-12.207,52.246,-67.871,-78.613
1678025242.110,-85.449,-14.160,48.340,-88.867,-17.090
1678025242.114,-104.004,-11.719,56.641,-88.867,-135.254
1678025242.118,-117.188,-11.719,54.199,-82.031,-85.449
1678025242.122,-110.352,-12.207,48.828,-81.543,257.812
1678025242.125,-94.727,-12.207,46.387,-87.891,193.359
1678025242.129,-85.938,-13.184,41.992,-93.750,-97.168
1678025242.133,-94.238,-10.254,41.992,-77.637,-116.211
1678025242.137,-112.793,-9.277,38.086,-61.523,-9.277
1678025242.141,-97.656,-6.348,35.645,-63.477,-138.184
1678025242.142,-79.590,-8.789,35.156,-83.008,-209.961
1678025242.146,-86.426,-15.137,32.227,-99.121,-152.344
1678025242.150,-100.586,-11.230,31.738,-91.797,-122.070
1678025242.154,-115.234,-8.301,26.855,-89.355,-93.750
1678025242.158,-104.004,-9.277,24.902,-81.543,-132.812
1678025242.162,-75.195,-6.836,23.438,-79.102,-80.078
1678025242.166,-57.129,-3.906,20.508,-85.449,73.242
1678025242.169,-75.684,-7.324,22.461,-87.402,-9.277
1678025242.173,-115.723,-10.254,19.531,-90.332,-38.574
1678025242.177,-114.258,-8.789,13.184,-85.938,101.562
1678025242.181,-88.379,-6.836,13.672,-72.754,321.777
1678025242.185,-78.613,-10.742,9.766,-83.984,128.418
1678025242.203,-94.727,-13.184,3.906,-91.309,-101.562
1678025242.207,-114.258,-11.230,1.953,-83.984,-79.590
1678025242.211,-99.609,-10.742,1.953,-87.402,-83.984
1678025242.215,-82.031,-10.742,1.465,-99.609,-128.418
1678025242.219,-75.195,-12.207,-3.418,-112.793,-169.922
1678025242.223,-89.844,-19.043,-5.859,-110.840,-36.133
1678025242.227,-111.328,-18.066,-3.906,-104.980,-27.344
1678025242.230,-104.980,-17.578,-3.906,-114.258,-114.258
1678025242.234,-85.449,-20.996,-4.883,-116.699,-89.844
1678025242.238,-66.406,-22.949,-6.836,-120.117,83.984
1678025242.242,-72.266,-21.973,-5.859,-131.348,25.879
1678025242.246,-97.656,-16.113,1.953,-125.977,-148.926
1678025242.263,-104.492,-17.578,3.906,-122.070,-95.703
1678025242.267,-91.797,-20.020,-0.977,-124.023,212.402
1678025242.271,-77.637,-15.137,-8.789,-138.184,60.547
1678025242.275,-83.984,-18.066,-6.348,-152.832,-206.055
1678025242.279,-116.699,-18.066,2.930,-147.461,-166.016
1678025242.283,-124.023,-14.160,3.906,-135.254,-19.531
1678025242.287,-103.516,-14.160,6.348,-128.418,32.715
1678025242.290,-85.938,-15.625,7.324,-130.371,-113.281
1678025242.294,-89.355,-18.555,6.348,-124.023,-22.949
1678025242.298,-106.445,-15.625,7.812,-111.816,271.973
1678025242.302,-116.211,-12.695,8.301,-113.770,84.473
1678025242.306,-99.121,-15.137,2.930,-114.258,-127.441
1678025242.294,-87.402,-15.625,0.977,-114.258,108.398
1678025242.298,-82.031,-6.836,12.207,-110.840,3.418
1678025242.302,-92.285,-2.441,17.578,-100.586,-160.645
1678025242.306,-110.840,-2.930,18.066,-95.215,-39.062
1678025242.310,-96.191,-1.953,24.902,-91.797,54.688
1678025242.314,-86.426,-1.953,27.832,-105.469,20.020
1678025242.318,-85.938,-4.395,28.809,-120.117,-54.688
1678025242.321,-92.285,-6.348,32.715,-113.770,-96.680
1678025242.325,-108.398,-8.301,33.691,-99.609,114.258
1678025242.329,-101.562,-8.789,31.738,-90.820,88.867
1678025242.333,-85.449,-11.719,31.250,-87.891,-122.070
1678025242.337,-85.449,-12.695,38.574,-80.566,-157.715
1678025242.339,-99.121,-5.859,46.875,-61.523,104.492
1678025242.343,-105.957,-1.953,49.805,-49.805,-4.395
1678025242.347,-100.098,-9.766,47.852,-53.223,-167.480
1678025242.351,-90.332,-11.719,41.016,-59.570,-3.906
1678025242.355,-84.961,-8.789,41.016,-56.152,135.254
1678025242.359,-95.703,-12.207,38.086,-56.641,30.762
1678025242.363,-110.840,-11.719,37.109,-52.734,-119.141
1678025242.366,-97.656,-12.207,41.016,-43.945,11.230
1678025242.370,-77.148,-12.695,39.551,-40.527,284.180
1678025242.374,-68.848,-6.348,35.645,-48.828,62.500
1678025242.378,-69.336,-6.348,34.668,-52.734,-179.199
1678025242.382,-83.008,-13.672,34.668,-44.434,-50.781
1678025242.428,-81.543,-11.230,35.645,-36.133,-39.062
1678025242.432,-63.965,-6.348,34.668,-44.922,-147.949
1678025242.436,-64.453,-9.277,34.180,-66.406,-104.492
1678025242.440,-78.613,-6.348,39.551,-68.848,-17.090
1678025242.444,-104.980,-5.859,35.645,-65.430,-55.664
1678025242.448,-106.934,-9.277,29.297,-59.570,-30.273
1678025242.452,-88.379,-9.766,31.250,-49.316,59.082
1678025242.455,-83.496,-14.648,24.414,-56.152,217.285
1678025242.459,-91.309,-18.066,20.996,-64.453,132.324
1678025242.463,-109.863,-15.137,20.996,-62.988,-113.770
1678025242.467,-112.305,-11.230,18.555,-51.758,-99.609
1678025242.471,-99.121,-17.578,11.230,-62.500,-62.500
1678025242.461,-95.703,-22.461,4.395,-97.656,-91.309
1678025242.465,-94.238,-15.625,4.883,-116.211,-146.484
1678025242.469,-97.168,-14.160,7.324,-115.234,-127.930
1678025242.473,-104.980,-16.602,7.324,-106.934,-82.031
1678025242.477,-97.168,-18.066,5.859,-105.469,-69.824
1678025242.481,-86.426,-16.602,3.418,-122.559,-23.926
1678025242.485,-81.543,-14.648,2.441,-133.789,-4.883
1678025242.488,-88.379,-18.066,-5.859,-130.859,3.418
1678025242.492,-107.422,-18.555,-13.672,-118.652,-22.949
1678025242.496,-107.910,-14.160,-15.137,-115.234,-96.191
1678025242.500,-95.703,-11.230,-19.531,-132.324,-76.660
1678025242.504,-98.633,-11.230,-27.832,-145.996,-129.395
1678025242.488,-105.957,-13.672,-28.320,-139.648,-196.289
1678025242.492,-115.234,-14.160,-32.715,-133.301,-152.344
1678025242.496,-112.305,-15.625,-38.574,-132.324,-1.465
1678025242.500,-99.121,-18.066,-41.504,-147.949,-26.855
1678025242.504,-93.750,-18.555,-46.387,-162.598,-184.570
1678025242.508,-111.816,-22.949,-51.758,-163.086,-43.457
1678025242.512,-124.512,-24.414,-54.199,-148.926,229.980
1678025242.515,-114.746,-23.438,-54.199,-148.438,83.008
1678025242.519,-102.539,-20.508,-57.129,-165.039,-119.629
1678025242.523,-96.191,-17.578,-58.594,-167.969,-14.648
1678025242.527,-106.934,-20.508,-56.152,-146.973,258.789
1678025242.531,-115.723,-20.508,-58.105,-122.559,91.797
1678025242.517,-119.141,-21.484,-62.012,-109.863,-148.926
1678025242.521,-107.422,-25.879,-57.129,-88.867,-65.918
1678025242.525,-80.078,-18.066,-50.781,-55.664,193.848
1678025242.529,-86.914,-5.859,-53.223,-53.711,346.191
1678025242.533,-102.051,-5.859,-55.664,-76.660,72.754
1678025242.537,-92.773,-4.883,-62.012,-85.449,34.180
1678025242.541,-81.543,1.953,-65.430,-92.285,58.105
1678025242.544,-81.055,5.371,-71.777,-122.070,-180.176
1678025242.548,-91.797,7.324,-81.055,-153.320,-250.488
1678025242.552,-95.703,6.836,-89.844,-158.203,-70.312
1678025242.556,-86.426,6.836,-92.285,-154.785,249.023
1678025242.560,-83.984,8.301,-98.633,-181.152,26.367
1678025242.577,-84.473,10.742,-103.516,-194.824,-255.859
1678025242.581,-87.891,9.277,-101.562,-175.781,-36.133
1678025242.585,-88.867,6.348,-102.051,-147.461,78.125
1678025242.589,-81.055,2.930,-97.168,-136.719,-123.047
1678025242.593,-77.637,0.977,-87.402,-127.441,-117.676
1678025242.597,-70.801,0.488,-83.984,-129.395,20.020
1678025242.601,-84.961,-3.906,-81.055,-139.648,-61.523
1678025242.604,-90.332,1.465,-72.754,-120.605,-194.824
1678025242.608,-89.355,-0.977,-66.895,-95.703,-125.000
1678025242.612,-97.168,-8.301,-73.242,-94.238,133.301
1678025242.616,-105.469,-10.254,-67.383,-114.746,21.484
1678025242.620,-132.324,-10.254,-66.406,-141.113,-175.293
1678025242.624,-168.457,-13.672,-81.055,-166.016,-134.766
1678025242.628,-203.613,-12.207,-87.891,-183.594,-40.039
1678025242.632,-238.770,-11.719,-100.586,-224.609,-25.391
1678025242.636,-268.555,-14.160,-115.723,-270.508,-135.254
1678025242.640,-290.527,-13.672,-124.512,-288.086,-128.418
1678025242.644,-319.336,-7.812,-133.789,-298.828,49.316
1678025242.648,-343.262,-0.488,-144.043,-308.594,111.816
1678025242.651,-345.215,0.000,-151.367,-320.801,-30.273
1678025242.655,-339.355,-1.953,-157.715,-342.285,-0.488
1678025242.659,-329.102,-3.418,-163.086,-342.773,255.859
1678025242.663,-314.941,-4.395,-154.785,-310.547,29.785
1678025242.667,-311.523,-11.719,-147.461,-290.039,-156.250
1678025242.667,-298.828,-14.648,-147.949,-285.156,-24.414
1678025242.671,-273.926,-15.137,-142.578,-282.227,-56.641
1678025242.675,-247.559,-16.602,-137.695,-282.715,-182.617
1678025242.679,-230.957,-16.113,-135.742,-264.648,-208.008
1678025242.683,-219.238,-19.043,-130.371,-233.398,-38.574
1678025242.687,-186.035,-18.066,-121.094,-212.891,72.266
1678025242.691,-158.203,-19.043,-117.188,-208.984,0.000
1678025242.694,-145.508,-21.973,-110.840,-200.195,-144.043
1678025242.698,-137.695,-22.461,-104.980,-167.969,37.109
1678025242.702,-125.488,-26.855,-102.051,-128.906,125.000
1678025242.706,-104.980,-28.320,-94.727,-106.445,-114.258
1678025242.710,-83.008,-25.879,-89.844,-103.027,-100.586
1678025242.712,-68.848,-26.855,-89.355,-111.816,-101.562
1678025242.716,-70.312,-32.227,-88.379,-108.887,-200.195
1678025242.720,-66.406,-33.203,-81.055,-90.332,-177.246
1678025242.724,-59.570,-33.203,-72.754,-69.824,-84.473
1678025242.728,-51.270,-32.715,-68.359,-61.035,-60.547
1678025242.732,-38.574,-31.250,-59.570,-63.965,-22.461
1678025242.736,-37.598,-33.203,-52.246,-61.035,-84.473
1678025242.739,-40.039,-34.180,-47.363,-37.109,-9.766
1678025242.743,-21.484,-35.645,-38.574,-2.930,407.227
1678025242.747,-7.324,-38.086,-31.738,3.906,334.961
1678025242.751,-5.371,-38.086,-26.855,-10.254,-89.355
1678025242.755,-6.836,-33.691,-20.508,-5.371,-154.785
1678025242.757,-5.859,-32.227,-13.672,13.672,-133.301
1678025242.761,-3.418,-33.203,-8.789,24.414,-145.508
1678025242.765,2.441,-33.203,-2.441,26.367,-58.594
1678025242.769,-1.953,-36.621,-2.930,9.766,-63.965
1678025242.773,-9.766,-35.156,-0.977,-1.465,-149.414
1678025242.777,-10.254,-28.809,7.324,15.625,-127.930
1678025242.781,-5.371,-33.203,11.230,39.551,-3.906
1678025242.784,3.418,-37.109,19.531,53.711,227.539
1678025242.788,7.324,-34.668,28.320,53.711,107.422
1678025242.792,2.441,-31.738,41.504,45.898,-143.066
1678025242.796,0.000,-29.297,52.246,52.734,-116.211
1678025242.800,-6.348,-28.320,51.270,68.848,29.297
1678025242.802,0.000,-28.320,53.711,71.777,-49.805
1678025242.806,1.465,-30.762,64.941,56.152,-152.832
1678025242.810,-13.672,-31.738,68.848,34.180,-167.480
1678025242.814,-16.602,-29.785,70.801,41.016,-120.605
1678025242.818,-4.883,-31.738,76.660,64.941,-41.992
1678025242.822,1.953,-35.645,84.473,62.012,40.039
1678025242.826,-0.977,-34.180,87.402,42.480,115.234
1678025242.829,-12.695,-33.691,88.379,23.438,196.289
1678025242.833,-18.555,-32.715,91.797,21.973,16.602
1678025242.837,-26.367,-31.738,90.820,34.668,-114.746
1678025242.841,-22.461,-34.180,88.379,47.363,-2.930
1678025242.845,-16.113,-35.645,93.262,58.594,86.426
1678025242.848,-23.438,-28.809,96.680,47.852,-80.566
1678025242.852,-32.715,-27.832,98.633,44.922,-178.223
1678025242.856,-26.367,-25.391,100.586,74.707,96.680
1678025242.860,-18.555,-24.414,102.051,95.215,261.719
1678025242.864,-21.484,-28.809,103.516,80.078,-46.387
1678025242.868,-34.180,-32.227,99.609,58.105,-155.762
1678025242.872,-44.434,-31.738,99.121,73.242,144.531
1678025242.875,-42.480,-32.227,102.051,92.773,100.586
1678025242.879,-46.875,-29.785,99.609,89.355,-80.078
1678025242.883,-43.945,-21.484,101.074,79.102,-63.477
1678025242.887,-39.062,-24.414,99.121,62.012,-126.953
1678025242.891,-49.316,-27.344,96.191,55.176,-215.820
1678025242.909,-53.223,-28.809,102.051,60.059,-199.707
1678025242.913,-49.805,-32.227,100.586,66.406,-68.359
1678025242.917,-46.387,-28.320,94.238,59.082,49.316
1678025242.921,-49.805,-28.809,94.727,37.109,-93.262
1678025242.925,-58.105,-26.367,96.191,34.668,-197.754
1678025242.929,-67.871,-31.250,96.680,49.805,63.477
1678025242.933,-61.523,-37.109,93.750,64.453,289.062
1678025242.936,-47.363,-34.668,93.262,50.293,58.105
1678025242.940,-51.758,-34.180,89.355,6.836,-111.816
1678025242.944,-58.105,-32.715,87.402,-15.137,-55.176
1678025242.948,-49.805,-29.297,93.750,11.230,179.199
1678025242.952,-46.875,-23.438,88.379,10.742,-30.273
1678025242.953,-57.129,-23.438,78.613,-20.020,-130.859
1678025242.957,-54.688,-23.926,72.754,-34.668,-90.332
1678025242.961,-56.641,-20.508,69.336,-36.621,-242.676
1678025242.965,-63.477,-20.020,67.871,-28.320,-210.449
1678025242.969,-61.523,-20.508,68.848,-34.668,-32.715
1678025242.973,-56.641,-20.996,66.895,-42.480,123.047
1678025242.977,-58.594,-27.832,66.895,-37.598,-5.859
1678025242.980,-60.059,-28.320,70.801,-41.016,-195.801
1678025242.984,-65.918,-27.344,69.336,-47.852,-226.562
1678025242.988,-67.383,-34.668,70.312,-38.574,132.812
1678025242.992,-60.059,-31.738,70.312,-36.133,268.555
1678025242.996,-56.152,-23.926,70.312,-50.293,-100.098
1678025242.997,-64.941,-22.461,72.754,-62.988,-240.234
1678025243.001,-71.777,-20.996,75.684,-66.406,-182.129
1678025243.005,-66.406,-18.555,77.148,-55.176,-120.605
1678025243.009,-54.199,-20.020,79.590,-51.270,-69.824
1678025243.013,-53.711,-22.461,78.613,-62.500,-35.156
1678025243.017,-62.012,-17.090,79.102,-64.453,-36.621
1678025243.021,-73.242,-17.090,81.055,-56.641,-37.109
1678025243.024,-76.660,-21.973,81.055,-41.992,-36.133
1678025243.028,-62.500,-19.531,76.660,-40.039,104.492
1678025243.032,-54.688,-20.996,72.754,-43.945,355.469
1678025243.036,-61.523,-23.438,71.289,-61.035,214.355
1678025243.040,-69.824,-23.438,71.289,-61.035,-143.066
1678025243.042,-66.895,-22.461,75.195,-47.363,-131.348
1678025243.046,-46.875,-19.531,76.660,-44.434,-46.875
1678025243.050,-34.668,-21.484,75.684,-53.223,-145.020
1678025243.054,-36.621,-23.438,79.590,-63.965,-167.480
1678025243.058,-39.551,-20.996,83.496,-52.734,-198.242
1678025243.062,-35.156,-22.461,88.379,-31.738,-96.191
1678025243.066,-32.227,-23.926,93.262,-22.949,37.109
1678025243.069,-32.715,-23.438,93.750,-30.273,-83.008
1678025243.073,-46.875,-25.879,92.773,-47.852,197.266
1678025243.077,-66.895,-25.879,96.191,-47.852,238.281
1678025243.081,-73.242,-24.414,100.586,-39.551,-125.000
1678025243.085,-73.730,-25.879,101.074,-37.109,-112.793
1678025243.087,-68.359,-23.438,101.562,-37.598,-105.469
1678025243.091,-65.430,-19.043,106.934,-42.969,-218.262
1678025243.095,-78.613,-20.996,113.770,-46.387,-258.301
1678025243.099,-77.637,-26.855,112.305,-30.273,-149.902
1678025243.103,-63.965,-31.250,106.934,-18.555,-60.547
1678025243.107,-56.641,-33.203,110.840,-27.344,30.762
1678025243.111,-51.270,-30.762,117.676,-38.574,7.324
1678025243.114,-54.199,-23.926,120.605,-26.367,-41.992
1678025243.118,-60.059,-23.926,123.535,-5.371,328.613
1678025243.122,-60.059,-22.461,126.953,-5.859,214.844
1678025243.126,-59.570,-24.902,129.395,-7.324,-159.180
1678025243.130,-63.477,-29.297,136.719,-2.441,-36.621
1678025243.132,-67.871,-28.320,144.043,-18.555,-111.816
1678025243.136,-77.148,-31.738,141.113,-39.062,-252.441
1678025243.140,-80.078,-30.273,140.137,-31.250,-173.828
1678025243.144,-72.266,-30.762,143.066,-38.574,-73.730
1678025243.148,-62.500,-30.762,147.461,-42.480,-86.914
1678025243.152,-64.941,-28.320,154.297,-30.762,-170.898
1678025243.156,-74.707,-29.785,163.086,-14.160,-154.297
1678025243.159,-71.777,-31.738,172.363,22.461,145.020
1678025243.163,-66.895,-35.156,173.828,45.410,149.902
1678025243.167,-70.312,-37.109,182.129,21.484,-125.977
1678025243.171,-72.266,-36.133,188.477,3.906,-185.547
1678025243.175,-74.707,-36.621,191.406,17.578,-133.301
1678025243.179,-70.801,-40.527,198.242,41.504,-57.129
1678025243.183,-58.594,-42.969,203.125,45.898,-41.504
1678025243.187,-49.316,-39.062,207.031,34.180,-41.504
1678025243.191,-48.340,-38.086,208.984,30.762,5.371
1678025243.195,-62.988,-39.062,211.914,35.645,-99.609
1678025243.199,-78.125,-34.668,215.820,45.410,-118.652
1678025243.203,-72.266,-32.715,216.797,47.852,154.297
1678025243.206,-64.453,-37.109,220.215,40.527,368.652
1678025243.210,-55.664,-35.645,223.633,16.602,74.707
1678025243.214,-60.059,-28.809,226.562,20.996,-218.750
1678025243.218,-62.500,-29.785,231.934,56.641,-74.219
1678025243.222,-54.688,-34.668,236.328,67.383,82.520
1678025243.222,-53.711,-36.133,237.793,48.828,-37.109
1678025243.226,-52.734,-33.691,240.723,41.504,-90.820
1678025243.230,-56.152,-30.762,249.512,36.621,-130.859
1678025243.234,-56.641,-32.715,252.930,43.457,-90.332
1678025243.238,-53.223,-41.016,252.930,47.363,-33.203
1678025243.242,-59.082,-46.387,257.324,37.598,-95.215
1678025243.246,-60.059,-38.574,259.277,31.738,177.734
1678025243.249,-57.129,-39.062,260.254,23.438,212.891
1678025243.253,-54.199,-42.480,262.695,27.832,-108.887
1678025243.257,-47.852,-36.133,264.160,41.992,-121.582
1678025243.261,-39.551,-37.598,264.648,26.367,-74.707
1678025243.265,-38.086,-42.480,268.555,10.742,-140.625
1678025243.267,-43.945,-37.109,273.438,0.000,-212.402
1678025243.271,-48.828,-33.691,276.367,12.207,-168.945
1678025243.275,-41.504,-34.668,278.809,33.691,-63.965
1678025243.279,-40.039,-36.621,280.273,18.066,-28.809
1678025243.283,-42.969,-31.738,282.715,1.953,-100.098
1678025243.287,-51.270,-34.180,283.203,-12.695,-91.797
1678025243.291,-56.641,-34.180,280.762,-9.766,30.762
1678025243.294,-57.617,-30.762,283.203,-0.488,32.715
1678025243.298,-54.688,-34.668,288.574,-24.902,79.590
1678025243.302,-45.898,-39.551,291.992,-42.480,71.777
1678025243.306,-43.945,-37.109,293.945,-40.527,-97.168
1678025243.310,-47.852,-35.156,293.457,-27.344,-124.512
1678025243.328,-56.641,-37.109,299.805,-9.766,-33.203
1678025243.332,-55.664,-35.645,305.176,-6.348,147.461
1678025243.336,-52.246,-31.738,303.711,-9.766,339.844
1678025243.340,-53.711,-29.297,308.105,-33.203,2.441
1678025243.344,-48.340,-27.832,314.453,-33.691,-244.141
1678025243.348,-51.270,-27.344,317.871,-20.996,54.199
1678025243.352,-49.316,-27.344,319.336,-27.344,62.500
1678025243.355,-47.852,-31.250,317.871,-46.875,-50.781
1678025243.359,-61.035,-32.715,316.895,-67.871,19.043
1678025243.363,-71.289,-30.762,317.871,-60.059,188.477
1678025243.367,-71.289,-34.180,314.453,-39.551,165.527
1678025243.371,-66.895,-36.133,312.500,-38.574,-41.504
1678025243.373,-62.500,-32.715,312.988,-53.223,-66.895
1678025243.377,-66.406,-38.086,305.664,-79.590,-113.770
1678025243.381,-75.195,-41.016,301.758,-94.238,-203.125
1678025243.385,-86.914,-36.133,300.293,-82.520,-120.117
1678025243.389,-80.078,-35.156,297.852,-75.684,36.133
1678025243.393,-64.941,-41.016,294.434,-99.121,45.898
1678025243.397,-70.801,-44.922,294.434,-124.023,-87.402
1678025243.400,-84.961,-45.410,294.434,-133.789,-147.949
1678025243.404,-89.355,-46.875,291.016,-126.465,-13.672
1678025243.408,-83.496,-45.410,290.039,-101.562,251.465
1678025243.412,-70.312,-41.504,287.109,-107.910,141.602
1678025243.416,-62.988,-38.574,285.645,-120.117,-206.055
1678025243.418,-72.754,-35.156,281.738,-121.582,-177.246
1678025243.422,-74.219,-35.645,279.785,-107.910,-54.688
1678025243.426,-68.359,-35.156,281.738,-88.867,-65.430
1678025243.430,-61.035,-34.180,277.344,-83.008,-88.867
1678025243.434,-62.988,-41.016,271.484,-91.309,-121.582
1678025243.438,-72.754,-45.898,269.531,-114.258,-117.676
1678025243.442,-76.660,-43.945,266.602,-98.145,-69.336
1678025243.445,-65.430,-39.551,264.160,-78.125,-22.461
1678025243.449,-50.781,-33.203,258.789,-80.078,242.188
1678025243.453,-45.410,-28.809,252.441,-94.238,118.652
1678025243.457,-54.199,-27.832,247.559,-108.398,-201.172
1678025243.461,-69.824,-36.133,241.211,-103.027,-162.598
1678025243.467,-79.102,-37.109,237.793,-86.426,-40.039
1678025243.471,-71.777,-35.156,238.770,-68.848,-12.695
1678025243.475,-61.035,-36.621,235.352,-78.613,-161.621
1678025243.479,-59.570,-29.785,234.375,-94.238,-182.617
1678025243.483,-67.871,-33.203,234.375,-80.078,-49.316
1678025243.487,-78.125,-35.645,228.027,-67.383,40.527
1678025243.491,-75.684,-31.738,222.656,-77.148,36.621
1678025243.494,-71.777,-29.297,212.402,-82.520,0.488
1678025243.498,-73.242,-25.879,207.031,-68.359,181.152
1678025243.502,-73.730,-30.273,204.102,-61.523,-1.953
1678025243.506,-70.801,-32.227,199.707,-50.781,-183.594
1678025243.510,-62.988,-30.762,189.941,-34.668,-71.777
1678025243.508,-58.105,-32.227,189.453,-36.621,-72.266
1678025243.512,-53.223,-28.320,185.547,-47.363,-185.059
1678025243.516,-66.895,-31.250,169.434,-48.828,-176.758
1678025243.520,-76.660,-28.809,167.480,-28.809,10.742
1678025243.524,-94.238,-36.133,162.109,-43.945,27.832
1678025243.528,-121.582,-41.016,149.902,-94.238,13.184
1678025243.532,-141.602,-27.832,142.578,-134.277,-48.340
1678025243.535,-181.152,-25.879,124.023,-161.133,33.203
1678025243.539,-233.887,-36.621,98.633,-187.988,105.957
1678025243.543,-258.301,-35.156,76.660,-230.469,-83.496
1678025243.547,-281.738,-27.344,56.152,-278.809,-158.691
1678025243.551,-315.430,-23.926,44.922,-313.965,-179.688
1678025243.553,-345.703,-16.602,34.180,-336.426,-246.094
1678025243.557,-370.117,-20.508,15.625,-355.469,-204.590
1678025243.561,-354.980,-22.949,9.766,-333.984,-156.250
1678025243.565,-328.125,-18.555,13.184,-316.406,-137.207
1678025243.569,-326.172,-23.438,7.812,-340.820,-120.605
1678025243.573,-322.754,-26.855,0.977,-334.473,-159.180
1678025243.577,-306.152,-24.902,-0.488,-296.875,-84.961
1678025243.580,-280.762,-28.809,-0.488,-264.648,273.438
1678025243.584,-249.512,-30.762,-1.953,-246.094,183.105
1678025243.588,-225.586,-23.438,-1.953,-240.723,-102.539
1678025243.592,-200.684,-23.438,-1.953,-219.727,-155.273
1678025243.596,-178.223,-32.227,-5.371,-181.641,-120.605
1678025243.597,-147.461,-33.691,-3.906,-142.090,-124.512
1678025243.601,-121.094,-29.297,-4.395,-126.953,-98.145
1678025243.605,-105.469,-30.273,-9.277,-125.977,17.578
1678025243.609,-97.656,-31.738,-16.602,-119.629,-41.016
1678025243.613,-89.844,-31.738,-21.484,-92.773,-139.648
1678025243.617,-71.777,-40.039,-21.484,-62.012,69.336
1678025243.621,-45.410,-43.457,-23.926,-38.574,345.215
1678025243.624,-28.320,-38.086,-24.414,-30.762,160.156
1678025243.628,-26.367,-39.551,-22.949,-37.598,-122.070
1678025243.632,-15.625,-36.621,-25.391,-18.066,-100.586
1678025243.636,2.441,-33.203,-20.996,13.672,99.609
1678025243.640,17.578,-32.227,-19.531,21.484,3.906
1678025243.642,20.020,-31.250,-20.508,12.207,-106.934
1678025243.646,11.230,-35.645,-28.320,-0.977,-84.961
1678025243.650,14.648,-32.715,-27.344,10.254,-39.551
1678025243.654,25.391,-31.250,-18.066,34.668,57.617
1678025243.658,31.738,-32.715,-16.113,39.551,31.738
1678025243.662,38.086,-33.203,-13.184,25.391,0.977
1678025243.666,40.527,-35.645,-14.648,9.277,21.973
1678025243.669,32.227,-41.016,-20.996,3.906,-79.590
1678025243.673,41.504,-40.039,-22.461,17.090,-126.465
1678025243.677,55.664,-40.039,-20.508,35.645,41.504
1678025243.681,53.711,-41.504,-20.508,30.273,203.125
1678025243.685,51.270,-39.551,-17.578,7.812,-38.574
1678025243.702,54.688,-40.039,-12.695,11.719,-217.773
1678025243.706,62.988,-44.434,-16.602,50.293,111.816
1678025243.710,73.730,-43.945,-16.602,71.777,309.082
1678025243.714,81.543,-40.039,-13.184,49.316,15.625
1678025243.718,74.219,-43.457,-16.602,38.086,-96.191
1678025243.722,57.129,-42.480,-19.531,45.898,19.043
1678025243.726,48.828,-37.598,-18.066,50.781,69.336
1678025243.729,56.641,-42.969,-15.137,56.152,-28.809
1678025243.733,65.918,-44.434,-14.648,61.035,-53.711
1678025243.737,61.035,-36.621,-13.184,54.688,97.656
1678025243.741,46.875,-36.621,-12.207,39.551,-22.461
1678025243.745,29.785,-39.551,-14.160,37.598,-132.812
1678025243.747,32.227,-31.250,-15.137,45.898,-47.852
1678025243.751,38.086,-35.156,-18.555,37.598,36.133
1678025243.755,31.250,-42.969,-16.113,19.043,-69.336
1678025243.759,20.508,-40.527,-15.625,3.418,-194.336
1678025243.763,14.648,-39.551,-14.160,16.602,-149.902
1678025243.767,17.578,-42.480,-10.254,29.785,47.852
1678025243.771,24.414,-35.645,-11.230,12.207,100.586
1678025243.774,20.020,-34.180,-15.625,-20.508,-76.172
1678025243.778,10.254,-29.785,-13.672,-42.480,-19.531
1678025243.782,11.719,-26.855,-17.090,-25.879,283.691
1678025243.786,13.184,-32.227,-23.438,-10.742,130.859
1678025243.790,17.090,-36.133,-28.809,-24.414,-101.562
1678025243.793,15.137,-37.109,-29.297,-43.457,-65.918
1678025243.797,10.742,-31.250,-23.438,-44.922,-161.133
1678025243.801,13.184,-33.203,-20.020,-26.367,-193.359
1678025243.805,11.230,-37.598,-17.578,-8.789,-33.203
1678025243.809,10.254,-38.086,-13.184,8.301,107.910
1678025243.813,13.184,-36.133,-14.160,12.695,23.438
1678025243.817,12.695,-31.250,-15.137,16.113,-153.320
1678025243.820,2.441,-26.367,-9.766,27.344,-193.848
1678025243.824,-2.441,-27.832,-10.254,59.082,93.750
1678025243.828,-4.883,-35.156,-13.184,65.918,93.750
1678025243.832,-6.836,-37.109,-15.137,40.039,-131.348
1678025243.836,-8.301,-37.109,-19.043,30.273,-186.035
1678025243.837,-19.043,-38.086,-21.973,29.297,-159.668
1678025243.841,-24.414,-34.180,-17.090,43.457,-126.465
1678025243.845,-10.254,-31.738,-12.207,56.641,-107.422
1678025243.849,1.953,-29.297,-9.766,50.781,-17.090
1678025243.853,-6.836,-30.762,-11.719,41.504,-39.062
1678025243.857,-14.160,-31.250,-14.160,50.293,-22.949
1678025243.861,-12.207,-30.273,-6.836,69.824,39.062
1678025243.864,-7.812,-33.691,-2.441,76.660,147.461
1678025243.868,-9.766,-33.203,-0.977,77.148,497.559
1678025243.872,-14.648,-36.133,4.883,62.988,315.918
1678025243.876,-19.531,-36.621,4.883,43.457,-167.969
1678025243.880,-18.555,-33.203,0.977,52.246,-137.695
1678025243.882,-5.859,-31.738,1.465,41.504,-94.727
1678025243.886,-5.859,-28.809,1.953,-9.277,-160.156
1678025243.890,-15.137,-29.785,0.977,-45.410,-189.453
1678025243.894,-30.273,-27.344,2.930,-63.477,-221.191
1678025243.898,-42.480,-28.809,9.766,-66.406,-170.410
1678025243.902,-32.227,-34.180,10.742,-53.711,-50.781
1678025243.906,-11.719,-26.367,11.719,-64.453,-18.555
1678025243.909,-17.090,-26.855,14.160,-86.426,202.637
1678025243.913,-16.602,-27.832,13.184,-86.426,259.766
1678025243.917,-11.719,-25.391,14.648,-79.590,-25.391
1678025243.921,-11.719,-30.273,12.207,-67.871,-40.039
1678025243.925,-4.883,-28.320,13.184,-71.289,-40.039
1678025243.928,-9.766,-30.273,17.578,-92.285,-167.969
1678025243.932,-19.043,-31.250,18.555,-94.727,-274.414
1678025243.936,-15.625,-29.785,17.578,-81.055,-214.355
1678025243.940,-11.230,-31.250,18.555,-77.637,-69.336
1678025243.944,-12.695,-29.297,25.879,-76.172,-61.523
1678025243.948,-15.625,-33.691,31.738,-94.727,-116.211
1678025243.952,-17.578,-35.645,31.250,-111.328,-116.699
1678025243.955,-18.066,-30.762,31.738,-82.520,192.383
1678025243.959,-18.066,-30.762,34.180,-68.848,105.957
1678025243.963,-6.836,-27.344,34.180,-82.520,-172.363
1678025243.967,-5.371,-27.344,32.715,-89.355,-5.859
1678025243.971,-22.461,-31.738,30.762,-91.797,102.051
1678025243.973,-32.227,-30.273,30.273,-83.008,-100.098
1678025243.977,-30.273,-32.227,32.715,-73.242,-102.051
1678025243.981,-22.461,-39.551,30.273,-75.684,14.648
1678025243.985,-20.996,-34.668,33.691,-83.008,-77.148
1678025243.989,-27.344,-27.832,38.086,-93.262,-225.098
1678025243.993,-34.668,-33.691,36.133,-96.680,-93.750
1678025243.997,-33.691,-37.109,37.109,-71.777,324.219
1678025244.000,-27.832,-34.668,36.621,-72.754,243.164
1678025244.004,-33.203,-39.551,32.227,-104.980,-112.793
1678025244.008,-42.480,-42.480,28.809,-114.746,-166.016
1678025244.012,-46.387,-38.086,29.297,-115.723,-159.180
1678025244.016,-46.875,-40.039,31.738,-97.656,-80.566
1678025244.018,-34.180,-42.969,33.691,-84.473,-39.062
1678025244.022,-20.020,-39.551,34.180,-87.891,-67.871
1678025244.026,-19.043,-37.109,34.668,-95.215,-71.289
1678025244.030,-31.250,-38.574,41.992,-89.844,-139.160
1678025244.034,-37.109,-42.969,43.945,-80.566,-101.562
1678025244.038,-24.902,-43.457,37.598,-76.172,101.562
1678025244.042,-22.461,-43.945,36.621,-87.402,221.191
1678025244.045,-39.551,-45.410,38.574,-112.793,19.043
1678025244.049,-46.875,-44.922,37.109,-120.605,-149.902
1678025244.053,-41.992,-43.945,38.086,-100.586,-31.250
1678025244.057,-38.086,-45.410,35.156,-87.891,234.863
1678025244.061,-37.109,-41.016,33.203,-101.562,32.227
1678025244.078,-37.109,-37.109,40.039,-117.188,-172.363
1678025244.082,-39.062,-34.180,41.504,-114.746,-171.875
1678025244.086,-36.621,-32.715,39.551,-99.121,-82.031
1678025244.090,-30.762,-34.668,36.621,-94.727,-53.223
1678025244.094,-24.902,-34.180,35.645,-102.051,-93.262
1678025244.098,-31.738,-31.250,38.086,-103.027,137.695
1678025244.102,-38.574,-27.832,37.598,-104.980,96.191
1678025244.105,-38.574,-25.879,35.156,-109.863,-177.246
1678025244.109,-28.320,-27.832,38.574,-83.496,-33.203
1678025244.113,-21.973,-29.785,40.527,-41.504,162.109
1678025244.117,-23.438,-27.832,41.016,-28.320,-21.484
1678025244.121,-34.180,-28.809,42.969,-43.945,-146.973
1678025244.122,-51.270,-33.203,41.504,-57.129,-110.840
1678025244.126,-43.945,-33.203,37.109,-50.781,-21.973
1678025244.130,-30.762,-29.785,37.598,-54.688,-35.156
1678025244.134,-35.645,-29.297,41.016,-75.684,-84.961
1678025244.138,-41.504,-29.785,44.922,-79.102,-91.309
1678025244.142,-33.203,-26.367,49.805,-64.453,-59.570
1678025244.146,-19.531,-24.902,54.199,-49.805,-5.859
1678025244.149,-18.066,-26.855,57.617,-56.152,60.059
1678025244.153,-17.578,-25.391,59.082,-69.824,104.492
1678025244.157,-22.461,-28.809,60.547,-85.938,259.277
1678025244.161,-44.434,-38.574,53.711,-98.633,77.637
1678025244.165,-49.316,-38.574,45.898,-93.262,-105.957
1678025244.167,-35.156,-35.645,43.457,-83.496,-35.156
1678025244.171,-31.250,-34.668,42.969,-99.609,-140.625
1678025244.175,-40.527,-40.527,45.898,-121.094,-225.098
1678025244.179,-46.387,-39.062,48.828,-107.422,-193.848
1678025244.183,-39.551,-35.156,50.781,-87.891,-60.059
1678025244.187,-38.574,-39.551,48.828,-91.309,59.082
1678025244.191,-38.086,-37.109,49.316,-98.633,73.242
1678025244.194,-39.062,-35.156,47.363,-118.652,-0.488
1678025244.198,-43.945,-35.645,47.852,-113.770,111.328
1678025244.202,-34.180,-34.180,50.293,-85.449,188.477
1678025244.206,-26.367,-33.203,46.875,-88.867,-35.645
1678025244.210,-25.391,-30.762,48.828,-106.445,-60.547
1678025244.227,-27.832,-34.668,48.340,-134.766,-75.684
1678025244.231,-35.156,-36.621,44.922,-146.484,-219.238
1678025244.235,-34.668,-32.227,43.457,-128.906,-174.805
1678025244.239,-34.668,-28.809,42.480,-123.047,-59.570
1678025244.243,-34.668,-27.832,49.316,-136.719,-88.379
1678025244.247,-29.297,-34.180,53.223,-153.320,-93.262
1678025244.251,-40.039,-36.133,50.781,-167.969,-101.562
1678025244.254,-43.945,-28.809,53.223,-145.508,-22.949
1678025244.258,-35.156,-26.367,51.758,-104.004,323.242
1678025244.262,-28.320,-26.367,49.805,-109.863,229.980
1678025244.266,-31.250,-25.879,53.223,-137.695,-165.527
1678025244.270,-44.434,-26.855,51.758,-132.812,-117.188
1678025244.257,-45.898,-28.809,48.828,-115.723,-38.086
1678025244.261,-35.645,-29.297,44.434,-104.004,-86.426
1678025244.265,-32.715,-26.367,41.992,-97.168,-61.523
1678025244.269,-30.762,-27.344,42.969,-98.633,-77.637
1678025244.273,-35.645,-31.738,44.922,-98.145,-172.852
1678025244.277,-35.645,-31.738,47.363,-85.938,-159.668
1678025244.281,-26.855,-31.250,46.387,-75.684,50.781
1678025244.284,-23.438,-31.738,40.039,-68.848,206.055
1678025244.288,-28.320,-31.738,35.645,-76.172,20.508
1678025244.292,-40.527,-34.668,41.016,-84.961,-188.965
1678025244.296,-48.828,-36.133,47.852,-71.777,-160.645
1678025244.300,-41.504,-34.180,40.527,-48.828,214.844
1678025244.303,-31.738,-32.227,32.715,-44.434,278.320
1678025244.307,-23.438,-29.297,35.645,-66.406,-94.238
1678025244.311,-28.320,-28.809,40.039,-82.031,-204.590
1678025244.315,-38.574,-25.391,39.551,-80.078,-155.762
1678025244.319,-31.738,-23.926,38.574,-68.359,-71.289
1678025244.323,-20.996,-25.391,34.668,-67.383,2.930
1678025244.327,-16.113,-25.879,30.273,-75.684,64.453
1678025244.330,-15.137,-22.949,35.645,-75.684,183.105
1678025244.334,-11.230,-20.020,34.668,-62.012,-4.883
1678025244.338,-5.859,-20.996,32.227,-44.922,-167.480
1678025244.342,3.906,-25.879,34.180,-45.898,23.438
1678025244.346,7.812,-24.414,30.762,-55.176,123.535
1678025244.349,-10.254,-19.043,32.227,-65.918,-144.043
1678025244.353,-24.902,-20.508,37.109,-62.988,-176.758
1678025244.357,-31.250,-20.020,35.156,-35.645,133.301
1678025244.361,-29.785,-22.949,28.809,-21.973,100.098
1678025244.365,-23.438,-26.855,28.809,-22.949,-75.684
1678025244.369,-27.344,-25.879,34.668,-40.527,-40.527
1678025244.373,-35.156,-23.438,34.668,-33.691,127.441
1678025244.376,-39.551,-21.484,30.273,-16.602,56.152
1678025244.380,-40.527,-22.461,25.879,-12.695,-108.887
1678025244.384,-42.480,-24.414,23.438,-8.789,-73.242
1678025244.388,-49.316,-21.484,22.949,1.953,-135.742
1678025244.392,-60.547,-25.391,23.926,19.043,-182.129
1678025244.392,-69.824,-25.391,29.297,36.621,-145.020
1678025244.396,-62.988,-24.414,32.227,59.570,-71.289
1678025244.400,-50.781,-23.926,35.156,78.125,-49.316
1678025244.404,-57.617,-20.020,34.668,62.500,-151.855
1678025244.408,-66.895,-26.855,24.414,48.340,-148.438
1678025244.412,-68.359,-24.414,18.066,64.453,79.102
1678025244.416,-69.336,-23.926,17.090,95.703,426.758
1678025244.419,-80.078,-21.973,5.371,92.285,222.168
1678025244.423,-100.586,-18.555,-5.371,60.547,-69.824
1678025244.427,-119.141,-16.602,-6.348,41.016,-31.250
1678025244.431,-130.371,-7.812,-8.789,40.039,23.926
1678025244.435,-144.043,1.953,-18.555,39.062,-51.758
1678025244.452,-160.645,8.301,-33.203,13.184,-122.559
1678025244.456,-166.504,2.441,-42.480,-27.344,-91.797
1678025244.460,-175.293,1.465,-44.434,-59.082,-139.648
1678025244.464,-204.102,-0.488,-46.387,-82.520,-236.328
1678025244.468,-210.938,-4.883,-43.945,-82.031,-108.398
1678025244.472,-206.543,-1.953,-47.363,-89.355,119.629
1678025244.476,-208.496,-5.371,-53.711,-120.117,34.668
1678025244.479,-212.402,-8.789,-48.828,-134.277,-160.645
1678025244.483,-202.637,-5.371,-42.480,-117.676,-142.578
1678025244.487,-191.406,-6.836,-43.457,-81.055,133.789
1678025244.491,-173.340,-5.371,-37.109,-50.781,169.434
1678025244.495,-161.133,-6.836,-29.297,-65.918,-116.211
1678025244.497,-160.156,-10.742,-26.855,-91.797,-200.684
1678025244.501,-151.855,-7.324,-16.602,-67.871,-136.719
1678025244.505,-131.348,-10.254,-9.766,-39.551,-88.867
1678025244.509,-108.887,-19.043,-9.277,-38.574,-20.996
1678025244.513,-93.262,-17.090,-0.977,-41.016,-19.531
1678025244.517,-83.496,-23.926,7.812,-39.062,-23.926
1678025244.521,-77.637,-33.691,11.719,-25.391,-24.902
1678025244.524,-66.895,-35.156,19.043,-9.766,-25.391
1678025244.528,-56.641,-34.668,27.832,10.254,111.816
1678025244.532,-51.270,-36.621,34.668,18.555,433.594
1678025244.536,-43.457,-38.574,35.645,-7.812,197.266
1678025244.540,-44.922,-37.598,38.574,-13.672,-160.645
1678025244.543,-38.574,-34.668,47.852,12.695,-74.219
1678025244.547,-28.320,-35.156,55.664,6.348,-22.949
1678025244.551,-18.066,-34.668,65.430,-0.977,-118.164
1678025244.555,-21.484,-37.109,71.777,-5.371,-171.875
1678025244.559,-28.809,-36.133,77.148,-7.324,-57.129
1678025244.563,-20.020,-33.691,81.055,17.578,-60.547
1678025244.567,-11.719,-38.086,80.078,33.203,-29.297
1678025244.570,7.812,-41.992,82.520,19.043,79.590
1678025244.574,18.066,-43.457,89.844,14.160,133.789
1678025244.578,6.836,-46.387,94.727,7.812,8.789
1678025244.582,5.371,-42.480,100.586,2.930,-186.523
1678025244.586,22.461,-40.527,104.004,20.020,-2.441
1678025244.587,25.391,-37.598,106.934,25.391,125.977
1678025244.591,13.672,-36.621,109.375,0.977,-116.211
1678025244.595,6.836,-43.457,108.398,-6.836,-289.062
1678025244.599,4.395,-46.387,116.699,12.695,-192.383
1678025244.603,2.930,-48.828,124.023,26.367,-23.438
1678025244.607,13.184,-47.363,122.070,26.367,67.383
1678025244.611,15.625,-50.293,125.000,17.090,-29.297
1678025244.614,12.695,-52.246,128.418,23.926,-82.520
1678025244.618,10.742,-51.270,130.859,59.082,245.605
1678025244.622,15.625,-52.246,131.836,69.824,203.125
1678025244.626,20.508,-47.363,128.906,55.664,-34.668
1678025244.630,15.625,-42.480,129.883,46.387,-87.891
1678025244.634,9.766,-43.945,130.859,41.992,-156.738
1678025244.638,5.859,-43.457,133.301,43.945,-184.082
1678025244.642,11.230,-44.922,136.230,63.965,-78.125
1678025244.646,16.602,-45.410,134.766,71.777,135.254
1678025244.650,22.949,-38.574,136.230,51.270,32.715
1678025244.654,21.484,-38.574,138.184,28.809,-79.590
1678025244.658,9.277,-43.457,137.207,24.902,-55.664
1678025244.661,13.672,-44.434,139.160,46.387,162.109
1678025244.665,28.809,-42.480,137.207,54.688,164.062
1678025244.669,27.832,-39.062,132.324,36.133,-83.984
1678025244.673,19.531,-37.598,132.812,22.949,-133.301
1678025244.677,17.578,-41.504,130.371,19.531,-129.395
1678025244.677,30.273,-39.062,128.906,38.574,-86.914
1678025244.681,35.645,-39.551,126.465,44.434,-87.891
1678025244.685,29.297,-43.945,130.859,20.996,-124.512
1678025244.689,24.902,-40.039,136.719,15.625,-27.344
1678025244.693,16.113,-36.621,135.254,32.227,-79.590
1678025244.697,14.648,-39.062,134.277,47.852,-90.820
1678025244.701,18.555,-39.062,132.324,55.176,168.945
1678025244.704,17.090,-38.086,134.277,50.781,425.781
1678025244.708,14.648,-37.598,135.254,41.504,165.527
1678025244.712,6.348,-35.156,136.719,38.086,-175.293
1678025244.716,-2.441,-41.504,138.184,50.293,-48.828
1678025244.720,8.789,-44.434,134.766,57.617,-7.812
1678025244.723,20.508,-45.410,131.836,42.480,-86.426
1678025244.727,15.625,-47.363,127.441,26.855,-157.715
1678025244.731,3.906,-46.387,125.000,13.184,-193.848
1678025244.735,-4.395,-49.805,123.535,21.484,-142.578
1678025244.739,2.930,-46.387,125.000,38.574,-113.770
1678025244.743,11.230,-35.156,125.488,31.738,-27.344
1678025244.747,13.672,-34.180,125.488,28.809,199.219
1678025244.750,5.371,-34.668,126.953,34.180,150.879
1678025244.754,1.465,-34.668,125.488,42.969,-151.855
1678025244.758,8.301,-41.016,125.000,55.176,-130.371
1678025244.762,4.395,-41.504,123.047,42.480,12.695
1678025244.766,4.395,-32.715,124.023,9.766,-129.883
1678025244.767,3.418,-26.855,122.070,-13.672,-267.090
1678025244.771,-9.277,-27.344,116.699,-5.859,-172.852
1678025244.775,-10.254,-29.297,117.676,5.371,-99.121
1678025244.779,-8.789,-32.227,115.234,-1.465,-68.848
1678025244.783,-9.766,-33.203,117.188,-18.555,-125.977
1678025244.787,-18.555,-28.809,123.047,-17.090,-39.062
1678025244.791,-26.855,-26.855,125.000,1.953,130.859
1678025244.794,-28.320,-30.273,119.629,-5.859,18.066
1678025244.798,-23.926,-31.250,113.281,-17.090,-25.391
1678025244.802,-20.508,-33.203,112.305,-22.461,41.504
1678025244.806,-26.855,-34.180,106.934,-26.367,210.938
1678025244.810,-31.250,-30.273,108.398,-28.320,-19.531
1678025244.827,-24.902,-36.621,111.328,-26.855,-131.348
1678025244.831,-14.160,-38.574,106.934,-22.949,-34.180
1678025244.835,-12.695,-33.203,106.934,-30.273,-152.832
1678025244.839,-22.461,-34.668,105.469,-39.551,-209.961
1678025244.843,-30.762,-35.156,103.516,-41.504,-138.184
1678025244.847,-31.738,-31.738,103.516,-29.297,35.645
1678025244.851,-23.438,-28.320,100.586,-32.227,59.082
1678025244.854,-16.113,-28.320,96.191,-53.711,-107.910
1678025244.858,-28.809,-32.227,95.215,-74.219,-163.086
1678025244.862,-27.344,-34.180,101.562,-65.918,109.375
1678025244.866,-25.391,-34.180,100.098,-44.434,123.535
1678025244.870,-22.461,-34.668,93.750,-28.809,-60.059
1678025244.872,-19.531,-32.715,92.285,-26.855,-91.797
1678025244.876,-30.762,-36.621,91.797,-24.902,31.250
1678025244.880,-31.250,-37.109,95.703,-8.789,-79.590
1678025244.884,-25.391,-29.297,99.121,19.043,-145.508
1678025244.888,-15.625,-31.738,92.773,27.832,-78.125
1678025244.892,-11.719,-31.738,93.750,14.648,-0.488
1678025244.896,-16.602,-26.855,91.797,-7.812,-10.254
1678025244.899,-18.066,-25.391,82.031,-16.113,-129.883
1678025244.903,-25.879,-28.809,84.473,9.277,40.039
1678025244.907,-21.973,-26.367,89.844,38.086,400.879
1678025244.911,-7.812,-17.578,92.773,42.969,198.730
1678025244.915,-7.812,-16.602,89.355,23.438,-157.715
1678025244.918,-16.602,-17.578,87.891,11.230,-121.582
1678025244.922,-21.973,-17.090,89.355,22.461,20.508
1678025244.926,-17.578,-20.508,83.496,32.715,-2.930
1678025244.930,-7.324,-22.949,79.102,27.832,-74.707
1678025244.934,-5.371,-19.531,77.637,11.230,-17.090
1678025244.938,-20.996,-17.090,74.707,-2.441,-113.770
1678025244.942,-33.691,-20.996,70.801,0.488,-129.883
1678025244.945,-26.367,-30.273,66.895,17.090,-36.133
1678025244.949,-17.090,-27.344,70.312,27.832,176.758
1678025244.953,-20.020,-24.902,74.219,18.555,71.289
1678025244.957,-30.762,-29.785,69.336,-4.883,-234.863
1678025244.961,-36.133,-29.297,67.871,-10.742,-206.543
1678025244.963,-36.133,-29.785,64.941,-5.859,-79.590
1678025244.967,-30.273,-30.762,62.500,-26.855,-43.457
1678025244.971,-27.832,-30.762,59.082,-69.336,-141.113
1678025244.975,-36.621,-27.344,57.129,-94.238,-88.867
1678025244.979,-37.109,-25.879,53.223,-103.027,50.781
1678025244.983,-27.344,-30.273,50.293,-107.910,59.082
1678025244.987,-12.207,-24.902,53.223,-116.211,27.832
1678025244.990,-4.883,-22.949,49.805,-135.254,27.832
1678025244.994,-5.371,-26.855,41.992,-147.949,268.066
1678025244.998,-11.230,-23.438,41.992,-151.367,94.727
1678025245.002,-9.277,-20.508,41.992,-139.160,-66.895
1678025245.006,-6.348,-24.902,42.480,-131.836,86.426
1678025245.008,-5.371,-25.391,42.480,-137.695,-0.977
1678025245.012,-17.090,-27.344,42.480,-147.949,-121.582
1678025245.016,-31.738,-26.855,44.922,-145.508,-177.246
1678025245.020,-26.367,-25.391,46.387,-131.348,-48.828
1678025245.024,-18.555,-28.809,47.852,-126.953,-10.742
1678025245.028,-19.043,-30.273,46.387,-134.277,-110.352
1678025245.032,-22.461,-28.809,45.898,-144.043,-79.102
1678025245.035,-25.879,-29.785,42.969,-143.555,144.043
1678025245.039,-33.203,-29.297,41.504,-124.512,232.910
1678025245.043,-31.250,-29.785,39.551,-106.934,-102.051
1678025245.047,-30.273,-31.738,32.227,-99.121,-185.059
1678025245.051,-42.480,-29.297,30.762,-104.492,-144.043
1678025245.052,-47.852,-25.879,34.668,-105.957,-273.438
1678025245.056,-49.316,-28.320,32.227,-95.703,-231.445
1678025245.060,-48.340,-30.762,31.738,-70.801,-85.449
1678025245.064,-34.668,-25.879,28.809,-64.453,-63.965
1678025245.068,-27.832,-22.949,24.414,-73.730,-175.781
1678025245.072,-36.133,-21.484,26.367,-72.266,-182.129
1678025245.076,-37.109,-23.438,25.391,-63.965,58.594
1678025245.079,-29.297,-28.809,21.484,-51.270,315.430
1678025245.083,-20.508,-28.320,19.531,-53.223,99.609
1678025245.087,-20.020,-26.855,20.996,-62.012,-196.777
1678025245.091,-32.227,-28.809,17.090,-57.617,-129.395
1678025245.095,-36.133,-27.832,14.648,-46.875,91.309
1678025245.097,-30.762,-24.902,15.625,-39.551,-61.523
1678025245.101,-32.227,-30.273,16.113,-44.922,-156.738
1678025245.105,-32.715,-32.715,19.531,-46.875,-43.945
1678025245.109,-33.691,-28.809,18.066,-27.832,-188.477
1678025245.113,-37.598,-29.785,10.254,-16.113,-190.918
1678025245.117,-46.387,-33.203,7.324,-13.672,-49.316
1678025245.121,-57.617,-31.738,8.789,-11.719,220.703
1678025245.124,-53.711,-35.645,8.789,-11.719,178.223
1678025245.128,-50.293,-37.598,5.859,-25.391,-189.453
1678025245.132,-53.711,-39.062,6.348,-14.648,-146.973
1678025245.136,-51.758,-36.133,6.348,11.230,71.289
1678025245.140,-44.434,-26.367,2.441,8.301,14.160
1678025245.142,-32.715,-26.855,1.953,-19.043,-119.141
1678025245.146,-36.133,-29.785,-1.465,-45.410,-150.879
1678025245.150,-45.898,-28.809,0.977,-42.480,-77.148
1678025245.154,-40.039,-33.691,3.418,-40.039,5.859
1678025245.158,-28.809,-31.250,5.371,-54.199,16.113
1678025245.162,-22.461,-32.715,5.859,-68.848,125.488
1678025245.166,-27.832,-38.574,1.953,-72.754,171.387
1678025245.169,-30.762,-35.156,4.883,-69.824,1.465
1678025245.173,-27.832,-35.645,6.836,-62.500,-66.895
1678025245.177,-20.996,-33.691,8.789,-53.223,23.438
1678025245.181,-20.996,-32.227,6.348,-60.547,131.348
1678025245.185,-19.531,-28.320,4.883,-91.797,-174.316
1678025245.188,-16.602,-24.414,8.301,-98.633,-237.305
1678025245.192,-20.020,-28.320,10.742,-78.125,10.742
1678025245.196,-17.578,-29.297,14.648,-78.125,-5.371
1678025245.200,-9.766,-30.273,15.137,-91.309,-134.766
1678025245.204,-6.348,-34.180,11.719,-109.863,-198.242
1678025245.208,-22.949,-37.598,9.277,-127.441,-94.727
1678025245.212,-31.738,-37.598,9.277,-117.676,-24.902
1678025245.215,-23.926,-36.133,7.812,-104.004,-74.707
1678025245.219,-20.020,-33.203,9.766,-113.770,-61.035
1678025245.223,-24.414,-39.062,4.395,-136.719,97.656
1678025245.227,-28.320,-37.109,0.977,-162.109,-20.020
1678025245.231,-26.367,-27.832,5.371,-153.320,-182.617
1678025245.247,-26.855,-29.297,6.348,-109.863,-50.293
1678025245.251,-20.996,-34.668,1.465,-84.473,-16.113
1678025245.255,-14.648,-33.203,-2.930,-79.590,-110.352
1678025245.259,-20.020,-33.691,-2.441,-78.125,-176.758
1678025245.263,-37.598,-34.668,-3.418,-53.711,-85.449
1678025245.267,-35.645,-34.180,-0.488,-16.113,211.426
1678025245.271,-24.902,-33.691,0.000,-16.602,162.109
1678025245.274,-28.320,-34.180,-1.953,-49.316,-101.074
1678025245.278,-39.062,-35.645,-2.441,-75.195,-73.730
1678025245.282,-48.340,-33.203,-1.953,-78.125,231.445
1678025245.286,-43.457,-35.156,-2.441,-88.379,72.266
1678025245.290,-23.438,-35.645,4.883,-107.910,-116.699
1678025245.293,-23.926,-35.156,3.906,-125.488,-44.922
1678025245.297,-26.855,-33.691,2.441,-134.277,-170.410
1678025245.301,-32.715,-32.227,6.836,-117.188,-235.352
1678025245.305,-43.945,-30.762,5.859,-98.145,-121.094
1678025245.309,-40.039,-29.785,2.930,-107.910,-34.180
1678025245.313,-39.551,-30.762,-1.953,-137.695,-31.738
1678025245.317,-47.363,-32.227,-4.395,-151.855,-42.969
1678025245.320,-56.641,-34.180,-7.324,-141.602,-16.602
1678025245.324,-53.711,-30.273,-6.836,-114.258,220.215
1678025245.328,-42.969,-26.855,-4.395,-101.074,264.160
1678025245.332,-46.387,-26.855,-3.418,-117.188,-94.727
1678025245.336,-52.734,-29.785,-3.418,-130.371,-146.484
1678025245.337,-54.199,-30.273,-3.906,-124.023,-79.590
1678025245.341,-53.711,-31.250,-1.953,-118.164,-140.137
1678025245.345,-51.758,-27.344,-3.418,-110.352,-56.152
1678025245.349,-60.059,-26.855,-7.812,-116.211,-13.672
1678025245.353,-73.730,-28.320,-6.348,-117.676,-90.332
1678025245.357,-93.750,-25.879,-5.371,-110.352,-42.480
1678025245.361,-103.027,-18.555,-8.301,-103.516,-5.859
1678025245.364,-102.051,-10.742,-12.695,-107.910,74.707
1678025245.368,-110.840,-12.695,-10.254,-125.977,427.734
1678025245.372,-107.422,2.930,-16.113,-135.254,321.289
1678025245.376,-130.859,12.207,-34.668,-166.992,-142.578
1678025245.380,-166.016,11.230,-44.434,-197.266,-191.895
1678025245.382,-174.805,14.648,-50.781,-216.797,-77.148
1678025245.386,-177.246,10.742,-66.406,-248.047,-95.215
1678025245.390,-191.406,8.789,-80.078,-283.203,-204.102
1678025245.394,-203.613,25.391,-87.402,-295.898,-175.293
1678025245.398,-197.754,38.574,-86.914,-273.438,-86.426
1678025245.402,-192.871,28.320,-76.172,-236.816,-8.301
1678025245.406,-187.988,16.602,-72.754,-219.727,49.805
1678025245.409,-172.363,16.602,-75.195,-230.469,179.199
1678025245.413,-155.762,12.695,-67.871,-229.492,7.324
1678025245.417,-148.438,1.465,-60.547,-209.961,-242.188
1678025245.421,-132.812,-4.883,-55.664,-190.918,-44.434
1678025245.425,-109.863,-8.789,-52.734,-185.059,105.469
1678025245.427,-93.750,-6.836,-49.316,-201.660,-78.613
1678025245.431,-78.125,-8.789,-41.504,-213.867,-188.477
1678025245.435,-81.543,-18.066,-37.598,-207.520,-146.484
1678025245.439,-80.078,-25.391,-37.598,-196.777,-19.043
1678025245.443,-60.059,-26.855,-30.762,-183.594,1.953
1678025245.447,-45.410,-26.367,-23.926,-174.316,-51.270
1678025245.451,-41.992,-26.855,-18.066,-171.387,-20.508
1678025245.454,-36.133,-28.809,-12.207,-138.672,214.355
1678025245.458,-24.414,-39.062,-9.277,-119.141,170.898
1678025245.462,-14.648,-36.621,-8.789,-111.816,-72.266
1678025245.466,-1.465,-29.297,-4.883,-105.469,-62.500
1678025245.470,-0.977,-36.133,-3.906,-101.562,0.488
1678025245.473,-7.324,-39.551,-1.465,-71.777,-101.074
1678025245.477,5.371,-35.156,7.324,-20.508,-94.238
1678025245.481,17.578,-32.227,11.230,10.742,89.844
1678025245.485,18.066,-39.551,6.836,4.395,66.406
1678025245.489,8.301,-42.480,4.883,-14.648,-214.844
1678025245.493,-2.441,-37.598,6.348,-13.184,-211.914
1678025245.497,-1.953,-36.133,6.348,3.418,166.016
1678025245.500,7.324,-36.133,9.766,19.043,214.355
1678025245.504,19.531,-36.133,15.625,20.020,-67.383
1678025245.508,13.672,-38.086,16.602,11.719,-141.602
1678025245.512,-3.906,-40.039,18.555,19.531,-120.117
1678025245.516,1.953,-41.016,20.996,46.387,-93.750
1678025245.533,16.113,-39.551,21.973,63.477,-75.195
1678025245.537,21.973,-41.016,18.555,50.781,-19.531
1678025245.541,28.809,-41.504,13.672,27.344,-40.527
1678025245.545,23.926,-40.527,13.672,24.414,-90.332
1678025245.549,21.973,-41.016,13.672,27.832,-167.480
1678025245.553,33.691,-41.016,12.695,34.180,14.160
1678025245.557,35.156,-41.016,9.277,32.715,315.430
1678025245.560,35.645,-37.109,12.695,9.277,51.270
1678025245.564,32.715,-35.156,14.160,-1.465,-180.176
1678025245.568,21.484,-38.086,15.137,12.207,-63.965
1678025245.572,28.809,-36.133,21.973,37.109,113.281
1678025245.576,37.598,-30.762,21.484,28.809,-10.254
1678025245.577,24.902,-31.250,20.020,1.465,-126.465
1678025245.581,19.043,-32.715,20.020,-2.441,-109.375
1678025245.585,20.020,-33.691,16.602,11.230,-86.914
1678025245.589,21.973,-35.645,15.137,12.695,-112.305
1678025245.593,26.367,-36.621,19.531,-5.859,-48.340
1678025245.597,28.809,-37.598,19.531,-13.672,177.246
1678025245.601,22.949,-40.527,16.602,-13.672,85.449
1678025245.604,15.137,-38.086,17.090,-6.348,-29.785
1678025245.608,18.555,-34.668,13.184,-4.395,3.906
1678025245.612,21.973,-37.598,9.277,-10.742,219.238
1678025245.616,20.508,-40.039,4.395,-19.531,143.066
1678025245.620,18.555,-37.598,2.441,-30.273,-170.898
1678025245.622,12.207,-34.668,7.324,-21.973,-147.949
1678025245.626,11.230,-34.180,5.371,-10.254,-54.199
1678025245.630,18.066,-37.109,6.348,-15.137,-32.715
1678025245.634,15.625,-34.180,10.742,-41.992,-113.281
1678025245.638,8.301,-30.762,10.254,-56.641,-149.414
1678025245.642,5.371,-32.227,8.789,-45.410,-18.066
1678025245.646,3.906,-33.203,9.766,-39.062,51.758
1678025245.649,2.930,-32.715,5.859,-58.594,-36.621
1678025245.653,10.254,-28.320,-0.977,-78.613,50.781
1678025245.657,11.230,-29.297,-0.977,-76.172,317.871
1678025245.661,-5.371,-31.738,2.930,-53.223,180.176
1678025245.665,-11.719,-27.344,-2.441,-45.410,-112.793
1678025245.668,-5.371,-31.250,-6.348,-57.129,-76.172
1678025245.672,-7.812,-36.621,-8.301,-69.336,-130.859
1678025245.676,-17.090,-35.156,-7.812,-79.102,-224.121
1678025245.680,-18.066,-32.227,-4.395,-75.195,-240.234
1678025245.684,-10.742,-30.762,-5.371,-56.152,-82.520
1678025245.688,-0.488,-32.715,-9.277,-46.387,38.086
1678025245.692,7.324,-24.902,-9.277,-49.805,-9.766
1678025245.695,8.301,-23.438,-7.812,-58.105,-102.539
1678025245.699,-7.812,-34.180,-12.695,-53.711,19.043
1678025245.703,-17.578,-35.645,-13.672,-37.109,94.727
1678025245.707,-5.371,-33.691,-14.648,-35.645,-50.781
1678025245.711,-6.348,-32.715,-20.508,-40.039,-56.152
1678025245.713,-16.113,-32.227,-22.461,-50.293,-1.953
1678025245.717,-30.273,-33.203,-22.461,-60.059,-119.629
1678025245.721,-42.969,-36.621,-23.926,-57.129,-120.117
1678025245.725,-39.062,-37.109,-27.344,-41.992,19.531
1678025245.729,-33.203,-36.133,-28.809,-39.551,-9.766
1678025245.733,-37.109,-41.992,-31.250,-60.059,-112.793
1678025245.737,-51.758,-45.410,-33.691,-70.801,-149.414
1678025245.740,-56.641,-42.969,-37.598,-61.035,-58.105
1678025245.744,-44.434,-42.969,-41.016,-38.574,344.238
1678025245.748,-33.203,-41.016,-41.992,-54.199,170.410
1678025245.752,-35.645,-39.062,-39.551,-88.379,-143.555
1678025245.756,-46.875,-39.062,-40.039,-106.445,-83.008
1678025245.757,-32.227,-32.227,-41.504,-102.051,-111.328
1678025245.761,-11.719,-34.180,-40.039,-92.285,-102.539
1678025245.765,-20.508,-46.875,-40.039,-114.746,-73.242
1678025245.769,-26.855,-40.527,-42.480,-126.465,-2.441
1678025245.773,-34.180,-34.668,-46.387,-133.789,-80.566
1678025245.777,-45.898,-34.668,-50.781,-129.395,-146.484
1678025245.781,-45.410,-33.203,-55.176,-101.074,-33.691
1678025245.784,-32.227,-34.180,-59.082,-83.496,181.152
1678025245.788,-29.785,-30.762,-57.129,-83.984,172.363
1678025245.792,-49.805,-32.715,-60.059,-106.445,-191.895
1678025245.796,-61.523,-34.668,-68.359,-117.188,-276.367
1678025245.800,-52.246,-32.227,-61.523,-101.562,-102.539
1678025245.803,-38.574,-28.320,-60.059,-87.891,-131.348
1678025245.807,-39.551,-26.855,-67.383,-90.332,-213.867
1678025245.811,-39.062,-23.438,-67.871,-90.332,-98.633
1678025245.815,-43.945,-19.531,-66.895,-76.172,-13.184
1678025245.819,-43.457,-21.973,-67.871,-65.918,-47.363
1678025245.823,-25.391,-21.973,-70.312,-60.547,-52.246
1678025245.827,-26.367,-17.090,-72.266,-81.543,10.742
1678025245.830,-41.504,-19.531,-71.777,-108.398,156.738
1678025245.834,-49.316,-21.484,-74.219,-122.559,-33.203
1678025245.838,-52.246,-21.484,-78.125,-128.418,-191.895
1678025245.842,-41.992,-22.461,-79.102,-133.789,-18.066
1678025245.846,-30.273,-23.438,-82.520,-159.180,26.367
1678025245.847,-37.598,-27.344,-82.520,-177.246,-173.828
1678025245.851,-44.922,-22.949,-73.242,-166.992,-234.375
1678025245.855,-39.062,-19.043,-72.266,-146.973,-110.352
1678025245.859,-23.926,-20.020,-71.289,-137.207,-41.992
1678025245.863,-20.996,-17.090,-66.895,-150.391,20.996
1678025245.867,-24.414,-14.160,-66.406,-162.598,-61.523
1678025245.871,-28.320,-18.066,-62.988,-155.273,103.516
1678025245.874,-38.574,-20.996,-65.918,-155.273,314.453
1678025245.878,-31.250,-19.531,-66.895,-157.715,15.137
1678025245.882,-24.902,-21.973,-64.453,-162.598,-99.121
1678025245.886,-32.227,-21.973,-62.988,-174.316,-89.355
1678025245.890,-40.527,-19.043,-58.594,-174.316,-157.715
1678025245.892,-39.551,-15.625,-59.570,-160.156,-160.156
1678025245.896,-30.273,-15.625,-59.570,-130.859,-95.703
1678025245.900,-18.555,-18.066,-62.500,-129.883,-76.172
1678025245.904,-7.324,-21.973,-68.359,-156.250,-95.703
1678025245.908,-9.766,-24.414,-65.918,-150.879,-123.047
1678025245.912,-19.043,-19.531,-67.871,-130.859,8.789
1678025245.916,-16.602,-20.020,-67.871,-114.258,237.793
1678025245.919,-3.418,-24.902,-63.477,-118.652,114.746
1678025245.923,-2.441,-23.926,-63.965,-134.277,-32.715
1678025245.927,-15.137,-23.438,-63.477,-138.672,-25.879
1678025245.931,-31.250,-25.879,-64.453,-134.277,188.965
1678025245.935,-27.344,-28.809,-65.430,-134.277,51.270
1678025245.953,-17.090,-26.855,-65.430,-143.066,-135.742
1678025245.957,-20.996,-26.367,-64.453,-154.297,-98.145
1678025245.961,-32.227,-29.297,-64.453,-164.551,-172.363
1678025245.965,-40.527,-22.949,-66.895,-151.855,-209.473
1678025245.969,-32.715,-21.484,-68.848,-135.254,-103.516
1678025245.973,-23.438,-27.344,-76.660,-141.113,156.738
1678025245.977,-16.113,-26.855,-79.102,-150.391,140.625
1678025245.980,-17.578,-22.949,-75.684,-155.273,-131.836
1678025245.984,-24.902,-25.391,-83.496,-146.973,-128.906
1678025245.988,-22.461,-26.367,-87.402,-129.883,128.418
1678025245.992,-25.391,-22.461,-85.449,-130.371,30.762
1678025245.996,-30.273,-23.926,-85.938,-152.344,-79.590
1678025245.998,-40.527,-28.809,-89.844,-173.828,-110.840
1678025246.002,-44.434,-30.762,-93.262,-162.109,105.957
1678025246.006,-40.527,-28.809,-92.285,-143.555,143.555
1678025246.010,-33.691,-27.344,-92.773,-145.020,-52.734
1678025246.014,-32.715,-25.879,-87.402,-159.668,-71.289
1678025246.018,-41.992,-26.367,-85.938,-175.293,-81.543
1678025246.022,-45.898,-27.832,-87.402,-171.875,-56.152
1678025246.025,-48.828,-27.344,-86.426,-159.180,-64.941
1678025246.029,-47.363,-32.227,-89.844,-144.531,83.984
1678025246.033,-40.527,-33.691,-90.820,-126.465,307.617
1678025246.037,-39.551,-30.762,-86.914,-136.719,75.195
1678025246.041,-39.062,-29.785,-86.426,-133.301,-153.320
1678025246.042,-34.180,-24.902,-86.914,-85.938,-23.438
1678025246.046,-24.902,-23.438,-85.938,-44.434,16.602
1678025246.050,-18.066,-26.855,-84.961,-39.551,-119.629
1678025246.054,-23.438,-32.227,-87.891,-44.922,-137.695
1678025246.058,-27.832,-31.738,-89.355,-43.945,-139.648
1678025246.062,-31.250,-31.738,-90.332,-38.574,-32.227
1678025246.066,-21.484,-29.785,-92.285,-6.348,79.102
1678025246.069,-12.207,-27.832,-96.680,5.859,-15.137
1678025246.073,-21.484,-30.762,-97.168,-0.488,96.680
1678025246.077,-38.574,-29.785,-96.191,-1.465,63.477
1678025246.081,-53.711,-28.320,-100.586,-5.859,-158.691
1678025246.085,-47.363,-34.668,-106.445,0.488,-73.730
1678025246.088,-33.691,-30.273,-108.398,2.441,27.344
1678025246.092,-35.645,-26.367,-110.352,-4.883,-145.996
1678025246.096,-42.969,-30.273,-113.770,-9.277,-280.273
1678025246.100,-48.340,-28.320,-111.328,13.672,-122.070
1678025246.104,-42.480,-25.879,-117.676,30.273,61.035
1678025246.108,-35.156,-30.273,-122.070,-0.977,48.340
1678025246.112,-37.109,-29.785,-115.234,-27.344,-13.184
1678025246.115,-39.062,-24.902,-114.258,-11.719,28.320
1678025246.119,-41.992,-23.438,-107.422,12.207,363.770
1678025246.123,-30.273,-19.531,-101.562,20.020,216.309
1678025246.127,-21.973,-18.555,-101.562,22.461,-79.102
1678025246.131,-20.020,-21.973,-100.098,21.484,-74.219
1678025246.132,-23.926,-25.879,-105.469,19.531,-141.602
1678025246.136,-31.250,-34.180,-107.910,20.508,-179.688
1678025246.140,-34.180,-31.738,-107.422,33.691,-83.008
1678025246.144,-41.992,-28.320,-111.816,32.227,23.438
1678025246.148,-44.922,-28.809,-109.863,13.184,0.488
1678025246.152,-57.129,-28.809,-111.328,-0.977,-71.289
1678025246.156,-65.918,-28.320,-113.281,4.883,-28.320
1678025246.159,-58.594,-27.344,-112.305,26.367,217.285
1678025246.163,-45.410,-27.832,-112.793,34.180,335.938
1678025246.167,-37.109,-25.879,-112.793,2.930,-45.410
1678025246.171,-44.922,-26.855,-117.676,-27.832,-176.758
1678025246.175,-58.594,-27.344,-125.000,-35.645,-131.836
1678025246.178,-47.852,-23.438,-120.605,-17.090,-133.789
1678025246.182,-26.367,-20.996,-116.211,8.789,-73.242
1678025246.186,-29.297,-18.066,-122.070,10.742,-66.406
1678025246.190,-37.109,-21.484,-127.930,0.977,-140.625
1678025246.194,-35.645,-25.391,-130.371,5.859,-187.500
1678025246.198,-36.621,-23.926,-127.930,29.297,-53.223
1678025246.202,-40.527,-23.926,-125.488,44.922,63.477
1678025246.205,-33.203,-23.926,-125.488,47.363,342.285
1678025246.209,-37.598,-20.508,-123.047,16.602,138.672
1678025246.213,-55.664,-13.672,-122.559,-3.906,-201.660
1678025246.217,-64.453,-22.461,-128.906,7.812,-20.508
1678025246.221,-70.312,-24.902,-136.230,-4.883,99.121
1678025246.222,-72.754,-27.344,-150.879,-41.016,-83.984
1678025246.226,-85.938,-31.250,-154.297,-75.684,-178.223
1678025246.230,-103.027,-22.949,-156.250,-91.797,-190.430
1678025246.234,-130.859,-18.066,-166.016,-96.191,-164.062
1678025246.238,-160.156,-25.879,-169.434,-117.188,-106.934
1678025246.242,-190.918,-41.016,-202.637,-148.438,-17.090
1678025246.246,-206.055,-40.527,-226.074,-153.809,207.031
1678025246.249,-244.141,-37.109,-235.840,-181.641,73.242
1678025246.253,-290.527,-37.598,-247.070,-211.914,-188.965
1678025246.257,-302.734,-33.691,-258.789,-218.262,-103.027
1678025246.261,-297.852,-32.715,-264.160,-217.285,56.641
1678025246.265,-299.316,-31.250,-261.230,-218.262,-100.098
1678025246.267,-296.875,-23.926,-259.277,-209.961,-277.832
1678025246.271,-279.297,-17.090,-251.953,-180.664,-168.457
1678025246.275,-255.859,-12.207,-247.559,-146.484,-15.625
1678025246.279,-216.309,-16.113,-244.629,-136.719,-14.648
1678025246.283,-189.941,-16.602,-239.746,-144.043,-100.098
1678025246.287,-182.617,-12.695,-233.887,-138.184,-47.363
1678025246.291,-165.527,-16.602,-229.980,-121.582,74.219
1678025246.294,-139.160,-20.508,-226.074,-91.309,-14.160
1678025246.298,-122.559,-18.555,-218.750,-76.660,-18.555
1678025246.302,-110.352,-20.996,-211.914,-80.078,6.348
1678025246.306,-100.098,-22.949,-200.195,-62.500,82.520
1678025246.310,-101.562,-27.344,-194.336,-54.199,-47.852
1678025246.313,-88.379,-25.391,-199.707,-35.645,-165.039
1678025246.317,-73.242,-29.297,-200.195,-17.090,-9.766
1678025246.321,-62.988,-33.691,-193.848,-19.043,-41.016
1678025246.325,-56.641,-37.109,-187.500,-38.086,-261.230
1678025246.329,-61.035,-43.457,-182.129,-48.340,-257.324
1678025246.333,-55.176,-46.387,-181.152,-26.855,2.930
1678025246.337,-43.945,-47.852,-177.734,-17.090,-16.602
1678025246.340,-32.715,-50.781,-166.992,-25.879,-166.016
1678025246.344,-29.785,-51.270,-161.133,-41.504,-104.980
1678025246.348,-29.785,-45.410,-159.180,-40.039,108.398
1678025246.352,-23.926,-47.852,-157.715,-29.297,69.336
1678025246.356,-4.883,-45.898,-154.785,-36.133,-64.453
1678025246.372,19.043,-37.109,-148.926,-76.172,-20.996
1678025246.376,28.320,-35.156,-150.391,-116.211,-1.953
1678025246.380,38.574,-33.203,-148.438,-104.980,-121.094
1678025246.384,55.664,-27.832,-138.672,-68.359,-163.086
1678025246.388,72.754,-21.973,-134.277,-40.527,13.672
1678025246.392,79.102,-20.996,-134.766,-28.320,251.953
1678025246.396,70.312,-22.949,-135.742,-40.039,58.105
1678025246.399,52.734,-21.973,-129.883,-41.504,-168.945
1678025246.403,41.504,-25.391,-128.418,-27.832,20.996
1678025246.407,37.598,-25.879,-128.418,-19.531,347.656
1678025246.411,36.621,-24.902,-128.418,-35.645,117.188
1678025246.415,28.320,-30.273,-131.348,-61.523,-187.500
1678025246.417,7.324,-30.273,-130.371,-68.359,-129.395
1678025246.421,-1.953,-34.668,-128.906,-58.594,-66.895
1678025246.425,0.977,-36.133,-127.930,-56.641,-44.922
1678025246.429,3.418,-29.297,-122.070,-61.523,9.766
1678025246.433,-3.418,-31.738,-124.023,-79.102,99.121
1678025246.437,-7.324,-33.691,-130.859,-84.473,66.895
1678025246.441,6.836,-30.273,-126.465,-61.523,-43.457
1678025246.444,14.160,-38.574,-109.863,-43.457,-77.637
1678025246.448,11.230,-41.504,-110.840,-39.062,170.410
1678025246.452,8.789,-38.574,-115.723,-63.477,109.863
1678025246.456,5.371,-37.598,-111.816,-95.703,-239.746
1678025246.460,-1.953,-44.434,-116.699,-90.332,-190.918
1678025246.462,5.371,-45.410,-115.234,-67.871,16.113
1678025246.466,16.602,-38.574,-113.770,-52.246,46.875
1678025246.470,11.719,-38.086,-121.094,-65.918,-84.961
1678025246.474,2.930,-40.527,-123.535,-103.027,-206.055
1678025246.478,-2.930,-37.598,-125.000,-112.305,-128.418
1678025246.482,-0.977,-32.715,-125.977,-89.844,43.457
1678025246.486,7.324,-32.227,-130.859,-92.773,49.316
1678025246.489,13.184,-29.297,-130.859,-114.258,-44.434
1678025246.493,7.324,-30.273,-126.953,-127.441,235.352
1678025246.497,-9.766,-36.133,-128.418,-145.996,316.406
1678025246.501,-13.184,-33.203,-129.883,-161.621,-57.129
1678025246.505,-6.348,-25.879,-124.023,-157.227,-65.430
1678025246.507,-10.254,-25.879,-120.605,-177.246,-71.289
1678025246.511,-12.207,-24.902,-124.023,-217.285,-199.219
1678025246.515,-19.531,-24.902,-119.629,-221.191,-157.715
1678025246.519,-20.996,-29.297,-115.723,-196.289,-31.250
1678025246.523,-11.719,-28.320,-112.793,-192.383,-59.082
1678025246.527,-11.719,-29.297,-111.328,-195.801,-49.805
1678025246.531,-23.438,-29.785,-112.793,-196.289,1.465
1678025246.534,-35.156,-28.320,-110.352,-192.383,83.984
1678025246.538,-37.109,-30.762,-106.445,-171.387,138.672
1678025246.542,-28.320,-32.715,-99.121,-167.480,-51.758
1678025246.546,-20.020,-28.320,-92.773,-187.500,-38.086
1678025246.550,-16.602,-28.320,-90.820,-208.984,12.695
1678025246.553,-18.066,-28.320,-87.402,-221.680,-155.273
1678025246.557,-20.996,-24.902,-83.496,-220.215,-179.199
1678025246.561,-10.254,-27.344,-81.055,-220.215,-43.457
1678025246.565,-4.395,-20.508,-75.684,-223.633,-31.250
1678025246.569,-10.742,-20.996,-73.242,-227.051,-156.250
1678025246.573,-11.230,-28.809,-70.801,-221.680,-249.512
1678025246.577,-9.766,-25.391,-70.801,-205.078,-56.152
1678025246.580,-9.277,-22.461,-69.824,-184.570,239.258
1678025246.584,-9.277,-29.785,-68.359,-187.500,111.328
1678025246.588,-11.230,-36.133,-70.801,-204.590,-107.422
1678025246.592,-21.484,-38.574,-64.941,-196.289,-11.230
1678025246.596,-27.344,-37.598,-59.570,-169.434,237.305
1678025246.597,-18.066,-30.762,-58.594,-163.086,7.812
1678025246.601,-13.672,-28.809,-55.176,-166.992,-75.195
1678025246.605,-15.137,-26.367,-53.711,-172.363,-49.316
1678025246.609,-23.438,-28.320,-55.664,-159.180,-180.664
1678025246.613,-28.809,-31.250,-53.711,-133.789,-180.176
1678025246.617,-24.902,-25.391,-53.711,-118.164,-44.434
1678025246.621,-22.949,-24.414,-53.223,-101.074,229.980
1678025246.624,-28.320,-30.273,-50.781,-107.422,146.973
1678025246.628,-32.715,-31.250,-47.363,-116.699,-182.617
1678025246.632,-39.062,-34.668,-48.828,-98.633,-170.410
1678025246.636,-42.480,-37.598,-47.852,-73.242,-44.922
1678025246.640,-29.785,-29.785,-49.316,-65.918,-19.531
1678025246.643,-20.508,-30.273,-54.688,-74.219,-34.180
1678025246.647,-25.391,-32.715,-51.758,-83.008,-10.254
1678025246.651,-35.645,-33.203,-45.410,-58.105,38.574
1678025246.655,-36.133,-35.156,-42.969,-24.902,-8.301
1678025246.659,-29.785,-35.645,-40.039,-28.809,-56.641
1678025246.663,-32.715,-35.156,-41.016,-60.547,37.598
1678025246.667,-42.969,-31.250,-43.945,-60.547,122.070
1678025246.670,-45.410,-30.762,-41.504,-31.738,-74.219
1678025246.674,-41.016,-26.367,-39.551,-9.766,-49.316
1678025246.678,-30.273,-25.391,-44.434,9.766,81.055
1678025246.682,-22.949,-26.855,-44.922,18.555,229.980
1678025246.686,-29.785,-29.785,-43.457,0.000,2.441
1678025246.702,-36.133,-31.250,-45.898,-21.484,-208.496
