timestamps,TP9,AF7,AF8,TP10,Right AUX
1678025125.141,-23.926,-27.344,54.199,-41.992,-259.766
1678025125.145,-36.133,-31.250,57.617,-36.621,-231.445
1678025125.149,-44.922,-31.250,55.176,-24.414,-85.449
1678025125.153,-39.551,-30.273,55.664,-25.391,-13.672
1678025125.157,-34.180,-30.762,57.617,-27.344,-95.703
1678025125.161,-36.621,-24.902,61.523,-31.738,18.066
1678025125.165,-46.387,-25.879,62.988,-32.227,284.668
1678025125.168,-43.945,-26.855,62.012,-30.273,60.059
1678025125.172,-34.180,-26.367,57.129,-18.066,-51.758
1678025125.176,-40.039,-25.391,52.734,-25.391,52.246
1678025125.180,-43.457,-26.367,57.129,-47.852,-4.395
1678025125.184,-46.387,-24.902,56.641,-57.617,-112.305
1678025125.202,-53.223,-24.902,51.758,-51.270,-141.602
1678025125.206,-51.270,-28.809,51.270,-40.527,22.461
1678025125.210,-39.551,-28.320,51.758,-43.945,38.574
1678025125.214,-42.480,-27.344,50.781,-58.594,-154.785
1678025125.218,-49.316,-28.809,50.781,-54.199,-216.797
1678025125.222,-43.457,-30.762,53.711,-37.598,-57.617
1678025125.226,-39.551,-26.855,57.617,-23.438,65.918
1678025125.229,-42.480,-26.367,56.152,-19.531,-1.953
1678025125.233,-39.551,-27.832,58.105,-34.668,-46.387
1678025125.237,-39.062,-27.344,58.594,-37.598,151.367
1678025125.241,-44.434,-27.832,57.129,-23.926,133.789
1678025125.245,-39.551,-23.926,60.547,-13.672,-56.641
1678025125.246,-23.926,-27.344,56.641,-14.648,-64.941
1678025125.250,-36.133,-27.832,51.270,-28.809,-87.891
1678025125.254,-50.781,-25.391,54.688,-45.410,-174.805
1678025125.258,-41.992,-27.344,60.547,-35.645,-166.016
1678025125.262,-37.598,-27.344,59.570,-15.625,-54.199
1678025125.266,-29.297,-27.344,58.105,-18.066,-12.207
1678025125.270,-26.367,-26.855,57.617,-35.645,17.578
1678025125.273,-40.039,-27.344,53.223,-49.805,-140.625
1678025125.277,-49.316,-27.832,56.152,-43.945,-109.375
1678025125.281,-53.711,-28.809,55.664,-22.461,333.008
1678025125.285,-44.434,-30.762,55.176,-16.602,178.711
1678025125.289,-36.621,-29.297,55.176,-37.109,-78.125
1678025125.306,-44.434,-31.250,50.293,-53.711,-36.621
1678025125.310,-44.434,-29.297,51.758,-37.109,-20.020
1678025125.314,-33.691,-28.320,52.734,-15.625,-119.141
1678025125.318,-14.648,-28.809,53.223,-4.395,-116.699
1678025125.322,-9.277,-26.367,54.199,-8.789,-53.711
1678025125.326,-20.020,-25.879,53.223,-27.344,-5.371
1678025125.330,-29.785,-26.855,53.223,-28.809,-91.309
1678025125.333,-42.480,-29.785,48.828,-18.555,-148.926
1678025125.337,-46.875,-35.156,48.828,-14.648,168.457
1678025125.341,-43.945,-38.086,47.852,-23.926,133.789
1678025125.345,-51.270,-41.016,40.527,-49.316,-193.848
1678025125.349,-54.199,-37.109,43.457,-48.340,-161.133
1678025125.336,-48.340,-32.227,45.898,-24.414,-12.207
1678025125.340,-35.156,-34.668,41.504,-13.672,-22.461
1678025125.344,-22.461,-34.180,36.133,-28.320,-88.379
1678025125.348,-22.949,-33.203,36.133,-48.828,-166.504
1678025125.352,-38.574,-38.086,36.133,-49.805,-172.852
1678025125.356,-39.551,-39.062,38.086,-30.273,-13.672
1678025125.360,-25.391,-36.133,33.691,-14.648,59.082
1678025125.363,-23.438,-35.645,29.785,-27.832,-5.371
1678025125.367,-24.902,-36.133,28.809,-43.945,-39.551
1678025125.371,-30.273,-39.062,27.344,-49.805,-177.734
1678025125.375,-33.691,-39.551,26.367,-44.922,-209.961
1678025125.379,-32.715,-35.156,26.855,-24.902,44.434
1678025125.382,-29.785,-33.203,28.320,-11.719,292.480
1678025125.386,-25.391,-35.645,26.855,-34.180,50.293
1678025125.390,-42.969,-35.645,23.926,-46.875,-127.930
1678025125.394,-59.082,-37.598,20.020,-35.645,-43.457
1678025125.398,-48.828,-38.086,15.625,-10.254,-6.348
1678025125.402,-35.645,-35.156,18.555,-3.906,55.176
1678025125.406,-40.527,-34.668,19.043,-36.621,31.250
1678025125.409,-53.711,-37.598,12.207,-45.898,71.289
1678025125.413,-53.711,-36.621,11.230,-29.785,15.137
1678025125.417,-33.691,-33.691,8.789,-13.184,-106.934
1678025125.421,-24.902,-30.273,11.230,-6.348,-57.617
1678025125.425,-26.367,-33.691,11.719,-26.855,-102.051
1678025125.426,-31.250,-33.691,10.254,-41.992,-206.543
1678025125.430,-41.992,-29.785,12.207,-31.738,-169.922
1678025125.434,-33.203,-28.320,12.207,-21.484,-60.547
1678025125.438,-20.020,-31.738,8.301,-25.879,0.488
1678025125.442,-15.137,-29.785,1.953,-35.156,37.598
1678025125.446,-12.695,-30.762,-3.906,-40.039,-33.203
1678025125.450,-19.043,-31.250,1.465,-29.297,-41.504
1678025125.453,-22.949,-31.250,3.418,-9.766,244.141
1678025125.457,-12.695,-29.297,-3.906,-9.766,136.230
1678025125.461,-13.672,-27.344,-2.930,-28.320,-162.109
1678025125.465,-29.297,-26.855,-2.441,-44.922,-86.914
1678025125.469,-44.922,-26.367,-4.883,-43.457,-11.719
1678025125.471,-58.594,-29.297,-7.812,-26.855,-64.941
1678025125.475,-49.805,-24.902,-6.348,-21.484,-65.430
1678025125.479,-49.316,-24.902,-6.836,-25.879,17.578
1678025125.483,-62.012,-31.250,-12.695,-38.086,-68.359
1678025125.487,-68.848,-30.273,-11.719,-40.527,-224.609
1678025125.491,-64.941,-33.203,-9.766,-20.996,-37.598
1678025125.495,-49.805,-34.180,-12.695,-3.906,211.426
1678025125.498,-40.527,-32.715,-14.160,-12.207,152.832
1678025125.502,-40.039,-31.250,-14.648,-30.762,-139.160
1678025125.506,-50.781,-29.785,-15.137,-30.273,-168.945
1678025125.510,-55.176,-29.297,-14.648,-5.859,131.348
1678025125.514,-45.898,-27.832,-14.648,0.488,64.453
1678025125.517,-37.598,-26.855,-19.043,-21.973,-112.305
1678025125.521,-37.598,-25.879,-21.484,-41.016,-130.371
1678025125.525,-55.176,-27.832,-25.391,-48.340,-174.316
1678025125.529,-61.035,-31.250,-28.809,-40.527,-112.305
1678025125.533,-51.758,-33.691,-31.738,-26.367,-64.941
1678025125.537,-39.062,-29.297,-33.691,-22.461,38.086
1678025125.541,-33.691,-27.344,-37.109,-37.109,59.570
1678025125.544,-38.574,-23.926,-38.574,-35.645,-204.590
1678025125.548,-42.480,-19.043,-42.969,-27.344,-210.938
1678025125.552,-46.875,-18.066,-47.363,-24.902,83.984
1678025125.556,-44.922,-23.438,-51.270,-27.344,295.898
1678025125.560,-43.945,-25.879,-55.664,-46.875,59.082
1678025125.577,-48.828,-19.043,-53.711,-46.387,-220.215
1678025125.581,-58.105,-21.484,-55.176,-26.855,-44.434
1678025125.585,-52.246,-29.297,-61.523,-20.508,82.031
1678025125.589,-40.527,-29.785,-61.035,-33.203,-62.988
1678025125.593,-41.504,-22.461,-59.570,-42.969,-140.137
1678025125.597,-39.062,-17.090,-55.176,-46.387,-84.961
1678025125.601,-42.480,-20.020,-53.711,-35.156,-46.387
1678025125.604,-43.457,-21.973,-59.570,-17.578,-105.957
1678025125.608,-34.668,-20.020,-64.453,-14.160,-110.352
1678025125.612,-30.273,-21.973,-67.871,-17.578,119.629
1678025125.616,-41.016,-20.508,-69.336,-34.180,-12.695
1678025125.620,-50.293,-20.020,-63.965,-32.227,-182.617
1678025125.621,-39.551,-20.996,-64.453,-7.812,-63.477
1678025125.625,-24.414,-18.066,-65.430,1.465,5.371
1678025125.629,-24.902,-15.625,-61.523,-15.137,-88.379
1678025125.633,-39.062,-17.578,-62.012,-47.363,-236.328
1678025125.637,-45.410,-17.578,-63.965,-38.574,-229.980
1678025125.641,-44.922,-15.625,-67.383,-14.160,74.707
1678025125.645,-32.227,-15.137,-72.266,-13.672,125.488
1678025125.648,-18.066,-17.090,-62.500,-25.879,-88.867
1678025125.652,-23.438,-20.508,-63.477,-41.016,-79.590
1678025125.656,-29.785,-20.996,-66.406,-28.809,115.723
1678025125.660,-32.227,-21.973,-60.547,-16.113,50.293
1678025125.664,-24.414,-20.508,-62.012,-21.973,11.230
1678025125.667,-18.066,-20.020,-64.941,-23.438,54.199
1678025125.671,-25.391,-20.508,-68.848,-39.062,-36.133
1678025125.675,-29.297,-20.020,-70.312,-50.293,-218.750
1678025125.679,-29.785,-21.973,-69.336,-27.832,-169.922
1678025125.683,-29.297,-22.949,-73.242,-16.602,73.730
1678025125.687,-30.273,-26.855,-78.125,-33.691,91.309
1678025125.691,-31.250,-28.320,-75.684,-54.199,-101.074
1678025125.694,-38.086,-24.414,-80.078,-65.918,-161.133
1678025125.698,-45.898,-27.344,-84.473,-43.945,73.730
1678025125.702,-40.039,-30.762,-86.426,-27.832,110.840
1678025125.706,-31.738,-30.273,-87.402,-44.922,-45.898
1678025125.710,-33.691,-26.367,-87.891,-57.617,-114.746
1678025125.711,-45.898,-24.414,-91.309,-53.711,-10.254
1678025125.715,-56.152,-28.320,-93.750,-41.016,-52.734
1678025125.719,-47.852,-29.297,-99.121,-29.785,-104.004
1678025125.723,-42.480,-30.762,-101.074,-41.992,-21.484
1678025125.727,-41.016,-30.273,-99.609,-58.594,-21.973
1678025125.731,-48.828,-29.297,-105.957,-59.082,-49.805
1678025125.735,-58.105,-30.762,-107.910,-42.969,-57.129
1678025125.738,-43.457,-31.738,-108.398,-23.926,5.371
1678025125.742,-27.344,-29.297,-110.840,-20.020,275.879
1678025125.746,-33.203,-31.250,-113.770,-43.945,41.504
1678025125.750,-42.969,-29.785,-116.699,-61.035,-194.336
1678025125.754,-47.363,-20.508,-122.070,-41.992,86.914
1678025125.756,-47.363,-23.438,-124.512,-24.414,185.547
1678025125.760,-42.969,-28.809,-130.371,-40.527,-61.035
1678025125.764,-34.668,-24.414,-131.348,-50.293,-117.188
1678025125.768,-39.551,-20.996,-125.000,-49.316,-115.723
1678025125.772,-56.641,-20.996,-128.418,-44.434,-142.578
1678025125.776,-57.617,-20.996,-132.324,-29.785,-54.688
1678025125.780,-46.875,-21.973,-133.789,-35.645,15.625
1678025125.783,-41.016,-17.090,-131.348,-35.645,228.516
1678025125.787,-47.363,-7.324,-125.000,-42.969,222.168
1678025125.791,-52.246,-12.207,-133.301,-62.500,-187.012
1678025125.795,-54.688,-19.531,-138.672,-48.340,-163.086
1678025125.799,-59.082,-20.508,-140.625,-45.410,-18.066
1678025125.801,-56.152,-26.367,-145.508,-69.824,-95.215
1678025125.805,-76.172,-28.320,-142.090,-94.238,-188.965
1678025125.809,-112.305,-27.344,-146.973,-113.281,-224.609
1678025125.813,-130.859,-26.367,-156.250,-124.512,-147.949
1678025125.817,-136.230,-31.250,-165.039,-126.953,-108.398
1678025125.821,-145.996,-34.180,-178.223,-148.926,-66.895
1678025125.825,-174.316,-35.156,-186.035,-185.547,12.207
1678025125.828,-208.496,-38.086,-188.965,-194.336,153.809
1678025125.832,-216.797,-40.527,-194.336,-194.336,89.355
1678025125.836,-210.938,-37.109,-202.637,-194.824,-93.750
1678025125.840,-216.309,-35.156,-201.172,-200.684,-64.941
1678025125.844,-222.656,-32.227,-202.148,-218.750,38.574
1678025125.846,-222.656,-30.762,-208.008,-217.285,-130.859
1678025125.850,-215.820,-23.926,-207.031,-181.641,-218.262
1678025125.854,-187.500,-16.602,-202.637,-153.809,38.574
1678025125.858,-155.762,-14.648,-199.219,-149.902,70.801
1678025125.862,-143.555,-10.254,-193.848,-148.438,-121.094
1678025125.866,-134.766,-9.766,-191.895,-129.883,-126.465
1678025125.870,-124.023,-10.742,-190.430,-91.797,180.664
1678025125.873,-102.539,-11.230,-192.383,-71.289,218.750
1678025125.877,-81.055,-10.254,-188.965,-82.520,-91.797
1678025125.881,-74.707,-13.672,-188.965,-95.215,-135.742
1678025125.885,-73.730,-14.648,-191.895,-85.938,-111.328
1678025125.889,-74.219,-13.672,-185.547,-57.617,-123.535
1678025125.891,-59.082,-16.602,-175.293,-28.320,-113.770
1678025125.895,-40.527,-16.113,-172.852,-28.809,-69.336
1678025125.899,-31.250,-14.160,-167.969,-46.387,-38.086
1678025125.903,-32.227,-17.578,-161.621,-41.992,-140.137
1678025125.907,-33.691,-17.578,-153.809,-8.789,-189.453
1678025125.911,-13.672,-15.625,-152.344,17.578,-37.598
1678025125.915,4.395,-13.672,-153.809,14.648,190.430
1678025125.918,7.324,-12.207,-148.438,0.488,12.207
1678025125.922,-0.977,-14.160,-149.414,-4.395,-188.477
1678025125.926,-7.324,-21.973,-148.438,9.277,-80.566
1678025125.930,5.371,-18.066,-145.508,23.926,80.566
1678025125.934,24.414,-15.625,-142.090,20.020,90.332
1678025125.951,29.297,-21.973,-136.719,0.000,-67.383
1678025125.955,19.531,-20.508,-134.766,-8.789,30.762
1678025125.959,16.602,-21.973,-132.324,9.766,179.688
1678025125.963,19.043,-26.367,-131.348,18.555,-98.633
1678025125.967,16.113,-25.879,-132.324,17.578,-102.539
1678025125.971,19.043,-25.391,-127.441,13.184,51.270
1678025125.975,20.020,-25.879,-121.094,3.418,-15.137
1678025125.978,14.648,-28.320,-124.512,3.418,-125.488
1678025125.982,14.648,-25.879,-122.070,19.531,-121.582
1678025125.986,19.043,-22.461,-116.699,29.785,120.117
1678025125.990,20.996,-23.438,-116.699,24.414,59.570
1678025125.994,20.020,-20.508,-117.676,8.301,-173.340
1678025125.996,13.184,-19.531,-115.234,8.789,-204.590
1678025126.000,16.602,-20.996,-112.305,26.367,-116.211
1678025126.004,31.250,-21.484,-112.793,28.809,-62.012
1678025126.008,33.203,-19.043,-109.863,21.484,-111.328
1678025126.012,32.715,-14.160,-109.863,8.301,-120.605
1678025126.016,29.785,-13.184,-105.469,15.625,13.184
1678025126.020,17.578,-19.531,-101.562,36.133,17.090
1678025126.023,23.438,-20.508,-99.609,50.781,-116.211
1678025126.027,33.691,-13.184,-95.215,56.641,-89.844
1678025126.031,27.344,-14.648,-97.168,43.945,50.781
1678025126.035,14.160,-19.043,-97.656,22.461,-89.844
1678025126.039,6.348,-16.602,-92.773,27.344,0.000
1678025126.041,11.230,-18.066,-90.332,37.598,141.602
1678025126.045,21.484,-13.184,-89.844,28.809,51.270
1678025126.049,13.184,-10.254,-89.355,4.883,-124.512
1678025126.053,3.906,-15.625,-89.355,-6.348,-202.148
1678025126.057,0.488,-17.090,-90.332,7.812,-124.512
1678025126.061,6.348,-17.578,-95.215,20.020,6.836
1678025126.065,7.812,-20.508,-96.191,15.625,49.805
1678025126.068,-0.488,-19.043,-93.750,2.930,-43.457
1678025126.072,-9.277,-14.648,-89.844,10.254,104.492
1678025126.076,-8.301,-12.207,-86.914,24.414,205.566
1678025126.080,2.441,-9.766,-89.355,20.996,-12.207
1678025126.084,8.301,-10.742,-91.797,12.695,-81.055
1678025126.086,2.930,-12.207,-92.773,-11.719,-123.047
1678025126.090,-10.254,-14.648,-91.797,-21.973,-202.148
1678025126.094,-27.832,-23.926,-91.309,-4.395,-219.727
1678025126.098,-21.973,-20.996,-84.961,9.766,-118.652
1678025126.102,-11.719,-15.625,-85.938,-11.719,-84.473
1678025126.106,-19.531,-18.555,-93.262,-35.645,-69.336
1678025126.110,-20.996,-18.066,-88.379,-41.504,-120.605
1678025126.113,-24.414,-17.090,-84.473,-42.480,-123.047
1678025126.117,-15.625,-14.160,-83.984,-14.648,327.637
1678025126.121,6.348,-12.207,-83.496,-10.254,90.820
1678025126.125,12.695,-13.184,-84.473,-30.273,-270.996
1678025126.129,1.953,-15.137,-89.355,-46.875,-88.867
1678025126.131,-7.812,-16.602,-92.285,-49.316,-57.129
1678025126.135,3.906,-16.113,-89.844,-36.133,-91.797
1678025126.139,13.672,-18.066,-90.820,-28.320,-57.617
1678025126.143,8.301,-16.602,-89.844,-46.387,-66.406
1678025126.147,-7.812,-16.602,-85.938,-57.617,-191.406
1678025126.151,-17.578,-15.625,-87.402,-39.551,-188.965
1678025126.155,-22.461,-10.742,-83.984,-20.508,-15.625
1678025126.158,-14.648,-13.184,-81.543,-5.859,230.469
1678025126.162,-9.766,-15.625,-85.449,-16.602,152.832
1678025126.166,-19.531,-12.207,-86.426,-36.621,-114.746
1678025126.170,-41.016,-17.578,-90.332,-39.062,-84.473
1678025126.174,-49.316,-21.973,-92.285,-24.414,10.254
1678025126.177,-42.480,-19.043,-93.750,-20.020,-83.984
1678025126.181,-40.039,-18.555,-92.773,-23.438,-122.070
1678025126.185,-35.645,-15.137,-89.844,-36.133,-115.234
1678025126.189,-38.086,-12.207,-88.867,-39.551,-163.086
1678025126.193,-38.574,-15.137,-82.520,-18.066,-78.613
1678025126.197,-26.367,-19.043,-82.520,-7.812,66.895
1678025126.201,-17.578,-17.090,-86.426,-11.230,167.480
1678025126.204,-14.160,-14.160,-90.332,-13.184,191.406
1678025126.208,-25.391,-16.113,-91.797,-32.227,-33.691
1678025126.212,-33.691,-19.043,-90.332,-28.320,-119.141
1678025126.216,-21.484,-20.996,-91.309,-8.301,88.379
1678025126.220,-18.066,-20.996,-93.262,-9.277,94.238
1678025126.223,-20.996,-16.602,-93.262,-23.438,-82.031
1678025126.227,-28.320,-15.625,-90.332,-29.785,-195.801
1678025126.231,-31.250,-20.996,-87.891,-5.371,-42.480
1678025126.235,-19.043,-14.160,-82.520,15.137,178.711
1678025126.239,-20.996,-13.672,-83.008,-10.254,-58.105
1678025126.243,-28.809,-20.508,-86.426,-27.344,-126.465
1678025126.247,-36.621,-23.926,-82.520,-26.855,209.961
1678025126.250,-45.410,-23.926,-81.543,-20.508,128.906
1678025126.254,-38.574,-20.996,-84.961,-13.184,-113.281
1678025126.258,-26.367,-23.438,-86.426,-16.602,-45.410
1678025126.262,-21.973,-20.020,-86.426,-41.016,-25.879
1678025126.266,-34.668,-19.043,-81.055,-54.688,-142.578
1678025126.266,-34.668,-18.555,-83.496,-39.551,-199.707
1678025126.270,-22.949,-18.066,-83.008,-9.277,-76.172
1678025126.274,-22.949,-22.949,-68.848,-9.766,-15.137
1678025126.278,-26.855,-20.020,-71.777,-43.945,-36.621
1678025126.282,-31.738,-16.113,-80.078,-56.641,-162.598
1678025126.286,-38.574,-19.531,-75.195,-33.691,-69.336
1678025126.290,-43.945,-22.949,-75.684,-14.648,382.812
1678025126.293,-36.133,-27.832,-76.660,-22.461,161.621
1678025126.297,-22.949,-31.250,-70.801,-37.598,-193.359
1678025126.301,-29.785,-24.902,-65.918,-40.039,-186.035
1678025126.305,-36.621,-19.531,-63.477,-27.832,-142.578
1678025126.309,-29.785,-23.926,-60.059,-20.508,-35.156
1678025126.326,-20.508,-27.344,-57.617,-13.184,-21.484
1678025126.330,-19.531,-25.879,-60.547,-19.043,32.227
1678025126.334,-22.461,-26.855,-63.965,-38.086,-58.594
1678025126.338,-23.926,-23.926,-60.547,-41.504,-212.891
1678025126.342,-29.785,-21.973,-60.059,-21.973,-166.992
1678025126.346,-17.578,-28.320,-62.988,-3.906,105.957
1678025126.350,-5.859,-26.367,-60.059,-16.113,155.762
1678025126.353,-17.090,-23.926,-57.129,-41.504,-19.531
1678025126.357,-18.066,-26.367,-56.152,-40.527,-112.793
1678025126.361,-17.090,-27.832,-53.711,-13.672,114.258
1678025126.365,-14.160,-28.320,-48.828,0.977,225.586
1678025126.369,-5.371,-26.855,-48.828,-23.926,-63.965
1678025126.371,-11.230,-21.484,-46.875,-39.551,-180.176
1678025126.375,-25.391,-24.902,-45.410,-33.691,-182.129
1678025126.379,-33.691,-29.297,-46.875,-20.020,-116.211
1678025126.383,-18.555,-29.785,-45.410,1.953,-95.215
1678025126.387,-11.230,-29.785,-45.410,-7.812,-66.895
1678025126.391,-14.160,-30.273,-42.480,-23.438,88.379
1678025126.395,-22.461,-33.203,-39.551,-19.531,27.832
1678025126.398,-36.133,-32.715,-42.969,-11.230,-41.992
1678025126.402,-29.785,-33.203,-45.898,0.000,107.910
1678025126.406,-21.973,-35.156,-43.457,-6.348,337.402
1678025126.410,-22.949,-35.645,-37.598,-31.250,56.152
1678025126.414,-26.855,-35.156,-32.227,-48.340,-211.914
1678025126.416,-36.621,-33.203,-40.039,-39.062,-35.156
1678025126.420,-34.180,-35.156,-45.898,-24.414,45.898
1678025126.424,-21.484,-35.645,-44.922,-39.551,-97.168
1678025126.428,-19.531,-28.320,-45.898,-44.922,-182.129
1678025126.432,-33.203,-25.879,-48.340,-52.734,-140.625
1678025126.436,-39.062,-30.273,-46.387,-58.105,-38.574
1678025126.440,-35.156,-29.297,-43.457,-37.109,2.441
1678025126.443,-32.715,-32.715,-45.898,-33.691,-23.438
1678025126.447,-34.668,-34.180,-47.852,-43.457,117.676
1678025126.451,-41.504,-36.133,-47.852,-58.594,81.543
1678025126.455,-48.340,-39.551,-48.828,-53.711,-126.953
1678025126.459,-37.109,-33.691,-46.875,-30.762,-46.387
1678025126.461,-26.855,-34.668,-49.316,-23.438,142.578
1678025126.465,-32.715,-34.668,-55.176,-35.156,-67.383
1678025126.469,-47.363,-30.762,-58.105,-56.641,-267.090
1678025126.473,-55.176,-30.762,-52.734,-46.387,-170.410
1678025126.477,-43.457,-22.949,-46.387,-21.973,-42.969
1678025126.481,-41.504,-24.414,-53.223,-15.625,4.395
1678025126.485,-41.016,-29.297,-50.781,-26.855,-45.898
1678025126.488,-44.434,-30.273,-49.316,-40.527,13.184
1678025126.492,-53.711,-26.367,-52.734,-27.344,209.961
1678025126.496,-42.480,-20.996,-48.828,-10.254,19.531
1678025126.500,-33.691,-21.973,-50.293,-18.066,-139.648
1678025126.504,-35.156,-26.367,-55.664,-35.645,44.434
1678025126.507,-43.945,-30.762,-56.641,-45.898,49.316
1678025126.511,-46.387,-29.297,-57.617,-36.621,-139.160
1678025126.515,-37.598,-22.461,-54.688,-19.531,-137.207
1678025126.519,-29.297,-20.508,-53.711,-16.602,122.070
1678025126.523,-22.949,-20.508,-54.688,-25.879,136.230
1678025126.527,-33.691,-20.996,-51.758,-45.898,-92.773
1678025126.531,-45.410,-21.484,-56.152,-48.340,-90.332
1678025126.534,-46.875,-22.949,-64.453,-33.691,100.098
1678025126.538,-39.551,-20.508,-63.477,-21.973,114.258
1678025126.542,-35.645,-18.066,-62.012,-32.227,-90.820
1678025126.546,-35.156,-16.113,-61.035,-43.945,-217.285
1678025126.550,-43.945,-15.625,-60.059,-44.434,-266.113
1678025126.568,-56.152,-21.484,-68.359,-22.949,-225.098
1678025126.572,-46.387,-24.414,-71.289,-10.742,-148.438
1678025126.576,-28.320,-23.926,-62.500,-28.809,-34.180
1678025126.580,-23.438,-24.414,-62.012,-45.410,-29.297
1678025126.584,-30.273,-23.438,-65.918,-44.434,-175.293
1678025126.588,-41.504,-24.902,-62.988,-26.367,-69.824
1678025126.592,-37.109,-22.461,-61.035,-21.484,75.195
1678025126.595,-20.508,-19.043,-62.012,-23.438,297.852
1678025126.599,-21.484,-19.531,-61.523,-36.133,63.477
1678025126.603,-37.598,-21.973,-60.059,-50.293,-249.023
1678025126.607,-53.711,-20.020,-57.617,-35.645,-112.305
1678025126.611,-48.828,-20.020,-58.105,-19.043,39.551
1678025126.612,-34.668,-20.996,-61.523,-25.391,-44.922
1678025126.616,-38.574,-22.461,-65.430,-45.410,-145.508
1678025126.620,-53.223,-24.414,-68.848,-59.570,-72.754
1678025126.624,-55.176,-21.484,-70.801,-48.340,-51.758
1678025126.628,-53.223,-21.973,-70.801,-31.738,-97.656
1678025126.632,-43.457,-26.367,-69.336,-40.039,38.086
1678025126.636,-37.109,-22.949,-76.660,-62.012,93.262
1678025126.639,-44.922,-20.996,-78.613,-63.477,-98.633
1678025126.643,-51.758,-19.531,-72.754,-49.316,-249.512
1678025126.647,-47.363,-16.602,-76.172,-33.203,-102.051
1678025126.651,-33.691,-19.043,-78.125,-25.391,214.844
1678025126.655,-28.320,-21.484,-79.102,-35.156,160.645
1678025126.642,-38.086,-22.461,-79.590,-47.363,-176.270
1678025126.646,-43.945,-20.020,-78.125,-40.039,-185.059
1678025126.650,-42.480,-20.996,-83.984,-24.414,-62.500
1678025126.654,-33.203,-18.555,-87.402,-17.578,-61.523
1678025126.658,-33.203,-14.160,-82.031,-26.855,-105.469
1678025126.662,-45.898,-19.531,-77.148,-49.316,-131.836
1678025126.666,-52.246,-21.484,-78.613,-52.734,-58.105
1678025126.669,-55.664,-17.578,-81.055,-25.879,52.246
1678025126.673,-51.758,-18.555,-85.938,-20.996,-34.668
1678025126.677,-45.898,-17.578,-88.867,-44.434,-44.922
1678025126.681,-47.852,-19.531,-87.402,-52.734,180.176
1678025126.685,-49.805,-22.461,-83.008,-41.016,23.438
1678025126.689,-41.504,-18.555,-80.566,-25.879,-182.129
1678025126.693,-31.250,-17.578,-82.031,-18.555,88.379
1678025126.697,-22.949,-20.508,-86.426,-20.996,316.406
1678025126.701,-23.438,-23.438,-93.750,-40.527,-104.004
1678025126.705,-37.109,-22.461,-92.773,-41.992,-260.254
1678025126.709,-36.621,-22.949,-91.309,-21.973,-22.461
1678025126.713,-23.926,-28.809,-91.797,-20.996,26.367
1678025126.716,-29.297,-29.297,-94.238,-33.691,-63.477
1678025126.720,-42.480,-32.227,-100.586,-52.734,-166.992
1678025126.724,-49.805,-36.621,-100.586,-57.617,-63.477
1678025126.728,-44.434,-24.414,-95.703,-41.016,28.320
1678025126.732,-38.574,-15.137,-89.844,-32.715,-46.875
1678025126.746,-37.598,-20.508,-91.309,-41.992,-66.895
1678025126.750,-37.598,-23.438,-96.680,-56.641,74.707
1678025126.754,-48.828,-21.484,-96.191,-62.012,-80.078
1678025126.758,-47.363,-20.996,-94.238,-50.293,-194.336
1678025126.762,-41.992,-21.973,-93.262,-28.320,-25.391
1678025126.766,-34.180,-22.461,-102.051,-21.484,346.680
1678025126.770,-28.809,-20.508,-100.098,-40.527,179.688
1678025126.773,-40.039,-22.949,-93.750,-50.293,-302.734
1678025126.777,-51.758,-27.344,-97.656,-38.086,-198.242
1678025126.781,-47.852,-27.344,-99.609,-26.855,27.344
1678025126.785,-38.086,-21.973,-97.168,-35.645,1.953
1678025126.789,-33.203,-23.438,-94.238,-52.246,-61.035
1678025126.791,-42.480,-27.344,-94.238,-62.500,11.719
1678025126.795,-48.828,-27.832,-100.098,-42.969,92.773
1678025126.799,-41.016,-27.832,-104.004,-29.785,-40.527
1678025126.803,-33.203,-25.391,-104.004,-44.434,-81.055
1678025126.807,-35.645,-26.367,-107.910,-63.965,-63.477
1678025126.811,-44.922,-25.879,-111.816,-70.312,-94.238
1678025126.815,-53.711,-22.461,-109.863,-55.664,-106.445
1678025126.818,-51.270,-22.949,-104.492,-44.922,-52.734
1678025126.822,-44.434,-23.926,-104.004,-37.598,174.316
1678025126.826,-41.016,-23.438,-109.375,-46.875,128.418
1678025126.830,-45.410,-24.414,-109.863,-66.895,-161.133
1678025126.834,-55.664,-23.438,-108.887,-58.594,-178.223
1678025126.837,-50.293,-26.855,-110.352,-41.016,-60.059
1678025126.841,-35.645,-26.855,-109.863,-38.086,-79.590
1678025126.845,-31.738,-24.902,-107.910,-50.293,-126.953
1678025126.849,-42.480,-28.809,-107.910,-81.055,-111.328
1678025126.853,-50.781,-30.762,-102.051,-81.055,-51.270
1678025126.857,-45.410,-26.855,-110.840,-68.848,1.953
1678025126.861,-38.574,-20.508,-117.188,-72.754,-78.125
1678025126.864,-37.598,-16.113,-104.980,-77.637,-58.105
1678025126.868,-52.246,-22.461,-112.305,-99.609,71.777
1678025126.872,-83.008,-30.762,-116.699,-114.258,-100.098
1678025126.876,-109.863,-32.227,-115.723,-113.281,-189.941
1678025126.880,-108.887,-29.785,-118.164,-116.211,75.684
1678025126.881,-116.211,-23.438,-121.094,-128.418,169.434
1678025126.885,-151.855,-25.879,-135.742,-174.316,-144.043
1678025126.889,-178.711,-28.320,-149.414,-194.336,-249.512
1678025126.893,-185.059,-25.391,-153.809,-178.223,-25.391
1678025126.897,-185.547,-25.879,-156.738,-177.734,112.793
1678025126.901,-187.012,-21.484,-159.668,-190.918,-16.113
1678025126.905,-184.570,-12.695,-157.715,-208.008,-64.941
1678025126.908,-182.129,-9.277,-151.367,-191.406,83.496
1678025126.912,-185.059,-10.742,-148.926,-158.203,193.359
1678025126.916,-169.922,-10.742,-151.367,-148.926,-50.293
1678025126.920,-142.090,-9.277,-152.344,-148.438,-146.484
1678025126.924,-132.324,-13.184,-157.715,-152.344,-167.480
1678025126.926,-121.094,-15.137,-151.855,-139.648,-254.883
1678025126.930,-105.469,-15.625,-143.066,-103.516,-171.387
1678025126.934,-85.938,-13.672,-146.484,-72.266,-102.539
1678025126.938,-64.941,-15.137,-147.949,-74.219,-60.059
1678025126.942,-62.012,-20.996,-143.066,-83.496,-131.836
1678025126.946,-56.641,-19.043,-135.254,-68.848,-161.621
1678025126.950,-60.547,-20.996,-131.348,-48.828,118.652
1678025126.953,-49.805,-21.973,-136.230,-16.113,373.535
1678025126.957,-30.273,-24.902,-133.789,-14.160,121.582
1678025126.961,-28.320,-28.320,-130.371,-40.527,-188.477
1678025126.965,-31.250,-26.855,-126.465,-38.086,-110.840
1678025126.969,-36.621,-28.320,-122.559,-24.902,4.883
1678025126.987,-22.461,-29.297,-121.582,-0.977,-57.617
1678025126.991,-0.977,-26.367,-117.676,12.207,-98.633
1678025126.995,2.441,-24.414,-117.188,-17.578,4.883
1678025126.999,1.953,-24.902,-124.512,-24.902,-79.102
1678025127.003,-0.488,-28.320,-121.094,-14.648,-163.574
1678025127.007,-13.184,-32.227,-117.676,-10.254,46.875
1678025127.011,-3.418,-30.762,-116.211,0.977,301.758
1678025127.014,10.254,-30.273,-111.328,1.465,205.078
1678025127.018,5.859,-27.344,-107.910,-22.461,-187.988
1678025127.022,0.488,-25.391,-102.539,-14.160,-89.355
1678025127.026,1.465,-26.367,-100.098,13.672,121.094
1678025127.030,12.695,-26.855,-97.656,12.207,-13.184
1678025127.016,21.484,-23.926,-92.285,-0.488,-108.398
1678025127.020,21.484,-21.973,-95.215,-12.695,-157.227
1678025127.024,19.043,-21.973,-91.797,-10.254,-174.805
1678025127.028,10.254,-27.832,-86.914,6.836,-104.492
1678025127.032,17.090,-34.668,-82.031,11.719,-49.805
1678025127.036,28.320,-34.180,-79.102,-2.441,25.391
1678025127.040,23.926,-34.180,-78.125,-14.648,58.105
1678025127.043,10.742,-35.156,-74.707,-13.184,-89.355
1678025127.047,12.207,-33.691,-74.707,-6.348,-156.250
1678025127.051,20.996,-37.109,-76.172,8.789,-40.527
1678025127.055,23.926,-38.574,-70.801,9.766,146.973
1678025127.059,18.066,-40.527,-72.754,-15.137,4.395
1678025127.062,11.230,-44.434,-78.613,-12.207,-197.266
1678025127.066,10.254,-41.992,-70.801,15.137,-57.129
1678025127.070,10.254,-39.551,-67.871,37.598,155.273
1678025127.074,18.066,-35.645,-70.801,32.227,-79.102
1678025127.078,17.090,-30.762,-65.918,11.230,-225.586
1678025127.082,5.859,-32.715,-64.941,5.859,-7.812
1678025127.086,1.953,-35.645,-66.406,16.113,28.320
1678025127.089,7.324,-32.227,-63.965,18.066,-116.699
1678025127.093,22.949,-33.203,-64.453,10.254,-105.957
1678025127.097,17.090,-35.645,-69.824,-2.930,109.863
1678025127.101,2.441,-35.156,-68.359,-15.137,-69.824
1678025127.105,-8.301,-37.109,-59.570,-1.953,-204.102
1678025127.123,-1.953,-36.621,-56.641,16.113,-5.859
1678025127.127,5.859,-32.227,-56.152,11.230,4.883
1678025127.131,4.395,-30.273,-52.734,-12.695,-85.938
1678025127.135,6.836,-30.273,-49.316,-21.973,-176.758
1678025127.139,0.488,-30.273,-48.828,-5.859,-59.082
1678025127.143,-5.859,-28.320,-49.805,9.766,250.488
1678025127.147,0.977,-28.809,-47.852,2.930,132.812
1678025127.150,-1.953,-31.250,-48.828,-22.461,-129.883
1678025127.154,-16.113,-34.180,-47.363,-29.297,-130.859
1678025127.158,-20.020,-32.227,-45.898,-12.695,43.945
1678025127.162,-8.301,-20.996,-43.457,-0.977,-30.273
1678025127.166,2.441,-20.508,-48.828,-2.441,-37.598
1678025127.167,-1.465,-24.902,-52.734,-14.648,29.785
1678025127.171,-3.906,-26.855,-50.781,-23.438,-20.508
1678025127.175,-8.301,-24.414,-49.316,-19.043,-199.707
1678025127.179,-10.742,-22.461,-53.711,-3.906,-168.945
1678025127.183,-7.324,-25.391,-53.711,-3.418,66.895
1678025127.187,-10.742,-26.855,-53.223,-29.785,51.758
1678025127.191,-12.207,-25.391,-52.734,-46.387,-107.910
1678025127.194,-17.578,-23.926,-50.293,-41.992,-163.574
1678025127.198,-31.738,-26.367,-48.340,-21.973,116.211
1678025127.202,-18.555,-25.391,-45.410,-16.113,312.988
1678025127.206,-9.766,-24.902,-47.852,-47.363,31.250
1678025127.210,-21.484,-27.344,-58.105,-73.242,-130.371
1678025127.211,-28.320,-29.297,-59.082,-63.965,-131.348
1678025127.215,-30.762,-24.902,-58.594,-38.574,-123.047
1678025127.219,-24.414,-24.414,-59.082,-31.250,-100.586
1678025127.223,-20.508,-25.391,-54.199,-32.715,-90.332
1678025127.227,-28.809,-19.043,-48.828,-47.363,-117.676
1678025127.231,-37.109,-22.949,-54.688,-54.688,-74.707
1678025127.235,-31.250,-28.809,-57.129,-31.250,47.363
1678025127.238,-18.066,-24.902,-50.781,-13.672,139.160
1678025127.242,-22.461,-29.297,-49.316,-18.555,323.242
1678025127.246,-29.785,-37.598,-50.781,-39.551,115.723
1678025127.250,-31.250,-30.273,-54.199,-41.992,-167.969
1678025127.254,-33.203,-28.320,-57.617,-16.602,89.355
1678025127.256,-34.668,-26.855,-59.570,-2.930,160.156
1678025127.260,-35.645,-24.414,-60.547,-24.902,-50.293
1678025127.264,-33.691,-25.391,-58.594,-44.922,-163.574
1678025127.268,-35.645,-25.391,-57.129,-36.621,-146.973
1678025127.272,-38.574,-25.391,-57.129,-27.832,-89.844
1678025127.276,-31.738,-25.879,-59.570,-20.508,-36.621
1678025127.280,-27.832,-25.391,-61.035,-23.438,4.395
1678025127.283,-34.180,-23.438,-57.129,-38.086,182.129
1678025127.287,-39.062,-22.949,-54.688,-49.805,116.211
1678025127.291,-35.156,-26.367,-58.594,-41.016,-117.676
1678025127.295,-28.320,-28.320,-64.453,-20.508,-54.199
1678025127.299,-28.320,-30.762,-63.477,-19.043,87.402
1678025127.301,-26.855,-29.785,-60.059,-39.551,-70.801
1678025127.305,-29.297,-24.902,-58.594,-61.523,-229.492
1678025127.309,-41.992,-27.832,-64.453,-46.875,-207.520
1678025127.313,-43.457,-34.180,-66.895,-29.785,-5.371
1678025127.317,-25.879,-32.715,-65.918,-27.832,62.500
1678025127.321,-26.367,-29.297,-64.941,-36.133,-31.250
1678025127.325,-42.480,-29.297,-69.336,-58.594,33.691
1678025127.328,-48.340,-29.297,-70.801,-46.387,243.164
1678025127.332,-43.945,-30.762,-61.523,-28.809,44.922
1678025127.336,-40.527,-34.180,-62.988,-41.504,-91.797
1678025127.340,-40.039,-29.785,-66.406,-59.082,-23.926
1678025127.344,-42.969,-28.320,-62.500,-71.289,-15.137
1678025127.346,-45.898,-31.738,-63.477,-66.895,-99.609
1678025127.350,-35.645,-27.832,-64.453,-44.434,-148.926
1678025127.354,-27.344,-26.855,-64.453,-31.738,69.824
1678025127.358,-25.879,-24.902,-69.824,-41.504,163.574
1678025127.362,-31.738,-29.785,-73.730,-60.547,-155.273
1678025127.366,-42.969,-37.109,-70.801,-70.801,-197.754
1678025127.370,-42.969,-32.227,-70.312,-40.039,173.340
1678025127.373,-27.344,-26.367,-68.359,-18.555,291.016
1678025127.377,-20.508,-24.902,-62.988,-41.016,-45.898
1678025127.381,-27.344,-22.949,-63.477,-55.664,-167.969
1678025127.385,-28.320,-20.020,-67.383,-52.734,-101.562
1678025127.389,-31.250,-19.043,-62.012,-47.852,-134.277
1678025127.392,-27.344,-19.531,-60.059,-54.688,-121.582
1678025127.396,-22.461,-22.949,-63.965,-63.965,-24.414
1678025127.400,-29.297,-23.438,-60.547,-83.008,-12.207
1678025127.404,-39.551,-23.438,-58.594,-92.285,-218.750
1678025127.408,-40.039,-28.320,-62.988,-78.125,-244.629
1678025127.412,-33.691,-27.832,-65.918,-66.895,4.883
1678025127.416,-26.367,-24.414,-61.523,-68.848,108.398
1678025127.419,-29.297,-30.273,-65.918,-92.773,-79.590
1678025127.423,-41.992,-27.832,-71.289,-100.098,-241.211
1678025127.427,-47.852,-32.715,-65.918,-76.172,-169.434
1678025127.431,-46.875,-38.086,-61.523,-59.082,38.574
1678025127.435,-48.340,-31.738,-62.500,-74.219,28.809
1678025127.451,-46.875,-29.785,-63.477,-94.727,-131.348
1678025127.455,-47.852,-27.832,-71.777,-95.215,-59.082
1678025127.459,-56.152,-29.785,-74.219,-81.543,11.230
1678025127.463,-57.617,-28.809,-70.312,-66.406,92.285
1678025127.467,-45.898,-24.414,-72.266,-62.500,94.727
1678025127.471,-42.480,-27.344,-71.777,-75.684,177.734
1678025127.475,-46.387,-28.320,-73.242,-87.402,242.188
1678025127.478,-48.828,-31.738,-76.660,-85.938,-87.402
1678025127.482,-44.922,-30.273,-75.684,-67.383,-137.207
1678025127.486,-28.809,-23.926,-72.266,-65.918,124.023
1678025127.490,-20.020,-20.020,-69.336,-95.215,-0.977
1678025127.494,-34.180,-18.555,-68.848,-116.211,-227.051
1678025127.497,-43.457,-17.578,-68.848,-111.328,-145.996
1678025127.501,-32.227,-18.066,-67.383,-100.586,-10.254
1678025127.505,-22.949,-20.508,-69.824,-99.121,-10.742
1678025127.509,-27.344,-17.578,-71.289,-107.422,-139.648
1678025127.513,-38.086,-16.113,-69.336,-120.605,-161.133
1678025127.517,-53.223,-21.973,-71.777,-121.582,-55.176
1678025127.521,-43.457,-21.973,-70.801,-99.609,-27.344
1678025127.524,-27.832,-22.461,-72.266,-97.168,57.617
1678025127.528,-35.156,-30.762,-74.219,-116.211,67.871
1678025127.532,-45.898,-28.809,-73.730,-127.930,166.992
1678025127.536,-55.664,-22.949,-72.754,-129.883,17.090
1678025127.540,-55.176,-27.832,-72.266,-108.887,-127.441
1678025127.541,-38.574,-23.926,-72.266,-102.051,40.039
1678025127.545,-37.598,-20.020,-70.801,-105.469,67.383
1678025127.549,-48.340,-24.902,-70.312,-119.629,-144.043
1678025127.553,-45.898,-22.461,-69.824,-121.582,-202.148
1678025127.557,-38.574,-17.578,-66.895,-100.098,25.391
1678025127.561,-24.902,-18.555,-67.383,-87.402,173.340
1678025127.565,-16.602,-19.531,-71.289,-96.191,68.359
1678025127.568,-22.949,-19.043,-71.289,-111.816,-113.770
1678025127.572,-39.062,-22.949,-72.266,-112.793,70.801
1678025127.576,-42.969,-27.344,-75.195,-100.098,160.645
1678025127.580,-25.391,-21.973,-77.148,-94.727,-26.367
1678025127.584,-22.461,-20.996,-74.219,-116.211,-27.344
1678025127.587,-35.645,-26.367,-74.219,-132.812,108.398
1678025127.591,-39.062,-25.879,-74.707,-137.207,-102.539
1678025127.595,-36.133,-24.902,-73.242,-127.441,-220.215
1678025127.599,-16.602,-24.414,-76.172,-110.840,48.828
1678025127.603,-14.160,-28.320,-79.590,-114.258,225.098
1678025127.607,-24.414,-35.156,-83.496,-136.719,12.207
1678025127.611,-24.414,-30.273,-84.961,-138.672,-179.199
1678025127.614,-30.762,-22.949,-82.520,-111.328,-59.082
1678025127.618,-33.203,-23.926,-82.031,-83.496,148.926
1678025127.622,-29.785,-30.273,-86.426,-90.820,-0.488
1678025127.626,-34.668,-29.297,-87.402,-109.375,-188.477
1678025127.630,-45.410,-27.344,-85.938,-105.957,-87.891
1678025127.632,-54.688,-27.832,-89.355,-100.098,146.973
1678025127.636,-53.223,-24.902,-89.844,-101.074,-15.625
1678025127.640,-42.969,-30.762,-88.379,-103.027,-82.031
1678025127.644,-43.457,-34.668,-85.449,-116.211,-102.051
1678025127.648,-53.223,-36.133,-83.008,-116.211,-230.957
1678025127.652,-60.059,-39.551,-88.867,-88.867,-190.430
1678025127.656,-48.340,-35.645,-91.797,-60.059,-48.340
1678025127.659,-37.598,-31.738,-93.750,-61.035,193.848
1678025127.663,-42.969,-31.250,-92.285,-81.055,165.527
1678025127.667,-44.922,-33.203,-87.891,-97.168,-157.227
1678025127.671,-50.293,-34.668,-89.355,-84.961,-187.500
1678025127.675,-50.293,-31.250,-90.332,-64.453,-88.867
1678025127.678,-38.574,-30.273,-90.332,-71.777,-30.762
1678025127.682,-42.969,-27.832,-91.797,-80.566,-91.309
1678025127.686,-52.734,-25.391,-91.309,-84.473,-168.945
1678025127.690,-54.688,-25.391,-90.332,-79.590,-61.035
1678025127.694,-45.898,-21.973,-84.961,-53.223,0.488
1678025127.698,-36.133,-23.926,-86.426,-52.734,79.102
1678025127.702,-38.574,-26.367,-94.238,-72.266,106.934
1678025127.705,-42.480,-29.297,-94.727,-72.754,211.426
1678025127.709,-53.711,-30.273,-89.355,-74.707,58.594
1678025127.713,-56.152,-26.855,-86.426,-77.637,-152.344
1678025127.717,-43.457,-24.902,-89.355,-67.871,35.645
1678025127.721,-37.598,-21.973,-89.844,-72.754,77.148
1678025127.721,-37.598,-20.996,-88.867,-89.844,-145.996
1678025127.725,-44.922,-21.973,-89.355,-86.426,-208.496
1678025127.729,-41.992,-22.949,-86.914,-60.547,-43.457
1678025127.733,-32.227,-20.996,-89.844,-54.199,58.105
1678025127.737,-25.879,-20.996,-91.309,-63.477,-88.379
1678025127.741,-23.438,-22.949,-89.844,-80.078,-93.262
1678025127.745,-34.668,-20.508,-88.867,-75.684,155.762
1678025127.748,-42.480,-23.438,-85.449,-49.805,304.199
1678025127.752,-35.156,-26.367,-83.984,-58.105,72.754
1678025127.756,-29.297,-22.949,-82.031,-72.754,-72.266
1678025127.760,-30.762,-25.391,-80.078,-82.031,-148.926
1678025127.764,-33.691,-27.832,-78.125,-93.262,-200.195
1678025127.767,-33.203,-30.273,-77.148,-77.148,-142.578
1678025127.771,-26.367,-30.762,-78.125,-58.105,-108.887
1678025127.775,-22.949,-29.297,-77.637,-68.848,-103.027
1678025127.779,-27.832,-30.762,-73.730,-92.285,-181.152
1678025127.783,-32.715,-28.320,-71.289,-88.379,-231.445
1678025127.787,-29.785,-26.855,-63.477,-58.594,-110.840
1678025127.791,-23.926,-32.715,-61.523,-50.293,99.609
1678025127.794,-15.137,-31.738,-63.477,-70.312,-6.348
1678025127.798,-12.207,-23.926,-59.570,-78.125,-229.004
1678025127.802,-15.625,-21.484,-57.617,-79.590,-176.270
1678025127.806,-27.344,-26.855,-60.547,-67.383,151.855
1678025127.810,-23.926,-31.738,-59.570,-59.570,94.238
1678025127.827,-14.160,-30.273,-55.176,-66.406,-113.281
1678025127.831,-13.672,-26.855,-51.758,-71.289,-48.340
1678025127.835,-24.902,-23.438,-49.316,-74.219,-41.992
1678025127.839,-37.109,-21.973,-49.316,-66.406,-158.203
1678025127.843,-38.086,-28.809,-55.664,-59.570,-82.520
1678025127.847,-25.391,-29.297,-60.059,-60.059,149.902
1678025127.851,-13.184,-23.926,-58.594,-64.941,124.512
1678025127.854,-16.602,-25.391,-56.641,-76.172,-53.711
1678025127.858,-22.461,-20.508,-55.176,-74.219,-56.152
1678025127.862,-19.531,-14.160,-55.176,-56.641,203.613
1678025127.866,-13.672,-13.672,-50.293,-52.734,261.719
1678025127.870,-15.625,-15.625,-48.340,-73.730,-69.824
1678025127.871,-25.879,-18.555,-48.828,-77.637,-145.020
1678025127.875,-37.109,-25.391,-47.363,-68.359,-58.594
1678025127.879,-43.945,-27.832,-48.340,-59.570,-83.008
1678025127.883,-44.922,-27.344,-50.293,-63.477,-103.027
1678025127.887,-40.039,-25.879,-53.711,-79.102,-80.078
1678025127.891,-45.898,-25.391,-48.340,-82.031,-48.828
1678025127.895,-55.176,-24.414,-44.434,-71.777,-90.820
1678025127.898,-56.641,-20.508,-46.875,-50.293,-59.570
1678025127.902,-49.805,-22.949,-46.387,-41.016,73.730
1678025127.906,-47.363,-25.391,-50.293,-54.199,240.234
1678025127.910,-51.270,-20.996,-53.711,-83.984,5.859
1678025127.914,-58.105,-17.090,-47.852,-90.332,-232.422
1678025127.916,-52.734,-16.602,-46.387,-67.871,-52.246
1678025127.920,-45.410,-23.438,-46.387,-62.500,185.059
1678025127.924,-46.387,-24.414,-47.363,-75.195,-53.711
1678025127.928,-48.828,-23.926,-46.875,-83.984,-200.195
1678025127.932,-63.965,-28.809,-50.781,-83.496,-93.750
1678025127.936,-62.012,-28.320,-52.734,-66.406,38.574
1678025127.940,-53.223,-20.508,-52.246,-53.711,78.613
1678025127.943,-62.988,-20.508,-62.988,-78.613,-88.867
1678025127.947,-94.238,-22.461,-68.848,-128.418,4.395
1678025127.951,-124.512,-23.438,-67.871,-147.949,-27.344
1678025127.955,-137.207,-25.391,-64.453,-132.324,-174.316
1678025127.959,-155.762,-31.738,-78.125,-149.902,-44.922
1678025127.961,-179.199,-35.156,-93.750,-198.242,83.008
1678025127.965,-185.547,-32.227,-97.168,-217.773,-53.223
1678025127.969,-205.078,-29.297,-101.562,-233.887,-230.957
1678025127.973,-227.051,-25.879,-103.516,-229.980,-174.805
1678025127.977,-216.797,-21.973,-101.074,-197.754,7.324
1678025127.981,-202.148,-22.461,-100.586,-201.660,76.660
1678025127.985,-200.195,-20.020,-100.098,-214.844,-9.277
1678025127.988,-200.684,-20.020,-98.145,-214.844,-98.633
1678025127.992,-196.289,-17.578,-99.121,-190.430,153.320
1678025127.996,-177.734,-14.648,-100.098,-157.227,100.098
1678025128.000,-147.461,-18.066,-95.703,-145.508,-46.387
1678025128.004,-134.277,-14.648,-98.633,-150.879,56.641
1678025128.008,-133.301,-8.301,-100.586,-144.043,-16.113
1678025128.012,-118.164,-9.766,-94.727,-120.605,-199.219
1678025128.016,-94.727,-7.812,-89.355,-99.121,-136.230
1678025128.020,-79.590,-7.324,-87.402,-92.773,67.871
1678025128.024,-70.312,-13.672,-89.844,-90.332,-26.855
1678025128.028,-63.477,-14.160,-89.355,-91.309,-142.090
1678025128.032,-60.547,-10.742,-85.449,-79.590,-144.043
1678025128.035,-53.223,-15.137,-82.520,-54.688,96.680
1678025128.039,-37.598,-22.949,-80.566,-42.480,162.598
1678025128.043,-29.785,-24.414,-79.102,-48.828,-95.215
1678025128.047,-38.086,-21.484,-78.125,-52.734,-177.734
1678025128.051,-36.133,-20.996,-71.289,-41.016,-91.309
1678025128.051,-26.367,-27.344,-67.383,-25.879,-106.934
1678025128.055,-18.066,-28.809,-68.848,-13.672,-122.559
1678025128.059,-1.465,-26.367,-67.383,-12.695,-73.730
1678025128.063,-3.906,-27.344,-61.035,-25.879,-84.473
1678025128.067,-18.066,-26.367,-56.641,-21.484,-132.324
1678025128.071,-10.254,-28.320,-58.105,-6.836,-113.770
1678025128.075,0.000,-30.273,-63.477,1.953,56.641
1678025128.078,-1.465,-30.273,-60.547,-3.906,426.270
1678025128.082,-0.977,-30.273,-54.199,-17.578,180.176
1678025128.086,1.953,-27.832,-54.199,-21.973,-160.645
1678025128.090,7.324,-27.344,-50.781,-1.465,-8.301
1678025128.094,9.766,-30.273,-47.852,11.719,70.312
1678025128.096,22.949,-29.785,-49.316,-0.977,-113.281
1678025128.100,22.949,-29.785,-49.805,-18.555,-214.844
1678025128.104,7.812,-27.832,-47.363,-19.531,-88.379
1678025128.108,7.324,-26.855,-48.828,-4.883,-42.480
1678025128.112,10.742,-28.320,-49.316,-0.488,-54.688
1678025128.116,16.113,-25.879,-48.340,-14.648,-78.125
1678025128.120,19.043,-21.973,-45.410,-19.531,67.871
1678025128.123,17.578,-24.902,-36.621,-11.230,97.656
1678025128.127,14.160,-26.367,-33.691,-6.348,-176.758
1678025128.131,13.184,-26.855,-38.574,6.836,-115.234
1678025128.135,18.555,-33.203,-38.086,11.230,73.242
1678025128.139,20.020,-37.109,-36.133,1.953,-31.250
1678025128.142,8.301,-30.273,-39.551,-6.348,-155.273
1678025128.146,-2.441,-28.320,-38.574,4.883,-125.000
1678025128.150,10.742,-29.297,-34.180,18.555,-8.789
1678025128.154,18.555,-24.902,-33.691,12.207,37.109
1678025128.158,5.371,-23.438,-39.062,-5.859,-92.285
1678025128.162,-3.906,-25.879,-36.133,-7.324,-68.359
1678025128.166,0.977,-27.344,-28.320,1.465,134.766
1678025128.169,14.648,-26.855,-26.367,8.301,14.160
1678025128.173,23.926,-28.809,-25.879,4.395,-87.891
1678025128.177,24.902,-25.879,-30.762,-16.602,14.648
1678025128.181,17.090,-22.461,-36.133,-29.297,143.555
1678025128.185,0.488,-20.020,-37.598,-21.973,52.246
1678025128.201,-3.906,-20.020,-36.621,-7.324,-48.828
1678025128.205,5.859,-24.902,-35.156,-3.418,131.836
1678025128.209,7.812,-25.879,-30.762,-12.695,252.930
1678025128.213,6.348,-22.461,-29.785,-34.180,-100.586
1678025128.217,-6.348,-23.926,-31.738,-29.785,-187.988
1678025128.221,-13.184,-27.344,-30.762,-2.930,158.691
1678025128.225,-4.883,-28.809,-36.133,-4.883,185.547
1678025128.228,6.836,-27.344,-39.062,-25.879,-17.578
1678025128.232,-0.977,-24.902,-33.203,-43.945,-179.199
1678025128.236,-19.043,-18.066,-30.762,-31.250,-6.348
1678025128.240,-15.625,-18.066,-31.250,-6.836,62.988
1678025128.244,-4.395,-23.926,-33.691,-6.348,-64.941
1678025128.247,-4.883,-29.785,-32.715,-26.855,21.484
1678025128.251,-16.113,-35.156,-34.180,-40.527,-39.062
1678025128.255,-19.531,-32.715,-33.691,-25.879,-174.316
1678025128.259,-10.742,-27.344,-31.738,-12.207,-157.715
1678025128.263,-6.348,-24.414,-33.203,-14.648,-51.270
1678025128.267,-16.113,-27.832,-32.227,-28.809,100.098
1678025128.271,-20.020,-25.391,-33.691,-41.992,40.527
1678025128.274,-27.344,-21.973,-37.598,-40.039,-193.848
1678025128.278,-36.133,-22.461,-34.180,-23.926,-141.113
1678025128.282,-23.926,-20.996,-30.762,-14.648,184.570
1678025128.286,0.000,-18.555,-30.273,-25.879,-1.465
1678025128.290,-6.836,-19.043,-31.250,-46.387,-238.281
1678025128.292,-28.320,-21.973,-35.156,-56.152,-133.301
1678025128.296,-33.691,-24.902,-37.109,-38.574,-76.660
1678025128.300,-26.855,-27.832,-39.062,-30.273,-96.680
1678025128.304,-20.508,-28.809,-38.574,-43.457,-73.730
1678025128.308,-24.414,-27.832,-39.062,-52.734,37.109
1678025128.312,-29.297,-23.926,-38.574,-57.617,27.344
1678025128.316,-26.855,-21.484,-37.598,-41.016,-69.336
1678025128.319,-22.949,-19.531,-39.062,-31.250,-44.922
1678025128.323,-20.020,-19.043,-42.969,-32.715,185.547
1678025128.327,-16.113,-20.020,-46.875,-46.387,213.379
1678025128.331,-22.461,-20.508,-51.270,-74.219,-146.484
1678025128.335,-26.367,-22.461,-51.758,-71.289,-209.473
1678025128.337,-19.531,-22.949,-51.270,-62.012,-86.426
1678025128.341,-7.812,-20.508,-50.293,-66.406,-64.941
1678025128.345,-5.371,-22.949,-46.875,-80.078,-131.348
1678025128.349,-21.484,-31.738,-46.875,-88.379,-153.809
1678025128.353,-33.691,-31.738,-42.969,-77.148,-63.965
1678025128.357,-30.273,-28.320,-37.109,-51.758,-32.715
1678025128.361,-30.273,-29.785,-43.457,-44.922,-33.203
1678025128.364,-29.297,-30.273,-43.945,-59.082,29.785
1678025128.368,-29.785,-26.367,-41.992,-66.406,151.367
1678025128.372,-41.016,-23.926,-44.434,-59.082,-21.484
1678025128.376,-42.969,-28.320,-43.457,-39.551,-132.812
1678025128.380,-33.203,-33.203,-44.922,-35.645,96.680
1678025128.381,-31.250,-33.691,-50.293,-59.570,74.707
1678025128.385,-37.598,-31.250,-50.781,-81.055,-190.430
1678025128.389,-46.387,-30.762,-46.875,-70.801,-190.918
1678025128.393,-49.316,-26.855,-44.922,-54.688,-41.992
1678025128.397,-38.574,-29.785,-44.434,-45.898,7.324
1678025128.401,-37.109,-32.227,-45.898,-57.129,13.184
1678025128.405,-42.480,-33.203,-48.340,-75.684,-111.328
1678025128.408,-47.852,-31.250,-53.711,-71.777,134.277
1678025128.412,-49.805,-29.785,-55.664,-54.199,359.863
1678025128.416,-31.738,-31.738,-51.758,-40.527,48.828
1678025128.420,-20.020,-25.391,-52.246,-50.293,-123.047
1678025128.424,-32.227,-21.973,-55.664,-75.195,-159.668
1678025128.426,-42.969,-23.438,-56.152,-78.613,-254.883
1678025128.430,-46.875,-27.832,-58.105,-62.500,-203.125
1678025128.434,-39.551,-24.902,-59.570,-48.828,-85.938
1678025128.438,-29.297,-24.414,-58.594,-59.570,-66.406
1678025128.442,-33.203,-29.297,-60.547,-69.336,-125.977
1678025128.446,-38.574,-29.297,-61.523,-64.941,-152.832
1678025128.450,-41.992,-28.809,-56.152,-53.711,41.992
1678025128.453,-39.062,-29.785,-58.105,-33.691,277.832
1678025128.457,-26.367,-28.320,-61.035,-35.645,70.312
1678025128.461,-20.996,-24.902,-57.129,-55.664,-161.133
1678025128.465,-34.180,-28.809,-57.129,-63.965,-109.863
1678025128.469,-41.504,-31.738,-62.988,-58.594,35.156
1678025128.471,-32.715,-25.879,-64.453,-59.082,3.418
1678025128.475,-24.902,-23.926,-63.965,-66.406,-31.738
1678025128.479,-27.832,-27.832,-65.430,-72.266,33.203
1678025128.483,-36.133,-29.785,-65.918,-70.801,-59.082
1678025128.487,-36.133,-33.691,-62.988,-52.246,-203.125
1678025128.491,-28.320,-33.691,-61.035,-32.715,-22.461
1678025128.495,-15.137,-30.762,-58.105,-30.273,254.883
1678025128.498,-12.695,-33.691,-54.199,-41.016,117.188
1678025128.502,-25.391,-31.250,-53.223,-52.734,-208.984
1678025128.506,-31.738,-27.832,-51.758,-39.551,-229.004
1678025128.510,-20.996,-31.738,-47.363,-26.367,-103.027
1678025128.514,-13.672,-37.109,-46.875,-31.738,-56.152
1678025128.517,-21.973,-38.574,-49.316,-50.293,-89.844
1678025128.521,-33.691,-35.645,-47.363,-61.035,-145.508
1678025128.525,-36.133,-31.738,-44.434,-45.410,-21.484
1678025128.529,-29.785,-28.320,-44.434,-22.461,9.766
1678025128.533,-13.184,-21.973,-43.457,-14.160,-29.785
1678025128.537,-4.395,-16.602,-41.016,-32.227,65.430
1678025128.541,-12.695,-19.531,-39.551,-46.875,130.859
1678025128.544,-18.555,-24.414,-37.598,-34.668,-51.758
1678025128.548,-12.207,-22.461,-35.645,-12.695,-154.297
1678025128.552,-0.977,-23.438,-33.203,-15.137,-26.367
1678025128.556,-0.488,-23.926,-34.180,-32.715,102.539
1678025128.560,-6.836,-23.926,-34.668,-36.621,-23.926
1678025128.563,-12.207,-27.832,-32.227,-25.879,-192.871
1678025128.567,-18.555,-27.832,-33.203,-13.672,25.879
1678025128.571,-21.484,-26.367,-35.645,-9.277,264.160
1678025128.575,-22.461,-29.297,-37.598,-22.461,9.766
1678025128.579,-25.391,-35.645,-38.574,-40.527,-189.941
1678025128.583,-29.297,-34.668,-40.039,-33.691,57.617
1678025128.587,-27.344,-32.227,-40.527,-9.766,213.379
1678025128.590,-12.695,-36.133,-37.109,-5.859,51.270
1678025128.594,-1.465,-32.227,-38.086,-7.812,-28.809
1678025128.598,-10.254,-29.785,-39.062,-17.090,75.684
1678025128.602,-25.391,-31.738,-37.109,-31.738,-68.848
1678025128.606,-23.926,-31.250,-36.621,-15.625,-217.285
1678025128.622,-20.020,-33.203,-38.086,8.789,-88.867
1678025128.626,-21.484,-35.645,-43.457,13.184,-72.754
1678025128.630,-26.855,-30.762,-43.945,-1.465,-178.223
1678025128.634,-38.086,-29.785,-41.016,5.859,-208.008
1678025128.638,-34.668,-30.273,-39.062,31.250,20.508
1678025128.642,-19.531,-28.809,-36.621,48.828,284.180
1678025128.646,-14.648,-32.715,-35.645,37.598,123.535
1678025128.649,-17.578,-32.227,-33.691,19.531,-148.926
1678025128.653,-21.484,-31.250,-35.156,20.020,-105.469
1678025128.657,-24.902,-31.250,-36.133,32.227,145.020
1678025128.661,-17.578,-33.203,-35.156,35.645,107.910
1678025128.665,-3.906,-35.645,-41.016,24.902,-25.391
1678025128.666,-3.906,-30.762,-43.945,9.277,-57.617
1678025128.670,-12.695,-25.391,-41.992,2.441,-74.219
1678025128.674,-18.555,-23.438,-38.086,18.066,-143.066
1678025128.678,-15.625,-24.902,-36.133,26.367,-101.074
1678025128.682,-5.371,-26.367,-38.086,22.949,-20.996
1678025128.686,-15.137,-25.391,-39.062,12.207,-20.508
1678025128.690,-27.832,-23.438,-37.109,2.441,-78.613
1678025128.693,-31.738,-22.461,-35.645,22.949,-88.379
1678025128.697,-22.461,-26.367,-36.133,62.500,185.547
1678025128.701,-13.672,-29.297,-34.180,58.105,309.082
1678025128.705,-0.488,-23.926,-29.297,32.715,-74.707
1678025128.709,-6.836,-28.809,-32.227,22.461,-267.578
1678025128.711,-21.973,-32.227,-31.250,24.902,-139.160
1678025128.715,-14.648,-23.438,-24.902,42.969,-85.938
1678025128.719,-11.719,-22.461,-32.715,51.270,-91.309
1678025128.723,-17.090,-23.438,-41.504,38.086,-100.098
1678025128.727,-24.414,-25.879,-39.062,10.254,-150.879
1678025128.731,-32.227,-24.414,-34.180,5.371,-124.512
1678025128.735,-29.785,-20.020,-35.645,30.273,12.695
1678025128.738,-15.137,-21.484,-36.133,38.574,92.773
1678025128.742,-11.719,-18.555,-33.691,36.621,249.512
1678025128.746,-16.113,-16.602,-35.156,21.973,23.926
1678025128.750,-21.484,-18.066,-31.738,17.090,-213.867
1678025128.754,-22.461,-20.508,-25.879,39.551,96.191
1678025128.756,-7.812,-21.973,-29.297,51.758,266.602
1678025128.760,6.348,-19.531,-31.250,45.410,-33.203
1678025128.764,-4.395,-19.531,-26.855,22.461,-149.902
1678025128.768,-9.766,-15.137,-21.484,20.508,-117.676
1678025128.772,-1.465,-13.672,-24.414,36.133,-90.332
1678025128.776,12.207,-15.625,-24.414,41.504,18.066
1678025128.780,16.113,-16.602,-21.484,28.809,68.359
1678025128.783,4.883,-18.555,-23.438,6.836,68.359
1678025128.787,-17.090,-22.949,-28.809,0.488,-106.445
1678025128.791,-18.555,-22.461,-27.344,16.113,-209.473
1678025128.795,2.441,-19.043,-27.344,31.738,-82.520
1678025128.799,4.883,-20.508,-31.250,19.043,105.469
1678025128.802,5.371,-20.508,-30.273,-0.488,-53.711
1678025128.806,-3.906,-22.949,-29.297,-2.930,-267.578
1678025128.810,-11.719,-30.273,-23.438,17.090,-172.363
1678025128.814,0.000,-32.227,-24.414,35.156,164.062
1678025128.818,11.719,-26.855,-25.879,30.273,142.090
1678025128.822,4.395,-24.902,-21.484,1.465,-126.953
1678025128.826,-11.230,-24.414,-25.879,-16.113,-108.887
1678025128.829,-19.531,-22.461,-27.832,9.766,162.598
1678025128.833,-8.301,-23.438,-23.438,26.855,50.781
1678025128.837,12.207,-20.996,-23.926,11.230,-111.816
1678025128.841,13.184,-17.090,-24.902,-8.789,-45.898
1678025128.845,2.930,-15.137,-21.973,-13.184,-34.180
1678025128.861,-1.465,-19.531,-24.414,-4.395,-32.715
1678025128.865,10.742,-20.508,-20.508,3.906,9.277
1678025128.869,17.578,-20.020,-19.531,13.672,141.602
1678025128.873,9.766,-22.949,-23.438,-1.953,252.930
1678025128.877,-1.953,-24.902,-22.461,-27.832,-110.352
1678025128.881,-15.137,-27.344,-22.461,-22.461,-184.082
1678025128.885,-9.277,-23.926,-21.484,-4.883,170.898
1678025128.888,-6.836,-24.902,-25.879,-20.508,104.492
1678025128.892,-9.277,-25.391,-28.320,-43.945,-192.871
1678025128.896,-8.789,-17.090,-29.297,-53.711,-255.859
1678025128.900,-26.855,-21.973,-35.156,-42.969,-18.555
1678025128.904,-41.016,-28.320,-39.551,-21.484,10.254
1678025128.891,-45.898,-25.391,-36.621,-17.578,-110.352
1678025128.895,-57.617,-18.066,-31.738,-40.039,-83.008
1678025128.899,-76.172,-23.438,-41.504,-63.965,-82.031
1678025128.903,-103.516,-32.227,-56.152,-63.965,-97.656
1678025128.907,-119.629,-28.320,-57.617,-62.988,-64.941
1678025128.911,-130.371,-31.738,-59.082,-84.961,45.410
1678025128.915,-142.578,-30.762,-68.848,-110.352,300.293
1678025128.918,-164.062,-31.738,-75.195,-152.344,80.566
1678025128.922,-179.199,-39.062,-67.871,-151.367,-213.867
1678025128.926,-167.969,-31.250,-72.266,-112.305,-96.191
1678025128.930,-154.785,-25.391,-74.219,-95.703,229.980
1678025128.934,-142.578,-21.484,-72.754,-96.191,119.141
1678025128.966,-138.672,-16.602,-76.660,-116.699,-214.844
1678025128.970,-145.996,-10.254,-71.289,-112.793,-193.359
1678025128.974,-131.348,-5.859,-67.383,-83.008,-25.879
1678025128.978,-109.375,-2.441,-70.312,-67.871,-77.148
1678025128.982,-104.980,-4.883,-69.336,-68.359,-116.699
1678025128.986,-95.215,-11.230,-66.406,-61.035,-38.574
1678025128.990,-87.402,-13.184,-65.430,-43.945,-107.910
1678025128.993,-78.125,-12.695,-64.453,-28.320,-146.973
1678025128.997,-58.594,-10.254,-60.059,-14.648,-64.453
1678025129.001,-33.691,-7.324,-57.617,-9.766,113.281
1678025129.005,-19.043,-9.766,-56.641,-9.766,143.555
1678025129.009,-24.414,-13.184,-50.781,-0.488,-165.527
1678025129.027,-18.555,-13.672,-45.410,25.391,-163.574
1678025129.031,4.883,-11.230,-41.992,54.688,75.195
1678025129.035,19.531,-14.160,-44.434,56.152,-3.906
1678025129.039,19.043,-15.625,-43.945,41.992,-144.531
1678025129.043,18.555,-14.160,-34.180,53.711,-150.391
1678025129.047,20.996,-19.531,-34.668,75.195,-46.387
1678025129.051,35.645,-20.020,-35.156,89.355,69.336
1678025129.054,55.664,-19.043,-31.738,97.656,-9.277
1678025129.058,58.594,-19.531,-30.273,90.820,-28.320
1678025129.062,46.387,-19.531,-29.785,74.707,-46.387
1678025129.066,33.691,-20.996,-25.391,83.008,-78.125
1678025129.070,47.852,-20.508,-21.484,98.145,-29.297
1678025129.043,73.730,-21.484,-20.020,105.957,18.555
1678025129.047,81.055,-22.949,-20.508,97.168,-2.930
1678025129.051,79.102,-18.555,-18.066,87.891,-162.598
1678025129.055,87.402,-20.508,-13.672,102.539,-181.152
1678025129.059,93.262,-20.508,-12.207,124.023,63.965
1678025129.063,100.098,-20.508,-16.113,121.582,140.625
1678025129.067,104.980,-25.391,-13.184,104.492,-63.477
1678025129.070,100.098,-26.367,-12.207,99.121,-162.598
1678025129.074,85.449,-26.367,-12.207,113.281,33.203
1678025129.078,79.102,-24.902,-6.348,136.719,309.570
1678025129.082,95.703,-22.949,-7.812,136.719,78.613
1678025129.086,97.656,-24.902,-9.766,110.840,-80.078
1678025129.103,81.055,-28.320,-8.301,98.633,-79.590
1678025129.107,69.336,-26.367,-5.371,115.234,-161.621
1678025129.111,71.777,-28.809,-5.371,133.789,-128.418
1678025129.115,85.449,-29.785,-3.418,135.254,-31.250
1678025129.119,92.773,-25.391,0.000,132.324,263.184
1678025129.123,83.008,-24.902,-2.930,119.141,228.027
1678025129.127,60.059,-27.832,-2.441,106.934,-146.973
1678025129.130,58.105,-25.879,-3.906,126.465,-125.488
1678025129.134,67.383,-22.949,-9.277,134.766,251.465
1678025129.138,67.871,-21.973,-8.301,104.980,94.238
1678025129.142,71.289,-24.414,-11.230,83.984,-211.914
1678025129.146,58.594,-26.367,-16.113,73.242,-131.348
1678025129.132,45.410,-23.438,-13.672,77.637,-64.941
1678025129.136,57.129,-22.949,-17.578,86.426,-7.812
1678025129.140,67.871,-24.414,-18.066,67.871,-109.863
1678025129.144,72.754,-21.484,-12.207,53.711,-138.184
1678025129.148,64.941,-19.531,-16.113,54.688,-179.199
1678025129.152,55.176,-20.508,-18.066,66.406,-142.578
1678025129.156,60.547,-20.508,-14.648,69.824,32.227
1678025129.159,51.758,-23.438,-17.090,62.988,205.566
1678025129.163,57.617,-22.949,-18.066,49.805,85.938
1678025129.167,57.129,-23.926,-20.508,41.016,-176.270
1678025129.171,37.598,-29.785,-24.902,54.688,-193.848
1678025129.175,40.039,-28.320,-25.391,72.754,167.480
1678025129.177,45.410,-29.785,-27.832,76.660,252.441
1678025129.181,47.363,-27.344,-28.809,59.570,-190.430
1678025129.185,39.551,-20.020,-25.879,53.223,-206.055
1678025129.189,25.879,-18.066,-23.438,74.219,62.500
1678025129.193,33.691,-18.555,-20.996,90.820,-40.039
1678025129.197,44.922,-19.043,-22.949,78.613,-90.332
1678025129.201,41.504,-19.043,-23.926,59.082,-27.344
1678025129.204,35.156,-19.043,-21.973,61.523,93.750
1678025129.208,23.926,-20.508,-24.902,70.801,-119.629
1678025129.212,26.855,-28.809,-28.320,83.496,-256.836
1678025129.216,40.039,-25.391,-25.879,92.773,-76.172
1678025129.220,38.574,-22.461,-23.926,76.660,-31.738
1678025129.221,30.273,-24.414,-21.973,59.082,-187.988
1678025129.225,30.762,-21.973,-19.043,68.848,-228.516
1678025129.229,38.574,-21.484,-19.043,91.309,24.414
1678025129.233,42.480,-21.973,-17.578,93.750,38.086
1678025129.237,47.363,-23.926,-19.531,70.801,-140.625
1678025129.241,37.109,-23.438,-21.973,57.617,-132.812
1678025129.245,12.695,-22.461,-16.602,68.848,147.461
1678025129.248,8.789,-27.832,-17.090,75.684,304.688
1678025129.252,18.066,-32.227,-17.578,66.406,-28.809
1678025129.256,18.066,-28.320,-16.113,60.059,-176.758
1678025129.260,10.742,-26.855,-16.113,56.641,36.621
1678025129.264,5.371,-25.879,-12.207,49.316,41.504
1678025129.266,11.719,-19.043,-11.719,46.387,-107.910
1678025129.270,26.855,-19.531,-10.742,62.500,-83.008
1678025129.274,28.809,-17.578,-2.930,57.617,-18.066
1678025129.278,23.926,-13.184,-6.348,40.039,-131.836
1678025129.282,12.695,-17.090,-4.395,51.270,-198.730
1678025129.286,2.930,-20.996,-2.930,60.547,79.102
1678025129.290,7.324,-27.344,-7.324,64.453,392.090
1678025129.293,11.719,-27.832,-9.766,53.711,125.977
1678025129.297,10.742,-22.461,-6.836,30.762,-155.762
1678025129.301,0.488,-20.508,-5.371,34.668,-122.070
1678025129.305,-11.230,-24.414,-6.348,55.664,14.160
1678025129.309,-6.836,-26.855,-1.465,52.734,-3.906
1678025129.326,-0.977,-26.855,-0.977,29.785,-69.336
1678025129.330,-6.836,-32.715,-5.859,14.160,-54.688
1678025129.334,-15.137,-30.762,-3.418,15.625,-122.559
1678025129.338,-12.695,-26.367,2.930,29.297,-215.820
1678025129.342,-1.953,-28.809,1.953,34.180,-146.973
1678025129.346,1.953,-25.391,-4.883,21.484,-28.809
1678025129.350,7.324,-21.973,-4.883,14.160,-29.785
1678025129.353,2.441,-24.902,-2.930,12.207,-131.836
1678025129.357,-9.766,-27.832,-6.836,16.113,-173.828
1678025129.361,-6.348,-29.785,-9.766,37.109,192.383
1678025129.365,2.930,-30.762,-8.789,34.668,250.000
1678025129.369,3.906,-30.273,-8.301,7.812,-91.309
1678025129.372,3.418,-30.273,-8.789,-1.465,-187.500
1678025129.376,-12.695,-34.180,-6.836,10.742,-38.086
1678025129.380,-31.250,-36.621,-7.812,9.766,-20.508
1678025129.384,-19.531,-34.180,-12.207,-0.977,-97.168
1678025129.388,-6.348,-33.691,-11.719,-7.324,-125.000
1678025129.392,-12.207,-33.691,-11.230,-21.484,-76.172
1678025129.396,-23.926,-35.645,-7.324,-9.277,-54.688
1678025129.399,-26.855,-34.180,-3.418,2.930,-105.957
1678025129.403,-18.555,-37.109,-6.836,4.883,-22.461
1678025129.407,-26.367,-41.504,-13.184,3.418,176.270
1678025129.411,-41.504,-39.062,-7.812,-20.508,-89.844
1678025129.415,-47.363,-35.156,-9.766,-20.508,-173.340
1678025129.417,-49.316,-32.715,-12.695,3.906,113.770
1678025129.421,-35.156,-30.762,-10.254,15.625,294.434
1678025129.425,-25.391,-34.668,-11.719,0.000,-25.391
1678025129.429,-25.879,-35.645,-11.719,-19.531,-248.535
1678025129.433,-37.109,-35.645,-15.625,-22.949,-164.551
1678025129.437,-39.062,-41.016,-15.625,-13.184,-3.906
1678025129.441,-29.785,-41.504,-13.672,-7.324,72.754
1678025129.444,-31.250,-35.645,-12.207,-15.625,-19.043
1678025129.448,-33.691,-36.621,-10.742,-21.484,122.559
1678025129.452,-40.527,-37.598,-11.719,-20.508,196.289
1678025129.456,-40.527,-36.133,-12.207,-16.113,-46.387
1678025129.460,-32.227,-35.156,-11.719,-10.254,-53.711
1678025129.462,-27.344,-28.320,-7.324,-11.230,29.785
1678025129.466,-31.250,-28.809,-7.812,-26.855,-125.488
1678025129.470,-41.504,-32.227,-9.277,-38.086,-179.688
1678025129.474,-43.945,-32.715,-7.812,-14.648,57.617
1678025129.478,-30.273,-29.785,-8.301,-2.441,156.738
1678025129.482,-26.367,-26.367,-4.395,-6.836,83.496
1678025129.486,-37.109,-26.855,-0.488,-13.184,-58.105
1678025129.489,-45.410,-28.320,-3.906,-20.996,-144.043
1678025129.493,-45.410,-28.320,-5.371,5.371,97.656
1678025129.497,-46.387,-24.902,-3.418,24.414,48.340
1678025129.501,-43.945,-23.926,-7.812,15.625,-142.090
1678025129.505,-46.875,-26.855,-12.207,-2.930,-96.191
1678025129.506,-48.828,-25.879,-8.789,-7.324,-125.488
1678025129.510,-50.293,-24.902,-6.348,1.465,-189.941
1678025129.514,-52.246,-24.414,-13.672,-4.395,-101.074
1678025129.518,-40.527,-24.902,-14.648,-11.230,14.160
1678025129.522,-43.457,-26.855,-15.625,-25.879,-50.293
1678025129.526,-55.176,-32.227,-14.648,-32.227,-160.156
1678025129.530,-54.199,-33.691,-11.230,-23.438,-75.684
1678025129.533,-50.293,-27.832,-8.789,-1.953,241.211
1678025129.537,-41.016,-26.855,-2.441,14.648,378.906
1678025129.541,-30.762,-27.832,-1.953,-15.625,-18.066
1678025129.545,-40.527,-26.855,-1.953,-34.180,-219.238
1678025129.549,-48.340,-27.832,-6.836,-14.648,-135.254
1678025129.553,-45.410,-32.227,-7.324,0.488,-42.969
1678025129.557,-48.340,-34.180,-7.812,-4.395,-120.117
1678025129.561,-50.293,-30.762,-13.672,-16.113,-234.375
1678025129.565,-49.316,-25.879,-14.160,-27.344,-214.844
1678025129.569,-55.664,-23.926,-11.230,-17.578,-236.816
1678025129.573,-56.152,-24.414,-9.766,1.953,-156.250
1678025129.577,-43.457,-25.879,-10.254,-1.953,62.500
1678025129.580,-41.016,-24.414,-8.301,-13.184,237.793
1678025129.584,-46.875,-27.832,-8.789,-23.926,-24.414
1678025129.588,-50.781,-27.832,-11.719,-16.602,-265.625
1678025129.592,-47.852,-23.926,-10.742,3.418,-12.207
1678025129.596,-36.133,-29.785,-11.230,5.371,338.867
1678025129.596,-28.320,-32.715,-14.648,-10.742,10.254
1678025129.600,-44.434,-27.832,-15.137,-32.715,-291.504
1678025129.604,-56.152,-24.902,-15.625,-25.391,-142.578
1678025129.608,-51.758,-23.438,-13.672,4.883,-2.441
1678025129.612,-42.969,-26.855,-14.160,6.348,-62.012
1678025129.616,-32.227,-27.344,-17.578,-10.742,-60.059
1678025129.620,-36.133,-24.902,-16.602,-25.879,147.949
1678025129.623,-52.246,-31.738,-18.555,-16.113,248.047
1678025129.627,-48.340,-30.762,-16.113,-2.930,-76.172
1678025129.631,-34.668,-30.273,-13.184,-6.836,-58.594
1678025129.635,-33.691,-34.180,-18.066,-14.648,128.906
1678025129.639,-40.527,-36.133,-17.090,-29.297,-128.906
1678025129.641,-50.293,-36.133,-12.207,-34.668,-258.789
1678025129.645,-57.129,-35.156,-14.160,-20.020,-121.582
1678025129.649,-55.176,-33.203,-18.555,-19.043,-49.805
1678025129.653,-47.363,-32.715,-20.508,-31.738,-70.312
1678025129.657,-47.363,-31.250,-25.879,-53.223,-157.227
1678025129.661,-62.012,-30.762,-28.809,-62.012,-38.574
1678025129.665,-66.406,-30.273,-22.461,-44.922,205.566
1678025129.668,-55.176,-29.785,-25.391,-38.574,48.340
1678025129.672,-47.363,-30.273,-28.809,-42.480,-82.520
1678025129.676,-55.664,-30.273,-26.367,-50.781,-118.164
1678025129.680,-69.336,-32.715,-34.668,-61.523,-150.391
1678025129.684,-68.359,-34.180,-37.598,-45.898,-129.395
1678025129.687,-62.500,-34.668,-37.109,-30.762,-105.469
1678025129.691,-63.477,-32.715,-40.039,-35.645,67.871
1678025129.695,-67.383,-30.762,-35.645,-41.016,191.406
1678025129.699,-70.312,-28.320,-30.273,-55.664,-119.629
1678025129.703,-77.148,-30.273,-29.297,-51.270,-189.453
1678025129.707,-78.613,-32.227,-36.133,-36.133,139.160
1678025129.711,-63.965,-31.250,-33.203,-41.016,131.836
1678025129.714,-71.777,-36.621,-29.297,-59.570,-125.488
1678025129.718,-82.520,-40.527,-36.621,-74.219,-206.543
1678025129.722,-83.008,-39.551,-34.180,-61.523,-1.953
1678025129.726,-85.938,-38.574,-35.156,-52.734,6.836
1678025129.730,-72.754,-42.480,-39.551,-49.805,-169.922
1678025129.747,-62.988,-43.457,-41.504,-59.570,-148.926
1678025129.751,-73.242,-36.621,-39.062,-80.566,-111.816
1678025129.755,-83.984,-38.086,-40.039,-66.406,-118.652
1678025129.759,-82.520,-45.410,-44.922,-55.664,-129.395
1678025129.763,-67.871,-40.527,-38.086,-62.012,25.391
1678025129.767,-64.941,-37.598,-37.109,-72.266,297.363
1678025129.771,-73.730,-38.086,-38.574,-90.820,83.984
1678025129.774,-90.332,-36.133,-38.086,-85.938,-212.891
1678025129.778,-93.262,-34.180,-44.922,-64.453,-59.082
1678025129.782,-74.219,-37.109,-46.387,-57.129,203.613
1678025129.786,-66.895,-39.062,-45.898,-73.242,46.875
1678025129.790,-71.289,-37.598,-47.852,-87.402,-94.727
1678025129.791,-77.637,-41.992,-47.363,-79.590,-51.270
1678025129.795,-81.543,-47.852,-50.781,-66.895,36.621
1678025129.799,-67.871,-46.875,-51.270,-59.082,-40.527
1678025129.803,-61.035,-45.410,-49.805,-69.336,-103.027
1678025129.807,-68.848,-41.992,-47.852,-82.520,-24.414
1678025129.811,-75.684,-39.551,-43.945,-75.684,48.828
1678025129.815,-85.938,-40.527,-47.852,-65.918,-41.504
1678025129.818,-75.195,-38.086,-49.805,-56.641,-79.102
1678025129.822,-63.965,-34.668,-47.852,-57.617,103.027
1678025129.826,-75.684,-37.109,-50.781,-78.613,177.246
1678025129.830,-85.938,-39.062,-51.758,-106.445,-135.254
1678025129.834,-95.703,-37.598,-51.270,-93.262,-141.113
1678025129.836,-101.562,-40.039,-50.781,-69.824,30.273
1678025129.840,-97.656,-40.039,-46.387,-88.867,-54.688
1678025129.844,-98.633,-37.109,-45.898,-110.840,-233.887
1678025129.848,-104.004,-36.621,-48.828,-117.676,-267.090
1678025129.852,-103.516,-38.574,-44.922,-109.375,-104.492
1678025129.856,-100.098,-42.480,-45.898,-93.750,71.777
1678025129.860,-91.797,-37.109,-45.410,-99.121,112.793
1678025129.863,-97.168,-29.297,-43.457,-120.117,104.004
1678025129.867,-106.934,-29.297,-44.434,-120.605,174.805
1678025129.871,-115.234,-37.598,-53.711,-106.934,24.902
1678025129.875,-113.281,-41.016,-56.152,-97.656,-75.684
1678025129.879,-103.027,-32.715,-47.852,-104.980,70.801
1678025129.881,-114.746,-28.320,-52.734,-131.836,-36.621
1678025129.885,-145.508,-33.691,-66.406,-164.062,-221.191
1678025129.889,-168.945,-34.180,-72.266,-185.547,-183.105
1678025129.893,-176.270,-32.227,-81.055,-190.430,41.504
1678025129.897,-192.383,-32.715,-87.402,-213.379,116.699
1678025129.901,-217.285,-38.086,-83.984,-257.324,19.531
1678025129.905,-240.723,-31.738,-91.797,-281.738,-35.645
1678025129.908,-270.996,-22.949,-102.051,-284.668,86.426
1678025129.912,-277.832,-27.832,-107.910,-278.320,124.512
1678025129.916,-265.137,-26.367,-112.305,-278.320,-58.105
1678025129.920,-256.836,-19.531,-107.422,-282.227,-111.816
1678025129.924,-248.535,-16.602,-104.004,-291.016,-110.840
1678025129.926,-251.465,-14.648,-108.887,-293.457,-195.312
1678025129.930,-240.723,-18.555,-111.328,-261.230,-178.223
1678025129.934,-215.820,-21.973,-110.352,-245.605,-36.621
1678025129.938,-209.473,-18.555,-114.746,-255.371,51.270
1678025129.942,-201.172,-18.066,-113.281,-250.488,-125.488
1678025129.946,-188.965,-17.090,-104.980,-232.910,-121.094
1678025129.950,-187.988,-14.160,-102.539,-201.660,97.168
1678025129.953,-164.062,-16.113,-94.727,-169.922,309.570
1678025129.957,-136.719,-21.973,-92.285,-173.828,71.777
1678025129.961,-122.559,-18.555,-92.773,-170.410,-202.148
1678025129.965,-117.188,-18.066,-88.867,-151.855,-185.059
1678025129.969,-109.863,-21.484,-86.426,-130.371,-53.711
1678025129.972,-85.449,-19.531,-84.473,-109.375,-12.207
1678025129.976,-70.312,-28.809,-79.590,-114.258,-92.285
1678025129.980,-67.871,-30.762,-68.359,-121.582,-63.477
1678025129.984,-63.477,-30.762,-61.523,-99.609,15.137
1678025129.988,-60.547,-39.062,-59.570,-77.637,-68.848
1678025129.992,-50.293,-36.133,-54.199,-63.477,21.484
1678025129.996,-37.109,-32.715,-47.363,-56.641,231.445
1678025129.999,-24.414,-32.715,-45.410,-64.941,76.660
1678025130.003,-22.949,-30.762,-45.410,-63.477,-156.738
1678025130.007,-25.879,-34.180,-41.016,-43.945,-99.609
1678025130.011,-20.020,-38.086,-35.156,-28.320,100.586
1678025130.015,-2.930,-37.598,-37.109,-18.555,18.066
1678025130.017,1.465,-39.551,-36.621,-34.180,-227.051
1678025130.021,-7.812,-40.527,-31.250,-38.574,-173.828
1678025130.025,-9.277,-41.016,-33.691,-11.719,20.508
1678025130.029,2.441,-43.945,-31.738,-3.906,42.480
1678025130.033,12.695,-48.340,-28.320,-16.602,-60.059
1678025130.037,5.371,-51.270,-28.809,-31.738,-41.992
1678025130.041,-10.254,-46.875,-25.391,-24.414,219.727
1678025130.044,-10.254,-44.922,-20.508,-5.859,58.105
1678025130.048,-0.977,-44.434,-19.531,8.301,-137.207
1678025130.052,4.883,-47.363,-20.508,2.930,-24.414
1678025130.056,0.000,-46.875,-19.531,-15.137,-88.379
1678025130.060,-7.812,-47.852,-13.672,-15.137,-150.391
1678025130.076,-16.113,-50.293,-10.742,-4.883,-126.953
1678025130.080,-8.301,-49.805,-11.719,9.277,-2.441
1678025130.084,8.301,-49.805,-13.672,6.348,55.176
1678025130.088,1.465,-51.270,-18.555,-17.090,-101.074
1678025130.092,-11.719,-54.688,-20.508,-34.668,-167.480
1678025130.096,-20.020,-55.176,-19.531,-31.250,82.031
1678025130.100,-19.043,-54.688,-22.949,-18.555,205.078
1678025130.103,-10.254,-53.711,-22.949,-16.602,-15.625
1678025130.107,-10.742,-50.781,-18.066,-24.902,-52.246
1678025130.111,-18.066,-49.316,-14.160,-28.320,71.289
1678025130.115,-27.832,-50.293,-18.066,-25.391,-6.836
1678025130.119,-27.832,-49.316,-21.484,-15.137,-104.004
1678025130.121,-16.602,-53.223,-19.531,-8.789,-5.859
1678025130.125,-8.789,-52.246,-18.555,-11.719,0.000
1678025130.129,-14.160,-48.340,-19.043,-25.391,-120.117
1678025130.133,-16.602,-50.293,-19.043,-26.855,-139.160
1678025130.137,-12.695,-51.270,-20.996,-10.254,-82.520
1678025130.141,-1.953,-48.340,-17.090,-5.859,57.617
1678025130.145,-0.488,-44.922,-14.160,-17.578,98.145
1678025130.148,-11.230,-43.457,-17.090,-22.949,-15.625
1678025130.152,-22.461,-45.898,-20.020,-17.090,-62.988
1678025130.156,-22.949,-41.504,-20.508,0.000,188.965
1678025130.160,-13.184,-40.039,-23.438,4.883,170.410
1678025130.164,-4.395,-43.945,-23.926,-15.137,18.555
1678025130.167,-2.930,-44.922,-23.926,-42.480,-26.367
1678025130.171,-20.996,-43.457,-24.414,-43.945,-95.703
1678025130.175,-24.414,-40.039,-22.461,-20.508,-155.273
1678025130.179,-11.719,-41.016,-19.043,-5.859,-109.863
1678025130.183,-8.301,-42.480,-18.066,-8.301,-70.312
1678025130.187,-9.766,-40.527,-20.508,-23.438,-60.547
1678025130.191,-19.043,-38.086,-16.602,-35.645,-150.879
1678025130.194,-25.391,-39.062,-12.695,-21.484,-259.277
1678025130.198,-17.578,-40.527,-21.484,0.488,70.801
1678025130.202,-18.066,-41.504,-22.949,-9.277,319.824
1678025130.206,-28.320,-41.992,-19.043,-37.598,-92.773
1678025130.210,-38.086,-41.016,-20.020,-46.387,-241.699
1678025130.211,-45.410,-39.551,-26.855,-31.738,-89.844
1678025130.215,-34.668,-35.156,-27.832,-21.973,-70.801
1678025130.219,-24.414,-35.156,-23.438,-21.973,-99.609
1678025130.223,-24.414,-33.691,-21.484,-30.762,-149.902
1678025130.227,-31.738,-33.203,-22.461,-37.598,-168.945
1678025130.231,-39.062,-37.109,-22.461,-22.949,-70.312
1678025130.235,-33.691,-34.668,-19.531,-6.836,-42.480
1678025130.238,-25.879,-35.156,-20.020,-15.625,24.902
1678025130.242,-25.391,-39.062,-24.414,-27.832,206.055
1678025130.246,-39.551,-39.062,-21.973,-38.086,-36.621
1678025130.250,-37.598,-35.645,-17.578,-35.156,-151.855
1678025130.254,-30.273,-34.180,-26.367,-23.438,152.832
1678025130.256,-33.203,-37.598,-31.250,-17.578,300.781
1678025130.260,-29.297,-36.133,-22.949,-30.762,11.719
1678025130.264,-29.785,-29.297,-20.508,-49.316,-187.012
1678025130.268,-36.133,-26.367,-19.531,-36.133,-105.469
1678025130.272,-31.738,-29.785,-20.020,-7.812,-7.812
1678025130.276,-21.973,-29.297,-20.996,-2.930,13.672
1678025130.280,-20.508,-28.809,-24.414,-20.996,-28.809
1678025130.283,-19.531,-31.250,-24.902,-36.621,40.039
1678025130.287,-22.949,-27.344,-24.414,-31.250,46.387
1678025130.291,-24.414,-24.902,-24.902,-23.438,-142.578
1678025130.295,-15.625,-23.926,-22.461,-18.066,-92.773
1678025130.299,-7.324,-22.461,-22.461,-21.973,-30.273
1678025130.302,-13.672,-19.531,-22.461,-25.391,-184.082
1678025130.306,-27.344,-18.555,-17.578,-23.438,-179.688
1678025130.310,-34.668,-24.414,-20.508,-16.113,8.789
1678025130.314,-25.391,-23.438,-23.438,-2.441,163.574
1678025130.318,-18.066,-18.555,-17.578,0.488,32.227
1678025130.322,-30.762,-20.996,-17.578,-19.043,-77.148
1678025130.326,-31.738,-19.043,-16.602,-21.484,-22.949
1678025130.329,-23.438,-15.625,-9.766,9.277,216.797
1678025130.333,-13.184,-17.578,-13.672,16.113,167.480
1678025130.337,2.930,-19.043,-12.207,5.371,-84.961
1678025130.341,-1.465,-17.090,-9.766,-6.836,-145.996
1678025130.345,-13.672,-16.602,-16.602,-11.230,-138.672
1678025130.346,-16.602,-18.555,-15.625,-7.324,-110.352
1678025130.350,-13.184,-21.484,-14.160,-3.906,-51.758
1678025130.354,-7.324,-24.902,-19.531,-3.906,-6.348
1678025130.358,-2.930,-16.113,-17.578,-20.996,-55.664
1678025130.362,-8.301,-10.742,-10.742,-29.297,-98.145
1678025130.366,-18.066,-19.043,-9.766,-9.277,-92.773
1678025130.370,-16.113,-19.531,-10.254,2.441,123.047
1678025130.373,-1.953,-18.555,-12.695,4.395,344.238
1678025130.377,1.953,-18.066,-14.160,-14.160,5.859
1678025130.381,-10.742,-23.438,-13.672,-31.250,-175.781
1678025130.385,-22.461,-30.273,-8.789,-17.578,-102.539
1678025130.389,-27.832,-32.227,-15.625,-13.672,-99.121
1678025130.391,-19.531,-27.832,-14.648,-20.996,-111.328
1678025130.395,-8.789,-20.996,-8.301,-29.297,-156.250
1678025130.399,-19.531,-16.113,-9.277,-34.180,-183.105
1678025130.403,-34.668,-20.020,-7.324,-27.832,-151.855
1678025130.407,-25.879,-28.809,-5.371,-20.508,-131.836
1678025130.411,-7.812,-24.414,-4.395,-19.043,18.555
1678025130.415,-2.930,-21.484,-7.324,-32.715,231.934
1678025130.418,-9.766,-20.508,-6.348,-44.922,25.879
1678025130.422,-16.602,-20.020,-5.859,-48.340,-219.727
1678025130.426,-12.695,-21.484,-9.766,-25.879,-104.004
1678025130.430,-11.230,-20.508,-12.695,-20.020,136.230
1678025130.434,-7.812,-19.043,-17.090,-39.062,-39.551
1678025130.451,-10.254,-20.996,-14.160,-46.387,-267.578
1678025130.455,-16.602,-23.438,-10.254,-31.250,-152.832
1678025130.459,-15.137,-25.391,-13.184,-10.254,56.152
1678025130.463,-6.836,-24.902,-13.672,-16.602,2.930
1678025130.467,-2.930,-23.438,-9.766,-30.273,-83.008
1678025130.471,-6.836,-23.438,-6.348,-37.109,35.645
1678025130.475,-17.090,-19.531,-8.789,-30.762,74.219
1678025130.478,-13.672,-17.090,-11.230,-16.602,-8.301
1678025130.482,5.371,-14.648,-9.766,-10.254,-28.320
1678025130.486,11.719,-14.648,-12.695,-15.625,117.676
1678025130.490,6.348,-15.625,-16.113,-23.926,93.262
1678025130.494,0.977,-14.160,-18.066,-19.531,-186.035
1678025130.496,2.441,-16.602,-20.020,-5.859,-230.957
1678025130.500,14.648,-17.578,-21.484,4.883,-101.562
1678025130.504,21.484,-16.113,-25.879,2.441,-118.164
1678025130.508,14.160,-14.648,-27.832,-13.184,-190.918
1678025130.512,7.812,-14.160,-22.461,-10.742,-158.691
1678025130.516,4.395,-14.160,-19.531,13.672,-24.414
1678025130.520,7.812,-14.160,-22.461,33.203,90.332
1678025130.523,17.090,-18.066,-26.367,25.391,-13.672
1678025130.527,14.160,-20.020,-25.879,12.207,-38.574
1678025130.531,6.348,-16.113,-26.855,27.344,152.832
1678025130.535,7.324,-13.184,-26.367,41.504,1.953
1678025130.539,13.672,-8.789,-23.926,44.434,-54.199
1678025130.541,16.602,-8.301,-29.297,37.109,136.230
1678025130.545,7.324,-9.766,-32.227,19.043,190.918
1678025130.549,-6.836,-12.695,-33.691,7.324,-58.594
1678025130.553,-11.230,-10.742,-28.320,19.531,-176.758
1678025130.557,-8.789,-10.742,-24.414,25.391,-55.664
1678025130.561,-2.930,-17.090,-27.344,14.648,23.926
1678025130.565,-5.371,-20.508,-31.250,6.836,-101.074
1678025130.568,-18.555,-22.461,-38.574,-14.160,-182.129
1678025130.572,-20.020,-21.973,-39.062,-6.836,-19.043
1678025130.576,-14.648,-24.414,-39.062,15.137,93.750
1678025130.580,-9.277,-25.391,-44.434,16.602,-85.449
1678025130.584,-6.348,-20.020,-40.039,0.977,-190.918
1678025130.587,-20.996,-19.043,-37.109,-16.602,-254.883
1678025130.591,-23.926,-22.461,-43.457,-2.930,-211.426
1678025130.595,-13.184,-24.902,-46.875,11.230,-105.469
1678025130.599,-4.395,-25.879,-43.457,16.113,-63.477
1678025130.603,0.977,-18.066,-41.504,18.066,-28.320
1678025130.607,0.488,-19.043,-42.969,1.465,-110.840
1678025130.611,1.465,-21.973,-43.945,6.348,-102.051
1678025130.614,-7.324,-18.555,-54.688,11.719,29.785
1678025130.618,-12.207,-17.578,-62.012,2.930,295.410
1678025130.622,-6.348,-16.113,-62.012,-5.859,85.449
1678025130.626,-7.324,-18.555,-62.012,-24.414,-83.984
1678025130.630,-8.301,-21.484,-60.547,-4.395,53.711
1678025130.631,-1.465,-18.555,-58.105,22.949,89.355
1678025130.635,11.230,-18.066,-51.270,20.020,-36.621
1678025130.639,10.742,-18.066,-50.781,3.418,-121.582
1678025130.643,-0.488,-17.090,-57.617,-12.695,-66.895
1678025130.647,-4.395,-18.555,-59.082,-4.395,-106.445
1678025130.651,-1.953,-16.602,-55.664,20.996,-77.148
1678025130.655,9.766,-12.207,-53.223,31.738,-16.602
1678025130.658,25.879,-10.254,-53.223,27.344,102.539
1678025130.662,14.160,-12.695,-53.223,17.090,214.844
1678025130.666,3.906,-12.695,-52.246,10.742,-161.621
1678025130.670,7.324,-8.301,-47.852,26.855,-254.883
1678025130.674,13.672,-8.789,-44.434,38.574,6.836
1678025130.676,15.137,-12.207,-44.434,25.879,-32.715
1678025130.680,4.395,-15.137,-45.898,11.719,-228.027
1678025130.684,-2.441,-13.184,-50.293,10.254,-223.145
1678025130.688,-3.418,-10.742,-52.246,21.973,-83.496
1678025130.692,2.930,-12.695,-47.852,29.785,-17.578
1678025130.696,2.930,-8.789,-44.922,18.555,23.438
1678025130.700,-4.395,-7.812,-46.875,0.488,-0.488
1678025130.703,-10.742,-11.230,-49.805,-0.977,229.980
1678025130.707,-13.672,-10.742,-47.852,6.836,162.598
1678025130.711,-9.277,-15.137,-42.969,20.020,-83.008
1678025130.715,0.000,-17.578,-41.992,20.020,16.602
1678025130.719,6.348,-12.695,-39.551,11.719,50.781
1678025130.721,3.906,-15.625,-39.062,7.324,-126.465
1678025130.725,-3.906,-19.043,-43.457,9.277,-174.805
1678025130.729,2.441,-13.184,-41.504,33.203,-11.230
1678025130.733,15.137,-10.254,-37.598,36.621,39.551
1678025130.737,8.301,-10.742,-40.527,11.230,-127.441
1678025130.741,-0.977,-11.230,-43.457,-1.465,-128.418
1678025130.745,-18.066,-15.137,-41.992,2.930,109.863
1678025130.748,-25.879,-14.160,-39.551,20.508,173.340
1678025130.752,-22.461,-14.160,-41.992,16.113,-71.289
1678025130.756,-24.414,-12.695,-49.805,-9.766,-144.531
1678025130.760,-24.902,-10.742,-52.246,-14.648,-76.660
1678025130.764,-29.297,-13.672,-46.875,-0.488,-104.492
1678025130.766,-27.344,-18.555,-44.434,13.184,-130.859
1678025130.770,-20.508,-16.113,-43.945,16.602,-68.359
1678025130.774,-20.508,-12.695,-49.316,-3.418,-73.730
1678025130.778,-28.320,-18.555,-57.129,-24.414,-218.262
1678025130.782,-41.016,-22.461,-57.129,-22.461,-224.609
1678025130.786,-36.133,-18.066,-61.035,-5.859,23.926
1678025130.790,-18.066,-17.090,-61.035,4.395,168.457
1678025130.793,-18.066,-17.578,-57.617,-14.160,13.184
1678025130.797,-30.273,-17.578,-56.152,-35.156,-156.738
1678025130.801,-39.062,-14.160,-56.152,-25.879,-152.344
1678025130.805,-35.645,-16.113,-56.152,-4.883,90.820
1678025130.809,-30.762,-18.555,-56.641,-8.301,189.453
1678025130.826,-32.227,-17.090,-54.199,-27.832,4.395
1678025130.830,-41.016,-18.555,-51.270,-37.109,-9.277
1678025130.834,-45.898,-11.230,-48.340,-24.414,158.691
1678025130.838,-43.945,-17.090,-53.711,-20.996,-112.305
1678025130.842,-36.621,-18.066,-56.152,-15.137,-165.527
1678025130.846,-42.480,-11.230,-51.270,-25.391,52.734
1678025130.850,-64.941,-18.555,-56.641,-63.477,1.953
1678025130.853,-91.797,-16.113,-59.570,-89.844,-151.855
1678025130.857,-109.863,-10.254,-61.523,-91.309,-135.742
1678025130.861,-126.465,-16.602,-68.848,-94.727,140.625
1678025130.865,-152.832,-25.391,-78.125,-139.648,136.719
1678025130.869,-191.895,-26.367,-89.355,-193.848,-171.875
1678025130.871,-234.863,-31.250,-91.797,-221.191,-190.918
1678025130.875,-261.719,-29.785,-98.145,-237.305,2.930
1678025130.879,-276.367,-21.973,-113.281,-259.277,-18.555
1678025130.883,-289.551,-25.391,-118.164,-286.621,-78.613
1678025130.887,-300.781,-24.902,-122.070,-310.059,-71.777
1678025130.891,-304.688,-15.625,-123.047,-306.641,-22.949
1678025130.895,-306.152,-10.742,-123.535,-282.227,-27.832
1678025130.898,-295.898,-13.184,-127.930,-269.531,-78.125
1678025130.902,-275.391,-8.789,-125.000,-255.371,6.836
1678025130.906,-258.301,-4.883,-121.582,-247.070,232.910
1678025130.910,-251.465,-2.441,-119.629,-247.559,29.297
1678025130.914,-250.488,-4.883,-112.793,-236.816,-105.957
1678025130.916,-229.492,-9.277,-110.840,-206.055,85.938
1678025130.920,-197.266,-6.836,-108.887,-182.617,70.312
1678025130.924,-174.805,-8.789,-99.121,-178.223,-154.785
1678025130.928,-164.062,-16.602,-96.680,-168.945,-217.285
1678025130.932,-151.367,-20.996,-97.168,-139.160,-39.551
1678025130.936,-128.906,-20.020,-86.914,-98.633,64.453
1678025130.940,-104.004,-17.090,-83.984,-88.867,-7.324
1678025130.943,-86.914,-16.113,-83.496,-89.355,-100.098
1678025130.947,-88.867,-20.020,-79.590,-72.754,4.395
1678025130.951,-86.914,-16.602,-80.566,-46.387,87.402
1678025130.955,-77.148,-20.996,-79.102,-32.715,-54.199
1678025130.959,-61.523,-29.785,-75.684,-24.902,-16.113
1678025130.961,-44.434,-26.367,-69.336,-24.414,22.949
1678025130.965,-37.598,-26.367,-58.105,-31.250,-104.492
1678025130.969,-30.762,-25.879,-51.758,-17.578,-157.227
1678025130.973,-31.738,-25.879,-50.293,12.695,-66.406
1678025130.977,-14.648,-28.809,-50.781,26.367,12.695
1678025130.981,0.000,-29.785,-51.758,1.953,33.203
1678025130.985,-7.812,-35.156,-45.410,-17.090,-90.332
1678025130.988,-17.578,-36.133,-43.945,-4.395,-168.457
1678025130.992,-12.695,-32.227,-43.945,30.273,130.859
1678025130.996,-2.441,-35.156,-42.480,37.109,161.133
1678025131.000,8.301,-35.156,-39.551,21.484,-84.961
1678025131.004,12.207,-29.785,-35.156,11.230,-50.781
1678025131.006,5.859,-27.344,-26.367,22.461,-41.992
1678025131.010,8.301,-27.344,-25.879,40.527,-125.488
1678025131.014,24.414,-29.785,-25.879,47.363,-41.992
1678025131.018,31.738,-33.691,-20.996,34.668,-1.953
1678025131.022,19.043,-34.668,-20.508,14.160,-125.977
1678025131.026,3.906,-33.691,-18.555,7.812,-132.324
1678025131.030,8.789,-31.738,-18.066,26.367,-106.934
1678025131.033,11.719,-30.762,-16.113,46.387,154.297
1678025131.037,15.625,-30.273,-12.207,57.129,331.543
1678025131.041,22.461,-29.297,-9.277,31.738,-131.348
1678025131.045,6.348,-31.738,-7.324,11.719,-325.195
1678025131.049,1.465,-31.250,-5.371,26.855,-140.625
1678025131.051,12.207,-27.832,-4.395,36.621,-73.242
1678025131.055,18.555,-30.762,-3.906,27.832,-99.121
1678025131.059,16.113,-32.715,-7.324,10.742,-153.809
1678025131.063,-6.348,-33.691,-7.324,6.348,-157.715
1678025131.067,-12.207,-30.762,-4.883,11.230,-134.766
1678025131.071,0.488,-26.855,-6.836,15.625,-39.062
1678025131.075,1.953,-33.203,-11.719,5.371,113.770
1678025131.078,-3.418,-31.738,-12.695,-13.184,278.809
1678025131.082,-4.395,-27.832,-14.160,-19.043,39.062
1678025131.086,-11.230,-24.902,-11.719,-0.977,-217.773
1678025131.090,-11.719,-23.438,-11.719,11.719,32.715
1678025131.094,-1.465,-25.879,-17.578,18.555,190.918
1678025131.096,-1.953,-28.320,-9.766,4.883,-41.504
1678025131.100,-10.742,-29.297,-4.883,-13.672,-193.359
1678025131.104,-22.461,-23.926,-1.953,0.000,-78.125
1678025131.108,-22.949,-26.367,3.418,19.043,35.645
1678025131.112,-18.066,-33.691,-0.488,20.020,-51.758
1678025131.116,-24.902,-32.715,-4.883,1.465,-70.312
1678025131.120,-45.410,-27.832,-4.883,-21.973,160.156
1678025131.123,-53.223,-27.344,-3.906,-16.113,190.918
1678025131.127,-50.293,-29.785,-0.977,-0.977,-36.133
1678025131.131,-45.410,-24.414,0.977,1.953,-71.777
1678025131.135,-44.434,-27.832,-4.395,-12.207,-39.062
1678025131.139,-53.711,-31.738,-7.812,-32.715,-124.512
1678025131.143,-64.941,-31.250,-6.836,-30.762,-99.609
1678025131.147,-69.336,-32.227,-9.766,-16.113,-19.531
1678025131.151,-69.824,-33.691,-11.230,-17.578,82.031
1678025131.155,-68.848,-31.738,-7.812,-36.621,34.668
1678025131.159,-79.102,-30.273,-8.789,-62.012,-130.859
1678025131.163,-93.262,-32.715,-10.742,-65.430,-34.668
1678025131.167,-84.473,-32.227,-15.137,-49.805,258.301
1678025131.170,-60.059,-25.879,-15.625,-46.875,68.359
1678025131.174,-54.199,-25.391,-13.184,-64.453,-111.816
1678025131.178,-58.105,-24.902,-12.695,-77.637,-120.605
1678025131.182,-67.383,-24.902,-19.531,-83.008,-145.508
1678025131.186,-65.918,-27.344,-20.020,-76.172,-14.648
1678025131.202,-52.246,-24.902,-17.090,-61.035,-24.902
1678025131.206,-52.734,-25.391,-21.973,-51.270,-38.086
1678025131.210,-66.406,-31.250,-25.879,-64.453,41.992
1678025131.214,-77.148,-32.227,-30.273,-81.055,-128.906
1678025131.218,-76.660,-29.297,-28.809,-66.406,-233.887
1678025131.222,-71.777,-28.809,-25.391,-42.480,121.582
1678025131.226,-67.383,-27.832,-25.879,-49.316,272.461
1678025131.229,-65.918,-23.926,-25.391,-75.195,-100.586
1678025131.233,-77.637,-23.926,-28.809,-79.590,-243.164
1678025131.237,-87.891,-23.438,-32.227,-62.988,-26.367
1678025131.241,-78.613,-29.785,-34.180,-53.711,47.852
1678025131.245,-69.336,-29.297,-35.645,-61.523,-4.395
1678025131.246,-67.871,-20.020,-29.785,-83.496,-115.723
1678025131.250,-86.426,-21.484,-28.320,-99.609,-167.969
1678025131.254,-101.074,-21.973,-33.203,-88.867,-139.648
1678025131.258,-96.680,-20.996,-32.227,-67.383,-142.090
1678025131.262,-88.867,-26.367,-34.180,-67.871,-15.137
1678025131.266,-88.867,-29.785,-36.133,-89.844,43.945
1678025131.270,-99.121,-29.297,-37.109,-101.074,-86.914
1678025131.273,-108.887,-33.203,-46.387,-91.797,-104.492
1678025131.277,-111.328,-39.062,-47.363,-74.707,-39.551
1678025131.281,-101.562,-35.156,-40.527,-59.082,213.867
1678025131.285,-90.820,-29.297,-40.527,-67.871,166.016
1678025131.289,-82.520,-32.227,-41.016,-93.750,-139.160
1678025131.291,-86.914,-31.250,-39.551,-84.961,-73.242
1678025131.295,-89.844,-29.785,-39.062,-67.383,78.125
1678025131.299,-80.078,-33.691,-46.875,-78.613,-64.941
1678025131.303,-82.031,-34.180,-48.828,-99.121,-150.879
1678025131.307,-91.309,-33.203,-45.410,-108.887,-107.910
1678025131.311,-105.957,-32.227,-44.922,-103.516,-123.535
1678025131.315,-101.562,-30.273,-44.922,-80.566,-77.148
1678025131.318,-77.148,-32.715,-44.434,-71.289,-13.672
1678025131.322,-82.520,-39.551,-46.875,-81.055,97.656
1678025131.326,-102.051,-41.016,-51.270,-101.074,166.504
1678025131.330,-108.398,-38.574,-51.758,-105.957,-116.211
1678025131.334,-105.469,-37.109,-49.316,-85.449,-134.277
1678025131.336,-91.797,-35.645,-46.387,-79.102,5.371
1678025131.340,-86.914,-35.156,-45.898,-93.750,-78.613
1678025131.344,-94.727,-34.668,-48.828,-103.516,-158.691
1678025131.348,-95.215,-34.180,-44.434,-91.797,-183.594
1678025131.352,-88.379,-30.762,-39.551,-78.613,-111.328
1678025131.356,-79.102,-25.391,-37.109,-67.383,51.270
1678025131.360,-79.102,-30.273,-37.598,-81.055,-56.641
1678025131.363,-87.402,-34.180,-38.574,-94.238,-169.922
1678025131.367,-98.145,-33.691,-39.062,-85.449,-34.180
1678025131.371,-102.051,-35.156,-42.480,-78.125,27.344
1678025131.375,-94.727,-35.156,-40.039,-72.754,0.488
1678025131.379,-80.566,-33.691,-37.598,-83.008,10.254
1678025131.381,-86.426,-32.227,-38.574,-83.984,244.629
1678025131.385,-97.656,-37.109,-38.574,-84.961,95.215
1678025131.389,-99.121,-38.086,-40.527,-84.961,-189.453
1678025131.393,-98.145,-35.645,-42.480,-74.707,-27.344
1678025131.397,-97.168,-34.180,-41.992,-86.426,-15.137
1678025131.401,-93.750,-35.645,-41.504,-99.121,-31.738
1678025131.405,-94.238,-32.227,-36.621,-100.586,-47.852
1678025131.408,-97.656,-29.297,-30.762,-88.379,96.191
1678025131.412,-87.891,-34.180,-30.273,-72.754,257.812
1678025131.416,-79.590,-36.621,-33.203,-83.008,-8.789
1678025131.420,-89.355,-34.180,-35.645,-98.145,-138.184
1678025131.424,-94.727,-33.203,-31.738,-102.539,-90.332
1678025131.426,-100.586,-32.715,-28.809,-94.727,-93.750
1678025131.430,-101.074,-34.180,-28.320,-75.684,-92.773
1678025131.434,-92.773,-33.691,-28.320,-83.984,-7.324
1678025131.438,-89.355,-30.273,-30.273,-99.121,54.688
1678025131.442,-95.215,-27.832,-31.738,-109.375,-107.910
1678025131.446,-104.492,-30.762,-25.879,-101.562,-151.855
1678025131.450,-107.910,-30.273,-22.461,-84.473,9.277
1678025131.453,-98.633,-29.297,-23.926,-90.820,150.391
1678025131.457,-91.309,-30.762,-26.367,-108.398,0.977
1678025131.461,-101.562,-33.691,-24.414,-118.652,-219.727
1678025131.465,-115.234,-40.527,-26.367,-116.211,-135.742
1678025131.469,-116.699,-42.969,-31.250,-92.285,305.664
1678025131.472,-106.445,-41.016,-26.367,-87.402,206.055
1678025131.476,-95.703,-40.527,-26.367,-95.215,-111.816
1678025131.480,-97.656,-40.039,-26.855,-109.863,-80.566
1678025131.484,-110.352,-37.109,-24.414,-108.398,-94.727
1678025131.488,-115.234,-37.109,-28.320,-93.750,-130.371
1678025131.492,-102.539,-32.715,-30.762,-101.074,10.742
1678025131.496,-92.773,-29.785,-31.250,-100.586,177.734
1678025131.499,-98.145,-32.715,-40.039,-103.027,89.355
1678025131.503,-112.305,-36.133,-37.109,-112.305,-200.684
1678025131.507,-116.699,-35.156,-32.715,-93.262,-134.277
1678025131.511,-99.121,-31.738,-30.273,-70.312,28.809
1678025131.515,-90.820,-34.668,-28.809,-82.031,-63.477
1678025131.516,-93.750,-37.598,-34.180,-103.027,-144.043
1678025131.520,-97.656,-36.133,-35.156,-97.656,-169.922
1678025131.524,-102.051,-33.691,-30.762,-81.543,-112.793
1678025131.528,-100.586,-33.203,-31.738,-80.078,-6.348
1678025131.532,-98.633,-32.227,-30.762,-92.773,-49.805
1678025131.536,-103.516,-30.762,-31.250,-111.816,-42.969
1678025131.540,-114.258,-34.668,-34.668,-111.328,260.742
1678025131.543,-112.793,-35.156,-30.273,-92.285,132.324
1678025131.547,-102.539,-31.250,-33.203,-89.844,-103.516
1678025131.551,-100.586,-39.551,-38.086,-102.539,-63.965
1678025131.555,-98.633,-41.992,-37.598,-111.328,-82.520
1678025131.559,-108.398,-37.109,-37.598,-118.164,-132.324
1678025131.576,-124.512,-40.039,-38.574,-111.816,-195.312
1678025131.580,-119.141,-47.363,-41.504,-93.750,-22.461
1678025131.584,-105.957,-43.945,-45.410,-95.215,72.754
1678025131.588,-110.840,-37.598,-46.875,-123.047,-145.508
1678025131.592,-116.211,-37.598,-43.945,-128.906,-249.023
1678025131.596,-121.094,-41.504,-36.621,-108.398,-88.867
1678025131.600,-123.535,-41.016,-36.621,-95.703,-45.410
1678025131.603,-112.793,-39.062,-39.551,-100.098,10.742
1678025131.607,-96.191,-36.621,-34.180,-115.234,-0.488
1678025131.611,-101.562,-35.156,-38.574,-125.977,86.914
1678025131.615,-117.676,-35.645,-41.992,-113.770,187.012
1678025131.619,-109.863,-34.668,-34.668,-98.145,-61.035
1678025131.621,-96.191,-34.180,-35.645,-89.355,-6.836
1678025131.625,-94.238,-37.109,-37.598,-101.562,59.082
1678025131.629,-96.680,-38.086,-38.574,-122.070,-163.574
1678025131.633,-105.957,-34.180,-42.969,-115.234,-256.348
1678025131.637,-109.375,-34.668,-43.457,-95.703,-92.285
1678025131.641,-99.121,-35.156,-43.457,-92.773,124.512
1678025131.645,-86.426,-30.762,-41.992,-107.910,54.688
1678025131.648,-88.379,-29.785,-44.434,-122.070,-189.453
1678025131.652,-105.469,-29.785,-47.852,-120.117,-114.258
1678025131.656,-111.816,-29.297,-45.898,-99.121,304.199
1678025131.660,-104.492,-27.832,-47.852,-91.309,180.176
1678025131.664,-101.074,-33.691,-47.363,-104.980,-68.359
1678025131.666,-99.121,-34.180,-43.457,-112.793,-30.273
1678025131.670,-112.305,-32.715,-38.086,-113.281,-29.785
1678025131.674,-118.164,-38.574,-33.203,-102.051,-141.113
1678025131.678,-104.492,-37.109,-32.715,-90.820,-106.934
1678025131.682,-95.703,-30.762,-31.250,-97.656,-65.918
1678025131.686,-105.957,-30.273,-33.203,-113.770,-31.738
1678025131.690,-114.746,-27.344,-33.203,-114.746,-23.438
1678025131.693,-109.863,-25.879,-31.738,-100.586,-121.094
1678025131.697,-96.680,-29.297,-29.785,-85.449,134.277
1678025131.701,-94.238,-27.344,-29.297,-91.797,290.039
1678025131.705,-95.215,-26.367,-32.227,-110.840,-96.191
1678025131.709,-95.215,-29.785,-33.691,-109.863,-172.363
1678025131.711,-99.121,-26.367,-33.691,-93.262,74.219
1678025131.715,-104.004,-22.461,-29.785,-90.820,-13.672
1678025131.719,-99.609,-23.926,-28.809,-102.051,-107.422
1678025131.723,-97.168,-25.391,-33.691,-116.211,-66.895
1678025131.727,-105.469,-26.367,-33.691,-121.094,-116.699
1678025131.731,-116.699,-30.762,-30.273,-121.094,-18.066
1678025131.735,-114.746,-33.203,-33.691,-108.887,67.871
1678025131.738,-106.934,-32.715,-39.062,-103.516,45.410
1678025131.742,-104.980,-33.691,-37.598,-114.746,190.918
1678025131.746,-108.887,-33.691,-37.109,-119.141,9.277
1678025131.750,-108.887,-26.855,-36.133,-109.863,-200.684
1678025131.754,-98.633,-24.414,-32.227,-88.867,-42.969
1678025131.758,-92.773,-32.227,-27.832,-83.496,77.148
1678025131.762,-90.820,-35.645,-28.809,-101.074,-62.988
1678025131.766,-99.609,-36.133,-33.691,-120.605,-223.145
1678025131.770,-105.957,-38.086,-31.250,-103.027,-162.109
1678025131.774,-110.840,-34.180,-33.203,-89.844,14.160
1678025131.778,-104.492,-31.738,-41.016,-105.957,-17.578
1678025131.782,-97.656,-33.203,-39.551,-119.629,-144.531
1678025131.785,-105.469,-30.762,-39.551,-125.000,-23.926
1678025131.789,-105.957,-32.227,-43.945,-108.887,70.312
1678025131.793,-94.727,-36.133,-41.016,-90.820,-88.867
1678025131.797,-89.355,-31.738,-35.156,-91.309,-76.660
1678025131.801,-99.121,-31.738,-34.668,-113.281,-83.008
1678025131.801,-109.863,-33.691,-36.133,-137.695,-204.102
1678025131.805,-112.305,-30.273,-35.645,-125.977,-232.910
1678025131.809,-114.258,-30.762,-39.062,-106.445,-114.746
1678025131.813,-106.445,-32.227,-39.062,-101.074,-15.625
1678025131.817,-99.121,-31.250,-41.992,-120.605,-12.695
1678025131.821,-106.934,-28.320,-41.992,-134.277,-26.855
1678025131.825,-131.836,-33.691,-39.062,-129.883,1.953
1678025131.828,-158.691,-32.715,-41.992,-124.023,239.746
1678025131.832,-164.551,-22.461,-45.410,-135.742,188.965
1678025131.836,-174.805,-24.902,-53.711,-183.594,-109.375
1678025131.840,-209.961,-29.785,-68.359,-232.422,-164.551
1678025131.844,-236.816,-35.156,-81.543,-253.418,-120.605
1678025131.846,-250.000,-30.762,-84.961,-257.324,-119.629
1678025131.850,-270.020,-30.762,-97.168,-279.785,-128.906
1678025131.854,-282.715,-37.598,-107.910,-309.082,-82.031
1678025131.858,-295.898,-35.645,-109.863,-334.961,-124.023
1678025131.862,-314.453,-31.250,-115.723,-352.051,-192.871
1678025131.866,-323.242,-32.227,-115.234,-332.520,-43.457
1678025131.870,-320.312,-29.297,-112.305,-308.105,192.871
1678025131.873,-318.848,-20.020,-117.188,-311.035,168.945
1678025131.877,-310.059,-17.578,-113.281,-321.289,-134.277
1678025131.881,-302.246,-15.625,-104.492,-308.105,-203.613
1678025131.885,-288.086,-14.160,-105.469,-264.160,-75.195
1678025131.889,-254.883,-15.625,-103.027,-232.422,-45.410
1678025131.891,-226.562,-15.137,-98.633,-224.121,-127.930
1678025131.895,-212.402,-15.625,-93.262,-201.660,-203.125
1678025131.899,-197.754,-15.137,-86.426,-187.012,-213.867
1678025131.903,-175.781,-15.625,-86.426,-160.156,-192.871
1678025131.907,-146.484,-15.137,-83.984,-122.559,-163.086
1678025131.911,-114.258,-12.695,-75.195,-109.863,-27.344
1678025131.915,-105.957,-18.066,-72.266,-119.141,212.891
1678025131.918,-100.586,-18.555,-70.312,-114.746,-33.691
1678025131.922,-89.844,-15.625,-62.988,-83.008,-236.816
1678025131.926,-84.473,-23.438,-61.035,-60.059,-3.418
1678025131.930,-71.289,-28.320,-62.012,-67.871,196.289
1678025131.934,-60.547,-23.926,-55.176,-83.496,55.664
1678025131.951,-56.641,-20.020,-51.758,-72.754,-163.086
1678025131.955,-62.500,-20.508,-51.270,-46.875,-128.906
1678025131.959,-59.082,-19.043,-44.434,-32.715,67.871
1678025131.963,-37.598,-18.555,-41.992,-31.738,-20.996
1678025131.967,-20.996,-20.020,-40.527,-31.250,-116.699
1678025131.971,-26.367,-21.973,-32.715,-39.062,25.879
1678025131.975,-39.551,-21.484,-31.250,-34.668,8.301
1678025131.978,-31.250,-17.578,-34.668,-11.230,-92.285
1678025131.982,-18.555,-17.090,-32.227,-4.883,-90.332
1678025131.986,-18.555,-21.973,-28.320,-8.301,69.336
1678025131.990,-12.207,-19.043,-27.344,-3.906,32.227
1678025131.994,-14.160,-19.043,-28.320,-16.113,-148.926
1678025131.996,-20.508,-24.414,-22.461,-9.277,-88.379
1678025132.000,-6.836,-27.344,-20.508,1.953,121.094
1678025132.004,-0.488,-26.367,-19.531,-13.184,3.418
1678025132.008,-4.883,-24.902,-13.672,-32.715,-143.555
1678025132.012,-6.348,-28.809,-16.602,-26.855,-149.902
1678025132.016,-7.324,-24.902,-16.113,0.488,38.086
1678025132.020,-0.977,-20.996,-16.602,12.695,178.223
1678025132.023,13.184,-22.949,-15.137,0.488,-0.488
1678025132.027,8.789,-25.391,-11.230,-12.207,-111.328
1678025132.031,1.953,-26.855,-11.230,-0.977,66.406
1678025132.035,10.254,-22.461,-2.441,22.461,-14.160
1678025132.039,16.602,-23.438,1.953,30.762,-63.965
1678025132.041,19.531,-25.879,-4.883,19.531,1.953
1678025132.045,7.324,-29.785,-7.812,-0.488,75.684
1678025132.049,-6.348,-30.762,-11.719,-7.812,-73.730
1678025132.053,-11.719,-29.297,-10.254,3.418,-158.691
1678025132.057,-5.859,-29.785,-2.930,6.836,50.781
1678025132.061,-4.395,-33.203,-3.418,0.488,103.027
1678025132.065,-7.324,-35.645,0.977,-13.672,-66.895
1678025132.068,-11.719,-34.180,8.789,-22.949,-138.672
1678025132.072,-21.973,-34.668,9.277,-8.789,13.672
1678025132.076,-19.531,-31.250,7.812,5.371,167.480
1678025132.080,-15.625,-29.785,9.277,-12.695,16.602
1678025132.084,-18.555,-29.297,8.789,-26.855,-124.023
1678025132.086,-24.414,-29.785,6.836,-25.391,-137.207
1678025132.090,-26.855,-28.809,4.395,-12.207,-83.984
1678025132.094,-23.926,-24.414,6.836,-2.441,-23.438
1678025132.098,-13.672,-26.367,10.742,-13.184,40.039
1678025132.102,-15.137,-26.855,9.766,-27.832,60.547
1678025132.106,-27.832,-23.926,6.836,-34.180,-62.012
1678025132.110,-42.969,-28.320,1.953,-27.344,-128.906
1678025132.113,-47.852,-28.320,-0.977,-11.719,-66.406
1678025132.117,-39.551,-30.762,0.000,-0.977,217.285
1678025132.121,-33.203,-27.344,1.953,-21.484,85.449
1678025132.125,-41.504,-24.414,0.488,-47.363,-219.727
1678025132.129,-55.664,-30.273,4.395,-37.598,-67.871
1678025132.131,-45.898,-24.414,10.742,-16.113,90.332
1678025132.135,-37.109,-19.043,8.301,-20.996,-86.914
1678025132.139,-39.062,-26.855,6.348,-39.551,-145.996
1678025132.143,-50.293,-29.785,6.348,-55.664,-161.133
1678025132.147,-63.965,-26.855,5.371,-61.035,-170.898
1678025132.151,-55.664,-25.879,5.859,-36.621,-40.527
1678025132.155,-47.852,-26.367,1.465,-30.273,-20.508
1678025132.158,-43.457,-26.367,-3.418,-53.223,191.895
1678025132.162,-51.270,-22.949,3.906,-47.363,260.254
1678025132.166,-58.105,-20.508,11.719,-50.293,-137.695
1678025132.170,-59.082,-20.996,5.371,-46.387,-167.969
1678025132.174,-50.781,-21.973,3.418,-36.621,45.410
1678025132.176,-42.480,-25.391,1.953,-64.453,-24.414
1678025132.180,-45.898,-23.926,-2.930,-77.637,-191.406
1678025132.184,-58.105,-26.367,0.488,-69.824,-133.301
1678025132.188,-58.105,-26.855,0.000,-50.781,-77.148
1678025132.192,-47.363,-27.344,-4.395,-42.969,1.953
1678025132.196,-48.828,-30.273,-0.488,-61.035,96.680
1678025132.200,-51.270,-27.832,0.977,-70.801,72.754
1678025132.203,-62.012,-26.855,-3.906,-55.664,203.613
1678025132.207,-68.359,-24.902,-1.465,-46.387,140.625
1678025132.211,-52.246,-19.531,2.930,-49.316,-76.172
1678025132.215,-47.852,-19.043,2.441,-55.664,40.039
1678025132.219,-60.547,-22.461,-0.488,-67.383,279.785
1678025132.221,-63.477,-21.484,1.953,-68.848,-32.227
1678025132.225,-62.500,-21.973,-0.977,-55.664,-177.734
1678025132.229,-59.570,-21.973,-3.906,-38.086,-2.441
1678025132.233,-51.758,-21.484,-6.348,-42.480,-20.508
1678025132.237,-57.129,-25.879,-8.789,-68.359,-156.738
1678025132.241,-71.289,-28.809,-8.301,-84.961,-204.102
1678025132.245,-73.242,-28.809,-15.137,-71.289,62.500
1678025132.248,-64.453,-24.414,-20.020,-45.898,190.430
1678025132.252,-51.270,-19.043,-14.648,-52.246,-63.965
1678025132.256,-49.805,-19.531,-21.973,-78.613,-162.598
1678025132.260,-62.500,-21.973,-24.414,-85.449,-126.465
1678025132.264,-69.824,-23.438,-19.531,-70.801,-85.449
1678025132.266,-62.012,-18.066,-20.508,-59.570,-148.926
1678025132.270,-53.711,-13.672,-17.090,-58.594,-86.914
1678025132.274,-51.270,-13.672,-14.160,-63.477,39.062
1678025132.278,-56.641,-11.719,-15.625,-72.266,-133.301
1678025132.282,-63.477,-12.207,-17.090,-65.918,-238.770
1678025132.286,-58.594,-14.648,-19.043,-43.457,-4.883
1678025132.290,-50.781,-16.113,-21.973,-29.785,334.473
1678025132.293,-49.316,-21.484,-21.973,-52.734,39.551
1678025132.297,-53.711,-22.461,-19.043,-79.102,-246.094
1678025132.301,-62.500,-23.438,-20.996,-71.289,-176.758
1678025132.305,-63.477,-25.391,-27.344,-55.176,-27.344
1678025132.309,-56.152,-23.438,-30.273,-63.965,72.754
1678025132.313,-53.711,-24.414,-30.273,-76.172,-18.555
1678025132.317,-61.035,-29.785,-32.715,-75.684,13.672
1678025132.321,-64.941,-24.902,-26.855,-61.035,145.020
1678025132.325,-62.012,-27.344,-25.879,-46.875,-13.184
1678025132.329,-53.223,-30.762,-32.715,-46.387,-29.785
1678025132.333,-45.410,-29.297,-30.762,-50.781,109.863
1678025132.337,-46.875,-32.715,-32.715,-67.871,19.531
1678025132.340,-59.570,-32.227,-37.598,-62.012,-146.973
1678025132.344,-70.312,-36.621,-31.738,-35.645,-145.508
1678025132.348,-60.547,-37.598,-31.738,-26.855,144.043
1678025132.352,-51.270,-34.180,-32.227,-40.527,157.715
1678025132.356,-55.664,-31.250,-32.227,-61.035,-121.094
1678025132.372,-68.848,-29.297,-34.668,-64.453,-142.090
1678025132.376,-71.289,-30.273,-37.598,-55.176,-92.285
1678025132.380,-62.012,-28.809,-42.969,-45.898,-38.086
1678025132.384,-56.152,-31.250,-47.363,-56.152,-43.457
1678025132.388,-58.105,-37.598,-45.898,-70.801,-118.164
1678025132.392,-63.965,-32.227,-41.992,-71.777,70.801
1678025132.396,-62.500,-23.438,-39.062,-59.082,6.836
1678025132.399,-61.523,-23.438,-39.062,-44.922,-140.137
1678025132.403,-58.594,-28.320,-41.016,-53.711,-39.551
1678025132.407,-59.082,-30.762,-45.410,-66.895,112.793
1678025132.411,-64.453,-30.762,-46.387,-70.801,-105.469
1678025132.415,-66.406,-29.785,-42.480,-56.152,-214.355
1678025132.417,-52.734,-21.973,-39.062,-35.645,-4.883
1678025132.421,-39.551,-22.949,-37.598,-35.156,52.246
1678025132.425,-43.945,-25.879,-38.574,-53.711,-126.953
1678025132.429,-48.828,-24.902,-36.621,-62.988,-178.223
1678025132.433,-54.199,-31.250,-38.086,-57.129,-93.262
1678025132.437,-57.617,-28.809,-43.457,-49.316,91.309
1678025132.441,-44.434,-25.391,-37.598,-41.992,85.938
1678025132.444,-40.527,-26.367,-30.762,-58.105,3.906
1678025132.448,-56.641,-28.320,-33.691,-71.289,76.660
1678025132.452,-61.523,-31.250,-34.668,-54.688,22.949
1678025132.456,-50.293,-30.273,-32.227,-41.992,-56.152
1678025132.460,-43.945,-30.273,-37.109,-46.875,3.418
1678025132.461,-44.434,-26.855,-40.039,-58.105,152.832
1678025132.465,-54.688,-23.926,-40.039,-65.918,21.973
1678025132.469,-66.406,-29.297,-41.992,-59.570,-200.684
1678025132.473,-64.941,-38.574,-42.969,-41.016,-101.562
1678025132.477,-53.223,-36.621,-42.480,-34.668,-0.488
1678025132.481,-44.922,-30.762,-41.016,-50.781,-24.902
1678025132.485,-48.828,-30.762,-40.039,-58.105,-173.340
1678025132.488,-57.129,-28.320,-39.551,-54.199,-99.121
1678025132.492,-57.617,-24.902,-38.086,-31.250,293.945
1678025132.496,-47.363,-25.879,-35.645,-25.391,152.344
1678025132.500,-43.457,-26.855,-34.668,-48.828,-164.062
1678025132.504,-48.828,-28.320,-34.668,-64.453,-117.676
1678025132.506,-57.129,-26.367,-35.645,-58.594,-46.875
1678025132.510,-58.105,-19.531,-35.156,-47.363,-114.746
1678025132.514,-48.828,-25.879,-34.180,-47.363,-103.027
1678025132.518,-40.527,-28.809,-32.715,-53.223,-86.914
1678025132.522,-47.852,-22.949,-32.715,-62.500,-141.602
1678025132.526,-60.059,-27.344,-38.086,-65.918,-179.688
1678025132.530,-59.570,-26.855,-37.598,-55.664,-108.887
1678025132.533,-49.316,-21.973,-36.133,-41.504,128.906
1678025132.537,-40.527,-22.461,-40.527,-42.480,121.582
1678025132.541,-41.016,-25.391,-39.062,-65.918,-169.434
1678025132.545,-50.293,-26.367,-34.180,-67.871,-106.934
1678025132.549,-51.270,-28.809,-34.668,-43.457,42.969
1678025132.551,-32.227,-26.855,-31.738,-24.414,32.227
1678025132.555,-18.066,-20.996,-28.809,-28.809,-26.367
1678025132.559,-21.973,-18.066,-33.691,-44.434,-103.027
1678025132.563,-35.156,-18.555,-40.039,-62.012,-161.621
1678025132.567,-37.598,-21.484,-43.457,-49.316,-119.629
1678025132.571,-22.461,-17.090,-41.016,-23.438,52.734
1678025132.575,-22.949,-15.625,-37.598,-28.809,163.086
1678025132.578,-37.109,-17.578,-40.527,-47.363,166.504
1678025132.582,-43.457,-13.184,-39.551,-60.547,-72.266
1678025132.586,-50.781,-13.672,-40.527,-48.340,-249.023
1678025132.590,-48.828,-21.973,-48.340,-35.156,-59.082
1678025132.594,-39.551,-24.414,-48.340,-43.457,79.590
1678025132.597,-42.480,-21.973,-47.363,-57.129,17.578
1678025132.601,-52.734,-21.484,-49.316,-63.477,-169.434
1678025132.605,-64.941,-25.391,-52.246,-52.734,-119.629
1678025132.609,-61.523,-23.926,-53.223,-30.273,137.695
1678025132.613,-41.016,-15.625,-50.293,-33.203,30.273
1678025132.617,-41.016,-22.949,-52.246,-58.594,-12.695
1678025132.621,-53.223,-29.297,-55.176,-57.617,116.211
1678025132.624,-59.082,-20.020,-52.246,-30.762,113.281
1678025132.628,-52.246,-24.414,-51.758,-19.531,-81.543
1678025132.632,-40.039,-26.855,-54.688,-31.738,-89.844
1678025132.636,-39.551,-23.438,-60.059,-52.734,-46.387
1678025132.640,-36.133,-26.855,-58.105,-51.270,-106.934
1678025132.671,-33.691,-22.461,-54.199,-40.039,-185.059
1678025132.675,-34.180,-23.926,-56.641,-16.113,-116.211
1678025132.679,-31.250,-27.344,-58.594,-13.184,25.391
1678025132.683,-34.180,-28.809,-60.059,-31.250,1.953
1678025132.687,-48.828,-29.785,-60.547,-47.363,-156.250
1678025132.691,-61.523,-27.344,-64.941,-56.152,-58.105
1678025132.695,-58.105,-24.902,-68.359,-36.621,356.934
1678025132.698,-45.410,-23.926,-67.871,-33.691,285.156
1678025132.702,-45.898,-27.832,-64.453,-54.688,-91.797
1678025132.706,-49.316,-27.344,-66.406,-66.406,-179.199
1678025132.710,-53.711,-26.367,-69.336,-64.453,-190.918
1678025132.714,-62.012,-26.855,-69.824,-49.805,-122.559
1678025132.701,-56.152,-29.785,-70.801,-41.992,-73.730
1678025132.705,-50.781,-30.762,-69.336,-50.781,-60.059
1678025132.709,-52.246,-26.367,-67.383,-54.199,-33.691
1678025132.713,-59.570,-22.461,-64.941,-58.594,-208.008
1678025132.717,-59.082,-19.531,-61.035,-53.711,-208.496
1678025132.721,-30.273,-20.020,-61.523,-39.551,62.500
1678025132.725,-18.555,-20.996,-60.547,-39.062,101.562
1678025132.728,-29.785,-22.461,-62.500,-55.176,-41.504
1678025132.732,-33.691,-18.555,-63.965,-55.176,-173.340
1678025132.736,-28.320,-17.090,-58.594,-26.855,0.977
1678025132.740,-22.949,-19.043,-55.176,-15.625,86.426
1678025132.744,-16.113,-22.461,-57.617,-35.156,-95.703
1678025132.746,-16.113,-24.902,-56.152,-46.875,-108.887
1678025132.750,-35.156,-24.414,-56.152,-43.945,49.805
1678025132.754,-42.969,-25.391,-54.688,-36.621,28.320
1678025132.758,-32.715,-25.391,-47.363,-25.391,-86.426
1678025132.762,-24.414,-24.902,-49.805,-36.621,-9.277
1678025132.766,-24.414,-24.414,-51.270,-52.734,30.762
1678025132.770,-29.785,-24.902,-45.898,-53.223,-53.223
1678025132.773,-36.621,-23.926,-45.410,-40.039,-94.727
1678025132.777,-27.344,-21.973,-45.898,-28.320,28.809
1678025132.781,-26.367,-31.738,-50.293,-30.273,315.430
1678025132.785,-36.133,-28.320,-47.363,-53.223,136.230
1678025132.789,-51.758,-24.902,-43.945,-77.148,-164.551
1678025132.791,-69.336,-27.344,-46.875,-66.406,-50.293
1678025132.795,-65.430,-20.020,-43.945,-50.293,64.941
1678025132.799,-61.035,-22.461,-51.270,-71.777,-114.746
1678025132.803,-67.871,-17.578,-52.734,-97.656,-174.316
1678025132.807,-96.680,-16.113,-47.852,-121.094,-152.832
1678025132.811,-136.230,-23.926,-57.617,-147.461,-129.395
1678025132.815,-150.879,-26.855,-67.871,-157.715,6.836
1678025132.818,-159.180,-25.879,-73.242,-171.387,-46.387
1678025132.822,-204.590,-29.785,-84.961,-220.703,6.348
1678025132.826,-259.766,-36.621,-100.098,-271.484,65.430
1678025132.830,-297.363,-35.156,-110.352,-297.363,-151.855
1678025132.834,-311.523,-34.180,-112.305,-301.270,-140.137
1678025132.836,-312.012,-33.203,-113.770,-304.199,98.633
1678025132.840,-317.383,-29.297,-118.652,-322.754,-66.895
1678025132.844,-328.613,-28.320,-115.234,-335.449,-281.738
1678025132.848,-338.379,-25.391,-113.281,-333.984,-180.176
1678025132.852,-333.496,-25.879,-112.305,-311.523,-76.660
1678025132.856,-311.035,-24.414,-110.840,-289.551,6.836
1678025132.860,-295.410,-22.949,-114.746,-302.246,-71.289
1678025132.863,-284.180,-19.531,-115.234,-303.711,-135.254
1678025132.867,-267.578,-17.090,-109.375,-273.926,119.141
1678025132.871,-256.348,-24.902,-103.027,-234.863,-1.953
1678025132.875,-231.445,-24.902,-100.586,-218.262,-165.039
1678025132.879,-195.312,-16.602,-95.703,-217.285,77.637
1678025132.881,-175.293,-17.090,-92.285,-202.148,153.320
1678025132.885,-161.621,-17.578,-91.309,-176.758,-116.699
1678025132.889,-144.531,-13.184,-82.031,-142.578,-115.234
1678025132.893,-111.816,-15.137,-74.707,-108.887,78.125
1678025132.897,-72.266,-16.602,-64.941,-96.680,24.414
1678025132.901,-62.500,-15.625,-54.199,-92.285,-74.219
1678025132.905,-65.430,-20.020,-53.711,-85.938,-133.301
1678025132.908,-59.570,-22.461,-51.270,-56.152,54.199
1678025132.912,-43.945,-27.344,-45.898,-33.203,223.633
1678025132.916,-21.484,-25.879,-41.016,-42.969,-55.176
1678025132.920,-17.578,-24.414,-37.598,-41.016,-214.355
1678025132.924,-21.484,-33.203,-41.992,-37.109,-129.883
1678025132.941,-16.113,-37.598,-40.527,-16.113,-114.746
1678025132.945,-0.488,-38.574,-36.621,9.766,-109.863
1678025132.949,20.508,-35.645,-36.133,18.066,-78.613
1678025132.953,24.902,-37.598,-31.250,8.789,10.254
1678025132.957,19.043,-36.621,-29.297,4.395,-59.570
1678025132.961,20.996,-32.227,-21.484,31.738,-126.465
1678025132.965,32.227,-29.297,-13.672,60.547,16.113
1678025132.968,46.875,-25.879,-9.277,72.754,232.910
1678025132.972,52.246,-28.320,-7.812,60.059,35.645
1678025132.976,45.898,-32.227,-6.348,47.852,-163.086
1678025132.980,47.363,-28.809,2.441,64.941,-77.637
1678025132.984,52.734,-25.391,1.465,87.891,45.410
1678025132.971,61.523,-24.414,3.418,89.355,42.969
1678025132.975,70.312,-27.832,2.441,62.012,-93.750
1678025132.979,58.594,-31.738,-4.395,48.340,-134.766
1678025132.983,48.340,-32.227,-4.395,62.012,-96.680
1678025132.987,54.199,-31.738,-5.371,74.219,20.020
1678025132.991,61.523,-31.250,-4.395,64.453,115.234
1678025132.995,61.523,-34.180,-0.977,37.598,187.988
1678025132.998,52.246,-43.945,-3.418,29.785,109.375
1678025133.002,49.805,-43.457,-1.465,44.922,-157.227
1678025133.006,50.781,-41.016,1.953,60.547,-142.578
1678025133.010,55.176,-43.945,0.488,59.570,157.715
1678025133.014,58.594,-42.969,-5.371,46.875,178.711
1678025133.016,42.480,-42.480,-6.836,32.715,-122.070
1678025133.020,31.738,-43.457,-3.906,30.273,-160.645
1678025133.024,34.668,-41.992,-5.371,52.734,-53.223
1678025133.028,42.480,-41.504,-5.859,55.664,-34.668
1678025133.032,37.109,-41.504,-5.859,38.086,-97.168
1678025133.036,22.949,-43.945,-6.836,26.855,-27.832
1678025133.040,15.625,-47.852,-9.277,28.809,86.914
1678025133.043,18.555,-46.387,-12.207,39.062,8.789
1678025133.047,27.344,-50.293,-12.207,43.945,-62.988
1678025133.051,35.645,-51.270,-7.812,35.156,5.371
1678025133.055,25.879,-49.316,-12.207,20.996,271.484
1678025133.059,14.160,-51.270,-16.113,13.672,74.707
1678025133.076,14.160,-47.852,-18.066,8.301,-193.848
1678025133.080,16.113,-43.945,-24.902,13.184,7.812
1678025133.084,14.648,-47.852,-26.367,11.719,49.316
1678025133.088,18.066,-44.434,-26.855,-3.418,-92.285
1678025133.092,9.766,-38.574,-25.391,-8.301,-197.266
1678025133.096,1.953,-40.527,-20.508,7.812,38.086
1678025133.100,10.742,-39.551,-17.578,14.648,248.047
1678025133.103,15.625,-32.715,-17.090,15.137,-17.090
1678025133.107,9.277,-32.227,-17.090,2.930,-168.945
1678025133.111,-1.465,-36.621,-14.648,-12.207,-26.855
1678025133.115,-6.348,-37.598,-16.602,7.324,6.348
1678025133.119,7.812,-36.621,-20.508,14.648,-137.207
1678025133.121,22.949,-34.668,-22.461,2.930,-101.562
1678025133.125,9.277,-36.133,-27.344,-9.277,-91.309
1678025133.129,-4.883,-36.133,-22.461,-20.508,-200.195
1678025133.133,-1.953,-36.133,-16.602,-8.789,-230.957
1678025133.137,-7.812,-35.645,-16.602,6.348,-125.488
1678025133.141,0.000,-33.203,-15.625,-6.348,18.066
1678025133.145,-3.418,-32.227,-19.043,-28.320,26.367
1678025133.148,-23.438,-33.691,-25.879,-41.016,-117.188
1678025133.152,-34.668,-41.016,-28.809,-39.062,-83.008
1678025133.156,-30.273,-35.645,-27.344,-8.301,276.367
1678025133.160,-18.555,-28.320,-23.926,-3.418,163.574
1678025133.164,-14.160,-28.809,-22.949,-22.949,-146.484
1678025133.166,-28.320,-28.320,-25.391,-36.621,-117.676
1678025133.170,-34.668,-25.879,-22.461,-29.297,105.469
1678025133.174,-25.879,-25.879,-19.531,-9.277,12.207
1678025133.178,-17.090,-27.344,-22.949,-11.719,-61.523
1678025133.182,-13.672,-26.855,-26.855,-29.297,24.414
1678025133.186,-20.508,-30.273,-25.391,-46.875,-17.090
1678025133.190,-32.227,-33.203,-27.832,-42.480,-51.270
1678025133.193,-28.809,-31.250,-29.297,-20.996,-120.605
1678025133.197,-25.879,-31.738,-31.250,-14.160,66.895
1678025133.201,-28.809,-33.691,-30.762,-17.578,172.852
1678025133.205,-38.086,-29.785,-26.855,-31.250,-178.223
1678025133.209,-50.293,-27.832,-24.902,-38.086,-196.777
1678025133.215,-51.758,-25.391,-23.438,-15.625,-66.406
1678025133.219,-39.551,-27.344,-20.996,-0.977,-14.648
1678025133.223,-33.203,-28.809,-19.531,-20.508,16.113
1678025133.227,-40.527,-23.926,-20.996,-29.785,-70.312
1678025133.231,-53.711,-29.297,-22.461,-24.902,43.945
1678025133.235,-49.316,-27.344,-20.996,-8.789,123.047
1678025133.239,-33.203,-20.996,-20.020,4.395,105.957
1678025133.242,-30.273,-26.367,-24.414,-11.230,97.656
1678025133.246,-39.551,-28.809,-27.344,-16.113,166.016
1678025133.250,-55.664,-29.297,-25.879,-16.113,-130.859
1678025133.254,-49.805,-24.902,-25.391,-9.766,-206.543
1678025133.258,-27.344,-21.484,-23.438,6.836,8.789
1678025133.256,-28.809,-29.297,-29.297,-3.418,63.477
1678025133.260,-31.250,-27.344,-32.227,-22.461,-90.332
1678025133.264,-37.598,-26.855,-25.879,-28.320,-258.789
1678025133.268,-46.387,-32.227,-31.250,-25.879,-163.574
1678025133.272,-41.504,-30.762,-33.691,-11.719,3.418
1678025133.276,-42.969,-26.367,-32.715,-16.113,-5.371
1678025133.280,-52.734,-25.879,-38.086,-39.551,-133.301
1678025133.283,-55.664,-35.645,-39.551,-41.016,-10.742
1678025133.287,-52.246,-38.086,-38.086,-21.973,236.328
1678025133.291,-28.809,-29.297,-33.691,-7.324,8.301
1678025133.295,-10.742,-33.203,-34.668,-11.719,-134.766
1678025133.299,-15.625,-38.086,-38.086,-35.156,-75.684
1678025133.301,-20.020,-33.203,-37.598,-46.387,-183.594
1678025133.305,-21.973,-31.738,-38.574,-33.203,-240.234
1678025133.309,-12.207,-34.668,-39.551,-19.531,-84.473
1678025133.313,-9.277,-41.992,-42.480,-29.297,24.414
1678025133.317,-15.625,-39.551,-45.410,-27.832,-89.355
1678025133.321,-26.367,-34.180,-45.898,-37.598,-189.453
1678025133.325,-37.109,-30.762,-42.969,-37.598,-122.559
1678025133.328,-45.410,-30.762,-48.340,-20.996,297.363
1678025133.332,-40.039,-31.250,-48.340,-28.320,235.352
1678025133.336,-29.297,-29.785,-44.434,-47.363,-174.805
1678025133.340,-44.922,-32.715,-48.828,-62.012,-201.172
1678025133.344,-65.430,-38.574,-49.805,-57.617,-141.602
1678025133.346,-59.082,-39.551,-48.828,-42.480,-95.703
1678025133.350,-45.410,-43.457,-54.688,-38.086,-47.852
1678025133.354,-44.434,-44.922,-59.570,-49.805,-8.301
1678025133.358,-52.734,-38.574,-57.617,-54.688,-62.012
1678025133.362,-55.664,-37.598,-52.734,-49.805,-162.109
1678025133.366,-43.945,-37.109,-54.688,-40.039,-119.629
1678025133.370,-36.621,-38.086,-55.664,-26.855,187.012
1678025133.373,-32.227,-41.016,-55.664,-37.109,208.008
1678025133.377,-44.922,-43.945,-60.547,-59.570,-160.645
1678025133.381,-64.941,-46.387,-60.547,-62.012,-150.879
1678025133.385,-66.895,-44.434,-55.176,-46.875,65.430
1678025133.389,-56.152,-45.410,-58.105,-38.086,-18.555
1678025133.395,-48.828,-48.340,-62.988,-49.805,-141.602
1678025133.399,-51.270,-46.387,-65.918,-66.895,-144.043
1678025133.403,-54.199,-39.551,-68.848,-66.406,-146.484
1678025133.407,-54.688,-36.621,-67.383,-53.711,-132.324
1678025133.411,-46.875,-41.016,-66.895,-52.734,-147.949
1678025133.415,-34.180,-41.016,-65.430,-53.711,20.020
1678025133.419,-42.969,-40.039,-61.523,-58.594,283.691
1678025133.422,-60.547,-45.410,-63.477,-71.289,-39.062
1678025133.426,-61.035,-45.410,-66.406,-63.477,-248.535
1678025133.430,-53.223,-43.945,-66.406,-47.363,-43.945
1678025133.434,-39.551,-41.504,-73.242,-58.105,48.340
1678025133.438,-33.691,-36.133,-75.195,-74.707,-2.441
1678025133.437,-39.062,-34.180,-67.871,-62.988,-118.164
1678025133.441,-40.039,-35.156,-65.430,-42.480,-106.445
1678025133.445,-38.574,-35.156,-68.359,-33.691,62.012
1678025133.449,-36.133,-34.668,-71.289,-40.039,27.832
1678025133.453,-36.621,-35.645,-68.359,-60.059,-83.496
1678025133.457,-34.668,-36.621,-63.965,-66.895,26.855
1678025133.461,-40.039,-35.156,-63.965,-45.898,370.605
1678025133.464,-37.109,-34.180,-63.965,-32.227,216.309
1678025133.468,-30.273,-38.086,-66.406,-32.227,-127.930
1678025133.472,-27.344,-36.133,-65.918,-48.828,-117.188
1678025133.476,-32.715,-31.250,-64.453,-64.453,-249.512
1678025133.480,-37.598,-37.109,-63.965,-48.828,-291.504
1678025133.496,-25.879,-32.227,-57.129,-25.391,-155.273
1678025133.500,-24.414,-30.273,-56.152,-33.691,-81.543
1678025133.504,-35.156,-35.645,-59.570,-58.594,-113.770
1678025133.508,-36.621,-30.762,-55.664,-63.965,-219.238
1678025133.512,-39.062,-28.809,-54.199,-41.016,-174.805
1678025133.516,-43.457,-30.762,-50.781,-16.602,218.750
1678025133.520,-24.414,-30.273,-50.293,-18.555,154.785
1678025133.523,-11.719,-32.227,-52.734,-36.621,-125.000
1678025133.527,-21.484,-30.273,-47.852,-39.062,-132.324
1678025133.531,-30.762,-24.414,-46.387,-22.949,2.930
1678025133.535,-25.391,-24.414,-47.363,-13.672,-71.777
1678025133.539,-15.625,-23.926,-43.457,-14.648,-128.906
1678025133.541,-16.602,-25.391,-44.922,-25.879,-41.992
1678025133.545,-15.137,-23.438,-49.316,-38.086,-25.879
1678025133.549,-22.949,-24.414,-51.758,-47.852,-172.852
1678025133.553,-32.227,-24.414,-51.758,-33.203,-121.582
1678025133.557,-24.414,-24.902,-48.340,-18.066,64.941
1678025133.561,-13.184,-30.273,-44.922,-31.738,97.656
1678025133.565,-19.043,-30.273,-45.898,-46.387,-62.012
1678025133.568,-28.809,-32.227,-43.945,-48.340,-247.070
1678025133.572,-34.668,-37.109,-42.969,-30.762,28.809
1678025133.576,-29.785,-35.645,-48.340,-15.137,286.133
1678025133.580,-14.648,-33.691,-44.434,-28.809,8.301
1678025133.584,-23.438,-35.156,-41.016,-38.574,-170.410
1678025133.586,-38.574,-31.250,-41.504,-41.504,-146.484
1678025133.590,-38.086,-28.809,-38.574,-35.156,-165.039
1678025133.594,-31.250,-30.762,-39.551,-15.137,-104.492
1678025133.598,-23.438,-25.879,-37.109,-10.742,-26.367
1678025133.602,-32.715,-29.785,-33.691,-39.062,-79.590
1678025133.606,-46.387,-32.227,-38.574,-53.711,-129.883
1678025133.610,-48.828,-24.414,-40.527,-38.086,-94.727
1678025133.613,-48.828,-23.926,-39.551,-20.020,90.820
1678025133.617,-40.039,-26.367,-39.062,-11.719,360.840
1678025133.621,-38.086,-25.879,-37.598,-35.645,180.176
1678025133.625,-44.434,-24.902,-40.039,-52.246,-129.883
1678025133.629,-45.410,-27.832,-39.062,-33.691,14.648
1678025133.646,-30.273,-24.414,-38.086,-6.348,143.555
1678025133.650,-21.973,-22.461,-41.504,-8.789,12.207
1678025133.654,-23.438,-21.484,-40.039,-27.832,-76.172
1678025133.658,-24.414,-19.043,-38.574,-30.273,-144.531
1678025133.662,-41.504,-27.344,-42.480,-20.020,-143.555
1678025133.666,-39.551,-26.367,-41.992,-4.395,48.340
1678025133.670,-25.879,-20.996,-37.109,-12.207,98.633
1678025133.673,-30.273,-23.926,-36.133,-40.527,103.516
1678025133.677,-43.945,-23.926,-39.551,-53.711,121.094
1678025133.681,-50.781,-22.461,-41.016,-42.480,-100.586
1678025133.685,-40.039,-24.902,-37.109,-17.578,-98.145
1678025133.689,-27.832,-24.414,-36.133,-7.812,113.281
1678025133.676,-28.320,-25.879,-39.551,-20.996,-35.156
1678025133.680,-37.598,-28.809,-40.039,-36.621,-248.535
1678025133.684,-50.781,-28.320,-39.551,-39.062,-150.391
1678025133.688,-44.922,-30.762,-40.039,-35.645,14.160
1678025133.692,-37.598,-30.762,-45.898,-35.156,5.371
1678025133.696,-44.922,-29.785,-44.922,-56.152,-91.797
1678025133.700,-53.223,-32.715,-43.457,-69.824,-96.191
1678025133.703,-62.988,-32.715,-47.852,-66.895,-31.250
1678025133.707,-58.105,-30.762,-42.969,-55.664,-100.098
