timestamps,TP9,AF7,AF8,TP10,Right AUX
1678025278.009,-59.082,-36.621,-66.406,42.969,-108.887
1678025278.013,-48.340,-28.320,-66.406,49.805,-134.277
1678025278.017,-15.625,-26.855,-62.500,37.598,-120.117
1678025278.021,4.883,-26.855,-63.477,23.926,-27.832
1678025278.025,-7.324,-22.461,-63.477,26.367,-37.109
1678025278.029,-39.551,-23.438,-65.918,20.996,-77.148
1678025278.033,-40.527,-23.926,-68.848,22.461,-3.418
1678025278.036,-20.996,-27.832,-69.824,20.996,113.770
1678025278.040,-3.418,-33.691,-69.824,10.742,164.551
1678025278.044,-15.625,-38.086,-65.918,-0.977,-68.359
1678025278.048,-47.852,-34.668,-60.059,-2.930,-166.016
1678025278.052,-55.176,-31.738,-52.246,-10.254,-104.004
1678025278.052,-39.062,-37.598,-55.176,-52.734,-81.055
1678025278.056,-13.672,-38.574,-59.570,-125.488,-112.793
1678025278.060,-17.578,-37.109,-60.547,-191.406,-129.395
1678025278.064,-49.805,-39.551,-62.500,-245.117,-77.637
1678025278.068,-71.777,-40.527,-61.523,-285.645,-35.645
1678025278.072,-64.453,-34.668,-60.547,-306.641,-24.902
1678025278.076,-31.738,-30.762,-61.523,-321.777,-25.391
1678025278.079,-25.391,-28.809,-63.965,-329.102,282.227
1678025278.083,-53.223,-19.531,-62.500,-332.031,499.512
1678025278.087,-66.406,-19.043,-60.059,-342.285,86.426
1678025278.091,-53.711,-26.367,-61.523,-361.328,-74.219
1678025278.095,-33.203,-26.855,-60.547,-376.465,14.160
1678025278.098,-20.996,-26.367,-62.012,-362.793,-119.629
1678025278.102,-42.969,-26.855,-62.012,-333.008,-178.223
1678025278.106,-62.500,-30.273,-65.430,-301.758,-73.730
1678025278.110,-53.711,-31.738,-67.383,-277.832,-37.598
1678025278.114,-34.180,-26.367,-58.594,-255.859,-69.336
1678025278.118,-22.949,-22.949,-57.129,-217.773,-92.285
1678025278.122,-41.016,-21.484,-58.594,-182.617,120.605
1678025278.125,-63.965,-21.484,-55.176,-161.133,349.609
1678025278.129,-60.547,-26.367,-55.176,-155.762,7.812
1678025278.133,-43.457,-33.203,-58.105,-153.809,-218.750
1678025278.137,-29.297,-31.738,-57.617,-134.766,-176.270
1678025278.141,-42.480,-27.832,-55.664,-103.516,-147.461
1678025278.143,-71.777,-26.367,-58.594,-78.613,-149.902
1678025278.147,-69.336,-30.273,-62.012,-62.988,-129.883
1678025278.151,-42.969,-32.227,-61.035,-60.547,-92.285
1678025278.155,-25.391,-28.320,-61.523,-54.199,-71.777
1678025278.159,-41.504,-29.297,-68.359,-40.527,-115.723
1678025278.163,-68.359,-25.391,-70.801,-35.645,-65.430
1678025278.167,-71.777,-23.926,-68.359,-33.691,262.207
1678025278.170,-52.246,-30.762,-70.801,-61.035,202.637
1678025278.174,-27.344,-31.250,-73.730,-95.703,-110.840
1678025278.178,-25.391,-29.785,-71.777,-104.492,-60.059
1678025278.182,-52.734,-27.344,-70.312,-101.074,106.934
1678025278.186,-67.871,-26.367,-72.266,-103.027,12.695
1678025278.188,-45.898,-26.855,-74.707,-116.211,-149.414
1678025278.192,-26.855,-27.832,-76.660,-128.418,-97.656
1678025278.196,-28.809,-25.391,-75.684,-145.508,-92.773
1678025278.200,-52.734,-26.855,-74.707,-164.062,-168.945
1678025278.204,-62.012,-31.738,-76.660,-175.781,-166.504
1678025278.208,-38.574,-28.809,-72.754,-180.664,30.762
1678025278.212,-21.484,-32.227,-74.707,-176.270,100.586
1678025278.215,-30.762,-38.086,-77.148,-167.969,-70.312
1678025278.219,-65.918,-41.016,-77.637,-159.180,-145.508
1678025278.223,-84.473,-41.016,-79.590,-122.070,26.367
1678025278.227,-62.500,-35.645,-75.684,-76.172,111.816
1678025278.231,-33.691,-31.250,-80.078,-45.410,-47.852
1678025278.247,-28.809,-32.715,-84.473,-8.789,-80.566
1678025278.251,-54.688,-31.738,-79.590,19.531,-25.391
1678025278.255,-66.406,-32.715,-80.566,40.039,-31.738
1678025278.259,-43.945,-34.180,-81.055,53.711,-102.539
1678025278.263,-22.949,-33.203,-79.590,66.406,-79.102
1678025278.267,-11.719,-30.273,-76.660,87.402,52.246
1678025278.271,-35.156,-29.297,-76.660,93.262,-22.461
1678025278.274,-55.664,-35.645,-79.590,98.145,-53.223
1678025278.278,-50.293,-35.156,-80.078,109.863,39.062
1678025278.282,-34.180,-34.180,-82.520,112.305,227.539
1678025278.286,-20.508,-30.762,-82.520,115.723,217.773
1678025278.290,-40.039,-28.809,-83.008,116.699,-98.633
1678025278.293,-57.129,-29.297,-79.102,115.723,-121.582
1678025278.297,-45.898,-29.785,-80.566,120.117,-51.270
1678025278.301,-18.555,-29.297,-85.449,120.605,-76.172
1678025278.305,-2.930,-26.367,-80.078,120.605,-188.965
1678025278.309,-23.438,-28.320,-75.684,125.488,-17.578
1678025278.313,-54.688,-31.738,-82.031,124.512,130.371
1678025278.317,-55.176,-30.762,-82.520,114.746,-39.062
1678025278.320,-30.762,-24.902,-75.684,112.793,-153.809
1678025278.324,-15.137,-23.926,-75.195,116.699,25.879
1678025278.328,-26.855,-24.414,-74.219,115.723,162.598
1678025278.332,-49.805,-22.461,-74.219,104.004,-137.695
1678025278.336,-54.199,-22.461,-76.660,86.426,-173.828
1678025278.338,-40.527,-24.902,-77.148,81.543,-114.746
1678025278.342,-20.508,-27.832,-80.078,76.172,-105.469
1678025278.346,-26.367,-28.809,-80.566,70.801,-98.145
1678025278.350,-50.293,-26.367,-79.102,74.707,-95.215
1678025278.354,-56.641,-28.320,-82.031,78.125,-58.594
1678025278.358,-37.109,-26.367,-83.984,82.031,-50.781
1678025278.362,-7.324,-22.949,-79.590,82.031,-24.414
1678025278.365,-0.488,-23.438,-81.055,75.684,-22.949
1678025278.369,-35.645,-22.949,-85.449,83.008,229.004
1678025278.373,-54.199,-23.926,-89.355,78.125,289.551
1678025278.377,-29.785,-28.809,-92.773,59.082,-59.082
1678025278.381,0.000,-29.297,-95.215,56.641,-104.004
1678025278.382,15.137,-23.438,-98.145,62.012,-57.617
1678025278.386,-16.113,-24.414,-100.098,57.617,-144.043
1678025278.390,-37.109,-27.344,-99.121,61.523,-208.984
1678025278.394,-26.855,-27.344,-100.586,72.266,-72.754
1678025278.398,-19.043,-27.832,-100.586,63.965,56.152
1678025278.402,-12.207,-26.855,-97.656,55.664,-54.199
1678025278.406,-44.922,-29.297,-104.492,54.199,-84.961
1678025278.409,-68.359,-29.785,-105.957,62.500,162.109
1678025278.413,-54.688,-27.344,-104.492,59.082,331.055
1678025278.417,-29.785,-24.414,-109.375,35.156,60.059
1678025278.421,-10.254,-23.438,-107.422,31.250,-159.180
1678025278.425,-35.156,-24.902,-105.957,36.133,-106.445
1678025278.428,-57.129,-28.320,-111.816,36.621,-81.543
1678025278.432,-42.480,-28.809,-113.281,39.551,-150.391
1678025278.436,-16.602,-25.391,-109.375,40.039,-178.223
1678025278.440,-0.977,-24.902,-107.910,30.762,-81.543
1678025278.444,-29.785,-29.297,-113.770,19.043,-40.527
1678025278.448,-61.523,-27.832,-116.211,0.000,-36.133
1678025278.452,-49.316,-24.414,-119.629,-16.602,16.113
1678025278.455,-24.414,-24.414,-119.629,-10.254,354.492
1678025278.459,-21.973,-25.391,-116.211,-21.484,430.664
1678025278.463,-35.156,-25.391,-114.746,-43.457,-9.766
1678025278.467,-50.293,-28.320,-116.211,-58.105,-25.879
1678025278.471,-53.711,-30.273,-116.699,-65.430,46.875
1678025278.473,-27.344,-25.879,-117.676,-51.270,-88.379
1678025278.477,-8.301,-30.273,-118.164,-36.133,-119.629
1678025278.481,-35.156,-27.832,-113.770,-19.531,-31.738
1678025278.485,-59.082,-20.020,-107.910,3.418,-1.465
1678025278.489,-59.570,-24.902,-109.863,3.418,-85.938
1678025278.493,-42.480,-27.832,-115.234,-5.859,-100.098
1678025278.497,-12.207,-27.344,-111.328,9.277,94.238
1678025278.500,-29.785,-25.879,-107.910,23.438,183.594
1678025278.504,-61.035,-21.973,-104.980,21.484,-32.227
1678025278.508,-46.387,-18.555,-104.492,26.367,-75.684
1678025278.512,-19.531,-20.020,-106.445,24.902,2.441
1678025278.516,-1.953,-23.438,-112.305,21.973,-25.879
1678025278.518,-18.066,-18.555,-112.793,20.020,-106.445
1678025278.522,-47.852,-17.090,-108.398,17.578,-99.121
1678025278.526,-47.852,-24.902,-108.887,20.996,-27.344
1678025278.530,-25.879,-27.832,-110.840,16.602,-31.738
1678025278.534,0.000,-23.438,-108.398,13.184,-103.516
1678025278.538,-4.883,-23.438,-104.492,12.695,-92.285
1678025278.542,-33.691,-20.020,-102.539,28.809,182.617
1678025278.545,-39.062,-20.508,-99.121,28.320,242.676
1678025278.549,-10.742,-22.461,-96.191,10.254,-76.660
1678025278.553,16.113,-18.066,-95.215,11.719,-127.930
1678025278.557,-2.441,-20.508,-98.145,12.207,24.902
1678025278.561,-41.992,-23.438,-95.215,9.766,-72.266
1678025278.564,-53.711,-29.297,-95.703,0.000,-250.000
1678025278.568,-46.387,-34.180,-95.215,-10.742,-98.145
1678025278.572,-24.414,-31.738,-87.891,-11.230,15.625
1678025278.576,-14.648,-29.297,-83.008,-8.301,-145.508
1678025278.580,-37.598,-26.367,-82.031,-5.371,-209.961
1678025278.584,-53.223,-25.391,-78.125,-6.348,14.648
1678025278.588,-41.504,-24.414,-75.195,-4.395,65.918
1678025278.591,-8.789,-25.391,-76.172,-10.254,-137.695
1678025278.595,6.348,-29.297,-70.801,-11.719,-166.992
1678025278.599,-18.066,-28.809,-64.453,-2.930,31.250
1678025278.603,-36.133,-27.832,-58.105,8.789,79.590
1678025278.607,-29.785,-27.344,-57.129,5.371,-161.133
1678025278.622,-12.695,-29.297,-61.035,-9.766,-119.629
1678025278.626,-4.395,-32.227,-62.500,-14.160,-31.250
1678025278.630,-27.344,-31.738,-63.477,-11.230,-44.922
1678025278.634,-45.898,-33.203,-62.012,-13.184,-105.957
1678025278.638,-38.086,-36.621,-61.523,-12.695,-82.520
1678025278.642,-18.066,-37.598,-63.477,-4.395,201.660
1678025278.646,-5.371,-35.156,-61.035,2.441,145.508
1678025278.649,-24.414,-32.227,-57.617,5.859,-119.629
1678025278.653,-45.410,-28.809,-59.082,11.230,-68.848
1678025278.657,-40.527,-29.297,-57.129,18.066,58.105
1678025278.661,-17.090,-28.809,-52.734,15.625,-59.082
1678025278.665,1.465,-29.785,-54.688,4.395,-202.637
1678025278.668,-16.113,-33.203,-59.570,-0.488,-57.129
1678025278.672,-53.711,-34.180,-60.547,7.324,90.820
1678025278.676,-56.152,-36.133,-58.105,12.207,-35.156
1678025278.680,-31.250,-35.645,-55.176,9.766,-94.727
1678025278.684,-3.418,-32.227,-57.129,4.883,-27.344
1678025278.688,1.465,-28.809,-59.082,4.395,-20.996
1678025278.692,-36.133,-32.227,-60.059,-1.465,-29.297
1678025278.695,-51.758,-35.645,-64.453,-8.301,-47.363
1678025278.699,-27.832,-34.180,-67.383,-4.883,77.637
1678025278.703,-8.301,-32.715,-65.918,-3.418,235.840
1678025278.707,-5.859,-31.738,-63.965,-15.625,-41.992
1678025278.711,-42.969,-33.691,-64.453,-23.438,-178.711
1678025278.759,-55.176,-33.203,-62.500,-22.949,-109.863
1678025278.763,-27.344,-25.391,-56.152,-20.996,-108.887
1678025278.767,-13.672,-23.926,-53.711,-24.414,-115.234
1678025278.771,-18.066,-29.785,-56.641,-29.785,-125.488
1678025278.775,-46.387,-35.156,-58.105,-23.926,-94.727
1678025278.779,-62.500,-35.156,-53.223,-25.879,-47.852
1678025278.783,-40.527,-33.691,-49.805,-28.809,-41.016
1678025278.786,-11.230,-30.273,-51.270,-29.785,-135.254
1678025278.790,-17.578,-30.273,-55.664,-34.668,223.633
1678025278.794,-46.875,-33.203,-60.059,-34.180,422.852
1678025278.798,-55.176,-33.203,-60.547,-48.828,-26.367
1678025278.802,-46.875,-28.320,-58.594,-64.453,-161.621
1678025278.763,-28.809,-24.414,-55.664,-64.453,-163.086
1678025278.767,-15.625,-25.879,-52.734,-62.012,-224.121
1678025278.771,-41.016,-20.996,-52.246,-56.152,-198.730
1678025278.775,-60.059,-22.949,-54.199,-45.898,-113.281
1678025278.779,-41.016,-31.250,-57.617,-44.922,-91.797
1678025278.783,-17.578,-34.668,-60.547,-54.199,-142.090
1678025278.787,-2.441,-34.668,-57.129,-56.641,-82.031
1678025278.790,-25.879,-32.715,-54.199,-51.758,-10.742
1678025278.794,-48.340,-30.762,-59.082,-54.199,-80.078
1678025278.798,-39.062,-30.273,-59.570,-58.594,-138.672
1678025278.802,-12.695,-30.273,-58.594,-61.523,-74.219
1678025278.806,5.859,-29.297,-59.570,-69.336,-41.992
1678025278.803,-19.043,-29.785,-61.035,-79.590,-127.930
1678025278.807,-46.875,-29.785,-62.500,-81.055,-181.152
1678025278.811,-39.551,-30.273,-59.082,-81.055,-134.766
1678025278.815,-15.625,-26.855,-57.617,-84.961,-18.066
1678025278.819,-2.930,-25.879,-63.477,-90.820,-33.203
1678025278.823,-20.508,-26.367,-63.477,-93.262,-90.820
1678025278.827,-57.617,-28.809,-62.500,-104.004,-157.715
1678025278.830,-57.129,-32.227,-64.941,-97.168,132.812
1678025278.834,-24.902,-31.250,-59.570,-88.867,390.625
1678025278.838,2.930,-24.902,-58.105,-103.027,13.184
1678025278.842,-10.742,-25.391,-60.059,-105.469,-123.047
1678025278.846,-41.504,-28.320,-59.570,-103.516,158.691
1678025278.849,-40.527,-26.855,-59.570,-109.863,148.926
1678025278.853,-22.949,-29.785,-59.082,-119.141,-121.094
1678025278.857,-10.254,-30.762,-60.059,-121.094,-76.172
1678025278.861,-18.555,-27.344,-58.105,-118.652,-30.762
1678025278.865,-38.086,-23.926,-51.270,-115.234,-182.129
1678025278.869,-38.574,-24.902,-44.922,-98.633,-146.484
1678025278.873,-31.250,-27.832,-48.340,-90.820,121.094
1678025278.876,-19.531,-32.227,-53.711,-87.891,200.684
1678025278.880,-19.531,-32.227,-52.246,-92.773,-70.312
1678025278.884,-44.434,-26.855,-49.316,-95.703,-216.309
1678025278.888,-55.176,-30.762,-49.805,-98.145,-157.715
1678025278.892,-45.410,-35.156,-53.711,-110.352,-103.027
1678025278.893,-9.766,-30.762,-56.152,-123.047,-146.973
1678025278.897,8.789,-26.367,-58.105,-130.859,-132.812
1678025278.901,-32.227,-27.832,-65.430,-137.695,-81.543
1678025278.905,-65.430,-29.297,-70.801,-133.789,-29.297
1678025278.909,-40.039,-26.367,-65.918,-123.047,-81.055
1678025278.913,-9.766,-27.344,-61.523,-117.676,-80.078
1678025278.917,-13.184,-29.785,-66.406,-119.141,202.637
1678025278.920,-38.086,-28.809,-63.965,-121.582,289.062
1678025278.924,-59.082,-27.832,-54.688,-113.281,-124.512
1678025278.928,-41.992,-26.367,-52.734,-98.145,-214.355
1678025278.932,-9.277,-24.902,-57.129,-84.473,-85.938
1678025278.936,-13.184,-27.344,-60.547,-76.172,-187.012
1678025278.938,-49.316,-33.203,-58.594,-63.477,-200.684
1678025278.942,-66.406,-30.273,-59.082,-52.734,-125.000
1678025278.946,-56.152,-30.762,-62.500,-41.504,-83.496
1678025278.950,-26.855,-34.180,-58.105,-29.785,-164.062
1678025278.954,-6.348,-34.668,-62.012,-28.320,-195.312
1678025278.958,-21.973,-30.273,-64.453,-17.578,8.789
1678025278.962,-46.387,-29.785,-61.035,-2.441,130.371
1678025278.965,-45.898,-34.180,-62.500,-4.395,-18.555
1678025278.969,-23.438,-33.691,-62.500,-9.277,-100.586
1678025278.973,1.465,-33.203,-61.523,-16.602,30.762
1678025278.977,-3.418,-34.180,-61.035,-30.273,148.438
1678025278.981,-35.156,-35.645,-62.988,-37.109,-82.520
1678025278.998,-53.711,-36.133,-64.941,-40.039,-154.297
1678025279.002,-41.504,-34.180,-65.918,-55.176,-52.246
1678025279.006,-15.625,-29.785,-64.453,-71.777,-66.895
1678025279.010,-26.855,-27.832,-59.082,-76.172,-166.016
1678025279.014,-61.523,-27.344,-62.988,-67.871,-161.621
1678025279.018,-62.500,-29.785,-66.406,-55.176,-3.906
1678025279.022,-35.645,-29.297,-63.965,-50.781,49.316
1678025279.025,-8.789,-27.832,-64.453,-48.340,-11.230
1678025279.029,-20.996,-34.180,-65.918,-42.969,-35.156
1678025279.033,-42.480,-32.715,-65.918,-26.855,186.523
1678025279.037,-40.527,-25.879,-62.988,-12.207,264.648
1678025279.041,-24.902,-31.250,-65.430,-19.043,-49.316
1678025279.057,9.277,-29.297,-67.871,-23.438,-103.516
1678025279.061,16.113,-22.461,-70.801,-21.484,-48.340
1678025279.065,-0.977,-22.461,-70.801,-15.137,-82.520
1678025279.069,-12.207,-21.484,-71.289,-8.301,-86.426
1678025279.073,-8.301,-27.344,-71.777,-13.672,-54.199
1678025279.077,6.836,-27.344,-67.871,-10.742,-4.883
1678025279.081,9.766,-24.902,-69.824,-4.395,41.504
1678025279.084,-22.461,-32.227,-72.266,-9.766,-73.730
1678025279.088,-43.945,-32.715,-70.801,-19.531,1.465
1678025279.092,-33.203,-32.227,-71.289,-51.270,180.664
1678025279.096,-19.043,-32.227,-72.266,-93.750,-44.434
1678025279.100,-11.230,-33.691,-73.242,-140.625,-142.578
1678025279.088,-44.922,-35.645,-76.660,-177.246,28.320
1678025279.092,-62.012,-30.762,-73.242,-195.801,66.895
1678025279.096,-46.387,-28.320,-69.336,-216.309,-97.656
1678025279.100,-25.391,-29.297,-70.801,-226.074,-140.625
1678025279.104,-14.160,-26.367,-73.242,-239.258,-131.836
1678025279.108,-41.992,-27.832,-76.660,-243.652,-143.555
1678025279.112,-66.406,-25.879,-79.102,-217.773,-120.605
1678025279.115,-52.734,-24.414,-81.055,-184.570,-48.340
1678025279.119,-9.766,-23.926,-77.637,-159.180,-20.508
1678025279.123,8.301,-26.367,-82.031,-124.023,-101.074
1678025279.127,-27.344,-34.180,-90.820,-84.961,-139.648
1678025279.131,-58.105,-31.250,-92.285,-53.711,-104.492
1678025279.133,-44.434,-30.762,-90.332,-21.973,281.250
1678025279.137,-26.855,-36.133,-94.727,-15.625,259.277
1678025279.141,-18.555,-35.645,-97.168,-22.461,-147.949
1678025279.145,-28.320,-32.227,-96.680,-15.137,-30.273
1678025279.149,-48.828,-29.785,-102.539,-3.906,216.309
1678025279.153,-41.016,-28.809,-105.469,-7.324,135.742
1678025279.157,-19.043,-31.250,-105.957,-14.648,1.953
1678025279.160,-8.301,-29.297,-105.957,-4.395,82.031
1678025279.164,-31.738,-22.949,-102.539,5.371,264.648
1678025279.168,-55.176,-20.996,-99.609,9.277,-19.043
1678025279.172,-47.852,-25.391,-100.586,18.066,-207.520
1678025279.176,-23.438,-29.785,-101.562,15.625,-150.879
1678025279.179,0.488,-22.949,-103.516,17.090,-110.840
1678025279.183,0.000,-18.066,-104.004,24.902,-115.723
1678025279.187,-29.785,-31.738,-95.215,42.480,-39.062
1678025279.191,-56.641,-35.156,-88.867,45.898,41.504
1678025279.195,-39.551,-26.855,-89.355,34.668,-36.621
1678025279.199,-23.438,-26.367,-85.938,31.250,-87.402
1678025279.203,-39.062,-30.762,-86.914,31.250,-19.531
1678025279.206,-69.824,-38.086,-93.262,38.574,295.410
1678025279.210,-96.191,-36.621,-93.750,29.785,359.863
1678025279.214,-85.449,-35.156,-89.844,0.977,-11.230
1678025279.218,-60.547,-29.785,-83.984,-9.277,-94.727
1678025279.222,-75.195,-27.832,-92.285,-22.949,-77.637
1678025279.223,-122.070,-37.109,-101.074,-30.273,-110.352
1678025279.227,-138.672,-36.133,-102.051,-38.574,-156.738
1678025279.231,-134.766,-32.715,-101.074,-59.082,-129.395
1678025279.235,-132.324,-32.715,-99.121,-74.707,-81.543
1678025279.239,-145.996,-28.809,-101.562,-93.750,-119.141
1678025279.243,-178.711,-27.344,-105.957,-112.305,-45.410
1678025279.247,-198.730,-29.297,-110.352,-129.883,171.387
1678025279.250,-183.105,-31.250,-109.375,-122.559,371.582
1678025279.254,-153.320,-29.297,-105.957,-116.211,86.426
1678025279.258,-138.672,-21.484,-103.027,-122.559,-166.016
1678025279.262,-147.949,-15.137,-100.586,-110.352,-88.379
1678025279.266,-158.691,-21.973,-97.656,-92.773,-137.207
1678025279.268,-139.648,-29.297,-95.215,-86.914,-214.355
1678025279.272,-99.609,-28.809,-90.820,-78.125,-199.219
1678025279.276,-75.195,-28.320,-89.844,-66.895,-172.363
1678025279.280,-92.285,-33.203,-85.938,-53.223,-86.914
1678025279.284,-105.469,-29.297,-76.172,-32.715,-71.777
1678025279.288,-97.168,-25.879,-77.148,-19.531,-14.160
1678025279.292,-59.082,-27.344,-77.148,-6.836,170.410
1678025279.295,-28.809,-30.762,-72.266,14.648,70.801
1678025279.299,-46.875,-31.738,-67.383,25.391,-55.664
1678025279.303,-60.547,-31.738,-59.082,22.461,-20.508
1678025279.307,-41.992,-32.227,-58.105,24.902,204.590
1678025279.311,-14.160,-31.250,-62.988,30.762,246.582
1678025279.313,8.301,-33.691,-63.965,10.254,-77.148
1678025279.317,2.930,-32.227,-61.523,-23.438,-119.141
1678025279.321,-20.020,-31.250,-53.223,-45.410,-84.473
1678025279.325,-20.020,-27.832,-51.270,-70.312,-122.559
1678025279.329,0.977,-25.879,-48.828,-108.887,-187.500
1678025279.333,26.367,-28.320,-42.480,-125.977,21.484
1678025279.337,20.508,-26.367,-42.969,-121.094,162.598
1678025279.340,-14.160,-32.227,-41.016,-125.000,-85.938
1678025279.344,-19.043,-36.621,-37.598,-139.160,-165.039
1678025279.348,6.348,-35.156,-36.133,-159.668,112.305
1678025279.352,29.785,-33.691,-27.344,-167.480,207.520
1678025279.356,37.109,-30.762,-20.508,-158.691,-125.000
1678025279.373,11.719,-32.227,-16.602,-144.043,-208.008
1678025279.377,-7.324,-35.156,-12.695,-136.230,-157.715
1678025279.381,7.324,-37.109,-12.207,-127.930,-187.012
1678025279.385,29.297,-34.180,-10.254,-109.375,-234.863
1678025279.389,24.414,-32.715,-7.324,-87.402,-128.418
1678025279.393,-6.348,-32.715,-7.324,-77.637,-4.395
1678025279.397,-11.230,-28.809,-10.742,-80.078,-39.551
1678025279.400,11.719,-28.809,-12.207,-88.379,-26.367
1678025279.404,44.922,-33.203,-9.277,-90.332,-44.434
1678025279.408,49.316,-33.203,-7.812,-84.473,172.852
1678025279.412,16.602,-33.691,-8.789,-89.844,169.922
1678025279.416,3.418,-32.715,-5.859,-107.910,-186.523
1678025279.417,12.207,-33.203,-1.465,-125.000,-25.391
1678025279.421,35.645,-35.645,-4.883,-142.090,116.699
1678025279.425,50.781,-34.180,-9.277,-166.016,-121.094
1678025279.429,14.648,-40.039,-4.395,-189.941,-175.293
1678025279.433,-23.438,-42.969,-6.348,-210.449,-52.246
1678025279.437,-6.348,-38.086,-8.789,-235.840,61.523
1678025279.441,28.320,-35.645,-7.812,-256.348,42.969
1678025279.444,36.621,-32.715,-8.789,-274.414,-131.836
1678025279.448,8.789,-30.273,-10.742,-275.879,-14.648
1678025279.452,-23.926,-28.320,-11.230,-267.090,183.105
1678025279.456,-10.254,-23.926,-7.324,-267.578,-73.242
1678025279.460,22.461,-21.484,-6.836,-259.766,-199.707
1678025279.464,36.133,-26.367,-11.719,-226.562,-107.910
1678025279.468,18.555,-25.391,-14.160,-176.270,-107.910
1678025279.472,-19.531,-23.438,-11.719,-138.672,-72.754
1678025279.476,-19.043,-26.855,-9.766,-122.070,-59.570
1678025279.480,16.113,-25.391,-11.719,-96.680,-45.410
1678025279.484,32.227,-21.973,-14.648,-76.660,-7.324
1678025279.488,13.184,-20.020,-14.648,-71.777,-30.762
1678025279.491,-15.625,-24.414,-16.113,-76.660,-31.250
1678025279.495,-20.996,-27.832,-14.648,-62.012,253.418
1678025279.499,0.488,-28.809,-11.719,-26.367,289.062
1678025279.503,19.531,-29.785,-18.066,1.953,-104.980
1678025279.507,-2.441,-32.227,-20.020,33.691,-107.422
1678025279.507,-35.156,-38.086,-18.066,59.082,-42.969
1678025279.511,-34.668,-35.645,-19.531,73.242,-78.125
1678025279.515,-22.949,-35.156,-17.578,83.496,-130.859
1678025279.519,-0.488,-33.203,-16.602,99.609,-102.539
1678025279.523,-1.953,-29.297,-18.555,105.957,-89.355
1678025279.527,-31.738,-27.344,-20.020,112.305,-59.570
1678025279.531,-31.250,-25.879,-20.996,114.258,-61.035
1678025279.534,-13.672,-26.367,-21.973,104.980,-42.969
1678025279.538,1.953,-28.809,-25.879,119.629,259.277
1678025279.542,-1.465,-27.344,-27.832,127.441,100.098
1678025279.546,-34.180,-30.762,-27.344,114.746,-140.137
1678025279.550,-38.574,-28.809,-26.367,118.652,-70.312
1678025279.553,-13.184,-24.414,-23.438,122.070,-78.613
1678025279.557,7.812,-22.949,-22.949,114.258,-157.227
1678025279.561,9.766,-23.438,-20.996,107.422,-195.801
1678025279.565,-17.578,-22.461,-23.438,105.957,-109.863
1678025279.569,-35.156,-18.555,-24.414,111.328,-62.500
1678025279.573,-24.902,-19.531,-24.902,110.840,-52.246
1678025279.577,-1.465,-21.484,-22.949,108.887,-59.082
1678025279.580,5.371,-21.484,-21.973,113.281,187.012
1678025279.584,-22.461,-22.949,-22.461,120.605,285.156
1678025279.588,-41.504,-22.949,-22.949,112.305,-74.707
1678025279.592,-34.180,-25.391,-20.508,100.098,-180.664
1678025279.596,-11.719,-25.391,-17.090,100.098,-64.453
1678025279.598,0.488,-20.996,-22.461,96.191,-125.000
1678025279.602,-29.297,-22.461,-27.832,86.914,-166.016
1678025279.606,-51.758,-22.461,-21.484,86.426,-66.895
1678025279.610,-34.180,-21.484,-16.113,90.820,21.484
1678025279.614,-5.859,-23.438,-19.531,89.355,-28.809
1678025279.618,15.137,-19.531,-16.602,86.914,-37.598
1678025279.622,-4.883,-20.508,-16.113,85.449,120.117
1678025279.625,-42.480,-21.973,-18.066,82.520,124.023
1678025279.629,-34.668,-17.578,-15.137,79.102,-97.656
1678025279.633,-4.883,-16.602,-15.625,71.289,-69.336
1678025279.637,7.812,-17.578,-22.949,62.500,65.918
1678025279.641,-13.184,-15.625,-28.809,57.617,-47.363
1678025279.642,-36.621,-17.578,-25.391,56.152,-196.777
1678025279.646,-36.133,-17.578,-23.438,57.129,-176.270
1678025279.650,-20.020,-18.066,-29.297,49.805,-152.832
1678025279.654,-6.348,-21.973,-30.273,44.922,-123.535
1678025279.658,-23.926,-25.391,-24.414,51.758,-173.828
1678025279.662,-47.363,-26.367,-22.949,59.082,-81.055
1678025279.666,-48.828,-25.391,-21.973,56.641,205.078
1678025279.669,-27.344,-25.879,-20.020,52.246,113.770
1678025279.673,5.859,-24.902,-20.508,51.270,-195.801
1678025279.677,-7.324,-26.367,-20.020,44.922,-168.945
1678025279.681,-42.969,-28.320,-19.531,49.805,7.324
1678025279.685,-43.945,-25.391,-21.484,47.363,7.324
1678025279.689,-22.461,-21.973,-25.879,35.645,-126.953
1678025279.693,-4.395,-22.949,-25.391,36.621,-80.566
1678025279.697,-14.648,-24.414,-24.414,40.039,-1.953
1678025279.701,-42.969,-19.043,-23.926,35.645,-161.621
1678025279.705,-46.875,-20.020,-25.879,38.086,-207.520
1678025279.709,-23.438,-26.855,-32.227,39.551,23.926
1678025279.713,7.812,-19.531,-28.809,34.180,148.438
1678025279.716,23.926,-14.648,-24.414,20.996,-104.004
1678025279.720,0.977,-17.578,-30.273,7.324,-187.500
1678025279.724,-20.508,-17.578,-32.227,4.395,-51.270
1678025279.728,-2.930,-19.531,-32.227,-0.488,-28.809
1678025279.732,18.555,-21.484,-38.574,-8.789,-118.652
1678025279.748,4.395,-27.344,-41.992,-10.254,-153.320
1678025279.752,-29.785,-29.297,-40.527,-8.301,-100.098
1678025279.756,-41.504,-25.879,-36.621,-6.348,-21.484
1678025279.760,-24.414,-24.414,-36.133,-14.648,-134.277
1678025279.764,-0.977,-24.902,-37.598,-19.043,-185.059
1678025279.768,0.488,-30.762,-38.574,-27.832,106.934
1678025279.772,-31.250,-30.762,-41.504,-53.223,133.301
1678025279.775,-48.828,-26.367,-43.457,-61.035,-51.758
1678025279.779,-33.203,-28.320,-41.992,-58.105,-17.090
1678025279.783,-11.230,-30.273,-39.062,-52.734,203.125
1678025279.787,-9.766,-28.320,-40.039,-57.129,234.375
1678025279.791,-27.344,-25.391,-39.551,-69.824,-110.352
1678025279.793,-46.387,-26.855,-41.016,-66.406,-110.840
1678025279.797,-47.852,-22.949,-41.016,-71.289,-68.848
1678025279.801,-23.438,-16.113,-39.551,-75.684,-124.023
1678025279.805,0.488,-16.113,-46.875,-66.895,-178.223
1678025279.809,-13.672,-17.578,-51.270,-53.223,27.832
1678025279.813,-48.340,-20.996,-53.223,-41.016,229.492
1678025279.817,-52.734,-24.414,-60.059,-34.668,59.570
1678025279.820,-23.926,-25.879,-61.523,-35.156,-102.051
1678025279.824,-5.859,-26.855,-61.035,-22.949,18.555
1678025279.828,-21.973,-26.367,-66.406,-14.648,197.266
1678025279.832,-44.922,-28.320,-70.312,-23.926,-48.828
1678025279.836,-40.039,-34.668,-72.266,-40.527,-164.551
1678025279.837,-20.508,-34.668,-72.266,-56.152,-64.941
1678025279.841,-16.113,-28.809,-71.777,-61.523,-99.609
1678025279.845,-32.227,-26.855,-77.148,-69.336,-120.605
1678025279.849,-51.758,-29.785,-81.055,-79.590,-88.867
1678025279.853,-49.805,-29.785,-77.637,-83.984,-93.750
1678025279.857,-38.574,-28.809,-78.125,-88.379,-76.660
1678025279.861,-24.414,-28.320,-75.684,-89.844,-64.453
1678025279.864,-28.320,-31.738,-74.707,-89.355,-17.090
1678025279.868,-61.035,-36.133,-81.543,-83.984,258.301
1678025279.872,-56.641,-35.156,-83.496,-73.730,423.340
1678025279.876,-29.785,-40.039,-83.984,-90.820,36.133
1678025279.880,-16.602,-42.480,-86.426,-109.375,-159.668
1678025279.882,-12.695,-35.156,-80.566,-109.375,-120.117
1678025279.886,-33.691,-35.156,-79.102,-109.863,-138.672
1678025279.890,-41.016,-35.645,-78.125,-112.305,-159.668
1678025279.894,-30.762,-32.715,-68.848,-111.816,-145.020
1678025279.898,-14.160,-32.715,-64.941,-111.328,-93.262
1678025279.902,-11.719,-32.227,-62.500,-113.770,-40.527
1678025279.906,-36.621,-36.133,-62.012,-126.953,-5.859
1678025279.909,-41.504,-35.645,-63.477,-142.578,139.648
1678025279.913,-27.344,-32.227,-57.617,-158.691,164.062
1678025279.917,-8.301,-32.715,-58.594,-187.500,-68.848
1678025279.921,4.395,-30.273,-56.641,-203.613,-153.320
1678025279.925,-21.484,-33.691,-51.758,-202.637,-99.609
1678025279.928,-35.156,-36.133,-49.316,-193.359,-86.426
1678025279.932,-20.020,-35.645,-46.387,-192.383,-152.344
1678025279.936,-14.648,-35.156,-42.480,-194.336,-137.695
1678025279.940,-3.418,-33.691,-34.668,-187.500,-91.309
1678025279.944,-27.344,-35.156,-39.062,-178.223,-149.902
1678025279.948,-53.223,-36.133,-38.574,-167.480,-69.824
1678025279.952,-34.180,-32.227,-31.250,-143.555,-43.945
1678025279.955,-14.648,-32.227,-33.203,-119.141,229.004
1678025279.959,-9.766,-36.621,-34.180,-104.492,309.082
1678025279.963,-27.344,-37.109,-30.273,-93.750,-166.016
1678025279.967,-46.387,-39.551,-32.227,-63.965,-183.105
1678025279.971,-40.039,-38.574,-35.645,-35.156,-45.898
1678025279.972,-23.438,-37.598,-36.621,-30.762,-125.000
1678025279.976,-16.113,-34.668,-32.227,-29.297,-222.656
1678025279.980,-32.227,-34.668,-35.156,-17.578,-118.164
1678025279.984,-42.969,-33.203,-36.621,0.488,11.230
1678025279.988,-34.180,-30.273,-31.250,11.230,-134.766
1678025279.992,-22.949,-33.203,-30.762,19.531,-147.949
1678025279.996,-5.859,-27.344,-29.785,29.297,68.848
1678025279.999,-13.184,-24.902,-28.809,37.109,181.641
1678025280.003,-38.574,-27.344,-24.902,45.410,-89.355
1678025280.007,-40.527,-26.855,-20.996,52.246,-167.969
1678025280.011,-29.297,-28.809,-20.020,48.340,-55.664
1678025280.015,-22.949,-30.273,-24.414,37.109,-83.984
1678025280.019,-25.391,-30.273,-27.832,37.598,-131.348
1678025280.023,-50.293,-30.762,-26.855,39.062,-66.895
1678025280.027,-56.152,-28.320,-27.832,33.203,98.145
1678025280.031,-40.039,-32.715,-32.715,27.344,63.965
1678025280.035,-25.879,-33.203,-34.668,17.090,-88.379
1678025280.039,-28.320,-27.344,-32.715,10.254,-87.891
1678025280.043,-54.688,-30.273,-31.250,23.926,160.156
1678025280.046,-64.941,-34.668,-28.809,27.832,130.371
1678025280.050,-52.246,-32.715,-29.297,22.461,-45.410
1678025280.054,-30.762,-30.273,-30.273,17.578,-53.223
1678025280.058,-27.832,-33.203,-25.391,24.414,93.750
1678025280.062,-52.734,-32.227,-22.461,40.527,108.887
1678025280.062,-64.453,-34.668,-26.367,51.758,-64.941
1678025280.066,-43.945,-41.992,-26.855,49.805,-30.273
1678025280.070,-29.297,-38.574,-23.926,40.039,-18.555
1678025280.074,-30.762,-29.785,-23.438,40.039,-121.582
1678025280.078,-49.316,-31.250,-22.461,41.016,-56.641
1678025280.082,-62.988,-30.762,-23.438,43.945,108.398
1678025280.086,-47.852,-27.832,-23.926,40.527,339.355
1678025280.089,-23.438,-29.785,-26.855,17.578,141.113
1678025280.093,-14.160,-28.809,-25.879,0.977,-135.742
1678025280.097,-40.527,-23.438,-24.414,6.348,-100.586
1678025280.101,-63.965,-20.508,-23.926,6.836,-74.707
1678025280.105,-59.570,-23.926,-25.879,4.883,-112.793
1678025280.123,-40.527,-31.738,-26.367,0.488,-146.973
1678025280.127,-28.320,-31.738,-26.855,-6.348,-82.031
1678025280.131,-43.945,-29.785,-31.738,-6.348,-78.613
1678025280.135,-60.547,-30.762,-35.156,-2.441,-120.117
1678025280.139,-44.922,-32.715,-40.527,7.812,-62.012
1678025280.143,-17.090,-33.203,-40.527,6.348,43.457
1678025280.147,-4.395,-27.344,-41.504,7.324,62.988
1678025280.150,-23.926,-26.855,-41.504,8.789,27.344
1678025280.154,-55.176,-30.762,-38.574,10.742,44.434
1678025280.158,-44.434,-30.273,-39.551,26.367,312.500
1678025280.162,-14.648,-28.809,-37.109,27.344,270.508
1678025280.166,0.488,-29.297,-32.227,15.625,-56.641
1678025280.168,-13.184,-29.297,-29.785,10.742,-78.125
1678025280.172,-41.992,-31.738,-32.227,13.184,-32.227
1678025280.176,-44.434,-33.691,-34.668,9.277,-143.066
1678025280.180,-21.484,-31.250,-35.645,4.883,-217.285
1678025280.184,-3.906,-29.297,-35.645,4.395,-124.512
1678025280.188,-11.230,-28.320,-34.180,2.930,-53.711
1678025280.192,-35.156,-28.320,-35.156,1.465,-103.516
1678025280.195,-50.293,-30.273,-37.109,-0.488,-180.664
1678025280.199,-48.340,-36.621,-35.156,-3.418,59.082
1678025280.203,-27.832,-36.621,-32.227,6.348,291.992
1678025280.207,-17.578,-34.668,-28.809,6.836,4.883
1678025280.211,-51.758,-37.109,-28.320,-0.977,-172.363
1678025280.228,-65.430,-36.133,-23.926,3.418,-112.305
1678025280.232,-41.016,-32.715,-25.391,-0.488,-111.816
1678025280.236,-21.484,-33.691,-28.320,-8.301,-145.996
1678025280.240,-17.090,-35.645,-24.902,-11.719,-153.320
1678025280.244,-42.969,-30.273,-24.414,-7.812,-142.578
1678025280.248,-56.641,-28.320,-23.926,-1.465,-108.398
1678025280.252,-32.227,-31.738,-26.855,-8.301,-71.777
1678025280.255,1.953,-28.320,-30.762,-13.672,-4.883
1678025280.259,1.953,-27.832,-24.902,2.441,269.043
1678025280.263,-32.715,-30.273,-26.855,8.301,259.277
1678025280.267,-53.223,-30.273,-30.273,2.441,-73.730
1678025280.271,-41.992,-28.320,-27.344,-0.488,-87.891
1678025280.257,-5.371,-24.902,-28.320,-3.418,-50.781
1678025280.261,18.555,-26.367,-35.156,-4.395,-83.496
1678025280.265,-23.926,-28.320,-40.527,-16.113,-69.824
1678025280.269,-63.965,-29.297,-39.551,-27.832,-93.262
1678025280.273,-41.992,-28.809,-38.574,-29.297,-119.141
1678025280.277,8.301,-32.227,-41.504,-34.668,-72.266
1678025280.281,33.691,-28.320,-40.039,-36.133,-34.668
1678025280.284,-17.578,-27.344,-37.109,-46.875,-24.902
1678025280.288,-68.848,-30.762,-36.621,-72.754,-57.129
1678025280.292,-49.805,-26.855,-42.480,-89.355,-159.180
1678025280.296,-6.348,-27.832,-51.758,-109.375,-178.223
1678025280.300,24.414,-25.879,-49.805,-147.461,114.258
1678025280.304,0.488,-26.367,-47.852,-196.289,251.953
1678025280.308,-46.387,-27.832,-51.270,-235.840,-98.633
1678025280.312,-57.617,-25.879,-54.199,-281.250,-197.266
1678025280.316,-26.367,-23.438,-52.734,-300.781,-28.320
1678025280.320,6.348,-21.484,-54.688,-305.176,-15.625
1678025280.324,-10.742,-23.438,-57.617,-327.148,-26.367
1678025280.328,-57.129,-26.367,-62.988,-347.656,-51.270
1678025280.331,-63.965,-28.809,-67.383,-357.422,116.211
1678025280.335,-30.273,-29.297,-66.895,-355.957,265.137
1678025280.339,14.648,-24.414,-68.359,-343.750,-29.785
1678025280.343,9.766,-26.855,-72.754,-302.734,-91.309
1678025280.347,-58.594,-32.715,-74.707,-274.902,-36.621
1678025280.348,-78.613,-32.227,-76.660,-258.789,-210.938
1678025280.352,-37.598,-34.180,-81.055,-249.512,-208.008
1678025280.356,0.000,-36.133,-83.496,-255.371,-24.414
1678025280.360,-11.230,-37.109,-87.402,-270.020,70.801
1678025280.364,-59.082,-37.598,-91.309,-289.551,-47.363
1678025280.368,-63.965,-33.691,-85.938,-295.898,-111.328
1678025280.372,-33.203,-29.297,-84.473,-299.805,130.859
1678025280.375,2.441,-28.320,-90.332,-303.711,386.230
1678025280.379,-7.324,-33.203,-102.539,-328.613,155.273
1678025280.383,-70.312,-38.574,-110.840,-356.445,-82.520
1678025280.387,-90.332,-39.551,-110.840,-354.980,-106.445
1678025280.391,-54.199,-37.109,-111.328,-356.445,-147.461
1678025280.393,-3.906,-33.691,-116.699,-349.609,-115.723
1678025280.397,23.926,-33.691,-120.605,-331.543,-113.281
1678025280.401,-18.555,-32.715,-120.605,-307.617,-130.371
1678025280.405,-53.711,-29.297,-124.512,-268.555,-123.047
1678025280.409,-20.020,-30.762,-123.047,-212.891,-212.402
1678025280.413,31.250,-30.273,-125.488,-147.461,-153.809
1678025280.417,46.875,-27.344,-130.371,-69.824,155.762
1678025280.420,-12.207,-31.738,-129.883,-15.625,149.414
1678025280.424,-66.406,-32.227,-135.742,5.859,-148.438
1678025280.428,-60.059,-33.691,-142.090,35.156,-184.082
1678025280.432,-22.461,-37.598,-143.555,74.219,184.082
1678025280.436,8.789,-35.156,-141.113,96.680,208.984
1678025280.438,-33.203,-36.621,-133.301,93.750,-141.113
1678025280.442,-101.562,-41.016,-134.766,91.309,-132.812
1678025280.446,-87.402,-39.062,-139.160,99.121,-115.723
1678025280.450,-25.879,-32.227,-133.789,104.492,-175.781
1678025280.454,-0.488,-27.832,-131.836,101.562,-136.230
1678025280.458,-36.133,-25.879,-137.207,104.980,78.125
1678025280.462,-74.707,-24.902,-135.254,119.141,81.055
1678025280.465,-63.477,-27.832,-136.719,119.141,-125.488
1678025280.469,-20.996,-28.809,-138.672,115.234,-92.773
1678025280.473,16.113,-27.344,-138.184,128.906,166.016
1678025280.477,-9.766,-29.785,-138.672,135.254,217.285
1678025280.481,-62.012,-27.344,-137.695,121.094,-93.750
1678025280.498,-62.500,-25.391,-137.695,121.582,-123.047
1678025280.502,-25.391,-24.414,-139.648,130.371,-116.211
1678025280.506,7.324,-22.949,-142.090,130.371,-72.266
1678025280.510,-7.812,-24.414,-141.602,130.371,-59.082
1678025280.514,-56.152,-22.461,-136.230,128.418,-146.484
1678025280.518,-67.871,-23.438,-135.254,124.512,-103.516
1678025280.522,-40.039,-28.320,-137.207,121.094,-37.598
1678025280.525,-6.348,-31.738,-146.973,111.816,24.902
1678025280.529,-28.320,-34.180,-156.738,90.332,63.965
1678025280.533,-103.027,-33.203,-151.367,69.336,245.605
1678025280.537,-138.184,-25.879,-152.344,49.805,236.328
1678025280.541,-118.164,-21.973,-161.621,30.762,-142.578
1678025280.543,-90.332,-24.902,-173.340,3.906,-38.574
1678025280.547,-113.281,-28.809,-180.176,-17.578,59.082
1678025280.551,-187.988,-28.320,-187.500,-51.270,-141.113
1678025280.555,-245.605,-21.484,-196.289,-96.680,-233.398
1678025280.559,-247.070,-22.461,-200.684,-122.559,-118.652
1678025280.563,-205.566,-23.926,-206.543,-131.836,73.242
1678025280.567,-207.520,-27.832,-214.355,-141.602,37.598
1678025280.570,-262.695,-25.391,-215.820,-153.320,-159.180
1678025280.574,-294.922,-22.949,-207.520,-143.066,-68.359
1678025280.578,-270.508,-26.367,-199.219,-132.324,82.031
1678025280.582,-208.008,-23.438,-195.801,-137.207,-120.605
1678025280.586,-181.641,-22.461,-188.965,-125.488,-148.926
1678025280.588,-214.355,-28.809,-178.711,-110.840,-47.852
1678025280.592,-234.375,-29.785,-168.945,-105.957,-77.148
1678025280.596,-203.125,-24.902,-156.738,-93.750,-167.969
1678025280.600,-142.578,-29.297,-139.648,-70.801,-97.656
1678025280.604,-111.816,-31.250,-126.953,-52.734,21.973
1678025280.608,-134.277,-27.344,-123.047,-49.805,23.926
1678025280.612,-158.203,-26.855,-112.793,-39.551,-83.496
1678025280.615,-129.883,-26.367,-96.680,-19.043,-166.016
1678025280.619,-70.801,-25.391,-86.426,2.930,195.312
1678025280.623,-16.113,-22.949,-75.684,29.785,305.176
1678025280.627,-19.043,-23.438,-64.453,26.855,-41.504
1678025280.631,-49.316,-26.367,-60.547,23.926,-115.723
1678025280.634,-24.902,-22.949,-56.152,42.480,-142.578
1678025280.638,37.598,-25.391,-48.340,58.105,-181.152
1678025280.642,78.125,-27.832,-42.969,62.012,-95.215
1678025280.646,61.523,-25.391,-35.645,62.988,77.148
1678025280.650,19.043,-26.855,-30.762,64.941,34.668
1678025280.654,7.812,-32.227,-28.809,58.594,-125.488
1678025280.658,45.898,-33.203,-20.996,62.012,-110.840
1678025280.661,81.543,-31.250,-15.137,70.312,137.207
1678025280.665,58.594,-36.133,-11.230,72.266,205.078
1678025280.669,12.695,-37.109,-6.348,64.453,-110.352
1678025280.673,6.348,-34.668,1.465,63.477,-192.871
1678025280.677,40.527,-38.086,4.395,80.078,-124.512
1678025280.678,82.520,-41.504,6.836,96.191,-46.387
1678025280.682,68.848,-44.434,8.789,100.586,-42.480
1678025280.686,3.418,-44.434,10.742,94.727,-21.484
1678025280.690,-12.695,-39.062,16.602,94.727,-0.977
1678025280.694,23.926,-40.039,16.113,91.797,-59.082
1678025280.698,62.012,-41.504,14.648,90.820,13.672
1678025280.702,65.430,-35.156,15.625,91.309,101.074
1678025280.705,16.602,-34.180,17.578,90.820,269.043
1678025280.709,1.953,-35.156,19.043,87.402,165.527
1678025280.713,50.293,-29.297,20.996,83.984,-60.059
1678025280.717,101.562,-24.902,24.414,97.168,-96.191
1678025280.721,104.492,-27.344,26.367,104.980,190.430
1678025280.738,56.641,-28.320,22.949,95.703,177.734
1678025280.742,37.598,-24.414,20.996,85.938,-197.266
1678025280.746,62.988,-24.414,22.461,95.703,-153.320
1678025280.750,103.027,-27.344,20.508,96.191,-91.309
1678025280.754,104.492,-27.344,20.508,92.285,-79.102
1678025280.758,43.945,-28.809,24.414,83.008,-80.566
1678025280.762,0.977,-32.227,23.438,74.707,-0.977
1678025280.765,11.719,-33.203,22.461,82.520,250.488
1678025280.769,64.453,-30.273,22.461,88.379,135.254
1678025280.773,93.750,-29.297,27.344,84.473,-42.480
1678025280.777,40.039,-28.809,28.809,67.383,-36.621
1678025280.781,-15.625,-27.344,26.855,67.383,-144.531
1678025280.770,0.488,-31.738,25.391,68.359,-165.039
1678025280.774,52.246,-29.297,26.367,70.801,-86.426
1678025280.778,76.660,-21.973,29.297,79.590,-36.621
1678025280.782,33.203,-23.438,31.250,72.266,-59.082
1678025280.786,-12.207,-26.855,30.273,64.941,-149.902
1678025280.790,0.488,-32.227,25.391,57.617,-147.949
1678025280.794,44.922,-32.715,22.461,54.688,-100.098
1678025280.797,63.965,-31.738,21.484,43.945,-49.805
1678025280.801,26.367,-30.273,21.973,36.133,-40.527
1678025280.805,-18.555,-32.227,16.113,29.297,-94.727
1678025280.809,-9.277,-34.180,11.719,26.367,77.637
1678025280.813,38.086,-30.762,8.789,26.855,44.922
1678025280.813,76.660,-23.438,7.812,31.250,-108.398
1678025280.817,60.547,-21.973,12.207,30.273,-3.906
1678025280.821,3.906,-28.320,13.672,24.414,142.578
1678025280.825,-10.742,-29.785,10.254,19.043,-13.184
1678025280.829,21.484,-27.344,9.277,23.926,-166.992
1678025280.833,55.176,-29.297,9.766,32.227,62.012
1678025280.837,37.109,-27.344,15.137,32.715,387.207
1678025280.840,-17.578,-27.344,15.625,26.855,112.305
1678025280.844,-31.250,-32.227,7.812,17.578,-216.309
1678025280.848,9.766,-24.902,6.348,15.137,-188.965
1678025280.852,58.105,-19.531,7.812,8.789,-145.508
1678025280.856,42.480,-23.438,-0.488,-6.836,-136.719
1678025280.861,-17.090,-21.973,-5.371,-24.902,-130.859
1678025280.865,-40.527,-23.438,-1.465,-40.039,-71.289
1678025280.869,-20.508,-27.832,-3.906,-45.410,-69.336
1678025280.873,28.809,-27.832,-5.371,-36.621,-92.773
1678025280.877,33.203,-27.344,-5.859,-39.551,-69.336
1678025280.881,-18.555,-26.855,-5.859,-45.410,-10.742
1678025280.885,-45.898,-22.461,-5.371,-40.527,-48.828
1678025280.888,-13.672,-21.973,-4.883,-40.527,-114.746
1678025280.892,34.668,-22.949,-3.418,-35.645,-89.844
1678025280.896,45.410,-22.949,-5.371,-31.738,111.328
1678025280.900,-9.766,-21.973,-14.648,-37.598,53.711
1678025280.904,-50.781,-18.066,-15.625,-43.457,-212.891
1678025280.919,-22.949,-18.555,-13.184,-41.992,-95.215
1678025280.923,22.949,-19.043,-11.230,-43.945,61.523
1678025280.927,32.715,-17.090,-12.695,-47.363,61.035
1678025280.931,-26.367,-20.996,-16.602,-62.988,-28.320
1678025280.935,-76.172,-25.879,-23.926,-77.148,-58.105
1678025280.939,-63.477,-28.320,-32.227,-69.336,329.590
1678025280.943,-20.508,-31.738,-32.715,-66.406,317.383
1678025280.946,4.395,-32.715,-32.715,-70.801,-90.332
1678025280.950,-33.203,-34.180,-32.227,-58.594,-14.648
1678025280.954,-81.543,-37.109,-34.180,-55.176,-31.738
1678025280.958,-75.195,-35.156,-41.992,-47.363,-211.914
1678025280.962,-36.133,-34.668,-44.922,-29.785,-151.367
1678025280.963,-4.395,-34.180,-46.387,-22.461,-104.004
1678025280.967,-26.855,-30.762,-45.898,-21.973,-149.414
1678025280.971,-83.984,-29.297,-48.828,-30.273,-230.957
1678025280.975,-74.219,-29.297,-53.223,-21.973,-198.730
1678025280.979,-21.484,-28.320,-46.387,-3.906,-125.977
1678025280.983,7.812,-29.785,-50.293,2.441,36.133
1678025280.987,-11.719,-34.180,-54.688,7.324,10.742
1678025280.990,-62.012,-35.156,-52.246,3.906,-84.473
1678025280.994,-70.312,-30.273,-51.758,13.672,168.945
1678025280.998,-31.738,-26.855,-52.734,24.414,349.609
1678025281.002,4.395,-28.320,-57.617,15.625,75.684
1678025281.006,-14.648,-25.879,-63.965,5.371,-119.629
1678025281.008,-64.453,-25.879,-64.453,-12.695,-117.676
1678025281.012,-69.824,-30.273,-61.035,-25.391,-207.520
1678025281.016,-37.598,-26.855,-63.477,-22.949,-191.406
1678025281.020,-8.301,-20.020,-63.965,-13.672,-70.801
1678025281.024,-17.578,-24.414,-61.523,-9.277,-11.719
1678025281.028,-68.359,-27.832,-67.871,-18.555,-48.340
1678025281.032,-80.566,-26.855,-70.801,-19.531,-104.980
1678025281.035,-43.945,-28.320,-72.754,-17.090,80.566
1678025281.039,-2.930,-27.832,-76.172,-4.883,307.129
1678025281.043,5.859,-22.949,-73.730,-2.441,90.332
1678025281.047,-48.828,-21.484,-73.242,-14.648,-168.457
1678025281.051,-75.684,-20.508,-80.566,-21.484,-191.406
1678025281.053,-32.715,-20.020,-82.520,-20.508,-102.539
1678025281.057,8.301,-23.926,-82.031,-17.090,-42.969
1678025281.061,5.371,-26.367,-87.891,-14.648,-61.035
1678025281.065,-47.852,-25.391,-88.379,-20.020,-83.984
1678025281.069,-79.102,-24.902,-83.496,-22.949,-143.555
1678025281.073,-59.570,-25.879,-79.590,-19.531,-59.082
1678025281.077,-18.066,-27.344,-83.496,-12.207,56.152
1678025281.080,1.953,-25.391,-85.449,-7.812,255.859
1678025281.084,-40.039,-22.949,-82.031,-19.531,290.039
1678025281.088,-70.312,-26.855,-89.844,-29.297,-104.980
1678025281.092,-42.480,-25.879,-91.309,-30.273,-160.645
1678025281.096,15.137,-21.973,-82.520,-17.578,-22.949
1678025281.098,41.992,-20.020,-85.938,-10.254,-48.828
1678025281.102,-2.930,-21.484,-91.309,-24.902,-142.090
1678025281.106,-46.387,-22.461,-99.609,-33.203,-134.766
1678025281.110,-37.598,-20.020,-103.027,-29.785,-128.906
1678025281.114,-10.254,-22.949,-98.145,-20.020,-101.074
1678025281.118,3.906,-25.391,-96.680,-19.043,-20.996
1678025281.122,-32.715,-26.367,-95.703,-20.020,165.527
1678025281.125,-86.426,-27.344,-93.750,-14.160,209.473
1678025281.129,-82.520,-29.297,-94.238,-19.043,-90.820
1678025281.133,-34.668,-31.250,-98.633,-19.531,-142.578
1678025281.137,0.488,-30.273,-99.121,-14.160,-64.941
1678025281.141,-25.391,-29.785,-94.727,-16.602,-66.895
1678025281.143,-76.172,-31.738,-96.680,-25.391,-97.656
1678025281.147,-79.102,-35.156,-101.562,-33.691,-208.984
1678025281.151,-40.039,-36.133,-103.027,-35.645,-44.434
1678025281.155,-3.906,-30.762,-104.980,-26.855,41.504
1678025281.159,-20.020,-26.855,-106.445,-23.438,-93.750
1678025281.163,-71.289,-26.855,-109.863,-30.762,-174.805
1678025281.167,-80.078,-27.344,-110.352,-19.531,118.164
1678025281.170,-42.480,-31.250,-109.863,-10.254,268.066
1678025281.174,3.418,-28.320,-111.816,-13.184,-15.625
1678025281.178,-0.488,-23.926,-109.375,-12.695,-75.195
1678025281.182,-60.547,-24.414,-110.840,-14.648,-0.977
1678025281.186,-76.172,-25.391,-111.816,-28.809,-86.426
1678025281.189,-41.016,-25.879,-114.258,-34.668,-186.035
1678025281.193,-4.395,-25.391,-114.746,-24.414,-45.410
1678025281.197,-6.836,-28.809,-118.652,-27.344,31.738
1678025281.201,-59.082,-30.273,-121.582,-45.898,-76.172
1678025281.205,-83.496,-26.367,-119.629,-54.199,-135.742
1678025281.209,-51.270,-25.879,-121.582,-39.062,48.340
1678025281.213,-6.348,-28.809,-121.582,-18.555,257.812
1678025281.216,-3.906,-24.902,-118.652,-21.484,15.137
1678025281.220,-56.641,-28.809,-119.141,-41.504,-208.008
1678025281.224,-81.543,-35.156,-122.070,-36.621,-116.211
1678025281.228,-48.828,-32.227,-123.535,-29.785,-74.219
1678025281.232,-8.789,-29.785,-121.582,-38.086,-148.926
1678025281.247,5.859,-28.809,-123.047,-33.691,-131.348
1678025281.251,-46.387,-30.273,-127.441,-41.504,-143.555
1678025281.255,-88.867,-32.715,-125.977,-51.270,-173.340
1678025281.259,-61.523,-28.320,-122.559,-43.945,-220.215
1678025281.263,-8.789,-27.832,-121.094,-32.715,-131.836
1678025281.267,11.719,-28.809,-117.188,-21.973,285.645
1678025281.271,-38.574,-28.320,-109.375,-30.762,271.484
1678025281.274,-82.520,-26.855,-106.934,-48.828,-48.340
1678025281.278,-63.965,-29.785,-107.422,-50.293,-123.535
1678025281.282,-16.602,-34.668,-103.027,-42.480,48.828
1678025281.286,6.348,-34.668,-95.215,-34.180,42.480
1678025281.290,-37.109,-31.738,-90.820,-40.039,-191.895
1678025281.293,-84.473,-27.344,-83.984,-45.410,-173.828
1678025281.297,-75.195,-26.367,-79.102,-44.434,-162.109
1678025281.301,-28.809,-30.273,-71.777,-35.156,-136.230
1678025281.305,0.488,-30.273,-70.312,-30.762,-111.328
1678025281.309,-31.738,-36.621,-72.266,-38.574,-75.684
1678025281.313,-76.172,-41.992,-63.965,-37.109,-132.324
1678025281.317,-68.359,-33.691,-53.223,-33.203,-116.699
1678025281.320,-30.762,-28.320,-49.316,-22.949,-25.391
1678025281.324,-8.301,-32.227,-45.898,-2.441,83.496
1678025281.328,-24.902,-31.738,-47.852,-0.488,266.113
1678025281.332,-73.730,-30.762,-50.293,-22.949,46.387
1678025281.336,-80.566,-31.738,-46.387,-27.832,-177.734
1678025281.338,-33.691,-31.250,-48.340,-22.461,-139.160
1678025281.342,12.207,-33.691,-49.316,-20.508,-105.957
1678025281.346,2.930,-32.715,-51.758,-19.531,-69.824
1678025281.350,-52.246,-34.180,-46.875,-17.090,-63.965
1678025281.354,-63.477,-32.715,-42.480,-10.254,-81.543
1678025281.358,-24.414,-30.273,-44.922,-5.371,5.371
1678025281.362,20.996,-29.785,-42.969,5.371,119.629
1678025281.365,10.742,-24.902,-42.480,4.395,42.480
1678025281.369,-54.199,-30.273,-44.434,-4.395,154.785
1678025281.373,-73.730,-35.156,-48.828,-3.906,332.031
1678025281.377,-37.109,-30.762,-51.270,-9.766,-29.297
1678025281.381,9.277,-29.297,-45.410,-1.953,-135.742
1678025281.383,3.906,-31.738,-49.316,-1.465,55.664
1678025281.387,-58.594,-37.598,-49.316,-20.020,-110.840
1678025281.391,-81.543,-36.133,-46.875,-26.367,-238.281
1678025281.395,-55.664,-32.715,-50.781,-27.344,-142.090
1678025281.399,-12.695,-38.574,-53.711,-31.738,-46.387
1678025281.403,7.812,-39.062,-55.176,-26.367,20.020
1678025281.407,-36.133,-38.574,-54.688,-33.691,-66.406
1678025281.410,-68.848,-38.086,-51.270,-35.156,-57.129
1678025281.414,-42.969,-32.715,-51.270,-30.762,63.965
1678025281.418,10.254,-29.297,-44.922,-27.832,-73.242
1678025281.422,36.621,-24.902,-42.969,-21.484,-93.750
1678025281.426,-20.020,-26.855,-50.293,-34.180,-18.555
1678025281.428,-72.266,-29.297,-52.734,-42.480,-116.211
1678025281.432,-52.246,-24.902,-47.363,-38.574,-133.301
1678025281.436,-3.418,-25.391,-43.945,-23.438,-100.586
1678025281.440,18.066,-27.832,-44.434,-11.230,-59.570
1678025281.444,-27.832,-31.250,-41.992,-18.066,-30.762
1678025281.448,-75.195,-36.621,-41.504,-35.156,-93.750
1678025281.452,-67.871,-38.574,-45.410,-35.645,-101.562
1678025281.455,-20.996,-35.156,-46.387,-21.484,174.805
1678025281.459,19.531,-24.902,-40.039,-9.766,329.590
1678025281.463,-13.672,-25.391,-36.133,-18.555,7.324
1678025281.467,-69.824,-30.273,-39.551,-40.527,-112.793
1678025281.471,-61.523,-27.344,-43.457,-41.992,-147.461
1678025281.474,-23.926,-30.762,-47.363,-31.250,-149.414
1678025281.478,-0.488,-33.203,-54.688,-27.344,-104.492
1678025281.482,-24.414,-31.738,-56.152,-26.367,-1.465
1678025281.486,-84.961,-32.227,-57.129,-34.180,-48.828
1678025281.490,-83.008,-28.320,-57.617,-35.645,-224.121
1678025281.494,-32.227,-29.297,-55.664,-29.785,-134.766
1678025281.498,6.836,-27.832,-56.152,-21.484,144.531
1678025281.501,-5.859,-27.832,-57.129,-12.207,267.090
1678025281.505,-59.082,-29.297,-57.617,-23.926,-21.484
1678025281.509,-73.730,-26.367,-60.059,-30.273,-196.777
1678025281.513,-35.645,-25.391,-62.500,-22.949,-138.672
1678025281.517,9.277,-24.902,-63.965,-15.137,-89.844
1678025281.518,-2.441,-23.438,-64.941,-18.555,-120.605
1678025281.522,-63.965,-27.832,-70.312,-38.574,-186.523
1678025281.526,-77.637,-29.297,-74.707,-45.898,-125.488
1678025281.530,-31.250,-21.484,-66.895,-32.715,-27.832
1678025281.534,8.301,-19.531,-64.941,-25.391,30.273
1678025281.538,3.906,-23.438,-71.289,-25.391,75.195
1678025281.542,-49.805,-28.320,-74.707,-34.180,280.762
1678025281.545,-77.637,-27.832,-77.148,-38.086,273.926
1678025281.549,-48.340,-24.414,-73.242,-36.621,-76.660
1678025281.553,-2.441,-24.902,-63.965,-32.227,-8.301
1678025281.557,7.812,-28.809,-66.406,-28.320,114.746
1678025281.561,-44.922,-27.832,-71.777,-35.645,-85.449
1678025281.563,-85.938,-29.785,-72.266,-34.668,-196.777
1678025281.567,-59.082,-32.227,-67.871,-24.902,-126.953
1678025281.571,-3.418,-30.762,-68.359,-19.531,-45.410
1678025281.575,16.602,-34.668,-70.801,-19.043,-74.707
1678025281.579,-36.621,-33.203,-74.707,-29.785,-100.098
1678025281.583,-79.102,-30.762,-76.172,-41.016,40.039
1678025281.587,-51.270,-32.227,-76.172,-45.410,96.191
1678025281.590,-9.766,-31.738,-76.660,-43.457,29.297
1678025281.594,5.371,-29.785,-79.102,-33.203,-9.277
1678025281.598,-29.297,-26.855,-82.520,-30.273,68.359
1678025281.602,-71.777,-24.414,-83.496,-30.273,167.969
1678025281.606,-58.594,-29.785,-83.496,-41.992,-57.129
1678025281.623,-17.090,-33.691,-84.961,-40.039,-89.355
1678025281.627,5.371,-31.250,-91.309,-37.109,44.434
1678025281.631,-31.250,-31.738,-92.773,-46.387,51.758
1678025281.635,-91.309,-35.156,-94.238,-60.547,-135.742
1678025281.639,-85.938,-31.250,-96.680,-60.547,-215.332
1678025281.643,-34.180,-28.320,-98.145,-53.223,-41.016
1678025281.647,-4.395,-30.762,-99.609,-50.781,86.914
1678025281.650,-27.832,-26.855,-96.191,-57.129,53.711
1678025281.654,-78.613,-23.438,-95.703,-70.312,-51.758
1678025281.658,-82.520,-25.391,-101.074,-67.871,109.375
1678025281.662,-49.316,-23.926,-104.980,-55.176,266.113
1678025281.666,-19.043,-25.391,-96.680,-53.711,-17.578
1678025281.667,-35.645,-30.762,-102.539,-61.035,-120.117
1678025281.671,-93.750,-30.762,-109.863,-73.242,-79.102
1678025281.675,-121.094,-32.715,-108.398,-94.238,-152.832
1678025281.679,-93.750,-25.879,-119.141,-99.609,-187.988
1678025281.683,-70.312,-21.484,-120.117,-111.816,-76.660
1678025281.687,-109.863,-23.438,-125.977,-141.113,50.293
1678025281.691,-181.641,-20.508,-151.855,-166.016,-59.570
1678025281.694,-216.797,-17.578,-166.016,-195.801,-248.047
1678025281.698,-211.914,-23.926,-172.852,-219.727,-52.734
1678025281.702,-214.355,-36.133,-188.965,-237.793,172.852
1678025281.706,-243.164,-33.203,-198.730,-268.066,-50.781
1678025281.710,-310.547,-30.762,-210.449,-304.688,-171.387
1678025281.713,-345.703,-28.320,-214.844,-312.500,-74.219
1678025281.717,-319.824,-24.414,-217.285,-307.129,-48.828
1678025281.721,-269.043,-26.367,-221.680,-291.992,-76.660
1678025281.725,-246.582,-23.926,-216.309,-270.020,-83.496
1678025281.729,-295.410,-19.043,-212.891,-271.973,-154.785
1678025281.733,-310.547,-20.020,-208.984,-257.324,-127.441
1678025281.737,-259.277,-17.578,-202.148,-227.539,2.930
1678025281.740,-188.965,-15.137,-196.289,-204.102,6.836
1678025281.744,-151.367,-20.020,-189.941,-176.758,223.633
1678025281.748,-180.176,-18.066,-185.547,-166.992,273.438
1678025281.752,-188.965,-19.043,-181.152,-165.527,-138.184
1678025281.756,-144.531,-20.996,-176.270,-137.207,-220.703
1678025281.758,-83.984,-19.531,-173.828,-111.328,-38.086
1678025281.762,-42.480,-19.043,-169.434,-95.215,62.500
1678025281.766,-64.453,-21.484,-159.668,-78.125,-63.965
1678025281.770,-92.285,-21.973,-154.785,-74.707,-51.758
1678025281.774,-70.312,-23.926,-149.414,-61.523,-1.953
1678025281.778,-0.488,-26.855,-137.207,-37.598,-27.832
1678025281.782,49.316,-25.391,-130.371,-16.113,54.199
1678025281.785,20.508,-30.762,-127.930,-20.020,137.695
1678025281.789,-15.625,-29.297,-120.117,-20.020,188.965
1678025281.793,-1.953,-27.832,-115.234,-16.602,-72.266
1678025281.797,34.668,-28.320,-108.398,-6.836,-206.055
1678025281.801,65.430,-27.344,-101.074,16.113,-70.312
1678025281.803,45.410,-26.855,-96.191,23.926,-52.246
1678025281.807,-5.859,-27.344,-93.262,27.344,-134.766
1678025281.811,-0.488,-30.273,-89.355,36.133,-75.684
1678025281.815,49.316,-34.180,-85.449,42.480,32.715
1678025281.819,81.055,-35.645,-82.520,54.688,25.879
1678025281.823,58.594,-33.203,-75.684,54.199,37.109
1678025281.827,9.277,-31.738,-73.730,42.480,-48.340
1678025281.830,9.277,-31.250,-75.684,46.875,137.695
1678025281.834,58.594,-33.203,-73.242,62.500,324.219
1678025281.838,101.074,-37.598,-74.219,76.660,3.906
1678025281.842,77.637,-40.527,-76.660,67.871,-123.047
1678025281.846,15.137,-40.527,-72.266,55.176,-176.270
1678025281.848,1.465,-39.551,-71.777,56.641,-223.145
1678025281.852,43.945,-39.551,-73.242,66.406,-239.746
1678025281.856,89.844,-39.062,-68.359,72.266,-94.727
1678025281.860,80.078,-36.133,-64.941,64.941,23.438
1678025281.864,18.555,-31.250,-63.965,53.223,-135.254
1678025281.868,5.859,-28.809,-61.035,51.758,-187.500
1678025281.872,44.434,-30.762,-64.453,60.059,104.004
1678025281.875,84.961,-33.203,-70.801,70.801,416.504
1678025281.879,89.355,-30.762,-66.895,61.035,121.582
1678025281.883,29.297,-26.855,-59.570,39.551,-141.602
1678025281.887,-10.742,-26.855,-57.617,41.016,-107.910
1678025281.891,22.461,-27.344,-62.500,52.246,-122.559
1678025281.908,80.078,-26.855,-62.988,57.617,-89.844
1678025281.912,85.938,-29.785,-63.965,60.547,-3.906
1678025281.916,29.297,-27.832,-65.430,54.688,-66.895
1678025281.920,-5.371,-26.367,-63.477,45.898,-160.645
1678025281.924,7.324,-29.785,-59.082,53.223,-182.129
1678025281.928,47.852,-29.297,-54.688,60.059,-120.117
1678025281.932,68.359,-27.344,-52.246,62.988,243.652
1678025281.935,11.719,-27.832,-52.246,56.641,351.562
1678025281.939,-35.156,-31.738,-56.152,40.527,-27.832
1678025281.943,-5.859,-32.715,-60.059,35.156,-184.082
1678025281.947,50.781,-30.762,-61.035,48.828,85.938
1678025281.951,68.359,-28.809,-60.059,45.898,79.102
1678025281.938,16.602,-25.391,-54.199,26.855,-179.199
1678025281.942,-33.203,-33.691,-54.688,17.090,-105.957
1678025281.946,-11.719,-33.203,-55.664,20.996,-101.074
1678025281.950,35.156,-25.391,-52.734,25.879,-107.422
1678025281.954,58.594,-25.879,-56.152,21.973,-87.402
1678025281.958,17.578,-25.879,-52.246,9.766,37.598
1678025281.962,-43.457,-25.879,-46.387,3.418,73.242
1678025281.965,-37.109,-23.438,-46.387,9.277,-99.121
1678025281.969,2.441,-25.879,-46.387,6.836,-144.531
1678025281.973,31.250,-27.832,-44.434,17.090,82.520
1678025281.977,4.883,-27.344,-42.480,13.184,316.406
1678025281.981,-49.316,-31.738,-37.109,-14.648,-66.406
1678025281.998,-42.969,-28.809,-30.762,-17.578,-266.113
1678025282.002,7.812,-23.438,-27.344,-14.648,-71.289
1678025282.006,36.621,-26.367,-23.926,-7.324,-59.082
1678025282.010,19.531,-25.391,-19.531,-0.977,-115.723
1678025282.014,-27.832,-22.949,-19.043,-11.230,-184.082
1678025282.018,-38.086,-25.879,-20.020,-12.695,-156.250
1678025282.022,-7.324,-27.344,-22.461,-4.883,-47.363
1678025282.025,23.926,-28.320,-25.879,-5.371,9.766
1678025282.029,15.137,-33.203,-26.855,-15.625,-31.250
1678025282.033,-41.992,-37.109,-23.438,-14.648,117.676
1678025282.037,-70.801,-31.738,-20.508,-7.324,177.734
1678025282.041,-34.668,-32.227,-19.531,-7.812,-161.621
1678025282.042,18.555,-33.691,-18.066,3.906,-48.828
1678025282.046,20.020,-30.762,-19.043,4.883,128.418
1678025282.050,-40.527,-30.273,-20.020,-3.906,-61.035
1678025282.054,-72.266,-27.344,-22.949,-12.695,-163.574
1678025282.058,-32.227,-25.879,-21.484,-6.348,-106.934
1678025282.062,25.879,-20.508,-21.484,11.230,27.832
1678025282.066,25.391,-19.531,-27.344,4.883,55.176
1678025282.069,-31.738,-18.555,-30.273,-16.602,-153.809
1678025282.073,-72.754,-17.578,-28.809,-28.320,-105.469
1678025282.077,-49.316,-26.367,-29.785,-22.461,152.344
1678025282.081,3.906,-29.785,-30.762,-23.438,-25.391
1678025282.085,20.508,-27.344,-31.250,-27.832,-123.047
1678025282.088,-29.785,-23.926,-31.250,-28.809,-61.523
1678025282.092,-72.754,-24.902,-32.715,-38.574,-110.352
1678025282.096,-52.734,-31.738,-35.156,-35.156,-107.422
1678025282.100,-5.371,-30.762,-38.574,-28.320,-39.551
1678025282.104,18.066,-27.832,-42.969,-31.738,30.273
1678025282.108,-24.902,-34.180,-45.898,-43.945,5.371
1678025282.112,-78.125,-36.133,-42.480,-45.898,-145.020
1678025282.115,-67.871,-29.297,-39.551,-37.109,-129.395
1678025282.119,-20.020,-30.273,-42.480,-19.043,239.258
1678025282.123,7.324,-36.133,-47.363,-7.324,337.402
1678025282.127,-18.066,-38.574,-49.316,-16.602,-33.691
1678025282.131,-64.453,-40.039,-47.852,-22.949,-135.254
1678025282.133,-60.059,-35.156,-48.340,-26.855,-117.676
1678025282.137,-10.742,-25.879,-50.781,-17.090,-89.844
1678025282.141,25.879,-28.320,-49.316,-13.184,-84.961
1678025282.145,-3.418,-27.344,-53.223,-20.996,-139.648
1678025282.149,-64.941,-23.926,-56.641,-31.738,-153.809
1678025282.153,-72.754,-27.832,-56.641,-36.133,-153.320
1678025282.157,-41.016,-32.715,-60.547,-33.203,-116.699
1678025282.160,-2.441,-34.180,-58.105,-29.297,119.629
1678025282.164,-20.508,-32.227,-61.523,-30.273,374.023
1678025282.168,-80.078,-33.203,-66.406,-47.363,31.738
1678025282.172,-85.938,-30.273,-58.105,-44.434,-288.086
1678025282.176,-35.645,-24.414,-55.664,-27.832,-189.453
1678025282.177,10.742,-28.809,-60.059,-23.926,-91.797
1678025282.181,1.465,-29.785,-61.035,-22.461,-123.535
1678025282.185,-51.758,-22.461,-58.105,-25.391,-174.316
1678025282.189,-66.895,-21.973,-59.082,-29.785,-162.109
1678025282.193,-42.969,-22.949,-60.059,-25.391,-124.512
1678025282.197,-7.324,-20.020,-62.500,-20.996,6.348
1678025282.201,-4.883,-21.973,-66.406,-25.879,18.066
1678025282.204,-61.035,-24.414,-67.871,-26.367,149.414
1678025282.208,-81.055,-22.949,-70.801,-26.855,259.277
1678025282.212,-28.809,-24.414,-68.848,-30.762,-73.730
1678025282.216,23.926,-24.414,-66.406,-30.762,-106.934
1678025282.220,17.090,-26.367,-68.848,-34.668,56.152
1678025282.223,-42.480,-27.344,-65.430,-44.434,-54.688
1678025282.227,-81.055,-31.250,-65.918,-56.152,-224.121
1678025282.231,-57.617,-30.762,-65.430,-59.082,-149.902
1678025282.235,-7.324,-25.879,-58.594,-47.852,-54.688
1678025282.239,3.418,-26.855,-62.500,-39.062,-91.309
1678025282.243,-48.340,-24.902,-68.848,-51.270,-89.844
1678025282.247,-82.520,-26.367,-69.824,-56.641,64.941
1678025282.250,-44.922,-30.273,-68.359,-44.922,179.688
1678025282.254,4.883,-30.273,-67.871,-41.504,3.906
1678025282.258,19.531,-28.320,-66.406,-37.598,-43.945
1678025282.262,-19.531,-29.785,-61.035,-31.250,104.980
1678025282.266,-68.848,-29.785,-57.617,-35.645,28.320
1678025282.268,-57.617,-31.250,-60.547,-33.691,-163.574
1678025282.272,-5.371,-33.691,-60.059,-20.508,-94.727
1678025282.276,23.438,-28.320,-62.012,-21.973,-33.691
1678025282.280,-15.625,-26.367,-66.895,-41.992,-88.867
1678025282.284,-68.848,-30.273,-72.266,-49.316,-123.535
1678025282.288,-66.406,-30.273,-73.730,-50.293,-72.266
1678025282.292,-18.066,-28.320,-72.266,-40.039,201.172
1678025282.295,15.137,-29.785,-70.312,-27.344,306.152
1678025282.299,-16.113,-29.297,-68.359,-37.109,0.488
1678025282.303,-64.453,-30.273,-70.801,-47.363,-142.578
1678025282.307,-58.594,-32.227,-71.289,-36.621,-27.832
1678025282.311,-17.578,-32.715,-74.219,-28.809,-46.875
1678025282.314,11.719,-31.250,-81.055,-30.273,-25.879
1678025282.318,-7.324,-26.855,-79.102,-32.227,42.480
1678025282.322,-61.523,-25.391,-83.496,-46.387,-15.625
1678025282.326,-62.988,-25.391,-86.426,-45.410,-157.227
1678025282.330,-23.438,-21.973,-81.543,-41.992,-175.293
1678025282.334,13.672,-23.438,-85.938,-33.691,83.984
1678025282.338,2.930,-27.832,-85.449,-22.949,234.375
1678025282.341,-62.500,-26.367,-83.984,-36.133,-121.582
1678025282.345,-78.125,-26.855,-86.426,-31.738,-296.875
1678025282.349,-29.785,-30.273,-84.961,-27.344,-81.055
1678025282.353,10.742,-26.855,-95.215,-27.832,-38.574
1678025282.357,-11.230,-23.438,-99.609,-20.508,-154.297
1678025282.373,-70.312,-26.855,-94.727,-31.738,-225.098
1678025282.377,-83.984,-30.762,-95.215,-44.434,-223.633
1678025282.381,-50.293,-24.902,-97.168,-44.434,-123.535
1678025282.385,-1.465,-19.043,-100.098,-34.668,-79.102
1678025282.389,-1.465,-21.973,-100.098,-34.180,-106.445
1678025282.393,-61.523,-23.926,-104.980,-42.969,126.953
1678025282.397,-87.402,-26.367,-113.770,-47.852,174.316
1678025282.400,-55.176,-30.762,-112.793,-55.176,-51.270
1678025282.404,0.000,-26.367,-112.305,-51.758,10.742
1678025282.408,6.348,-20.508,-115.234,-41.504,248.047
1678025282.412,-53.711,-21.973,-110.840,-39.551,148.926
1678025282.416,-85.449,-23.926,-113.770,-41.992,-191.406
1678025282.418,-61.523,-24.902,-109.375,-39.062,-131.836
1678025282.422,-3.906,-23.926,-103.516,-30.762,-22.461
1678025282.426,14.648,-20.996,-107.910,-21.973,-20.996
1678025282.430,-46.387,-27.344,-105.957,-29.785,-87.891
1678025282.434,-83.496,-30.762,-104.004,-26.367,-7.812
1678025282.438,-63.477,-28.320,-104.980,-12.695,76.172
1678025282.442,-24.902,-29.297,-107.910,-19.531,45.898
1678025282.445,0.000,-26.367,-112.793,-25.879,-27.832
1678025282.449,-39.062,-22.949,-109.375,-23.926,37.109
1678025282.453,-88.379,-26.367,-103.516,-33.691,180.176
1678025282.457,-68.848,-31.250,-104.980,-45.898,-60.547
1678025282.461,-14.648,-30.762,-106.934,-46.387,-153.809
1678025282.463,21.484,-28.809,-108.398,-50.293,-69.824
1678025282.467,-4.883,-24.902,-107.422,-52.246,-82.031
1678025282.471,-69.336,-25.391,-111.328,-57.129,-144.531
1678025282.475,-65.918,-28.809,-112.793,-53.223,-108.398
1678025282.479,-25.391,-23.926,-106.934,-29.785,-20.508
1678025282.483,0.000,-23.926,-106.445,-21.484,107.422
1678025282.487,-17.578,-24.902,-104.492,-24.414,85.449
1678025282.490,-76.660,-23.438,-103.516,-30.273,-55.176
1678025282.494,-93.750,-28.320,-101.562,-30.273,215.820
1678025282.498,-59.082,-30.273,-98.145,-15.625,450.684
1678025282.502,-12.695,-27.832,-99.609,-20.020,92.285
1678025282.506,-20.508,-24.414,-97.168,-26.855,-125.000
1678025282.508,-79.590,-20.020,-95.703,-34.180,-154.297
1678025282.512,-91.309,-22.461,-95.703,-42.480,-275.391
1678025282.516,-60.059,-25.879,-98.633,-50.293,-276.367
1678025282.520,-24.414,-23.926,-103.027,-46.387,-127.930
1678025282.524,-26.855,-21.484,-98.633,-40.039,-18.555
1678025282.528,-90.820,-23.438,-98.145,-43.945,-63.477
1678025282.532,-117.188,-30.762,-94.238,-37.109,-180.664
1678025282.535,-79.102,-31.250,-91.797,-28.320,-89.355
1678025282.539,-27.344,-32.715,-95.215,-17.578,130.859
1678025282.543,-17.090,-35.156,-93.750,-19.043,-7.324
1678025282.547,-66.406,-28.809,-93.750,-23.926,-206.055
1678025282.551,-92.773,-24.902,-92.773,-14.160,-131.836
1678025282.553,-60.547,-27.832,-90.332,-11.230,-66.895
1678025282.557,-8.789,-33.691,-92.285,-10.254,-86.426
1678025282.561,5.859,-30.273,-93.262,-2.441,-45.410
1678025282.565,-52.734,-23.438,-90.820,-10.742,-77.148
1678025282.569,-90.820,-28.809,-89.355,-24.902,-103.027
1678025282.573,-65.918,-29.297,-91.797,-25.391,-124.023
1678025282.577,-20.020,-28.320,-92.285,-21.484,-67.871
1678025282.580,-5.859,-32.227,-89.844,-15.137,319.336
1678025282.584,-53.711,-29.785,-88.379,-20.996,397.461
1678025282.588,-90.820,-29.785,-90.820,-40.039,-77.148
1678025282.592,-70.312,-30.762,-88.379,-36.133,-150.391
1678025282.596,-17.578,-27.344,-85.938,-21.484,32.227
1678025282.598,16.602,-25.879,-86.914,-15.625,92.285
1678025282.602,-24.902,-29.785,-79.590,-25.391,-92.773
1678025282.606,-83.496,-30.762,-80.566,-39.062,-89.844
1678025282.610,-66.895,-34.180,-85.449,-33.203,-28.320
1678025282.614,-16.113,-30.762,-81.055,-30.762,-131.836
1678025282.618,11.230,-25.391,-79.102,-29.297,-77.148
1678025282.622,-18.555,-31.250,-79.102,-27.344,59.082
1678025282.625,-69.824,-30.273,-76.172,-33.691,146.484
1678025282.629,-59.570,-24.902,-71.777,-39.551,-37.109
1678025282.633,-2.441,-25.391,-66.406,-29.785,-62.988
1678025282.637,32.715,-20.996,-60.547,-15.625,104.980
1678025282.641,0.000,-22.949,-59.082,-27.832,119.629
1678025282.644,-62.012,-28.320,-57.617,-43.457,1.953
1678025282.648,-69.336,-26.855,-52.734,-39.551,-70.801
1678025282.652,-28.320,-26.855,-46.387,-28.809,-27.832
1678025282.656,8.301,-28.320,-42.480,-23.926,-19.531
1678025282.660,-3.418,-25.879,-40.039,-35.645,-39.551
1678025282.664,-57.129,-26.367,-35.156,-44.434,-55.664
1678025282.668,-67.871,-30.762,-36.133,-33.691,143.555
1678025282.671,-24.902,-29.785,-37.109,-27.344,291.992
1678025282.675,16.113,-25.391,-29.297,-34.668,5.859
1678025282.679,8.301,-21.484,-25.391,-35.156,-48.828
1678025282.683,-49.805,-21.484,-21.973,-33.691,19.531
1678025282.687,-67.871,-24.414,-22.461,-37.598,-58.105
1678025282.688,-30.762,-23.438,-23.926,-34.180,-125.488
1678025282.692,15.625,-23.926,-20.996,-19.043,-26.855
1678025282.696,20.020,-23.926,-18.555,-12.207,-4.883
1678025282.700,-43.945,-23.926,-14.648,-19.531,-122.559
1678025282.704,-75.195,-20.508,-9.766,-27.344,-180.664
1678025282.708,-41.016,-18.066,-9.277,-25.391,20.508
1678025282.712,0.000,-20.020,-15.625,-15.137,365.723
1678025282.715,12.207,-22.949,-17.578,-17.578,167.969
1678025282.719,-43.945,-27.344,-14.648,-19.043,-127.930
1678025282.723,-82.520,-27.832,-12.695,-20.508,-104.004
1678025282.727,-50.781,-24.414,-12.695,-20.996,-189.941
1678025282.731,-6.836,-25.879,-9.277,-1.953,-184.082
1678025282.748,9.277,-24.902,-0.977,9.766,-83.496
1678025282.752,-42.969,-26.367,-1.465,-0.977,-104.492
1678025282.756,-81.055,-30.273,-5.859,-7.324,-104.980
1678025282.760,-59.570,-27.832,-1.953,-12.207,-194.824
1678025282.764,-11.719,-23.438,-4.395,-16.602,-154.297
1678025282.768,13.184,-22.949,-5.859,-19.531,55.664
1678025282.772,-38.574,-28.809,-0.977,-30.762,34.668
1678025282.775,-87.891,-30.762,1.953,-28.320,-122.070
1678025282.779,-67.871,-30.762,2.930,-38.574,-164.551
1678025282.783,-6.348,-24.414,2.441,-31.250,158.691
1678025282.787,21.484,-16.113,6.348,-9.766,356.445
1678025282.791,-16.602,-15.137,5.859,-30.762,25.879
1678025282.793,-65.430,-14.648,11.230,-43.457,-148.438
1678025282.797,-62.012,-19.531,18.555,-46.875,-73.730
1678025282.801,-14.648,-24.414,17.090,-49.805,-43.457
1678025282.805,16.113,-22.461,21.484,-44.922,-32.227
1678025282.809,-2.930,-22.461,26.855,-44.922,21.973
1678025282.813,-59.082,-25.879,31.250,-52.734,-3.418
1678025282.817,-62.012,-20.996,34.180,-52.734,-53.711
1678025282.820,-8.789,-17.578,37.109,-43.457,-169.434
1678025282.824,34.180,-19.531,41.992,-32.227,-4.395
1678025282.828,20.508,-17.090,40.527,-18.555,378.906
1678025282.832,-36.621,-16.113,37.598,-20.020,41.992
1678025282.836,-46.875,-16.602,42.480,-26.855,-197.754
1678025282.838,-1.465,-16.113,39.551,-18.066,-122.070
1678025282.842,35.156,-17.578,38.574,-0.977,-29.785
1678025282.846,17.090,-16.602,38.574,-5.859,-75.195
1678025282.850,-37.598,-20.020,33.691,-12.207,-225.586
1678025282.854,-59.570,-26.855,36.133,-15.625,-175.293
1678025282.858,-33.691,-29.297,35.645,-11.230,-52.246
1678025282.862,13.184,-23.438,36.133,-6.836,21.484
1678025282.865,13.672,-15.625,37.109,-9.277,24.414
1678025282.869,-56.152,-16.113,36.133,-20.020,169.922
1678025282.873,-80.078,-21.973,37.598,-24.902,201.172
1678025282.877,-26.855,-21.484,35.645,-22.949,-76.660
1678025282.881,12.695,-17.090,34.668,-25.879,16.602
1678025282.883,3.418,-21.973,32.715,-39.551,158.203
1678025282.887,-53.223,-28.320,27.344,-62.988,-41.016
1678025282.891,-88.379,-27.344,28.809,-93.750,-189.453
1678025282.895,-56.641,-23.438,31.738,-142.090,-138.672
1678025282.899,-8.789,-22.949,29.785,-177.246,-66.895
1678025282.903,4.883,-27.832,36.133,-180.664,-37.598
1678025282.907,-42.969,-25.391,33.691,-186.035,-76.172
1678025282.910,-83.496,-24.414,28.320,-202.637,-66.895
1678025282.914,-62.012,-32.715,30.273,-193.359,10.742
1678025282.918,-0.488,-31.250,32.227,-147.461,-116.211
1678025282.922,27.344,-23.438,30.762,-115.234,-117.676
1678025282.926,-37.109,-23.438,26.367,-120.605,-43.945
1678025282.929,-84.473,-26.367,28.320,-99.609,-137.695
1678025282.933,-56.641,-26.855,31.250,-74.707,-159.180
1678025282.937,-22.461,-29.785,26.855,-77.148,-47.852
1678025282.941,8.301,-28.809,33.691,-72.754,68.359
1678025282.945,-18.066,-20.508,38.086,-70.312,31.250
1678025282.949,-89.355,-19.531,24.414,-89.844,-135.254
1678025282.953,-97.656,-30.273,16.113,-94.727,-197.266
1678025282.956,-54.199,-20.996,13.184,-67.383,154.297
1678025282.960,-38.574,-19.043,13.672,-73.242,409.668
1678025282.964,-92.285,-28.320,1.465,-125.977,-0.977
1678025282.968,-170.410,-21.973,-11.719,-170.410,-198.730
1678025282.972,-202.637,-20.996,-22.949,-196.777,-119.141
1678025282.973,-196.777,-25.879,-43.457,-211.914,-120.605
1678025282.977,-201.660,-42.969,-57.617,-239.258,-163.574
1678025282.981,-265.137,-41.992,-73.730,-286.133,-123.535
1678025282.985,-355.957,-30.273,-88.379,-332.031,-84.961
1678025282.989,-385.742,-34.668,-97.656,-353.027,-141.113
1678025282.993,-345.215,-27.832,-101.074,-344.727,-86.914
1678025282.997,-298.340,-23.438,-102.539,-333.984,126.953
1678025283.000,-313.965,-31.250,-102.051,-325.195,325.195
1678025283.004,-360.840,-26.855,-96.680,-325.195,51.270
1678025283.008,-371.582,-29.297,-98.633,-330.566,-189.941
1678025283.012,-328.613,-33.203,-97.656,-319.824,-89.355
1678025283.016,-267.578,-30.273,-93.750,-297.363,-73.242
1678025283.018,-244.629,-24.902,-89.355,-270.020,-103.516
1678025283.022,-275.391,-19.043,-85.938,-259.766,-176.270
1678025283.026,-280.762,-17.090,-78.125,-253.906,-205.078
1678025283.030,-225.586,-14.648,-66.895,-227.539,-125.977
1678025283.034,-158.691,-17.578,-60.547,-196.777,-55.176
1678025283.038,-144.043,-21.973,-52.734,-192.871,-25.879
1678025283.042,-177.734,-14.160,-55.664,-191.895,118.652
1678025283.045,-178.223,-14.160,-58.105,-178.223,71.289
1678025283.049,-135.254,-23.926,-44.922,-157.715,-155.273
1678025283.053,-73.730,-24.902,-40.039,-113.770,-131.836
1678025283.057,-41.504,-23.438,-37.109,-73.242,116.699
1678025283.061,-73.730,-23.438,-24.902,-54.688,72.266
1678025283.063,-104.492,-20.020,-22.461,-56.641,-180.176
1678025283.067,-76.172,-21.973,-22.949,-45.898,-121.582
1678025283.071,-10.254,-21.484,-15.137,-18.555,-68.359
1678025283.075,23.926,-16.602,-4.883,1.953,-68.848
1678025283.079,-23.926,-17.090,0.000,-3.906,-158.691
1678025283.083,-62.988,-19.043,-0.488,-13.672,0.977
1678025283.087,-40.039,-22.461,1.465,-0.488,161.621
1678025283.090,15.137,-26.367,5.371,10.254,-98.145
1678025283.094,55.664,-25.391,7.324,12.207,-141.113
1678025283.098,13.184,-23.926,14.160,14.648,35.156
1678025283.102,-37.109,-26.855,16.113,17.090,61.523
1678025283.106,-16.113,-25.879,13.672,11.230,-97.168
1678025283.123,46.875,-24.414,20.020,26.855,-130.859
1678025283.127,83.496,-21.484,24.414,52.246,-42.969
1678025283.131,57.129,-23.438,27.832,43.945,-10.254
1678025283.135,6.348,-28.809,36.133,38.086,-118.652
1678025283.139,-0.488,-27.344,39.062,46.875,-116.699
1678025283.143,51.758,-21.973,42.480,53.711,17.090
1678025283.147,94.238,-18.555,46.875,57.129,99.609
1678025283.150,72.754,-20.020,48.340,53.711,83.984
1678025283.154,27.832,-18.066,53.711,52.734,-110.352
1678025283.158,36.621,-15.625,58.105,69.824,72.266
1678025283.162,96.191,-18.066,60.547,90.820,224.121
1678025283.166,139.648,-20.020,61.035,81.543,-3.906
1678025283.168,124.512,-16.602,57.129,62.500,20.020
1678025283.172,69.336,-14.160,61.035,57.129,18.066
1678025283.176,53.711,-17.578,61.035,48.828,-117.188
1678025283.180,81.543,-18.066,57.129,53.711,-165.039
1678025283.184,106.445,-20.020,58.594,71.289,-40.527
1678025283.188,96.680,-18.555,60.059,75.195,104.980
1678025283.192,39.551,-20.508,59.570,59.082,27.344
1678025283.195,15.625,-19.043,63.477,53.223,-205.566
1678025283.199,47.852,-18.066,62.988,62.988,-46.875
1678025283.203,93.750,-23.926,57.617,68.848,234.375
1678025283.207,93.262,-28.809,53.711,60.059,41.504
1678025283.211,26.367,-30.273,53.711,45.898,-185.547
1678025283.213,0.488,-26.855,54.199,39.062,-199.219
1678025283.217,36.133,-23.438,49.805,41.016,-44.434
1678025283.221,80.078,-23.438,48.340,51.270,-20.508
1678025283.225,87.402,-24.414,48.340,53.223,-55.176
1678025283.229,33.203,-24.902,44.922,42.480,-3.906
1678025283.233,-4.395,-25.879,45.410,32.227,-13.672
1678025283.237,17.578,-25.879,48.340,38.086,-65.430
1678025283.240,67.383,-28.809,48.828,40.039,-13.672
1678025283.244,91.309,-25.879,44.922,52.246,256.348
1678025283.248,42.480,-25.391,41.016,56.152,326.172
1678025283.252,-3.418,-25.391,36.133,35.156,-120.117
1678025283.256,8.789,-25.391,33.691,29.297,-223.145
1678025283.258,49.316,-28.320,32.227,39.062,-41.504
1678025283.262,60.547,-33.203,27.344,42.969,-79.590
1678025283.266,11.230,-37.109,22.461,23.438,-140.625
1678025283.270,-27.344,-30.762,20.508,15.137,-101.074
1678025283.274,-8.301,-25.391,22.949,15.137,-120.605
1678025283.278,33.203,-21.973,20.020,17.090,-119.141
1678025283.282,59.570,-22.949,16.113,31.738,-17.578
1678025283.285,22.949,-26.367,18.555,29.297,44.922
1678025283.289,-30.762,-22.949,20.020,23.926,120.605
1678025283.293,-27.832,-22.949,16.602,15.137,-124.512
1678025283.297,22.949,-23.438,11.719,10.254,-205.566
1678025283.301,62.988,-20.020,7.324,23.926,-52.734
1678025283.318,28.320,-16.602,9.277,25.391,-65.918
1678025283.322,-29.785,-17.578,10.254,14.160,-126.953
1678025283.326,-24.414,-20.996,4.395,17.578,-107.910
1678025283.330,20.020,-18.555,4.883,19.043,-62.988
1678025283.334,49.805,-16.602,3.906,17.090,-102.539
1678025283.338,30.273,-20.020,2.930,8.301,-28.809
1678025283.342,-28.809,-21.484,2.930,-11.230,-10.254
1678025283.345,-46.387,-24.414,-2.441,-14.648,196.289
1678025283.349,-6.348,-32.227,0.000,-0.977,381.836
1678025283.353,46.387,-33.203,1.953,-4.883,21.973
1678025283.357,38.574,-34.180,5.371,-18.066,-62.988
1678025283.361,-34.668,-32.227,13.184,-13.184,1.465
1678025283.348,-55.664,-31.738,9.277,-17.090,-202.148
1678025283.352,-15.625,-36.133,5.859,-23.926,-254.883
1678025283.356,28.809,-31.738,10.254,-9.766,-100.098
1678025283.360,40.039,-23.926,9.766,-4.395,-19.043
1678025283.364,-19.043,-22.949,9.277,-13.184,-152.344
1678025283.368,-52.734,-27.832,6.348,-15.625,-165.527
1678025283.372,-7.324,-28.320,4.395,-16.113,-1.465
1678025283.375,38.086,-30.273,7.324,-8.789,-34.668
1678025283.379,40.039,-31.738,10.254,0.000,-78.125
1678025283.383,-9.766,-32.227,14.648,-6.836,-149.414
1678025283.387,-44.434,-37.109,17.578,-4.883,-37.109
1678025283.391,-15.137,-34.668,17.090,3.418,170.898
1678025283.393,35.156,-29.785,17.090,0.488,6.836
1678025283.397,41.992,-29.785,12.207,-3.418,-90.820
1678025283.401,-22.949,-32.715,5.859,-9.766,-97.168
1678025283.405,-71.289,-36.133,13.672,-10.742,-145.020
1678025283.409,-43.457,-31.738,13.184,-5.859,-160.156
1678025283.413,15.625,-28.809,11.230,3.418,-50.781
1678025283.417,37.598,-31.250,14.648,17.578,322.754
1678025283.420,-15.137,-33.203,8.789,2.930,291.504
1678025283.424,-53.223,-26.855,1.953,-10.254,-106.934
1678025283.428,-34.180,-19.043,1.465,-5.371,-184.570
1678025283.432,-3.418,-25.391,-1.465,-4.395,23.926
1678025283.436,15.625,-31.250,-3.906,0.000,53.223
1678025283.453,-15.137,-33.203,-0.488,2.930,-195.312
1678025283.457,-63.477,-28.320,-0.977,-7.812,-171.875
1678025283.461,-67.383,-24.902,-12.207,-23.926,-112.793
1678025283.465,-10.742,-22.461,-17.578,-19.043,-137.207
1678025283.469,37.109,-18.066,-15.137,-3.906,-91.309
1678025283.473,14.160,-20.996,-13.672,5.371,18.066
1678025283.477,-47.852,-24.902,-16.113,-8.301,76.172
1678025283.480,-61.523,-29.297,-22.949,-25.879,-101.074
1678025283.484,-10.254,-28.320,-25.391,-19.043,-111.816
1678025283.488,39.551,-25.391,-23.926,-3.418,116.211
1678025283.492,15.625,-27.344,-25.879,-13.184,155.762
1678025283.496,-48.828,-24.902,-26.855,-30.273,-101.562
1678025283.498,-59.082,-20.508,-23.438,-22.949,-134.766
1678025283.502,-11.719,-23.438,-24.414,-14.648,15.625
1678025283.506,40.039,-23.438,-25.879,0.488,31.250
1678025283.510,23.438,-22.949,-24.414,-0.488,-85.449
1678025283.514,-37.109,-25.391,-22.949,-19.531,-156.738
1678025283.518,-50.293,-27.832,-21.973,-18.066,-74.707
1678025283.522,-4.883,-24.902,-22.949,-14.648,-17.090
1678025283.525,42.969,-24.414,-24.902,-12.695,-8.301
1678025283.529,25.391,-24.414,-26.367,-13.672,39.062
1678025283.533,-52.734,-24.902,-25.391,-22.461,140.625
1678025283.537,-81.055,-28.320,-29.297,-36.133,-21.484
1678025283.541,-38.086,-29.297,-38.574,-36.621,-249.512
1678025283.543,6.836,-28.320,-39.062,-17.578,-110.840
1678025283.547,1.465,-28.809,-37.598,-15.137,190.918
1678025283.551,-48.828,-28.809,-39.062,-34.668,57.129
1678025283.555,-71.289,-31.738,-35.645,-39.062,-205.566
1678025283.559,-43.945,-29.297,-41.504,-23.438,6.348
1678025283.563,10.742,-25.879,-47.363,-16.602,158.203
1678025283.567,30.762,-23.926,-48.340,-24.902,35.156
1678025283.570,-30.273,-19.531,-52.246,-38.574,-151.855
1678025283.574,-68.359,-21.484,-51.270,-42.480,-116.211
1678025283.578,-40.527,-21.973,-59.570,-34.180,37.109
1678025283.582,3.906,-18.066,-60.547,-23.926,-82.520
1678025283.586,10.254,-15.625,-55.176,-11.719,-51.270
1678025283.588,-38.086,-19.043,-57.617,-22.949,-63.965
1678025283.592,-66.895,-22.949,-55.664,-31.250,-187.988
1678025283.596,-47.363,-19.531,-58.594,-23.926,-208.008
1678025283.600,3.906,-17.090,-65.430,-12.207,-148.438
1678025283.604,28.320,-20.996,-66.406,-2.441,-65.430
1678025283.608,-18.555,-21.973,-63.477,-12.207,-22.461
1678025283.612,-75.195,-25.879,-61.523,-19.531,3.906
1678025283.615,-61.523,-25.391,-63.965,-9.766,7.812
1678025283.619,-8.789,-19.531,-66.406,6.836,286.621
1678025283.623,24.414,-25.879,-65.430,11.719,444.824
1678025283.627,-0.488,-25.391,-70.801,-9.277,53.223
1678025283.631,-59.570,-21.484,-76.660,-22.461,-163.574
1678025283.633,-56.641,-25.391,-80.566,-22.949,-148.926
1678025283.637,-11.230,-26.367,-81.543,-16.113,-187.500
1678025283.641,21.484,-28.809,-79.590,-1.465,-104.980
1678025283.645,-0.488,-26.367,-77.637,-6.836,-33.691
1678025283.649,-56.641,-24.902,-77.148,-21.484,-89.844
1678025283.653,-68.848,-28.809,-78.613,-28.320,-119.629
1678025283.657,-37.109,-30.273,-84.961,-28.809,-153.320
1678025283.660,7.812,-27.832,-86.914,-13.672,58.105
1678025283.664,3.906,-22.461,-86.426,0.000,364.746
1678025283.668,-59.570,-26.367,-95.215,-14.160,58.594
1678025283.672,-91.797,-29.785,-98.145,-31.250,-242.188
1678025283.676,-51.758,-22.949,-96.680,-25.391,-172.363
1678025283.678,7.812,-23.438,-98.145,-18.066,-91.797
1678025283.682,7.812,-22.949,-102.539,-25.879,-87.891
1678025283.686,-44.434,-19.531,-102.051,-31.250,-161.133
1678025283.690,-62.500,-21.973,-100.098,-30.762,-153.320
1678025283.694,-39.062,-20.508,-96.680,-17.578,-92.285
1678025283.698,0.000,-20.020,-98.633,-2.930,-51.270
1678025283.702,5.371,-25.391,-105.469,-9.766,16.113
1678025283.705,-54.199,-27.344,-100.586,-20.508,250.488
1678025283.709,-75.195,-24.902,-98.633,-15.137,266.602
1678025283.713,-34.668,-25.391,-102.539,-12.207,-52.246
1678025283.717,16.113,-25.391,-99.609,-0.977,12.207
1678025283.721,21.973,-27.344,-104.004,7.324,157.715
1678025283.723,-39.551,-30.273,-107.422,-3.418,-77.637
1678025283.727,-66.895,-27.344,-104.004,-4.883,-223.145
1678025283.731,-38.086,-25.391,-105.469,-9.277,-134.277
1678025283.735,-1.953,-26.855,-114.746,-14.648,-69.824
1678025283.739,15.137,-25.391,-118.164,-10.742,-70.312
1678025283.743,-39.551,-24.902,-118.164,-20.996,-40.039
1678025283.747,-82.031,-24.414,-120.605,-24.902,60.059
1678025283.750,-61.035,-20.996,-115.723,-13.184,121.094
1678025283.754,-11.719,-23.438,-115.723,-9.277,-65.430
1678025283.758,23.438,-22.461,-118.652,-7.812,-96.680
1678025283.762,-26.855,-20.996,-119.629,-15.625,-88.379
1678025283.766,-74.219,-25.391,-126.465,-28.320,-185.059
1678025283.769,-50.781,-24.902,-126.953,-35.156,-177.734
1678025283.773,-15.137,-25.391,-128.906,-34.668,-116.699
1678025283.777,17.090,-24.414,-128.418,-21.973,69.824
1678025283.781,-14.648,-27.344,-125.000,-22.949,65.430
1678025283.785,-78.125,-27.832,-126.953,-29.297,-149.902
1678025283.789,-77.148,-23.926,-127.441,-28.320,-186.035
1678025283.793,-32.227,-27.344,-129.883,-15.625,152.344
1678025283.796,5.859,-31.738,-127.930,-9.277,272.461
1678025283.800,-22.461,-27.832,-124.512,-25.879,-39.062
1678025283.804,-81.055,-23.926,-124.512,-34.180,-146.973
1678025283.808,-84.473,-30.273,-130.371,-34.180,-82.520
1678025283.812,-35.156,-28.320,-133.789,-35.645,-84.473
1678025283.828,9.766,-22.949,-129.883,-32.227,-91.309
1678025283.832,-12.207,-20.996,-126.465,-26.855,-52.734
1678025283.836,-71.289,-22.461,-124.512,-32.227,-63.477
1678025283.840,-92.285,-25.879,-125.000,-40.039,-142.090
1678025283.844,-55.176,-25.879,-128.418,-35.645,-135.742
1678025283.848,-0.488,-25.879,-127.441,-23.438,79.590
1678025283.852,-5.371,-25.391,-126.953,-22.949,401.367
1678025283.855,-71.289,-25.879,-130.371,-40.527,208.496
1678025283.859,-91.309,-30.273,-128.418,-53.223,-154.297
1678025283.863,-39.551,-33.203,-124.023,-37.598,-119.629
1678025283.867,11.719,-29.297,-127.930,-29.297,-57.129
1678025283.871,3.418,-30.762,-127.930,-40.039,-71.777
1678025283.872,-61.035,-34.668,-125.000,-55.664,-173.340
1678025283.876,-82.520,-34.180,-125.977,-61.035,-167.969
1678025283.880,-42.480,-35.156,-130.859,-56.152,-153.320
1678025283.884,11.719,-30.273,-131.836,-45.898,-53.223
1678025283.888,26.855,-22.949,-125.977,-41.992,45.410
1678025283.892,-25.391,-24.902,-125.977,-52.734,11.719
1678025283.896,-53.711,-29.297,-130.371,-59.570,-45.898
1678025283.899,-20.996,-23.438,-125.000,-51.270,-40.039
1678025283.903,20.508,-23.926,-123.047,-42.480,16.602
1678025283.907,25.391,-27.344,-125.977,-33.691,234.863
1678025283.911,-32.715,-24.902,-121.582,-36.133,296.875
1678025283.915,-79.102,-21.484,-118.652,-53.223,-104.004
1678025283.918,-57.617,-19.531,-117.676,-49.316,-215.820
1678025283.922,-10.254,-19.043,-113.770,-27.832,-93.750
1678025283.926,11.719,-21.484,-111.816,-30.762,-20.996
1678025283.930,-39.062,-25.391,-116.211,-50.781,-71.289
1678025283.934,-89.844,-23.926,-116.211,-53.223,-60.547
1678025283.938,-67.871,-25.391,-118.652,-51.758,68.848
1678025283.942,-18.066,-28.320,-122.070,-53.223,14.648
1678025283.945,-2.441,-29.785,-122.070,-56.152,29.297
1678025283.949,-44.434,-27.344,-121.582,-58.105,99.609
1678025283.953,-87.891,-21.973,-117.188,-60.547,199.219
1678025283.957,-75.195,-20.508,-117.188,-63.477,29.297
1678025283.961,-25.879,-21.973,-120.605,-52.734,-120.605
1678025283.963,2.441,-24.414,-121.094,-41.016,-58.105
1678025283.967,-33.203,-23.438,-125.000,-37.109,-89.355
1678025283.971,-81.543,-24.902,-125.977,-39.551,-220.703
1678025283.975,-76.660,-25.879,-123.535,-36.133,-243.164
1678025283.979,-35.645,-25.879,-123.535,-26.367,-135.742
1678025283.983,7.324,-23.438,-122.070,-13.184,101.074
1678025283.987,-11.719,-18.066,-122.559,-13.672,175.781
1678025283.990,-78.613,-24.414,-124.512,-29.297,-60.547
1678025283.994,-87.402,-24.902,-125.977,-32.227,70.801
1678025283.998,-39.551,-25.879,-124.512,-20.020,351.562
1678025284.002,2.441,-26.855,-122.559,-19.043,115.723
1678025284.006,-5.859,-25.391,-121.094,-28.809,-49.805
1678025284.008,-61.523,-28.320,-118.164,-37.109,-36.133
1678025284.012,-83.496,-25.879,-116.699,-44.434,-158.691
1678025284.016,-43.945,-30.273,-115.234,-42.480,-242.188
1678025284.020,-8.301,-36.133,-119.629,-37.598,-109.863
1678025284.024,-23.926,-38.086,-121.582,-42.969,-12.695
1678025284.028,-80.078,-36.133,-123.047,-56.641,-74.219
1678025284.032,-100.098,-34.668,-121.094,-66.406,-156.738
1678025284.035,-61.523,-31.250,-117.676,-54.688,-17.578
1678025284.039,-9.766,-29.297,-119.141,-37.109,172.363
1678025284.043,0.488,-34.668,-117.188,-47.363,-0.488
1678025284.047,-62.500,-33.203,-111.328,-62.500,-176.758
1678025284.051,-103.027,-33.203,-106.445,-63.477,-161.621
1678025284.053,-68.359,-34.180,-101.562,-53.223,-127.930
1678025284.057,-20.020,-34.180,-100.098,-42.969,-124.023
1678025284.061,-8.789,-30.762,-99.609,-39.551,-101.074
1678025284.065,-60.059,-31.738,-96.680,-58.594,-31.738
1678025284.069,-98.145,-35.156,-91.797,-67.383,-99.609
1678025284.073,-74.219,-35.156,-83.496,-64.453,-138.184
1678025284.077,-30.762,-36.133,-81.543,-65.430,-8.301
1678025284.080,-12.207,-33.691,-83.008,-56.152,249.512
1678025284.084,-54.199,-39.062,-79.590,-63.965,319.824
1678025284.088,-100.098,-38.086,-75.684,-91.797,-82.031
1678025284.092,-83.008,-33.691,-76.660,-96.191,-192.383
1678025284.096,-45.410,-36.621,-69.336,-88.867,-99.121
1678025284.099,-15.137,-32.715,-59.570,-79.590,-90.820
1678025284.103,-45.410,-29.297,-61.035,-84.473,-128.418
1678025284.107,-106.445,-34.180,-66.895,-109.863,-60.059
1678025284.111,-100.586,-32.715,-63.965,-106.445,-9.766
1678025284.115,-61.035,-34.668,-61.523,-111.328,-90.332
1678025284.119,-43.457,-36.133,-68.359,-127.930,-32.715
1678025284.123,-90.820,-26.367,-73.242,-149.414,172.363
1678025284.126,-188.477,-38.086,-83.496,-186.035,212.891
1678025284.130,-222.656,-41.504,-97.168,-215.820,-114.746
1678025284.134,-189.453,-28.320,-109.863,-230.469,-205.566
1678025284.138,-185.547,-35.645,-122.070,-249.023,-85.449
1678025284.142,-266.602,-52.734,-138.672,-291.016,-87.402
1678025284.144,-353.516,-43.457,-142.090,-337.891,-160.156
1678025284.148,-361.328,-35.645,-141.113,-360.352,-189.453
1678025284.152,-333.984,-30.762,-151.367,-371.094,-130.371
1678025284.156,-290.527,-23.438,-154.785,-373.535,-81.055
1678025284.160,-288.574,-24.902,-151.855,-369.629,-15.137
1678025284.164,-342.773,-25.879,-147.949,-368.164,-110.352
1678025284.168,-343.750,-22.949,-146.973,-356.445,16.602
1678025284.171,-280.273,-24.902,-145.996,-338.379,263.184
1678025284.175,-224.609,-26.855,-144.043,-321.777,38.086
1678025284.179,-219.727,-25.879,-140.137,-304.688,-38.574
1678025284.183,-260.742,-26.855,-131.836,-285.645,46.875
1678025284.187,-262.695,-28.320,-123.047,-267.090,-55.664
1678025284.188,-202.637,-24.902,-113.770,-253.418,-189.941
1678025284.192,-142.090,-25.391,-106.445,-236.816,-56.152
1678025284.196,-111.816,-25.879,-104.004,-204.102,44.922
1678025284.200,-145.508,-28.320,-98.633,-184.570,-69.336
1678025284.204,-166.992,-30.762,-90.332,-178.223,-182.129
1678025284.208,-110.352,-29.785,-86.426,-138.672,24.902
1678025284.212,-42.969,-37.598,-73.242,-106.934,223.633
1678025284.215,-24.902,-37.598,-62.988,-100.098,31.738
1678025284.219,-50.293,-27.344,-60.059,-90.820,-165.527
1678025284.223,-64.453,-26.367,-52.734,-82.520,-72.754
1678025284.227,-38.574,-36.621,-47.852,-72.754,106.445
1678025284.231,11.230,-34.668,-50.293,-60.059,-40.039
1678025284.248,39.551,-32.715,-45.410,-47.852,-57.617
1678025284.252,0.000,-38.574,-34.180,-43.945,-119.629
1678025284.256,-37.598,-37.598,-28.809,-46.875,-181.641
1678025284.260,-8.301,-36.133,-20.508,-39.062,-132.812
1678025284.264,45.898,-39.551,-9.277,-11.719,-92.285
1678025284.268,83.984,-42.969,-7.812,-6.348,144.531
1678025284.272,50.293,-41.504,-4.395,-13.184,166.504
1678025284.275,-4.883,-41.992,-3.906,-10.254,-84.961
1678025284.279,7.812,-41.016,-6.836,-5.859,-183.594
1678025284.283,57.617,-42.480,-2.441,15.137,199.707
1678025284.287,89.844,-48.340,0.488,36.621,477.539
1678025284.291,57.617,-45.410,2.930,26.855,99.121
1678025284.293,6.348,-44.434,3.906,12.207,-100.098
1678025284.297,18.555,-47.363,2.930,18.066,-56.152
1678025284.301,65.918,-46.875,7.812,27.832,-86.426
1678025284.305,102.051,-46.387,13.184,36.133,-51.270
1678025284.309,75.684,-49.805,13.672,30.762,55.664
1678025284.313,18.555,-51.270,14.160,5.371,35.156
1678025284.317,9.766,-50.781,18.066,-10.254,-81.543
1678025284.320,50.293,-45.410,21.484,-16.113,-129.883
1678025284.324,92.773,-48.828,18.555,-16.113,73.242
1678025284.328,81.055,-47.363,18.555,-18.066,259.277
1678025284.332,23.438,-41.016,18.555,-32.715,-87.402
1678025284.336,1.953,-43.945,18.066,-41.992,-255.859
1678025284.338,28.809,-46.387,15.137,-34.180,-68.848
1678025284.342,70.801,-45.898,11.719,-28.809,40.527
1678025284.346,73.242,-47.363,16.113,-34.180,-53.711
1678025284.350,16.113,-45.410,15.625,-34.668,-209.961
1678025284.354,-6.348,-38.574,14.648,-35.156,-228.516
1678025284.358,33.691,-39.551,14.160,-34.668,-127.441
1678025284.362,83.008,-39.062,17.578,-22.461,-67.871
1678025284.365,70.312,-37.109,19.531,-25.391,-105.957
1678025284.369,5.859,-42.480,18.066,-29.297,45.410
1678025284.373,-20.996,-43.457,17.090,-23.926,153.320
1678025284.377,6.348,-41.504,17.090,-24.902,-113.770
1678025284.381,60.547,-40.039,15.625,-21.484,-117.188
1678025284.384,70.801,-36.621,15.137,-21.973,-2.930
1678025284.388,3.418,-41.504,18.066,-33.691,-24.902
1678025284.392,-28.809,-42.969,17.090,-41.016,-177.734
1678025284.396,0.977,-39.062,13.184,-31.738,-119.629
1678025284.400,41.992,-39.551,8.789,-29.785,63.477
1678025284.404,57.129,-37.598,5.859,-40.527,-8.789
1678025284.408,2.930,-32.715,6.836,-43.457,-119.629
1678025284.411,-40.039,-35.156,6.836,-39.062,-55.176
1678025284.415,-21.973,-37.109,4.395,-41.016,133.789
1678025284.419,18.555,-36.621,1.465,-50.293,10.254
1678025284.423,41.504,-37.109,-0.488,-48.340,-121.094
1678025284.427,5.859,-35.156,-2.441,-48.828,-104.492
1678025284.428,-46.875,-31.250,-1.465,-53.711,-111.328
1678025284.432,-41.016,-30.273,1.465,-51.758,-108.887
1678025284.436,17.578,-32.227,1.953,-40.527,-102.539
1678025284.440,53.711,-31.738,1.465,-26.367,-35.645
1678025284.444,19.531,-27.344,2.441,-30.273,-18.066
1678025284.448,-39.551,-28.320,0.000,-47.363,-22.461
1678025284.452,-45.898,-33.203,-6.836,-53.223,-55.176
1678025284.455,-0.977,-35.156,-9.766,-38.574,176.270
1678025284.459,37.109,-32.227,-9.277,-21.973,449.219
1678025284.463,7.324,-31.738,-9.277,-38.086,108.887
1678025284.467,-46.387,-34.668,-8.789,-53.711,-196.777
1678025284.471,-49.316,-36.133,-8.301,-40.527,-211.426
1678025284.473,-7.812,-38.086,-11.230,-42.969,-159.668
1678025284.477,32.715,-34.180,-14.160,-44.922,-86.426
1678025284.481,15.625,-28.809,-11.230,-45.898,-51.758
1678025284.485,-39.062,-24.902,-12.207,-57.617,-108.887
1678025284.489,-53.223,-24.902,-16.602,-62.988,-141.113
1678025284.493,-17.578,-28.809,-17.090,-65.430,10.742
1678025284.497,34.180,-25.879,-17.090,-59.570,213.379
1678025284.500,15.137,-23.438,-20.020,-54.688,396.484
1678025284.504,-61.035,-23.438,-19.531,-67.871,105.957
1678025284.508,-74.219,-23.438,-20.996,-65.918,-181.641
1678025284.512,-35.645,-30.762,-28.320,-43.945,-90.332
1678025284.516,9.766,-32.715,-33.203,-36.621,-59.570
1678025284.518,19.531,-28.320,-28.809,-26.855,-92.773
1678025284.522,-39.551,-28.320,-29.785,-24.414,-139.160
1678025284.526,-72.754,-32.227,-34.180,-32.715,-152.832
1678025284.530,-35.156,-29.297,-32.715,-30.273,-99.609
1678025284.534,11.230,-30.762,-37.598,-19.531,-63.477
1678025284.538,21.484,-31.738,-37.598,-12.207,-26.855
1678025284.542,-25.391,-25.879,-34.180,-13.672,233.887
1678025284.545,-69.336,-26.855,-38.574,-22.461,204.102
1678025284.549,-36.621,-26.855,-39.062,-21.484,-95.703
1678025284.553,20.020,-25.879,-36.621,-3.418,-21.973
1678025284.557,24.902,-29.785,-39.551,4.883,198.242
1678025284.561,-32.227,-27.344,-45.898,-5.371,104.004
1678025284.563,-59.570,-20.020,-45.898,-14.648,-257.324
1678025284.567,-29.297,-19.043,-44.922,-17.578,-248.047
1678025284.571,10.254,-25.391,-51.758,-13.184,-126.953
1678025284.575,31.738,-24.414,-49.805,-9.277,-95.703
1678025284.579,-13.184,-26.367,-51.270,-19.043,-130.371
1678025284.583,-71.777,-32.227,-53.711,-18.555,-46.875
1678025284.587,-60.059,-33.691,-53.711,-15.625,122.559
1678025284.590,-8.301,-30.762,-56.641,-24.902,19.531
1678025284.594,19.043,-25.879,-58.594,-27.832,-145.508
1678025284.598,-16.602,-25.879,-65.430,-30.273,-16.602
1678025284.602,-69.336,-30.273,-71.289,-29.297,14.160
1678025284.606,-62.012,-29.785,-70.801,-25.879,-123.535
1678025284.623,-14.648,-30.762,-69.824,-25.391,-114.746
1678025284.627,16.602,-32.715,-71.289,-17.578,-22.461
1678025284.631,-12.695,-27.832,-74.219,-22.461,-27.344
1678025284.635,-64.453,-23.438,-74.707,-32.715,-126.953
1678025284.639,-64.941,-19.531,-73.730,-29.297,-139.648
1678025284.643,-13.184,-19.531,-75.195,-26.855,26.855
1678025284.647,34.668,-17.578,-75.684,-15.137,139.648
1678025284.650,24.414,-15.625,-75.684,-16.113,20.020
1678025284.654,-35.156,-21.973,-81.543,-37.109,-130.371
1678025284.658,-57.617,-27.344,-79.102,-39.551,105.957
1678025284.662,-18.555,-23.438,-77.148,-31.250,175.293
1678025284.666,27.344,-20.996,-79.102,-27.344,-100.586
1678025284.668,5.859,-22.461,-80.078,-25.391,-65.918
1678025284.672,-64.941,-22.461,-83.984,-28.809,-20.996
1678025284.676,-80.566,-24.414,-83.496,-23.926,-123.047
1678025284.680,-39.551,-29.297,-78.613,-15.625,-210.449
1678025284.684,-0.977,-31.250,-80.078,-12.207,-58.594
1678025284.688,0.977,-29.297,-83.008,0.000,95.215
1678025284.692,-54.199,-29.785,-81.055,-6.836,-61.035
1678025284.695,-86.426,-29.297,-80.566,-13.184,-180.664
1678025284.699,-53.223,-30.273,-81.543,0.000,-35.156
1678025284.703,-2.441,-30.273,-83.496,7.812,175.781
1678025284.707,2.441,-26.855,-83.496,-8.301,61.035
1678025284.711,-56.641,-27.344,-82.520,-19.531,-134.277
1678025284.713,-89.355,-29.785,-87.402,-17.090,-213.867
1678025284.717,-56.152,-27.344,-90.332,-14.648,-174.805
1678025284.721,-4.395,-23.926,-85.449,-6.836,-122.559
1678025284.725,9.766,-25.391,-87.402,-9.766,0.488
1678025284.729,-41.504,-27.832,-90.820,-13.672,55.664
1678025284.733,-81.055,-29.297,-92.285,-15.625,-127.930
1678025284.737,-53.223,-33.203,-93.262,-7.812,-88.379
1678025284.740,-0.488,-30.762,-95.703,10.742,22.461
1678025284.744,27.832,-24.902,-97.168,28.320,227.539
1678025284.748,-17.090,-26.855,-96.680,25.879,185.059
1678025284.752,-64.453,-24.902,-98.633,10.742,-170.410
1678025284.756,-49.805,-28.809,-99.609,6.836,-223.145
1678025284.758,-9.277,-33.691,-101.074,8.789,101.074
1678025284.762,18.066,-30.273,-97.168,17.090,164.062
1678025284.766,-24.902,-26.367,-96.191,7.812,-172.852
1678025284.770,-90.820,-26.855,-98.633,-11.719,-154.297
1678025284.774,-67.871,-24.902,-97.656,-6.348,-77.637
1678025284.778,-8.301,-17.578,-97.168,9.277,-111.816
1678025284.782,14.160,-23.926,-100.098,8.301,-20.996
1678025284.785,-10.254,-28.809,-101.074,2.930,166.016
1678025284.789,-64.453,-24.414,-98.633,5.859,337.891
1678025284.793,-70.312,-25.879,-99.121,6.836,53.223
1678025284.797,-18.555,-26.367,-96.680,5.371,-218.750
1678025284.801,11.719,-23.438,-95.703,8.301,-121.582
1678025284.803,-9.277,-23.926,-97.656,-3.906,-112.793
1678025284.807,-54.688,-29.297,-91.797,-22.949,-212.402
1678025284.811,-59.082,-30.273,-89.355,-18.066,-221.191
1678025284.815,-12.695,-25.879,-83.008,-5.371,-130.859
1678025284.819,29.785,-23.438,-76.660,9.766,-62.988
1678025284.823,16.113,-20.996,-72.754,9.277,-26.367
1678025284.827,-39.551,-20.996,-69.336,-5.371,-60.059
1678025284.830,-55.664,-25.391,-67.383,2.930,221.680
1678025284.834,-23.438,-27.344,-63.477,19.531,413.086
1678025284.838,21.484,-27.344,-57.129,18.066,35.645
1678025284.842,14.160,-26.855,-49.316,5.371,-105.469
1678025284.846,-43.457,-29.297,-51.758,-12.207,-63.477
1678025284.849,-58.105,-32.715,-52.246,-8.301,-164.551
1678025284.853,-21.973,-30.762,-50.781,-4.883,-185.547
1678025284.857,25.391,-30.273,-47.363,-0.977,-48.340
1678025284.861,29.297,-31.250,-41.504,1.953,3.906
1678025284.865,-21.973,-30.273,-45.898,-8.789,-83.496
1678025284.869,-51.270,-29.785,-44.434,-11.230,-142.578
1678025284.873,-31.250,-32.715,-39.062,-6.836,10.742
1678025284.876,18.066,-35.156,-37.109,1.953,182.129
1678025284.880,34.668,-31.250,-39.062,5.371,-12.207
1678025284.884,-28.320,-34.668,-37.598,-6.348,-171.875
1678025284.888,-64.941,-38.574,-36.133,-17.578,-74.219
1678025284.892,-36.621,-33.691,-39.062,-8.789,-10.742
1678025284.893,-1.953,-31.250,-41.504,-8.301,-111.816
1678025284.897,11.230,-34.668,-40.527,-16.602,-73.242
1678025284.901,-34.180,-35.645,-37.109,-25.391,-46.875
1678025284.905,-78.125,-34.180,-38.086,-37.598,-108.398
1678025284.909,-61.523,-37.598,-41.016,-36.621,-168.945
1678025284.913,-15.137,-41.504,-42.480,-34.180,-98.145
1678025284.917,23.926,-38.086,-45.898,-20.508,245.605
1678025284.920,-18.555,-35.645,-51.270,-22.461,398.926
1678025284.924,-73.242,-34.180,-55.176,-42.480,7.324
1678025284.928,-50.293,-31.738,-52.734,-31.250,-203.125
1678025284.932,3.418,-30.273,-51.270,-20.508,-77.637
1678025284.936,26.855,-30.273,-54.688,-26.855,-88.379
1678025284.939,-17.090,-30.273,-53.223,-33.691,-38.086
1678025284.943,-62.988,-28.320,-52.734,-38.574,48.828
1678025284.947,-63.477,-31.738,-57.129,-27.832,2.930
1678025284.951,-28.809,-27.832,-53.223,-7.324,-75.684
1678025284.955,0.000,-24.902,-48.828,3.906,-42.480
1678025284.959,-17.090,-32.715,-49.316,4.395,93.262
1678025284.963,-61.035,-35.156,-45.898,0.977,93.262
1678025284.966,-74.707,-36.621,-46.387,-14.160,-99.121
1678025284.970,-33.691,-37.598,-50.781,-18.066,-171.875
1678025284.974,7.812,-36.621,-48.828,0.000,25.391
1678025284.978,-6.836,-35.645,-42.969,5.859,109.863
1678025284.982,-58.594,-31.250,-40.039,-6.836,-154.297
1678025284.998,-66.895,-33.691,-43.457,-20.020,-197.754
1678025285.002,-33.691,-42.480,-47.363,-20.996,-68.848
1678025285.006,-1.465,-41.016,-51.758,-20.508,42.480
1678025285.010,-3.906,-37.109,-49.805,-25.879,45.410
1678025285.014,-63.477,-36.621,-50.293,-44.922,-144.043
1678025285.018,-80.566,-32.227,-52.734,-47.363,13.672
1678025285.022,-40.527,-31.738,-55.176,-40.039,215.820
1678025285.025,0.488,-37.109,-59.082,-43.945,0.977
1678025285.029,0.000,-35.645,-58.105,-43.457,-73.730
1678025285.033,-55.176,-31.738,-50.781,-40.527,98.145
1678025285.037,-76.172,-33.691,-50.293,-45.898,36.621
1678025285.041,-43.945,-32.227,-52.246,-50.293,-257.812
1678025285.043,-1.953,-25.879,-46.875,-37.598,-133.789
1678025285.047,16.602,-25.879,-45.898,-31.738,-19.043
1678025285.051,-38.086,-32.227,-50.781,-43.945,-120.605
1678025285.055,-83.496,-27.832,-53.711,-47.852,-203.125
1678025285.059,-58.594,-28.320,-53.223,-41.992,-144.043
1678025285.063,-12.207,-29.297,-55.176,-32.715,-12.207
1678025285.067,2.441,-23.438,-59.570,-28.320,22.461
1678025285.070,-45.898,-26.367,-61.523,-43.457,-108.398
1678025285.074,-86.426,-28.320,-62.012,-52.734,-100.586
1678025285.078,-58.594,-25.391,-59.570,-38.086,213.379
1678025285.082,-7.324,-28.320,-61.523,-29.785,61.523
1678025285.086,9.277,-31.250,-64.453,-31.250,-130.371
1678025285.088,-39.551,-29.297,-61.523,-41.504,-65.918
1678025285.092,-82.520,-23.926,-62.012,-46.875,-169.434
1678025285.096,-63.965,-21.973,-62.012,-40.039,-223.633
1678025285.100,-17.578,-24.902,-60.547,-30.273,-108.398
1678025285.104,1.465,-29.785,-63.965,-20.508,-13.184
1678025285.108,-32.715,-35.156,-62.988,-23.926,-20.020
1678025285.112,-73.730,-38.086,-59.082,-21.484,-62.988
1678025285.115,-62.988,-34.180,-60.059,-19.043,-137.207
1678025285.119,-11.230,-29.785,-62.012,-14.648,189.453
1678025285.123,30.762,-28.320,-57.617,-0.977,507.324
1678025285.127,5.859,-27.832,-56.152,-3.906,175.293
1678025285.131,-59.570,-30.762,-59.570,-17.578,-127.441
1678025285.133,-69.824,-29.785,-57.617,-23.438,-149.414
1678025285.137,-25.391,-29.297,-58.105,-10.254,-90.820
1678025285.141,18.555,-30.762,-61.035,2.441,-33.691
1678025285.145,2.441,-31.250,-62.500,-4.883,20.020
1678025285.149,-59.570,-29.297,-61.523,-6.348,-26.855
1678025285.153,-62.500,-28.320,-59.082,5.859,-129.395
1678025285.157,-19.043,-27.832,-54.199,7.812,-52.734
1678025285.160,18.066,-28.809,-51.270,21.973,164.551
1678025285.164,7.812,-28.320,-53.223,41.504,287.109
1678025285.168,-46.387,-26.367,-54.688,34.668,16.602
1678025285.172,-65.430,-28.809,-59.082,20.508,-205.078
1678025285.176,-34.180,-34.668,-59.082,21.973,-47.363
1678025285.178,7.812,-38.574,-59.082,31.250,72.266
1678025285.182,10.254,-33.691,-60.547,25.879,-71.777
1678025285.186,-43.457,-30.762,-62.012,5.371,-174.316
1678025285.190,-71.777,-29.785,-64.941,1.465,-158.691
1678025285.194,-39.551,-25.391,-66.406,8.789,-175.293
1678025285.198,0.488,-26.855,-68.848,15.625,-83.496
1678025285.202,9.766,-32.227,-69.336,14.648,-24.414
1678025285.205,-36.621,-27.832,-67.383,11.719,277.832
1678025285.209,-71.289,-22.949,-69.824,16.113,409.668
1678025285.213,-50.781,-28.320,-74.219,4.883,-19.043
1678025285.217,-3.418,-30.273,-79.590,12.695,-53.711
1678025285.221,8.789,-28.320,-83.008,19.043,30.273
1678025285.224,-50.293,-28.320,-80.078,-2.441,22.949
1678025285.228,-86.914,-24.902,-80.078,-8.301,-121.582
1678025285.232,-60.547,-21.973,-83.008,-13.672,-141.602
1678025285.236,-14.160,-23.926,-83.984,-3.906,40.527
1678025285.240,-3.418,-27.344,-89.844,-0.488,-6.836
1678025285.244,-58.594,-27.344,-90.332,-25.879,-76.172
1678025285.248,-101.074,-24.902,-91.797,-27.832,-41.992
1678025285.251,-94.238,-22.949,-104.980,-28.320,95.215
1678025285.255,-74.707,-20.508,-113.281,-47.363,-20.020
1678025285.259,-81.055,-13.672,-124.023,-86.426,-106.934
1678025285.263,-127.930,-4.883,-139.160,-111.328,-52.246
1678025285.267,-199.707,-12.207,-145.508,-135.254,-93.750
1678025285.269,-238.281,-20.996,-158.203,-178.223,-163.574
1678025285.273,-220.703,-11.230,-171.875,-203.613,-121.582
1678025285.277,-206.055,-11.230,-180.664,-219.238,7.812
1678025285.281,-242.676,-16.602,-189.941,-246.094,-10.254
1678025285.285,-292.480,-9.766,-190.430,-261.230,-137.207
1678025285.289,-293.457,-7.812,-187.012,-257.324,-72.754
1678025285.293,-256.348,-7.812,-182.617,-238.770,174.805
1678025285.296,-213.867,-11.230,-182.129,-216.797,394.043
1678025285.300,-212.891,-12.695,-185.547,-217.285,102.539
1678025285.304,-258.301,-10.254,-188.477,-229.980,-211.914
1678025285.308,-257.324,-10.254,-190.430,-219.727,-152.832
1678025285.312,-190.430,-8.789,-179.199,-199.219,-139.160
1678025285.328,-132.324,-9.766,-171.875,-180.664,-158.203
1678025285.332,-131.348,-15.625,-173.340,-156.250,-119.629
1678025285.336,-176.758,-14.648,-164.551,-143.555,-130.371
1678025285.340,-161.133,-13.672,-152.344,-121.582,-238.281
1678025285.344,-77.148,-19.043,-147.461,-85.449,-144.531
1678025285.348,-32.715,-23.926,-142.090,-64.941,179.688
1678025285.352,-46.387,-23.438,-135.742,-43.945,141.602
1678025285.355,-79.590,-19.531,-132.812,-36.133,-119.141
1678025285.359,-61.035,-30.273,-129.395,-30.762,-185.547
1678025285.363,-8.789,-30.273,-124.023,3.906,146.973
1678025285.367,26.855,-22.949,-116.699,16.113,171.387
1678025285.371,10.254,-23.438,-114.746,8.789,-112.305
1678025285.373,-44.922,-27.344,-112.305,7.812,-183.105
1678025285.377,-42.480,-31.738,-107.910,12.695,-120.117
1678025285.381,20.996,-30.273,-104.004,28.320,-107.910
1678025285.385,76.172,-31.738,-96.191,42.480,-43.457
1678025285.389,51.758,-37.109,-90.820,44.922,53.711
1678025285.393,-9.766,-38.574,-89.355,37.598,6.836
1678025285.397,-10.254,-41.504,-87.402,40.039,-20.020
1678025285.400,47.363,-44.922,-87.402,52.734,-30.273
1678025285.404,86.914,-43.945,-85.938,62.988,76.172
1678025285.408,71.777,-39.062,-78.125,67.383,148.438
1678025285.412,19.531,-35.645,-72.754,52.734,-63.477
1678025285.416,1.953,-36.133,-76.660,50.781,-236.328
1678025285.418,46.875,-34.180,-73.242,75.195,-68.359
1678025285.422,90.332,-33.691,-67.383,81.543,343.262
1678025285.426,83.008,-34.668,-69.336,58.594,164.551
1678025285.430,39.062,-33.691,-65.918,40.039,-121.582
1678025285.434,34.180,-32.227,-64.453,40.527,-75.195
1678025285.438,60.059,-34.668,-67.383,43.945,-16.602
1678025285.442,104.004,-34.180,-68.848,48.340,31.738
1678025285.445,120.605,-31.738,-64.453,63.477,-46.387
1678025285.449,58.594,-32.715,-63.965,67.383,61.523
1678025285.453,15.137,-36.133,-63.965,67.871,70.312
1678025285.457,44.434,-34.180,-57.617,68.848,-117.188
1678025285.461,86.426,-36.133,-59.082,74.707,-44.434
1678025285.463,93.750,-39.062,-62.500,88.867,115.723
1678025285.467,46.875,-38.086,-61.035,78.125,-32.227
1678025285.471,-0.488,-34.180,-56.641,58.594,-205.566
1678025285.475,15.137,-33.691,-54.199,57.129,-164.062
1678025285.479,59.082,-33.203,-58.105,59.082,-71.289
1678025285.483,73.730,-30.273,-59.570,55.664,-0.488
1678025285.487,31.738,-35.156,-55.664,41.992,-65.918
1678025285.490,-15.137,-39.551,-56.152,35.156,36.133
1678025285.494,-6.348,-41.504,-53.711,47.852,309.570
1678025285.498,42.480,-40.039,-54.199,49.316,132.812
1678025285.502,76.660,-36.133,-56.641,40.527,-117.676
1678025285.506,47.852,-34.668,-57.617,34.668,-25.879
1678025285.508,-2.930,-36.621,-64.453,33.203,-110.352
1678025285.512,0.488,-35.645,-66.406,35.645,-271.484
1678025285.516,42.969,-31.738,-62.012,36.621,-220.215
1678025285.520,74.707,-33.691,-67.383,38.574,-13.184
1678025285.524,41.504,-38.086,-68.359,29.297,-10.254
1678025285.528,-13.672,-39.062,-62.988,15.137,-109.863
1678025285.532,-11.719,-38.086,-59.570,16.602,-57.129
1678025285.535,25.391,-36.621,-61.523,31.738,125.977
1678025285.539,54.199,-35.645,-63.477,25.391,92.285
1678025285.543,24.902,-33.691,-62.012,14.648,-111.328
1678025285.547,-33.691,-34.668,-65.430,8.301,-119.141
1678025285.551,-34.668,-35.156,-69.336,4.883,-23.926
1678025285.554,9.277,-33.203,-68.848,11.719,-104.004
1678025285.558,43.457,-28.320,-67.383,9.766,-81.055
1678025285.562,28.320,-22.949,-68.359,3.906,91.797
1678025285.566,-23.926,-24.902,-65.918,-4.395,124.512
1678025285.570,-30.273,-27.832,-62.988,-6.836,-94.238
1678025285.574,4.883,-30.273,-72.266,-12.695,-206.055
1678025285.578,39.062,-29.297,-71.777,-11.719,53.223
1678025285.581,33.691,-25.879,-64.453,-2.930,270.020
1678025285.585,-13.184,-22.949,-62.012,-9.766,-25.391
1678025285.589,-25.879,-21.484,-61.523,-15.137,-229.004
1678025285.593,5.371,-21.484,-61.523,-2.441,-70.801
1678025285.597,45.410,-20.020,-56.641,18.066,155.762
1678025285.598,46.387,-20.996,-55.664,4.883,-10.742
1678025285.602,-7.324,-25.391,-53.711,-11.230,-180.664
1678025285.606,-40.527,-28.320,-52.246,-13.672,-151.367
1678025285.610,-24.902,-32.227,-48.828,-17.578,-164.551
1678025285.614,21.973,-35.645,-42.969,-7.812,-40.527
1678025285.618,38.574,-28.320,-39.062,-0.977,99.121
1678025285.622,-5.371,-27.344,-35.645,-9.766,239.746
1678025285.625,-33.691,-30.273,-33.203,-16.113,262.207
1678025285.629,-14.160,-28.809,-35.156,-20.020,-111.328
1678025285.633,27.832,-24.902,-31.738,-24.414,-125.000
1678025285.637,45.898,-21.973,-27.832,-28.320,54.199
1678025285.641,-5.371,-28.809,-22.461,-29.297,-80.078
1678025285.657,-56.641,-36.133,-17.090,-40.039,-204.590
1678025285.661,-36.133,-36.133,-17.090,-44.434,-132.324
1678025285.665,15.137,-31.738,-15.625,-21.484,-63.477
1678025285.669,36.621,-33.691,-15.137,-14.160,-78.125
1678025285.673,8.301,-33.691,-12.695,-28.809,-168.945
1678025285.677,-37.109,-28.809,-10.254,-35.645,-60.059
1678025285.681,-21.484,-27.344,-10.742,-33.691,104.492
1678025285.684,28.809,-29.297,-9.766,-31.738,-11.719
1678025285.688,54.688,-28.320,-8.301,-36.133,-89.844
1678025285.692,19.043,-28.809,-2.930,-38.574,-73.242
1678025285.696,-52.246,-29.785,-1.953,-28.809,125.000
1678025285.700,-52.246,-30.273,-9.766,-35.645,-81.055
1678025285.703,0.000,-30.273,-12.207,-36.621,-241.211
1678025285.707,41.016,-30.273,-9.277,-28.320,-52.734
1678025285.711,16.113,-29.785,-14.648,-41.992,-69.824
1678025285.715,-44.922,-32.227,-14.160,-55.176,-201.172
1678025285.719,-44.434,-36.133,-15.137,-55.176,-219.727
1678025285.723,-2.441,-36.621,-14.160,-53.223,-7.324
1678025285.727,34.668,-36.621,-10.254,-53.711,59.082
1678025285.730,19.043,-41.504,-15.625,-54.688,-65.918
1678025285.734,-37.598,-42.969,-18.066,-65.918,-130.371
1678025285.738,-41.016,-38.574,-14.648,-74.219,159.180
1678025285.742,-10.254,-39.551,-17.090,-59.570,276.367
1678025285.746,21.484,-41.992,-24.902,-52.734,22.461
1678025285.748,16.113,-40.527,-26.367,-58.105,-19.531
1678025285.752,-35.156,-37.109,-25.879,-64.941,-40.039
1678025285.756,-47.363,-34.668,-23.926,-59.570,-166.016
1678025285.760,-6.836,-34.668,-20.508,-48.828,-221.680
1678025285.764,35.645,-31.738,-22.461,-46.875,-112.305
1678025285.768,21.484,-34.180,-26.367,-58.594,37.109
1678025285.772,-35.156,-33.203,-27.344,-69.824,-60.547
1678025285.775,-57.129,-34.668,-25.391,-70.312,-170.898
1678025285.779,-20.508,-33.691,-22.461,-65.430,-43.945
1678025285.783,21.484,-31.738,-23.438,-62.012,78.613
1678025285.787,24.414,-33.203,-22.949,-76.660,2.441
1678025285.791,-26.855,-35.645,-21.484,-93.750,-58.105
1678025285.793,-59.082,-36.621,-21.973,-100.586,-37.109
1678025285.797,-34.668,-33.203,-20.508,-94.727,243.164
1678025285.801,10.742,-33.691,-20.996,-101.074,134.277
1678025285.805,33.691,-32.227,-23.438,-111.328,-66.406
1678025285.809,-12.695,-29.785,-25.391,-121.582,-33.691
1678025285.813,-65.430,-34.668,-29.785,-130.371,-90.820
1678025285.817,-41.992,-35.156,-31.738,-135.742,-89.355
1678025285.820,5.859,-30.762,-32.227,-129.883,-94.238
1678025285.824,24.902,-30.273,-37.109,-117.188,148.438
1678025285.828,-9.277,-29.785,-37.598,-126.953,107.910
1678025285.832,-59.082,-32.227,-41.504,-149.902,-193.848
1678025285.836,-51.758,-34.668,-47.363,-153.809,-208.984
1678025285.839,-2.441,-29.785,-52.246,-145.508,-140.137
1678025285.843,29.785,-25.391,-56.152,-142.090,-96.191
1678025285.847,-2.441,-25.879,-53.711,-148.926,-76.660
1678025285.851,-49.316,-30.273,-52.734,-153.809,-120.117
1678025285.855,-41.504,-30.273,-54.688,-142.090,-10.254
1678025285.859,10.254,-30.273,-57.129,-127.441,50.293
1678025285.863,36.621,-30.273,-53.223,-123.535,28.809
1678025285.866,2.930,-32.715,-51.270,-131.836,117.676
1678025285.870,-47.852,-31.738,-50.781,-127.441,322.266
1678025285.874,-50.781,-30.762,-47.363,-121.582,29.297
1678025285.878,-10.254,-31.250,-45.410,-112.793,-224.609
1678025285.882,35.156,-28.809,-45.410,-96.191,-30.273
1678025285.883,7.324,-27.832,-49.316,-96.680,-26.855
1678025285.887,-54.688,-31.250,-56.641,-90.820,-179.688
1678025285.891,-61.523,-33.691,-59.570,-73.730,-181.152
1678025285.895,-12.207,-30.273,-56.641,-53.223,-71.289
1678025285.899,37.598,-28.809,-57.129,-37.109,-43.457
1678025285.903,14.160,-26.367,-50.781,-17.578,18.555
1678025285.907,-52.246,-25.879,-47.363,-11.230,20.508
1678025285.910,-63.477,-25.879,-51.758,-0.488,120.605
1678025285.914,-17.090,-20.020,-53.223,18.555,203.613
1678025285.918,34.668,-17.578,-53.711,18.066,-92.773
1678025285.922,19.531,-16.602,-50.781,20.996,-157.227
1678025285.926,-49.805,-19.043,-49.805,18.066,-103.516
1678025285.928,-67.871,-23.438,-52.246,10.254,-141.602
1678025285.932,-26.855,-24.414,-47.363,17.578,-163.574
1678025285.936,21.484,-26.367,-48.828,27.344,-106.934
1678025285.940,17.578,-31.250,-56.152,27.832,-46.875
1678025285.944,-40.039,-29.297,-55.664,20.508,-40.527
1678025285.948,-68.359,-27.344,-52.734,13.672,-85.449
1678025285.952,-38.574,-26.367,-52.246,23.438,-11.230
1678025285.955,15.137,-23.926,-50.781,42.480,390.625
1678025285.959,32.715,-23.438,-48.340,43.457,261.719
1678025285.963,-19.531,-24.414,-46.875,34.668,-130.859
1678025285.967,-68.848,-26.367,-47.363,32.715,-80.566
1678025285.971,-53.711,-24.414,-47.363,23.438,-30.273
1678025285.973,-1.465,-20.996,-46.875,33.203,-124.023
1678025285.977,33.203,-23.438,-45.410,46.387,-80.078
1678025285.981,-11.230,-26.367,-42.480,37.109,-44.434
1678025285.985,-61.523,-31.250,-41.992,31.250,-144.531
1678025285.989,-54.199,-33.691,-47.852,31.738,-193.359
1678025285.993,-5.859,-30.762,-50.293,34.180,-61.035
1678025285.997,27.344,-30.273,-49.316,41.992,221.191
1678025286.000,-17.578,-28.809,-49.805,38.574,172.363
1678025286.004,-72.754,-29.297,-48.340,19.043,-145.020
1678025286.008,-64.453,-33.691,-46.387,12.695,-174.805
1678025286.012,-28.320,-36.133,-45.898,19.043,25.879
1678025286.016,1.953,-36.621,-44.922,17.090,41.504
1678025286.019,-24.414,-37.109,-44.434,2.441,-75.684
1678025286.023,-71.777,-31.250,-47.852,-0.488,-140.137
1678025286.027,-61.035,-26.855,-48.340,4.883,-147.949
1678025286.031,-19.043,-32.227,-46.875,9.766,-144.531
1678025286.035,16.602,-34.668,-44.922,12.695,-136.230
1678025286.039,-5.859,-31.738,-50.293,9.766,84.961
1678025286.043,-76.660,-32.227,-52.734,-2.441,211.914
1678025286.046,-82.031,-33.691,-52.734,-13.672,-22.461
1678025286.050,-35.645,-28.320,-51.270,-11.230,-89.355
1678025286.054,13.184,-24.414,-44.922,0.000,37.109
1678025286.058,3.906,-23.926,-43.945,3.906,286.621
1678025286.062,-71.289,-19.043,-43.945,-7.812,42.969
1678025286.078,-91.797,-20.996,-44.922,-15.625,-229.004
1678025286.082,-43.457,-20.996,-46.387,-7.324,-52.246
1678025286.086,2.930,-19.531,-42.969,12.695,26.367
1678025286.090,-8.789,-22.949,-41.504,11.719,-85.938
1678025286.094,-64.453,-29.297,-46.875,-8.789,-238.770
1678025286.098,-80.566,-29.785,-48.828,-10.254,-20.020
1678025286.102,-40.527,-26.367,-43.457,-5.371,226.074
1678025286.105,7.324,-25.879,-41.992,-3.418,-20.996
1678025286.109,2.441,-27.344,-45.898,-4.395,-71.777
1678025286.113,-56.152,-30.273,-46.875,-9.766,-6.348
1678025286.117,-86.426,-29.785,-44.922,-9.766,-173.340
1678025286.121,-62.012,-25.391,-46.875,-5.859,-295.898
1678025286.122,-22.461,-26.367,-45.410,5.859,-125.488
1678025286.126,-9.766,-25.391,-41.992,6.836,69.336
1678025286.130,-55.176,-21.484,-47.852,-11.230,-105.469
1678025286.134,-90.820,-23.438,-51.270,-16.113,-221.680
1678025286.138,-68.359,-21.484,-51.270,-15.137,-124.512
1678025286.142,-22.461,-20.996,-52.246,-11.230,-48.828
1678025286.146,-5.859,-19.043,-47.363,-2.441,-8.789
1678025286.149,-57.617,-16.113,-43.945,-14.160,-78.125
1678025286.153,-107.422,-21.484,-49.316,-25.879,-111.328
1678025286.157,-79.590,-24.414,-57.129,-22.461,201.172
1678025286.161,-24.902,-20.996,-59.082,-32.227,77.148
1678025286.165,9.277,-11.719,-54.199,-37.109,-173.828
1678025286.168,-23.926,-9.277,-50.293,-40.527,-96.191
1678025286.172,-77.148,-13.672,-51.270,-58.594,-195.801
1678025286.176,-60.547,-14.648,-49.805,-55.176,-272.461
1678025286.180,-10.742,-15.137,-49.316,-49.805,-108.398
1678025286.184,19.043,-13.184,-49.316,-37.598,112.305
1678025286.188,-27.832,-15.625,-49.316,-30.762,150.391
1678025286.192,-91.797,-14.648,-46.387,-37.109,-32.227
1678025286.195,-91.309,-14.648,-43.457,-28.320,-142.090
1678025286.199,-56.641,-21.484,-45.410,-23.926,120.605
1678025286.203,-28.320,-21.973,-51.270,-23.926,141.113
1678025286.207,-49.805,-18.066,-52.734,-26.367,-72.754
1678025286.211,-107.910,-16.602,-51.270,-34.668,-130.371
1678025286.213,-116.699,-18.555,-54.688,-42.969,-164.551
1678025286.217,-72.266,-20.508,-54.688,-41.504,-117.188
1678025286.221,-30.273,-16.602,-51.270,-36.621,-63.965
1678025286.225,-52.734,-11.719,-50.293,-38.574,-95.215
1678025286.229,-112.793,-17.578,-56.641,-59.570,-59.082
1678025286.233,-123.535,-25.879,-62.012,-64.453,28.809
1678025286.237,-78.125,-25.879,-60.547,-52.734,-1.953
1678025286.240,-34.180,-20.508,-62.500,-42.480,135.742
1678025286.244,-43.945,-18.066,-63.477,-38.086,556.152
1678025286.248,-85.938,-17.578,-61.523,-51.270,345.703
1678025286.252,-101.074,-15.137,-60.547,-68.359,-161.621
1678025286.256,-73.242,-19.531,-63.477,-72.266,-170.898
1678025286.258,-30.273,-19.531,-62.988,-65.430,-83.496
1678025286.262,-34.180,-17.578,-61.035,-64.453,-100.586
1678025286.266,-88.379,-17.090,-62.988,-76.172,-157.227
1678025286.270,-116.699,-14.160,-62.988,-80.078,-192.383
1678025286.274,-93.750,-17.578,-63.965,-71.289,-185.059
1678025286.278,-53.711,-20.508,-61.523,-66.406,-89.844
1678025286.282,-48.340,-18.066,-56.152,-63.965,-78.613
1678025286.285,-97.168,-16.113,-57.129,-63.477,74.707
1678025286.289,-137.207,-13.672,-59.570,-80.566,166.504
1678025286.293,-106.445,-13.184,-54.199,-83.496,-118.164
1678025286.297,-59.082,-16.602,-59.570,-72.754,-131.348
1678025286.301,-48.828,-13.184,-67.871,-82.520,23.438
1678025286.303,-91.797,-1.953,-66.406,-106.445,-69.824
1678025286.307,-151.855,-3.906,-71.777,-137.695,-179.199
1678025286.311,-157.715,-8.789,-83.008,-156.250,-143.066
1678025286.315,-134.766,-5.859,-93.262,-181.152,-66.895
1678025286.319,-138.184,-0.488,-100.098,-202.637,-28.320
1678025286.323,-199.707,-2.930,-115.234,-230.469,-11.719
1678025286.327,-274.902,-9.766,-131.348,-263.184,49.805
1678025286.330,-300.293,-4.883,-140.137,-276.367,384.277
1678025286.334,-277.832,3.418,-148.438,-293.945,249.512
1678025286.338,-247.070,6.836,-148.438,-303.711,-99.121
1678025286.342,-278.320,9.277,-152.344,-307.129,64.941
1678025286.346,-343.262,9.277,-153.809,-318.359,128.906
1678025286.348,-333.496,5.859,-146.484,-315.918,-142.090
1678025286.352,-282.715,3.418,-141.602,-311.035,-106.934
1678025286.356,-241.211,3.418,-132.324,-299.805,-38.086
1678025286.360,-262.207,-0.488,-123.535,-296.875,-78.125
1678025286.364,-314.941,-4.883,-119.141,-303.711,-136.230
1678025286.368,-300.293,-6.836,-114.258,-292.969,-126.465
1678025286.372,-239.746,-5.859,-104.980,-264.648,205.566
1678025286.375,-176.758,-6.836,-93.750,-238.281,154.785
1678025286.379,-170.898,-9.277,-85.938,-230.957,-134.766
1678025286.383,-217.285,-15.137,-77.637,-233.398,-166.504
1678025286.387,-200.684,-15.625,-69.336,-208.008,-141.602
1678025286.391,-141.113,-13.184,-64.941,-180.664,-175.293
1678025286.394,-83.496,-18.555,-63.477,-154.297,-66.895
1678025286.398,-75.195,-24.902,-58.105,-130.859,85.938
1678025286.402,-131.348,-30.762,-55.664,-132.812,58.594
1678025286.406,-128.418,-26.367,-51.270,-129.395,-28.320
1678025286.410,-71.289,-12.695,-38.574,-99.609,-47.852
1678025286.414,-25.391,-14.648,-27.832,-77.637,78.125
1678025286.418,-17.578,-27.344,-25.879,-78.125,224.121
1678025286.421,-62.500,-28.809,-20.020,-85.938,20.020
1678025286.425,-87.402,-22.949,-11.719,-82.520,-183.105
1678025286.429,-60.547,-24.902,-10.254,-68.359,-143.555
1678025286.433,-12.207,-30.273,-5.859,-49.805,101.562
1678025286.437,0.977,-34.668,-2.441,-45.898,-45.898
1678025286.453,-45.410,-34.180,0.977,-52.734,-192.871
1678025286.457,-66.895,-26.367,6.348,-49.316,-96.680
1678025286.461,-31.738,-24.902,8.301,-41.016,-1.953
1678025286.465,6.836,-27.832,14.160,-41.016,-28.809
1678025286.469,10.742,-31.250,14.160,-44.922,-64.941
1678025286.473,-32.715,-31.250,13.184,-43.945,192.871
1678025286.477,-70.801,-35.645,17.090,-43.945,207.520
1678025286.480,-46.387,-38.574,15.137,-47.363,-168.457
1678025286.484,1.953,-31.250,15.137,-37.109,-107.422
1678025286.488,30.762,-27.344,17.578,-28.320,148.438
1678025286.492,-5.859,-24.902,18.066,-37.109,29.297
1678025286.496,-44.922,-25.879,24.414,-45.410,-127.930
1678025286.498,-24.414,-25.391,20.508,-41.992,-74.707
1678025286.502,25.391,-21.973,24.414,-32.715,-32.715
1678025286.506,64.453,-21.973,35.645,-13.672,-31.738
1678025286.510,28.320,-21.973,33.203,-17.578,-112.305
1678025286.514,-23.438,-24.902,38.574,-37.598,-135.254
1678025286.518,-8.789,-24.414,42.969,-31.738,-69.824
1678025286.522,28.809,-20.996,43.945,-22.461,-21.484
1678025286.525,49.805,-19.531,42.969,-22.949,77.148
1678025286.529,20.508,-23.438,35.645,-24.902,83.984
1678025286.533,-40.527,-25.391,36.133,-18.066,247.559
1678025286.537,-47.363,-23.438,41.504,-14.648,202.148
1678025286.541,-11.230,-23.438,40.527,-26.367,-150.391
1678025286.543,21.484,-22.461,37.109,-24.414,-144.043
1678025286.547,2.930,-20.508,41.504,-18.066,-100.098
1678025286.551,-62.012,-23.438,43.457,-23.926,-197.754
1678025286.555,-71.289,-24.902,42.480,-27.344,-207.520
1678025286.559,-26.367,-27.832,41.992,-21.484,-86.914
1678025286.563,15.625,-28.320,41.504,-4.883,41.504
1678025286.567,-1.953,-23.926,41.992,-4.395,-0.488
1678025286.570,-50.293,-22.461,38.086,-17.578,-72.266
1678025286.574,-62.988,-20.996,36.621,-12.207,133.301
1678025286.578,-30.762,-24.902,40.039,-0.977,227.051
1678025286.582,18.066,-26.367,41.992,0.000,-33.691
1678025286.586,15.625,-26.367,40.039,-2.930,-84.961
1678025286.588,-37.109,-25.879,38.086,-13.184,-56.641
1678025286.592,-60.059,-24.414,35.156,-8.789,-116.211
