timestamps,TP9,AF7,AF8,TP10,Right AUX
1678025175.873,-29.297,-38.574,-59.082,-47.363,-226.562
1678025175.877,-39.551,-37.598,-60.059,-35.156,-136.719
1678025175.881,-40.039,-35.156,-51.758,-22.461,96.680
1678025175.885,-29.785,-34.180,-52.734,-25.391,75.195
1678025175.889,-30.273,-34.668,-55.664,-43.945,-91.797
1678025175.893,-32.227,-37.109,-53.711,-44.434,-40.039
1678025175.897,-42.969,-37.109,-53.223,-32.715,39.551
1678025175.900,-50.293,-33.691,-48.828,-15.625,-24.414
1678025175.904,-49.316,-34.180,-49.805,-18.066,-121.582
1678025175.908,-41.504,-40.527,-54.688,-38.574,-41.504
1678025175.912,-50.293,-43.945,-55.176,-39.551,352.539
1678025175.916,-62.500,-43.457,-54.199,-37.598,204.102
1678025175.917,-55.176,-40.039,-53.711,-34.180,-127.930
1678025175.921,-52.734,-42.969,-56.641,-36.621,-63.965
1678025175.925,-43.945,-44.922,-59.082,-42.480,-111.816
1678025175.929,-41.992,-41.504,-56.641,-47.852,-180.176
1678025175.933,-48.340,-35.645,-55.176,-35.156,-80.078
1678025175.937,-54.688,-29.785,-54.199,-21.973,151.855
1678025175.941,-49.805,-35.645,-54.199,-29.297,101.074
1678025175.944,-45.898,-40.527,-55.176,-51.758,-136.230
1678025175.948,-54.199,-39.551,-61.523,-63.965,-188.477
1678025175.952,-58.105,-37.598,-60.059,-45.410,31.738
1678025175.956,-59.570,-38.086,-57.617,-35.156,-2.441
1678025175.960,-50.781,-35.645,-60.059,-37.109,-137.207
1678025175.962,-40.527,-32.227,-58.105,-51.758,-71.289
1678025175.966,-32.715,-34.668,-58.105,-57.129,-145.508
1678025175.970,-43.945,-34.668,-53.711,-52.246,-253.906
1678025175.974,-56.641,-39.062,-48.828,-38.574,-141.602
1678025175.978,-51.758,-39.551,-57.617,-35.645,-13.184
1678025175.982,-42.480,-31.250,-61.035,-45.410,14.648
1678025175.986,-35.645,-31.250,-56.641,-48.340,-20.996
1678025175.989,-48.340,-33.691,-57.129,-56.152,-83.496
1678025175.993,-57.617,-31.250,-56.152,-41.992,45.410
1678025175.997,-53.223,-30.762,-59.570,-21.973,290.527
1678025176.001,-47.363,-35.156,-62.012,-32.715,129.883
1678025176.005,-38.086,-29.297,-61.035,-43.945,-84.961
1678025176.007,-35.645,-20.020,-62.012,-35.156,-45.898
1678025176.011,-42.480,-26.367,-62.988,-23.926,-49.316
1678025176.015,-45.410,-30.762,-64.453,-19.531,-114.258
1678025176.019,-37.109,-26.367,-61.035,-25.391,-76.660
1678025176.023,-35.156,-28.320,-60.059,-46.387,-76.172
1678025176.027,-37.109,-30.273,-62.012,-53.223,-99.609
1678025176.031,-44.922,-32.227,-60.059,-38.086,-113.281
1678025176.034,-55.176,-35.156,-64.453,-37.109,-3.418
1678025176.038,-49.805,-34.180,-70.801,-41.992,204.102
1678025176.042,-47.363,-31.738,-65.918,-50.781,103.516
1678025176.046,-46.875,-33.203,-65.430,-60.547,-147.461
1678025176.050,-50.781,-36.133,-67.871,-50.781,-42.480
1678025176.052,-51.270,-30.762,-64.453,-37.598,131.348
1678025176.056,-38.574,-26.855,-65.918,-44.434,-42.969
1678025176.060,-27.344,-27.344,-70.312,-61.523,-175.293
1678025176.064,-31.250,-30.273,-68.359,-70.312,-135.742
1678025176.068,-51.758,-31.250,-68.359,-57.617,-106.934
1678025176.072,-65.430,-29.297,-72.754,-48.340,-0.977
1678025176.076,-60.059,-30.762,-75.195,-56.152,66.895
1678025176.079,-40.527,-33.203,-74.707,-57.617,114.746
1678025176.083,-37.598,-31.738,-72.266,-62.500,40.527
1678025176.087,-49.805,-31.250,-74.219,-61.523,-159.180
1678025176.091,-54.688,-30.762,-72.754,-44.434,-108.398
1678025176.095,-57.617,-29.785,-71.289,-34.668,173.828
1678025176.097,-53.711,-30.273,-70.801,-40.039,145.508
1678025176.101,-49.316,-30.762,-74.219,-56.152,-211.426
1678025176.105,-46.387,-29.785,-85.449,-53.223,-172.852
1678025176.109,-49.316,-27.832,-89.355,-40.039,-45.410
1678025176.113,-55.176,-29.785,-85.938,-36.621,-54.688
1678025176.117,-53.711,-28.809,-83.496,-51.270,-102.539
1678025176.121,-50.293,-30.273,-82.031,-71.777,-81.055
1678025176.124,-48.828,-28.320,-84.473,-63.965,109.863
1678025176.128,-41.992,-27.344,-84.961,-41.504,77.148
1678025176.132,-35.645,-28.320,-83.496,-37.598,-69.336
1678025176.136,-38.574,-30.762,-92.285,-48.340,-35.645
1678025176.140,-41.016,-33.203,-93.262,-56.641,-88.379
1678025176.146,-47.852,-27.832,-86.914,-49.805,-176.758
1678025176.150,-52.734,-24.414,-81.055,-33.691,-184.570
1678025176.154,-45.410,-26.367,-79.590,-26.855,32.227
1678025176.158,-32.227,-26.855,-81.055,-36.133,84.961
1678025176.162,-37.109,-28.320,-83.496,-50.781,-161.621
1678025176.166,-53.223,-29.785,-89.355,-58.594,-190.918
1678025176.170,-61.035,-34.180,-88.379,-44.434,112.793
1678025176.173,-53.711,-37.109,-85.938,-20.508,279.785
1678025176.177,-38.086,-35.156,-88.867,-37.598,-41.016
1678025176.181,-38.086,-32.715,-89.844,-61.035,-182.129
1678025176.185,-40.527,-32.227,-89.844,-67.871,-66.895
1678025176.189,-42.480,-34.668,-85.449,-58.105,-47.852
1678025176.187,-47.852,-33.203,-81.543,-41.016,-62.500
1678025176.191,-48.828,-35.156,-83.496,-49.805,-41.992
1678025176.195,-43.457,-39.551,-86.914,-60.059,-29.297
1678025176.199,-48.340,-42.480,-87.402,-62.012,-95.215
1678025176.203,-62.500,-41.016,-91.309,-60.059,-116.699
1678025176.207,-72.754,-39.062,-90.332,-56.152,60.547
1678025176.211,-55.664,-39.062,-88.379,-50.293,356.445
1678025176.214,-41.992,-39.551,-91.797,-54.199,230.469
1678025176.218,-58.594,-42.480,-92.285,-72.754,-247.070
1678025176.222,-74.707,-41.016,-98.633,-72.266,-167.480
1678025176.226,-65.918,-38.086,-96.680,-51.270,-27.832
1678025176.230,-57.617,-39.062,-95.703,-51.270,-108.887
1678025176.232,-60.059,-38.086,-100.098,-65.918,-149.414
1678025176.236,-59.082,-33.691,-95.215,-65.430,-193.848
1678025176.240,-59.082,-34.180,-91.797,-54.199,-137.207
1678025176.244,-58.594,-34.180,-88.867,-41.504,-56.152
1678025176.248,-47.852,-32.715,-93.750,-36.133,-14.160
1678025176.252,-42.480,-36.133,-97.656,-45.410,102.539
1678025176.256,-45.898,-34.180,-95.703,-60.547,120.117
1678025176.259,-56.641,-33.691,-96.191,-59.082,-45.410
1678025176.263,-65.430,-37.109,-96.191,-42.969,-122.559
1678025176.267,-56.641,-31.250,-97.168,-39.551,117.188
1678025176.271,-44.434,-26.367,-98.633,-49.316,312.500
1678025176.275,-37.109,-29.785,-97.656,-67.383,-20.508
1678025176.292,-33.203,-29.297,-102.539,-73.242,-214.355
1678025176.296,-35.645,-26.855,-106.445,-54.688,-4.883
1678025176.300,-32.227,-28.809,-103.027,-44.922,63.477
1678025176.304,-21.484,-29.785,-104.004,-62.988,-48.340
1678025176.308,-16.113,-28.809,-99.609,-75.684,-117.188
1678025176.312,-20.508,-29.297,-92.773,-75.195,-78.613
1678025176.316,-45.410,-32.227,-97.168,-55.176,11.719
1678025176.319,-55.176,-37.109,-101.562,-38.574,-86.914
1678025176.323,-50.293,-37.109,-101.074,-51.758,-54.688
1678025176.327,-46.387,-36.133,-99.609,-56.152,226.074
1678025176.331,-53.223,-39.062,-101.562,-52.246,20.996
1678025176.335,-75.195,-39.062,-104.980,-46.875,-224.121
1678025176.337,-65.430,-37.109,-106.445,-24.902,-78.125
1678025176.341,-45.410,-36.621,-103.516,-32.227,-20.020
1678025176.345,-46.387,-34.668,-101.562,-55.664,-112.305
1678025176.349,-51.270,-36.133,-104.492,-52.734,-216.797
1678025176.353,-58.105,-38.086,-107.910,-30.762,-143.066
1678025176.357,-59.082,-34.668,-104.492,-30.273,-0.977
1678025176.361,-46.875,-30.762,-102.051,-39.551,47.852
1678025176.364,-44.922,-31.250,-104.980,-43.945,-129.395
1678025176.368,-55.664,-36.133,-112.793,-57.617,-71.777
1678025176.372,-65.430,-34.180,-113.770,-41.992,134.277
1678025176.376,-65.430,-29.297,-107.910,-23.438,-32.715
1678025176.380,-53.711,-30.762,-110.352,-26.855,-70.312
1678025176.382,-40.039,-30.273,-113.281,-39.551,75.195
1678025176.386,-41.992,-28.809,-110.840,-41.504,76.660
1678025176.390,-52.734,-31.250,-108.887,-39.062,-117.188
1678025176.394,-51.758,-30.273,-111.328,-44.922,-60.547
1678025176.398,-42.480,-25.879,-114.258,-46.387,54.688
1678025176.402,-34.668,-28.809,-115.723,-57.129,17.578
1678025176.406,-30.273,-30.762,-113.770,-67.871,-65.430
1678025176.409,-38.086,-26.855,-106.934,-55.176,-74.707
1678025176.413,-45.898,-27.832,-108.398,-25.879,198.730
1678025176.417,-38.086,-28.320,-106.445,-18.555,222.168
1678025176.421,-28.809,-31.250,-104.004,-49.805,-105.469
1678025176.425,-29.297,-40.039,-109.375,-79.590,-127.441
1678025176.443,-36.621,-40.039,-108.887,-80.078,-140.137
1678025176.447,-44.434,-38.574,-111.328,-71.289,-21.484
1678025176.451,-39.551,-36.621,-117.676,-76.660,80.566
1678025176.455,-26.367,-32.227,-113.281,-94.238,82.520
1678025176.459,-36.621,-33.203,-114.258,-113.770,32.715
1678025176.463,-48.340,-32.715,-118.652,-122.559,-102.051
1678025176.467,-42.969,-28.809,-117.188,-110.840,-52.734
1678025176.470,-37.109,-31.250,-117.188,-97.656,128.418
1678025176.474,-28.809,-30.273,-117.676,-114.258,198.242
1678025176.478,-26.367,-29.297,-118.652,-127.930,-72.754
1678025176.482,-33.691,-33.203,-119.141,-104.004,-107.422
1678025176.486,-45.410,-31.738,-114.746,-55.664,55.664
1678025176.472,-43.457,-30.762,-111.328,-35.156,3.418
1678025176.476,-28.320,-27.832,-111.328,-45.898,-150.391
1678025176.480,-20.020,-26.855,-108.398,-44.922,-203.125
1678025176.484,-17.090,-24.414,-101.562,-31.738,-164.551
1678025176.488,-21.973,-22.949,-98.145,-15.137,-58.594
1678025176.492,-25.879,-26.855,-101.562,-8.301,85.449
1678025176.496,-18.555,-29.785,-103.027,-13.184,143.555
1678025176.499,-10.254,-25.391,-93.750,-22.461,29.297
1678025176.503,-15.625,-24.414,-91.309,-22.461,-98.633
1678025176.507,-28.809,-29.785,-91.797,-2.441,-121.094
1678025176.511,-28.809,-28.320,-92.773,13.184,-36.621
1678025176.515,-22.461,-30.762,-94.727,8.789,234.375
1678025176.517,-11.230,-34.180,-90.820,-7.324,103.027
1678025176.521,-1.953,-28.809,-84.961,-17.090,-271.973
1678025176.525,-18.066,-30.273,-84.961,-3.418,-155.273
1678025176.529,-22.461,-30.762,-82.520,12.695,-56.152
1678025176.533,-13.672,-29.785,-81.543,5.371,-25.391
1678025176.537,-13.672,-30.762,-88.867,-13.672,-78.613
1678025176.541,-11.719,-26.855,-89.355,-21.484,63.477
1678025176.544,-20.508,-29.297,-85.449,-5.859,348.145
1678025176.548,-25.879,-29.297,-84.473,-1.465,121.094
1678025176.552,-24.902,-26.855,-90.332,-17.090,-104.492
1678025176.556,-23.438,-28.320,-94.238,-23.438,-53.223
1678025176.560,-27.832,-29.785,-97.168,-40.039,-130.371
1678025176.562,-45.898,-30.273,-99.121,-60.547,-248.535
1678025176.566,-60.547,-30.762,-101.562,-54.199,-166.016
1678025176.570,-78.613,-28.320,-109.863,-71.289,5.859
1678025176.574,-100.586,-30.273,-120.117,-107.910,-30.762
1678025176.578,-116.699,-31.738,-132.324,-130.859,-174.805
1678025176.582,-146.484,-29.785,-143.555,-142.090,-29.785
1678025176.586,-184.082,-26.855,-158.691,-153.809,374.512
1678025176.589,-195.801,-26.367,-166.504,-174.805,250.488
1678025176.593,-190.430,-23.926,-168.945,-202.637,-104.980
1678025176.597,-195.801,-20.020,-171.875,-219.727,-124.512
1678025176.601,-212.891,-13.672,-169.434,-205.078,-10.254
1678025176.605,-218.262,-10.742,-170.898,-179.199,-71.289
1678025176.607,-194.336,-6.836,-169.922,-159.668,-135.742
1678025176.611,-162.109,-6.348,-167.969,-158.691,-65.918
1678025176.615,-128.418,-7.324,-164.551,-146.484,-90.332
1678025176.619,-107.422,-7.324,-159.180,-127.441,-172.363
1678025176.623,-97.656,-5.371,-154.297,-99.121,-134.766
1678025176.627,-78.613,-4.883,-150.879,-66.895,100.098
1678025176.631,-49.805,-3.906,-144.043,-46.875,47.852
1678025176.634,-30.762,-7.324,-139.160,-42.969,-183.594
1678025176.638,-30.762,-12.695,-137.695,-47.852,-262.695
1678025176.642,-38.086,-16.602,-132.812,-24.902,-71.777
1678025176.646,-26.855,-21.484,-127.930,3.906,154.785
1678025176.650,-1.465,-18.555,-122.070,3.906,43.945
1678025176.668,19.043,-17.578,-117.188,-5.371,-116.211
1678025176.672,20.996,-24.902,-116.211,14.648,8.789
1678025176.676,18.555,-27.344,-115.723,45.898,85.938
1678025176.680,30.273,-25.879,-114.746,61.035,-101.074
1678025176.684,40.039,-24.902,-106.445,59.570,-71.289
1678025176.688,46.387,-26.367,-107.910,47.363,-0.977
1678025176.692,48.828,-28.320,-113.281,47.363,-92.285
1678025176.695,47.363,-28.809,-108.398,64.941,-190.918
1678025176.699,46.875,-31.738,-107.422,75.195,-49.316
1678025176.703,50.781,-34.180,-104.980,66.895,157.227
1678025176.707,60.059,-34.668,-102.051,57.129,3.418
1678025176.711,59.570,-32.227,-102.539,52.246,-215.820
1678025176.712,47.363,-30.273,-100.586,69.336,-178.223
1678025176.716,43.457,-31.738,-97.168,85.449,-55.176
1678025176.720,51.758,-32.715,-94.727,82.520,-89.844
1678025176.724,59.570,-30.762,-92.285,67.871,-210.449
1678025176.728,61.035,-30.273,-89.844,62.500,-91.797
1678025176.732,49.316,-26.855,-86.914,80.566,44.922
1678025176.736,52.734,-24.902,-86.426,88.379,-45.410
1678025176.739,64.453,-27.344,-89.355,81.543,-86.426
1678025176.743,68.359,-28.809,-85.938,70.801,66.895
1678025176.747,63.477,-30.273,-83.008,61.523,98.633
1678025176.751,55.176,-24.902,-83.496,68.848,-142.578
1678025176.755,58.594,-23.926,-81.543,85.938,-109.375
1678025176.757,67.871,-24.902,-83.496,83.496,85.449
1678025176.761,74.219,-22.949,-85.938,67.871,30.762
1678025176.765,67.871,-24.414,-87.402,51.270,-184.082
1678025176.769,54.688,-27.344,-87.891,50.293,-168.457
1678025176.773,50.293,-26.367,-89.355,73.730,34.180
1678025176.777,45.898,-26.855,-87.402,74.707,96.680
1678025176.781,41.504,-23.438,-82.520,62.988,-25.391
1678025176.784,56.641,-20.508,-85.449,62.012,-102.539
1678025176.788,57.129,-20.508,-85.449,71.777,125.000
1678025176.792,43.457,-18.555,-80.078,89.844,117.676
1678025176.796,46.875,-22.949,-81.543,95.215,-88.379
1678025176.800,57.617,-21.973,-83.496,78.125,-44.434
1678025176.802,59.082,-19.043,-84.961,62.988,-66.895
1678025176.806,54.688,-23.926,-85.449,62.988,-150.391
1678025176.810,53.711,-20.508,-83.008,67.383,-155.273
1678025176.814,59.082,-17.090,-83.984,76.660,-35.156
1678025176.818,55.664,-25.391,-85.938,65.918,-27.344
1678025176.822,48.340,-29.785,-88.379,42.480,-69.824
1678025176.826,42.969,-31.738,-85.938,41.504,-62.500
1678025176.829,30.273,-31.738,-89.355,61.035,139.160
1678025176.833,24.902,-25.879,-90.820,70.801,307.617
1678025176.837,25.879,-30.273,-91.309,52.734,37.109
1678025176.841,33.203,-33.691,-91.797,27.832,-107.422
1678025176.845,31.250,-26.855,-87.402,25.879,29.785
1678025176.847,21.484,-24.414,-85.938,31.738,24.414
1678025176.851,23.438,-23.926,-82.520,40.527,-91.797
1678025176.855,22.461,-30.273,-84.473,44.922,-96.191
1678025176.859,25.391,-36.621,-85.449,28.809,-136.230
1678025176.863,33.691,-34.668,-83.496,20.996,-183.105
1678025176.867,25.879,-32.227,-80.566,38.086,-88.379
1678025176.871,20.020,-28.320,-79.102,58.594,25.879
1678025176.874,29.785,-28.320,-83.496,61.523,249.512
1678025176.878,42.969,-27.832,-86.426,39.551,189.941
1678025176.882,37.598,-22.461,-84.961,23.438,-145.996
1678025176.886,6.836,-28.320,-83.984,33.691,-109.863
1678025176.890,0.000,-25.391,-85.938,47.363,49.316
1678025176.892,23.438,-18.555,-89.355,46.875,-43.457
1678025176.896,29.785,-23.926,-91.797,25.879,-161.621
1678025176.900,24.414,-19.531,-89.844,5.859,-137.695
1678025176.904,12.207,-20.508,-87.402,12.207,-93.262
1678025176.908,0.488,-24.414,-89.355,23.926,-89.844
1678025176.912,5.371,-21.484,-89.844,22.461,-59.570
1678025176.916,15.137,-20.508,-91.797,13.672,167.969
1678025176.919,10.254,-21.973,-96.191,6.348,234.375
1678025176.923,-2.441,-21.973,-93.750,12.207,-158.203
1678025176.927,-8.301,-22.949,-89.844,18.555,-150.879
1678025176.931,-7.812,-28.809,-93.750,8.789,49.805
1678025176.935,6.348,-25.879,-98.633,-2.441,77.148
1678025176.952,16.113,-22.949,-94.727,-2.441,-71.777
1678025176.956,0.488,-31.738,-85.938,-1.953,-242.188
1678025176.960,-16.602,-30.273,-81.543,14.648,22.461
1678025176.964,-13.184,-27.832,-85.938,27.344,143.555
1678025176.968,-0.977,-31.738,-90.820,5.859,-111.328
1678025176.972,2.930,-29.785,-85.938,-6.836,-87.402
1678025176.976,-4.883,-26.367,-84.473,10.254,222.656
1678025176.979,-18.066,-30.273,-85.449,28.320,155.273
1678025176.983,-8.789,-27.832,-85.449,32.715,-81.543
1678025176.987,2.441,-21.973,-87.891,23.438,-82.031
1678025176.991,-6.836,-30.762,-92.285,0.977,-150.391
1678025176.995,-10.254,-29.785,-91.797,-3.906,-216.309
1678025176.983,-8.301,-21.973,-88.867,13.672,-95.215
1678025176.987,-10.254,-20.996,-86.914,27.344,146.484
1678025176.991,-7.812,-20.996,-88.379,8.789,86.914
1678025176.995,-5.859,-22.461,-92.285,-27.344,-141.113
1678025176.999,-6.348,-26.367,-95.215,-39.551,-215.820
1678025177.003,-8.789,-24.902,-93.262,-22.461,-14.160
1678025177.007,-10.254,-21.973,-93.750,-15.137,127.930
1678025177.010,-2.441,-20.996,-97.656,-24.902,27.344
1678025177.014,16.602,-18.555,-98.633,-35.156,-145.020
1678025177.018,26.855,-19.043,-95.215,-31.738,-41.992
1678025177.022,22.949,-20.508,-96.191,-8.789,237.305
1678025177.026,31.250,-23.926,-102.051,0.000,20.020
1678025177.042,28.809,-24.414,-102.539,-7.324,-118.164
1678025177.046,21.973,-22.949,-95.703,-9.766,-82.520
1678025177.050,21.973,-25.391,-93.262,-9.277,-91.309
1678025177.054,-1.953,-29.785,-97.656,-2.441,-74.707
1678025177.058,-20.020,-29.297,-90.820,13.184,-37.598
1678025177.062,-13.184,-24.902,-83.008,12.207,199.219
1678025177.066,-1.465,-22.949,-86.914,-5.371,197.754
1678025177.069,-6.836,-27.344,-89.844,-17.090,-133.301
1678025177.073,-20.020,-26.367,-90.820,-6.348,-117.188
1678025177.077,-14.648,-20.508,-90.820,16.602,118.652
1678025177.081,-6.348,-19.043,-95.703,6.836,5.859
1678025177.085,1.953,-18.555,-98.633,-13.184,-163.086
1678025177.087,-4.395,-19.043,-99.121,-22.949,-163.574
1678025177.091,-22.949,-19.043,-100.586,-31.250,-177.734
1678025177.095,-34.180,-21.973,-103.027,-25.391,-205.566
1678025177.099,-32.227,-24.902,-104.980,-27.832,-171.875
1678025177.103,-19.531,-25.391,-104.980,-45.898,-128.906
1678025177.107,-17.090,-24.414,-106.934,-46.875,-47.363
1678025177.111,-24.414,-23.926,-104.004,-36.133,-89.355
1678025177.114,-26.367,-21.973,-98.633,-15.625,-21.973
1678025177.118,-28.320,-17.578,-98.145,2.930,157.715
1678025177.122,-31.738,-23.438,-100.098,-0.488,190.918
1678025177.126,-21.484,-22.949,-104.492,-23.438,-38.574
1678025177.130,-28.320,-26.367,-104.492,-33.203,-230.957
1678025177.147,-49.316,-28.320,-102.051,-5.859,-59.082
1678025177.151,-41.504,-23.926,-104.492,14.160,-2.930
1678025177.155,-23.438,-29.297,-108.887,-1.465,-180.664
1678025177.159,-22.949,-30.762,-107.422,-21.484,-170.898
1678025177.163,-39.062,-32.227,-106.445,-18.555,-181.152
1678025177.167,-48.340,-30.762,-111.328,-4.395,-177.734
1678025177.171,-37.109,-26.367,-111.816,5.371,-82.520
1678025177.174,-21.484,-22.949,-111.816,1.465,-58.105
1678025177.178,-22.461,-20.508,-109.863,-13.672,164.062
1678025177.182,-31.738,-20.020,-108.887,-21.973,128.418
1678025177.186,-33.691,-18.066,-112.305,-18.066,-180.176
1678025177.190,-30.762,-20.508,-116.211,-14.648,-124.023
1678025177.177,-24.414,-24.414,-114.746,-29.297,-86.914
1678025177.181,-20.996,-25.391,-114.746,-46.875,-205.078
1678025177.185,-29.785,-25.879,-113.281,-46.387,-238.770
1678025177.189,-38.574,-24.414,-105.957,-22.461,-128.906
1678025177.193,-34.180,-23.926,-105.957,-11.719,-50.293
1678025177.197,-16.602,-24.902,-107.910,-24.414,-92.773
1678025177.201,-11.719,-23.438,-106.445,-31.250,-153.809
1678025177.204,-24.902,-23.926,-104.492,-38.574,-140.625
1678025177.208,-35.156,-21.484,-100.586,-32.715,-133.301
1678025177.212,-38.574,-19.531,-95.215,-6.836,-63.477
1678025177.216,-32.227,-23.926,-95.703,-14.160,-27.344
1678025177.220,-23.438,-24.902,-96.680,-33.203,115.234
1678025177.222,-28.809,-24.902,-91.797,-39.062,105.957
1678025177.226,-43.457,-32.715,-93.262,-31.738,-121.094
1678025177.230,-37.598,-32.227,-90.332,-16.602,-172.363
1678025177.234,-22.461,-30.273,-88.379,-3.906,123.047
1678025177.238,-19.531,-32.715,-89.355,-13.184,220.703
1678025177.242,-24.414,-33.691,-85.938,-41.016,-187.012
1678025177.246,-28.809,-33.691,-82.520,-34.180,-130.371
1678025177.249,-31.250,-29.785,-77.148,-7.812,189.941
1678025177.253,-27.832,-25.879,-73.242,-6.348,104.004
1678025177.257,-21.484,-27.344,-70.801,-17.578,-131.348
1678025177.261,-19.043,-25.879,-71.777,-23.926,-128.418
1678025177.265,-24.414,-27.344,-73.242,-21.973,-116.211
1678025177.268,-31.250,-27.832,-69.824,-9.277,7.812
1678025177.272,-33.691,-22.949,-69.824,-4.395,42.480
1678025177.276,-33.691,-25.391,-73.730,-14.648,20.020
1678025177.280,-30.762,-27.832,-75.684,-28.809,-48.340
1678025177.284,-26.855,-26.855,-74.707,-31.250,-179.688
1678025177.288,-28.809,-22.461,-70.312,-19.043,-104.004
1678025177.292,-33.203,-20.508,-67.871,-12.695,109.863
1678025177.295,-37.598,-22.461,-70.312,-27.832,219.238
1678025177.299,-29.785,-20.996,-74.707,-49.805,-99.121
1678025177.303,-27.344,-20.996,-71.289,-35.156,-215.332
1678025177.307,-41.504,-23.438,-69.824,-16.602,28.320
1678025177.311,-37.109,-23.438,-61.035,-18.066,91.309
1678025177.313,-29.297,-27.344,-56.152,-23.926,-128.418
1678025177.317,-36.133,-33.691,-59.570,-33.691,-227.539
1678025177.321,-41.504,-33.203,-56.152,-36.621,-72.754
1678025177.325,-41.504,-32.227,-54.688,-13.672,-64.941
1678025177.329,-43.945,-34.180,-51.270,6.836,-157.715
1678025177.333,-53.711,-37.598,-48.340,-6.348,-80.566
1678025177.337,-42.480,-37.109,-58.105,-19.043,218.750
1678025177.340,-35.645,-33.691,-58.594,-17.578,241.699
1678025177.344,-44.434,-29.297,-53.711,-10.254,-94.727
1678025177.348,-48.340,-29.785,-54.688,-7.324,21.973
1678025177.352,-44.434,-30.762,-52.734,-12.695,40.527
1678025177.356,-34.180,-30.273,-49.805,-25.391,-160.156
1678025177.357,-39.062,-33.203,-47.852,-36.133,-201.660
1678025177.361,-51.270,-29.297,-47.852,-28.320,-110.352
1678025177.365,-50.781,-24.414,-50.781,-16.602,-69.336
1678025177.369,-44.922,-29.785,-52.734,-22.949,-112.305
1678025177.373,-37.109,-29.785,-55.176,-41.016,-186.523
1678025177.377,-40.527,-27.832,-58.594,-49.316,-7.812
1678025177.381,-47.852,-28.320,-56.641,-39.551,136.230
1678025177.384,-37.109,-25.879,-56.641,-27.832,-16.602
1678025177.388,-40.039,-30.762,-60.547,-34.668,-87.891
1678025177.392,-42.480,-31.738,-59.082,-35.645,20.020
1678025177.396,-32.715,-25.391,-52.734,-41.016,80.566
1678025177.400,-38.086,-27.344,-48.828,-41.504,-77.637
1678025177.417,-45.410,-27.344,-47.852,-28.320,-119.141
1678025177.421,-32.227,-26.367,-48.828,-18.066,129.883
1678025177.425,-14.648,-23.926,-50.781,-18.066,257.324
1678025177.429,-13.184,-20.508,-48.340,-36.133,-95.215
1678025177.433,-28.320,-21.484,-46.875,-22.949,-142.090
1678025177.437,-43.457,-18.555,-46.875,-3.418,13.184
1678025177.441,-40.039,-21.973,-44.434,-9.277,8.301
1678025177.444,-35.156,-23.438,-39.062,-27.832,-13.184
1678025177.448,-38.086,-21.973,-42.480,-38.086,-106.445
1678025177.452,-47.363,-25.879,-43.945,-30.273,140.137
1678025177.456,-54.688,-26.855,-47.852,-27.344,182.129
1678025177.460,-58.105,-24.902,-51.758,-39.062,-74.707
1678025177.462,-59.570,-26.367,-47.852,-49.316,-91.309
1678025177.466,-50.781,-27.832,-50.293,-55.664,-150.391
1678025177.470,-49.805,-27.344,-54.199,-60.547,-174.316
1678025177.474,-59.082,-27.832,-52.246,-43.457,-187.500
1678025177.478,-56.152,-28.809,-50.293,-28.809,-74.707
1678025177.482,-49.316,-29.297,-49.316,-46.875,74.219
1678025177.486,-42.480,-26.855,-50.293,-65.918,57.617
1678025177.489,-43.457,-26.367,-46.387,-61.523,-164.062
1678025177.493,-55.664,-27.344,-47.363,-39.551,-62.500
1678025177.497,-57.617,-30.273,-53.223,-25.391,202.637
1678025177.501,-47.363,-33.203,-53.223,-47.363,-29.785
1678025177.505,-46.875,-27.832,-53.711,-65.918,-204.590
1678025177.507,-55.664,-21.973,-50.293,-50.781,9.766
1678025177.511,-63.477,-24.902,-52.246,-41.504,107.422
1678025177.515,-57.129,-25.879,-55.176,-46.875,-87.402
1678025177.519,-44.922,-30.273,-52.734,-37.598,-44.922
1678025177.523,-40.039,-32.227,-49.316,-42.480,-59.082
1678025177.527,-42.969,-31.250,-47.363,-59.570,-152.344
1678025177.531,-58.105,-30.762,-47.363,-47.852,-104.492
1678025177.534,-56.152,-31.738,-45.898,-34.668,1.953
1678025177.538,-39.062,-30.762,-45.410,-30.273,185.547
1678025177.542,-40.039,-27.832,-48.828,-38.574,85.449
1678025177.546,-46.387,-26.855,-50.293,-56.152,-234.863
1678025177.550,-42.969,-22.461,-51.270,-49.316,-85.449
1678025177.552,-45.410,-24.414,-52.734,-41.992,108.887
1678025177.556,-48.340,-29.297,-55.176,-51.270,-32.227
1678025177.560,-37.109,-27.344,-54.199,-63.477,-130.371
1678025177.564,-31.738,-20.020,-53.711,-60.059,-106.934
1678025177.568,-46.387,-19.043,-54.688,-47.363,-133.789
1678025177.572,-48.340,-16.113,-54.688,-28.320,-20.996
1678025177.576,-45.410,-15.625,-56.152,-28.809,41.504
1678025177.579,-37.598,-20.508,-53.711,-43.945,90.820
1678025177.583,-36.621,-21.484,-55.176,-50.781,62.500
1678025177.587,-50.781,-23.926,-56.641,-51.758,-197.266
1678025177.591,-56.152,-24.902,-55.664,-36.133,-167.969
1678025177.595,-51.758,-24.414,-61.523,-28.320,108.398
1678025177.613,-50.293,-25.879,-64.941,-37.598,76.660
1678025177.617,-47.852,-21.973,-56.152,-56.641,-153.320
1678025177.621,-42.969,-20.508,-56.152,-62.500,-93.750
1678025177.625,-55.664,-23.438,-61.035,-45.410,39.062
1678025177.629,-58.105,-21.973,-60.059,-37.598,50.293
1678025177.633,-47.363,-20.508,-60.059,-39.062,-41.504
1678025177.637,-48.340,-25.391,-61.523,-53.223,-130.859
1678025177.640,-53.223,-25.391,-58.105,-57.129,58.594
1678025177.644,-64.941,-24.414,-55.176,-40.527,98.145
1678025177.648,-67.871,-23.438,-55.664,-40.039,-114.258
1678025177.652,-56.641,-24.902,-57.129,-50.293,-140.625
1678025177.656,-56.152,-26.855,-61.523,-65.430,-118.652
1678025177.642,-65.918,-26.367,-62.988,-70.801,-158.691
1678025177.646,-72.754,-35.156,-62.500,-61.035,-146.484
1678025177.650,-73.242,-37.598,-68.359,-51.758,-18.066
1678025177.654,-66.406,-36.133,-73.242,-55.664,-0.977
1678025177.658,-60.547,-32.715,-71.777,-65.918,-40.527
1678025177.662,-65.430,-26.855,-67.871,-67.871,-86.426
1678025177.666,-71.777,-32.715,-63.965,-56.152,142.578
1678025177.669,-66.895,-28.320,-60.059,-38.574,241.211
1678025177.673,-61.035,-26.855,-57.617,-49.316,0.000
1678025177.677,-64.941,-32.715,-59.082,-86.914,-177.246
1678025177.681,-83.008,-25.879,-60.059,-87.402,10.254
1678025177.685,-103.027,-26.855,-65.918,-75.195,430.176
1678025177.687,-112.305,-30.273,-73.730,-86.914,142.578
1678025177.691,-120.605,-25.391,-73.242,-103.516,-156.738
1678025177.695,-142.090,-26.367,-67.871,-133.789,-100.098
1678025177.699,-164.062,-34.180,-76.660,-164.062,-147.949
1678025177.703,-183.594,-39.062,-90.332,-173.340,-226.562
1678025177.707,-209.961,-37.109,-96.680,-179.688,-76.660
1678025177.711,-220.703,-29.785,-104.492,-200.684,201.172
1678025177.714,-223.633,-28.320,-114.258,-233.887,145.020
1678025177.718,-230.957,-31.250,-119.141,-242.188,-145.508
1678025177.722,-247.559,-27.344,-120.605,-243.164,-144.043
1678025177.726,-242.188,-25.879,-123.047,-229.004,69.336
1678025177.730,-218.750,-24.414,-125.000,-218.262,-20.996
1678025177.733,-205.566,-20.996,-119.141,-229.492,-235.352
1678025177.737,-205.078,-19.043,-113.770,-231.445,-231.934
1678025177.741,-204.102,-21.484,-111.816,-207.031,-178.223
1678025177.745,-176.270,-20.020,-101.562,-162.109,-129.883
1678025177.749,-146.973,-14.160,-96.191,-146.484,-75.684
1678025177.753,-130.859,-14.648,-102.051,-154.297,133.789
1678025177.757,-105.957,-11.719,-100.586,-152.832,156.250
1678025177.760,-97.168,-10.742,-94.727,-131.836,-95.703
1678025177.764,-99.609,-15.137,-94.238,-111.816,-131.836
1678025177.768,-84.473,-14.160,-92.773,-104.492,85.449
1678025177.772,-72.266,-14.648,-93.750,-99.121,249.023
1678025177.776,-61.035,-16.602,-96.680,-101.074,8.301
1678025177.792,-59.570,-19.043,-95.215,-101.562,-141.602
1678025177.796,-65.430,-19.043,-87.891,-66.406,4.883
1678025177.800,-56.152,-18.555,-81.055,-41.992,99.121
1678025177.804,-41.016,-27.832,-79.102,-51.758,-83.008
1678025177.808,-40.039,-32.715,-78.125,-64.941,-186.523
1678025177.812,-41.504,-27.832,-75.195,-48.828,169.922
1678025177.816,-41.504,-33.203,-73.730,-24.902,285.156
1678025177.819,-33.203,-39.062,-71.777,-15.137,-36.621
1678025177.823,-19.043,-32.715,-69.336,-14.648,-82.520
1678025177.827,-8.301,-27.832,-66.406,-22.949,-16.113
1678025177.831,-13.672,-28.809,-61.523,-19.043,-126.465
1678025177.835,-23.438,-26.855,-61.523,-6.836,-138.672
1678025177.837,-22.461,-30.762,-62.500,10.742,50.781
1678025177.841,-16.113,-30.273,-62.988,2.441,55.664
1678025177.845,-15.625,-25.879,-61.035,-20.020,-164.551
1678025177.849,-17.578,-27.344,-62.500,-15.137,-223.633
1678025177.853,-20.996,-31.250,-65.918,-0.977,-93.262
1678025177.857,-27.832,-30.273,-66.406,9.766,-32.227
1678025177.861,-25.391,-31.250,-67.871,8.789,76.660
1678025177.864,-8.789,-23.438,-62.500,-15.137,-65.918
1678025177.868,-4.883,-20.508,-59.570,-21.973,-76.172
1678025177.872,-21.484,-26.855,-60.547,-6.348,157.227
1678025177.876,-27.344,-24.902,-58.594,-0.488,46.875
1678025177.880,-18.555,-24.902,-60.547,-5.859,-108.887
1678025177.883,-8.301,-22.461,-62.012,-13.672,-63.477
1678025177.887,-0.977,-21.484,-57.617,-17.578,-54.688
1678025177.891,-1.465,-25.391,-54.199,-19.043,-119.629
1678025177.895,-7.324,-23.438,-52.246,-4.883,-29.297
1678025177.899,-8.301,-20.020,-52.734,-1.953,41.504
1678025177.903,-10.254,-25.391,-62.012,-19.043,-36.133
1678025177.907,-23.438,-27.344,-60.059,-30.762,-129.883
1678025177.910,-33.203,-25.879,-51.758,-26.367,-123.535
1678025177.914,-34.180,-28.320,-52.246,-13.184,145.508
1678025177.918,-29.297,-31.250,-55.176,-8.301,168.457
1678025177.922,-26.367,-29.785,-55.664,-28.320,-120.605
1678025177.926,-42.969,-34.668,-57.617,-54.688,-130.371
1678025177.927,-58.105,-41.992,-58.105,-53.223,-125.000
1678025177.931,-56.152,-40.527,-61.523,-39.062,-132.324
1678025177.935,-56.152,-40.527,-60.547,-30.273,-129.395
1678025177.939,-58.105,-41.992,-61.523,-42.969,-47.852
1678025177.943,-56.641,-39.062,-64.941,-50.293,-50.781
1678025177.947,-51.270,-40.527,-58.594,-41.992,-125.977
1678025177.951,-48.340,-39.551,-57.617,-39.062,-65.430
1678025177.954,-42.969,-32.227,-59.082,-36.621,122.559
1678025177.958,-25.879,-29.297,-57.617,-33.203,282.715
1678025177.962,-23.438,-36.133,-61.523,-49.316,-52.734
1678025177.966,-29.785,-35.645,-55.176,-55.664,-238.281
1678025177.970,-42.480,-31.738,-47.852,-36.621,45.410
1678025177.972,-44.434,-34.668,-51.758,-20.508,51.758
1678025177.976,-24.902,-32.227,-52.246,-22.461,-142.090
1678025177.980,-15.137,-26.367,-46.875,-40.527,-172.852
1678025177.984,-24.414,-27.832,-42.969,-52.246,-157.715
1678025177.988,-41.992,-30.762,-40.039,-43.457,-114.258
1678025177.992,-36.621,-29.297,-41.504,-34.180,-56.152
1678025177.996,-25.391,-31.250,-41.992,-44.922,47.363
1678025177.999,-31.738,-38.086,-43.945,-62.500,219.727
1678025178.003,-44.922,-40.527,-45.898,-69.824,-13.672
1678025178.007,-68.359,-42.480,-45.898,-61.035,-240.723
1678025178.011,-70.801,-41.992,-42.969,-44.434,-74.707
1678025178.015,-57.129,-35.156,-34.668,-43.945,160.156
1678025178.017,-53.223,-39.062,-36.133,-66.895,-33.203
1678025178.021,-48.828,-42.480,-42.969,-81.543,-249.023
1678025178.025,-56.641,-36.133,-44.922,-66.406,-80.566
1678025178.029,-66.406,-38.574,-47.363,-50.293,-35.645
1678025178.033,-50.293,-41.504,-49.316,-63.477,-80.566
1678025178.037,-38.086,-34.668,-44.434,-74.707,-77.637
1678025178.041,-44.922,-36.133,-39.062,-68.848,57.617
1678025178.044,-57.129,-40.039,-38.086,-53.711,114.258
1678025178.048,-60.059,-40.039,-43.457,-48.828,10.254
1678025178.052,-53.711,-39.062,-41.992,-46.875,-16.602
1678025178.056,-50.781,-43.945,-42.480,-58.105,139.648
1678025178.060,-51.270,-46.387,-42.969,-74.219,163.086
1678025178.062,-65.918,-46.387,-40.039,-76.660,-132.324
1678025178.066,-79.102,-48.340,-34.668,-60.547,-113.770
1678025178.070,-65.430,-44.434,-28.320,-49.316,-14.648
1678025178.074,-53.223,-39.062,-33.203,-63.965,-53.711
1678025178.078,-62.012,-34.180,-37.109,-81.543,-169.922
1678025178.082,-71.289,-33.691,-34.668,-77.637,-89.355
1678025178.086,-74.219,-40.527,-39.062,-57.617,212.891
1678025178.089,-69.824,-41.504,-41.504,-60.547,144.043
1678025178.093,-62.988,-39.062,-38.086,-82.031,-139.160
1678025178.097,-60.547,-41.016,-41.016,-92.285,-124.512
1678025178.101,-73.730,-40.527,-40.527,-91.309,-69.336
1678025178.105,-88.379,-41.016,-39.551,-76.172,-90.820
1678025178.107,-82.031,-41.016,-47.363,-70.312,-83.496
1678025178.111,-72.266,-43.457,-48.828,-82.031,12.207
1678025178.115,-68.848,-45.898,-44.922,-91.797,67.871
1678025178.119,-69.824,-43.945,-41.992,-90.820,-94.727
1678025178.123,-73.730,-40.039,-39.062,-75.195,-189.453
1678025178.127,-62.500,-35.645,-41.992,-56.152,112.793
1678025178.131,-49.316,-39.062,-40.527,-60.059,245.117
1678025178.134,-49.316,-40.527,-36.621,-73.242,-83.984
1678025178.138,-56.641,-39.062,-32.227,-66.895,-178.711
1678025178.142,-72.754,-38.574,-29.297,-50.781,-16.113
1678025178.146,-79.590,-38.086,-25.879,-37.598,104.980
1678025178.150,-68.848,-36.621,-26.855,-42.969,-76.172
1678025178.167,-68.848,-37.109,-33.203,-58.594,-275.391
1678025178.171,-78.613,-41.016,-37.598,-64.941,-51.270
1678025178.175,-85.449,-38.574,-36.133,-44.922,154.297
1678025178.179,-72.266,-31.738,-31.250,-44.434,-70.801
1678025178.183,-62.012,-29.297,-31.738,-62.988,-132.812
1678025178.187,-63.965,-29.785,-36.133,-70.312,-25.391
1678025178.191,-64.941,-30.762,-39.551,-82.031,-37.109
1678025178.194,-71.777,-33.691,-37.109,-80.566,-150.879
1678025178.198,-76.172,-35.156,-34.668,-61.523,-124.023
1678025178.202,-65.918,-37.598,-34.668,-58.105,98.145
1678025178.206,-55.664,-36.133,-33.691,-73.242,-27.344
1678025178.210,-63.477,-33.691,-34.668,-76.172,-216.309
1678025178.212,-73.730,-32.715,-34.668,-62.500,-105.957
1678025178.216,-79.590,-37.109,-33.203,-56.152,0.977
1678025178.220,-82.031,-41.504,-33.691,-62.012,-0.488
1678025178.224,-74.219,-36.133,-34.180,-74.219,-63.477
1678025178.228,-76.172,-34.180,-33.691,-85.938,-13.672
1678025178.232,-85.938,-38.086,-35.156,-83.496,20.996
1678025178.236,-79.102,-33.691,-37.109,-71.289,0.000
1678025178.239,-72.754,-32.227,-39.551,-72.266,-65.918
1678025178.243,-79.102,-38.574,-41.016,-83.496,-33.203
1678025178.247,-81.543,-40.527,-42.480,-85.938,16.113
1678025178.251,-79.102,-36.133,-45.898,-86.914,-151.855
1678025178.255,-71.289,-27.832,-42.969,-72.266,-152.344
1678025178.272,-67.871,-32.715,-40.527,-58.594,57.129
1678025178.276,-63.965,-39.551,-38.086,-63.965,40.527
1678025178.280,-62.500,-37.598,-34.668,-75.195,-215.820
1678025178.284,-62.500,-36.621,-34.668,-66.406,-152.344
1678025178.288,-62.988,-36.133,-33.691,-48.828,-39.551
1678025178.292,-61.035,-35.645,-38.086,-41.016,-48.828
1678025178.296,-57.129,-35.645,-36.621,-40.039,-48.340
1678025178.299,-59.082,-29.297,-35.156,-57.617,-120.605
1678025178.303,-61.523,-29.785,-40.039,-67.871,102.051
1678025178.307,-71.289,-35.645,-45.898,-53.711,182.617
1678025178.311,-74.219,-35.156,-45.410,-54.688,-77.148
1678025178.315,-62.500,-35.645,-40.039,-76.660,-44.434
1678025178.302,-64.453,-36.133,-41.504,-92.285,-75.684
1678025178.306,-70.312,-37.109,-40.527,-90.820,-152.344
1678025178.310,-78.613,-35.645,-39.062,-84.961,-182.129
1678025178.314,-75.195,-34.180,-39.551,-83.008,-102.539
1678025178.318,-66.895,-31.738,-40.527,-96.191,44.434
1678025178.322,-69.336,-34.668,-41.504,-117.676,-5.859
1678025178.326,-68.848,-37.109,-40.039,-109.375,-22.461
1678025178.329,-68.848,-34.668,-35.645,-86.426,133.301
1678025178.333,-60.547,-36.133,-34.180,-77.148,115.234
1678025178.337,-50.781,-41.016,-38.574,-88.379,14.648
1678025178.341,-56.152,-36.621,-40.527,-104.492,-17.578
1678025178.345,-65.430,-36.133,-40.527,-88.379,117.188
1678025178.347,-67.871,-39.062,-42.969,-71.777,229.980
1678025178.351,-59.082,-31.250,-39.062,-59.570,29.297
1678025178.355,-52.246,-28.809,-37.109,-56.152,-152.832
1678025178.359,-44.922,-28.320,-39.062,-68.848,18.555
1678025178.363,-41.504,-24.902,-38.086,-73.730,143.066
1678025178.367,-59.570,-28.320,-41.016,-68.359,-101.562
1678025178.371,-72.266,-31.738,-41.016,-50.781,-91.797
1678025178.374,-75.684,-32.227,-42.969,-54.688,129.395
1678025178.378,-75.195,-32.227,-44.434,-77.637,79.590
1678025178.382,-67.383,-29.785,-41.016,-88.867,-217.285
1678025178.386,-80.078,-29.297,-41.016,-84.961,-149.902
1678025178.390,-92.773,-32.715,-43.945,-67.383,41.016
1678025178.392,-86.914,-33.203,-44.434,-64.453,-79.102
1678025178.396,-79.102,-33.203,-42.480,-79.590,-162.598
1678025178.400,-77.148,-30.273,-44.922,-86.426,-179.199
1678025178.404,-85.449,-30.762,-42.969,-77.637,-148.926
1678025178.408,-92.773,-36.133,-46.387,-76.172,-91.309
1678025178.412,-86.914,-37.598,-49.805,-78.613,-40.039
1678025178.416,-67.383,-30.762,-46.875,-74.219,119.141
1678025178.419,-63.965,-30.273,-48.340,-85.938,175.781
1678025178.423,-67.383,-36.133,-47.363,-90.820,-57.617
1678025178.427,-67.871,-34.668,-44.434,-65.918,-128.418
1678025178.431,-69.824,-31.250,-47.363,-50.293,24.902
1678025178.435,-59.570,-31.738,-44.922,-62.012,5.859
1678025178.453,-46.875,-27.832,-39.551,-68.848,-127.930
1678025178.457,-60.547,-26.855,-40.527,-57.129,-136.719
1678025178.461,-81.543,-31.738,-44.434,-48.340,87.402
1678025178.465,-80.078,-33.691,-48.340,-46.875,163.086
1678025178.469,-71.777,-35.645,-49.316,-66.895,-97.656
1678025178.473,-72.266,-47.363,-45.898,-90.332,-137.207
1678025178.477,-73.730,-50.781,-44.434,-83.984,72.754
1678025178.480,-78.613,-43.945,-43.945,-68.359,105.469
1678025178.484,-77.637,-37.598,-46.875,-63.477,-87.402
1678025178.488,-58.594,-33.203,-50.781,-80.566,-39.062
1678025178.492,-50.293,-30.762,-51.758,-107.422,-24.902
1678025178.496,-56.152,-35.645,-53.223,-135.254,-213.379
1678025178.482,-58.594,-39.551,-52.734,-145.508,-156.250
1678025178.486,-69.336,-35.645,-52.734,-127.930,8.301
1678025178.490,-73.730,-36.133,-52.734,-121.582,8.789
1678025178.494,-69.336,-34.180,-50.781,-122.070,-66.895
1678025178.498,-78.613,-33.691,-50.293,-116.699,-202.637
1678025178.502,-89.355,-38.086,-51.270,-90.332,-24.414
1678025178.506,-85.938,-39.062,-52.246,-70.801,198.242
1678025178.509,-83.496,-38.574,-50.781,-87.402,16.602
1678025178.513,-71.777,-35.645,-49.316,-101.562,-180.664
1678025178.517,-68.848,-31.250,-56.641,-99.609,-83.008
1678025178.521,-85.938,-30.273,-58.105,-72.266,365.234
1678025178.525,-84.961,-32.227,-54.199,-50.781,290.039
1678025178.542,-73.730,-32.227,-50.781,-58.105,-80.078
1678025178.546,-69.336,-34.180,-53.223,-70.801,-83.984
1678025178.550,-70.801,-32.715,-59.082,-92.285,-106.445
1678025178.554,-76.660,-26.855,-55.176,-101.074,-216.797
1678025178.558,-76.660,-31.738,-52.734,-99.121,-128.418
1678025178.562,-74.219,-34.668,-53.223,-109.375,61.035
1678025178.566,-72.754,-37.598,-55.664,-127.930,-20.020
1678025178.569,-65.918,-38.574,-57.129,-138.184,-110.840
1678025178.573,-67.383,-34.180,-55.664,-130.859,-115.234
1678025178.577,-75.684,-34.668,-53.223,-105.957,114.258
1678025178.581,-75.195,-35.645,-52.246,-109.863,164.551
1678025178.585,-62.988,-34.180,-57.617,-138.672,-133.301
1678025178.587,-61.035,-33.203,-56.152,-142.090,-185.059
1678025178.591,-69.824,-36.133,-51.270,-136.230,-130.371
1678025178.595,-72.266,-40.527,-48.828,-125.488,-118.652
1678025178.599,-73.730,-40.039,-52.246,-124.023,-71.777
1678025178.603,-71.777,-40.527,-54.688,-134.766,-25.879
1678025178.607,-73.242,-36.133,-53.711,-140.625,-59.570
1678025178.611,-88.379,-38.086,-55.176,-142.578,-116.699
1678025178.614,-87.402,-42.480,-54.688,-123.535,-75.684
1678025178.618,-73.242,-39.551,-54.199,-103.516,157.715
1678025178.622,-64.453,-41.504,-57.129,-101.074,361.328
1678025178.626,-51.758,-40.039,-56.152,-97.656,116.699
1678025178.630,-52.734,-41.992,-53.223,-93.262,-198.242
1678025178.632,-70.312,-48.340,-55.176,-66.895,-30.273
1678025178.636,-71.777,-48.828,-52.246,-39.062,84.473
1678025178.640,-61.523,-46.875,-51.270,-52.734,-81.543
1678025178.644,-61.523,-42.480,-54.688,-60.059,-125.488
1678025178.648,-65.918,-37.598,-46.387,-50.781,-150.879
1678025178.652,-70.312,-32.715,-38.086,-38.574,-97.168
1678025178.656,-67.383,-30.762,-41.504,-28.809,-62.012
1678025178.659,-54.688,-31.738,-41.504,-28.320,-69.336
1678025178.663,-50.781,-32.227,-40.039,-34.180,83.984
1678025178.667,-50.293,-33.203,-41.504,-41.992,-4.883
1678025178.671,-57.617,-35.645,-39.062,-26.367,-138.184
1678025178.675,-68.848,-38.086,-40.039,-11.719,-1.953
1678025178.677,-61.035,-36.133,-33.203,-19.531,19.531
1678025178.681,-45.898,-34.180,-29.297,-25.879,-106.445
1678025178.685,-46.387,-37.598,-32.715,-29.785,-140.625
1678025178.689,-59.570,-39.551,-31.250,-32.227,-64.941
1678025178.693,-61.035,-38.574,-29.297,-29.297,-21.973
1678025178.697,-47.852,-37.109,-29.785,-30.273,14.160
1678025178.701,-41.016,-38.086,-31.250,-45.898,-32.715
1678025178.704,-45.898,-40.527,-32.227,-58.105,-40.039
1678025178.708,-52.246,-39.062,-32.715,-50.293,131.836
1678025178.712,-58.594,-38.086,-35.645,-36.133,9.766
1678025178.716,-52.246,-41.504,-34.668,-35.645,-20.996
1678025178.720,-39.551,-42.480,-33.691,-50.781,95.215
1678025178.723,-46.387,-41.504,-30.762,-81.543,23.438
1678025178.727,-54.199,-35.156,-32.715,-91.797,-115.234
1678025178.731,-57.129,-31.250,-22.949,-67.871,-121.582
1678025178.735,-58.594,-34.180,-15.625,-63.965,-32.715
1678025178.739,-51.270,-34.180,-19.043,-83.008,-59.570
1678025178.743,-41.016,-30.273,-20.996,-94.238,-126.953
1678025178.747,-66.406,-35.156,-29.785,-104.980,-75.195
1678025178.750,-82.520,-38.574,-27.344,-102.051,123.535
1678025178.754,-82.031,-28.809,-20.508,-103.516,48.340
1678025178.758,-99.609,-20.508,-26.367,-135.742,-198.730
1678025178.762,-125.488,-31.738,-36.621,-174.316,-187.500
1678025178.766,-139.648,-35.645,-46.387,-186.035,-106.934
1678025178.768,-165.039,-29.785,-53.223,-199.707,-114.746
1678025178.772,-201.172,-33.691,-58.594,-228.516,-124.023
1678025178.776,-215.332,-36.621,-68.848,-237.305,34.180
1678025178.780,-228.027,-35.156,-75.684,-256.348,29.785
1678025178.784,-253.906,-38.574,-81.543,-291.016,-125.488
1678025178.788,-267.578,-38.574,-83.984,-283.203,-45.410
1678025178.792,-271.973,-32.715,-82.520,-259.766,208.984
1678025178.795,-275.391,-31.250,-81.543,-259.277,346.191
1678025178.799,-259.277,-32.227,-77.637,-263.184,-24.414
1678025178.803,-244.629,-33.691,-69.336,-237.305,-258.789
1678025178.807,-243.652,-31.250,-72.266,-220.215,-36.133
1678025178.811,-230.469,-28.809,-77.148,-207.031,22.461
1678025178.812,-191.406,-26.855,-71.289,-182.129,-98.145
1678025178.816,-166.504,-24.414,-64.941,-166.504,-129.883
1678025178.820,-165.039,-28.320,-57.129,-144.043,-119.629
1678025178.824,-156.738,-35.156,-50.293,-109.375,-53.223
1678025178.828,-127.930,-28.809,-42.480,-76.660,-72.266
1678025178.832,-102.051,-26.855,-37.109,-61.523,-110.352
1678025178.836,-87.891,-34.180,-36.621,-53.711,122.559
1678025178.839,-76.660,-35.645,-39.551,-45.898,147.461
1678025178.843,-80.078,-34.180,-39.551,-41.504,-164.062
1678025178.847,-69.824,-31.738,-33.691,-26.367,-83.496
1678025178.851,-47.852,-33.203,-31.738,-25.391,158.203
1678025178.855,-31.738,-33.691,-25.879,-49.805,-17.578
1678025178.857,-24.414,-33.203,-24.414,-60.547,-244.141
1678025178.861,-28.809,-34.180,-24.414,-43.945,-206.543
1678025178.865,-24.902,-31.738,-16.602,-23.926,-130.371
1678025178.869,-8.301,-32.227,-15.137,-18.555,-89.355
1678025178.873,12.695,-34.180,-11.719,-24.902,-178.223
1678025178.877,18.066,-38.086,-10.254,-24.414,-19.531
1678025178.881,6.836,-40.527,-7.812,-18.555,178.711
1678025178.884,6.836,-36.621,-1.465,-13.672,13.672
1678025178.888,13.672,-36.133,4.883,-7.812,-117.676
1678025178.892,16.113,-39.551,7.324,-12.695,32.715
1678025178.896,22.949,-40.527,2.930,-13.672,175.293
1678025178.900,21.973,-39.551,4.395,8.301,-84.961
1678025178.917,10.254,-37.109,8.789,33.203,-136.719
1678025178.921,8.789,-37.598,8.301,38.086,108.887
1678025178.925,20.508,-41.504,10.254,31.250,91.309
1678025178.929,29.297,-40.039,16.602,18.066,-173.828
1678025178.933,24.414,-34.180,22.461,17.090,-198.730
1678025178.937,24.414,-33.203,23.438,29.297,31.738
1678025178.941,31.250,-32.227,21.484,19.531,126.953
1678025178.944,24.414,-33.203,20.996,-5.859,-59.570
1678025178.948,24.414,-33.691,22.949,-22.461,-215.332
1678025178.952,31.250,-30.273,23.438,-24.902,64.453
1678025178.956,25.391,-25.879,24.414,-0.977,197.754
1678025178.960,24.414,-25.879,23.438,11.230,-35.645
1678025178.962,28.809,-27.832,20.020,4.883,-16.602
1678025178.966,30.762,-28.320,21.973,-1.465,-34.180
1678025178.970,20.996,-30.762,17.578,-4.883,-147.949
1678025178.974,1.465,-35.645,17.578,13.672,-172.363
1678025178.978,-2.441,-34.668,20.020,41.016,-27.832
1678025178.982,8.301,-33.691,21.973,33.203,26.855
1678025178.986,11.719,-39.062,20.996,6.348,-20.508
1678025178.989,6.836,-35.156,20.996,4.883,-143.555
1678025178.993,-6.348,-28.809,25.879,29.785,21.973
1678025178.997,-14.648,-32.715,22.949,54.688,218.750
1678025179.001,-3.418,-38.574,19.043,46.875,16.602
1678025179.005,11.230,-33.691,19.043,23.926,-92.773
1678025179.007,8.789,-35.645,15.625,8.301,73.242
1678025179.011,-3.906,-33.203,16.602,21.973,167.480
1678025179.015,-9.277,-31.738,17.578,35.645,-81.543
1678025179.019,-2.930,-36.621,16.602,30.273,-150.391
1678025179.023,6.348,-29.785,18.066,19.043,-183.105
1678025179.027,-1.465,-23.926,19.531,15.625,-132.324
1678025179.031,-16.113,-26.855,18.066,22.461,-117.676
1678025179.034,-21.973,-33.691,12.695,23.438,-114.746
1678025179.038,-13.672,-33.691,12.695,26.367,157.715
1678025179.042,-1.953,-29.297,10.742,18.066,91.309
1678025179.046,1.465,-28.320,6.348,-3.418,-207.520
1678025179.050,-5.859,-32.227,7.324,-1.465,-156.738
1678025179.054,-9.766,-31.250,10.254,15.625,-94.238
1678025179.058,-12.695,-31.250,7.812,13.184,-94.238
1678025179.062,-14.648,-39.062,0.977,-5.859,-58.105
1678025179.066,-13.184,-39.062,-0.977,-21.973,2.441
1678025179.070,-17.578,-36.133,1.465,-29.297,-36.621
1678025179.074,-22.461,-33.691,2.441,-17.578,-43.457
1678025179.078,-22.949,-31.738,0.488,-11.719,52.246
1678025179.081,-19.531,-35.156,-3.906,-26.367,149.414
1678025179.085,-16.602,-35.645,-3.906,-34.180,172.852
1678025179.089,-28.320,-35.156,-2.441,-32.715,-119.629
1678025179.093,-39.551,-34.180,-0.977,-14.160,-191.406
1678025179.097,-40.527,-30.273,-3.906,-10.742,41.016
1678025179.097,-47.852,-34.180,-7.812,-33.691,5.859
1678025179.101,-37.598,-32.227,-5.859,-51.270,-251.953
1678025179.105,-46.875,-33.691,-5.371,-46.387,-293.457
1678025179.109,-65.430,-37.598,-7.324,-30.273,-166.992
1678025179.113,-51.758,-31.738,-5.371,-25.879,-30.762
1678025179.117,-39.062,-30.762,-5.859,-40.527,-66.895
1678025179.121,-43.457,-32.227,-10.254,-61.523,-145.020
1678025179.124,-49.316,-29.785,-8.301,-54.199,71.289
1678025179.128,-62.500,-29.297,-7.324,-25.391,170.898
1678025179.132,-65.918,-34.180,-7.324,-18.555,-51.758
1678025179.136,-46.387,-30.273,-6.836,-27.832,-88.379
1678025179.140,-23.926,-23.926,-5.859,-35.645,-121.094
1678025179.157,-23.926,-30.273,-5.371,-32.227,-211.914
1678025179.161,-41.992,-29.785,-3.418,-18.066,-184.570
1678025179.165,-48.340,-33.691,-2.930,-7.324,-59.082
1678025179.169,-44.922,-38.574,-5.371,-23.438,-61.035
1678025179.173,-38.574,-38.086,-3.906,-46.387,-129.883
1678025179.177,-39.551,-36.621,-6.836,-51.758,-117.676
1678025179.181,-44.434,-35.645,-7.812,-38.574,112.305
1678025179.184,-34.180,-36.621,-7.324,-31.738,345.703
1678025179.188,-17.578,-33.691,-10.742,-47.852,72.266
1678025179.192,-8.789,-34.180,-12.207,-64.453,-134.277
1678025179.196,-15.137,-35.156,-12.207,-76.660,-62.500
1678025179.200,-23.438,-33.203,-11.719,-81.055,-41.992
1678025179.187,-19.043,-34.668,-14.648,-74.219,-104.004
1678025179.191,-23.926,-34.180,-17.578,-75.195,-156.250
1678025179.195,-31.250,-35.645,-21.973,-77.637,98.145
1678025179.199,-33.691,-36.621,-23.926,-88.867,195.312
1678025179.203,-42.969,-35.156,-22.461,-99.121,-122.070
1678025179.207,-58.594,-37.109,-26.855,-87.402,-85.449
1678025179.211,-63.965,-34.180,-29.785,-86.914,126.953
1678025179.214,-56.152,-34.668,-24.414,-93.750,28.809
1678025179.218,-55.176,-34.180,-16.113,-105.957,-221.680
1678025179.222,-64.941,-29.785,-14.160,-100.586,-202.148
1678025179.226,-69.824,-34.180,-13.672,-72.266,187.012
1678025179.230,-58.105,-33.691,-14.160,-60.059,249.512
1678025179.232,-38.574,-29.297,-20.508,-78.125,-126.953
1678025179.236,-17.090,-26.855,-22.949,-80.566,-192.871
1678025179.240,-31.738,-32.227,-13.672,-60.547,-164.551
1678025179.244,-62.988,-42.969,-15.625,-53.711,-123.047
1678025179.248,-60.059,-37.598,-23.438,-54.199,-128.418
1678025179.252,-46.387,-33.691,-23.438,-50.781,110.352
1678025179.256,-37.109,-31.738,-25.391,-62.988,234.375
1678025179.259,-43.457,-30.762,-24.902,-64.941,-113.281
1678025179.263,-60.547,-34.180,-25.879,-46.387,-190.918
1678025179.267,-55.664,-34.180,-32.715,-32.715,21.484
1678025179.271,-47.363,-35.645,-35.156,-38.086,61.523
1678025179.275,-49.316,-38.574,-34.180,-69.824,-52.734
1678025179.292,-51.758,-36.621,-34.668,-78.125,-144.531
1678025179.296,-61.523,-36.621,-32.715,-61.523,18.555
1678025179.300,-56.152,-36.133,-35.156,-52.246,221.680
1678025179.304,-41.992,-32.227,-33.203,-53.223,-62.012
1678025179.308,-52.734,-36.133,-29.785,-69.336,-152.344
1678025179.312,-56.641,-40.527,-30.273,-71.777,-28.809
1678025179.316,-52.246,-38.574,-32.227,-53.223,-26.367
1678025179.319,-49.805,-38.574,-36.133,-45.898,-76.172
1678025179.323,-38.086,-41.016,-35.156,-45.410,-12.207
1678025179.327,-30.762,-38.574,-33.691,-59.570,114.746
1678025179.331,-39.062,-38.574,-32.227,-80.566,-47.363
1678025179.335,-53.223,-37.598,-33.203,-74.707,-198.730
1678025179.327,-58.105,-36.621,-36.133,-57.617,-20.996
1678025179.331,-49.316,-34.668,-32.715,-62.012,78.613
1678025179.335,-39.062,-35.156,-34.668,-76.172,1.465
1678025179.339,-37.598,-37.109,-35.156,-76.660,-112.305
1678025179.343,-46.387,-34.180,-31.250,-51.758,43.457
1678025179.347,-52.734,-36.621,-28.809,-23.438,245.117
1678025179.351,-48.828,-37.598,-30.762,-21.484,78.125
1678025179.354,-37.598,-36.621,-31.250,-27.344,-55.664
1678025179.358,-30.273,-36.621,-26.367,-23.926,42.480
1678025179.362,-37.598,-36.133,-25.879,-15.137,121.094
1678025179.366,-47.852,-34.180,-27.344,-4.883,20.996
1678025179.370,-42.969,-29.297,-24.902,1.953,-1.953
1678025179.382,-37.109,-25.879,-18.066,-15.137,-31.250
1678025179.386,-39.551,-24.414,-15.625,-26.367,-125.488
1678025179.390,-48.828,-25.391,-18.066,-26.367,-208.496
1678025179.394,-41.992,-26.855,-20.020,-21.973,-153.809
1678025179.398,-34.180,-26.367,-19.043,-2.930,112.305
1678025179.402,-31.738,-26.855,-19.531,1.465,476.074
1678025179.406,-25.879,-27.832,-19.531,-20.508,167.480
1678025179.409,-38.086,-32.227,-22.461,-22.461,-187.012
1678025179.413,-49.316,-30.762,-16.602,-9.277,-49.805
1678025179.417,-38.574,-24.414,-5.859,-10.254,7.324
1678025179.421,-29.785,-23.926,-5.859,-20.020,-120.117
1678025179.425,-29.297,-28.809,-3.906,-30.762,-155.762
1678025179.427,-29.297,-35.645,-7.324,-32.715,-79.102
1678025179.431,-27.832,-37.598,-13.184,-20.020,-132.324
1678025179.435,-27.344,-33.203,-10.254,-8.789,-109.375
1678025179.439,-28.809,-27.832,-7.812,-19.043,-16.602
1678025179.443,-17.578,-22.949,-6.348,-22.461,-96.680
1678025179.447,-26.367,-22.461,-3.418,-15.137,-162.598
1678025179.451,-41.992,-24.902,-3.906,0.488,-83.496
1678025179.454,-33.203,-24.902,-4.395,7.812,174.805
1678025179.458,-29.785,-23.438,-6.348,0.977,393.066
1678025179.462,-30.273,-24.414,-8.789,-15.137,157.715
1678025179.466,-32.227,-28.809,-7.324,-33.203,8.789
1678025179.470,-36.621,-25.391,-5.371,-16.113,164.551
1678025179.472,-40.039,-23.926,-8.301,-0.488,89.844
1678025179.476,-32.715,-26.367,-6.836,0.000,-157.227
1678025179.480,-26.367,-22.461,-4.395,-17.578,-209.473
1678025179.484,-31.250,-17.090,-7.324,-28.809,-156.738
1678025179.488,-40.527,-16.602,-9.277,-7.812,-140.137
1678025179.492,-44.922,-20.508,-6.348,0.488,-10.742
1678025179.496,-39.062,-20.508,-0.977,-9.766,103.516
1678025179.499,-32.227,-18.555,-2.930,-13.672,186.035
1678025179.503,-33.691,-21.973,-6.836,-19.531,57.617
1678025179.507,-50.781,-28.809,-5.859,-28.320,-186.523
1678025179.511,-56.641,-28.320,-4.395,-21.973,-136.230
1678025179.515,-41.016,-25.391,0.977,-12.695,-39.551
1678025179.517,-35.645,-27.344,0.977,-32.227,-148.438
1678025179.521,-45.410,-24.902,0.977,-48.340,-202.148
1678025179.525,-53.711,-25.391,2.441,-43.457,-152.344
1678025179.529,-52.734,-25.391,2.930,-32.227,-132.324
1678025179.533,-39.062,-20.020,5.859,-17.578,-126.953
1678025179.537,-34.668,-20.508,5.371,-36.133,-148.438
1678025179.541,-35.645,-19.043,8.301,-47.852,35.156
1678025179.544,-38.086,-18.066,7.812,-28.809,212.402
1678025179.548,-42.480,-20.508,4.883,-27.832,-12.207
1678025179.552,-36.133,-20.508,5.371,-28.320,-100.098
1678025179.556,-31.738,-19.043,1.953,-24.414,-37.598
1678025179.560,-35.645,-20.020,-2.930,-36.621,-12.207
1678025179.562,-45.898,-23.438,-2.441,-38.086,-137.695
1678025179.566,-44.434,-21.973,-1.953,-25.879,-227.051
1678025179.570,-36.133,-19.043,-4.395,-21.973,94.238
1678025179.574,-37.109,-17.578,-0.488,-21.973,129.883
1678025179.578,-32.227,-17.578,-2.930,-41.016,-264.648
1678025179.582,-43.457,-25.391,-5.371,-47.363,-183.594
1678025179.586,-58.105,-27.344,-2.930,-19.043,253.906
1678025179.589,-47.852,-21.973,-2.441,-0.488,233.398
1678025179.593,-25.391,-25.391,-3.906,-20.020,-166.016
1678025179.597,-19.043,-23.438,-4.395,-37.109,-217.285
1678025179.601,-40.527,-20.508,-3.418,-37.598,-195.312
1678025179.605,-57.129,-22.461,-7.324,-24.902,-117.676
1678025179.608,-52.246,-21.484,-7.812,-14.648,-95.215
1678025179.612,-39.062,-22.949,-7.324,-21.973,-31.738
1678025179.616,-31.250,-21.484,-6.348,-39.062,29.297
1678025179.620,-32.227,-17.578,-2.441,-41.992,-185.059
1678025179.624,-39.551,-21.484,-2.441,-19.531,-210.449
1678025179.628,-41.504,-26.367,-11.230,-9.277,146.484
1678025179.632,-40.039,-25.879,-19.043,-20.996,233.398
1678025179.635,-31.738,-22.461,-14.160,-39.062,-56.641
1678025179.639,-28.809,-21.484,-10.254,-47.363,-204.590
1678025179.643,-33.203,-21.973,-11.719,-24.902,-0.977
1678025179.647,-41.992,-24.902,-13.184,-15.625,121.582
1678025179.651,-52.246,-35.156,-17.090,-41.016,-83.008
1678025179.667,-41.992,-33.691,-17.090,-56.152,-177.734
1678025179.671,-31.738,-26.367,-7.812,-45.898,-100.586
1678025179.675,-43.945,-29.785,-8.789,-32.227,-56.152
1678025179.679,-43.457,-27.344,-10.742,-20.508,-120.117
1678025179.683,-33.203,-26.855,-6.348,-21.973,-114.258
1678025179.687,-25.391,-28.809,-1.953,-27.344,154.785
1678025179.691,-32.715,-25.879,-5.371,-30.762,105.469
1678025179.694,-49.316,-29.297,-10.254,-40.527,-257.324
1678025179.698,-55.176,-33.203,-4.395,-29.297,-174.805
1678025179.702,-53.223,-33.691,-8.301,-21.484,-59.082
1678025179.706,-47.363,-32.227,-10.742,-26.855,-128.906
1678025179.710,-42.480,-32.715,-4.883,-29.297,-255.859
1678025179.712,-48.828,-34.668,-4.395,-39.062,-235.352
1678025179.716,-47.363,-30.273,-6.836,-34.180,-107.422
1678025179.720,-36.621,-29.785,-7.812,-32.227,-44.434
1678025179.724,-31.250,-30.762,-7.812,-55.664,-62.500
1678025179.728,-18.555,-23.926,-4.395,-76.172,-76.172
1678025179.732,-28.320,-21.484,0.488,-79.590,-18.555
1678025179.736,-45.898,-25.391,0.977,-63.477,22.461
1678025179.739,-33.691,-27.832,0.488,-57.129,15.137
1678025179.743,-25.879,-24.902,-1.465,-69.824,116.211
1678025179.747,-32.715,-25.391,-1.465,-75.195,240.723
1678025179.751,-31.738,-27.344,0.488,-88.379,92.773
1678025179.755,-30.273,-29.297,-0.488,-82.031,-40.039
1678025179.757,-33.691,-32.715,-2.930,-65.430,92.285
1678025179.761,-29.785,-30.273,2.441,-68.359,59.082
1678025179.765,-22.461,-26.367,8.789,-76.660,-250.977
1678025179.769,-22.461,-24.414,7.812,-69.824,-262.207
1678025179.773,-21.973,-22.461,6.348,-49.805,-100.098
1678025179.777,-27.344,-28.320,4.395,-33.691,21.973
1678025179.781,-25.391,-37.109,0.488,-24.414,23.438
1678025179.784,-17.578,-36.133,2.441,-31.250,-146.484
1678025179.788,-27.344,-35.645,8.301,-23.926,125.977
1678025179.792,-35.156,-38.086,8.789,-8.301,228.027
1678025179.796,-34.180,-37.109,6.348,-5.859,-145.508
1678025179.800,-32.227,-36.621,7.812,-15.625,-128.906
1678025179.802,-32.227,-41.016,4.883,-54.199,-97.656
1678025179.806,-37.598,-41.016,-1.953,-76.660,-201.660
1678025179.810,-43.945,-39.062,-3.418,-52.734,-181.152
1678025179.814,-41.992,-41.016,0.000,-43.457,19.043
1678025179.818,-29.297,-41.016,-0.977,-67.383,30.762
1678025179.822,-20.508,-38.086,-1.465,-58.105,-128.906
1678025179.826,-21.484,-36.621,0.977,-58.105,-137.207
1678025179.829,-31.738,-41.992,5.371,-41.992,69.336
1678025179.833,-35.645,-38.086,6.836,-7.812,213.379
1678025179.837,-31.250,-31.250,6.348,0.000,35.645
1678025179.841,-32.715,-35.645,2.930,-18.066,-149.902
1678025179.845,-45.410,-36.621,0.977,-27.832,26.367
1678025179.847,-55.176,-33.691,0.000,-19.043,144.043
1678025179.851,-72.266,-41.016,-2.441,-44.922,-91.309
1678025179.855,-89.844,-39.551,-5.371,-70.312,-71.289
1678025179.859,-94.727,-32.227,-12.695,-90.820,-93.750
1678025179.863,-118.652,-38.086,-24.414,-130.859,-218.262
1678025179.867,-154.297,-37.109,-33.691,-138.672,-119.141
1678025179.871,-184.082,-40.039,-32.227,-141.602,54.688
1678025179.874,-215.820,-46.387,-37.598,-170.898,272.461
1678025179.878,-238.770,-41.504,-48.340,-193.848,181.152
1678025179.882,-244.629,-35.645,-49.316,-217.773,-136.719
1678025179.886,-255.371,-40.039,-48.828,-230.469,-150.391
1678025179.890,-235.840,-41.016,-49.805,-214.355,-81.055
1678025179.907,-202.148,-31.250,-48.340,-193.359,-76.172
1678025179.911,-185.059,-30.762,-42.480,-180.176,-137.695
1678025179.915,-158.691,-27.832,-31.738,-170.410,-65.918
1678025179.919,-138.672,-18.066,-27.832,-154.785,8.301
1678025179.923,-120.605,-17.090,-31.250,-127.930,-56.641
1678025179.927,-95.703,-16.113,-25.879,-106.445,-11.719
1678025179.931,-79.590,-15.625,-23.926,-97.168,126.465
1678025179.934,-77.148,-19.531,-24.414,-95.215,165.527
1678025179.938,-65.918,-17.578,-15.625,-79.590,-84.473
1678025179.942,-55.176,-18.066,-6.348,-52.246,-124.023
1678025179.946,-51.270,-20.020,-5.371,-30.762,29.297
1678025179.950,-34.180,-19.043,-4.395,-17.578,18.555
1678025179.952,-8.789,-17.578,0.000,-17.578,-157.227
1678025179.956,-13.672,-16.602,0.488,-19.043,-208.008
1678025179.960,-19.531,-20.996,2.930,-0.977,-63.477
1678025179.964,-10.254,-23.926,14.160,25.879,52.246
1678025179.968,5.371,-24.414,19.531,35.645,-35.645
1678025179.972,27.344,-20.996,23.926,31.250,-141.113
1678025179.976,34.180,-22.949,34.180,44.922,138.672
1678025179.979,30.762,-26.367,40.527,71.289,234.375
1678025179.983,38.574,-27.344,44.434,83.984,-59.082
1678025179.987,51.270,-28.320,48.340,81.055,-131.348
1678025179.991,67.871,-24.414,50.781,68.848,82.031
1678025179.995,78.125,-21.973,53.711,68.848,35.156
1678025179.982,73.730,-24.414,56.641,83.496,-168.945
1678025179.986,69.336,-24.414,62.500,106.934,-90.332
1678025179.990,76.660,-20.996,69.824,111.816,-33.203
1678025179.994,90.332,-20.020,68.359,90.332,-166.504
1678025179.998,85.938,-21.973,67.871,81.543,-196.777
1678025180.002,83.496,-20.996,68.848,105.469,-42.969
1678025180.006,82.520,-23.926,68.359,120.605,61.035
1678025180.009,87.891,-23.438,68.359,109.375,95.215
1678025180.013,104.004,-20.508,69.336,102.051,-62.500
1678025180.017,101.562,-20.508,72.754,114.258,-45.898
1678025180.021,96.191,-19.043,79.590,145.996,458.984
1678025180.025,104.492,-20.996,82.031,146.484,386.719
1678025180.042,104.492,-26.855,78.613,127.441,-37.598
1678025180.046,104.004,-24.902,81.055,116.699,-57.617
1678025180.050,116.699,-20.996,83.008,111.816,-92.285
1678025180.054,115.234,-22.461,81.055,126.465,-200.684
1678025180.058,103.516,-21.973,85.938,134.277,-204.590
1678025180.062,106.934,-22.949,88.867,126.953,-55.176
1678025180.066,119.141,-17.090,84.961,116.211,1.465
1678025180.069,118.164,-16.602,81.055,100.586,-120.605
1678025180.073,112.793,-20.508,82.031,105.957,-48.828
1678025180.077,109.375,-20.996,84.473,127.930,127.441
1678025180.081,109.863,-22.949,85.449,120.605,60.059
1678025180.085,114.258,-23.438,85.938,100.586,-87.891
1678025180.087,113.281,-24.414,86.914,95.703,-117.188
1678025180.091,113.281,-22.949,90.820,114.746,109.375
1678025180.095,104.004,-17.578,90.332,133.301,39.062
1678025180.099,103.516,-13.672,89.355,124.023,-25.879
1678025180.103,112.305,-19.531,91.797,120.605,68.359
1678025180.107,126.953,-20.020,95.215,120.605,-53.223
1678025180.111,124.512,-17.090,94.238,118.652,-145.020
1678025180.114,110.840,-21.973,91.309,130.371,-158.691
1678025180.118,112.793,-23.438,92.773,149.414,62.988
1678025180.122,122.559,-20.020,97.656,141.602,218.262
1678025180.126,133.789,-18.555,98.633,118.652,39.062
1678025180.130,129.395,-22.949,99.121,115.234,-77.637
1678025180.132,107.910,-25.391,94.727,137.695,73.730
1678025180.136,110.352,-24.902,88.867,143.555,162.598
1678025180.140,134.766,-23.438,92.773,137.207,-64.453
1678025180.144,145.508,-19.043,93.750,124.023,-174.805
1678025180.148,145.020,-18.066,94.727,114.746,-161.621
1678025180.152,127.930,-16.113,96.191,125.977,17.578
1678025180.156,116.699,-14.648,99.121,142.578,81.055
1678025180.159,122.559,-16.602,93.750,140.137,-42.969
1678025180.163,124.512,-15.625,89.355,124.023,83.984
1678025180.167,122.559,-12.695,93.262,109.863,-34.180
1678025180.171,113.770,-10.742,90.820,104.004,-222.656
1678025180.175,104.980,-15.137,86.426,119.141,-78.125
1678025180.193,112.305,-18.066,83.008,123.047,27.344
1678025180.197,119.141,-14.648,83.496,105.957,-54.688
1678025180.201,109.863,-20.508,80.078,96.680,-255.859
1678025180.205,100.098,-20.996,75.684,107.422,-117.676
1678025180.209,99.609,-19.531,77.148,123.047,85.938
1678025180.213,100.098,-21.973,77.148,122.070,59.082
1678025180.217,112.305,-18.066,75.195,92.773,70.801
1678025180.220,116.699,-16.113,76.660,70.801,87.891
1678025180.224,100.098,-17.090,77.637,84.961,161.621
1678025180.228,91.309,-15.625,73.242,98.633,36.621
1678025180.232,96.191,-13.184,72.754,106.934,3.906
1678025180.236,104.980,-15.137,75.684,99.609,147.461
1678025180.222,108.398,-19.531,74.707,78.125,6.348
1678025180.226,101.562,-23.438,73.242,65.918,-179.199
1678025180.230,88.379,-26.367,67.871,75.195,-73.730
1678025180.234,90.820,-23.438,66.895,91.309,47.363
1678025180.238,101.562,-14.160,72.266,94.727,-71.289
1678025180.242,105.469,-8.789,74.219,76.172,-164.551
1678025180.246,105.469,-8.301,76.172,83.008,-22.461
1678025180.249,88.379,-12.695,72.754,108.398,20.996
1678025180.253,84.961,-18.555,62.500,103.027,-47.852
1678025180.257,99.609,-22.949,62.500,91.309,-107.422
1678025180.261,99.121,-20.996,67.871,81.543,-151.367
1678025180.265,98.145,-10.254,68.848,85.449,118.652
1678025180.282,92.773,-9.766,68.359,92.773,151.367
1678025180.286,88.379,-15.137,66.406,81.055,-168.457
1678025180.290,97.168,-16.602,65.918,70.801,-150.879
1678025180.294,95.703,-11.719,64.453,50.781,-107.422
1678025180.298,83.496,-10.742,66.406,42.969,-154.785
1678025180.302,72.754,-17.090,62.500,54.688,-80.078
1678025180.306,79.590,-17.090,58.594,67.383,215.332
1678025180.309,91.309,-11.719,63.477,62.988,404.785
1678025180.313,99.121,-13.672,63.477,35.645,60.547
1678025180.317,97.168,-14.160,62.500,21.973,-250.977
1678025180.321,88.379,-13.184,64.453,41.016,-9.766
1678025180.325,87.891,-8.789,69.336,64.941,140.625
1678025180.312,96.191,-7.324,68.359,58.594,-110.352
1678025180.316,102.051,-12.207,65.430,32.715,-187.500
1678025180.320,99.609,-13.672,61.035,16.113,-242.676
1678025180.324,96.191,-9.766,60.059,38.574,-271.973
1678025180.328,92.285,-5.859,63.965,79.590,-205.078
1678025180.332,90.820,-12.207,64.941,74.707,-93.750
1678025180.336,95.215,-14.648,63.965,63.965,-21.484
1678025180.339,86.914,-17.090,62.012,74.219,-101.074
1678025180.343,89.355,-16.602,64.453,83.008,-181.152
1678025180.347,92.285,-10.742,67.383,107.422,-128.906
1678025180.351,81.055,-14.160,66.406,109.375,207.031
1678025180.355,83.496,-18.066,58.105,77.637,135.742
1678025180.387,83.984,-16.602,53.223,57.617,-242.188
1678025180.391,72.754,-17.090,55.176,68.359,-146.484
1678025180.395,71.777,-15.625,50.781,91.309,1.953
1678025180.399,82.520,-15.137,49.805,100.586,-37.109
1678025180.403,87.402,-17.578,54.199,97.656,-90.820
1678025180.407,84.961,-15.625,59.082,90.820,121.094
1678025180.411,76.660,-13.184,58.594,97.168,188.477
1678025180.414,72.266,-10.254,56.152,113.281,-30.762
1678025180.418,80.566,-12.207,56.152,113.281,-72.266
1678025180.422,92.285,-16.113,56.152,101.562,-22.461
1678025180.426,91.309,-15.625,54.688,88.867,35.645
1678025180.430,89.355,-17.578,53.223,85.449,-20.020
1678025180.417,79.102,-16.602,56.152,101.562,-125.488
1678025180.421,74.219,-12.695,57.129,117.188,101.562
1678025180.425,88.867,-12.207,46.875,109.375,249.023
1678025180.429,96.680,-13.672,41.016,86.914,-120.605
1678025180.433,83.496,-16.602,44.922,83.496,-194.824
1678025180.437,64.941,-13.672,47.363,95.215,70.312
1678025180.441,60.547,-9.277,43.945,96.680,129.883
1678025180.444,76.172,-11.719,41.016,81.055,-34.180
1678025180.448,80.078,-13.184,41.504,73.730,-68.359
1678025180.452,67.383,-13.184,43.945,61.523,-93.750
1678025180.456,58.105,-12.207,46.875,65.918,-121.094
1678025180.460,57.617,-9.766,46.875,89.355,-75.195
1678025180.462,63.477,-14.648,44.922,88.867,-50.293
1678025180.466,63.477,-19.531,41.016,80.078,210.938
1678025180.470,65.430,-14.648,41.992,81.055,141.113
1678025180.474,54.199,-10.742,47.852,83.008,-201.660
1678025180.478,46.387,-10.742,49.316,86.914,-79.102
1678025180.482,56.152,-10.254,47.363,83.496,25.879
1678025180.486,55.664,-13.184,46.387,54.688,-106.445
1678025180.489,51.270,-14.160,47.363,45.898,-250.000
1678025180.493,49.805,-8.789,47.363,70.801,-92.285
1678025180.497,53.711,-7.812,45.898,85.938,174.805
1678025180.501,60.547,-9.766,49.316,67.871,15.625
1678025180.505,62.500,-6.836,49.316,58.105,-139.648
1678025180.508,70.312,-7.812,50.781,54.199,-105.469
1678025180.512,64.453,-8.301,51.270,55.176,-74.219
1678025180.516,58.594,-4.395,50.293,75.684,-47.363
1678025180.520,79.102,0.977,56.641,89.355,-24.414
1678025180.524,76.660,-3.906,62.988,84.961,158.203
1678025180.528,60.059,-8.301,62.988,63.477,222.656
1678025180.532,44.434,-4.883,57.617,58.105,-107.910
1678025180.535,24.902,-4.883,53.223,68.359,-132.324
1678025180.539,30.762,-0.977,55.664,69.824,204.102
1678025180.543,44.434,-2.441,54.199,57.617,168.457
1678025180.547,42.480,-7.324,51.270,37.109,-230.957
1678025180.551,38.574,-6.348,54.199,42.480,-156.250
1678025180.552,35.156,-6.836,50.293,64.941,43.945
1678025180.556,31.738,-8.301,45.898,65.430,-50.293
1678025180.560,41.016,-5.371,47.852,41.992,-168.457
1678025180.564,45.898,0.000,48.340,15.137,-150.879
1678025180.568,35.156,0.000,47.852,20.508,-139.648
1678025180.572,23.438,2.930,49.316,37.109,-111.328
1678025180.576,22.949,8.301,52.734,44.434,0.977
1678025180.579,24.902,3.418,51.270,52.734,89.355
1678025180.583,21.973,0.488,51.270,32.227,90.332
1678025180.587,20.508,0.000,52.246,13.184,-100.586
1678025180.591,8.789,-0.977,51.270,31.250,-94.727
1678025180.595,2.441,-1.953,47.852,41.504,150.391
1678025180.597,9.277,-5.371,43.457,42.969,241.699
1678025180.601,7.812,-7.324,41.504,15.137,-57.129
1678025180.605,2.441,-8.789,40.527,1.953,-177.734
1678025180.609,-1.953,-6.836,39.551,38.086,-86.914
1678025180.613,-5.371,-7.324,38.574,41.992,-22.949
1678025180.617,0.488,-8.301,37.598,27.344,-23.438
1678025180.621,12.695,-1.465,41.504,12.695,-114.258
1678025180.624,21.484,6.348,48.828,14.160,110.352
1678025180.628,13.672,9.766,51.758,29.785,189.941
1678025180.632,7.812,6.348,50.293,24.902,-77.148
1678025180.636,4.883,3.418,51.270,23.438,-64.941
1678025180.640,3.906,4.395,53.711,7.324,-101.074
1678025180.642,7.324,3.906,48.828,-19.043,-187.988
1678025180.646,0.000,4.395,44.434,-16.602,-212.402
1678025180.650,6.348,3.418,42.969,-2.930,-75.195
1678025180.654,20.996,2.441,41.016,-5.371,24.414
1678025180.658,21.973,5.371,35.645,-22.949,-108.398
1678025180.662,16.602,3.418,32.715,-37.598,-201.172
1678025180.666,4.883,-0.977,34.668,-29.297,14.160
1678025180.669,-0.977,1.953,37.109,-8.301,219.238
1678025180.673,-1.953,0.000,35.645,-12.207,23.926
1678025180.677,-2.930,-8.301,31.738,-32.227,-29.785
1678025180.681,-6.348,-9.277,31.738,-46.875,65.430
1678025180.685,-17.578,-3.418,35.156,-39.551,5.859
1678025180.687,-25.391,0.000,33.691,-29.785,-128.418
1678025180.691,-26.367,-0.488,27.344,-29.785,-159.180
1678025180.695,-19.531,-2.441,30.273,-32.227,5.371
1678025180.699,-25.391,-6.348,30.273,-40.039,24.902
1678025180.703,-41.504,-6.348,27.344,-50.293,-228.027
1678025180.707,-35.156,-6.348,27.344,-38.574,-122.070
1678025180.711,-42.969,-11.230,20.020,-27.832,196.777
1678025180.714,-48.340,-10.254,18.066,-55.176,98.145
1678025180.718,-31.738,-8.789,20.996,-64.453,-246.094
1678025180.722,-40.527,-14.160,20.996,-48.828,-179.688
1678025180.726,-55.664,-17.578,18.555,-32.715,-85.938
1678025180.730,-51.758,-18.066,16.602,-24.414,-46.875
1678025180.750,-40.039,-13.184,14.648,-48.828,-86.426
1678025180.754,-39.551,-10.254,11.230,-70.312,-139.648
1678025180.758,-43.457,-10.254,13.672,-57.129,-22.461
1678025180.762,-44.922,-9.277,16.602,-37.598,-78.613
1678025180.766,-45.410,-13.184,16.113,-38.086,-114.746
1678025180.770,-42.969,-12.695,19.531,-43.945,56.641
1678025180.774,-46.875,-12.207,20.508,-52.734,174.316
1678025180.777,-56.152,-13.672,15.625,-64.453,-42.480
1678025180.781,-68.359,-19.531,17.090,-58.594,-145.508
1678025180.785,-58.105,-22.461,22.461,-40.527,-7.324
1678025180.789,-47.363,-18.066,16.113,-49.316,81.055
1678025180.793,-45.898,-15.137,8.301,-74.219,-101.562
1678025180.793,-46.875,-12.695,7.812,-83.008,-256.836
1678025180.797,-61.035,-14.648,12.207,-69.336,-60.059
1678025180.801,-60.547,-17.090,11.230,-57.617,132.324
1678025180.805,-39.551,-14.648,6.836,-59.082,-23.438
1678025180.809,-41.992,-16.602,9.277,-78.613,-180.664
1678025180.813,-65.430,-13.672,9.766,-78.125,100.586
1678025180.817,-76.172,-9.277,8.789,-67.871,276.855
1678025180.820,-79.590,-17.090,13.672,-64.941,-8.301
1678025180.824,-76.172,-16.113,16.113,-51.758,-124.512
1678025180.828,-61.523,-10.742,13.672,-63.477,73.242
1678025180.832,-55.176,-12.207,15.137,-75.195,240.723
1678025180.836,-65.430,-9.277,16.602,-68.848,-114.746
1678025180.837,-73.730,-16.113,16.602,-52.734,-210.938
1678025180.841,-66.895,-22.461,19.043,-59.082,-49.316
1678025180.845,-61.523,-24.902,20.996,-88.379,-145.508
1678025180.849,-67.383,-26.855,22.949,-122.070,-252.930
1678025180.853,-70.312,-23.926,20.996,-137.207,-95.215
1678025180.857,-71.777,-29.297,20.996,-137.207,32.227
1678025180.861,-73.730,-29.297,20.996,-138.672,68.848
1678025180.864,-70.312,-21.973,19.531,-152.832,-58.594
1678025180.868,-72.754,-23.926,21.484,-161.621,-105.957
1678025180.872,-85.449,-27.344,20.996,-156.250,190.918
1678025180.876,-92.285,-24.902,22.461,-141.113,94.727
1678025180.880,-76.660,-23.926,29.785,-132.324,-78.613
1678025180.882,-71.289,-26.855,26.855,-138.672,39.551
1678025180.886,-79.102,-28.320,24.414,-149.902,-4.883
1678025180.890,-84.473,-27.344,29.785,-137.695,-213.867
1678025180.894,-99.121,-30.273,29.297,-98.633,-163.574
1678025180.898,-97.656,-32.715,26.367,-85.449,-37.598
1678025180.902,-90.820,-28.320,26.367,-103.516,51.270
1678025180.906,-89.844,-23.438,35.645,-113.770,-24.414
1678025180.909,-89.355,-26.855,39.551,-106.445,-122.559
1678025180.913,-103.516,-31.738,36.133,-71.289,123.535
1678025180.917,-107.910,-31.250,36.133,-64.941,239.258
1678025180.921,-97.168,-36.621,35.645,-93.262,-110.352
1678025180.925,-103.027,-43.945,33.203,-112.793,-203.613
1678025180.927,-117.188,-37.598,35.156,-111.816,-191.895
1678025180.931,-119.629,-33.691,37.598,-90.332,-135.742
1678025180.935,-123.535,-33.203,40.527,-82.520,-16.602
1678025180.939,-119.629,-30.762,41.504,-100.098,-14.648
1678025180.943,-115.234,-30.273,39.062,-122.070,-72.754
1678025180.947,-121.094,-30.762,38.574,-121.094,-107.422
1678025180.951,-130.859,-26.367,39.062,-115.234,-60.547
1678025180.954,-127.441,-29.297,38.086,-106.445,131.836
1678025180.958,-116.211,-31.738,39.551,-105.957,242.676
1678025180.962,-108.887,-25.391,44.922,-128.906,-46.875
1678025180.966,-108.887,-24.902,50.781,-153.320,-239.258
1678025180.970,-125.488,-20.996,45.898,-138.184,25.391
1678025180.972,-130.859,-10.742,48.340,-109.375,216.309
1678025180.976,-125.000,-8.789,53.711,-113.281,-101.562
1678025180.980,-127.441,-4.883,54.688,-132.812,-231.934
1678025180.984,-132.812,6.836,58.594,-145.508,-120.605
1678025180.988,-154.297,2.441,58.594,-138.184,-155.273
1678025180.992,-178.711,-4.883,50.781,-147.461,-130.859
1678025180.996,-181.641,-4.395,42.969,-174.316,13.184
1678025180.999,-191.406,-4.883,36.621,-181.641,180.664
1678025181.003,-227.539,-9.766,30.762,-216.797,57.617
1678025181.007,-253.906,-16.602,26.855,-235.352,-243.652
1678025181.011,-281.250,-13.672,19.043,-232.910,-154.297
1678025181.015,-308.594,-11.230,10.254,-253.906,45.898
1678025181.017,-309.082,-13.672,7.324,-284.180,-61.035
1678025181.021,-300.293,-13.672,9.277,-304.199,-195.312
1678025181.025,-316.406,-12.207,5.859,-316.895,-85.938
1678025181.029,-333.496,-15.137,1.465,-301.758,99.609
1678025181.033,-331.543,-12.207,0.488,-287.109,3.418
1678025181.037,-328.125,-3.418,0.977,-299.316,-80.078
1678025181.041,-312.988,-3.906,4.883,-299.316,17.578
1678025181.044,-305.176,-7.324,4.395,-280.762,99.121
1678025181.048,-294.922,-8.301,4.883,-263.184,-48.340
1678025181.052,-274.902,-4.395,5.859,-249.512,-97.656
1678025181.056,-252.930,-3.906,6.348,-244.629,104.980
1678025181.060,-238.770,-3.906,7.812,-252.441,32.227
1678025181.063,-238.770,-1.953,10.254,-249.512,-216.309
1678025181.067,-236.816,-2.930,13.184,-218.262,-117.188
1678025181.071,-223.633,-0.977,20.020,-190.430,161.621
1678025181.075,-203.613,-0.977,23.438,-193.848,216.797
1678025181.079,-183.594,-5.371,24.902,-197.266,-92.773
1678025181.083,-174.316,-6.348,29.785,-182.129,-131.836
1678025181.087,-187.988,-4.883,31.738,-152.832,140.625
1678025181.090,-178.223,-4.395,33.203,-125.000,131.836
1678025181.094,-150.879,-6.348,35.645,-132.812,-17.090
1678025181.098,-137.207,-10.742,40.039,-148.926,-40.527
1678025181.102,-135.254,-10.742,45.410,-141.602,-111.328
1678025181.106,-143.555,-8.301,45.410,-127.441,-163.086
1678025181.107,-131.836,-9.277,45.898,-114.746,-143.555
1678025181.111,-112.305,-12.207,49.805,-103.516,-45.410
1678025181.115,-110.352,-15.137,54.199,-111.816,-72.754
1678025181.119,-101.562,-20.508,54.688,-104.980,-79.102
1678025181.123,-101.074,-24.414,53.223,-89.844,-74.707
1678025181.127,-100.098,-23.438,57.617,-73.730,45.410
1678025181.131,-83.496,-23.926,62.012,-66.406,332.520
1678025181.134,-72.266,-21.973,60.059,-86.426,72.266
1678025181.138,-73.730,-23.926,61.523,-90.332,-171.875
1678025181.142,-83.984,-28.320,66.895,-68.359,-77.637
1678025181.146,-84.473,-27.832,67.383,-52.246,-38.574
1678025181.150,-67.383,-24.414,67.383,-55.176,-72.266
1678025181.167,-63.477,-23.438,72.754,-72.266,-127.930
1678025181.171,-75.195,-23.438,75.684,-85.938,-41.504
1678025181.175,-86.914,-21.484,76.172,-83.008,-54.688
1678025181.179,-88.867,-18.066,79.590,-72.754,-145.996
1678025181.183,-67.871,-13.184,88.867,-58.105,-82.031
1678025181.187,-54.688,-13.184,89.355,-61.523,-35.156
1678025181.191,-52.734,-18.555,83.984,-85.938,-96.680
1678025181.194,-58.105,-16.602,90.332,-89.355,-97.168
1678025181.198,-67.383,-13.184,93.750,-74.707,6.836
1678025181.202,-67.383,-15.625,90.820,-67.383,90.820
1678025181.206,-66.895,-19.043,92.285,-83.984,41.992
1678025181.210,-60.547,-14.160,97.656,-93.262,-145.508
1678025181.212,-62.012,-11.230,100.586,-84.961,-141.113
1678025181.216,-72.754,-15.137,99.121,-80.078,211.914
1678025181.220,-67.383,-13.672,96.680,-66.895,182.617
1678025181.224,-71.289,-12.695,97.656,-80.078,-86.914
1678025181.228,-74.707,-12.207,99.121,-98.145,-51.270
1678025181.232,-81.055,-13.184,95.215,-99.609,29.785
1678025181.236,-87.402,-13.184,96.191,-79.102,63.477
1678025181.239,-90.332,-20.508,92.285,-65.918,3.418
1678025181.243,-89.844,-24.902,88.867,-84.473,45.898
1678025181.247,-80.078,-20.996,93.750,-94.238,234.863
1678025181.251,-79.102,-20.020,92.773,-93.262,54.688
1678025181.255,-90.820,-21.484,89.355,-80.078,-133.301
1678025181.257,-90.820,-24.414,87.891,-67.383,86.426
1678025181.261,-82.031,-23.926,87.891,-83.008,125.000
1678025181.265,-78.125,-21.484,86.914,-114.746,-174.805
1678025181.269,-71.289,-20.996,84.961,-125.488,-201.660
1678025181.273,-80.566,-21.973,82.520,-107.910,-104.980
1678025181.277,-89.844,-24.902,83.496,-92.773,-73.242
1678025181.281,-79.590,-21.484,83.496,-97.168,-84.473
1678025181.284,-75.195,-24.414,75.195,-120.605,-118.652
1678025181.288,-89.355,-26.855,73.242,-121.582,53.223
1678025181.292,-104.492,-27.832,76.172,-112.305,74.707
1678025181.296,-102.051,-34.180,74.707,-109.863,-87.402
1678025181.300,-102.051,-34.668,72.266,-104.980,75.195
1678025181.302,-101.562,-34.668,66.406,-111.816,90.332
1678025181.306,-106.934,-35.156,65.430,-122.070,-113.281
1678025181.310,-117.676,-35.645,66.406,-117.188,-191.895
1678025181.314,-120.605,-34.668,63.965,-106.445,-37.598
1678025181.318,-121.094,-36.621,59.570,-105.957,-8.301
1678025181.322,-114.258,-35.645,56.641,-113.770,-88.379
1678025181.326,-113.770,-27.344,54.688,-127.930,-68.359
1678025181.329,-136.230,-27.344,53.711,-125.977,23.926
1678025181.333,-144.531,-29.297,53.223,-92.773,187.500
1678025181.337,-131.348,-27.832,51.270,-91.797,51.758
1678025181.341,-129.883,-31.738,47.363,-124.512,-3.906
1678025181.345,-130.859,-35.645,44.434,-136.230,90.332
1678025181.348,-136.719,-30.762,49.316,-120.117,-8.789
1678025181.352,-144.043,-33.691,54.199,-117.188,-110.352
1678025181.356,-145.020,-34.668,49.805,-120.117,-108.398
1678025181.360,-131.836,-28.320,49.316,-118.652,-82.031
1678025181.364,-119.141,-31.738,50.293,-128.418,-99.609
1678025181.368,-130.371,-31.738,47.852,-128.906,-136.230
1678025181.372,-134.766,-28.320,46.875,-107.422,0.977
1678025181.375,-138.672,-30.273,43.457,-107.422,190.430
1678025181.379,-133.789,-29.785,37.109,-116.699,51.758
1678025181.383,-129.883,-28.809,34.180,-125.488,-215.820
1678025181.387,-143.555,-34.668,31.250,-132.812,-193.359
1678025181.391,-145.508,-34.180,31.250,-121.582,97.168
1678025181.392,-131.836,-30.273,33.203,-112.305,22.461
1678025181.396,-133.301,-35.156,31.250,-127.441,-142.578
1678025181.400,-129.883,-35.645,30.762,-151.367,-120.605
1678025181.404,-119.629,-31.250,30.762,-156.250,-140.625
1678025181.408,-133.789,-33.203,28.320,-143.555,-104.980
1678025181.412,-138.184,-33.691,30.273,-137.207,-96.191
1678025181.416,-133.789,-32.227,27.832,-138.672,64.941
1678025181.419,-137.695,-31.250,21.973,-136.230,248.047
1678025181.423,-149.902,-27.832,22.949,-143.066,-0.977
1678025181.427,-164.062,-29.785,22.461,-136.230,-214.355
1678025181.431,-159.180,-30.762,19.043,-128.906,89.355
1678025181.435,-149.902,-30.762,17.578,-147.461,139.160
1678025181.437,-149.902,-30.273,16.113,-167.480,-181.152
1678025181.441,-154.785,-30.762,17.090,-168.945,-228.516
1678025181.445,-166.504,-37.598,15.625,-163.086,-104.004
1678025181.449,-176.758,-42.480,16.113,-152.832,-51.758
1678025181.453,-168.945,-40.527,16.113,-158.203,-154.297
1678025181.457,-156.250,-38.574,16.113,-166.992,-147.949
1678025181.461,-150.879,-41.016,17.090,-166.992,114.746
1678025181.464,-152.832,-40.039,17.090,-154.785,66.406
1678025181.468,-159.180,-36.621,16.602,-130.371,-188.965
1678025181.472,-151.855,-34.668,18.555,-133.789,-104.004
1678025181.476,-144.043,-34.668,18.555,-147.461,-15.625
1678025181.480,-153.809,-37.109,18.555,-161.133,-148.926
1678025181.497,-162.109,-33.691,24.414,-155.762,-201.660
1678025181.501,-162.598,-34.180,22.461,-126.953,-42.969
1678025181.505,-158.691,-42.480,17.578,-127.930,-20.020
1678025181.509,-159.668,-40.039,16.602,-160.645,-95.215
1678025181.513,-157.227,-36.621,17.090,-185.059,-223.633
1678025181.517,-152.832,-37.598,13.184,-180.176,-66.406
1678025181.521,-166.016,-36.621,10.254,-160.645,246.582
1678025181.524,-170.898,-39.062,9.766,-163.086,66.895
1678025181.528,-155.762,-40.527,4.395,-184.570,-135.254
1678025181.532,-153.809,-37.598,8.301,-189.941,-6.348
1678025181.536,-163.086,-33.203,7.812,-173.828,146.973
1678025181.540,-159.668,-29.297,5.371,-151.855,-44.434
1678025181.542,-151.367,-36.133,7.324,-152.344,-125.000
1678025181.546,-154.297,-38.574,5.371,-165.527,20.996
1678025181.550,-147.461,-35.156,9.766,-165.039,5.859
1678025181.554,-144.531,-31.738,9.277,-157.715,-152.832
1678025181.558,-158.691,-30.273,9.277,-148.926,-79.102
1678025181.562,-157.715,-32.715,9.766,-154.297,133.789
1678025181.566,-154.785,-32.227,3.906,-161.621,95.703
1678025181.569,-158.691,-35.156,1.953,-181.641,-157.715
1678025181.573,-155.273,-39.062,3.418,-185.059,-267.578
1678025181.577,-156.738,-43.945,0.488,-150.391,49.805
1678025181.581,-154.785,-50.293,-2.441,-133.301,157.715
1678025181.585,-148.438,-48.828,-1.465,-151.855,-94.727
1678025181.587,-148.926,-49.316,-0.977,-156.250,-155.273
1678025181.591,-148.926,-48.828,6.836,-157.227,-102.539
1678025181.595,-161.133,-46.875,7.324,-161.621,-178.711
1678025181.599,-155.762,-48.340,4.883,-154.785,-140.625
1678025181.603,-146.484,-49.805,7.812,-151.855,-3.906
1678025181.607,-152.832,-49.316,10.742,-165.527,6.836
1678025181.611,-145.020,-48.828,15.137,-167.480,-114.258
1678025181.614,-154.785,-49.316,15.625,-142.090,-133.301
1678025181.618,-157.227,-45.410,12.695,-121.094,54.688
1678025181.622,-150.879,-43.945,7.812,-123.047,199.707
1678025181.626,-151.855,-49.805,4.883,-158.691,-55.176
1678025181.630,-148.926,-51.270,3.906,-183.594,-210.938
1678025181.662,-153.320,-50.293,4.883,-166.504,-12.695
1678025181.666,-166.016,-53.711,4.395,-159.180,102.051
1678025181.670,-166.016,-53.223,6.836,-157.227,-24.902
1678025181.674,-155.762,-54.199,9.766,-167.969,-145.508
1678025181.678,-163.086,-58.594,9.277,-181.641,-19.531
1678025181.682,-167.480,-54.199,13.184,-172.363,58.594
1678025181.686,-167.969,-48.828,11.719,-161.621,-40.039
1678025181.689,-171.387,-49.805,5.371,-159.180,-99.609
1678025181.693,-166.016,-52.734,2.930,-170.410,101.562
1678025181.697,-159.668,-51.758,6.348,-176.758,84.961
1678025181.701,-165.527,-48.828,13.672,-167.969,-193.848
1678025181.705,-174.805,-52.246,18.555,-134.766,-110.352
1678025181.707,-167.969,-62.012,11.230,-130.859,-39.551
1678025181.711,-167.969,-62.500,8.789,-160.645,-97.656
1678025181.715,-174.316,-59.082,13.184,-166.016,-189.941
1678025181.719,-177.246,-61.035,6.348,-153.320,-89.355
1678025181.723,-178.711,-62.988,7.324,-131.348,63.477
1678025181.727,-163.574,-56.641,18.555,-121.094,47.363
1678025181.731,-146.973,-52.246,20.020,-140.625,25.879
1678025181.734,-143.066,-42.969,23.926,-154.785,-6.348
1678025181.738,-152.344,-33.691,27.832,-150.879,-37.109
1678025181.742,-154.785,-31.250,30.762,-136.719,-68.359
1678025181.746,-148.438,-25.879,32.227,-122.070,-6.348
1678025181.750,-154.297,-28.320,33.203,-129.395,49.805
1678025181.723,-145.996,-33.203,36.621,-151.855,-51.758
1678025181.727,-140.137,-33.203,37.598,-159.668,-132.324
1678025181.731,-147.949,-32.227,40.527,-152.832,-105.469
1678025181.735,-147.949,-32.715,40.039,-140.625,139.648
1678025181.739,-141.113,-31.738,38.086,-134.277,333.008
1678025181.743,-134.277,-31.738,41.016,-151.367,28.320
1678025181.747,-137.207,-41.016,39.062,-150.879,-145.020
1678025181.750,-152.832,-43.457,36.621,-131.836,127.930
1678025181.754,-151.855,-40.039,42.480,-116.699,127.930
1678025181.758,-140.137,-44.922,41.992,-125.000,-139.648
1678025181.762,-140.137,-50.781,39.062,-141.602,-99.121
1678025181.766,-141.113,-51.270,41.992,-143.555,-48.340
1678025181.782,-147.461,-50.293,43.457,-120.605,-98.145
1678025181.786,-148.926,-52.246,41.016,-114.258,-49.805
1678025181.790,-134.277,-50.781,38.086,-128.906,-31.738
1678025181.794,-133.301,-50.293,36.621,-123.535,152.832
1678025181.798,-144.531,-47.852,38.086,-118.164,119.629
1678025181.802,-155.273,-51.270,41.016,-127.930,-129.395
1678025181.806,-153.809,-52.734,42.480,-123.047,91.797
1678025181.809,-140.137,-42.969,44.434,-112.305,391.602
1678025181.813,-130.859,-46.875,40.039,-139.648,167.969
1678025181.817,-133.789,-46.875,38.086,-152.832,-246.094
1678025181.821,-139.648,-45.898,38.086,-137.695,-89.355
1678025181.825,-147.949,-45.898,38.086,-133.789,8.789
1678025181.812,-143.555,-41.992,37.598,-141.113,-78.613
1678025181.816,-123.535,-43.457,39.062,-146.484,-126.465
1678025181.820,-117.188,-41.992,40.039,-151.367,17.090
1678025181.824,-119.629,-41.016,41.992,-143.555,88.379
1678025181.828,-131.348,-44.922,43.457,-125.000,-153.809
1678025181.832,-147.461,-41.992,42.969,-123.535,-66.895
1678025181.836,-139.160,-39.551,43.457,-128.906,-5.859
1678025181.839,-126.465,-42.480,46.387,-135.742,-177.734
1678025181.843,-128.418,-39.062,48.340,-126.953,-203.613
1678025181.847,-132.324,-38.574,51.270,-104.492,-146.973
1678025181.851,-131.836,-42.480,49.316,-106.445,242.188
1678025181.855,-122.559,-39.062,44.434,-122.559,305.664
1678025181.860,-124.512,-38.574,43.945,-140.625,-198.242
1678025181.864,-136.230,-39.551,41.992,-144.043,-232.422
1678025181.868,-133.789,-41.016,41.504,-126.953,-62.012
1678025181.872,-130.371,-46.875,37.109,-116.211,-78.613
1678025181.876,-127.441,-42.480,33.691,-123.535,-163.574
1678025181.880,-118.164,-41.992,40.527,-149.414,42.969
1678025181.884,-120.605,-44.434,46.875,-146.973,144.043
1678025181.887,-126.465,-42.480,46.387,-121.582,-94.727
1678025181.891,-129.883,-43.457,43.457,-119.141,-116.699
1678025181.895,-123.047,-40.527,44.922,-131.348,-55.664
1678025181.899,-121.582,-42.969,40.039,-145.020,-31.250
1678025181.903,-124.512,-48.340,36.621,-147.461,-125.488
1678025181.917,-126.953,-43.945,41.016,-132.812,-90.332
1678025181.921,-112.793,-41.992,42.480,-108.887,118.164
1678025181.925,-98.145,-39.062,42.969,-103.027,62.500
1678025181.929,-107.422,-32.227,44.434,-128.418,-119.141
1678025181.933,-116.699,-30.273,47.852,-124.023,-187.500
1678025181.937,-119.141,-36.621,46.387,-96.680,137.695
1678025181.941,-114.258,-40.527,41.992,-64.453,575.684
1678025181.944,-103.516,-34.180,43.945,-73.730,194.824
1678025181.948,-89.844,-29.297,48.340,-102.051,-142.090
1678025181.952,-94.238,-30.762,49.316,-108.398,-164.062
1678025181.956,-108.887,-31.738,44.434,-103.027,-182.617
1678025181.960,-112.305,-27.832,41.504,-95.703,-143.066
1678025181.977,-103.027,-28.320,42.969,-97.656,-71.777
1678025181.981,-100.098,-28.809,41.016,-112.793,-65.918
1678025181.985,-99.609,-25.391,42.969,-119.141,-191.406
1678025181.989,-99.609,-29.785,41.992,-103.516,-252.930
1678025181.993,-108.398,-30.762,38.574,-83.984,-75.684
1678025181.997,-103.027,-26.367,41.016,-86.914,143.066
1678025182.001,-88.379,-25.391,43.457,-101.562,42.480
1678025182.004,-85.449,-26.855,41.992,-112.793,-123.535
1678025182.008,-103.516,-25.391,38.086,-113.770,-67.383
1678025182.012,-115.723,-29.785,36.133,-98.633,146.973
1678025182.016,-110.352,-31.738,35.645,-91.797,72.266
1678025182.020,-106.934,-28.320,35.645,-108.398,-104.492
1678025182.007,-105.957,-26.367,37.109,-115.234,-71.289
1678025182.011,-111.328,-25.879,40.039,-98.633,-28.320
1678025182.015,-111.816,-23.926,37.109,-93.750,-90.332
1678025182.019,-103.516,-24.414,33.203,-94.238,-47.363
1678025182.023,-98.633,-25.391,29.785,-104.004,-38.086
1678025182.027,-96.680,-23.926,31.738,-114.746,-40.039
1678025182.031,-103.516,-24.902,32.227,-113.281,-32.227
1678025182.034,-104.980,-23.926,27.832,-102.051,-37.109
1678025182.038,-99.609,-21.484,28.320,-88.867,98.633
1678025182.042,-95.215,-20.996,26.367,-101.562,70.801
1678025182.046,-97.168,-19.043,21.973,-118.652,-147.949
1678025182.050,-96.680,-28.320,21.973,-116.699,-129.883
1678025182.052,-105.469,-31.250,22.461,-93.262,136.230
1678025182.056,-121.582,-26.855,20.508,-81.055,135.254
1678025182.060,-118.652,-30.273,18.555,-98.145,-92.285
1678025182.064,-102.539,-25.879,19.531,-122.070,-152.832
1678025182.068,-104.492,-28.320,11.719,-129.395,-207.031
1678025182.072,-123.047,-35.156,2.441,-112.793,-102.539
1678025182.076,-130.371,-30.762,4.395,-111.328,-61.523
1678025182.079,-130.859,-36.133,5.859,-135.254,31.250
1678025182.083,-151.855,-33.691,-0.488,-153.809,216.797
1678025182.087,-177.734,-21.973,-5.371,-170.898,-51.758
1678025182.091,-206.055,-28.809,-12.695,-186.035,-180.176
1678025182.095,-228.027,-34.180,-27.832,-194.336,72.266
1678025182.097,-229.980,-31.738,-40.039,-209.473,68.359
1678025182.101,-223.633,-23.926,-40.527,-229.004,-186.523
1678025182.105,-234.863,-28.809,-41.016,-258.789,-184.082
1678025182.109,-269.043,-25.879,-42.969,-274.902,-131.348
1678025182.113,-284.180,-18.066,-45.410,-269.043,-102.051
1678025182.117,-267.578,-22.461,-48.340,-262.695,-35.645
1678025182.121,-247.070,-15.625,-49.805,-272.949,-81.055
1678025182.124,-233.887,-15.625,-58.105,-280.762,26.855
1678025182.128,-217.773,-19.043,-63.477,-251.465,32.715
1678025182.132,-201.660,-16.602,-57.129,-216.797,-110.352
1678025182.136,-186.035,-18.555,-51.270,-191.895,20.020
1678025182.140,-175.293,-17.090,-47.363,-180.664,61.523
1678025182.142,-171.387,-20.508,-45.898,-173.340,-120.117
1678025182.146,-166.992,-24.902,-41.504,-149.902,-198.242
1678025182.150,-162.109,-28.320,-39.062,-124.023,-75.684
1678025182.154,-150.879,-31.738,-40.039,-117.188,9.277
1678025182.158,-130.859,-27.832,-35.645,-131.836,-119.629
1678025182.162,-122.559,-26.855,-33.691,-139.160,-154.297
1678025182.166,-134.766,-29.785,-31.738,-115.723,124.512
1678025182.169,-125.488,-33.203,-32.715,-90.820,230.957
1678025182.173,-99.609,-38.574,-39.062,-92.285,10.742
1678025182.177,-86.914,-36.621,-38.574,-107.422,-166.016
1678025182.181,-89.355,-32.227,-29.297,-108.398,24.414
1678025182.185,-101.074,-36.133,-24.414,-96.680,263.184
1678025182.188,-98.633,-36.133,-22.949,-60.547,-8.301
1678025182.192,-91.309,-38.574,-21.973,-45.410,-150.879
1678025182.196,-83.496,-39.551,-19.043,-62.988,-15.137
1678025182.200,-73.242,-39.062,-17.578,-72.266,-95.215
1678025182.204,-66.895,-39.551,-18.555,-70.312,-246.094
1678025182.208,-64.941,-37.109,-18.555,-54.199,-144.043
1678025182.212,-61.523,-32.227,-20.020,-28.809,238.281
1678025182.215,-51.758,-32.715,-18.555,-32.227,247.070
1678025182.219,-43.457,-37.598,-18.066,-58.105,-139.160
1678025182.223,-57.129,-42.969,-19.043,-57.617,-129.883
1678025182.227,-64.453,-40.527,-20.020,-42.480,-56.641
1678025182.231,-57.129,-29.785,-19.043,-23.926,-106.934
1678025182.233,-48.340,-28.320,-15.137,-26.855,-159.180
1678025182.237,-48.828,-32.715,-12.695,-54.199,-64.941
1678025182.241,-48.340,-26.855,-11.230,-59.082,21.484
1678025182.245,-53.711,-24.414,-9.277,-28.809,-31.738
1678025182.249,-55.664,-26.855,-15.137,-26.855,-61.523
1678025182.253,-36.621,-22.461,-20.020,-47.852,82.031
1678025182.257,-35.156,-22.461,-21.484,-49.316,393.066
1678025182.260,-45.898,-25.391,-16.602,-52.734,156.738
1678025182.264,-48.340,-23.926,-11.719,-46.875,-179.688
1678025182.268,-50.293,-25.879,-13.184,-31.250,-53.711
1678025182.272,-48.340,-26.855,-10.742,-40.039,59.570
1678025182.276,-38.086,-25.391,-9.277,-62.500,-52.734
1678025182.292,-36.133,-24.902,-12.207,-71.777,-223.145
1678025182.296,-50.781,-24.414,-7.812,-51.758,-28.320
1678025182.300,-49.316,-23.438,-9.766,-33.203,94.727
1678025182.304,-42.969,-22.949,-12.207,-35.156,-102.051
1678025182.308,-41.016,-23.926,-5.371,-49.316,-145.508
1678025182.312,-31.250,-20.996,-3.906,-52.734,16.602
1678025182.316,-25.879,-20.996,-5.859,-39.551,30.273
1678025182.319,-26.855,-23.926,-6.348,-29.785,-77.637
1678025182.323,-31.250,-22.461,-0.977,-19.531,-68.848
1678025182.327,-27.832,-30.762,3.418,-32.227,36.621
1678025182.331,-32.227,-36.621,0.488,-48.828,-52.734
1678025182.335,-39.551,-31.738,2.930,-46.875,-215.820
1678025182.337,-48.828,-33.203,3.418,-31.250,-82.520
1678025182.341,-46.875,-37.598,1.465,-21.973,22.461
1678025182.345,-30.273,-34.668,8.789,-35.156,-113.281
1678025182.349,-28.809,-31.738,8.789,-52.246,-233.398
1678025182.353,-41.504,-34.180,0.000,-56.641,-132.812
1678025182.357,-52.734,-34.180,0.488,-40.527,47.852
1678025182.361,-47.363,-31.738,5.371,-31.250,76.660
1678025182.364,-34.668,-31.250,5.859,-49.316,-48.340
1678025182.368,-24.902,-32.715,6.348,-62.500,-2.930
1678025182.372,-35.156,-34.180,10.742,-58.105,221.191
1678025182.376,-46.387,-33.203,5.371,-51.758,103.516
1678025182.380,-45.410,-31.250,1.465,-46.387,-62.012
1678025182.382,-40.039,-26.855,9.277,-43.457,-24.902
1678025182.386,-44.922,-27.832,7.812,-57.129,-47.363
1678025182.390,-59.570,-28.809,7.324,-56.641,-117.676
1678025182.394,-67.871,-27.344,13.672,-46.875,-107.910
1678025182.398,-67.871,-30.762,8.301,-37.598,90.332
1678025182.402,-61.523,-29.785,6.348,-41.016,214.355
1678025182.406,-54.199,-23.438,11.719,-62.012,18.066
1678025182.409,-56.152,-26.367,6.348,-70.801,-147.949
1678025182.413,-66.406,-26.367,3.418,-59.570,41.992
1678025182.417,-55.176,-21.484,8.301,-51.758,179.199
1678025182.421,-45.410,-26.855,9.766,-49.805,-49.805
1678025182.425,-45.410,-30.273,8.301,-55.176,-144.531
1678025182.427,-48.340,-28.809,11.719,-74.707,-136.230
1678025182.431,-60.059,-25.391,10.742,-72.266,-166.504
1678025182.435,-70.312,-22.949,10.254,-55.176,-192.871
1678025182.439,-66.406,-24.414,11.719,-71.289,-71.289
1678025182.443,-50.781,-27.832,12.207,-89.355,141.113
1678025182.447,-48.828,-26.855,14.160,-91.309,82.520
1678025182.451,-70.801,-27.344,12.695,-81.055,-53.223
1678025182.454,-69.336,-27.832,14.160,-50.781,25.879
1678025182.458,-56.641,-28.320,13.184,-48.828,202.637
1678025182.462,-46.875,-26.855,14.160,-67.871,3.418
1678025182.466,-43.945,-25.879,13.672,-75.195,-183.594
1678025182.470,-53.711,-29.785,15.625,-58.594,48.340
1678025182.472,-56.152,-29.297,21.973,-35.645,184.570
1678025182.476,-42.480,-26.855,22.949,-41.992,-103.516
1678025182.480,-33.691,-25.391,20.996,-51.758,-161.133
1678025182.484,-35.645,-23.438,23.926,-59.082,-156.250
1678025182.488,-41.992,-25.879,25.879,-49.805,-201.172
1678025182.492,-50.293,-28.320,21.973,-30.273,-142.578
1678025182.496,-41.016,-22.461,19.531,-32.227,11.230
1678025182.499,-29.297,-20.996,20.996,-34.668,205.078
1678025182.503,-40.039,-27.832,19.531,-44.434,73.242
1678025182.507,-50.781,-27.344,20.508,-62.012,-221.191
1678025182.511,-52.734,-23.926,17.578,-43.945,-131.836
1678025182.515,-49.316,-24.902,13.184,-29.297,-2.441
1678025182.518,-41.504,-26.855,7.812,-47.852,-116.211
1678025182.522,-42.480,-30.762,4.883,-66.406,-245.117
1678025182.526,-49.316,-32.715,5.371,-71.777,-143.555
1678025182.530,-51.270,-30.762,9.277,-55.664,-23.438
1678025182.534,-55.176,-23.926,11.230,-37.109,-68.359
1678025182.538,-51.270,-25.879,4.883,-57.617,-87.402
1678025182.542,-48.340,-29.297,2.441,-77.637,40.039
1678025182.545,-51.270,-25.879,0.977,-71.289,176.270
1678025182.549,-59.570,-21.484,-1.953,-55.176,-60.059
1678025182.553,-59.570,-19.531,0.488,-43.945,-150.391
1678025182.557,-44.922,-21.484,6.348,-39.551,115.234
1678025182.561,-36.621,-15.625,6.836,-50.293,41.504
1678025182.562,-41.992,-18.555,7.812,-60.547,-230.957
1678025182.566,-52.246,-23.438,8.301,-41.992,-166.504
1678025182.570,-49.316,-23.926,1.953,-37.109,-31.250
1678025182.574,-46.875,-27.832,0.000,-48.828,-23.438
1678025182.578,-49.805,-29.785,4.883,-62.988,-55.664
1678025182.582,-45.410,-28.320,-1.953,-64.453,-76.172
1678025182.586,-43.945,-30.762,-1.465,-45.410,176.758
1678025182.589,-47.852,-27.344,-1.953,-34.668,369.629
1678025182.593,-40.039,-22.949,-9.277,-47.363,123.047
1678025182.597,-32.715,-25.391,-6.836,-58.594,-41.992
1678025182.601,-35.645,-20.996,-3.418,-68.848,-109.375
1678025182.605,-45.410,-23.926,-1.465,-65.918,-150.879
1678025182.622,-51.270,-27.832,-1.465,-47.852,-135.254
1678025182.626,-45.410,-26.367,-6.348,-53.711,-49.805
1678025182.630,-41.992,-28.320,-7.324,-70.312,-34.668
1678025182.634,-41.016,-24.414,-12.695,-77.637,-110.352
1678025182.638,-51.270,-22.949,-15.137,-67.871,-145.996
1678025182.642,-63.477,-26.855,-17.090,-57.617,153.809
1678025182.646,-62.500,-29.297,-20.020,-54.199,348.145
1678025182.649,-56.641,-29.785,-20.020,-67.383,-1.953
1678025182.653,-48.828,-29.297,-18.555,-83.008,-246.094
1678025182.657,-57.129,-28.320,-20.020,-70.801,-37.109
1678025182.661,-67.871,-31.250,-23.438,-42.969,237.793
1678025182.665,-60.547,-27.344,-22.949,-43.945,11.230
1678025182.667,-51.270,-24.414,-23.438,-60.059,-163.086
1678025182.671,-58.105,-25.391,-23.438,-65.430,-3.418
1678025182.675,-69.336,-24.902,-22.949,-74.707,101.562
1678025182.679,-68.359,-26.367,-26.855,-70.801,-130.371
1678025182.683,-54.688,-24.414,-27.344,-53.711,-164.062
1678025182.687,-51.270,-25.879,-22.949,-57.617,-56.152
1678025182.691,-60.547,-24.902,-24.414,-69.824,-104.980
1678025182.694,-60.059,-24.902,-21.484,-66.895,-251.953
1678025182.698,-57.129,-22.461,-20.508,-50.781,-175.293
1678025182.702,-57.129,-18.555,-22.949,-32.227,233.398
1678025182.706,-46.875,-20.020,-24.902,-31.738,254.883
1678025182.710,-43.457,-27.344,-29.297,-64.453,-112.305
1678025182.712,-48.340,-28.809,-28.809,-69.336,-161.133
1678025182.716,-55.664,-25.879,-27.832,-52.246,-60.059
1678025182.720,-64.453,-26.367,-32.715,-54.688,-60.547
1678025182.724,-55.176,-22.461,-33.691,-50.293,-133.301
1678025182.728,-49.316,-22.461,-35.645,-66.406,-138.672
1678025182.732,-54.199,-24.902,-37.109,-71.777,-75.684
1678025182.736,-55.664,-22.461,-38.086,-58.105,-51.758
1678025182.739,-56.641,-20.020,-40.039,-54.199,-112.305
1678025182.743,-57.129,-20.508,-35.156,-52.734,31.250
1678025182.747,-58.105,-26.367,-35.156,-72.266,159.180
1678025182.751,-61.035,-29.785,-41.504,-75.684,-81.055
1678025182.755,-68.359,-24.902,-42.480,-55.176,-108.398
1678025182.757,-61.523,-26.367,-42.480,-46.875,145.020
1678025182.761,-42.480,-27.832,-40.039,-39.551,160.645
1678025182.765,-42.480,-25.391,-37.598,-53.223,-125.000
1678025182.769,-53.711,-26.855,-43.457,-70.312,-241.211
1678025182.773,-62.500,-29.785,-42.480,-48.828,9.766
1678025182.777,-56.152,-23.926,-38.086,-30.273,188.965
1678025182.781,-38.574,-20.996,-35.156,-39.551,41.992
1678025182.784,-41.504,-22.949,-36.621,-52.246,-176.270
1678025182.788,-55.664,-22.949,-39.551,-61.523,22.461
1678025182.792,-57.129,-23.438,-41.504,-51.270,167.969
1678025182.796,-58.105,-24.414,-42.480,-42.480,-118.652
1678025182.800,-51.758,-23.438,-41.992,-48.828,-19.043
1678025182.817,-46.387,-26.367,-42.969,-61.523,28.320
1678025182.821,-49.805,-28.320,-44.434,-62.500,-120.117
1678025182.825,-60.547,-27.832,-46.387,-53.223,-214.844
1678025182.829,-69.336,-26.855,-45.898,-44.434,-74.707
1678025182.833,-58.594,-27.832,-42.480,-45.898,65.430
1678025182.837,-60.059,-33.691,-41.016,-68.848,-127.441
1678025182.841,-74.707,-30.762,-41.992,-80.566,-203.125
1678025182.844,-80.566,-28.320,-41.016,-74.707,-5.859
1678025182.848,-78.613,-29.785,-41.992,-50.781,143.555
1678025182.852,-71.777,-30.762,-43.945,-45.898,-44.922
1678025182.856,-69.336,-34.668,-45.898,-74.219,-85.938
1678025182.860,-76.172,-32.715,-46.875,-78.613,-75.684
1678025182.847,-78.125,-30.762,-46.875,-62.012,-155.273
1678025182.851,-86.914,-35.156,-50.781,-47.852,-125.000
1678025182.855,-79.590,-37.598,-54.199,-44.434,-129.395
1678025182.859,-51.758,-31.738,-49.316,-49.316,147.461
1678025182.863,-38.086,-28.809,-51.270,-61.523,218.750
1678025182.867,-39.062,-29.785,-56.152,-69.824,-129.883
1678025182.871,-33.203,-28.320,-49.805,-52.246,-53.223
1678025182.874,-24.414,-28.809,-51.270,-34.180,165.527
1678025182.878,-14.160,-29.785,-51.758,-41.992,58.594
1678025182.882,-11.230,-33.203,-49.805,-63.477,-196.777
1678025182.886,-25.391,-37.598,-49.316,-67.383,-191.895
1678025182.890,-48.828,-36.621,-51.758,-47.363,87.891
1678025182.892,-55.176,-38.086,-52.734,-43.457,99.609
1678025182.896,-50.781,-34.180,-54.688,-59.082,-155.273
1678025182.900,-51.758,-32.715,-59.570,-73.242,-108.398
1678025182.904,-51.270,-39.062,-59.082,-80.566,-84.961
1678025182.908,-62.988,-39.551,-61.035,-54.688,-123.047
1678025182.912,-64.453,-39.062,-60.547,-32.227,-71.777
1678025182.916,-53.711,-36.621,-57.129,-48.340,3.906
1678025182.919,-54.688,-35.156,-58.105,-65.918,27.344
1678025182.923,-65.918,-39.062,-58.594,-70.801,-230.469
1678025182.927,-75.195,-40.039,-60.547,-62.500,-293.945
1678025182.931,-62.012,-40.039,-59.082,-36.621,58.105
1678025182.935,-61.035,-36.621,-58.594,-33.691,150.879
1678025182.937,-59.082,-36.133,-60.547,-49.805,-113.770
1678025182.941,-55.664,-39.551,-57.617,-56.152,-224.609
1678025182.945,-64.941,-37.598,-57.129,-36.133,-0.977
1678025182.949,-68.848,-35.156,-57.617,-11.230,366.699
1678025182.953,-62.012,-34.668,-61.035,-19.531,118.164
1678025182.957,-47.852,-32.715,-67.871,-45.410,-84.961
1678025182.961,-45.898,-29.785,-67.871,-49.805,155.273
1678025182.964,-53.711,-26.855,-66.895,-39.551,145.996
1678025182.968,-61.523,-28.809,-70.312,-39.062,-12.207
1678025182.972,-47.852,-31.738,-73.242,-35.156,9.766
1678025182.976,-34.668,-28.809,-71.777,-43.945,-38.086
1678025182.980,-52.246,-32.227,-74.707,-71.777,-165.527
1678025182.982,-61.035,-39.062,-80.078,-78.613,-282.715
1678025182.986,-53.711,-38.574,-80.566,-52.246,-148.926
1678025182.990,-44.434,-35.156,-78.613,-37.598,-23.438
1678025182.994,-45.898,-32.715,-78.125,-58.105,-99.609
1678025182.998,-45.410,-33.203,-81.543,-73.730,-245.117
1678025183.002,-56.152,-34.668,-80.566,-63.477,-71.289
1678025183.006,-74.707,-36.621,-82.031,-48.340,187.988
1678025183.009,-71.777,-41.504,-85.938,-50.781,11.719
1678025183.013,-58.105,-38.086,-82.520,-55.664,-171.875
1678025183.017,-49.316,-34.180,-80.566,-57.617,-24.414
1678025183.021,-56.641,-41.504,-82.520,-56.641,55.664
1678025183.025,-64.453,-38.574,-85.449,-44.922,-88.379
1678025183.042,-61.523,-35.156,-83.008,-41.016,-87.891
1678025183.046,-49.805,-38.574,-83.984,-53.711,91.309
1678025183.050,-48.828,-42.480,-91.309,-64.453,77.637
1678025183.054,-49.316,-42.969,-89.355,-72.754,-172.363
1678025183.058,-48.340,-40.039,-87.402,-60.059,-116.699
1678025183.062,-39.551,-34.668,-83.008,-33.203,-17.578
1678025183.066,-23.438,-29.785,-79.590,-34.180,21.484
1678025183.069,-23.438,-28.320,-84.473,-57.617,-50.781
1678025183.073,-41.016,-33.691,-87.402,-62.988,-166.504
1678025183.077,-49.805,-35.156,-86.914,-42.480,104.980
1678025183.081,-41.016,-30.273,-82.520,-27.344,178.711
1678025183.085,-31.250,-29.785,-80.078,-33.691,-73.242
1678025183.088,-34.668,-32.227,-75.195,-41.016,-99.609
1678025183.092,-41.504,-37.109,-74.707,-48.340,-93.262
1678025183.096,-49.805,-40.527,-77.148,-40.039,-153.809
1678025183.100,-47.852,-37.598,-73.242,-19.531,-134.766
1678025183.104,-34.668,-33.203,-66.895,-19.531,-29.297
1678025183.108,-25.391,-33.203,-67.383,-32.227,37.109
1678025183.112,-29.785,-37.109,-66.406,-47.852,-94.238
1678025183.115,-45.410,-39.551,-65.430,-46.387,-184.082
1678025183.119,-58.594,-40.039,-70.312,-32.715,79.590
1678025183.123,-42.969,-39.551,-70.312,-33.691,223.633
1678025183.127,-24.902,-36.133,-70.801,-50.781,-47.363
1678025183.131,-31.250,-33.203,-67.871,-67.871,-187.988
1678025183.133,-41.504,-32.715,-64.941,-52.734,-83.984
1678025183.137,-43.457,-34.180,-65.430,-25.391,92.773
1678025183.141,-41.992,-35.645,-69.824,-38.086,-14.648
1678025183.145,-34.180,-30.762,-70.801,-55.176,-84.961
1678025183.149,-27.832,-28.809,-68.848,-59.082,-131.348
1678025183.153,-43.945,-29.297,-63.965,-54.688,-116.699
1678025183.157,-50.293,-29.785,-63.477,-32.227,-21.973
1678025183.160,-42.480,-32.227,-69.824,-29.785,-7.812
1678025183.164,-39.062,-26.855,-70.801,-44.434,95.703
1678025183.168,-31.738,-23.926,-66.406,-55.176,52.734
1678025183.172,-41.504,-22.461,-69.824,-56.152,-175.781
1678025183.176,-46.875,-18.066,-71.289,-35.156,-83.496
1678025183.177,-46.387,-22.461,-71.777,-30.762,42.969
1678025183.181,-48.828,-25.391,-74.219,-47.363,-72.754
1678025183.185,-40.527,-19.531,-74.219,-55.176,-219.727
1678025183.189,-50.781,-17.090,-70.312,-55.176,-131.348
1678025183.193,-66.406,-22.949,-66.406,-39.551,151.367
1678025183.197,-62.500,-24.902,-72.754,-32.227,67.383
1678025183.201,-74.219,-33.203,-78.125,-57.617,-58.594
1678025183.204,-83.008,-31.250,-79.590,-80.566,27.832
1678025183.208,-96.680,-23.926,-90.820,-91.797,236.328
1678025183.212,-145.020,-30.273,-96.680,-114.746,155.273
1678025183.216,-179.199,-33.203,-99.121,-145.508,-39.062
1678025183.220,-188.965,-25.879,-114.258,-171.875,60.059
1678025183.237,-209.473,-23.438,-133.301,-220.703,-28.320
1678025183.241,-241.211,-21.973,-152.832,-261.719,-189.453
1678025183.245,-272.949,-18.066,-163.574,-265.625,-144.043
1678025183.249,-287.598,-15.137,-168.945,-273.926,75.195
1678025183.253,-271.973,-14.160,-176.270,-288.086,106.445
1678025183.257,-262.695,-14.648,-173.828,-301.270,-35.156
1678025183.261,-267.090,-15.137,-170.898,-299.805,-96.680
1678025183.264,-254.883,-10.742,-169.922,-270.020,162.598
1678025183.268,-232.910,-12.207,-164.551,-231.934,350.098
1678025183.272,-212.402,-16.602,-159.668,-220.703,43.945
1678025183.276,-186.035,-15.137,-150.879,-214.355,-124.023
1678025183.280,-165.039,-14.160,-143.555,-193.359,-160.156
1678025183.267,-162.598,-12.695,-141.602,-173.828,-146.973
1678025183.271,-137.207,-13.672,-137.207,-138.672,-174.316
1678025183.275,-106.934,-15.137,-132.812,-114.258,-99.121
1678025183.279,-93.750,-16.602,-130.371,-111.328,-102.539
1678025183.283,-73.242,-19.531,-128.906,-93.750,-166.016
1678025183.287,-63.477,-20.508,-122.070,-61.523,-173.828
1678025183.291,-52.734,-24.902,-116.211,-29.297,22.949
1678025183.294,-46.387,-28.809,-117.676,-21.484,116.211
1678025183.298,-41.016,-27.832,-112.793,-30.273,-53.223
1678025183.302,-29.297,-24.414,-105.469,-34.180,-161.621
1678025183.306,-26.367,-25.391,-108.887,-26.855,2.930
1678025183.310,-22.949,-28.320,-106.445,9.766,457.031
1678025183.328,-13.672,-26.855,-101.074,18.555,287.598
1678025183.332,-0.977,-28.809,-101.562,-14.160,-118.164
1678025183.336,0.977,-27.344,-98.145,-26.367,-181.641
1678025183.340,-4.883,-24.414,-92.285,-10.254,-226.562
1678025183.344,2.441,-25.879,-87.402,17.578,-208.984
1678025183.348,20.996,-28.809,-87.402,24.414,-107.422
1678025183.352,24.414,-31.250,-84.961,15.625,190.430
1678025183.355,22.949,-25.391,-79.102,11.719,165.039
1678025183.359,20.508,-24.414,-75.195,13.672,-190.430
1678025183.363,23.926,-26.367,-73.730,28.320,-143.066
1678025183.367,38.086,-27.832,-73.242,41.992,-25.879
1678025183.371,44.922,-30.762,-67.871,41.992,-50.781
1678025183.359,51.270,-29.297,-62.988,30.273,-140.625
1678025183.363,51.270,-31.738,-62.988,30.273,-112.793
1678025183.367,40.527,-27.344,-54.688,53.711,23.438
1678025183.371,38.574,-25.879,-49.805,58.594,-17.090
1678025183.375,51.270,-32.227,-51.270,42.969,-114.258
1678025183.379,57.617,-31.738,-48.340,34.180,-95.703
1678025183.383,43.945,-30.762,-47.363,27.832,-23.926
1678025183.386,33.203,-28.809,-42.480,40.527,-87.402
1678025183.390,35.645,-26.855,-40.527,54.688,-123.535
1678025183.394,39.062,-30.762,-46.875,49.316,6.348
1678025183.398,40.527,-34.668,-46.875,42.480,312.988
1678025183.402,39.062,-33.691,-47.363,26.367,92.285
1678025183.420,28.809,-27.344,-43.457,34.180,-190.430
1678025183.424,21.973,-28.809,-39.551,51.270,73.730
1678025183.428,19.531,-35.156,-43.457,25.879,119.141
1678025183.432,23.926,-29.297,-42.480,5.371,-134.766
1678025183.436,21.973,-21.973,-43.945,5.371,-275.391
1678025183.440,12.695,-20.996,-41.504,27.832,62.988
1678025183.444,16.113,-16.113,-36.621,49.316,311.523
1678025183.447,26.367,-15.625,-41.016,32.227,-6.348
1678025183.451,26.367,-14.160,-44.434,17.090,-110.352
1678025183.455,17.090,-14.648,-42.969,7.324,-103.027
1678025183.459,7.324,-20.020,-45.898,12.207,-147.949
1678025183.463,4.395,-21.484,-46.875,19.043,-177.734
1678025183.462,6.836,-20.508,-42.969,20.020,-120.117
1678025183.466,6.836,-18.555,-42.480,8.789,-85.449
1678025183.470,3.906,-22.949,-48.828,-9.766,-193.359
1678025183.474,0.000,-20.020,-51.758,-10.742,-216.797
1678025183.478,5.371,-16.113,-53.223,5.371,-60.547
1678025183.482,15.625,-20.020,-48.828,19.043,34.180
1678025183.486,17.090,-24.414,-41.992,7.812,47.852
1678025183.489,14.648,-26.367,-40.039,-17.090,-135.742
1678025183.493,2.441,-24.414,-41.016,-9.766,-131.348
1678025183.497,-22.949,-25.879,-42.480,11.719,302.734
1678025183.501,-22.949,-25.879,-43.457,4.883,213.379
1678025183.505,-4.883,-22.461,-47.852,-16.602,-105.957
1678025183.508,3.906,-16.602,-49.316,-19.043,11.230
1678025183.512,-2.930,-19.043,-45.898,-15.625,37.109
1678025183.516,-21.484,-29.297,-44.434,-6.836,-118.652
1678025183.520,-25.879,-27.832,-41.992,1.953,-106.445
1678025183.524,-23.926,-19.531,-41.504,-14.160,-73.730
1678025183.528,-28.320,-20.508,-47.363,-36.621,-143.555
1678025183.532,-36.621,-25.391,-48.340,-46.387,-149.902
1678025183.535,-46.387,-25.879,-46.875,-33.691,-28.320
1678025183.539,-45.898,-24.414,-47.852,-15.137,133.789
1678025183.543,-27.344,-18.555,-48.340,-19.531,47.363
1678025183.547,-21.973,-18.555,-51.270,-41.992,-194.824
1678025183.551,-30.273,-25.879,-49.316,-48.828,-138.672
1678025183.552,-22.949,-20.508,-46.387,-24.414,24.414
1678025183.556,-17.578,-14.160,-47.852,-3.906,2.441
1678025183.560,-21.973,-17.578,-47.363,-12.695,-79.102
1678025183.564,-14.160,-19.531,-44.434,-25.879,-50.781
1678025183.568,-20.508,-18.555,-50.781,-28.809,87.402
1678025183.572,-36.621,-19.531,-49.805,-17.578,71.777
1678025183.576,-28.320,-15.137,-48.340,-7.812,12.695
1678025183.579,-12.695,-10.742,-54.199,-20.020,59.082
1678025183.583,-12.207,-14.648,-54.199,-33.203,177.246
1678025183.587,-13.672,-20.996,-51.758,-37.598,7.324
1678025183.591,-22.461,-18.555,-51.758,-37.109,-119.141
1678025183.595,-29.297,-15.625,-51.270,-26.367,126.465
1678025183.597,-36.133,-23.926,-54.688,-22.949,151.855
1678025183.601,-39.551,-27.344,-59.082,-47.852,-156.250
1678025183.605,-37.598,-23.926,-57.129,-56.152,-203.125
1678025183.609,-42.480,-21.973,-57.617,-40.039,-147.461
1678025183.613,-56.641,-23.926,-55.176,-40.527,-46.387
1678025183.617,-57.617,-21.973,-54.688,-46.875,33.203
1678025183.621,-51.758,-19.531,-60.059,-64.941,-26.855
1678025183.624,-49.316,-19.043,-62.012,-73.242,91.797
1678025183.628,-38.086,-17.578,-59.082,-54.199,31.250
1678025183.632,-27.832,-19.531,-53.711,-41.504,-168.945
1678025183.636,-20.996,-20.020,-59.082,-34.668,-36.133
1678025183.640,-11.719,-19.531,-62.012,-46.387,-43.457
1678025183.642,-1.953,-20.508,-59.570,-61.523,-200.195
1678025183.646,-6.348,-16.602,-61.523,-57.129,-249.512
1678025183.650,-28.809,-16.602,-63.965,-39.062,-120.117
1678025183.654,-34.668,-19.531,-61.035,-20.508,-7.812
1678025183.658,-29.297,-17.090,-59.570,-32.715,-69.824
1678025183.662,-25.391,-16.602,-62.500,-48.828,-140.137
1678025183.666,-33.691,-20.508,-61.523,-37.109,-5.371
1678025183.669,-46.875,-21.484,-61.035,-20.020,173.828
1678025183.673,-41.016,-20.996,-60.547,-14.160,-17.090
1678025183.677,-37.109,-24.902,-62.988,-29.785,-135.742
1678025183.681,-43.457,-32.227,-68.848,-48.828,32.227
1678025183.685,-39.062,-33.203,-72.754,-46.875,69.824
1678025183.688,-47.852,-26.367,-71.777,-26.855,-129.395
1678025183.692,-58.594,-19.531,-67.383,-21.973,-120.605
1678025183.696,-44.922,-18.555,-68.359,-46.387,-14.160
1678025183.700,-35.645,-20.996,-69.824,-52.246,-75.684
1678025183.704,-40.527,-23.926,-63.477,-42.969,-192.871
1678025183.708,-51.758,-23.438,-60.059,-38.574,-123.535
1678025183.712,-41.992,-19.043,-57.129,-18.555,265.137
1678025183.715,-22.949,-20.996,-59.082,-23.438,279.785
1678025183.719,-20.508,-20.508,-61.523,-49.316,-175.781
1678025183.723,-32.227,-16.113,-57.129,-51.270,-184.082
1678025183.727,-40.527,-16.602,-55.664,-34.668,-69.824
1678025183.731,-40.039,-17.578,-56.152,-13.672,-86.426
1678025183.732,-33.203,-18.555,-57.129,-18.555,-102.051
1678025183.736,-26.855,-18.555,-54.688,-33.691,-47.363
1678025183.740,-24.902,-18.555,-50.781,-47.852,-80.566
1678025183.744,-34.180,-19.531,-51.270,-41.016,-138.672
1678025183.748,-42.969,-16.113,-50.781,-25.879,-63.477
1678025183.752,-30.273,-17.578,-51.758,-22.461,146.973
1678025183.756,-17.578,-18.066,-54.688,-27.344,310.059
1678025183.759,-26.367,-15.137,-52.734,-41.016,-15.625
1678025183.763,-34.668,-19.043,-52.734,-35.156,-229.492
1678025183.767,-36.621,-18.066,-55.176,-20.020,-15.625
1678025183.771,-36.621,-20.508,-54.688,-23.438,158.203
1678025183.775,-36.133,-26.367,-56.152,-43.945,27.344
1678025183.792,-34.668,-18.066,-55.664,-52.246,-205.078
1678025183.796,-39.551,-18.066,-54.688,-39.062,-97.656
1678025183.800,-37.109,-16.113,-57.617,-20.996,93.750
1678025183.804,-29.297,-8.301,-58.105,-26.855,-21.973
1678025183.808,-28.320,-13.184,-54.688,-31.250,-91.797
1678025183.812,-29.297,-22.461,-55.664,-37.109,-27.344
1678025183.816,-36.621,-20.508,-53.711,-37.109,-4.395
1678025183.819,-40.527,-15.137,-48.340,-13.184,-4.883
1678025183.823,-24.902,-14.648,-44.922,-4.395,-11.230
1678025183.827,-16.602,-21.484,-48.828,-11.230,131.348
1678025183.831,-29.297,-22.461,-53.711,-20.508,160.645
1678025183.835,-39.062,-24.902,-50.293,-40.039,-134.277
1678025183.837,-49.316,-26.855,-46.387,-31.250,-94.727
1678025183.841,-39.551,-18.555,-45.410,-20.508,5.859
1678025183.845,-25.391,-19.043,-43.945,-29.785,-67.871
1678025183.849,-19.531,-19.531,-49.316,-39.551,-177.734
1678025183.853,-28.809,-18.555,-54.199,-42.480,-151.855
1678025183.857,-42.969,-25.879,-49.805,-29.297,-0.488
1678025183.861,-33.691,-26.855,-48.340,-12.695,100.098
1678025183.864,-15.625,-24.902,-43.457,-18.066,-24.902
1678025183.868,-18.555,-21.484,-42.969,-26.855,-59.570
1678025183.872,-26.367,-20.020,-46.387,-20.996,192.383
1678025183.876,-36.621,-20.996,-41.016,-19.531,91.797
1678025183.880,-33.691,-21.973,-43.945,-21.973,-141.602
1678025183.882,-20.996,-20.020,-39.551,-26.855,27.344
1678025183.886,-20.508,-20.508,-29.297,-46.875,64.453
1678025183.890,-22.461,-21.973,-32.227,-51.758,-230.957
1678025183.894,-33.691,-20.508,-30.762,-27.832,-236.816
1678025183.898,-37.598,-23.926,-30.762,-16.602,-83.496
1678025183.902,-31.250,-22.461,-35.156,-21.484,9.766
1678025183.906,-25.879,-19.531,-33.691,-34.180,-41.016
1678025183.909,-31.250,-17.578,-31.738,-41.992,-204.102
1678025183.913,-38.086,-18.555,-30.762,-26.367,63.965
1678025183.917,-36.133,-23.438,-32.715,-8.789,161.621
1678025183.921,-27.344,-22.461,-31.250,-18.066,-139.160
1678025183.925,-20.020,-20.020,-29.297,-24.414,-99.609
1678025183.928,-30.273,-24.902,-30.273,-34.180,-40.527
1678025183.932,-36.133,-26.855,-30.762,-31.738,-139.160
1678025183.936,-35.156,-22.949,-32.227,-16.602,-145.508
1678025183.940,-26.367,-20.020,-32.227,-10.742,-78.613
1678025183.944,-20.996,-16.602,-32.227,-26.367,-99.609
1678025183.948,-36.133,-21.973,-32.227,-42.480,-134.277
1678025183.952,-50.293,-24.414,-30.273,-28.809,-36.133
1678025183.955,-56.152,-21.973,-30.762,-13.672,133.789
1678025183.959,-52.246,-23.926,-28.320,-13.184,267.090
1678025183.963,-39.062,-26.367,-28.320,-25.391,-23.926
1678025183.967,-29.297,-24.902,-28.320,-44.434,-171.387
1678025183.971,-29.785,-24.414,-24.902,-32.227,105.957
1678025183.973,-40.039,-23.438,-23.926,-6.348,85.938
1678025183.977,-37.109,-20.996,-22.461,0.488,-134.766
1678025183.981,-23.926,-22.949,-23.926,-17.578,-70.801
1678025183.985,-25.879,-20.996,-25.879,-50.781,-25.391
1678025183.989,-30.273,-22.461,-25.391,-45.410,-165.039
1678025183.993,-37.598,-20.508,-23.438,-26.367,-62.012
1678025183.997,-41.016,-21.973,-25.879,-30.762,82.031
1678025184.000,-32.715,-28.809,-28.809,-36.621,214.355
1678025184.004,-24.414,-25.879,-25.391,-41.992,251.953
1678025184.008,-30.273,-22.949,-23.438,-44.434,-92.285
1678025184.012,-36.621,-22.461,-17.090,-15.625,-153.320
1678025184.016,-33.203,-23.438,-19.043,-5.371,-53.711
1678025184.017,-20.508,-23.438,-24.414,-19.043,-59.570
1678025184.021,-12.207,-23.438,-19.043,-28.809,-158.203
1678025184.025,-24.414,-25.391,-19.531,-28.320,-184.082
1678025184.029,-32.715,-29.785,-24.902,-22.949,-129.883
1678025184.033,-40.039,-30.762,-27.832,-21.973,-4.395
1678025184.037,-43.945,-29.785,-33.203,-34.668,40.527
1678025184.041,-40.039,-27.344,-31.738,-48.340,4.883
1678025184.044,-34.180,-19.531,-25.391,-26.367,159.668
1678025184.048,-32.715,-13.672,-24.414,-10.742,63.965
1678025184.052,-40.039,-18.066,-26.367,-18.066,-132.812
1678025184.056,-41.504,-18.555,-27.344,-24.414,87.402
1678025184.060,-38.086,-20.020,-26.855,-45.410,50.781
1678025184.077,-35.645,-25.879,-30.273,-61.035,-200.684
1678025184.081,-43.457,-23.926,-29.297,-38.574,-165.039
1678025184.085,-41.504,-16.113,-22.949,-28.320,-40.039
1678025184.089,-35.156,-14.648,-26.367,-42.969,-30.762
1678025184.093,-32.227,-14.160,-27.344,-46.387,-126.465
1678025184.097,-27.344,-17.090,-24.414,-50.781,-63.477
1678025184.101,-36.621,-20.996,-25.391,-36.621,184.570
1678025184.104,-41.504,-21.484,-22.461,-8.789,232.422
1678025184.108,-39.551,-21.973,-21.484,-8.301,-17.578
1678025184.112,-38.086,-22.949,-22.461,-27.344,-91.797
1678025184.116,-35.156,-23.438,-23.438,-36.133,-43.457
1678025184.120,-44.434,-25.879,-25.879,-31.738,-47.363
1678025184.125,-42.969,-25.391,-24.414,-20.996,-75.684
1678025184.129,-28.320,-21.484,-26.367,-21.973,-42.480
1678025184.133,-20.020,-21.484,-27.344,-35.156,-60.547
1678025184.137,-21.973,-21.973,-28.320,-46.875,-135.742
1678025184.141,-41.504,-24.414,-28.809,-46.387,-154.785
1678025184.145,-53.223,-30.273,-26.855,-35.156,86.914
1678025184.149,-55.176,-28.809,-26.855,-42.480,247.559
1678025184.152,-50.781,-22.949,-23.926,-57.129,-19.531
1678025184.156,-45.410,-23.926,-30.762,-64.941,-176.270
1678025184.160,-46.387,-23.926,-33.691,-63.477,-13.184
1678025184.164,-56.641,-23.438,-35.156,-40.039,336.426
1678025184.168,-52.246,-21.484,-32.715,-31.738,120.117
1678025184.182,-39.551,-23.438,-27.832,-50.781,-136.719
1678025184.186,-42.480,-25.879,-33.691,-58.594,-57.129
1678025184.190,-54.688,-25.391,-36.621,-58.594,-150.391
1678025184.194,-55.176,-21.973,-34.180,-44.922,-162.598
1678025184.198,-43.945,-20.020,-30.273,-32.227,-74.707
1678025184.202,-41.016,-21.973,-32.715,-41.504,79.102
1678025184.206,-35.645,-23.926,-35.156,-51.758,60.547
1678025184.209,-31.250,-21.973,-35.156,-47.363,-102.051
1678025184.213,-41.016,-20.508,-37.109,-32.715,-167.480
1678025184.217,-42.480,-25.391,-40.527,-25.879,94.727
1678025184.221,-32.715,-25.879,-41.992,-25.879,286.133
1678025184.225,-18.555,-19.043,-40.527,-38.086,-84.473
1678025184.227,-20.508,-19.043,-42.480,-51.758,-224.121
1678025184.231,-29.297,-20.508,-39.062,-25.879,71.777
1678025184.235,-25.879,-22.461,-33.203,8.301,109.375
1678025184.239,-23.926,-26.367,-39.062,-10.742,-73.242
1678025184.243,-25.879,-23.926,-42.480,-33.203,-122.070
1678025184.247,-29.297,-23.926,-36.621,-38.086,-138.672
1678025184.251,-43.945,-28.320,-36.621,-42.480,-67.871
1678025184.254,-51.270,-27.832,-41.016,-36.133,-40.527
1678025184.258,-46.387,-27.832,-41.016,-27.832,-5.859
1678025184.262,-39.551,-27.832,-41.016,-42.480,-64.453
1678025184.266,-35.645,-24.902,-41.992,-49.316,-122.070
1678025184.270,-46.387,-26.367,-44.922,-39.062,-65.430
1678025184.258,-49.316,-25.879,-44.434,-29.297,31.738
1678025184.262,-35.156,-21.973,-42.969,-19.531,421.387
1678025184.266,-28.320,-26.855,-46.875,-34.668,223.145
1678025184.270,-34.668,-32.715,-47.363,-52.246,-247.559
1678025184.274,-41.992,-32.715,-50.293,-52.734,-146.484
1678025184.278,-46.387,-31.250,-52.734,-46.387,34.668
1678025184.282,-49.805,-29.297,-52.246,-34.668,-13.184
1678025184.285,-43.945,-29.297,-56.152,-45.410,-122.070
1678025184.289,-40.527,-28.809,-56.641,-68.848,-171.875
1678025184.293,-47.852,-26.367,-54.199,-54.199,-204.102
1678025184.297,-45.410,-24.902,-53.711,-30.273,-225.586
1678025184.301,-39.062,-25.391,-52.246,-33.691,-156.738
1678025184.302,-33.203,-29.297,-52.246,-36.133,95.703
1678025184.306,-26.367,-29.785,-53.223,-52.246,16.602
1678025184.310,-32.715,-31.250,-53.223,-49.805,-174.316
1678025184.314,-48.340,-37.109,-55.664,-25.391,-17.578
1678025184.318,-54.688,-35.645,-60.059,-27.832,66.895
1678025184.322,-56.152,-33.691,-59.570,-48.340,-16.602
1678025184.326,-53.223,-32.227,-52.246,-62.012,-123.047
1678025184.329,-45.898,-27.344,-49.316,-55.176,-77.148
1678025184.333,-50.781,-21.973,-47.363,-28.809,217.773
1678025184.337,-44.434,-20.020,-54.199,-22.949,140.137
1678025184.341,-41.992,-24.414,-58.594,-53.223,-83.984
1678025184.345,-51.758,-21.973,-56.152,-65.918,0.000
1678025184.362,-59.082,-20.020,-64.941,-61.035,-40.039
1678025184.366,-74.219,-27.832,-69.336,-61.035,-124.512
1678025184.370,-77.148,-26.367,-68.359,-57.617,-89.355
1678025184.374,-78.613,-14.160,-74.707,-65.430,-90.820
1678025184.378,-90.820,-12.207,-78.613,-98.633,-127.441
1678025184.382,-111.328,-16.113,-80.566,-123.535,-132.812
1678025184.386,-140.137,-23.438,-97.168,-132.324,-93.262
1678025184.389,-153.809,-17.090,-104.492,-138.184,159.668
1678025184.393,-157.715,-13.672,-110.352,-164.551,279.297
1678025184.397,-164.062,-12.695,-117.676,-201.172,-132.812
1678025184.401,-174.805,-3.418,-121.094,-212.402,-238.770
1678025184.405,-173.340,0.000,-125.488,-202.148,-68.359
1678025184.392,-171.875,-4.883,-128.906,-193.848,-52.246
1678025184.396,-171.875,-1.953,-132.812,-196.289,-62.500
1678025184.400,-167.480,-1.465,-128.906,-201.660,-53.711
1678025184.404,-166.016,-0.488,-123.535,-196.289,-108.887
1678025184.408,-181.152,1.465,-115.723,-174.805,-174.805
1678025184.412,-186.523,-6.348,-117.676,-151.855,-30.273
1678025184.416,-161.133,-11.719,-116.211,-136.230,194.824
1678025184.419,-136.719,-12.207,-112.793,-134.277,91.309
1678025184.423,-131.348,-10.254,-112.305,-135.742,-63.965
