timestamps,TP9,AF7,AF8,TP10,Right AUX
1678025311.023,-34.180,-24.414,-72.266,-212.891,-112.305
1678025311.027,-101.562,-30.273,-71.777,-221.680,-175.293
1678025311.031,-112.793,-36.621,-71.777,-214.844,-230.957
1678025311.035,-62.988,-40.039,-73.242,-209.961,-134.766
1678025311.039,-7.324,-32.715,-73.242,-189.453,-37.598
1678025311.043,-41.992,-30.273,-72.754,-180.664,7.324
1678025311.047,-95.703,-32.227,-74.219,-190.430,163.574
1678025311.050,-85.449,-23.438,-75.195,-195.801,-60.059
1678025311.054,-49.805,-23.438,-81.055,-189.941,-188.477
1678025311.058,-11.719,-31.250,-83.008,-170.410,-64.941
1678025311.062,-22.949,-28.320,-78.125,-166.016,-49.805
1678025311.066,-79.590,-24.414,-76.172,-185.547,-186.035
1678025311.070,-53.711,-30.762,-78.613,-137.695,-83.008
1678025311.074,-77.637,-28.320,-77.637,-142.090,49.316
1678025311.078,-33.691,-27.832,-73.730,-141.602,35.156
1678025311.081,26.367,-25.879,-77.637,-136.230,-0.977
1678025311.085,17.578,-28.809,-79.590,-142.578,-1.953
1678025311.089,-51.270,-27.832,-76.660,-151.367,76.660
1678025311.093,-73.730,-19.043,-73.730,-152.832,35.156
1678025311.097,-42.480,-21.973,-72.754,-151.855,-154.785
1678025311.114,-0.488,-27.344,-72.754,-151.855,-47.363
1678025311.118,11.230,-29.297,-80.078,-157.715,120.605
1678025311.122,-50.293,-27.344,-80.078,-169.922,-49.805
1678025311.126,-89.355,-22.949,-74.219,-173.828,-230.469
1678025311.130,-62.988,-24.414,-72.266,-160.645,-99.609
1678025311.134,-13.672,-26.855,-70.312,-139.648,219.727
1678025311.138,8.301,-26.367,-74.219,-131.348,213.379
1678025311.141,-55.176,-27.832,-73.242,-139.648,-46.875
1678025311.145,-100.098,-29.297,-71.289,-141.602,-115.234
1678025311.149,-74.707,-27.344,-71.777,-125.488,37.109
1678025311.153,-15.137,-23.438,-69.824,-105.469,-31.738
1678025311.157,11.719,-24.902,-71.777,-97.168,-31.738
1678025311.158,-42.480,-23.926,-72.266,-114.746,-58.594
1678025311.162,-95.703,-23.438,-63.965,-125.977,-165.039
1678025311.166,-75.684,-27.344,-63.965,-126.953,-166.504
1678025311.170,-22.949,-27.832,-70.312,-132.812,-65.430
1678025311.174,11.230,-28.809,-72.754,-139.648,227.051
1678025311.178,-25.879,-27.832,-72.754,-155.273,134.277
1678025311.182,-89.844,-26.367,-72.754,-181.641,-112.793
1678025311.185,-77.637,-26.367,-76.172,-192.871,-75.195
1678025311.189,-26.855,-29.297,-72.266,-190.918,114.746
1678025311.193,10.742,-26.367,-69.336,-186.523,291.504
1678025311.197,-30.273,-22.949,-75.195,-209.473,-6.836
1678025311.201,-86.426,-32.715,-75.684,-244.629,-218.262
1678025311.205,-65.918,-32.715,-71.289,-240.723,-161.133
1678025311.209,-28.320,-28.809,-73.242,-220.703,-104.980
1678025311.213,5.859,-28.320,-73.242,-222.656,-54.688
1678025311.217,-15.625,-27.832,-75.684,-247.559,-77.148
1678025311.221,-68.359,-30.762,-76.660,-267.090,-106.445
1678025311.225,-72.266,-27.832,-76.172,-272.949,-90.820
1678025311.229,-45.410,-25.879,-76.660,-250.977,-54.688
1678025311.232,-4.395,-30.762,-76.172,-218.262,68.359
1678025311.236,-2.930,-31.738,-77.637,-211.914,359.863
1678025311.240,-69.824,-31.250,-78.613,-229.492,132.812
1678025311.244,-88.379,-33.691,-74.707,-241.699,-241.211
1678025311.248,-41.504,-33.691,-72.266,-257.324,-153.809
1678025311.248,1.953,-31.738,-72.266,-268.066,-64.941
1678025311.252,-8.789,-37.598,-73.242,-284.668,-23.438
1678025311.256,-59.570,-37.109,-70.312,-294.922,-104.980
1678025311.260,-83.008,-31.738,-69.824,-294.922,-199.219
1678025311.264,-50.781,-30.762,-66.895,-297.852,-137.207
1678025311.268,11.719,-30.273,-60.059,-277.344,6.836
1678025311.272,17.578,-32.227,-60.547,-274.414,67.383
1678025311.275,-44.922,-31.250,-62.012,-287.598,193.848
1678025311.279,-77.148,-30.273,-59.082,-279.785,308.594
1678025311.283,-54.199,-32.227,-56.641,-275.391,8.789
1678025311.287,-2.441,-35.645,-59.082,-280.273,-104.980
1678025311.291,11.719,-39.551,-59.082,-298.340,-64.453
1678025311.295,-50.293,-40.527,-54.688,-311.523,-193.848
1678025311.299,-95.703,-37.109,-54.688,-306.152,-253.418
1678025311.303,-66.406,-39.062,-64.453,-308.594,-147.949
1678025311.307,-6.348,-38.574,-67.383,-294.922,22.949
1678025311.311,8.301,-35.645,-63.965,-283.691,35.156
1678025311.315,-43.457,-37.598,-62.988,-302.734,-77.148
1678025311.319,-72.266,-37.109,-67.871,-326.660,-105.957
1678025311.322,-65.918,-39.551,-74.219,-313.477,138.672
1678025311.326,-25.391,-39.062,-70.312,-289.551,56.641
1678025311.330,1.465,-38.086,-69.336,-270.020,-74.707
1678025311.334,-42.480,-40.039,-66.406,-268.555,-40.527
1678025311.338,-87.402,-37.109,-66.406,-280.273,-168.945
1678025311.338,-69.336,-36.133,-68.359,-272.461,-247.559
1678025311.342,-9.766,-36.133,-72.754,-247.559,-145.996
1678025311.346,32.715,-35.156,-76.172,-231.445,20.020
1678025311.350,-11.230,-35.645,-70.312,-239.258,6.836
1678025311.354,-88.867,-38.086,-68.848,-246.094,-109.375
1678025311.358,-91.309,-42.480,-72.266,-237.305,-95.215
1678025311.362,-37.598,-46.387,-77.637,-218.262,144.531
1678025311.365,4.395,-44.434,-77.148,-195.312,402.832
1678025311.369,-22.461,-40.527,-75.684,-206.055,60.059
1678025311.373,-79.590,-40.527,-80.078,-217.285,-190.430
1678025311.377,-75.195,-42.480,-81.543,-232.422,-101.074
1678025311.381,-28.320,-48.828,-82.031,-261.230,-119.141
1678025311.386,13.184,-47.852,-80.566,-279.785,-53.223
1678025311.390,-16.602,-42.480,-80.078,-295.410,18.066
1678025311.394,-84.473,-41.016,-80.566,-322.266,-11.230
1678025311.398,-85.938,-42.969,-80.566,-345.215,-182.617
1678025311.402,-41.992,-40.527,-81.055,-354.492,-214.355
1678025311.406,-5.371,-36.133,-79.590,-343.750,73.730
1678025311.410,-23.438,-34.668,-75.684,-336.426,261.719
1678025311.413,-82.031,-33.691,-77.637,-360.352,-31.738
1678025311.417,-95.703,-35.156,-83.496,-375.000,-215.332
1678025311.421,-50.293,-35.156,-85.449,-374.512,-116.211
1678025311.425,6.348,-35.645,-87.891,-374.512,16.113
1678025311.429,-7.324,-35.156,-88.867,-399.902,-25.391
1678025311.458,-85.449,-38.574,-89.355,-454.590,-182.617
1678025311.462,-102.051,-42.969,-86.426,-489.258,-140.625
1678025311.466,-51.758,-39.551,-86.914,-486.816,-15.137
1678025311.470,-4.883,-32.715,-84.473,-477.539,36.133
1678025311.474,-10.742,-32.715,-88.867,-492.188,38.086
1678025311.478,-76.660,-34.668,-95.215,-512.207,182.617
1678025311.482,-100.586,-34.180,-94.238,-494.629,268.066
1678025311.485,-58.594,-32.715,-90.332,-469.727,-18.555
1678025311.489,-8.301,-34.180,-87.402,-441.895,-92.285
1678025311.493,1.465,-38.086,-86.426,-419.922,170.898
1678025311.497,-53.711,-36.621,-85.449,-415.527,85.449
1678025311.501,-102.051,-35.156,-89.355,-434.570,-154.785
1678025311.490,-67.871,-32.227,-94.727,-438.477,-189.941
1678025311.494,-1.953,-37.109,-95.703,-430.176,-145.508
1678025311.498,11.719,-39.551,-95.215,-428.711,-95.703
1678025311.502,-53.711,-33.203,-97.656,-450.195,-150.879
1678025311.506,-95.215,-31.738,-99.121,-478.516,-225.098
1678025311.510,-69.336,-32.715,-97.168,-475.586,-144.043
1678025311.514,-20.996,-32.227,-98.633,-457.520,30.273
1678025311.517,0.488,-35.156,-99.121,-436.035,111.816
1678025311.521,-48.340,-37.598,-96.191,-443.359,53.223
1678025311.525,-105.957,-36.621,-99.609,-465.820,-80.566
1678025311.529,-93.262,-37.109,-98.633,-467.285,-169.922
1678025311.533,-32.715,-36.133,-94.727,-443.359,-140.137
1678025311.533,14.160,-32.227,-94.727,-423.340,57.617
1678025311.537,-16.602,-31.738,-95.703,-428.223,361.328
1678025311.541,-78.125,-29.297,-97.656,-462.891,34.668
1678025311.545,-73.242,-30.762,-96.191,-472.656,-287.109
1678025311.549,-21.484,-33.203,-92.773,-452.637,-39.551
1678025311.553,18.555,-30.762,-94.238,-449.707,97.656
1678025311.557,-3.906,-29.785,-91.797,-464.355,-71.289
1678025311.560,-55.664,-24.414,-84.961,-486.816,-161.133
1678025311.564,-67.383,-19.043,-81.543,-473.145,100.098
1678025311.568,-30.762,-21.484,-84.473,-432.129,354.004
1678025311.572,16.602,-27.344,-89.355,-415.039,140.625
1678025311.576,-15.137,-27.832,-92.773,-414.551,-34.180
1678025311.581,-81.055,-23.438,-94.238,-399.902,-99.609
1678025311.585,-88.379,-22.461,-96.191,-394.043,-252.930
1678025311.589,-47.363,-24.414,-97.656,-393.555,-233.887
1678025311.593,9.277,-23.926,-93.750,-372.070,-105.957
1678025311.597,-2.930,-27.832,-94.238,-357.422,-56.152
1678025311.601,-85.938,-32.715,-94.727,-354.980,-118.652
1678025311.605,-98.633,-37.109,-96.680,-344.727,-175.293
1678025311.608,-41.016,-39.551,-97.656,-333.496,-95.703
1678025311.612,13.672,-38.574,-98.145,-306.641,194.336
1678025311.616,3.906,-39.551,-101.562,-304.199,86.426
1678025311.620,-61.523,-42.480,-100.098,-318.848,-113.281
1678025311.624,-86.914,-38.574,-100.098,-305.176,-145.508
1678025311.623,-50.293,-34.180,-101.074,-306.641,-142.090
1678025311.627,14.160,-32.715,-97.168,-316.406,-88.379
1678025311.631,23.926,-28.320,-98.633,-317.383,-24.414
1678025311.635,-53.223,-31.738,-105.957,-331.055,6.348
1678025311.639,-95.703,-34.180,-111.816,-351.562,-114.258
1678025311.643,-58.594,-31.250,-115.723,-341.309,-145.996
1678025311.647,-9.277,-34.180,-111.816,-307.617,-21.484
1678025311.650,-0.977,-36.621,-110.352,-303.223,176.270
1678025311.654,-59.082,-33.691,-113.770,-322.266,360.352
1678025311.658,-101.074,-29.785,-108.398,-336.914,-33.203
1678025311.662,-69.824,-28.809,-112.305,-327.148,-251.953
1678025311.666,-22.461,-32.227,-119.629,-301.270,-13.184
1678025311.685,-11.230,-33.691,-120.117,-293.457,62.012
1678025311.689,-62.500,-34.668,-120.117,-316.895,-98.633
1678025311.693,-111.328,-36.621,-119.629,-333.008,-209.473
1678025311.697,-88.867,-32.227,-112.305,-318.848,-30.762
1678025311.701,-35.645,-37.109,-111.328,-304.199,-89.844
1678025311.705,-16.602,-37.109,-126.465,-309.082,-86.426
1678025311.709,-62.012,-38.086,-130.371,-330.566,41.504
1678025311.712,-124.512,-32.227,-122.559,-340.820,170.898
1678025311.716,-128.418,-24.414,-124.512,-351.074,-22.461
1678025311.720,-89.355,-22.461,-127.930,-342.285,-185.059
1678025311.724,-63.965,-24.902,-139.160,-324.219,-48.340
1678025311.728,-111.816,-30.273,-154.785,-348.145,-32.715
1678025311.714,-198.730,-35.156,-161.621,-381.348,-200.684
1678025311.718,-208.984,-32.715,-168.457,-395.020,-251.953
1678025311.722,-162.109,-25.879,-174.805,-420.410,-5.371
1678025311.726,-137.207,-22.949,-186.035,-442.871,96.680
1678025311.730,-185.547,-22.949,-192.383,-467.773,-109.863
1678025311.734,-274.902,-26.367,-195.801,-503.906,-202.637
1678025311.738,-296.387,-29.297,-200.195,-509.766,-2.930
1678025311.741,-249.512,-24.414,-209.473,-497.559,-12.695
1678025311.745,-191.406,-21.973,-211.914,-484.863,-150.879
1678025311.749,-199.219,-26.855,-208.984,-484.375,-190.918
1678025311.753,-264.648,-30.273,-212.402,-500.488,1.465
1678025311.757,-256.836,-25.879,-212.891,-501.953,190.918
1678025311.788,-184.570,-20.020,-206.543,-500.488,-118.164
1678025311.792,-127.441,-22.949,-204.102,-505.371,-114.258
1678025311.796,-124.023,-19.043,-203.125,-515.137,118.164
1678025311.800,-170.410,-13.672,-196.777,-523.926,-119.629
1678025311.804,-186.523,-22.461,-196.777,-530.273,-256.836
1678025311.808,-143.066,-24.902,-195.312,-517.578,-94.727
1678025311.812,-87.891,-17.578,-190.430,-476.074,217.773
1678025311.815,-90.332,-21.973,-188.477,-484.863,133.301
1678025311.819,-148.926,-30.273,-182.129,-523.926,-178.711
1678025311.823,-172.852,-29.297,-176.758,-514.160,-144.531
1678025311.827,-119.141,-31.250,-172.363,-487.305,-10.742
1678025311.831,-52.734,-34.668,-170.898,-482.910,-62.012
1678025311.818,-33.203,-34.668,-167.480,-485.352,-42.969
1678025311.822,-80.566,-36.621,-158.691,-506.836,-37.109
1678025311.826,-115.723,-39.551,-154.785,-550.293,-101.562
1678025311.830,-80.566,-39.551,-145.020,-572.266,-137.695
1678025311.834,-24.902,-41.016,-140.137,-577.637,-69.336
1678025311.838,-2.441,-41.992,-142.578,-573.242,233.398
1678025311.842,-46.387,-39.551,-136.719,-588.867,143.066
1678025311.845,-88.867,-46.387,-136.719,-634.766,-133.301
1678025311.849,-52.734,-42.480,-141.113,-645.508,-64.453
1678025311.853,14.160,-34.668,-135.254,-625.000,30.762
1678025311.857,35.645,-40.039,-131.836,-616.211,-22.461
1678025311.861,-9.766,-36.621,-132.324,-649.902,-113.770
1678025311.865,-49.805,-29.785,-128.906,-698.242,-164.062
1678025311.869,-38.086,-31.738,-126.953,-692.871,127.930
1678025311.873,15.625,-31.250,-122.559,-660.156,187.500
1678025311.877,58.594,-30.273,-115.723,-640.625,-56.152
1678025311.881,22.949,-25.391,-109.863,-634.766,-48.828
1678025311.885,-25.879,-27.832,-106.934,-640.625,15.625
1678025311.889,-12.695,-28.809,-107.910,-645.508,-48.340
1678025311.892,40.527,-26.367,-105.469,-620.605,-159.180
1678025311.896,76.660,-35.156,-101.074,-583.496,-3.906
1678025311.900,37.598,-43.457,-101.074,-582.520,329.590
1678025311.904,-22.461,-39.551,-95.703,-597.168,21.484
1678025311.908,-20.996,-38.086,-87.891,-599.609,-317.383
1678025311.908,19.043,-46.387,-91.797,-609.375,-152.344
1678025311.912,47.852,-46.875,-88.379,-617.188,4.883
1678025311.916,22.949,-38.574,-78.613,-628.906,-88.379
1678025311.920,-31.738,-36.621,-78.613,-643.066,-226.074
1678025311.924,-33.691,-40.527,-78.125,-659.180,-195.312
1678025311.928,14.160,-37.598,-78.125,-671.387,-82.031
1678025311.932,57.617,-39.551,-78.125,-672.363,17.578
1678025311.935,23.926,-44.434,-75.684,-673.340,14.648
1678025311.939,-40.039,-43.945,-73.730,-666.016,62.500
1678025311.943,-42.480,-36.621,-74.707,-651.367,267.090
1678025311.947,4.395,-32.227,-71.289,-602.539,20.508
1678025311.951,54.688,-37.598,-69.824,-537.598,-49.805
1678025311.955,49.805,-40.039,-69.336,-494.629,147.949
1678025311.959,-12.207,-40.039,-62.012,-483.398,-85.938
1678025311.963,-36.133,-40.527,-60.547,-466.309,-223.145
1678025311.967,0.977,-40.527,-61.035,-429.199,-123.535
1678025311.971,51.758,-40.039,-54.199,-389.160,33.691
1678025311.975,58.105,-35.645,-52.734,-370.605,139.648
1678025311.979,-2.930,-38.086,-55.176,-390.137,12.207
1678025311.982,-34.180,-41.992,-53.223,-376.465,-132.324
1678025311.986,-6.348,-42.969,-54.688,-336.426,107.422
1678025311.990,41.992,-40.039,-57.617,-326.660,79.102
1678025311.994,47.852,-41.016,-57.129,-309.082,-44.922
1678025311.998,-8.301,-42.480,-56.152,-294.922,-42.969
1678025311.999,-49.805,-42.480,-56.641,-283.691,-146.484
1678025312.003,-30.273,-35.645,-53.711,-250.488,-222.656
1678025312.007,17.578,-33.691,-53.223,-238.770,-83.496
1678025312.011,26.367,-45.410,-53.223,-231.934,86.426
1678025312.015,-19.043,-44.922,-50.781,-230.957,71.289
1678025312.019,-58.105,-41.504,-49.805,-237.305,-64.453
1678025312.023,-41.504,-45.898,-46.387,-232.422,-89.844
1678025312.026,12.695,-43.945,-44.434,-248.535,206.543
1678025312.030,32.715,-40.039,-41.992,-260.742,396.484
1678025312.034,-21.973,-44.434,-41.992,-280.273,5.859
1678025312.038,-74.219,-47.852,-44.434,-308.105,-230.957
1678025312.042,-54.199,-45.410,-43.457,-300.781,-110.840
1678025312.045,4.883,-43.945,-44.434,-280.273,-101.074
1678025312.049,35.645,-44.434,-46.875,-277.344,-105.469
1678025312.053,-11.230,-42.969,-53.223,-283.203,-49.316
1678025312.057,-70.312,-41.016,-55.176,-328.613,-111.328
1678025312.061,-57.617,-40.039,-50.781,-361.816,-114.258
1678025312.065,-11.230,-38.086,-53.711,-333.008,-47.852
1678025312.069,32.715,-34.668,-56.152,-334.473,129.883
1678025312.072,8.789,-33.203,-49.805,-354.492,430.176
1678025312.076,-58.105,-35.645,-49.805,-385.254,138.184
1678025312.080,-52.734,-38.574,-51.270,-432.129,-241.699
1678025312.084,-4.883,-36.133,-43.457,-447.266,-142.090
1678025312.088,26.855,-30.273,-41.016,-457.031,-35.156
1678025312.088,10.742,-29.297,-45.410,-480.957,-87.891
1678025312.092,-57.617,-30.273,-47.852,-485.840,-176.270
1678025312.096,-63.477,-29.785,-47.363,-469.238,-136.719
1678025312.100,-17.090,-29.297,-44.434,-431.641,-8.301
1678025312.104,22.949,-27.344,-42.969,-423.340,14.648
1678025312.108,9.277,-29.785,-40.527,-468.750,-14.160
1678025312.112,-61.523,-32.227,-36.621,-553.711,98.145
1678025312.115,-81.055,-32.227,-33.203,-603.516,269.531
1678025312.119,-37.109,-33.203,-41.504,-630.859,91.309
1678025312.123,20.020,-31.738,-45.898,-699.219,-21.484
1678025312.127,15.137,-29.785,-42.480,-752.441,106.445
1678025312.131,-60.059,-31.738,-48.340,-769.531,-67.383
1678025312.148,-82.520,-29.785,-44.434,-774.902,-290.527
1678025312.152,-33.203,-28.809,-42.969,-805.664,-230.469
1678025312.156,9.277,-28.809,-49.316,-840.332,-102.539
1678025312.160,0.977,-28.320,-51.270,-882.324,-7.812
1678025312.164,-49.805,-30.762,-57.129,-934.570,-141.113
1678025312.168,-74.219,-30.762,-56.152,-962.891,-137.207
1678025312.172,-47.363,-26.855,-55.176,-955.078,157.715
1678025312.175,-8.301,-25.391,-60.547,-920.410,15.625
1678025312.179,3.418,-26.855,-60.547,-902.832,-111.328
1678025312.183,-35.645,-30.273,-54.688,-903.320,9.277
1678025312.187,-76.172,-29.297,-51.270,-905.762,66.406
1678025312.191,-63.965,-28.320,-57.617,-915.527,-129.395
1678025312.179,-12.207,-26.855,-56.152,-925.293,-87.891
1678025312.183,10.254,-28.809,-57.129,-928.223,62.500
1678025312.187,-36.621,-29.785,-60.547,-940.430,-39.062
1678025312.191,-75.684,-32.227,-61.035,-926.758,-226.074
1678025312.195,-49.805,-34.180,-62.988,-887.207,-247.070
1678025312.199,0.488,-30.273,-64.453,-865.723,23.926
1678025312.203,24.414,-33.691,-65.918,-847.168,202.637
1678025312.206,-23.438,-36.621,-65.430,-829.590,15.137
1678025312.210,-78.125,-34.668,-64.453,-812.500,-198.242
1678025312.214,-64.453,-34.180,-67.383,-771.973,32.227
1678025312.218,-14.648,-35.645,-71.289,-729.980,190.918
1678025312.222,24.414,-38.086,-72.754,-722.168,-14.648
1678025312.239,-12.207,-33.203,-76.172,-724.121,-80.078
1678025312.243,-75.195,-33.203,-72.266,-744.629,-91.797
1678025312.247,-69.336,-39.551,-66.895,-737.793,-161.133
1678025312.251,-25.879,-39.551,-69.336,-685.059,-165.039
1678025312.255,11.719,-37.109,-72.754,-645.020,56.152
1678025312.259,-20.996,-35.156,-76.172,-643.066,267.090
1678025312.263,-86.914,-34.668,-78.125,-690.918,3.418
1678025312.266,-82.520,-37.598,-80.078,-728.027,-223.633
1678025312.270,-30.273,-40.039,-79.590,-719.238,-51.758
1678025312.274,15.137,-40.039,-77.148,-703.613,243.652
1678025312.278,-11.719,-44.922,-79.590,-729.492,32.715
1678025312.282,-84.961,-44.922,-79.102,-744.629,-262.207
1678025312.283,-92.285,-41.016,-76.172,-709.961,-219.727
1678025312.287,-46.387,-44.922,-73.242,-662.598,-114.258
1678025312.291,3.906,-44.434,-76.660,-573.730,-42.969
1678025312.295,-2.930,-41.016,-82.520,-507.324,-49.805
1678025312.299,-70.312,-46.875,-81.543,-478.027,80.078
1678025312.303,-88.867,-49.316,-83.984,-439.453,128.418
1678025312.307,-48.828,-46.387,-85.449,-412.598,-60.547
1678025312.310,6.836,-41.504,-83.496,-387.207,-23.438
1678025312.314,10.254,-40.039,-83.008,-357.910,199.219
1678025312.318,-59.082,-43.945,-84.473,-364.746,263.672
1678025312.322,-86.426,-42.969,-84.473,-396.973,-97.656
1678025312.326,-54.688,-38.574,-83.984,-398.926,-166.016
1678025312.345,-11.230,-35.645,-83.984,-392.090,-22.461
1678025312.349,-5.859,-29.785,-87.891,-418.945,-15.137
1678025312.353,-64.941,-28.809,-89.355,-450.195,-123.535
1678025312.357,-99.121,-30.273,-86.914,-437.500,-75.684
1678025312.361,-62.988,-29.297,-83.008,-416.016,0.000
1678025312.365,-2.930,-30.273,-83.008,-438.477,-12.207
1678025312.369,15.625,-28.320,-85.449,-439.453,36.133
1678025312.372,-41.016,-27.832,-89.844,-456.055,17.578
1678025312.376,-87.891,-27.344,-86.426,-462.402,174.316
1678025312.380,-60.547,-28.809,-80.566,-454.102,55.664
1678025312.384,-12.207,-29.297,-82.520,-441.406,-109.375
1678025312.388,1.465,-35.156,-85.449,-404.785,-32.715
1678025312.373,-41.504,-36.621,-88.379,-383.301,-50.293
1678025312.377,-94.238,-31.250,-86.914,-388.184,-183.594
1678025312.381,-77.637,-33.691,-88.379,-383.789,-265.625
1678025312.385,-20.996,-29.785,-91.309,-358.887,-183.594
1678025312.389,4.395,-30.273,-96.191,-347.656,-53.711
1678025312.393,-32.227,-32.715,-95.703,-385.254,3.418
1678025312.397,-76.172,-23.926,-89.355,-436.035,-57.129
1678025312.400,-67.871,-23.926,-88.867,-459.961,7.324
1678025312.404,-19.531,-27.832,-92.285,-437.012,30.273
1678025312.408,14.160,-25.391,-94.727,-413.574,-41.016
1678025312.412,-19.043,-23.438,-94.238,-419.434,-75.195
1678025312.416,-74.219,-18.066,-93.750,-410.156,40.527
1678025312.420,-69.336,-13.672,-95.215,-395.508,216.797
1678025312.424,-18.555,-19.531,-94.238,-390.137,-36.621
1678025312.428,18.555,-24.414,-99.121,-391.602,-113.770
1678025312.432,-22.949,-25.391,-101.074,-414.551,-68.359
1678025312.436,-95.215,-28.320,-97.168,-426.270,-192.871
1678025312.440,-97.656,-29.297,-95.703,-437.500,-224.121
1678025312.444,-53.711,-34.180,-99.121,-448.730,-6.348
1678025312.447,-1.465,-31.738,-100.586,-437.500,339.355
1678025312.451,-9.277,-27.832,-100.098,-388.184,117.188
1678025312.455,-67.383,-26.855,-102.051,-298.828,-189.453
1678025312.459,-73.730,-28.320,-104.004,-208.496,-142.578
1678025312.463,-41.016,-29.785,-100.586,-105.957,-53.223
1678025312.463,11.719,-28.320,-99.609,-37.598,-66.895
1678025312.467,13.184,-31.250,-103.027,-17.090,-74.219
1678025312.471,-45.410,-32.715,-102.051,6.348,-138.672
1678025312.475,-70.312,-30.273,-102.539,-8.789,-220.215
1678025312.479,-37.109,-27.832,-104.492,-52.246,-195.801
1678025312.483,6.836,-29.297,-107.422,-23.926,-59.082
1678025312.487,1.465,-33.203,-109.863,20.020,226.562
1678025312.490,-71.289,-30.762,-112.305,23.926,363.770
1678025312.494,-112.305,-32.715,-114.746,38.574,-83.984
1678025312.498,-81.543,-35.645,-114.258,57.617,-273.438
1678025312.502,-21.973,-32.715,-111.816,68.359,-64.453
1678025312.506,-7.324,-31.738,-109.375,68.359,16.602
1678025312.510,-68.359,-32.715,-106.445,72.266,-186.035
1678025312.514,-102.051,-38.086,-107.910,83.496,-219.727
1678025312.518,-70.801,-32.715,-110.352,105.957,-19.043
1678025312.522,-12.695,-27.344,-110.352,148.438,-59.082
1678025312.526,3.906,-33.691,-113.281,168.457,-49.316
1678025312.530,-58.105,-35.645,-115.723,172.363,5.371
1678025312.534,-98.633,-32.715,-118.652,213.379,185.059
1678025312.537,-65.918,-30.273,-121.582,241.211,-19.531
1678025312.541,-9.277,-28.809,-122.070,240.723,-132.324
1678025312.545,20.508,-26.855,-125.488,273.438,48.340
1678025312.549,-33.203,-26.367,-125.977,296.875,0.488
1678025312.553,-97.168,-30.273,-126.953,301.270,-170.410
1678025312.583,-76.172,-34.180,-129.395,330.078,-146.973
1678025312.587,-18.555,-36.621,-131.836,351.562,84.473
1678025312.591,12.695,-38.086,-134.766,361.816,170.410
1678025312.595,-27.832,-36.621,-129.883,366.211,-36.621
1678025312.599,-88.379,-37.598,-126.465,346.680,-195.801
1678025312.603,-71.289,-34.668,-125.488,345.703,34.180
1678025312.607,-22.461,-32.715,-127.930,366.211,273.438
1678025312.610,2.930,-34.180,-135.254,360.352,144.043
1678025312.614,-33.203,-32.227,-138.672,340.820,-12.695
1678025312.618,-91.797,-28.320,-135.742,333.008,35.645
1678025312.622,-85.449,-26.367,-135.742,318.848,-2.441
1678025312.626,-24.902,-27.344,-135.742,316.895,-83.008
1678025312.615,8.789,-25.391,-134.766,334.473,-8.789
1678025312.619,-36.133,-30.273,-137.695,320.312,28.809
1678025312.623,-96.191,-29.785,-139.648,310.547,-70.801
1678025312.627,-101.562,-29.297,-141.602,317.871,-169.434
1678025312.631,-53.223,-30.273,-142.578,321.289,-101.562
1678025312.635,-1.465,-29.785,-141.113,326.172,130.859
1678025312.639,-18.066,-32.227,-143.555,317.383,54.688
1678025312.642,-81.055,-32.715,-138.672,307.617,-147.461
1678025312.646,-92.285,-31.250,-133.789,320.312,-181.641
1678025312.650,-44.434,-31.738,-134.277,330.566,-120.117
1678025312.654,10.742,-29.785,-131.836,362.305,11.230
1678025312.658,-6.348,-33.203,-128.906,382.812,-15.625
1678025312.658,-73.242,-31.738,-121.582,365.234,-63.965
1678025312.662,-109.375,-25.391,-117.676,368.652,130.371
1678025312.666,-81.543,-35.156,-120.605,388.672,6.348
1678025312.670,-23.438,-35.156,-124.512,410.156,-41.992
1678025312.674,-17.090,-32.715,-135.742,407.715,69.824
1678025312.678,-91.309,-38.574,-139.648,384.766,-47.363
1678025312.682,-135.254,-28.320,-132.812,346.680,-197.266
1678025312.685,-116.699,-34.668,-135.254,323.242,-126.465
1678025312.689,-91.309,-47.852,-158.203,308.594,196.289
1678025312.693,-104.004,-43.457,-173.340,321.289,429.688
1678025312.697,-172.852,-42.480,-175.293,314.941,104.492
1678025312.701,-259.277,-44.922,-184.082,276.367,-181.152
1678025312.705,-280.762,-46.387,-194.336,270.508,-134.766
1678025312.709,-240.723,-43.945,-204.590,270.020,-78.125
1678025312.713,-234.863,-34.180,-210.449,252.441,-15.625
1678025312.717,-308.105,-33.203,-224.609,215.332,-45.410
1678025312.721,-359.863,-37.109,-237.305,203.125,-197.266
1678025312.725,-331.055,-30.273,-231.445,222.168,-167.969
1678025312.729,-272.461,-25.391,-230.957,220.703,-70.801
1678025312.732,-246.094,-30.273,-230.469,232.910,-4.395
1678025312.736,-291.016,-29.785,-230.469,236.328,71.777
1678025312.740,-341.309,-26.855,-235.840,229.004,-129.883
1678025312.744,-314.453,-31.738,-230.469,265.625,-235.352
1678025312.748,-249.023,-37.109,-226.562,300.293,-55.176
1678025312.748,-212.402,-35.645,-221.191,332.520,302.246
1678025312.752,-237.305,-32.227,-212.402,369.629,78.613
1678025312.756,-262.207,-27.344,-207.520,408.203,-200.195
1678025312.760,-237.305,-24.414,-205.078,452.148,-91.309
1678025312.764,-170.410,-29.297,-201.660,489.258,-31.250
1678025312.768,-96.680,-27.344,-192.383,524.902,36.133
1678025312.772,-105.469,-25.391,-188.965,532.715,24.902
1678025312.775,-160.645,-28.809,-190.430,528.320,134.277
1678025312.779,-139.648,-22.949,-183.594,564.453,276.855
1678025312.783,-67.871,-22.949,-176.270,582.520,13.184
1678025312.787,-18.066,-32.715,-174.805,588.867,-22.949
1678025312.791,-29.785,-38.574,-176.270,582.520,52.734
1678025312.810,-80.078,-38.086,-172.363,570.312,-147.949
1678025312.814,-76.172,-41.016,-160.156,583.496,-254.395
1678025312.818,-19.531,-41.504,-154.297,608.887,-173.340
1678025312.822,41.504,-39.062,-150.879,636.230,85.938
1678025312.826,40.527,-41.016,-140.625,632.324,80.078
1678025312.830,-27.832,-39.062,-135.254,625.000,-63.477
1678025312.834,-45.410,-41.016,-134.277,640.625,52.246
1678025312.837,16.602,-48.340,-131.836,664.551,184.082
1678025312.841,77.637,-47.852,-133.789,692.871,73.242
1678025312.845,65.918,-45.410,-130.371,705.566,-17.578
1678025312.849,14.648,-41.016,-124.023,690.918,-41.016
1678025312.853,-2.441,-40.039,-124.512,681.641,-86.914
1678025312.839,41.016,-40.527,-116.699,674.316,-112.305
1678025312.843,95.215,-35.645,-108.887,666.016,-12.207
1678025312.847,101.074,-32.715,-106.445,671.387,72.266
1678025312.851,51.758,-34.668,-98.145,660.645,-1.953
1678025312.855,25.391,-33.691,-88.379,651.367,-138.672
1678025312.859,43.945,-35.156,-84.961,648.926,-78.613
1678025312.863,94.727,-36.621,-77.148,660.645,186.035
1678025312.866,111.328,-35.156,-64.453,671.875,261.230
1678025312.870,64.453,-33.691,-51.758,645.996,-68.359
1678025312.874,32.227,-32.715,-43.457,630.371,-264.160
1678025312.878,61.523,-34.180,-37.598,635.254,49.316
1678025312.882,108.887,-31.738,-24.414,645.996,355.957
1678025312.898,118.164,-27.832,-10.742,643.555,78.613
1678025312.902,78.613,-28.320,-4.883,630.859,-96.191
1678025312.906,37.598,-27.344,1.465,611.328,-111.328
1678025312.910,39.062,-32.715,8.301,600.586,-92.285
1678025312.914,73.242,-35.156,10.742,599.121,-60.059
1678025312.918,98.145,-30.273,15.137,588.867,29.297
1678025312.922,51.270,-34.180,17.090,577.637,356.445
1678025312.925,9.766,-31.250,18.066,557.617,177.734
1678025312.929,40.039,-26.367,20.996,541.016,-162.598
1678025312.933,69.824,-25.879,18.066,527.344,-144.043
1678025312.937,77.148,-27.832,13.672,511.230,-89.355
1678025312.941,49.316,-24.414,7.812,483.398,-135.254
1678025312.931,8.301,-22.949,3.418,467.773,-157.715
1678025312.935,15.137,-29.785,3.906,458.496,-135.742
1678025312.939,39.062,-28.809,-0.488,443.848,-94.727
1678025312.943,49.316,-23.926,-3.906,434.570,-87.891
1678025312.947,31.738,-18.555,-7.324,419.922,-174.316
1678025312.951,-2.441,-17.090,-13.672,407.227,-60.059
1678025312.955,1.465,-20.020,-16.602,392.090,70.312
1678025312.958,39.062,-21.973,-23.438,379.883,6.348
1678025312.962,48.828,-20.996,-28.320,373.047,-89.355
1678025312.966,23.438,-20.508,-31.250,366.699,34.180
1678025312.970,-5.859,-24.902,-41.016,336.914,-10.742
1678025312.974,1.465,-22.949,-48.340,314.941,-206.543
1678025313.003,22.461,-20.508,-57.617,314.453,-144.531
1678025313.007,39.551,-22.461,-69.824,298.828,34.668
1678025313.011,30.273,-20.996,-75.684,279.297,-66.895
1678025313.015,-3.418,-23.438,-80.078,267.578,-195.312
1678025313.019,-7.324,-23.438,-86.914,266.602,-119.141
1678025313.023,10.742,-18.066,-90.332,282.715,320.801
1678025313.027,33.691,-16.602,-97.168,278.320,526.367
1678025313.030,26.367,-18.066,-105.469,252.441,-11.230
1678025313.034,-11.719,-21.973,-110.352,235.840,-199.219
1678025313.038,-17.578,-21.484,-113.281,226.074,-68.359
1678025313.042,7.812,-15.137,-114.258,204.102,-84.961
1678025313.046,23.926,-17.090,-119.141,182.617,-88.379
1678025313.035,15.137,-20.020,-122.559,174.805,-51.270
1678025313.039,-9.277,-19.043,-119.629,167.480,-50.293
1678025313.043,-28.809,-22.461,-117.188,160.156,-127.441
1678025313.047,-20.996,-21.973,-116.699,160.645,-101.562
1678025313.051,-2.930,-21.973,-112.793,154.785,-11.719
1678025313.055,0.000,-20.996,-110.840,150.879,-34.668
1678025313.059,-18.066,-17.578,-108.398,160.156,-139.648
1678025313.062,-34.668,-18.555,-103.516,165.039,-49.805
1678025313.066,-25.879,-21.484,-103.516,163.086,170.898
1678025313.070,-3.418,-22.949,-104.004,164.062,145.508
1678025313.074,1.953,-20.020,-96.680,159.180,-117.188
1678025313.078,-20.020,-16.113,-88.867,148.438,-174.316
1678025313.080,-33.691,-12.207,-82.520,155.273,54.199
1678025313.084,-16.602,-11.719,-77.637,163.574,62.988
1678025313.088,3.906,-17.090,-75.684,138.184,-150.391
1678025313.092,12.207,-21.484,-69.336,133.789,-100.586
1678025313.096,-14.160,-20.508,-62.988,141.113,44.922
1678025313.100,-36.133,-21.973,-58.594,120.605,-65.918
1678025313.104,-25.391,-24.902,-54.199,112.793,-69.336
1678025313.107,-15.137,-18.555,-46.875,117.188,-76.660
1678025313.111,-6.836,-15.137,-37.109,132.324,166.992
1678025313.115,-17.090,-14.160,-31.738,134.277,242.676
1678025313.119,-40.527,-10.742,-33.203,118.164,-152.832
1678025313.123,-42.480,-12.695,-28.809,111.816,-183.594
1678025313.123,-20.996,-10.254,-24.414,117.188,-17.090
1678025313.127,-7.812,-6.836,-20.996,129.395,-129.395
1678025313.131,-33.203,-10.742,-17.090,130.371,-269.043
1678025313.135,-54.199,-9.766,-17.090,136.719,-119.629
1678025313.139,-38.086,-9.277,-14.648,145.996,-5.371
1678025313.143,-20.996,-10.742,-8.301,147.461,-15.625
1678025313.147,-0.977,-6.348,-2.930,149.902,-60.059
1678025313.150,-0.488,-5.859,0.977,149.902,73.242
1678025313.154,-18.066,-9.277,0.488,149.902,297.852
1678025313.158,-19.531,-11.719,-1.465,135.254,14.160
1678025313.162,4.883,-9.277,-2.441,116.699,-184.570
1678025313.166,30.762,-11.719,-4.883,107.910,-93.750
1678025313.170,21.973,-12.695,-4.883,105.957,-146.973
1678025313.174,-11.230,-11.230,-2.930,102.539,-209.961
1678025313.178,-23.926,-18.555,-3.906,105.957,-118.164
1678025313.182,-9.766,-17.578,-0.977,118.652,-47.363
1678025313.186,0.977,-13.184,3.418,107.422,-77.637
1678025313.190,-8.789,-16.602,4.395,86.914,-59.082
1678025313.194,-37.109,-20.508,2.441,73.730,-78.613
1678025313.197,-48.828,-23.438,2.441,71.777,135.254
1678025313.201,-33.691,-27.344,-1.953,66.895,52.246
1678025313.205,-12.207,-27.344,-0.977,65.430,-124.512
1678025313.209,-13.184,-27.344,5.371,70.312,-91.797
1678025313.213,-31.738,-27.344,6.836,61.523,-124.512
1678025313.213,-42.480,-28.320,6.836,52.734,-177.734
1678025313.217,-33.203,-27.832,4.395,38.574,-204.590
1678025313.221,-24.414,-26.855,5.371,40.039,-96.191
1678025313.225,-18.066,-26.855,7.812,57.129,-67.871
1678025313.229,-31.250,-28.320,7.324,50.293,-111.328
1678025313.233,-42.480,-29.297,8.301,49.316,-85.449
1678025313.237,-31.250,-31.250,8.789,65.918,126.465
1678025313.240,-24.414,-31.738,12.695,70.801,389.160
1678025313.244,-19.531,-28.320,12.207,47.363,106.934
1678025313.248,-31.738,-29.297,9.277,42.969,-156.738
1678025313.252,-36.621,-30.762,15.137,52.734,57.617
1678025313.256,-22.461,-27.344,15.137,42.480,4.395
1678025313.305,-18.555,-26.855,15.625,35.156,-144.043
1678025313.309,-19.531,-29.297,20.020,33.691,-119.141
1678025313.313,-37.598,-32.227,17.090,30.273,-107.910
1678025313.317,-47.852,-29.785,19.531,35.645,-137.207
1678025313.321,-36.133,-28.809,22.949,41.992,-180.176
1678025313.325,-19.531,-30.762,24.414,34.180,20.508
1678025313.329,-17.090,-33.203,29.297,36.621,224.121
1678025313.332,-33.203,-33.691,33.691,36.621,67.871
1678025313.336,-37.109,-28.809,44.434,33.203,-163.574
1678025313.340,-30.762,-25.879,49.805,31.738,-45.410
1678025313.344,-19.043,-25.879,50.293,33.691,171.875
1678025313.348,-16.113,-30.273,52.246,26.367,-54.199
1678025313.310,-23.438,-32.227,55.664,16.113,-170.898
1678025313.314,-43.457,-33.691,59.570,8.301,-93.262
1678025313.318,-45.410,-31.738,60.059,-3.418,-104.004
1678025313.322,-25.391,-27.344,61.035,-6.836,-207.520
1678025313.326,-12.207,-27.832,65.918,-6.836,-203.125
1678025313.330,-26.855,-28.320,70.801,-3.418,24.414
1678025313.334,-51.758,-24.414,79.102,7.324,100.586
1678025313.337,-50.781,-22.461,84.473,16.113,20.996
1678025313.341,-29.785,-20.020,92.285,26.855,-55.176
1678025313.345,-17.578,-23.926,98.633,42.480,-14.648
1678025313.349,-25.879,-28.809,96.680,39.551,-45.898
1678025313.353,-41.992,-23.926,100.098,28.809,-202.148
1678025313.365,-30.762,-23.926,103.027,34.180,-168.945
1678025313.369,0.488,-27.344,104.492,31.250,26.855
1678025313.373,7.812,-27.832,104.004,13.184,17.578
1678025313.377,-8.789,-28.320,107.422,5.859,-108.887
1678025313.381,-30.762,-28.809,113.281,0.000,-126.465
1678025313.385,-45.410,-24.902,116.699,8.789,298.340
1678025313.389,-38.574,-25.879,110.840,22.949,522.949
1678025313.392,-18.066,-29.297,106.934,19.043,283.691
1678025313.396,-26.367,-30.273,111.328,2.930,-23.926
1678025313.400,-44.434,-31.250,114.746,-8.301,-155.762
1678025313.404,-44.434,-28.809,113.770,-5.859,-202.148
1678025313.408,-27.832,-23.926,114.258,-8.301,-154.785
1678025313.408,-3.906,-20.996,117.188,-14.648,-22.461
1678025313.412,-12.695,-23.926,115.234,-28.809,-39.551
1678025313.416,-31.738,-24.902,112.793,-51.758,-136.230
1678025313.420,-37.598,-21.484,108.887,-82.520,-121.582
1678025313.424,-23.438,-20.996,108.398,-84.473,-62.012
1678025313.428,-2.930,-19.531,110.840,-65.918,-29.297
1678025313.432,-12.207,-19.043,108.398,-78.125,-19.531
1678025313.435,-22.949,-21.484,109.863,-107.422,-28.320
1678025313.439,-31.250,-20.020,111.328,-114.258,124.512
1678025313.443,-34.180,-16.113,107.422,-110.840,203.613
1678025313.447,-17.578,-19.043,104.004,-126.953,-137.207
1678025313.451,-6.348,-22.461,100.098,-125.488,-229.980
1678025313.456,-16.602,-18.555,97.168,-111.328,4.883
1678025313.460,-33.203,-14.648,98.145,-135.254,-114.258
1678025313.464,-28.809,-16.113,95.215,-165.039,-235.352
1678025313.468,-8.301,-17.578,94.238,-160.156,-73.730
1678025313.472,-8.789,-20.508,91.797,-145.996,121.094
1678025313.476,-33.203,-23.926,83.008,-156.250,59.570
1678025313.480,-49.805,-25.391,76.172,-144.043,-119.629
1678025313.483,-35.645,-20.508,78.125,-118.164,-84.961
1678025313.487,-13.184,-12.695,82.031,-109.863,154.297
1678025313.491,-5.371,-14.160,76.660,-106.934,-15.137
1678025313.495,-23.926,-16.113,73.730,-116.699,-210.938
1678025313.499,-36.133,-13.184,72.754,-135.254,-110.840
1678025313.498,-28.320,-12.207,64.941,-145.996,5.859
1678025313.502,-19.531,-18.066,54.199,-154.297,-75.684
1678025313.506,-9.277,-20.996,47.852,-153.809,-104.004
1678025313.510,-36.133,-20.996,44.922,-150.879,-51.270
1678025313.514,-60.547,-20.508,43.457,-158.203,-57.617
1678025313.518,-52.734,-18.555,38.086,-156.250,-61.035
1678025313.522,-40.527,-21.973,31.738,-152.832,-83.984
1678025313.525,-30.762,-20.996,33.203,-139.648,160.645
1678025313.529,-31.738,-22.461,30.762,-122.559,416.992
1678025313.533,-53.223,-23.438,23.926,-130.859,73.730
1678025313.537,-60.059,-26.367,18.555,-136.719,-206.543
1678025313.541,-43.457,-27.832,15.137,-124.023,-120.117
1678025313.559,-20.508,-21.484,13.672,-123.535,-139.160
1678025313.563,-20.996,-17.578,17.578,-130.371,-218.262
1678025313.567,-40.039,-20.996,15.625,-133.301,-212.402
1678025313.571,-40.527,-23.926,11.719,-146.973,-165.039
1678025313.575,-28.809,-26.855,11.230,-181.641,-119.629
1678025313.579,-28.809,-27.832,12.695,-196.777,-46.387
1678025313.583,-36.621,-23.438,15.625,-195.801,73.730
1678025313.586,-55.176,-20.020,15.625,-198.730,160.645
1678025313.590,-53.223,-25.391,16.602,-204.102,-20.996
1678025313.594,-33.203,-28.809,14.648,-205.566,-152.832
1678025313.598,-17.090,-25.391,9.277,-194.824,-58.105
1678025313.602,-12.207,-19.043,15.137,-181.152,149.414
1678025313.603,-32.715,-14.160,19.043,-170.410,-64.453
1678025313.607,-45.898,-16.113,16.602,-139.160,-222.168
1678025313.611,-27.344,-20.996,13.184,-93.262,-80.078
1678025313.615,-8.789,-19.531,11.230,-74.219,-83.008
1678025313.619,-10.254,-20.996,13.184,-67.871,-153.809
1678025313.623,-29.785,-23.926,17.090,-54.199,-80.078
1678025313.627,-44.434,-18.555,13.184,-28.809,175.293
1678025313.630,-36.621,-16.602,7.324,-21.973,166.504
1678025313.634,-20.996,-18.555,4.883,-42.969,-83.984
1678025313.638,-7.324,-16.113,2.441,-56.152,-64.453
1678025313.642,-24.414,-9.766,-0.488,-41.504,153.809
1678025313.646,-53.711,-15.625,2.930,-42.480,219.238
1678025313.648,-52.246,-20.996,0.000,-71.289,-82.031
1678025313.652,-41.992,-19.531,-5.859,-73.242,-154.297
1678025313.656,-30.762,-21.973,-5.371,-57.617,126.465
1678025313.660,-32.715,-23.438,-10.742,-66.895,23.926
1678025313.664,-56.152,-26.367,-16.602,-77.637,-125.488
1678025313.668,-43.945,-23.438,-21.973,-66.406,16.113
1678025313.672,-19.043,-19.043,-22.949,-73.242,-3.418
1678025313.675,-13.672,-17.578,-22.949,-96.680,-72.754
1678025313.679,-24.414,-17.090,-27.344,-115.234,-93.262
1678025313.683,-53.223,-19.531,-38.086,-139.648,-36.133
1678025313.687,-53.711,-24.414,-49.316,-165.527,181.152
1678025313.691,-36.621,-27.832,-50.293,-199.219,78.125
1678025313.679,-25.879,-25.879,-54.199,-220.215,-78.125
1678025313.683,-29.785,-28.809,-62.500,-227.539,15.625
1678025313.687,-43.457,-31.250,-64.941,-247.559,-36.133
1678025313.691,-42.969,-30.273,-71.777,-257.324,-168.457
1678025313.695,-30.762,-34.180,-78.613,-257.812,-112.793
1678025313.699,-35.645,-31.738,-84.473,-256.836,51.758
1678025313.703,-41.504,-29.297,-91.309,-266.602,46.387
1678025313.706,-64.941,-35.156,-96.191,-267.090,-54.199
1678025313.710,-75.195,-37.109,-105.469,-229.980,-123.047
1678025313.714,-64.453,-33.203,-113.281,-179.688,57.129
1678025313.718,-49.316,-30.273,-116.699,-147.949,167.969
1678025313.722,-39.551,-24.902,-117.676,-122.070,-107.422
1678025313.740,-59.570,-27.344,-129.395,-78.613,-183.105
1678025313.744,-73.242,-32.227,-147.461,-39.062,-63.477
1678025313.748,-67.383,-26.367,-157.715,-24.414,3.906
1678025313.752,-66.895,-25.879,-164.551,-15.137,-115.234
1678025313.756,-77.148,-26.367,-167.480,1.953,-94.238
1678025313.760,-110.352,-21.484,-182.617,2.930,202.637
1678025313.764,-129.395,-20.996,-198.730,5.371,125.488
1678025313.767,-136.719,-16.602,-207.520,5.859,-158.691
1678025313.771,-164.062,-13.672,-220.703,-23.926,-145.508
1678025313.775,-194.824,-9.277,-235.352,-62.012,100.098
1678025313.779,-232.910,-0.977,-257.324,-90.332,-43.945
1678025313.783,-269.043,2.930,-272.461,-103.027,-173.340
1678025313.783,-273.926,0.977,-282.227,-125.488,-152.832
1678025313.787,-276.855,3.906,-291.016,-146.484,-77.637
1678025313.791,-278.809,8.301,-299.805,-164.062,-105.957
1678025313.795,-285.645,5.859,-307.129,-174.805,-130.859
1678025313.799,-291.016,8.789,-308.105,-162.109,36.621
1678025313.803,-272.949,12.207,-307.617,-153.809,6.348
1678025313.807,-261.719,3.418,-312.012,-159.180,-29.785
1678025313.810,-250.977,-2.441,-317.383,-139.160,2.441
1678025313.814,-238.770,-1.465,-316.895,-96.191,156.738
1678025313.818,-223.633,-4.395,-315.430,-63.477,366.699
1678025313.822,-201.172,-8.789,-326.660,-49.805,126.465
1678025313.826,-165.527,-6.348,-332.520,-44.922,-68.848
1678025313.830,-127.441,-4.883,-337.402,-26.855,-19.043
1678025313.834,-135.742,-10.742,-344.727,16.113,-41.504
1678025313.838,-145.996,-13.672,-352.539,41.992,-111.816
1678025313.842,-119.141,-19.043,-372.070,67.383,-86.914
1678025313.846,-86.426,-23.926,-387.207,89.355,-74.219
1678025313.850,-58.105,-26.367,-399.902,95.703,-20.996
1678025313.854,-53.711,-32.227,-416.992,107.910,30.762
1678025313.857,-50.293,-39.551,-436.523,129.883,15.625
1678025313.861,-26.367,-41.504,-457.520,149.414,203.613
1678025313.865,-12.695,-43.945,-473.633,153.809,122.070
1678025313.869,0.488,-50.293,-484.375,156.738,-112.305
1678025313.873,-0.488,-59.082,-500.488,160.645,-100.586
1678025313.873,-28.320,-70.801,-522.949,163.086,-55.664
1678025313.877,-26.855,-77.637,-541.016,154.785,-81.543
1678025313.881,-6.836,-83.984,-554.688,148.926,-151.367
1678025313.885,4.395,-93.262,-571.289,150.391,-97.656
1678025313.889,3.906,-93.750,-587.891,164.062,-67.383
1678025313.893,-18.555,-93.750,-603.027,192.871,-47.852
1678025313.897,-27.344,-107.422,-621.094,190.918,37.109
1678025313.900,-13.184,-115.234,-633.301,198.730,171.387
1678025313.904,-2.441,-115.723,-638.672,215.820,341.797
1678025313.908,-5.371,-116.211,-640.137,202.637,62.012
1678025313.912,-29.297,-121.094,-642.090,213.867,-179.199
1678025313.916,-44.922,-122.559,-641.602,242.676,24.414
1678025313.920,-25.391,-116.699,-635.254,256.836,-21.484
1678025313.924,1.465,-113.770,-629.395,253.906,-147.949
1678025313.928,18.066,-111.328,-628.418,246.094,-120.117
1678025313.932,7.812,-108.398,-627.930,248.535,-64.453
1678025313.936,4.395,-100.586,-621.094,251.953,-67.383
1678025313.940,13.184,-95.703,-616.211,249.023,-61.523
1678025313.944,15.137,-95.215,-611.816,241.699,43.945
1678025313.947,26.367,-90.332,-602.539,242.188,263.184
1678025313.951,14.160,-88.867,-596.680,235.840,75.195
1678025313.955,-2.441,-88.379,-585.938,238.770,-139.160
1678025313.959,1.465,-83.496,-576.660,237.793,-88.379
1678025313.963,19.531,-78.613,-565.918,228.027,-42.480
1678025313.963,37.109,-76.660,-551.758,224.121,-96.191
1678025313.967,23.926,-73.730,-543.457,229.980,-171.387
1678025313.971,5.371,-65.430,-534.668,234.375,-50.293
1678025313.975,13.184,-62.012,-524.902,239.258,91.309
1678025313.979,30.762,-63.477,-512.207,232.422,-50.293
1678025313.983,29.297,-59.570,-493.652,231.445,-85.938
1678025313.987,20.508,-54.199,-478.516,241.211,198.730
1678025313.990,17.090,-51.758,-460.938,252.930,461.426
1678025313.994,25.879,-49.316,-445.801,250.977,64.941
1678025313.998,32.715,-47.852,-437.988,226.562,-152.832
1678025314.002,33.691,-47.363,-424.316,220.215,-14.160
1678025314.006,23.438,-41.992,-406.738,227.539,-102.051
1678025314.025,7.324,-40.039,-385.742,229.980,-198.730
1678025314.029,7.324,-42.480,-368.652,231.445,-43.457
1678025314.033,12.207,-42.969,-354.980,227.539,111.328
1678025314.037,17.090,-38.086,-336.426,220.703,-43.945
1678025314.041,13.672,-29.785,-322.266,212.402,-137.695
1678025314.045,1.465,-27.344,-312.500,217.285,-18.066
1678025314.049,0.488,-29.297,-304.199,210.449,149.902
1678025314.052,15.625,-24.414,-291.504,199.707,-8.301
1678025314.056,22.461,-26.367,-282.715,199.219,-164.551
1678025314.060,23.926,-31.250,-276.367,193.359,-95.703
1678025314.064,9.766,-25.879,-266.113,198.242,-24.902
1678025314.068,3.418,-27.832,-258.789,200.684,-54.199
1678025314.053,24.902,-34.180,-247.559,190.918,-63.477
1678025314.057,25.391,-31.738,-241.211,187.012,-48.340
1678025314.061,18.066,-29.297,-240.234,193.848,-124.023
1678025314.065,3.418,-29.785,-236.328,201.660,-120.117
1678025314.069,-12.207,-27.832,-233.887,197.266,10.742
1678025314.073,-4.883,-26.367,-233.887,191.406,162.109
1678025314.077,5.859,-31.738,-237.305,183.594,174.316
1678025314.080,9.277,-35.156,-242.676,179.688,-20.020
1678025314.084,-7.324,-35.645,-235.352,187.988,-136.719
1678025314.088,-20.996,-34.180,-226.074,192.871,64.941
1678025314.092,-9.766,-33.691,-220.703,197.266,324.219
1678025314.096,-10.254,-39.062,-214.844,183.594,54.688
1678025314.115,-9.277,-45.410,-208.008,163.574,-192.383
1678025314.119,-20.996,-44.922,-198.730,170.410,-180.176
1678025314.123,-38.086,-40.527,-189.453,183.105,-129.883
1678025314.127,-33.203,-42.969,-178.711,184.082,-119.141
1678025314.131,-23.926,-42.969,-168.457,176.270,-129.395
1678025314.135,-3.418,-38.086,-161.133,178.223,-53.223
1678025314.139,0.000,-36.133,-149.414,188.965,-34.668
1678025314.142,-22.461,-33.691,-139.648,181.152,-134.766
1678025314.146,-25.391,-33.203,-135.254,171.387,-77.148
1678025314.150,-11.230,-31.738,-125.000,169.434,217.773
1678025314.154,-7.324,-29.785,-113.770,157.715,83.496
1678025314.158,-16.602,-27.832,-103.027,168.945,-152.344
1678025314.158,-18.066,-25.391,-89.844,200.195,-132.812
1678025314.162,-3.418,-22.949,-83.984,216.797,-78.125
1678025314.166,-8.789,-23.438,-85.449,211.914,-89.844
1678025314.170,-25.879,-22.949,-78.613,213.867,-141.602
1678025314.174,-26.855,-18.555,-67.383,234.375,-39.551
1678025314.178,-39.062,-24.902,-65.430,229.980,-2.930
1678025314.182,-33.691,-29.785,-62.500,214.844,-20.996
1678025314.185,-14.160,-24.414,-55.664,203.613,9.277
1678025314.189,-4.395,-25.391,-48.828,193.359,179.688
1678025314.193,-10.254,-26.855,-43.945,195.801,319.824
1678025314.197,-23.438,-19.531,-37.598,190.918,-25.879
1678025314.201,-25.391,-21.973,-31.250,190.918,-150.879
1678025314.205,-9.277,-24.902,-26.367,186.523,95.703
1678025314.209,-4.883,-20.020,-20.020,167.969,-37.109
1678025314.213,-19.531,-16.113,-10.742,158.691,-204.102
1678025314.217,-32.227,-15.137,-3.906,144.043,-142.090
1678025314.221,-32.715,-17.578,-3.906,126.953,-24.902
1678025314.225,-20.508,-19.531,-1.953,115.234,-46.387
1678025314.229,-16.113,-16.602,0.000,113.281,-118.652
1678025314.232,-20.508,-15.625,7.812,122.559,7.324
1678025314.236,-35.156,-12.695,16.113,137.695,175.781
1678025314.240,-38.086,-12.207,19.531,132.324,14.160
1678025314.244,-15.137,-7.324,25.391,114.746,-158.691
1678025314.248,-2.930,-3.418,34.668,111.328,-60.547
1678025314.248,-8.789,-6.348,38.086,110.840,-63.477
1678025314.252,-22.949,-6.836,41.992,101.562,-207.520
1678025314.256,-20.508,-8.789,53.223,99.609,-152.344
1678025314.260,-15.625,-10.254,61.523,102.051,-70.801
1678025314.264,-13.184,-7.324,69.824,101.074,-102.539
1678025314.268,-2.930,-8.301,78.613,98.633,-74.219
1678025314.272,-12.695,-10.254,85.938,95.703,14.160
1678025314.275,-23.438,-8.301,92.773,105.957,218.262
1678025314.279,-17.090,-6.348,100.098,106.934,341.309
1678025314.283,13.672,-4.883,110.352,70.801,14.160
1678025314.287,17.578,-3.418,124.023,55.664,-163.574
1678025314.291,-12.695,-6.348,129.395,56.641,-140.625
1678025314.296,-16.602,-8.789,136.230,41.504,-128.418
1678025314.300,-14.160,-5.859,145.508,38.086,-41.992
1678025314.304,-10.254,1.465,156.250,43.945,-115.234
1678025314.308,-2.930,1.465,159.668,38.574,-82.031
1678025314.312,-17.090,-3.906,160.156,34.668,-88.867
1678025314.316,-39.062,-10.254,166.016,30.762,-142.090
1678025314.320,-37.598,-14.160,173.340,14.160,-37.109
1678025314.323,-15.137,-12.207,175.293,11.230,131.836
1678025314.327,6.836,-9.277,176.270,20.508,-22.461
1678025314.331,-4.395,-4.883,184.082,35.645,-230.957
1678025314.335,-23.926,-1.465,185.547,39.062,-130.371
1678025314.339,-8.301,1.465,180.176,48.340,-49.316
1678025314.338,11.230,2.441,177.734,44.922,-130.371
1678025314.342,9.766,0.000,176.758,31.250,-181.641
1678025314.346,-12.207,-0.977,175.781,33.203,-129.883
1678025314.350,-37.598,-7.324,170.410,14.160,-23.438
1678025314.354,-32.227,-7.812,163.086,-4.395,-63.965
1678025314.358,-12.207,-6.836,154.297,-17.090,-172.363
1678025314.362,-7.324,-13.184,145.020,-40.527,92.773
1678025314.365,2.441,-14.648,144.043,-37.109,476.074
1678025314.369,-3.906,-14.160,137.695,-50.293,185.059
1678025314.373,-34.668,-17.578,132.324,-63.477,-119.141
1678025314.377,-33.691,-20.996,133.301,-58.594,-69.824
1678025314.381,-19.531,-21.973,121.582,-59.082,-112.305
1678025314.398,-20.996,-20.508,109.863,-66.406,-155.273
1678025314.402,-33.203,-17.578,107.422,-63.965,-128.418
1678025314.406,-39.062,-16.113,103.027,-56.152,-104.004
1678025314.410,-32.227,-19.043,96.680,-61.035,-89.844
1678025314.414,-18.066,-20.508,85.449,-69.824,-129.395
1678025314.418,-12.695,-21.484,80.078,-78.125,-13.672
1678025314.422,-30.762,-25.391,79.590,-65.430,224.609
1678025314.425,-36.621,-27.832,75.195,-49.805,94.238
1678025314.429,-28.809,-28.809,67.383,-39.551,-138.184
1678025314.433,-27.344,-28.320,63.965,-20.996,-121.094
1678025314.437,-13.672,-26.855,62.988,-5.859,85.449
1678025314.441,-23.438,-20.996,53.223,-5.371,-75.684
1678025314.443,-34.180,-18.555,41.992,-5.371,-236.816
1678025314.447,-26.367,-21.484,39.551,-7.812,-139.160
1678025314.451,-26.367,-24.414,34.668,-18.555,-105.469
1678025314.455,-23.926,-20.508,32.715,-26.367,-177.734
1678025314.459,-25.879,-17.090,32.715,-26.855,-190.430
1678025314.463,-24.902,-15.137,25.879,-23.926,49.805
1678025314.467,-17.090,-11.230,19.531,-32.227,194.824
1678025314.470,0.000,-15.137,16.113,-57.129,42.480
1678025314.474,0.488,-16.602,14.160,-76.172,-0.488
1678025314.478,-32.715,-18.555,6.836,-79.102,140.625
1678025314.482,-43.457,-23.926,-2.930,-71.777,231.445
1678025314.486,-30.273,-18.066,-3.906,-71.777,-29.785
1678025314.490,-12.695,-15.625,-5.371,-81.543,-157.227
1678025314.494,-7.324,-22.949,-13.184,-82.520,-146.484
1678025314.498,-24.902,-20.508,-17.090,-83.984,-172.363
1678025314.502,-31.738,-20.508,-20.020,-94.238,-153.320
1678025314.506,-20.508,-23.926,-24.902,-88.379,-107.422
1678025314.510,-2.441,-26.367,-27.344,-90.332,-41.016
1678025314.514,2.441,-26.367,-27.832,-96.680,-2.441
1678025314.517,-9.766,-25.879,-28.320,-89.844,-131.836
1678025314.521,-23.926,-29.785,-28.809,-78.613,-107.910
1678025314.525,-17.090,-29.297,-28.809,-70.801,223.633
1678025314.529,-1.953,-27.832,-31.250,-72.266,78.613
1678025314.533,-4.883,-31.250,-37.598,-64.941,-145.996
1678025314.533,-32.715,-33.691,-41.504,-65.918,-43.457
1678025314.537,-57.129,-37.598,-40.039,-66.406,14.648
1678025314.541,-58.594,-37.598,-36.621,-57.129,-95.703
1678025314.545,-52.734,-31.738,-37.109,-58.105,-121.094
1678025314.549,-29.297,-26.855,-43.945,-62.988,-40.039
1678025314.553,-41.504,-26.367,-45.898,-54.688,-41.504
1678025314.557,-51.758,-26.367,-44.434,-51.758,1.465
1678025314.560,-42.969,-28.809,-50.293,-67.383,-55.176
1678025314.564,-35.645,-35.156,-53.223,-60.059,65.918
1678025314.568,-28.320,-35.156,-58.105,-49.316,260.742
1678025314.572,-41.992,-27.832,-63.965,-55.176,-35.156
1678025314.576,-58.105,-25.879,-61.035,-49.316,-182.617
1678025314.608,-56.641,-30.762,-65.918,-52.734,11.230
1678025314.612,-42.969,-33.691,-73.242,-59.570,7.812
1678025314.616,-30.762,-35.156,-72.754,-68.359,-83.984
1678025314.620,-35.156,-36.133,-70.801,-69.824,-85.449
1678025314.624,-55.176,-35.645,-69.336,-47.363,20.508
1678025314.628,-51.270,-36.621,-71.289,-32.715,62.500
1678025314.632,-35.156,-36.133,-76.172,-31.738,57.617
1678025314.635,-29.297,-32.715,-75.684,-32.227,12.695
1678025314.639,-31.738,-33.691,-73.242,-35.156,212.891
1678025314.643,-51.270,-35.156,-72.754,-37.598,34.668
1678025314.647,-47.363,-34.180,-71.289,-31.250,-200.195
1678025314.651,-25.879,-28.320,-67.871,-40.039,-92.285
1678025314.623,-25.879,-27.832,-63.965,-41.504,-72.266
1678025314.627,-35.645,-31.250,-66.406,-41.992,-127.930
1678025314.631,-53.223,-34.180,-67.871,-52.734,-88.867
1678025314.635,-55.664,-32.715,-62.988,-50.293,-27.832
1678025314.639,-43.457,-29.785,-58.105,-32.715,-41.992
1678025314.643,-37.109,-29.785,-54.688,-31.250,-48.340
1678025314.647,-35.156,-30.762,-51.758,-33.691,-19.043
1678025314.650,-41.504,-27.832,-47.363,-34.668,85.449
1678025314.654,-43.457,-25.879,-47.852,-32.227,-17.578
1678025314.658,-29.297,-21.484,-43.457,-29.785,-142.090
1678025314.662,-7.324,-20.020,-38.086,-29.785,-118.652
1678025314.666,-7.324,-23.926,-42.969,-14.160,-19.043
1678025314.670,-27.832,-25.391,-47.363,-11.230,-75.684
1678025314.674,-44.922,-25.879,-40.039,-6.836,-175.781
1678025314.678,-45.898,-25.879,-31.738,7.324,-67.871
1678025314.682,-40.527,-27.832,-32.227,18.066,178.223
1678025314.686,-26.855,-24.414,-27.832,23.438,129.883
1678025314.690,-26.855,-20.996,-20.508,14.160,-126.953
1678025314.694,-41.992,-20.508,-14.648,20.020,-2.930
1678025314.697,-32.715,-21.973,-10.742,40.039,257.324
1678025314.701,-13.672,-26.367,-11.230,34.180,-10.254
1678025314.705,-7.812,-31.250,-9.277,23.438,-246.582
1678025314.709,-22.461,-34.180,-2.930,25.879,-143.555
1678025314.713,-28.809,-33.691,2.441,43.945,3.418
1678025314.713,-25.391,-27.344,0.977,60.059,-77.148
1678025314.717,-18.555,-24.414,1.953,54.688,-168.945
1678025314.721,-2.930,-25.391,1.953,61.035,-97.168
1678025314.725,-9.766,-25.879,-2.441,62.012,-87.891
1678025314.729,-32.715,-24.902,2.930,71.289,-136.719
1678025314.733,-39.062,-27.344,8.301,77.148,-83.984
1678025314.737,-24.414,-30.273,5.371,76.172,148.438
1678025314.740,-10.742,-28.320,4.395,86.914,352.539
1678025314.744,-15.625,-26.367,2.441,75.684,0.000
1678025314.748,-32.227,-26.855,-1.465,71.289,-197.266
1678025314.752,-34.668,-23.926,0.000,82.520,2.930
1678025314.756,-23.926,-26.855,-0.488,83.008,-27.344
1678025314.773,-16.113,-33.691,1.465,65.430,-173.340
1678025314.777,-34.180,-33.691,3.906,52.734,-190.430
1678025314.781,-49.805,-31.250,-0.977,47.852,-160.645
1678025314.785,-41.992,-27.344,-2.441,53.223,-118.652
1678025314.789,-35.645,-25.879,-1.465,56.152,-185.547
1678025314.793,-24.414,-25.879,-3.418,49.316,-45.898
1678025314.797,-21.973,-26.855,-4.883,49.316,297.852
1678025314.800,-37.598,-28.320,-6.836,61.523,66.895
1678025314.804,-42.969,-26.855,-7.812,57.129,-183.105
1678025314.808,-41.992,-28.320,-9.766,40.039,-36.133
1678025314.812,-42.480,-29.297,-10.254,36.133,210.449
1678025314.816,-41.992,-28.320,-9.277,34.668,-15.137
1678025314.818,-51.758,-32.715,-14.160,32.227,-198.730
1678025314.822,-64.453,-33.203,-18.555,47.852,-102.051
1678025314.826,-56.641,-30.273,-14.648,46.875,-62.012
1678025314.830,-27.832,-25.391,-14.648,24.902,-87.891
1678025314.834,-18.555,-28.809,-23.438,20.508,-70.801
1678025314.838,-41.016,-31.250,-23.438,35.645,19.531
1678025314.842,-47.363,-28.320,-18.555,38.574,125.488
1678025314.845,-41.504,-23.926,-15.625,19.531,51.758
1678025314.849,-34.180,-26.367,-16.602,-4.395,-28.320
1678025314.853,-24.902,-24.902,-14.648,1.465,119.141
1678025314.857,-34.180,-18.555,-12.207,20.020,112.793
1678025314.861,-43.457,-21.973,-15.137,14.160,-95.703
1678025314.865,-29.297,-23.438,-21.973,2.441,6.348
1678025314.869,-6.836,-20.996,-29.785,-0.977,87.402
1678025314.873,1.953,-20.996,-35.645,-3.418,-40.527
1678025314.877,-30.762,-23.438,-32.227,20.508,-127.930
1678025314.881,-58.594,-29.785,-33.203,43.945,-114.746
1678025314.885,-48.828,-28.809,-36.621,54.199,4.883
1678025314.889,-24.414,-19.531,-31.738,60.059,34.668
1678025314.892,-17.090,-20.996,-32.715,59.570,-166.016
1678025314.896,-29.297,-25.879,-39.551,72.266,-151.855
1678025314.900,-49.316,-25.879,-42.969,89.844,184.570
1678025314.904,-60.059,-30.762,-51.270,88.379,40.527
1678025314.908,-30.273,-35.156,-59.082,88.379,-102.051
1678025314.909,-6.348,-32.715,-59.082,93.262,-16.113
1678025314.913,-44.922,-32.715,-56.152,94.727,-72.754
1678025314.917,-76.660,-32.715,-56.641,113.281,-96.680
1678025314.921,-59.570,-33.203,-62.012,118.164,-109.863
1678025314.925,-41.504,-36.133,-59.082,120.605,-12.207
1678025314.929,-18.555,-33.203,-56.152,127.441,150.391
1678025314.933,-10.254,-35.156,-59.570,110.352,30.762
1678025314.936,-41.992,-36.621,-59.570,94.238,-142.090
1678025314.940,-51.758,-32.227,-58.594,110.840,-0.977
1678025314.944,-36.621,-28.809,-49.316,119.629,231.934
1678025314.948,-19.043,-26.855,-44.434,115.234,-5.859
1678025314.952,-13.672,-27.832,-42.969,117.188,-182.129
1678025314.955,-43.945,-28.320,-39.062,116.211,-147.949
1678025314.959,-58.594,-21.973,-39.551,122.559,-168.945
1678025314.963,-32.715,-22.461,-42.480,125.488,-237.793
1678025314.967,-15.137,-24.414,-40.039,126.953,-230.469
1678025314.971,-16.113,-23.438,-36.621,135.254,-49.805
1678025314.975,-37.598,-22.949,-32.227,124.512,8.789
1678025314.979,-57.617,-22.461,-27.832,114.746,-141.113
1678025314.982,-43.945,-24.414,-22.949,103.516,-51.758
1678025314.986,-20.020,-27.344,-16.602,103.027,215.820
1678025314.990,-17.578,-29.785,-16.113,109.375,126.953
1678025314.994,-50.293,-27.832,-13.184,100.586,-115.234
1678025314.998,-59.082,-27.344,-13.672,90.820,-132.324
1678025314.998,-37.598,-25.879,-18.555,94.727,-96.680
1678025315.002,-22.461,-23.438,-18.066,101.074,-63.965
1678025315.006,-19.043,-27.832,-15.625,100.586,-47.852
1678025315.010,-18.066,-25.879,-13.184,108.398,-47.852
1678025315.014,-17.090,-15.137,-7.812,122.559,-21.973
1678025315.018,-24.414,-19.043,-7.324,124.512,-12.695
1678025315.022,-29.297,-23.438,-8.301,116.699,-69.824
1678025315.025,-24.414,-23.438,-8.789,128.418,141.602
1678025315.029,-33.691,-26.367,-8.301,145.996,443.848
1678025315.033,-41.016,-27.344,-5.859,140.625,108.398
1678025315.037,-35.645,-28.320,-5.371,126.465,-148.438
1678025315.041,-44.434,-29.297,-9.766,125.977,-79.102
1678025315.045,-37.109,-29.297,-8.301,117.188,-163.086
1678025315.049,-30.273,-27.344,-7.324,107.422,-222.168
1678025315.053,-41.992,-21.484,-8.789,111.328,-186.523
1678025315.057,-32.715,-19.531,-6.836,114.746,-122.559
1678025315.061,-12.695,-20.508,-6.836,112.793,-165.039
1678025315.065,-22.461,-28.320,-7.324,120.605,-118.652
1678025315.069,-45.410,-30.273,-7.812,139.648,-35.645
1678025315.072,-56.641,-22.461,-3.906,161.621,161.133
1678025315.076,-48.340,-26.855,-2.441,153.320,47.852
1678025315.080,-31.250,-26.855,-3.906,145.020,-133.789
1678025315.084,-46.875,-24.902,-4.395,148.926,-115.723
1678025315.088,-56.641,-28.320,-3.906,138.184,-97.168
1678025315.088,-61.035,-25.879,-1.953,135.254,-68.359
1678025315.092,-48.340,-20.020,0.977,134.277,-57.617
1678025315.096,-23.926,-17.090,6.348,143.066,-35.156
1678025315.100,-17.090,-18.555,9.277,135.742,-20.508
1678025315.104,-14.160,-19.531,7.812,132.812,-44.434
1678025315.108,-33.691,-19.043,7.812,137.207,1.953
1678025315.112,-44.434,-11.230,11.230,160.156,187.012
1678025315.115,-30.273,-8.789,13.184,169.922,361.328
1678025315.119,-16.113,-16.602,11.719,150.879,57.129
1678025315.123,-15.625,-15.137,12.207,145.996,-128.906
1678025315.127,-29.297,-9.277,17.578,146.484,5.371
1678025315.131,-16.602,-8.789,14.160,138.672,19.531
1678025315.136,2.930,-11.719,7.324,134.277,-34.180
1678025315.140,14.160,-18.066,8.789,126.953,-90.332
1678025315.144,7.812,-20.508,10.742,121.094,41.016
1678025315.148,-19.043,-15.137,9.766,124.023,10.254
1678025315.152,-41.016,-15.137,9.766,126.953,-131.348
1678025315.156,-41.016,-16.113,11.719,130.371,-22.949
1678025315.160,-33.691,-13.184,16.113,132.324,200.195
1678025315.163,-36.621,-10.254,17.090,113.770,20.020
1678025315.167,-45.410,-13.184,13.672,94.238,-135.254
1678025315.171,-50.293,-20.020,11.230,81.055,-76.172
1678025315.175,-43.945,-14.648,7.324,77.148,-69.824
1678025315.179,-36.621,-10.254,7.324,69.824,-101.074
1678025315.179,-26.367,-11.230,8.301,46.387,-159.668
1678025315.183,-31.250,-14.160,4.883,47.363,-101.562
1678025315.187,-41.504,-16.602,5.859,55.176,-38.574
1678025315.191,-34.180,-21.484,10.254,42.480,-113.281
1678025315.195,-17.578,-24.414,8.301,23.438,-141.602
1678025315.199,-5.371,-22.949,4.395,26.367,180.176
1678025315.203,-22.949,-22.949,3.418,37.109,481.445
1678025315.206,-37.598,-23.926,2.930,41.504,176.270
1678025315.210,-18.066,-21.973,6.836,42.480,-75.195
1678025315.214,-0.488,-21.973,9.277,51.270,30.273
1678025315.218,-2.930,-22.461,2.441,55.664,8.789
1678025315.222,-19.531,-22.949,0.488,41.504,-115.723
1678025315.240,-37.598,-21.973,5.371,32.715,-116.211
1678025315.244,-37.598,-19.043,4.395,31.738,-93.262
1678025315.248,-17.578,-20.996,-2.930,21.973,-81.543
1678025315.252,-17.578,-22.461,-5.371,11.230,-144.043
1678025315.256,-30.762,-19.043,-2.441,6.836,-76.660
1678025315.260,-46.875,-21.484,-6.836,13.184,244.141
1678025315.264,-52.734,-25.391,-11.719,23.438,147.949
1678025315.267,-39.062,-24.414,-10.742,26.367,-128.418
1678025315.271,-21.973,-25.879,-9.277,22.461,-103.027
1678025315.275,-31.250,-25.391,-9.277,13.184,139.160
1678025315.279,-59.082,-21.973,-17.090,-15.625,-29.785
1678025315.283,-69.824,-25.879,-20.020,-48.340,-153.809
1678025315.283,-58.105,-19.531,-16.602,-61.035,-57.617
1678025315.287,-34.180,-13.184,-28.809,-84.961,-97.656
1678025315.291,-47.363,-25.391,-34.180,-111.328,-197.754
1678025315.295,-76.660,-21.484,-37.109,-126.953,-193.359
1678025315.299,-76.660,-11.719,-46.875,-130.371,-52.246
1678025315.303,-65.918,-7.324,-50.781,-146.973,-1.953
1678025315.307,-84.961,2.441,-57.617,-185.059,-73.730
1678025315.310,-118.164,3.906,-69.824,-211.914,-69.824
1678025315.314,-142.578,4.395,-84.473,-211.914,135.742
1678025315.318,-157.227,6.348,-96.191,-228.027,324.219
1678025315.322,-187.988,3.906,-113.770,-290.527,92.285
1678025315.326,-209.961,7.324,-130.859,-347.168,-204.590
1678025315.330,-220.703,16.113,-131.836,-377.441,-215.332
1678025315.334,-250.000,15.625,-134.766,-398.438,-239.258
1678025315.338,-262.695,16.113,-144.043,-412.109,-291.504
1678025315.342,-249.023,17.578,-148.926,-423.340,-244.629
1678025315.346,-246.582,11.719,-147.461,-439.941,-200.684
1678025315.350,-264.648,5.371,-144.043,-450.195,-170.410
1678025315.354,-271.973,6.836,-140.137,-449.219,-135.742
1678025315.357,-262.695,9.277,-132.324,-444.336,-74.707
1678025315.361,-235.352,9.766,-126.465,-426.270,185.059
1678025315.365,-187.500,12.207,-123.047,-415.527,22.461
1678025315.369,-165.039,10.254,-113.770,-408.203,-233.398
1678025315.373,-161.133,4.395,-106.445,-364.746,-161.133
1678025315.373,-158.691,-0.488,-97.656,-311.523,-74.219
1678025315.377,-138.184,-3.906,-82.520,-282.227,-118.652
1678025315.381,-102.539,-3.418,-69.336,-250.977,-185.547
1678025315.385,-72.266,-1.465,-62.988,-229.980,-96.191
1678025315.389,-73.730,-4.883,-55.664,-209.473,-70.312
1678025315.393,-80.566,-11.230,-41.992,-185.547,-67.871
1678025315.397,-73.730,-18.555,-32.227,-184.082,-109.863
1678025315.400,-63.965,-23.926,-26.855,-183.594,76.660
1678025315.404,-29.297,-26.367,-18.066,-128.906,285.645
1678025315.408,-17.578,-27.344,-8.301,-80.078,-41.504
1678025315.412,-19.531,-25.391,1.465,-46.875,-108.398
1678025315.416,-0.977,-26.855,7.812,-8.789,98.145
1678025315.420,7.812,-31.738,13.672,0.000,-13.672
1678025315.424,11.230,-37.598,20.020,-1.953,-193.359
1678025315.428,19.043,-38.574,21.973,23.926,-145.020
1678025315.432,20.020,-36.621,25.879,50.293,-21.973
1678025315.436,15.625,-40.039,28.320,61.035,-81.543
1678025315.440,25.391,-42.480,34.668,71.777,-85.449
1678025315.444,53.223,-40.527,41.504,101.562,59.082
1678025315.447,67.383,-38.086,41.016,118.164,273.926
1678025315.451,44.922,-39.062,44.922,105.957,148.438
1678025315.455,29.297,-41.992,46.387,111.328,-112.305
1678025315.459,39.551,-45.410,47.363,131.836,-123.535
1678025315.463,55.176,-43.945,52.734,145.996,-82.031
1678025315.464,62.012,-37.598,53.223,142.090,-143.555
1678025315.468,45.898,-34.668,54.199,147.461,-133.301
1678025315.472,36.621,-34.668,61.035,160.156,-27.832
1678025315.476,62.500,-38.086,60.059,157.715,27.832
1678025315.480,75.195,-36.133,55.664,152.344,-73.730
1678025315.484,62.988,-35.645,58.105,145.996,-100.586
1678025315.488,40.039,-37.598,61.523,151.367,77.148
1678025315.491,29.785,-39.062,61.035,168.945,381.836
1678025315.495,38.574,-40.527,58.105,149.414,95.215
1678025315.499,50.781,-38.574,53.223,125.000,-174.805
1678025315.503,59.082,-40.527,48.828,111.328,-27.832
1678025315.507,44.922,-43.457,46.387,102.051,-47.852
1678025315.523,27.344,-39.551,50.781,110.840,-184.082
1678025315.527,29.785,-38.086,54.199,107.422,-128.418
1678025315.531,48.828,-46.875,47.363,87.402,-62.500
1678025315.535,47.363,-48.340,40.039,73.242,-71.289
1678025315.539,20.020,-45.898,41.504,80.566,-34.180
1678025315.543,-5.859,-50.781,41.992,71.289,93.750
1678025315.547,-0.488,-46.387,40.039,51.270,360.840
1678025315.550,31.250,-37.598,41.504,33.203,192.871
1678025315.554,43.457,-37.109,46.387,21.973,-116.211
1678025315.558,35.645,-35.156,46.875,21.973,-106.934
1678025315.562,21.484,-36.133,39.062,13.672,-87.891
1678025315.566,9.277,-39.062,34.180,15.137,-134.277
1678025315.553,17.090,-37.598,32.715,19.531,-180.664
1678025315.557,21.973,-34.180,29.297,10.742,-103.516
1678025315.561,10.254,-29.297,26.367,6.836,-46.875
1678025315.565,4.395,-28.809,28.809,18.555,-73.242
1678025315.569,8.301,-31.738,27.832,16.113,-60.547
1678025315.573,22.949,-29.785,23.926,3.906,103.027
1678025315.577,34.180,-30.762,20.020,3.418,106.445
1678025315.580,30.762,-34.180,20.996,8.789,-41.992
1678025315.584,8.301,-30.762,24.414,8.301,-90.332
1678025315.588,4.883,-29.297,20.996,6.348,125.000
1678025315.592,28.809,-28.809,20.996,4.395,317.871
1678025315.596,17.578,-33.203,18.066,-15.625,-4.395
1678025315.604,-2.930,-34.180,14.160,-29.297,-162.598
1678025315.608,-7.324,-30.273,9.766,-37.109,-87.402
1678025315.612,-12.695,-34.668,4.883,-42.480,-84.473
1678025315.616,-4.883,-34.180,7.812,-55.176,-130.371
1678025315.620,0.977,-29.297,10.254,-63.965,-104.980
1678025315.624,-6.348,-30.762,9.277,-53.223,11.230
1678025315.628,-17.090,-31.250,10.254,-43.457,-13.184
1678025315.631,-10.742,-28.320,15.137,-39.551,-116.211
1678025315.635,3.418,-25.879,11.230,-38.574,-91.797
1678025315.639,18.066,-23.926,7.812,-39.551,46.387
1678025315.643,16.602,-27.832,4.883,-52.734,-95.215
1678025315.647,-17.090,-33.203,-0.488,-67.383,-157.715
1678025315.658,-42.969,-33.203,-0.977,-68.359,-58.594
1678025315.662,-26.855,-34.180,-1.953,-66.895,-56.641
1678025315.666,0.000,-30.273,-4.395,-84.473,-109.375
1678025315.670,6.836,-31.250,3.418,-94.727,-120.117
1678025315.674,-5.859,-31.250,6.836,-77.148,-7.812
1678025315.678,-26.855,-28.809,4.395,-64.453,344.238
1678025315.682,-14.648,-29.785,6.836,-67.871,271.973
1678025315.685,5.371,-27.344,6.836,-70.801,3.906
1678025315.689,2.441,-27.344,7.324,-68.359,77.637
1678025315.693,-10.742,-29.297,9.277,-79.590,94.727
1678025315.697,-26.855,-24.414,7.324,-87.891,-83.984
1678025315.701,-33.691,-22.949,2.930,-82.031,-50.293
1678025315.705,-18.555,-26.367,3.906,-72.754,61.523
1678025315.709,-7.812,-26.855,5.371,-86.914,-64.453
1678025315.713,-25.391,-25.391,4.395,-95.703,-168.457
1678025315.717,-27.344,-19.043,4.395,-101.562,-90.332
1678025315.721,-19.043,-17.090,6.348,-116.699,-54.688
1678025315.725,-15.137,-28.320,1.465,-113.770,-15.137
1678025315.729,-17.578,-32.227,0.000,-104.492,19.043
1678025315.732,-45.898,-30.762,4.395,-105.957,-50.781
1678025315.736,-53.223,-32.227,0.488,-101.562,191.406
1678025315.740,-40.039,-31.250,1.465,-100.586,77.148
1678025315.744,-23.438,-31.250,6.348,-111.816,-168.945
1678025315.748,-17.090,-32.715,2.930,-112.305,-72.266
1678025315.749,-21.484,-26.367,1.465,-113.281,-36.621
1678025315.753,-29.785,-22.461,2.930,-114.746,-84.961
1678025315.757,-36.621,-24.902,3.906,-122.070,-116.699
1678025315.761,-14.648,-23.926,-0.488,-138.184,-72.266
1678025315.765,13.672,-22.949,0.977,-138.672,-15.137
1678025315.769,-0.977,-27.344,-1.953,-150.879,-102.539
1678025315.773,-19.043,-25.879,-3.906,-157.715,-169.922
1678025315.776,-8.789,-23.438,0.488,-154.785,137.695
1678025315.780,18.066,-19.043,0.488,-156.250,311.523
1678025315.784,27.832,-16.602,1.465,-167.969,-4.395
1678025315.788,-11.230,-20.020,2.930,-178.711,-122.070
1678025315.792,-42.969,-21.973,3.906,-169.922,48.828
1678025315.795,-51.270,-27.832,5.371,-171.387,-8.789
1678025315.799,-44.434,-30.762,2.930,-181.152,-177.734
1678025315.803,-20.508,-30.273,5.371,-176.758,-198.242
1678025315.807,-13.672,-37.598,7.324,-168.457,-68.359
1678025315.811,-38.574,-35.645,1.953,-172.363,-82.031
1678025315.815,-54.688,-32.227,-2.441,-150.391,-127.441
1678025315.819,-31.738,-30.273,-1.953,-87.891,14.648
1678025315.822,-4.395,-28.809,0.488,-26.367,232.422
1678025315.826,-1.953,-26.855,1.465,8.301,128.906
1678025315.830,-30.762,-27.832,5.371,35.156,-145.996
1678025315.834,-51.270,-32.715,4.883,59.570,-90.820
1678025315.838,-57.129,-34.180,-2.441,62.012,-35.645
1678025315.838,-37.109,-29.785,-1.953,79.590,-87.891
1678025315.842,-17.090,-27.344,-2.441,97.168,-144.043
1678025315.846,-27.344,-28.320,-5.859,112.793,-121.582
1678025315.850,-36.133,-30.762,-9.277,122.070,-110.352
1678025315.854,-20.020,-29.297,-14.160,133.301,-137.207
1678025315.858,-9.277,-27.344,-15.137,137.207,-56.152
1678025315.862,-28.809,-27.344,-17.090,128.906,188.965
1678025315.865,-47.852,-27.832,-18.066,121.582,432.617
1678025315.869,-46.387,-26.855,-16.113,109.375,105.957
1678025315.873,-33.691,-30.273,-18.066,109.375,-177.734
1678025315.877,-35.156,-35.645,-18.555,124.023,22.949
1678025315.881,-33.691,-35.645,-17.090,123.535,-15.137
1678025315.885,-27.344,-35.645,-16.602,112.793,-195.801
1678025315.889,-37.598,-33.203,-13.672,126.465,-153.320
1678025315.893,-47.852,-34.180,-11.719,139.160,-39.551
1678025315.897,-33.691,-34.180,-11.230,135.254,-65.430
1678025315.901,-22.949,-32.227,-10.742,120.117,-168.457
1678025315.905,-30.762,-30.273,-13.672,114.746,23.926
1678025315.909,-47.852,-32.715,-20.996,123.535,333.984
1678025315.912,-43.945,-36.133,-21.484,139.160,113.770
1678025315.916,-28.320,-33.691,-18.555,147.461,-87.402
1678025315.920,-20.996,-31.250,-19.531,145.996,0.000
1678025315.924,-28.320,-31.250,-18.066,163.086,55.176
1678025315.928,-52.246,-31.250,-17.090,179.199,-122.070
1678025315.943,-52.734,-29.297,-16.113,171.875,-134.277
1678025315.947,-31.250,-29.785,-8.789,173.828,-99.609
1678025315.951,-22.461,-36.133,-5.371,198.730,-186.035
1678025315.955,-31.250,-37.109,-4.395,224.121,-128.906
1678025315.959,-52.734,-34.668,-7.324,229.980,-92.773
1678025315.963,-62.988,-34.180,-9.277,247.070,59.082
1678025315.967,-47.363,-33.203,-2.441,257.324,195.312
1678025315.970,-26.855,-29.785,-1.953,252.441,-74.219
1678025315.974,-22.949,-30.273,-3.418,257.324,-231.445
1678025315.978,-36.621,-30.762,1.465,266.113,-20.020
1678025315.982,-30.273,-28.809,2.441,270.996,42.969
1678025315.986,-10.254,-26.367,2.441,271.484,-109.863
1678025315.990,0.977,-21.973,4.883,267.578,-123.535
1678025315.994,2.441,-22.461,3.906,264.160,-21.973
1678025315.998,-21.484,-24.414,4.395,260.254,-97.168
1678025316.002,-35.156,-24.414,9.766,258.789,-166.992
1678025316.006,-16.602,-25.391,9.277,251.953,-175.293
1678025316.010,-0.977,-29.785,6.348,238.770,-60.547
1678025316.014,-18.066,-31.250,4.395,240.723,29.297
1678025316.017,-30.762,-31.738,4.395,248.535,-117.676
1678025316.021,-38.086,-37.109,4.883,258.789,-117.676
1678025316.025,-38.086,-34.668,0.488,268.066,125.000
1678025316.029,-21.484,-32.227,-0.977,258.301,-91.309
1678025316.033,-13.184,-32.715,3.418,258.789,-261.719
1678025316.033,-31.738,-30.762,5.859,254.883,-81.543
1678025316.037,-36.621,-25.879,7.812,244.141,-16.113
1678025316.041,-28.320,-22.949,6.836,237.793,-85.938
1678025316.045,-25.391,-24.902,6.836,225.586,-155.273
1678025316.049,-12.695,-27.832,11.230,218.750,-72.754
1678025316.053,-23.438,-28.809,6.836,222.168,27.832
1678025316.057,-55.176,-29.297,3.906,223.633,-7.812
1678025316.060,-47.852,-27.832,7.812,224.609,45.410
1678025316.064,-21.973,-23.438,5.371,228.027,188.477
1678025316.068,-19.531,-21.484,5.371,225.586,319.336
1678025316.072,-26.367,-25.391,8.301,217.285,8.301
1678025316.076,-34.668,-28.320,8.301,215.820,-197.754
1678025316.080,-30.273,-23.926,14.160,215.332,-143.066
1678025316.084,-22.949,-26.855,11.719,211.426,-93.262
1678025316.088,-30.762,-33.691,8.789,207.520,-93.750
1678025316.092,-39.551,-37.109,13.184,206.543,-55.664
1678025316.096,-55.176,-35.645,12.695,223.633,20.508
1678025316.100,-47.363,-29.785,9.277,234.863,-50.293
1678025316.104,-20.508,-28.809,10.742,220.703,-10.742
1678025316.107,-12.207,-33.203,8.301,205.078,-23.926
1678025316.111,-32.227,-28.809,6.836,213.379,99.121
1678025316.115,-46.875,-24.902,14.160,215.332,5.859
1678025316.119,-39.062,-26.367,17.090,205.566,-197.754
1678025316.123,-25.391,-25.879,16.113,201.660,-121.582
1678025316.123,-20.508,-28.320,13.672,197.754,-26.367
1678025316.127,-27.344,-25.391,10.254,190.430,-126.465
1678025316.131,-43.945,-20.020,10.254,184.570,-124.512
1678025316.135,-55.664,-30.273,6.836,171.875,-35.645
1678025316.139,-41.016,-35.156,8.301,160.156,11.230
1678025316.143,-18.555,-33.203,12.207,160.156,38.574
1678025316.147,-17.578,-31.250,8.789,160.156,-7.324
1678025316.150,-40.039,-31.250,6.836,166.016,125.488
1678025316.154,-42.480,-31.738,6.836,182.129,396.973
1678025316.158,-27.344,-28.320,11.230,179.199,207.520
1678025316.162,-12.695,-28.320,12.207,163.086,-115.723
1678025316.166,-12.207,-26.367,10.742,168.457,-104.492
1678025316.170,-38.086,-25.879,9.277,163.574,-145.996
1678025316.174,-44.922,-28.320,12.207,154.785,-180.176
1678025316.178,-28.320,-25.879,17.090,163.574,-157.227
1678025316.182,-13.672,-29.297,13.184,150.391,-86.426
1678025316.186,-10.742,-31.250,9.766,137.695,-86.426
1678025316.190,-23.438,-27.832,7.324,133.789,-36.621
1678025316.194,-52.734,-34.668,5.371,122.070,-33.203
1678025316.197,-60.059,-35.156,3.418,123.047,189.941
1678025316.201,-41.992,-29.297,0.488,120.605,202.148
1678025316.205,-34.668,-32.715,0.488,102.051,-138.184
1678025316.209,-35.645,-27.832,4.395,104.492,-144.531
1678025316.213,-41.504,-22.949,8.301,108.398,-116.211
1678025316.213,-52.734,-25.879,11.719,96.680,-147.461
1678025316.217,-36.133,-27.344,9.766,85.449,-169.434
1678025316.221,-22.461,-24.902,6.348,87.891,-102.539
1678025316.225,-43.457,-22.949,5.371,81.543,-66.406
1678025316.229,-59.570,-28.320,0.000,69.824,-92.285
1678025316.233,-53.711,-28.320,-1.465,65.430,-26.367
1678025316.237,-37.109,-25.391,0.000,58.594,202.637
1678025316.240,-32.715,-25.879,-1.465,49.805,458.496
1678025316.244,-41.992,-30.273,-2.930,29.297,33.691
1678025316.248,-47.852,-29.785,-5.371,27.344,-220.703
1678025316.252,-32.715,-25.879,-7.812,30.762,70.801
1678025316.256,-18.066,-27.832,-7.812,19.043,0.977
1678025316.273,-15.137,-30.762,-8.789,15.137,-162.598
1678025316.277,-43.945,-35.156,-12.695,21.484,-168.945
1678025316.281,-61.035,-35.156,-13.184,16.113,-184.570
1678025316.285,-38.086,-34.180,-14.648,22.949,-164.062
1678025316.289,-16.113,-31.250,-15.137,27.832,-146.484
1678025316.293,-18.066,-32.227,-13.672,18.555,10.742
1678025316.297,-33.203,-37.109,-12.207,13.672,277.344
1678025316.300,-52.734,-32.715,-13.184,-9.766,71.289
1678025316.304,-44.922,-33.203,-12.695,-22.949,-116.699
1678025316.308,-28.809,-29.785,-9.277,-31.250,-43.945
1678025316.312,-29.297,-23.438,-11.719,-40.527,-4.395
1678025316.316,-27.344,-26.367,-14.160,-41.992,-37.598
1678025316.304,-45.898,-28.320,-14.648,-52.734,-108.398
1678025316.308,-54.199,-26.855,-15.625,-63.477,-51.270
1678025316.312,-38.086,-23.926,-15.625,-79.590,25.391
1678025316.316,-30.762,-28.320,-17.578,-100.586,-79.102
1678025316.320,-42.480,-36.133,-18.066,-109.375,-143.555
1678025316.324,-47.363,-36.621,-16.602,-92.773,41.016
1678025316.328,-53.711,-33.691,-20.508,-79.590,132.324
1678025316.331,-45.410,-29.785,-21.973,-81.543,13.184
1678025316.335,-25.879,-28.809,-17.090,-78.613,-59.570
1678025316.339,-28.320,-35.156,-20.508,-60.547,27.832
1678025316.343,-53.223,-35.645,-28.809,-20.020,44.434
1678025316.347,-57.129,-30.762,-27.832,8.301,-140.625
1678025316.379,-40.039,-31.738,-25.391,16.602,-124.512
1678025316.383,-28.320,-34.180,-29.297,24.414,47.363
1678025316.387,-30.273,-36.133,-35.645,23.926,7.812
1678025316.391,-48.340,-34.180,-33.203,26.855,-104.492
1678025316.395,-57.129,-31.738,-32.227,34.668,-140.625
1678025316.399,-46.875,-29.785,-35.156,38.086,199.707
1678025316.403,-29.297,-30.762,-34.668,37.598,141.113
1678025316.406,-21.484,-35.645,-36.133,33.691,-193.848
1678025316.410,-23.438,-31.738,-39.062,35.645,-46.387
1678025316.414,-35.645,-26.855,-42.480,41.992,98.633
1678025316.418,-40.527,-26.367,-43.945,35.156,-86.426
1678025316.422,-21.973,-31.250,-42.969,35.645,-159.668
1678025316.408,-17.578,-31.738,-46.875,35.645,-125.977
1678025316.412,-24.414,-28.809,-50.781,46.387,-145.996
1678025316.416,-33.691,-32.227,-51.758,54.688,-169.434
1678025316.420,-35.156,-31.250,-51.270,52.246,-137.207
1678025316.424,-8.789,-29.297,-56.152,35.156,16.113
1678025316.428,-9.277,-31.250,-59.570,27.832,61.523
1678025316.432,-31.250,-32.227,-52.246,37.109,-40.039
1678025316.435,-48.340,-27.832,-49.805,37.109,-25.391
1678025316.439,-60.059,-31.250,-54.688,32.715,125.488
1678025316.443,-42.969,-33.691,-59.082,33.203,88.867
1678025316.447,-29.785,-36.133,-60.547,26.855,-110.352
1678025316.451,-51.270,-33.203,-61.035,23.438,-143.555
1678025316.455,-63.965,-29.297,-59.082,29.785,89.844
1678025316.459,-55.176,-31.250,-62.500,24.414,270.020
1678025316.463,-36.621,-34.180,-62.988,4.395,-74.219
1678025316.467,-23.438,-30.273,-57.129,4.395,-148.438
1678025316.471,-37.598,-28.320,-60.059,8.789,-10.254
1678025316.475,-59.570,-26.855,-64.941,8.301,-12.207
1678025316.479,-68.359,-21.973,-66.895,6.348,-46.875
1678025316.482,-77.148,-24.902,-72.266,-0.977,-77.148
1678025316.486,-88.379,-26.367,-83.984,-13.672,176.758
1678025316.490,-112.305,-25.391,-95.703,-48.828,109.863
1678025316.494,-148.926,-20.508,-108.398,-77.637,-116.211
1678025316.498,-166.016,-14.648,-129.395,-96.191,-105.469
1678025316.498,-192.383,-15.625,-152.344,-132.324,-78.125
1678025316.502,-236.328,-11.230,-173.340,-187.988,-146.484
1678025316.506,-272.949,-7.324,-200.195,-236.328,-183.594
1678025316.510,-310.059,-1.953,-221.680,-263.184,-122.559
1678025316.514,-328.125,7.324,-233.398,-277.344,-98.633
1678025316.518,-317.871,14.160,-248.535,-290.039,-49.316
1678025316.522,-287.598,14.160,-255.859,-291.504,12.695
1678025316.525,-271.484,16.602,-245.605,-258.301,138.184
1678025316.529,-275.879,14.160,-239.746,-228.516,261.230
1678025316.533,-258.301,8.301,-236.816,-202.148,43.457
1678025316.537,-211.426,6.348,-223.633,-164.551,-129.883
1678025316.541,-166.992,1.465,-207.031,-144.043,8.301
1678025316.545,-146.484,1.465,-198.242,-126.465,-37.109
1678025316.549,-143.555,-4.395,-193.359,-103.516,-170.410
1678025316.553,-139.648,-10.742,-184.082,-86.914,-108.887
1678025316.557,-111.816,-10.742,-174.805,-70.312,-58.105
1678025316.561,-76.660,-13.672,-166.992,-42.969,-118.164
1678025316.565,-41.504,-10.742,-156.250,-31.250,-93.262
1678025316.569,-42.969,-7.812,-144.043,-16.113,70.312
1678025316.572,-55.176,-14.160,-138.184,14.648,248.047
1678025316.576,-32.227,-24.414,-128.418,28.320,21.484
1678025316.580,-3.418,-27.832,-118.164,32.227,-178.223
1678025316.584,15.137,-28.320,-112.793,31.738,-125.977
1678025316.588,14.160,-30.762,-98.145,36.133,-81.543
1678025316.588,2.441,-36.621,-86.914,41.504,-81.055
1678025316.592,11.719,-38.574,-83.496,35.645,-123.047
1678025316.596,35.156,-38.574,-72.266,30.273,-62.500
1678025316.600,38.574,-39.062,-58.594,29.297,-38.086
1678025316.604,24.902,-45.898,-51.270,30.762,-86.426
1678025316.608,25.391,-49.316,-47.363,42.480,-91.309
1678025316.612,35.645,-48.340,-41.992,51.758,143.066
1678025316.615,51.270,-48.340,-36.621,75.195,422.363
1678025316.619,71.777,-43.457,-33.691,82.031,93.262
1678025316.623,70.801,-41.992,-31.250,71.777,-149.902
1678025316.627,46.387,-45.410,-28.809,79.590,-41.016
1678025316.631,42.480,-44.434,-27.344,87.402,-65.430
1678025316.634,60.547,-47.363,-25.391,84.473,-171.387
1678025316.638,72.754,-51.758,-22.461,79.590,-135.254
1678025316.642,55.664,-54.199,-23.438,87.891,30.273
1678025316.646,34.180,-51.270,-26.855,88.867,-35.156
1678025316.650,41.992,-41.992,-23.926,84.473,-125.488
1678025316.654,60.059,-37.109,-19.043,88.379,-49.805
1678025316.658,69.336,-42.480,-21.973,89.355,293.457
1678025316.661,56.641,-43.945,-20.996,90.820,216.309
1678025316.665,29.297,-46.387,-19.043,89.355,-87.402
1678025316.669,27.344,-47.852,-23.438,83.984,-80.566
1678025316.673,38.086,-44.434,-26.367,78.125,-65.918
1678025316.677,41.016,-39.551,-22.949,87.402,-130.371
1678025316.693,35.645,-37.109,-20.020,93.750,-100.586
1678025316.697,25.391,-39.551,-24.414,90.820,-68.848
1678025316.701,13.672,-38.086,-25.879,104.492,-105.957
1678025316.705,21.484,-39.551,-27.832,102.539,-144.043
1678025316.709,33.691,-43.457,-31.250,94.727,-144.043
1678025316.713,21.973,-45.898,-29.297,99.609,148.438
1678025316.717,0.488,-45.898,-27.832,100.586,234.375
1678025316.720,-10.254,-44.922,-30.273,91.797,41.504
1678025316.724,-7.324,-43.457,-28.809,87.891,-25.879
1678025316.728,9.277,-38.086,-24.902,98.145,91.797
1678025316.732,20.508,-38.086,-23.438,95.215,173.340
1678025316.736,9.766,-39.551,-22.461,83.008,-127.441
1678025316.740,-7.324,-41.016,-23.438,91.797,-155.273
1678025316.744,6.348,-41.992,-22.461,93.750,-97.656
1678025316.748,6.348,-39.551,-23.926,87.402,-145.020
1678025316.752,13.184,-31.738,-24.902,95.215,-145.020
1678025316.756,16.602,-30.273,-23.438,102.051,-142.578
1678025316.760,0.488,-33.203,-25.391,97.168,-57.617
1678025316.764,-6.348,-31.250,-21.973,89.355,27.832
1678025316.767,-5.371,-30.273,-23.438,87.891,5.859
1678025316.771,12.207,-27.344,-22.461,89.355,-7.324
1678025316.775,3.906,-30.273,-20.508,97.656,233.887
1678025316.779,-17.578,-36.133,-22.461,90.820,178.711
1678025316.783,-12.207,-36.133,-20.996,76.660,-135.254
1678025316.783,-0.488,-38.574,-26.367,73.730,-187.988
1678025316.787,9.766,-37.109,-25.879,74.707,-177.246
1678025316.791,-3.906,-34.668,-19.531,76.660,-174.316
1678025316.795,-43.945,-37.598,-21.484,92.285,-158.691
1678025316.799,-39.551,-39.062,-21.973,98.633,-62.988
1678025316.803,-16.602,-32.715,-22.461,90.332,35.645
1678025316.807,-7.812,-31.250,-24.902,88.379,-12.695
1678025316.810,-6.836,-33.691,-26.855,84.473,-99.609
1678025316.814,-24.902,-32.715,-26.367,84.473,26.367
1678025316.818,-44.434,-33.691,-26.855,98.145,404.297
1678025316.822,-29.785,-32.227,-29.785,87.891,191.406
1678025316.826,-18.555,-31.250,-28.320,68.848,-200.684
1678025316.830,-29.785,-33.203,-28.320,68.848,-146.973
1678025316.834,-40.039,-34.668,-31.250,66.406,-143.555
1678025316.838,-43.945,-35.645,-30.273,63.965,-143.555
1678025316.842,-26.367,-31.250,-30.762,62.988,-155.273
1678025316.846,-9.277,-31.738,-31.738,55.664,-136.230
1678025316.850,-20.996,-35.156,-34.180,46.387,-77.148
1678025316.854,-38.086,-35.156,-35.645,34.668,-132.324
1678025316.857,-41.504,-34.180,-36.621,39.551,-117.676
1678025316.861,-29.297,-29.297,-36.133,48.828,154.785
1678025316.865,-14.160,-26.367,-34.668,48.828,47.363
1678025316.869,-12.207,-29.785,-34.668,61.035,-160.156
1678025316.873,-34.668,-34.180,-29.297,63.477,-74.707
1678025316.873,-46.875,-28.320,-22.949,47.852,-12.207
1678025316.877,-39.062,-27.832,-23.438,49.316,-100.098
1678025316.881,-30.273,-29.297,-29.297,49.805,-159.668
1678025316.885,-21.484,-25.391,-26.855,31.738,-154.297
1678025316.889,-29.297,-26.367,-24.414,33.691,-99.121
1678025316.893,-43.945,-29.297,-30.273,34.180,-38.086
1678025316.897,-42.480,-31.738,-35.156,25.879,-51.758
1678025316.900,-17.578,-31.738,-32.715,18.066,153.320
1678025316.904,-6.836,-26.855,-30.273,14.648,294.434
1678025316.908,-20.508,-23.438,-31.250,16.602,-37.598
1678025316.912,-31.738,-23.926,-32.715,11.719,-149.414
1678025316.916,-34.180,-28.809,-31.250,0.488,-41.992
1678025316.921,-30.762,-26.855,-27.832,7.324,-112.305
1678025316.925,-25.391,-22.461,-30.273,4.883,-122.070
1678025316.929,-33.691,-26.855,-28.320,9.766,-75.195
1678025316.933,-40.039,-30.762,-25.879,27.344,39.062
1678025316.937,-29.297,-26.367,-21.484,29.297,3.418
1678025316.941,-11.230,-22.461,-18.555,35.156,-36.133
1678025316.945,2.441,-24.414,-16.113,38.574,20.020
1678025316.948,-14.648,-28.320,-15.137,50.293,203.125
1678025316.952,-33.203,-29.297,-15.625,41.016,56.641
1678025316.956,-28.320,-33.203,-18.066,40.039,-154.297
1678025316.960,-20.508,-30.762,-16.602,57.617,-102.539
1678025316.964,-15.137,-26.855,-14.648,49.316,-75.684
1678025316.963,-29.297,-27.344,-15.137,34.180,-133.789
1678025316.967,-49.805,-27.832,-10.742,33.691,-134.766
1678025316.971,-51.758,-30.273,-12.207,38.086,-79.590
1678025316.975,-36.621,-29.297,-15.137,36.133,-64.453
1678025316.979,-28.809,-27.344,-7.812,40.527,-25.879
1678025316.983,-30.273,-25.391,4.395,47.363,-60.547
1678025316.987,-37.598,-24.414,9.277,53.711,78.125
1678025316.990,-37.598,-24.902,6.836,81.055,473.145
1678025316.994,-33.203,-23.926,16.113,78.613,196.289
1678025316.998,-28.809,-22.949,24.414,57.617,-152.832
1678025317.002,-25.391,-20.020,25.879,59.570,-36.621
1678025317.006,-51.270,-20.508,26.855,58.594,-85.449
1678025317.038,-54.688,-22.461,29.297,60.547,-129.883
1678025317.042,-15.137,-21.973,34.180,66.406,-101.074
1678025317.046,1.953,-25.879,39.062,65.430,-81.055
1678025317.050,-12.695,-24.414,41.992,65.918,-70.801
1678025317.054,-38.086,-20.996,47.363,59.082,-131.348
1678025317.058,-41.992,-23.926,51.270,48.340,26.367
1678025317.062,-39.062,-28.809,47.852,62.500,343.750
1678025317.065,-26.367,-28.320,53.223,68.359,162.109
1678025317.069,-14.160,-26.855,63.477,63.477,-148.926
1678025317.073,-32.715,-23.438,64.941,70.312,-90.332
1678025317.077,-50.293,-22.949,68.359,66.895,97.168
1678025317.081,-40.527,-26.855,72.266,65.430,-81.543
1678025317.053,-27.832,-29.785,77.148,70.801,-239.746
1678025317.057,-20.996,-26.367,84.473,78.613,-172.363
1678025317.061,-37.109,-21.973,92.773,78.613,-93.262
1678025317.065,-46.875,-23.438,94.238,73.242,-68.848
1678025317.069,-23.438,-23.438,92.773,65.918,-68.359
1678025317.073,-10.742,-23.438,96.680,59.082,56.152
1678025317.077,-0.977,-23.438,96.191,48.340,88.379
1678025317.080,-7.324,-23.438,96.191,38.574,3.906
1678025317.084,-26.855,-24.902,97.656,50.293,-63.965
1678025317.088,-23.438,-24.414,104.492,66.406,30.273
1678025317.092,-13.672,-20.996,110.840,71.777,10.742
1678025317.096,-10.254,-19.043,112.793,67.383,-175.781
1678025317.115,-25.879,-17.578,116.699,75.195,-186.035
1678025317.119,-42.969,-23.926,118.652,83.984,124.512
1678025317.123,-49.805,-27.832,115.723,62.500,251.465
1678025317.127,-46.387,-26.367,110.840,43.945,-94.238
1678025317.131,-37.598,-24.902,114.746,53.711,-126.953
1678025317.135,-39.062,-24.902,123.047,62.012,26.855
1678025317.139,-49.316,-24.414,122.559,54.199,29.785
1678025317.142,-37.598,-26.855,123.535,54.199,-103.516
1678025317.146,-20.508,-28.809,131.348,65.918,-131.836
1678025317.150,-10.742,-28.809,131.836,66.406,54.688
1678025317.154,-23.926,-31.738,125.488,57.617,-131.836
1678025317.158,-36.621,-31.250,121.582,68.848,-213.379
1678025317.158,-26.855,-31.250,118.164,64.941,-31.250
1678025317.162,-23.438,-27.832,113.770,55.176,-1.465
1678025317.166,-15.625,-27.832,118.652,64.941,-73.242
1678025317.170,-28.320,-29.297,125.000,58.105,-123.535
1678025317.174,-63.477,-24.414,126.953,51.270,-74.707
1678025317.178,-68.848,-24.414,123.535,51.270,3.906
1678025317.182,-45.898,-28.809,117.676,38.574,0.977
1678025317.185,-28.809,-32.227,116.211,20.020,-62.500
1678025317.189,-32.227,-33.203,118.652,24.414,73.242
1678025317.193,-54.199,-33.691,115.234,42.480,271.484
1678025317.197,-60.547,-32.715,113.770,33.691,-10.254
1678025317.201,-34.668,-29.297,119.141,33.691,-156.738
1678025317.205,-16.113,-27.344,117.676,43.457,14.648
1678025317.209,-25.391,-20.996,112.305,35.645,74.707
1678025317.213,-45.898,-25.879,112.793,45.898,-98.145
1678025317.217,-49.805,-24.902,113.281,55.176,-115.234
1678025317.221,-20.020,-16.113,113.770,59.082,63.477
1678025317.225,-6.836,-20.996,112.305,60.547,39.551
1678025317.229,-19.043,-25.879,109.863,61.035,-53.711
1678025317.232,-28.320,-22.461,113.770,64.453,-39.062
1678025317.236,-43.457,-22.949,114.258,69.824,145.996
1678025317.240,-37.598,-26.367,107.422,62.988,47.363
1678025317.244,-15.625,-22.949,108.887,50.293,-127.930
1678025317.248,-23.438,-24.902,107.910,45.898,-115.723
1678025317.248,-53.711,-27.832,101.074,46.875,-109.375
1678025317.252,-55.176,-21.973,107.422,48.828,-73.242
1678025317.256,-37.109,-23.926,109.863,33.203,-81.055
1678025317.260,-19.531,-26.855,105.469,19.531,-43.457
1678025317.264,-13.672,-25.391,104.980,22.461,-60.059
1678025317.268,-37.109,-29.785,105.957,14.160,-113.770
1678025317.272,-61.523,-35.156,102.051,12.207,-56.152
1678025317.275,-57.129,-40.039,95.215,20.996,149.414
1678025317.279,-28.320,-39.062,97.168,34.180,382.812
1678025317.283,-10.254,-36.621,99.609,38.086,75.195
1678025317.287,-29.297,-37.109,98.633,39.551,-127.441
1678025317.291,-45.410,-37.109,98.145,47.852,-51.758
1678025317.295,-43.457,-37.598,95.703,47.852,-93.750
1678025317.299,-38.574,-42.969,90.332,37.598,-159.668
1678025317.303,-15.137,-38.574,87.402,29.297,-167.969
1678025317.307,-20.996,-34.180,84.473,41.504,-113.281
1678025317.311,-44.922,-34.668,84.961,42.480,-147.461
1678025317.315,-33.691,-36.133,89.355,28.809,-92.285
1678025317.319,-17.578,-31.250,88.867,27.344,-41.016
1678025317.322,-13.672,-30.762,88.867,34.668,185.547
1678025317.326,-9.277,-32.715,85.938,31.738,176.758
1678025317.330,-15.137,-28.809,81.055,27.344,-161.133
1678025317.334,-19.043,-22.949,81.055,36.133,-149.902
1678025317.338,-7.812,-21.973,76.172,43.457,-55.176
1678025317.338,0.488,-26.367,73.242,37.598,-87.891
1678025317.342,-12.207,-29.785,72.266,24.414,-76.172
1678025317.346,-36.133,-29.785,68.359,25.879,-50.293
1678025317.350,-48.340,-27.832,66.895,36.621,-75.684
1678025317.354,-32.227,-30.273,65.918,40.039,-73.242
1678025317.358,-22.949,-34.668,62.500,29.297,-111.816
1678025317.362,-31.738,-32.227,61.035,27.344,53.711
1678025317.365,-42.969,-25.879,62.988,45.410,407.227
1678025317.369,-50.781,-27.832,62.012,41.504,166.504
1678025317.373,-36.621,-27.344,60.547,28.320,-144.043
1678025317.377,-20.020,-24.414,54.199,29.785,-11.230
1678025317.381,-26.367,-27.832,45.898,24.414,7.324
1678025317.398,-40.527,-23.926,47.852,20.020,-166.504
1678025317.402,-45.898,-22.461,48.828,20.508,-132.812
1678025317.406,-46.387,-24.902,46.387,9.277,-43.457
1678025317.410,-31.738,-22.949,46.387,-6.836,-48.828
1678025317.414,-22.461,-28.809,44.434,-16.602,-115.723
1678025317.418,-50.293,-31.250,39.551,-20.020,-66.406
1678025317.422,-68.359,-28.809,36.621,-9.277,236.328
1678025317.425,-51.270,-26.367,39.551,-3.418,117.676
1678025317.429,-41.504,-27.344,28.809,-34.668,-141.113
1678025317.433,-49.805,-16.602,26.855,-37.598,-70.312
1678025317.437,-64.941,-18.066,29.785,-19.531,63.965
1678025317.441,-76.172,-25.391,19.043,-29.297,-38.086
1678025317.428,-69.824,-17.090,15.625,-33.691,-83.008
1678025317.432,-70.801,-13.184,10.254,-40.527,-3.418
1678025317.436,-78.613,-17.090,4.395,-52.734,2.441
1678025317.440,-93.262,-18.555,0.977,-64.941,-83.984
1678025317.444,-147.461,-17.578,-11.719,-96.191,-121.094
1678025317.448,-182.129,-15.137,-30.273,-129.395,77.148
1678025317.452,-179.688,-8.789,-46.875,-145.996,148.438
1678025317.455,-188.965,-2.441,-57.129,-169.922,-43.457
1678025317.459,-231.934,-1.953,-72.266,-208.008,-158.203
1678025317.463,-273.438,-0.977,-83.008,-221.680,3.906
1678025317.467,-277.832,-0.488,-87.891,-236.816,98.633
1678025317.471,-253.906,0.000,-92.285,-281.250,-126.465
1678025317.489,-226.562,7.324,-93.750,-285.156,-136.230
1678025317.493,-226.074,13.184,-85.449,-249.023,-96.191
1678025317.497,-220.703,12.695,-76.172,-222.656,-185.059
1678025317.501,-198.730,10.254,-75.684,-196.777,-166.992
1678025317.505,-168.945,10.254,-71.777,-161.621,-45.898
1678025317.509,-129.883,6.348,-62.012,-146.484,74.707
1678025317.513,-122.070,0.977,-54.688,-130.371,-3.418
1678025317.516,-130.371,0.488,-43.945,-102.539,-124.023
1678025317.520,-128.418,-5.371,-33.691,-87.402,-66.406
1678025317.524,-104.492,-12.695,-33.203,-63.965,193.359
1678025317.528,-73.730,-16.602,-25.879,-64.941,40.527
1678025317.532,-58.594,-18.555,-17.578,-65.918,-189.453
1678025317.533,-55.664,-19.531,-12.207,-39.062,-113.281
1678025317.537,-52.246,-18.066,-6.836,-29.297,-86.426
1678025317.541,-29.297,-18.066,-9.277,-26.367,-99.121
1678025317.545,-6.836,-24.414,-3.418,-0.488,-41.016
1678025317.549,0.488,-25.879,6.348,19.531,134.766
1678025317.553,-18.555,-25.879,7.812,26.855,256.836
1678025317.557,-25.391,-30.762,9.277,29.297,76.172
1678025317.560,-3.418,-33.203,15.137,25.391,-118.652
1678025317.564,8.789,-31.738,16.113,33.691,25.879
1678025317.568,10.254,-32.715,15.137,45.898,234.863
1678025317.572,18.555,-33.203,20.020,48.340,-94.238
1678025317.576,27.832,-33.691,21.973,56.641,-252.441
1678025317.580,36.621,-37.598,22.461,57.129,-140.625
1678025317.584,57.617,-36.621,28.320,55.176,-188.965
1678025317.588,53.711,-38.574,35.156,60.547,-227.051
1678025317.592,35.645,-38.574,39.551,57.617,-134.766
1678025317.596,35.156,-35.645,45.898,56.152,-25.879
1678025317.600,39.062,-34.180,46.387,62.500,36.133
1678025317.604,49.316,-34.180,40.039,51.758,48.340
1678025317.607,60.547,-32.227,39.062,41.016,10.254
1678025317.611,44.434,-29.785,41.992,59.082,237.793
1678025317.615,40.527,-29.785,43.945,70.801,224.121
1678025317.619,51.758,-34.668,43.945,61.035,-99.121
1678025317.623,43.457,-44.434,39.062,56.152,-127.930
1678025317.623,42.480,-44.434,34.668,50.781,-105.469
1678025317.627,28.320,-44.434,34.668,44.922,-178.711
1678025317.631,12.207,-46.875,32.715,42.480,-166.504
1678025317.635,24.414,-39.062,38.086,45.410,-87.402
1678025317.639,37.598,-38.574,34.180,42.969,-73.730
1678025317.643,49.316,-45.898,29.297,35.156,-66.406
1678025317.647,43.457,-41.016,31.738,36.621,-29.785
1678025317.650,12.695,-38.086,31.250,51.270,143.066
1678025317.654,10.254,-41.504,24.902,65.430,394.043
1678025317.658,16.113,-41.504,21.973,63.965,187.500
1678025317.662,32.715,-39.551,23.438,46.875,-156.738
1678025317.666,36.133,-33.203,26.367,36.621,-126.465
1678025317.685,6.348,-32.227,27.344,50.781,-81.055
1678025317.689,13.672,-34.668,26.367,62.500,-133.789
1678025317.693,30.273,-34.668,25.879,60.547,-126.465
1678025317.697,25.391,-36.133,21.484,50.293,-80.566
1678025317.701,22.461,-34.668,23.926,52.734,-92.773
1678025317.705,16.602,-31.738,21.484,68.848,-66.406
1678025317.709,11.719,-32.227,18.555,67.383,4.883
1678025317.712,15.625,-33.691,20.508,61.523,211.914
1678025317.716,24.414,-34.180,20.020,51.758,22.461
1678025317.720,14.160,-34.180,20.996,44.922,-175.781
1678025317.724,-7.324,-31.250,23.438,54.688,-0.977
1678025317.728,-11.230,-32.227,20.508,57.617,45.410
1678025317.713,0.488,-36.133,18.555,43.457,-87.402
1678025317.717,2.930,-34.668,20.508,36.621,-116.699
1678025317.721,14.160,-31.250,19.531,44.434,-92.773
1678025317.725,3.906,-32.227,13.184,50.293,-55.664
1678025317.729,-19.043,-34.668,9.766,56.641,-66.895
1678025317.733,-16.602,-34.180,6.348,56.152,-32.715
1678025317.737,-11.230,-34.180,7.812,53.223,129.883
1678025317.740,-8.301,-31.250,11.230,48.340,141.602
1678025317.744,-32.227,-27.832,7.812,32.715,-85.449
1678025317.748,-50.293,-27.344,2.441,30.762,-173.340
1678025317.752,-31.738,-24.414,1.953,41.016,58.105
1678025317.756,-20.020,-19.531,-1.953,34.668,251.465
1678025317.761,-20.020,-22.461,-8.789,13.184,-80.566
1678025317.765,-20.020,-21.973,-8.789,6.836,-181.152
1678025317.769,-17.578,-20.020,-8.789,5.859,16.602
1678025317.773,4.395,-16.113,-12.207,-2.441,-71.289
1678025317.777,25.391,-15.625,-14.648,-6.836,-206.543
1678025317.781,23.438,-17.578,-17.578,-11.230,-62.012
1678025317.785,-0.977,-20.996,-19.043,-3.418,187.988
1678025317.788,-24.414,-18.555,-11.719,2.930,-33.203
1678025317.792,-28.320,-18.066,-10.254,-2.930,-187.012
1678025317.796,-23.926,-24.414,-12.207,-2.930,-120.117
1678025317.800,-14.160,-25.391,-9.766,-3.418,-111.328
1678025317.804,-22.461,-21.973,-11.719,4.395,-143.555
1678025317.818,-45.898,-23.438,-13.184,15.137,-190.430
1678025317.822,-34.668,-23.926,-17.578,10.254,-135.254
1678025317.826,-16.602,-26.855,-20.996,7.324,-13.184
1678025317.830,-22.461,-28.809,-20.508,10.254,0.977
1678025317.834,-27.832,-24.902,-18.066,0.977,-110.840
1678025317.838,-38.574,-24.414,-18.555,-2.441,38.574
1678025317.842,-41.016,-26.855,-24.414,8.301,312.012
1678025317.845,-29.785,-31.250,-25.879,6.836,101.074
1678025317.849,-24.902,-29.785,-26.367,-9.766,-125.488
1678025317.853,-36.621,-23.926,-25.879,-12.207,-3.418
1678025317.857,-60.059,-23.438,-24.902,-5.859,-20.996
1678025317.861,-49.805,-24.414,-28.320,-5.371,-154.297
1678025317.865,-26.367,-28.320,-31.738,-18.066,-164.062
1678025317.869,-18.555,-33.203,-30.762,-23.438,17.090
1678025317.873,-17.090,-33.203,-30.273,-25.879,-62.500
1678025317.877,-42.969,-31.250,-29.297,-30.762,-207.520
1678025317.881,-49.316,-25.391,-33.691,-13.672,-147.949
1678025317.885,-23.438,-28.320,-39.062,-17.578,-18.066
1678025317.889,-14.160,-35.156,-38.574,-31.250,-29.297
1678025317.892,-20.996,-29.297,-36.621,-29.785,-90.332
1678025317.896,-40.039,-27.832,-36.621,-25.391,-68.359
1678025317.900,-44.922,-27.344,-34.668,-9.277,224.121
1678025317.904,-28.320,-25.879,-35.156,-12.207,163.086
1678025317.908,-20.020,-23.438,-34.180,-28.320,-88.379
1678025317.908,-20.020,-23.438,-34.180,-23.926,-95.703
1678025317.912,-34.180,-24.414,-34.668,-14.648,-49.316
1678025317.916,-41.992,-23.438,-30.273,-4.883,-47.852
1678025317.920,-34.180,-22.949,-25.879,-6.348,-111.328
1678025317.924,-22.949,-21.973,-23.926,-9.277,-97.168
1678025317.928,-20.020,-22.949,-31.738,-12.695,-27.832
1678025317.932,-31.738,-24.414,-33.691,-21.973,-70.801
1678025317.935,-37.598,-24.902,-29.785,-25.879,-34.668
1678025317.939,-29.785,-31.250,-28.809,-27.344,199.219
1678025317.943,-19.531,-31.250,-24.414,-23.926,440.430
1678025317.947,-26.367,-29.297,-24.414,-17.090,205.078
1678025317.951,-43.457,-30.273,-29.297,-5.859,-112.793
1678025317.955,-44.922,-29.785,-22.461,7.812,-13.672
1678025317.959,-33.691,-32.715,-17.090,6.836,-50.781
1678025317.963,-21.484,-31.738,-11.230,2.441,-194.824
1678025317.967,-23.926,-28.809,-6.836,6.348,-116.699
1678025317.971,-36.621,-30.762,-7.324,13.672,-73.242
1678025317.975,-46.875,-32.227,-5.371,20.508,-66.895
1678025317.979,-35.645,-28.320,0.977,23.438,-48.828
1678025317.982,-20.996,-22.949,1.953,25.879,-98.145
1678025317.986,-19.043,-25.879,-4.395,29.785,104.980
1678025317.990,-33.203,-31.738,-4.395,28.320,72.754
1678025317.994,-36.133,-35.156,0.000,29.297,-127.930
1678025317.998,-31.250,-37.598,-0.977,25.879,-64.941
1678025317.998,-25.391,-32.715,0.977,10.742,-36.133
1678025318.002,-0.977,-22.949,4.883,-0.977,-75.684
1678025318.006,-3.418,-25.879,2.930,-16.602,-135.742
1678025318.010,-32.227,-36.133,-3.418,-25.391,-96.680
1678025318.014,-43.457,-32.715,-1.465,-23.438,4.883
1678025318.018,-24.902,-26.367,-0.488,-21.484,69.336
1678025318.022,-1.953,-30.273,-7.812,-30.273,-24.414
1678025318.025,-10.742,-33.203,-8.301,-18.555,99.121
1678025318.029,-33.203,-36.133,-10.254,12.695,340.820
1678025318.033,-43.457,-39.062,-9.766,19.531,27.832
1678025318.037,-37.109,-35.645,-5.859,15.625,-144.043
1678025318.041,-22.949,-39.062,-6.836,9.277,-47.363
1678025318.045,-25.879,-40.039,-8.789,12.207,-96.680
1678025318.049,-51.758,-37.109,-8.301,17.578,-205.566
1678025318.053,-54.199,-40.039,-13.672,6.348,-148.926
1678025318.057,-41.016,-41.016,-18.555,-1.953,27.832
1678025318.061,-32.227,-38.086,-17.090,1.953,-33.203
1678025318.065,-29.785,-32.715,-14.648,-6.348,-56.641
1678025318.069,-28.809,-27.832,-16.602,-11.719,7.324
1678025318.072,-30.273,-28.809,-17.090,-4.395,193.848
1678025318.076,-24.414,-32.227,-18.555,-11.719,61.035
1678025318.080,-14.160,-36.133,-24.414,-27.344,-155.762
1678025318.084,-18.555,-33.203,-30.762,-33.691,-109.863
1678025318.088,-30.762,-28.809,-31.250,-24.414,-98.145
1678025318.089,-39.062,-31.738,-27.344,-20.996,-99.121
1678025318.093,-28.809,-33.203,-24.414,-31.250,-93.262
1678025318.097,-17.090,-30.762,-29.297,-33.203,-34.668
1678025318.101,-11.230,-32.227,-26.855,-25.879,3.418
1678025318.105,-28.320,-30.762,-24.414,-34.668,-54.199
1678025318.109,-45.410,-29.785,-21.973,-43.457,-87.402
1678025318.113,-39.062,-38.574,-19.043,-41.016,32.227
1678025318.116,-35.156,-44.922,-24.414,-31.250,327.148
1678025318.120,-43.457,-46.387,-26.855,-42.969,50.781
1678025318.124,-52.734,-42.480,-30.762,-48.828,-199.219
1678025318.128,-39.062,-35.156,-30.762,-22.949,-67.383
1678025318.132,-32.715,-38.574,-25.879,-19.531,-127.441
1678025318.135,-36.133,-45.410,-20.508,-44.434,-202.148
1678025318.139,-39.062,-43.457,-20.020,-48.828,-124.512
1678025318.143,-55.176,-44.434,-30.273,-44.434,-62.012
1678025318.147,-54.688,-40.527,-28.320,-32.715,-42.969
1678025318.151,-55.664,-39.551,-21.973,-34.180,-43.945
1678025318.155,-47.852,-46.387,-29.297,-32.227,-41.504
1678025318.159,-19.531,-46.875,-35.156,-12.695,346.191
1678025318.162,-19.531,-43.457,-30.762,-6.348,252.441
1678025318.166,-39.062,-40.039,-28.809,4.395,-137.695
1678025318.170,-40.527,-45.898,-32.227,24.414,-88.867
1678025318.174,-49.316,-53.223,-35.645,26.855,-83.496
1678025318.178,-47.852,-46.875,-35.156,9.766,-138.184
1678025318.178,-42.969,-44.922,-31.738,8.301,-69.336
1678025318.182,-58.105,-48.340,-32.227,12.207,-34.180
1678025318.186,-63.477,-50.293,-38.574,1.953,-94.238
1678025318.190,-49.805,-48.340,-41.504,-1.953,-123.047
1678025318.194,-37.598,-39.062,-35.156,-0.488,-109.375
1678025318.198,-44.922,-35.156,-37.109,11.230,15.137
1678025318.202,-64.941,-40.039,-42.480,6.348,93.262
1678025318.205,-62.012,-41.016,-42.969,-14.648,-43.457
1678025318.209,-44.922,-37.109,-46.875,-21.484,18.066
1678025318.213,-47.852,-39.062,-43.945,-3.906,157.227
1678025318.217,-52.734,-40.039,-43.457,13.184,167.480
1678025318.221,-61.035,-37.598,-48.828,16.113,-92.773
1678025318.239,-70.312,-34.180,-48.340,14.648,-112.793
1678025318.243,-57.129,-28.320,-47.363,7.324,-19.531
1678025318.247,-34.180,-22.949,-51.758,6.836,-112.793
1678025318.251,-23.438,-20.996,-50.293,4.395,-177.734
1678025318.255,-41.504,-25.391,-50.781,3.418,-185.059
1678025318.259,-53.223,-29.297,-57.129,15.137,-44.434
1678025318.263,-34.668,-25.391,-54.199,24.414,6.348
1678025318.266,-14.160,-25.391,-49.316,14.160,-156.250
1678025318.270,-18.066,-34.180,-50.293,13.184,-127.441
1678025318.274,-41.016,-35.645,-54.688,29.785,196.777
1678025318.278,-59.570,-31.250,-56.152,20.508,71.777
1678025318.282,-55.176,-31.250,-52.734,9.277,-164.551
1678025318.283,-36.133,-32.715,-56.641,6.836,-105.469
1678025318.287,-32.715,-28.809,-58.594,5.859,-139.160
1678025318.291,-58.105,-33.691,-60.059,-0.977,-154.297
1678025318.295,-65.430,-36.621,-58.105,-5.859,-167.969
1678025318.299,-56.152,-33.691,-54.688,-3.418,-132.324
1678025318.303,-49.316,-39.062,-57.617,-8.301,-53.223
1678025318.307,-34.668,-38.086,-57.617,-12.695,-73.730
1678025318.310,-43.945,-34.180,-56.641,-1.465,-104.492
1678025318.314,-57.129,-32.227,-58.105,9.766,51.270
1678025318.318,-49.805,-25.879,-62.500,11.719,300.293
1678025318.322,-37.109,-32.227,-69.824,-10.254,-1.465
1678025318.326,-28.320,-33.691,-73.242,-44.922,-188.965
1678025318.345,-37.598,-28.320,-72.266,-83.008,46.875
1678025318.349,-44.434,-29.785,-75.684,-141.602,-65.430
1678025318.353,-40.039,-26.855,-75.195,-180.664,-249.023
1678025318.357,-26.855,-25.391,-68.848,-166.016,-144.043
1678025318.361,-14.160,-26.367,-71.777,-167.969,-80.566
1678025318.365,-25.879,-26.855,-80.078,-197.266,-49.805
1678025318.369,-36.621,-28.320,-80.078,-214.844,-23.926
1678025318.372,-22.461,-27.832,-73.730,-212.402,8.301
1678025318.376,-2.441,-29.297,-69.824,-211.914,216.797
1678025318.380,5.371,-31.738,-73.242,-237.793,35.645
1678025318.384,-7.812,-31.250,-74.707,-241.211,-253.906
1678025318.388,-30.273,-33.203,-77.148,-223.633,-128.418
1678025318.388,-35.645,-34.668,-83.496,-222.168,-20.020
1678025318.392,-39.062,-36.133,-79.102,-216.797,-111.816
1678025318.396,-34.668,-35.156,-80.078,-203.613,-136.719
1678025318.400,-32.715,-32.715,-84.473,-186.523,-62.012
1678025318.404,-41.992,-26.367,-82.520,-166.992,-20.996
1678025318.408,-44.922,-24.414,-83.496,-154.785,-19.043
1678025318.412,-39.551,-31.250,-84.473,-155.273,-54.688
1678025318.415,-22.949,-32.715,-82.520,-163.574,-5.371
1678025318.419,-23.926,-25.391,-81.543,-173.340,7.812
1678025318.423,-39.551,-26.367,-77.637,-207.031,-115.723
1678025318.427,-40.527,-27.344,-76.660,-254.883,-119.629
1678025318.431,-39.062,-29.297,-79.590,-285.645,133.789
1678025318.420,-44.922,-30.762,-82.031,-313.477,355.957
1678025318.424,-38.574,-25.391,-82.520,-334.961,42.969
1678025318.428,-41.016,-21.484,-80.078,-329.590,-155.273
1678025318.432,-45.898,-26.367,-85.938,-328.125,-84.961
1678025318.436,-29.297,-29.785,-85.938,-314.453,-57.129
1678025318.440,6.348,-27.832,-80.566,-280.762,-51.270
1678025318.444,19.043,-26.855,-78.613,-258.789,-4.395
1678025318.447,6.836,-24.414,-75.195,-236.816,97.656
1678025318.451,3.418,-21.973,-75.195,-209.473,-43.457
1678025318.455,-4.395,-23.926,-79.102,-198.730,-249.512
1678025318.459,-3.418,-26.855,-79.102,-177.734,-187.988
1678025318.463,0.000,-26.367,-75.684,-143.555,113.281
1678025318.463,-22.949,-29.785,-79.590,-124.512,-0.977
1678025318.467,-45.410,-31.738,-83.496,-101.074,-143.555
1678025318.471,-26.855,-28.320,-86.914,-80.566,-75.684
1678025318.475,-6.836,-25.879,-89.355,-89.355,-95.703
1678025318.479,-2.930,-24.902,-89.355,-105.469,-113.770
1678025318.483,-21.484,-21.484,-90.820,-123.535,-67.871
1678025318.487,-44.922,-25.391,-90.332,-137.695,62.012
1678025318.490,-54.688,-28.320,-101.562,-136.719,254.395
1678025318.494,-57.617,-23.926,-111.328,-174.316,174.316
1678025318.498,-58.594,-25.879,-105.957,-227.539,-75.195
1678025318.502,-73.242,-16.602,-111.328,-263.672,-5.859
1678025318.506,-104.980,-8.301,-114.258,-279.297,18.555
1678025318.523,-133.301,-15.137,-127.441,-312.012,-112.305
1678025318.527,-130.371,-13.672,-151.367,-360.352,-75.684
1678025318.531,-125.977,-3.906,-164.551,-393.555,-89.355
1678025318.535,-182.617,-0.488,-174.805,-439.941,-194.824
1678025318.539,-252.930,-2.930,-186.035,-477.051,-228.027
1678025318.543,-277.344,-5.371,-191.406,-486.816,-35.645
1678025318.547,-277.344,-4.395,-195.801,-504.883,256.348
1678025318.550,-263.184,-0.488,-203.125,-511.230,3.906
1678025318.554,-268.555,-0.488,-208.008,-512.207,-218.750
1678025318.558,-289.551,0.000,-215.820,-511.719,-22.949
1678025318.562,-275.879,1.465,-217.285,-477.539,57.617
1678025318.566,-244.141,-1.465,-210.449,-445.312,-90.820
1678025318.553,-232.910,-2.441,-209.473,-436.035,-167.480
1678025318.557,-233.887,-3.418,-209.961,-421.875,-107.910
1678025318.561,-218.262,-3.418,-211.914,-388.672,-88.379
1678025318.565,-191.406,-4.395,-211.914,-356.934,-186.035
1678025318.569,-167.480,-5.371,-208.496,-333.008,-207.520
1678025318.573,-151.367,-4.883,-203.613,-298.340,0.000
1678025318.577,-151.367,-9.277,-198.242,-259.277,119.629
1678025318.580,-140.625,-12.695,-195.312,-233.398,6.836
1678025318.584,-123.047,-13.672,-192.871,-207.520,-94.238
1678025318.588,-104.492,-17.090,-187.988,-184.082,45.410
1678025318.592,-76.172,-21.973,-178.711,-166.992,186.035
1678025318.596,-56.152,-24.902,-169.434,-161.133,-2.930
1678025318.614,-55.664,-28.320,-161.133,-157.227,-113.281
1678025318.618,-52.734,-28.320,-150.879,-141.113,20.020
1678025318.622,-36.133,-29.297,-145.508,-130.371,10.254
1678025318.626,-18.555,-33.691,-142.578,-138.672,-134.766
1678025318.630,-1.465,-38.086,-137.695,-141.113,-145.508
1678025318.634,-6.348,-37.109,-132.812,-123.047,31.250
1678025318.638,-13.672,-35.645,-127.441,-96.680,67.871
1678025318.641,-7.324,-41.504,-122.070,-81.543,-113.281
1678025318.645,-0.977,-46.875,-119.141,-71.289,-114.746
1678025318.649,15.625,-41.504,-108.887,-47.852,146.973
1678025318.653,4.883,-42.480,-101.562,-57.129,17.090
1678025318.657,-9.766,-49.316,-96.191,-37.598,-157.715
1678025318.658,6.348,-46.875,-87.891,-11.230,-109.863
1678025318.662,21.973,-44.434,-84.961,-16.113,-50.781
1678025318.666,36.621,-45.410,-81.055,-7.324,-82.031
1678025318.670,32.715,-45.410,-72.266,-3.418,-167.480
1678025318.674,14.648,-50.293,-65.430,7.812,-65.430
1678025318.678,15.625,-54.688,-62.500,22.461,47.363
1678025318.682,27.344,-53.711,-59.082,42.480,40.527
1678025318.685,36.133,-53.711,-53.711,61.523,-1.465
1678025318.689,36.133,-51.758,-46.387,78.125,104.980
1678025318.693,21.484,-51.270,-42.480,91.309,238.281
1678025318.697,33.203,-50.293,-40.527,96.680,-38.086
1678025318.701,54.688,-47.363,-31.738,104.492,-152.832
1678025318.705,55.664,-49.316,-26.367,124.023,62.500
1678025318.709,40.527,-50.781,-25.879,131.348,-5.859
1678025318.713,30.762,-48.828,-21.973,133.789,-145.996
1678025318.717,43.457,-50.293,-20.508,146.973,12.207
1678025318.721,57.129,-49.805,-21.973,154.785,40.039
1678025318.725,57.617,-46.875,-19.531,165.527,-11.230
1678025318.729,38.574,-51.270,-20.996,174.316,-8.301
1678025318.732,21.484,-44.434,-21.973,179.199,-58.105
1678025318.736,25.879,-39.551,-19.531,181.152,193.359
1678025318.740,41.992,-44.434,-22.949,160.645,144.043
1678025318.744,47.852,-46.387,-24.414,142.090,-141.602
1678025318.748,34.180,-47.852,-23.926,141.113,-109.375
1678025318.748,13.184,-43.457,-24.414,147.461,-105.469
1678025318.752,1.953,-39.062,-20.996,149.414,-140.137
1678025318.756,7.812,-39.062,-19.043,156.738,-124.512
1678025318.760,26.855,-35.156,-20.508,151.367,-153.320
1678025318.764,21.973,-34.668,-22.461,140.625,-142.090
1678025318.768,-7.324,-35.156,-21.973,138.672,13.184
1678025318.772,-9.766,-36.621,-21.973,131.348,43.945
1678025318.775,5.371,-36.621,-19.531,130.371,131.836
1678025318.779,10.742,-36.133,-16.113,106.934,461.426
1678025318.783,4.883,-36.133,-16.602,59.570,162.598
1678025318.787,-6.348,-38.574,-18.555,42.480,-193.359
1678025318.791,-9.766,-36.133,-19.531,37.109,-75.684
1678025318.810,-13.672,-31.738,-20.020,-3.418,-88.867
1678025318.814,-7.324,-29.785,-17.090,-39.551,-206.543
1678025318.818,-1.465,-29.785,-12.695,-66.895,-202.637
1678025318.822,-14.160,-34.668,-11.230,-93.262,-81.543
1678025318.826,-17.578,-34.180,-9.766,-104.980,-92.773
1678025318.830,-5.371,-31.250,-6.348,-125.977,-76.172
1678025318.834,0.000,-32.227,-3.906,-151.855,41.504
1678025318.837,10.254,-29.785,-1.465,-140.625,229.980
1678025318.841,-5.859,-31.738,0.000,-147.949,72.754
1678025318.845,-23.438,-32.715,0.977,-177.734,-200.684
1678025318.849,-13.184,-36.621,-1.953,-192.383,-98.145
1678025318.853,1.953,-34.668,-4.883,-199.219,-6.348
1678025318.838,8.789,-33.203,-5.859,-207.031,-133.301
1678025318.842,-6.836,-34.668,-7.324,-218.750,-161.133
1678025318.846,-25.879,-27.832,-4.395,-195.312,-159.668
1678025318.850,-30.273,-28.320,-4.883,-170.410,-155.762
1678025318.854,-11.230,-29.297,-7.324,-190.430,-187.988
1678025318.858,12.695,-27.344,-12.207,-238.281,-171.387
1678025318.862,1.953,-28.320,-17.090,-255.371,22.461
1678025318.865,-36.621,-30.273,-21.484,-259.277,107.910
1678025318.869,-29.785,-26.855,-22.949,-244.629,-56.152
1678025318.873,-11.230,-26.855,-23.438,-211.914,-188.965
1678025318.877,-3.418,-31.250,-21.973,-196.777,22.949
1678025318.881,-17.090,-31.738,-19.531,-215.820,380.859
1678025318.885,-33.691,-28.320,-20.996,-246.094,97.656
1678025318.889,-26.367,-25.391,-17.090,-261.230,-172.363
1678025318.893,-7.324,-28.320,-20.020,-263.672,-105.957
1678025318.897,-10.742,-30.762,-23.438,-257.812,-177.734
1678025318.901,-32.715,-31.738,-22.949,-247.559,-229.980
1678025318.905,-52.246,-36.133,-23.438,-243.652,-66.406
1678025318.909,-46.875,-36.621,-26.367,-242.188,218.262
1678025318.912,-20.996,-31.738,-26.367,-237.793,72.754
1678025318.916,-1.465,-30.762,-23.926,-232.910,-135.742
1678025318.920,-5.859,-31.738,-22.949,-227.539,-164.551
1678025318.924,-25.879,-37.598,-28.320,-258.301,-145.508
1678025318.928,-23.926,-33.691,-33.203,-289.062,-114.258
1678025318.929,-15.137,-24.414,-36.133,-312.500,-148.926
1678025318.933,1.465,-22.949,-42.969,-338.379,-48.828
1678025318.937,-1.465,-20.020,-41.992,-358.887,19.043
1678025318.941,-29.785,-20.996,-41.016,-364.258,-124.023
1678025318.945,-46.875,-26.367,-41.016,-352.539,-127.930
1678025318.949,-44.434,-25.391,-43.945,-334.473,19.043
1678025318.953,-30.273,-24.902,-46.387,-333.008,159.180
1678025318.956,-25.391,-26.855,-46.387,-350.586,62.012
1678025318.960,-42.480,-32.227,-48.828,-364.746,-78.613
1678025318.964,-52.734,-33.203,-48.828,-365.723,25.879
1678025318.968,-46.387,-33.203,-46.875,-371.094,82.520
1678025318.972,-33.203,-30.273,-51.758,-374.512,-106.445
1678025318.990,-28.320,-28.809,-52.246,-369.141,-118.652
1678025318.994,-41.016,-28.809,-53.223,-360.352,-27.832
1678025318.998,-41.504,-29.297,-56.152,-311.035,-13.184
1678025319.002,-28.809,-32.715,-56.152,-255.859,-18.555
1678025319.006,-18.555,-29.785,-55.664,-245.605,10.742
1678025319.010,-17.090,-25.879,-55.664,-237.305,210.938
1678025319.014,-34.180,-26.367,-58.594,-213.379,90.332
1678025319.017,-41.992,-32.715,-65.430,-196.777,-143.066
1678025319.021,-19.043,-31.250,-66.895,-151.367,-74.707
1678025319.025,-8.301,-30.762,-68.359,-104.004,98.145
1678025319.029,-13.184,-37.598,-69.824,-76.660,-20.508
1678025319.033,-29.785,-34.180,-66.406,-42.480,-69.336
1678025319.033,-55.176,-36.621,-68.848,7.324,-38.086
1678025319.037,-57.129,-39.062,-70.801,58.594,-39.551
1678025319.041,-38.086,-40.527,-75.684,86.426,-11.230
1678025319.045,-28.320,-41.992,-79.102,98.145,-92.773
1678025319.049,-34.180,-39.551,-78.125,115.234,-92.285
1678025319.053,-49.805,-41.992,-75.195,104.980,-14.160
1678025319.057,-42.480,-39.062,-74.219,82.520,27.344
1678025319.060,-29.785,-39.062,-76.660,46.875,5.371
1678025319.064,-22.949,-40.527,-78.125,16.113,82.520
1678025319.068,-20.996,-33.691,-76.172,3.418,327.637
1678025319.072,-46.875,-30.762,-76.660,-23.926,98.633
1678025319.076,-64.941,-27.344,-74.707,-51.758,-176.758
1678025319.080,-48.340,-24.414,-73.242,-83.008,-75.195
1678025319.084,-35.156,-24.902,-68.848,-115.234,-133.301
1678025319.088,-37.598,-26.367,-69.336,-148.438,-136.719
1678025319.092,-45.410,-26.367,-69.824,-160.645,-97.168
1678025319.096,-41.016,-30.273,-67.871,-154.785,-72.754
1678025319.100,-29.785,-32.227,-67.871,-166.504,-19.043
1678025319.104,-19.043,-27.832,-70.801,-182.129,-42.480
1678025319.107,-17.578,-23.438,-72.754,-169.434,-84.961
1678025319.111,-42.969,-26.367,-74.219,-156.250,148.438
1678025319.115,-49.805,-28.320,-71.777,-164.551,90.332
1678025319.119,-45.898,-30.273,-72.754,-176.270,-203.125
1678025319.123,-32.715,-32.715,-75.195,-183.105,-160.645
1678025319.123,-22.461,-33.203,-72.754,-187.012,27.832
1678025319.127,-40.039,-35.156,-70.312,-193.359,-81.543
1678025319.131,-49.316,-33.691,-67.383,-184.570,-142.578
1678025319.135,-51.758,-31.250,-71.289,-178.223,-67.871
1678025319.139,-41.504,-24.902,-67.871,-168.945,-68.848
1678025319.143,-42.969,-29.785,-64.453,-131.348,-57.129
1678025319.147,-63.965,-35.156,-64.453,-59.570,-27.344
1678025319.150,-54.688,-28.320,-60.059,34.180,182.129
1678025319.154,-42.480,-27.832,-62.012,104.004,416.992
1678025319.158,-21.484,-27.832,-63.477,121.094,156.250
1678025319.162,0.977,-22.461,-64.941,152.344,-21.484
1678025319.166,-12.695,-18.555,-65.430,207.031,65.918
1678025319.184,-22.949,-20.020,-64.941,224.121,-47.852
1678025319.188,-14.648,-13.672,-63.965,234.863,-196.289
1678025319.192,-4.395,-11.719,-63.965,255.859,-116.211
1678025319.196,-8.789,-20.020,-67.871,259.766,-28.809
1678025319.200,-32.715,-24.902,-71.289,268.066,-122.559
1678025319.204,-51.270,-25.391,-65.430,291.016,-146.973
1678025319.208,-47.363,-26.367,-64.941,305.176,4.883
1678025319.211,-32.227,-24.414,-69.336,314.453,231.934
1678025319.215,-25.879,-19.043,-64.941,313.965,76.172
1678025319.219,-34.180,-18.066,-63.965,311.035,-130.859
1678025319.223,-40.527,-15.625,-65.918,315.430,-77.148
1678025319.227,-29.297,-17.090,-66.406,305.664,-47.363
1678025319.214,-21.484,-24.414,-69.824,301.270,-20.996
1678025319.218,-26.367,-24.414,-70.801,306.152,-21.484
1678025319.222,-26.855,-18.555,-68.359,306.152,-87.402
1678025319.226,-35.645,-16.113,-70.801,301.270,4.395
1678025319.230,-39.551,-14.160,-74.219,295.410,-23.438
1678025319.234,-22.461,-11.230,-73.730,290.039,-127.930
1678025319.238,-15.625,-13.184,-72.754,277.344,-3.418
1678025319.241,-25.391,-19.043,-79.102,256.836,135.742
1678025319.245,-37.598,-19.043,-81.055,239.746,-18.066
1678025319.249,-43.457,-19.531,-80.566,208.984,-175.781
1678025319.253,-35.156,-27.832,-83.984,178.223,44.922
1678025319.257,-25.391,-31.738,-83.496,159.180,247.559
1678025319.273,-24.414,-31.250,-83.496,124.512,-59.570
1678025319.277,-42.480,-32.227,-86.426,75.195,-155.273
1678025319.281,-60.059,-33.691,-86.426,43.945,-32.227
1678025319.285,-36.133,-30.762,-82.031,30.762,-51.270
1678025319.289,-17.090,-30.273,-80.566,-8.789,-142.090
1678025319.293,-23.438,-31.250,-82.520,-59.570,-39.551
1678025319.297,-22.949,-28.809,-83.496,-80.078,340.820
1678025319.300,-39.062,-28.320,-83.008,-88.379,263.672
1678025319.304,-41.504,-27.832,-79.590,-113.770,-121.582
1678025319.308,-14.160,-30.762,-83.008,-138.184,-157.715
1678025319.312,-5.371,-24.902,-86.426,-145.020,-93.750
1678025319.316,-23.926,-21.484,-82.520,-144.531,-102.539
1678025319.303,-49.805,-23.438,-77.148,-158.691,-92.285
1678025319.307,-44.922,-17.090,-78.125,-162.109,-56.641
1678025319.311,-27.344,-17.090,-80.566,-164.551,-87.891
1678025319.315,-27.344,-20.996,-80.566,-158.203,-98.633
1678025319.319,-39.551,-24.902,-82.031,-140.137,-107.422
1678025319.323,-41.504,-28.809,-74.219,-128.418,25.391
1678025319.327,-33.691,-24.902,-67.871,-113.770,132.812
1678025319.330,-20.508,-24.902,-68.848,-104.004,-27.344
1678025319.334,-11.230,-32.227,-69.824,-97.168,-86.914
1678025319.338,-32.715,-35.156,-70.312,-88.867,57.617
1678025319.342,-48.340,-32.227,-67.383,-81.543,115.234
1678025319.346,-33.691,-31.250,-62.500,-81.543,-41.016
1678025319.364,-10.742,-30.762,-62.988,-75.684,-142.090
1678025319.368,-0.977,-28.809,-66.406,-55.664,60.059
1678025319.372,-15.625,-29.785,-59.082,-47.852,70.801
1678025319.376,-35.645,-34.180,-52.734,-39.551,-126.953
1678025319.380,-34.180,-33.203,-51.758,-4.883,-109.375
1678025319.384,-17.578,-31.250,-46.875,21.973,33.203
1678025319.388,-3.906,-33.203,-44.922,39.551,-5.371
1678025319.391,-8.301,-31.250,-44.434,63.477,-149.414
1678025319.395,-24.902,-32.227,-45.898,74.707,-68.848
1678025319.399,-29.297,-33.203,-49.316,93.262,192.871
1678025319.403,-27.832,-36.133,-52.734,104.980,86.426
1678025319.407,-17.090,-37.598,-55.176,101.562,-150.391
1678025319.409,-12.695,-35.645,-53.223,110.840,-157.227
1678025319.413,-35.156,-35.645,-53.711,123.535,-114.258
1678025319.417,-41.016,-34.668,-57.129,128.906,-104.980
1678025319.421,-26.367,-34.668,-58.105,122.070,-138.672
1678025319.425,-22.461,-33.691,-56.641,116.211,-75.684
1678025319.429,-15.137,-36.621,-56.641,116.699,-48.340
1678025319.433,-26.855,-35.645,-56.152,137.207,-50.293
1678025319.436,-41.992,-36.621,-61.035,159.668,44.434
1678025319.440,-32.227,-35.156,-58.105,168.945,155.762
1678025319.444,-33.691,-36.133,-56.641,180.176,203.125
1678025319.448,-42.969,-40.527,-63.477,187.500,-68.848
1678025319.452,-47.363,-40.039,-64.941,190.430,-223.145
1678025319.455,-51.270,-39.062,-62.012,184.082,-80.078
1678025319.459,-38.574,-37.598,-65.918,172.363,-101.562
1678025319.463,-21.484,-38.086,-65.430,177.734,-189.453
1678025319.467,-20.020,-35.156,-62.988,174.805,-178.711
1678025319.471,-52.734,-27.832,-64.941,175.781,107.910
1678025319.475,-64.453,-28.320,-66.895,178.223,179.199
1678025319.479,-42.969,-29.785,-66.895,167.480,-90.820
1678025319.482,-36.621,-26.855,-61.035,156.738,-210.449
1678025319.486,-36.621,-30.273,-59.570,157.715,84.961
1678025319.490,-38.086,-30.273,-60.059,155.273,144.043
1678025319.494,-41.016,-28.809,-61.523,139.648,-115.234
1678025319.498,-34.668,-26.855,-61.035,130.859,-103.516
1678025319.498,-23.926,-27.344,-59.570,122.559,-1.465
1678025319.502,-17.090,-25.391,-56.641,119.629,-85.938
1678025319.506,-25.879,-24.414,-54.688,122.559,-194.336
1678025319.510,-27.832,-28.320,-50.781,117.188,-97.656
1678025319.514,-25.391,-27.832,-50.781,108.398,4.883
1678025319.518,-6.836,-25.391,-54.199,93.262,-45.898
1678025319.522,-3.418,-27.832,-50.781,83.496,-48.340
1678025319.525,-30.273,-30.273,-48.340,88.867,127.441
1678025319.529,-41.992,-29.785,-49.805,96.680,322.754
1678025319.533,-21.484,-30.762,-52.734,74.707,-0.977
1678025319.537,10.254,-33.691,-55.176,61.523,-275.879
1678025319.541,7.812,-32.227,-52.246,68.359,-160.645
1678025319.546,-9.277,-32.227,-48.828,72.266,-135.742
1678025319.550,-22.949,-31.250,-52.246,73.730,-182.617
1678025319.554,-29.785,-27.832,-53.711,75.195,-82.520
1678025319.558,-20.996,-30.762,-49.805,73.730,97.656
1678025319.562,-14.648,-29.785,-54.688,51.758,-69.336
1678025319.566,-19.043,-28.809,-56.641,54.199,-205.566
1678025319.570,-38.574,-28.809,-56.152,58.105,-75.195
1678025319.573,-44.922,-29.297,-62.500,56.152,148.926
1678025319.577,-29.785,-28.809,-61.035,51.270,-18.066
1678025319.581,-27.832,-30.273,-56.152,29.297,-237.793
1678025319.585,-35.156,-28.809,-54.199,17.090,-170.410
1678025319.589,-47.852,-26.855,-53.711,11.230,-155.273
1678025319.588,-53.711,-27.832,-51.270,14.160,-203.125
1678025319.592,-36.133,-26.367,-47.852,8.789,-196.289
1678025319.596,-20.996,-29.785,-45.898,5.371,-171.875
1678025319.600,-45.898,-31.738,-46.875,7.812,-142.090
1678025319.604,-82.520,-35.645,-45.898,14.648,-127.930
1678025319.608,-86.914,-35.645,-42.969,12.207,-93.750
