timestamps,TP9,AF7,AF8,TP10,Right AUX
1678025150.462,-15.137,-23.926,-32.227,-38.086,-104.004
1678025150.466,-30.762,-27.344,-37.598,-39.062,-77.637
1678025150.470,-29.297,-31.738,-33.203,-35.156,-111.328
1678025150.474,-24.414,-31.738,-24.902,-28.320,-115.723
1678025150.478,-16.113,-29.297,-22.461,-34.180,-90.332
1678025150.482,-25.879,-32.715,-22.461,-44.434,-57.129
1678025150.486,-37.109,-32.715,-21.484,-35.645,11.230
1678025150.489,-37.598,-31.250,-21.484,-32.227,-39.551
1678025150.493,-33.691,-32.227,-25.391,-31.250,108.887
1678025150.497,-23.926,-29.785,-26.367,-32.715,223.145
1678025150.501,-18.066,-31.738,-27.344,-44.434,-79.102
1678025150.505,-33.691,-27.832,-31.738,-48.828,-117.188
1678025150.521,-49.316,-24.414,-34.668,-53.711,97.656
1678025150.525,-41.504,-26.855,-37.109,-58.594,39.551
1678025150.529,-31.250,-31.250,-40.527,-66.895,-114.258
1678025150.533,-24.414,-31.250,-37.598,-74.219,-177.246
1678025150.537,-33.203,-33.203,-39.551,-67.383,-184.082
1678025150.541,-53.711,-40.039,-39.551,-42.969,-27.832
1678025150.545,-49.316,-37.598,-38.574,-34.668,11.719
1678025150.548,-29.785,-32.715,-41.016,-37.109,-74.707
1678025150.552,-31.250,-34.180,-43.457,-40.039,151.855
1678025150.556,-37.598,-30.762,-41.016,-44.922,54.199
1678025150.560,-44.434,-30.273,-38.574,-30.762,-124.512
1678025150.564,-40.039,-35.156,-41.016,-23.438,22.461
1678025150.552,-27.344,-36.621,-42.480,-28.809,27.832
1678025150.556,-20.996,-36.133,-46.875,-36.133,-97.168
1678025150.560,-33.691,-34.180,-47.363,-36.621,-164.062
1678025150.564,-59.082,-35.645,-47.852,-19.043,-82.031
1678025150.568,-59.082,-36.621,-46.875,-15.625,-47.852
1678025150.572,-47.852,-37.598,-52.734,-30.273,-79.590
1678025150.576,-44.434,-38.086,-54.199,-33.203,-65.918
1678025150.579,-42.969,-36.621,-50.781,-29.785,-0.977
1678025150.583,-53.223,-39.551,-52.734,-24.414,-91.797
1678025150.587,-65.430,-47.363,-54.199,-21.973,-196.777
1678025150.591,-55.664,-48.828,-62.500,-22.461,-125.977
1678025150.595,-42.480,-46.875,-64.941,-31.738,107.422
1678025150.598,-54.199,-44.922,-60.547,-44.922,36.621
1678025150.602,-75.684,-43.945,-60.059,-33.691,-86.426
1678025150.606,-80.078,-42.969,-59.082,-22.949,-55.176
1678025150.610,-62.988,-40.527,-59.082,-27.344,184.082
1678025150.614,-55.176,-42.480,-62.012,-33.203,151.855
1678025150.618,-56.641,-43.457,-60.547,-42.480,-52.246
1678025150.622,-67.383,-47.363,-60.547,-39.551,22.949
1678025150.625,-79.102,-48.340,-67.383,-28.320,199.707
1678025150.629,-74.219,-45.898,-66.895,-38.574,63.477
1678025150.633,-63.477,-47.363,-69.336,-55.176,-181.641
1678025150.637,-62.988,-49.805,-75.684,-65.918,-194.824
1678025150.641,-79.102,-48.340,-73.242,-62.988,-138.672
1678025150.641,-82.520,-43.457,-71.289,-52.246,-125.000
1678025150.645,-71.777,-40.039,-72.266,-61.035,-64.941
1678025150.649,-65.918,-40.039,-75.684,-66.895,-26.855
1678025150.653,-65.430,-43.457,-77.637,-63.965,-42.480
1678025150.657,-76.172,-43.457,-75.684,-62.988,-7.812
1678025150.661,-87.891,-40.527,-78.125,-58.594,20.020
1678025150.665,-77.637,-41.504,-77.148,-55.664,178.711
1678025150.668,-61.035,-41.992,-75.195,-60.547,270.508
1678025150.672,-54.199,-40.527,-75.684,-79.102,-131.836
1678025150.676,-61.035,-41.992,-73.242,-72.266,-258.789
1678025150.680,-72.266,-45.898,-75.684,-57.129,-110.840
1678025150.684,-64.453,-41.016,-71.777,-56.152,-110.840
1678025150.686,-46.875,-36.621,-67.383,-60.547,-216.797
1678025150.690,-45.410,-40.527,-68.848,-63.477,-261.230
1678025150.694,-66.406,-41.504,-69.336,-58.594,-54.688
1678025150.698,-89.355,-38.086,-71.777,-61.523,-62.012
1678025150.702,-83.008,-35.156,-67.383,-58.594,-151.367
1678025150.706,-64.453,-41.016,-72.754,-63.965,15.137
1678025150.710,-55.176,-41.992,-78.613,-67.871,171.875
1678025150.713,-61.523,-36.133,-71.289,-61.035,31.738
1678025150.717,-74.707,-33.691,-68.848,-50.781,-176.758
1678025150.721,-74.219,-33.203,-69.336,-48.828,-102.539
1678025150.725,-63.477,-26.367,-72.266,-45.410,142.578
1678025150.729,-48.340,-26.855,-72.754,-58.105,-64.453
1678025150.748,-41.992,-32.227,-74.219,-60.059,-233.398
1678025150.752,-63.477,-32.227,-81.055,-44.434,-145.996
1678025150.756,-65.430,-28.809,-81.055,-42.480,-96.191
1678025150.760,-43.457,-26.855,-83.984,-45.410,-131.348
1678025150.764,-35.645,-26.855,-90.820,-51.758,-164.551
1678025150.768,-42.969,-26.367,-96.680,-47.852,24.414
1678025150.772,-63.477,-20.508,-100.098,-35.645,34.180
1678025150.775,-70.312,-15.625,-101.074,-33.691,-96.191
1678025150.779,-57.129,-18.555,-95.703,-41.504,-23.926
1678025150.783,-42.480,-19.531,-90.820,-38.574,168.457
1678025150.787,-43.945,-20.020,-97.656,-41.992,174.805
1678025150.791,-59.082,-18.066,-103.516,-45.410,-109.375
1678025150.794,-63.477,-18.555,-102.051,-33.691,-120.605
1678025150.798,-58.105,-21.973,-103.516,-29.785,84.473
1678025150.802,-45.898,-22.461,-106.445,-40.527,-36.621
1678025150.806,-40.039,-20.020,-108.887,-55.176,-176.270
1678025150.810,-58.105,-21.484,-111.328,-50.293,-102.539
1678025150.814,-71.289,-22.949,-117.676,-53.223,13.672
1678025150.818,-62.012,-23.438,-122.559,-59.082,62.500
1678025150.821,-48.828,-23.926,-123.047,-72.754,-132.324
1678025150.825,-41.016,-22.461,-125.000,-66.895,-197.266
1678025150.829,-45.898,-18.066,-125.000,-31.250,135.742
1678025150.833,-56.152,-14.160,-120.605,-29.297,132.812
1678025150.837,-47.852,-7.812,-119.629,-39.062,-132.324
1678025150.837,-25.391,-11.230,-126.953,-39.551,-152.344
1678025150.841,-11.719,-11.719,-130.371,-51.270,-100.098
1678025150.845,-15.625,-1.953,-126.953,-47.852,-185.059
1678025150.849,-21.973,-2.930,-128.418,-38.086,-133.789
1678025150.853,-21.484,-9.766,-132.324,-36.133,-17.090
1678025150.857,-19.531,-17.578,-134.766,-41.992,44.434
1678025150.861,-20.508,-14.160,-137.695,-51.758,20.020
1678025150.864,-38.574,-10.742,-136.230,-40.039,-67.871
1678025150.868,-65.430,-13.672,-141.113,-24.902,109.375
1678025150.872,-59.082,-10.254,-150.391,-29.297,101.074
1678025150.876,-16.602,-6.348,-142.090,-19.043,-161.621
1678025150.880,-4.395,-10.742,-130.371,-15.625,-83.008
1678025150.884,-39.551,-22.949,-129.883,-24.902,72.266
1678025150.888,-60.547,-23.438,-127.441,-19.043,28.809
1678025150.892,-62.012,-18.555,-126.465,-25.879,-114.746
1678025150.896,-58.105,-24.414,-125.000,-34.668,-86.426
1678025150.900,-58.594,-27.832,-125.488,-38.574,8.789
1678025150.904,-78.125,-34.180,-124.512,-46.387,-14.160
1678025150.908,-96.680,-39.551,-121.582,-39.062,-42.480
1678025150.911,-100.586,-38.086,-126.465,-35.645,-21.484
1678025150.915,-95.703,-43.457,-126.953,-37.109,187.012
1678025150.919,-90.332,-44.922,-129.883,-43.457,23.926
1678025150.923,-92.773,-41.504,-126.953,-32.715,-150.879
1678025150.927,-110.840,-46.875,-122.559,-31.250,-129.883
1678025150.926,-112.793,-51.758,-125.977,-41.504,-146.973
1678025150.930,-99.121,-46.875,-122.070,-36.133,-117.676
1678025150.934,-94.727,-50.293,-119.629,-46.875,-138.672
1678025150.938,-102.539,-52.246,-121.582,-52.734,-29.297
1678025150.942,-113.770,-52.246,-116.699,-42.969,-10.742
1678025150.946,-122.559,-58.594,-114.258,-45.410,-26.855
1678025150.950,-118.164,-63.477,-113.281,-53.223,-13.184
1678025150.953,-100.098,-62.012,-115.234,-64.453,42.969
1678025150.957,-98.633,-65.430,-114.258,-67.871,131.348
1678025150.961,-107.910,-73.730,-107.422,-63.477,-108.398
1678025150.965,-111.328,-75.684,-99.609,-42.969,-132.812
1678025150.969,-110.352,-75.195,-100.586,-40.527,115.234
1678025150.971,-105.957,-74.219,-106.934,-53.711,-17.578
1678025150.975,-114.746,-74.707,-107.910,-51.270,-211.426
1678025150.979,-130.859,-79.102,-106.934,-42.480,-92.285
1678025150.983,-141.113,-77.148,-107.422,-34.180,0.977
1678025150.987,-128.906,-73.730,-109.863,-34.180,-21.484
1678025150.991,-110.352,-74.219,-110.352,-38.574,-19.043
1678025150.995,-109.863,-72.266,-114.746,-53.223,-43.945
1678025150.998,-115.234,-63.477,-117.676,-36.621,250.488
1678025151.002,-114.258,-60.059,-119.629,-24.414,177.734
1678025151.006,-101.074,-60.547,-121.094,-41.992,-151.855
1678025151.010,-78.125,-55.664,-119.141,-47.363,-140.625
1678025151.014,-65.918,-54.199,-125.488,-53.711,-131.348
1678025151.016,-70.312,-44.922,-131.836,-57.617,-150.879
1678025151.020,-74.707,-41.504,-132.812,-51.270,-144.043
1678025151.024,-67.383,-43.945,-135.254,-50.781,-107.422
1678025151.028,-44.922,-37.109,-135.254,-58.594,-90.820
1678025151.032,-29.785,-34.180,-132.812,-58.105,-176.758
1678025151.036,-37.109,-35.645,-131.836,-51.758,-112.793
1678025151.040,-42.969,-34.668,-126.465,-30.762,201.660
1678025151.043,-38.574,-35.645,-131.348,-19.531,207.520
1678025151.047,-26.855,-33.203,-137.695,-34.668,-115.723
1678025151.051,-20.996,-28.809,-132.324,-35.645,-121.582
1678025151.055,-29.297,-31.738,-127.930,-19.043,99.609
1678025151.059,-36.133,-34.668,-124.512,-14.648,58.594
1678025151.061,-35.156,-35.156,-122.559,-12.207,-120.117
1678025151.065,-29.297,-35.645,-125.977,-6.348,-112.793
1678025151.069,-29.297,-34.668,-121.094,-15.625,67.871
1678025151.073,-28.320,-35.156,-118.164,-19.531,-14.160
1678025151.077,-31.250,-33.203,-119.629,-18.066,-166.992
1678025151.081,-31.738,-30.762,-115.723,-8.301,-39.062
1678025151.085,-22.461,-28.320,-114.258,-2.930,160.645
1678025151.088,-13.672,-29.785,-115.234,-9.766,-58.594
1678025151.092,-11.719,-28.320,-111.328,-6.348,-221.680
1678025151.096,-18.555,-27.344,-114.746,-7.324,-197.754
1678025151.100,-13.184,-27.344,-117.676,-15.625,-40.039
1678025151.104,-8.789,-24.414,-116.211,-23.926,-27.832
1678025151.122,-7.812,-23.438,-116.211,-31.250,-156.738
1678025151.126,-13.184,-24.902,-116.211,-33.691,-82.520
1678025151.130,-21.973,-27.344,-114.258,-24.902,50.293
1678025151.134,-12.695,-20.508,-111.328,-10.254,-44.434
1678025151.138,-6.836,-18.066,-110.352,2.930,-50.293
1678025151.142,-6.348,-22.461,-106.445,2.441,72.754
1678025151.146,-9.766,-20.020,-101.562,3.418,57.617
1678025151.149,-18.066,-17.578,-98.145,10.742,-58.594
1678025151.153,-16.602,-16.113,-95.703,14.160,-66.895
1678025151.157,-12.207,-11.230,-94.727,19.043,47.363
1678025151.161,-1.953,-10.254,-90.332,7.812,-8.789
1678025151.165,4.883,-10.742,-90.332,-7.324,-76.172
1678025151.168,-5.859,-13.672,-94.727,-12.695,-5.371
1678025151.172,-15.625,-11.719,-93.262,9.766,200.195
1678025151.176,-4.883,-10.254,-93.750,15.625,338.379
1678025151.180,7.324,-11.230,-92.285,-14.648,-7.324
1678025151.184,9.766,-7.812,-87.402,-21.973,-168.457
1678025151.188,-8.301,-13.184,-86.426,-19.531,-32.227
1678025151.192,-20.020,-15.137,-86.426,-15.137,-26.855
1678025151.195,-9.277,-10.742,-87.402,-12.207,-104.980
1678025151.199,0.488,-11.719,-85.449,-17.578,-82.031
1678025151.203,1.465,-11.230,-85.449,-18.066,72.754
1678025151.207,-11.719,-9.766,-86.426,-21.484,-35.645
1678025151.211,-23.926,-11.230,-84.961,-26.855,-130.371
1678025151.213,-16.602,-11.719,-89.355,-32.227,-77.637
1678025151.217,-3.906,-13.672,-84.473,-31.738,-104.004
1678025151.221,-8.789,-13.672,-72.754,-31.738,-122.559
1678025151.225,-21.484,-13.184,-76.172,-36.621,-104.492
1678025151.229,-34.668,-16.113,-84.473,-27.832,57.129
1678025151.233,-27.832,-12.695,-84.961,-11.719,289.062
1678025151.237,-15.137,-7.812,-77.637,-21.484,98.633
1678025151.240,-18.066,-6.348,-74.219,-27.832,-108.887
1678025151.244,-21.973,-7.324,-77.148,-18.555,29.297
1678025151.248,-30.273,-9.766,-79.102,1.465,221.191
1678025151.252,-31.250,-10.254,-79.590,-10.254,-2.930
1678025151.256,-25.391,-12.695,-77.637,-24.902,-49.316
1678025151.256,-20.020,-10.742,-76.172,-20.020,95.703
1678025151.260,-19.043,-10.254,-76.660,-21.973,-39.551
1678025151.264,-28.809,-14.160,-73.730,-18.066,-174.316
1678025151.268,-25.391,-17.578,-73.730,-13.672,-123.047
1678025151.272,-15.625,-15.625,-74.219,-11.719,-62.012
1678025151.276,-15.137,-13.672,-73.242,-14.160,25.391
1678025151.280,-21.484,-15.137,-71.777,-22.461,31.250
1678025151.283,-26.367,-19.043,-70.801,-20.996,24.902
1678025151.287,-26.367,-16.113,-71.289,-13.672,281.738
1678025151.291,-22.461,-14.160,-67.871,-20.508,127.930
1678025151.295,-19.531,-21.484,-69.336,-28.320,-122.559
1678025151.299,-25.879,-20.508,-73.242,-32.715,-64.941
1678025151.302,-28.809,-17.578,-73.242,-30.762,-85.938
1678025151.306,-29.785,-17.578,-70.312,-21.484,-136.719
1678025151.310,-28.320,-18.066,-63.477,-25.879,-86.426
1678025151.314,-25.391,-19.043,-64.941,-43.945,-58.105
1678025151.318,-22.461,-22.461,-64.941,-45.410,-65.918
1678025151.322,-27.832,-22.461,-62.012,-37.109,-22.461
1678025151.326,-36.133,-22.461,-63.477,-28.320,-55.176
1678025151.329,-24.414,-23.926,-62.988,-12.207,198.242
1678025151.333,-26.367,-25.879,-59.570,-8.301,376.953
1678025151.337,-37.109,-28.320,-56.152,-10.742,-31.250
1678025151.341,-38.574,-29.297,-55.176,-8.789,-145.508
1678025151.345,-41.504,-30.762,-57.129,-7.324,48.340
1678025151.346,-33.691,-28.809,-59.570,-4.883,-17.578
1678025151.350,-20.996,-25.391,-61.035,-15.625,-93.262
1678025151.354,-16.602,-22.949,-58.105,-25.391,-52.734
1678025151.358,-26.855,-17.578,-55.176,-26.367,24.414
1678025151.362,-36.621,-16.602,-56.641,-24.414,-42.969
1678025151.366,-37.109,-19.043,-59.570,-27.344,-55.176
1678025151.370,-31.738,-20.020,-62.988,-45.410,89.844
1678025151.373,-31.250,-16.113,-62.012,-47.363,253.906
1678025151.377,-37.109,-12.695,-60.547,-41.016,-3.418
1678025151.381,-41.992,-20.508,-62.012,-41.992,-203.125
1678025151.385,-34.180,-21.484,-62.012,-34.180,-106.934
1678025151.389,-20.020,-20.996,-62.988,-41.016,-90.332
1678025151.392,-20.020,-24.414,-60.547,-43.945,-183.594
1678025151.396,-37.598,-21.484,-59.082,-36.133,-177.734
1678025151.400,-36.621,-20.020,-55.664,-26.855,-79.590
1678025151.404,-19.531,-20.508,-51.758,-25.391,-55.664
1678025151.408,-20.996,-15.625,-45.410,-21.484,-135.742
1678025151.412,-32.227,-14.648,-41.992,-17.090,-127.441
1678025151.416,-39.062,-21.484,-48.340,-24.902,133.301
1678025151.419,-45.898,-25.391,-52.734,-32.227,136.230
1678025151.423,-54.688,-37.109,-54.199,-55.176,-158.691
1678025151.427,-59.570,-42.480,-54.199,-71.289,-170.898
1678025151.431,-73.242,-34.668,-57.617,-79.590,-63.477
1678025151.435,-104.980,-40.039,-62.988,-115.723,-28.809
1678025151.438,-127.930,-40.527,-63.477,-131.836,-10.254
1678025151.442,-143.066,-41.992,-73.242,-132.324,-58.105
1678025151.446,-178.711,-39.551,-89.844,-175.781,120.117
1678025151.450,-233.887,-41.016,-100.098,-231.445,90.820
1678025151.454,-267.578,-44.434,-104.980,-259.277,-202.148
1678025151.458,-286.133,-40.039,-114.746,-272.949,-3.906
1678025151.462,-316.895,-43.945,-128.906,-287.109,274.902
1678025151.465,-320.312,-47.363,-128.418,-291.504,-9.766
1678025151.469,-316.895,-42.969,-122.559,-298.340,-222.656
1678025151.473,-312.988,-37.598,-127.441,-305.664,-108.887
1678025151.477,-304.688,-35.645,-128.906,-294.434,-60.547
1678025151.481,-287.109,-37.598,-120.117,-288.086,-143.066
1678025151.497,-262.207,-32.715,-115.234,-265.625,-147.949
1678025151.501,-230.469,-26.855,-114.746,-244.141,-92.773
1678025151.505,-204.102,-30.273,-113.281,-240.723,-90.332
1678025151.509,-191.406,-28.809,-111.816,-221.680,-190.918
1678025151.513,-179.688,-23.438,-115.234,-189.453,-212.891
1678025151.517,-156.738,-25.391,-113.281,-155.273,49.805
1678025151.521,-136.719,-23.438,-102.539,-119.629,259.277
1678025151.524,-122.070,-19.531,-100.098,-121.582,-60.059
1678025151.528,-111.816,-13.184,-92.773,-112.793,-219.727
1678025151.532,-98.633,-12.207,-87.891,-82.520,-14.160
1678025151.536,-72.266,-17.090,-89.355,-67.871,-8.789
1678025151.540,-60.059,-21.973,-88.379,-69.336,-83.984
1678025151.542,-48.828,-25.391,-84.473,-64.453,-149.902
1678025151.546,-36.621,-20.996,-80.566,-42.480,-2.930
1678025151.550,-44.434,-21.484,-83.008,-29.297,-26.367
1678025151.554,-43.457,-24.414,-79.102,-25.391,-162.598
1678025151.558,-27.832,-23.926,-72.754,-20.996,-98.633
1678025151.562,-25.391,-24.414,-74.219,-23.438,26.367
1678025151.566,-24.902,-23.438,-71.777,-17.090,2.441
1678025151.569,-20.996,-23.438,-69.824,-6.836,-130.859
1678025151.573,-25.879,-26.855,-72.754,-0.488,-132.324
1678025151.577,-27.344,-28.809,-67.383,7.324,135.742
1678025151.581,-13.184,-27.344,-60.547,8.301,63.477
1678025151.585,1.465,-21.973,-57.129,10.742,-128.906
1678025151.587,0.977,-26.367,-54.688,7.812,-108.887
1678025151.591,5.371,-27.344,-51.270,17.090,-78.125
1678025151.595,27.832,-22.461,-48.828,32.715,-126.953
1678025151.599,39.062,-24.902,-47.363,22.949,-166.504
1678025151.603,34.180,-27.344,-46.387,20.508,-105.469
1678025151.607,26.855,-28.809,-48.828,32.715,-53.711
1678025151.611,28.320,-24.414,-47.363,35.645,-29.785
1678025151.614,34.180,-20.508,-45.410,32.715,-79.590
1678025151.618,35.645,-25.391,-42.480,37.598,125.488
1678025151.622,32.227,-28.809,-40.527,36.133,280.762
1678025151.626,19.043,-25.391,-44.434,22.949,-7.324
1678025151.630,23.438,-24.414,-40.527,18.555,-47.363
1678025151.632,31.738,-24.414,-31.250,26.367,119.629
1678025151.636,28.809,-22.461,-33.203,22.461,-20.020
1678025151.640,34.668,-21.973,-31.250,17.578,-189.941
1678025151.644,24.902,-25.391,-27.832,39.062,-108.887
1678025151.648,14.648,-28.809,-30.762,42.969,-42.480
1678025151.652,15.625,-30.273,-32.227,31.250,-22.949
1678025151.656,28.809,-29.297,-31.738,32.715,-49.316
1678025151.659,35.645,-29.785,-25.879,35.156,-34.180
1678025151.663,27.832,-24.902,-20.020,48.340,249.023
1678025151.667,25.391,-18.555,-20.020,55.176,202.637
1678025151.671,32.227,-20.508,-18.555,58.105,-66.406
1678025151.675,42.480,-19.043,-17.578,55.664,-27.832
1678025151.676,39.551,-20.508,-23.438,48.340,26.855
1678025151.680,34.180,-20.996,-20.508,49.805,-136.719
1678025151.684,28.809,-20.508,-15.625,44.922,-170.410
1678025151.688,28.320,-27.344,-13.672,40.039,-72.754
1678025151.692,35.156,-32.227,-14.648,45.410,-43.457
1678025151.696,33.691,-29.785,-12.695,33.691,-7.324
1678025151.700,20.020,-32.227,-7.812,22.949,41.016
1678025151.703,15.625,-33.691,-9.277,34.668,186.523
1678025151.707,19.531,-36.133,-7.324,33.203,186.035
1678025151.711,16.113,-35.645,-4.883,21.484,-149.902
1678025151.715,11.719,-27.832,-8.301,17.090,-154.297
1678025151.719,8.301,-25.391,-8.301,7.324,130.371
1678025151.722,4.883,-26.855,-5.859,-2.930,137.695
1678025151.726,7.324,-29.297,-5.371,1.953,-35.645
1678025151.730,17.090,-28.320,-3.906,16.602,-78.613
1678025151.734,22.949,-28.320,-5.371,26.367,55.664
1678025151.738,1.953,-32.715,-5.859,5.859,-28.809
1678025151.742,-20.508,-30.273,-6.836,-8.789,-109.863
1678025151.746,-28.320,-32.227,-10.742,-8.789,15.625
1678025151.749,-21.484,-31.250,-8.789,1.465,230.957
1678025151.753,-19.043,-31.250,-10.254,-6.836,59.570
1678025151.757,-32.715,-33.691,-14.160,-31.250,-210.449
1678025151.761,-36.133,-33.203,-15.137,-20.508,-144.043
1678025151.765,-36.621,-34.180,-15.137,-20.996,-123.047
1678025151.768,-30.273,-34.180,-15.137,-29.785,-179.688
1678025151.772,-23.438,-41.016,-18.066,-25.391,-153.320
1678025151.776,-40.039,-45.898,-21.973,-28.320,-15.625
1678025151.780,-49.316,-39.551,-19.531,-23.926,-58.594
1678025151.784,-37.109,-39.551,-13.672,-20.996,-184.082
1678025151.788,-32.715,-35.645,-11.230,-21.973,-70.801
1678025151.792,-35.645,-31.250,-14.160,-24.902,109.863
1678025151.795,-37.109,-33.203,-14.648,-25.391,100.098
1678025151.799,-33.691,-37.598,-8.301,-17.090,-130.859
1678025151.803,-34.668,-40.527,-12.207,-18.555,-150.879
1678025151.807,-35.156,-37.109,-15.137,-20.508,116.211
1678025151.811,-25.879,-35.156,-12.207,-23.438,150.391
1678025151.812,-18.555,-30.273,-7.812,-20.996,-65.918
1678025151.816,-22.949,-30.273,-2.441,-8.789,-52.246
1678025151.820,-28.809,-30.762,-0.488,-12.207,38.574
1678025151.824,-21.484,-26.367,-0.488,-8.789,-41.504
1678025151.828,-16.602,-26.855,0.488,-5.371,-52.246
1678025151.832,-19.043,-26.855,0.488,-7.324,97.168
1678025151.836,-24.414,-25.879,0.488,-8.789,315.918
1678025151.839,-26.367,-22.949,1.953,0.488,133.301
1678025151.843,-16.602,-22.461,-2.930,-4.395,-158.203
1678025151.847,-9.277,-27.832,-2.441,-14.160,-162.109
1678025151.851,-11.719,-27.344,-0.977,-20.020,-119.629
1678025151.855,-23.438,-27.344,-2.441,-17.090,-134.766
1678025151.886,-35.645,-34.668,-7.324,-19.043,-167.480
1678025151.890,-39.551,-32.715,-7.324,-31.738,-132.324
1678025151.894,-17.090,-25.391,-6.348,-30.273,-85.938
1678025151.898,-12.207,-27.344,-3.906,-22.461,-93.262
1678025151.902,-22.949,-28.320,-2.930,-11.719,-111.816
1678025151.906,-26.855,-30.273,-1.953,-11.230,37.109
1678025151.910,-33.691,-33.691,-5.859,-22.461,59.570
1678025151.913,-34.668,-34.668,-9.277,-24.414,-71.289
1678025151.917,-28.809,-30.762,-7.812,-29.297,-110.352
1678025151.921,-24.902,-25.391,-3.906,-34.668,14.648
1678025151.925,-31.250,-23.926,-2.441,-22.949,12.207
1678025151.929,-32.227,-23.926,-12.207,-29.297,-70.312
1678025151.916,-29.785,-23.438,-11.230,-41.992,-70.801
1678025151.920,-28.320,-25.879,-3.418,-38.086,122.070
1678025151.924,-31.250,-26.367,-0.977,-26.855,264.648
1678025151.928,-43.457,-25.879,0.977,-24.414,-44.922
1678025151.932,-40.039,-23.926,4.883,-28.320,-191.406
1678025151.936,-31.250,-26.367,-0.488,-34.668,19.531
1678025151.940,-31.738,-28.320,-7.324,-52.734,61.523
1678025151.943,-36.621,-24.902,-7.324,-56.641,-138.184
1678025151.947,-40.039,-27.832,-2.930,-49.316,-95.215
1678025151.951,-32.715,-26.367,-1.953,-43.945,19.043
1678025151.955,-16.113,-19.043,-4.883,-32.715,-119.629
1678025151.959,-27.832,-20.996,-6.836,-37.598,-184.570
1678025151.961,-29.785,-23.438,-8.789,-32.715,-59.570
1678025151.965,-22.949,-22.461,-9.277,-10.254,212.402
1678025151.969,-35.156,-23.438,-9.277,-20.508,29.297
1678025151.973,-36.621,-27.344,-11.230,-42.969,-218.750
1678025151.977,-42.969,-31.738,-11.719,-55.176,-114.258
1678025151.981,-54.688,-30.273,-7.324,-67.383,-30.762
1678025151.985,-64.453,-25.391,-4.883,-69.336,-96.680
1678025151.988,-63.477,-28.320,-5.371,-59.570,-127.441
1678025151.992,-63.965,-28.809,-7.324,-54.199,78.613
1678025151.996,-65.430,-25.879,-5.859,-64.941,24.902
1678025152.000,-67.871,-25.879,-3.906,-72.266,-96.680
1678025152.004,-70.801,-24.414,1.953,-66.895,29.297
1678025152.006,-70.312,-21.484,5.371,-46.875,297.852
1678025152.010,-59.082,-18.555,5.371,-31.738,375.977
1678025152.014,-42.969,-20.020,7.812,-47.852,-8.301
1678025152.018,-32.227,-23.926,7.324,-58.594,-170.898
1678025152.022,-40.039,-22.949,7.812,-51.758,-124.023
1678025152.026,-51.270,-25.391,8.789,-54.199,-33.691
1678025152.030,-47.852,-26.367,7.324,-55.664,-58.594
1678025152.033,-42.480,-23.926,8.301,-48.828,-140.625
1678025152.037,-42.969,-24.902,13.672,-46.875,124.023
1678025152.041,-49.316,-24.902,13.672,-50.781,55.664
1678025152.045,-50.293,-22.949,12.207,-44.922,-166.504
1678025152.049,-47.363,-26.855,13.672,-33.691,-90.820
1678025152.053,-39.062,-33.203,8.789,-46.387,-57.617
1678025152.057,-37.598,-29.785,8.301,-53.223,-89.844
1678025152.061,-42.969,-20.996,10.742,-51.270,-126.465
1678025152.065,-49.316,-20.508,11.719,-59.082,-75.195
1678025152.069,-48.340,-20.508,12.207,-55.664,-30.762
1678025152.073,-39.551,-24.902,11.230,-55.176,-11.230
1678025152.077,-44.434,-30.273,12.207,-72.266,7.812
1678025152.080,-49.805,-23.926,12.207,-72.266,118.652
1678025152.084,-53.223,-21.484,11.719,-52.246,154.785
1678025152.088,-52.246,-23.926,13.672,-58.105,-68.848
1678025152.092,-42.480,-28.320,12.207,-69.824,-113.281
1678025152.096,-38.086,-30.762,12.695,-71.289,-26.367
1678025152.097,-37.598,-32.227,10.742,-73.242,-49.805
1678025152.101,-37.598,-32.227,12.207,-70.801,-136.719
1678025152.105,-43.457,-31.250,13.672,-63.965,-106.445
1678025152.109,-44.922,-31.738,7.812,-55.176,94.727
1678025152.113,-40.039,-29.785,7.324,-53.711,12.695
1678025152.117,-41.016,-26.855,13.184,-63.477,-133.789
1678025152.121,-41.016,-25.879,18.066,-56.641,-48.828
1678025152.124,-37.598,-20.020,19.043,-36.133,202.637
1678025152.128,-44.922,-21.973,12.207,-39.551,144.531
1678025152.132,-45.410,-27.832,14.160,-45.898,-83.496
1678025152.136,-48.828,-27.832,12.207,-43.945,-120.605
1678025152.140,-58.105,-29.785,5.859,-35.645,-129.883
1678025152.158,-60.547,-32.227,5.371,-31.250,-85.449
1678025152.162,-52.734,-34.180,7.324,-33.691,-54.199
1678025152.166,-46.387,-35.156,7.812,-41.504,-132.324
1678025152.170,-54.688,-34.180,5.859,-55.664,-181.152
1678025152.174,-56.152,-33.203,3.418,-62.012,-136.719
1678025152.178,-50.293,-24.902,5.859,-65.918,-99.609
1678025152.182,-38.086,-22.461,2.930,-63.477,181.152
1678025152.185,-31.738,-23.926,-2.441,-48.828,350.098
1678025152.189,-27.344,-21.973,0.000,-54.688,12.207
1678025152.193,-30.273,-28.809,-3.906,-61.035,-185.059
1678025152.197,-31.738,-23.926,-4.883,-48.828,-19.531
1678025152.201,-17.090,-14.648,0.000,-36.133,20.508
1678025152.187,-18.555,-18.555,0.488,-34.668,-133.789
1678025152.191,-28.809,-19.531,0.488,-27.832,-129.883
1678025152.195,-40.527,-21.484,0.000,-20.996,30.273
1678025152.199,-50.293,-22.949,-1.953,-30.762,-71.777
1678025152.203,-48.340,-28.320,-5.859,-40.527,-130.859
1678025152.207,-35.156,-28.809,-13.672,-34.180,-39.062
1678025152.211,-39.062,-27.344,-14.160,-24.414,16.113
1678025152.214,-48.828,-26.855,-10.254,-27.344,-49.316
1678025152.218,-42.480,-24.414,-8.789,-24.902,-64.453
1678025152.222,-38.086,-20.020,-4.395,-12.207,3.418
1678025152.226,-45.898,-19.531,-10.742,-11.230,259.277
1678025152.230,-43.945,-25.391,-16.602,-20.996,229.004
1678025152.247,-39.062,-21.973,-14.160,-26.855,-129.883
1678025152.251,-45.898,-18.066,-19.043,-24.902,-142.090
1678025152.255,-39.551,-18.066,-21.973,-33.203,-61.523
1678025152.259,-34.668,-22.461,-20.020,-35.156,-95.703
1678025152.263,-24.902,-25.879,-18.066,-27.832,-106.934
1678025152.267,-14.648,-19.043,-21.484,-26.855,-14.648
1678025152.271,-17.090,-15.137,-30.273,-33.691,13.184
1678025152.274,-25.879,-21.973,-27.832,-28.809,-29.785
1678025152.278,-32.715,-24.902,-25.879,-28.809,-43.457
1678025152.282,-21.484,-20.020,-22.949,-21.973,44.922
1678025152.286,-15.137,-17.578,-20.996,-8.301,49.316
1678025152.290,-25.391,-18.555,-26.855,-10.742,-21.484
1678025152.307,-23.926,-20.020,-23.926,-6.836,52.246
1678025152.311,-15.137,-23.438,-22.461,-1.465,177.734
1678025152.315,-18.066,-26.855,-25.879,-10.742,92.285
1678025152.319,-23.926,-25.391,-27.832,-24.414,-152.832
1678025152.323,-35.156,-26.855,-29.297,-17.578,-96.191
1678025152.327,-47.852,-24.902,-31.738,-15.137,31.250
1678025152.331,-44.922,-20.020,-32.227,-18.555,8.789
1678025152.334,-33.691,-20.996,-30.762,-20.508,-80.566
1678025152.338,-37.598,-23.438,-32.715,-27.344,-77.637
1678025152.342,-56.641,-24.414,-34.180,-26.855,118.652
1678025152.346,-56.641,-23.926,-32.227,-21.973,2.441
1678025152.350,-56.641,-22.461,-31.738,-29.785,-178.223
1678025152.337,-51.758,-21.973,-29.785,-28.320,-99.121
1678025152.341,-39.551,-22.949,-24.414,-19.531,17.578
1678025152.345,-46.875,-21.484,-22.461,-28.320,-99.121
1678025152.349,-48.340,-19.043,-25.879,-23.438,-208.496
1678025152.353,-34.668,-23.438,-30.762,-9.277,-41.992
1678025152.357,-26.367,-31.250,-31.250,-11.230,85.449
1678025152.361,-18.066,-30.273,-22.949,-9.277,5.859
1678025152.364,-16.602,-24.902,-20.508,-6.348,-22.949
1678025152.368,-26.855,-28.320,-24.902,-6.836,2.441
1678025152.372,-22.461,-27.344,-23.438,-1.953,-59.082
1678025152.376,-12.695,-22.949,-21.484,-10.254,-74.219
1678025152.380,-16.113,-21.484,-24.414,-19.531,2.930
1678025152.382,-20.020,-18.555,-25.879,-12.695,198.242
1678025152.386,-27.344,-15.625,-25.879,-7.812,332.520
1678025152.390,-28.809,-17.578,-24.902,-14.648,20.020
1678025152.394,-21.973,-20.020,-23.438,-23.926,-59.082
1678025152.398,-23.438,-20.508,-23.926,-32.715,76.660
1678025152.402,-31.250,-18.555,-24.414,-30.762,-6.348
1678025152.406,-33.203,-20.020,-22.949,-24.414,-117.188
1678025152.409,-36.133,-26.367,-25.391,-23.926,-110.352
1678025152.413,-27.832,-28.320,-26.367,-14.648,159.668
1678025152.417,-13.672,-31.738,-24.902,-14.648,22.949
1678025152.421,-14.160,-35.156,-21.973,-28.809,-242.188
1678025152.425,-20.996,-36.133,-20.996,-21.484,-126.953
1678025152.427,-22.461,-34.180,-19.531,-20.020,-71.777
1678025152.431,-17.578,-34.180,-16.602,-21.973,-166.016
1678025152.435,-10.742,-34.668,-19.531,-15.625,-213.379
1678025152.439,-13.672,-33.691,-20.020,-7.812,-123.047
1678025152.443,-29.297,-36.133,-20.508,-10.742,-92.285
1678025152.447,-30.762,-37.109,-26.367,-18.066,-79.590
1678025152.451,-24.414,-33.691,-25.879,-18.555,-48.340
1678025152.454,-22.461,-35.156,-24.902,-19.043,117.676
1678025152.458,-23.438,-36.621,-34.668,-18.555,311.035
1678025152.462,-28.320,-31.738,-35.156,-28.320,-11.719
1678025152.466,-25.879,-32.715,-30.273,-31.250,-117.676
1678025152.470,-21.484,-33.691,-30.762,-23.438,216.797
1678025152.472,-21.973,-31.738,-35.645,-34.668,56.641
1678025152.476,-25.879,-35.156,-36.621,-33.203,-161.133
1678025152.480,-28.809,-38.574,-31.738,-26.367,-57.617
1678025152.484,-29.297,-38.574,-36.133,-24.902,-58.105
1678025152.488,-29.297,-36.133,-36.621,-25.391,-177.734
1678025152.492,-31.738,-30.762,-33.203,-40.039,-149.902
1678025152.496,-29.785,-28.809,-31.738,-41.016,3.418
1678025152.499,-39.062,-29.785,-35.645,-29.297,188.965
1678025152.503,-51.758,-28.809,-39.062,-31.738,55.664
1678025152.507,-41.504,-30.273,-32.715,-36.621,-222.656
1678025152.511,-40.527,-33.691,-26.367,-33.203,-228.027
1678025152.515,-46.387,-29.297,-31.738,-42.480,-132.812
1678025152.516,-50.293,-29.785,-33.691,-38.086,-159.180
1678025152.520,-62.012,-35.645,-38.086,-39.062,-156.738
1678025152.524,-62.988,-38.086,-40.527,-52.246,-54.688
1678025152.528,-64.453,-40.527,-41.016,-83.496,-76.172
1678025152.532,-76.172,-33.691,-43.457,-113.770,-89.355
1678025152.536,-94.238,-25.879,-47.852,-118.164,11.230
1678025152.540,-131.348,-33.691,-59.570,-122.070,155.273
1678025152.543,-157.227,-37.598,-66.895,-137.695,156.738
1678025152.547,-181.152,-39.551,-68.359,-185.547,-108.887
1678025152.551,-209.473,-41.016,-77.148,-230.469,-147.461
1678025152.555,-233.887,-36.621,-87.402,-247.070,63.965
1678025152.559,-268.066,-36.133,-90.332,-263.672,19.531
1678025152.561,-275.879,-33.691,-98.145,-275.879,-119.629
1678025152.565,-265.625,-31.738,-100.586,-270.996,-91.309
1678025152.569,-257.324,-29.785,-97.168,-279.785,112.305
1678025152.573,-250.000,-26.855,-94.727,-284.668,-35.645
1678025152.577,-243.652,-30.762,-90.820,-260.742,-304.688
1678025152.581,-217.773,-31.250,-88.867,-227.051,-100.098
1678025152.585,-197.754,-29.297,-87.891,-194.336,232.422
1678025152.588,-185.547,-28.320,-86.914,-185.059,79.102
1678025152.592,-166.016,-24.902,-80.566,-180.176,-110.840
1678025152.596,-139.648,-20.020,-72.754,-159.668,-77.148
1678025152.600,-125.000,-18.555,-68.848,-133.789,-36.621
1678025152.604,-115.234,-26.367,-66.406,-104.004,-131.836
1678025152.608,-91.797,-25.391,-60.059,-91.309,-183.594
1678025152.612,-72.754,-20.508,-57.129,-74.707,-31.738
1678025152.616,-72.266,-23.438,-56.152,-51.270,-5.371
1678025152.620,-62.500,-28.320,-48.828,-53.223,-186.035
1678025152.624,-41.504,-25.879,-45.410,-43.945,-134.766
1678025152.628,-22.949,-25.391,-44.434,-27.832,19.531
1678025152.632,-13.184,-26.855,-39.062,-21.484,-47.363
1678025152.635,-15.625,-26.367,-36.133,-11.230,-120.117
1678025152.639,-5.371,-18.555,-32.715,-7.812,-112.305
1678025152.643,16.602,-10.742,-23.438,13.184,50.781
1678025152.647,24.414,-16.113,-13.184,14.648,108.887
1678025152.651,31.250,-20.020,-10.254,9.766,45.898
1678025152.666,29.297,-19.043,-8.789,19.531,-32.227
1678025152.670,33.691,-21.973,-3.418,39.062,103.516
1678025152.674,47.363,-22.461,1.953,61.035,114.746
1678025152.678,70.801,-20.020,9.766,50.293,-30.273
1678025152.682,61.035,-24.414,13.672,39.551,-49.805
1678025152.686,45.898,-31.250,16.602,50.781,228.516
1678025152.690,51.270,-27.832,21.973,67.383,148.926
1678025152.693,53.223,-28.809,25.391,65.430,-150.391
1678025152.697,52.246,-31.250,31.250,67.871,-65.430
1678025152.701,53.711,-34.668,28.809,80.566,62.500
1678025152.705,51.758,-37.109,27.344,63.965,-87.402
1678025152.709,41.992,-40.039,33.691,36.621,-218.750
1678025152.712,38.574,-44.922,35.156,41.992,-204.102
1678025152.716,42.969,-47.363,38.574,65.430,-176.758
1678025152.720,43.457,-46.875,46.875,60.059,-178.711
1678025152.724,34.668,-46.387,55.664,52.246,-158.203
1678025152.728,29.785,-42.969,58.594,58.105,-65.430
1678025152.732,40.039,-40.039,59.570,66.895,30.273
1678025152.736,40.039,-42.480,63.477,70.801,-50.781
1678025152.739,33.203,-40.527,66.895,53.223,-103.027
1678025152.743,45.898,-38.086,75.195,42.969,87.891
1678025152.747,37.109,-41.504,75.684,43.457,228.516
1678025152.751,39.062,-44.922,74.219,32.227,45.898
1678025152.755,58.105,-44.922,78.613,36.133,82.520
1678025152.756,56.152,-42.480,77.637,52.734,166.016
1678025152.760,48.340,-43.945,77.637,49.316,-20.508
1678025152.764,42.969,-44.922,84.961,44.922,-188.477
1678025152.768,35.645,-36.133,87.402,45.410,-203.613
1678025152.772,25.879,-33.203,87.402,34.668,-163.574
1678025152.776,26.367,-37.598,87.891,26.855,-54.199
1678025152.780,29.297,-36.133,88.867,26.855,-17.578
1678025152.783,17.090,-32.227,94.238,24.414,-62.500
1678025152.787,7.324,-31.250,95.703,30.762,208.008
1678025152.791,5.859,-30.273,93.750,30.762,182.129
1678025152.795,3.418,-34.180,92.285,19.043,-131.836
1678025152.799,2.441,-37.109,94.238,26.367,-208.984
1678025152.802,-8.301,-35.645,97.168,34.180,-241.211
1678025152.806,-12.207,-33.691,97.168,35.156,-213.867
1678025152.810,-13.672,-32.227,101.562,23.926,-161.621
1678025152.814,-21.484,-34.180,102.051,10.742,-104.492
1678025152.818,-21.973,-34.180,98.145,5.859,-92.773
1678025152.822,-26.367,-29.297,102.051,7.812,-46.875
1678025152.826,-25.391,-27.344,100.586,2.930,-30.273
1678025152.829,-14.648,-30.273,97.168,-4.883,25.879
1678025152.833,-6.836,-32.227,94.727,-11.230,61.035
1678025152.837,-0.488,-27.344,90.332,-17.578,-87.891
1678025152.841,-12.207,-19.531,94.238,-12.207,-102.539
1678025152.845,-10.254,-18.555,101.074,7.812,157.227
1678025152.848,8.301,-21.973,96.680,0.488,144.043
1678025152.852,19.043,-20.996,86.426,-24.902,-125.977
1678025152.856,22.949,-19.043,84.961,-27.344,-112.305
1678025152.860,12.695,-17.578,92.773,-19.043,-71.777
1678025152.864,4.395,-17.578,93.750,-17.578,-128.418
1678025152.868,4.883,-18.555,84.961,-21.484,-129.395
1678025152.872,15.137,-16.602,85.938,-14.648,8.789
1678025152.875,10.254,-21.973,86.914,-14.648,220.703
1678025152.879,-5.859,-25.391,84.961,-18.555,-1.465
1678025152.883,-27.344,-25.879,88.867,-21.484,-168.457
1678025152.887,-40.039,-28.320,88.379,-23.926,-42.480
1678025152.891,-37.109,-28.320,86.426,-10.254,-34.180
1678025152.892,-34.668,-24.902,86.914,-8.789,-88.379
1678025152.896,-48.828,-22.461,85.449,-16.113,-118.652
1678025152.900,-67.383,-23.926,83.008,-4.395,-15.137
1678025152.904,-59.082,-23.438,80.566,-3.418,16.602
1678025152.908,-42.480,-21.484,80.566,-11.719,-59.082
1678025152.912,-41.992,-23.926,79.590,-19.043,1.465
1678025152.916,-48.340,-28.809,76.660,-15.137,167.480
1678025152.919,-52.734,-31.738,75.684,-9.277,305.664
1678025152.923,-53.223,-30.762,73.730,-21.973,59.082
1678025152.927,-46.387,-28.809,73.242,-24.414,-57.129
1678025152.931,-33.203,-28.320,69.824,-20.996,20.996
1678025152.935,-36.133,-29.297,68.359,-32.227,-46.875
1678025152.938,-44.922,-31.250,64.941,-42.480,-91.309
1678025152.942,-38.574,-32.715,61.035,-34.180,-98.145
1678025152.946,-39.551,-30.273,63.965,-27.832,167.969
1678025152.950,-44.922,-28.320,58.594,-42.969,146.484
1678025152.954,-52.734,-28.320,51.758,-50.781,-142.578
1678025152.958,-72.754,-29.785,53.711,-42.480,-83.008
1678025152.962,-79.102,-30.762,52.734,-39.062,178.223
1678025152.965,-71.289,-26.855,52.734,-41.992,48.340
1678025152.969,-67.871,-28.320,58.594,-46.875,-110.352
1678025152.973,-66.895,-31.738,55.664,-54.199,-109.375
1678025152.977,-62.500,-29.297,51.270,-46.387,-142.090
1678025152.981,-60.547,-24.902,53.223,-31.738,-124.512
1678025152.981,-55.664,-31.250,54.688,-27.832,-91.309
1678025152.985,-51.758,-31.738,53.223,-33.691,-48.340
1678025152.989,-53.223,-25.879,59.082,-36.621,-42.969
1678025152.993,-45.898,-20.508,62.012,-26.855,-80.078
1678025152.997,-43.945,-21.973,54.688,-22.949,-50.781
1678025153.001,-41.016,-25.879,50.293,-25.391,154.297
1678025153.005,-32.715,-23.438,53.223,-16.113,219.238
1678025153.008,-30.762,-24.902,53.223,-19.531,-13.672
1678025153.012,-29.785,-23.438,54.199,-26.855,-128.418
1678025153.016,-42.480,-20.508,53.223,-20.508,61.523
1678025153.020,-40.527,-20.508,54.199,-24.902,96.191
1678025153.024,-21.484,-20.020,57.129,-39.062,-10.742
1678025153.041,-26.855,-24.414,52.734,-54.199,-136.230
1678025153.045,-42.480,-24.902,48.340,-50.293,-32.227
1678025153.049,-43.945,-18.555,50.293,-48.340,-44.922
1678025153.053,-39.062,-16.602,49.316,-63.477,-179.688
1678025153.057,-29.297,-18.555,47.852,-62.012,-108.398
1678025153.061,-20.996,-20.020,51.758,-55.664,-13.184
1678025153.065,-27.344,-23.926,52.246,-65.430,25.879
1678025153.068,-45.410,-30.762,45.898,-72.266,-65.430
1678025153.072,-42.969,-29.297,45.410,-74.219,-115.234
1678025153.076,-31.250,-26.367,52.246,-70.801,182.129
1678025153.080,-26.855,-28.320,53.223,-82.031,24.902
1678025153.084,-46.875,-27.832,48.340,-92.285,-215.332
1678025153.087,-59.570,-28.809,48.828,-80.566,-137.207
1678025153.091,-42.969,-28.320,47.363,-68.848,-119.629
1678025153.095,-38.086,-23.926,47.852,-68.359,-142.578
1678025153.099,-39.551,-22.949,50.293,-64.941,-194.824
1678025153.103,-37.109,-23.926,52.734,-60.547,-131.348
1678025153.107,-46.387,-24.902,52.246,-51.758,6.348
1678025153.111,-44.434,-23.438,46.875,-40.039,32.227
1678025153.114,-28.809,-22.949,49.316,-48.828,-81.543
1678025153.118,-18.555,-27.344,49.316,-60.547,8.789
1678025153.122,-16.602,-30.762,45.410,-49.316,170.898
1678025153.126,-21.484,-33.691,49.805,-43.945,-67.871
1678025153.130,-29.297,-31.738,52.734,-46.387,-150.879
1678025153.131,-34.180,-29.785,49.805,-34.668,95.215
1678025153.135,-34.180,-35.645,48.340,-34.668,47.852
1678025153.139,-30.762,-35.156,44.922,-56.641,-164.551
1678025153.143,-41.504,-31.250,39.551,-62.988,-160.156
1678025153.147,-42.480,-32.227,40.039,-60.547,-81.543
1678025153.151,-33.691,-36.621,38.086,-45.410,29.297
1678025153.155,-28.320,-32.227,34.180,-33.203,10.742
1678025153.158,-26.855,-30.762,35.156,-40.039,-21.973
1678025153.162,-36.621,-35.645,36.621,-35.645,171.875
1678025153.166,-46.875,-34.180,37.109,-30.273,-12.207
1678025153.170,-45.898,-32.715,36.621,-30.762,-197.754
1678025153.174,-40.039,-30.273,38.574,-38.086,-25.391
1678025153.177,-36.133,-33.691,37.598,-42.969,-22.461
1678025153.181,-38.574,-31.250,34.668,-36.621,-110.840
1678025153.185,-41.504,-29.297,31.738,-27.344,-128.418
1678025153.189,-35.156,-31.250,33.691,-27.832,-75.684
1678025153.193,-13.672,-28.320,41.016,-21.973,-42.480
1678025153.197,-5.859,-30.762,37.109,-4.883,-35.156
1678025153.201,-19.043,-32.227,33.203,-11.230,-60.059
1678025153.204,-26.367,-33.203,33.203,-11.719,43.945
1678025153.208,-26.855,-29.297,33.691,0.488,208.008
1678025153.212,-21.973,-26.855,29.785,-16.113,-44.922
1678025153.216,-12.695,-28.809,28.809,-33.691,-132.324
1678025153.220,-19.043,-28.320,30.762,-52.246,108.398
1678025153.223,-35.645,-30.273,27.344,-67.383,-40.039
1678025153.227,-32.227,-26.855,30.273,-62.500,-215.820
1678025153.231,-33.691,-25.879,28.809,-68.359,-6.348
1678025153.235,-45.410,-27.344,24.414,-76.172,159.180
1678025153.239,-42.969,-26.855,25.879,-70.312,-26.367
1678025153.243,-48.828,-26.855,24.414,-64.941,-103.027
1678025153.247,-43.457,-25.391,24.902,-56.641,50.781
1678025153.250,-28.320,-29.297,28.809,-43.945,226.562
1678025153.254,-18.555,-26.855,26.855,-45.898,66.406
1678025153.258,-20.508,-22.461,25.879,-42.480,-156.250
1678025153.262,-32.227,-29.297,24.414,-20.508,-160.156
1678025153.266,-35.645,-32.227,18.555,-35.645,-148.926
1678025153.267,-17.578,-30.762,21.973,-51.270,-185.547
1678025153.271,-7.324,-30.762,23.926,-36.133,-176.758
1678025153.275,-11.230,-25.879,24.414,-20.508,-111.816
1678025153.279,-19.531,-22.461,25.879,-16.602,-64.453
1678025153.283,-23.926,-21.484,21.484,-5.371,-26.855
1678025153.287,-18.066,-21.973,21.973,-7.812,-0.977
1678025153.291,-18.555,-25.879,21.484,-22.461,126.465
1678025153.294,-20.996,-22.461,20.996,-18.555,332.520
1678025153.298,-24.902,-21.484,20.508,-7.812,30.762
1678025153.302,-31.250,-24.414,19.531,-9.277,-138.184
1678025153.306,-30.762,-27.832,16.602,-6.348,-8.301
1678025153.310,-27.344,-32.715,12.207,-15.625,-90.332
1678025153.312,-19.043,-33.691,14.160,-18.066,-168.945
1678025153.316,-16.113,-32.715,16.602,-18.555,-159.180
1678025153.320,-19.531,-31.738,18.066,-17.090,63.477
1678025153.324,-18.066,-29.297,13.672,-19.043,55.664
1678025153.328,-21.973,-29.297,13.184,-31.738,-122.559
1678025153.332,-13.672,-29.297,15.625,-34.180,-12.695
1678025153.336,-21.973,-26.855,8.301,-29.297,253.906
1678025153.339,-34.180,-27.344,3.906,-33.203,52.246
1678025153.343,-21.973,-27.832,6.836,-36.133,-208.008
1678025153.347,-9.766,-26.855,8.789,-31.738,-120.117
1678025153.351,-11.719,-30.273,5.371,-32.715,-22.949
1678025153.355,-25.391,-30.762,2.441,-30.762,-166.504
1678025153.358,-33.203,-34.668,3.418,-27.344,-174.316
1678025153.362,-23.438,-37.109,1.465,-41.016,-64.941
1678025153.366,-12.695,-33.691,0.977,-40.527,-94.238
1678025153.370,-14.648,-33.203,0.977,-32.227,-141.113
1678025153.374,-23.438,-32.715,-0.977,-33.691,-142.090
1678025153.378,-19.531,-29.297,2.441,-21.973,54.688
1678025153.382,-12.695,-26.855,2.930,-14.648,167.969
1678025153.385,-17.090,-30.273,1.465,-16.113,-41.992
1678025153.389,-17.090,-30.762,2.441,-13.184,-125.977
1678025153.393,-25.391,-27.832,4.395,-11.719,159.180
1678025153.397,-32.227,-24.902,6.836,-13.184,221.191
1678025153.401,-29.785,-23.926,5.371,-19.043,20.996
1678025153.417,-20.020,-25.391,5.371,-11.230,-74.219
1678025153.421,-16.602,-25.391,3.906,-4.395,43.457
1678025153.425,-13.672,-24.414,3.418,-1.953,-26.855
1678025153.429,-17.090,-21.973,10.254,6.836,-188.965
1678025153.433,-13.184,-18.066,12.695,19.043,-43.457
1678025153.437,-0.977,-17.578,13.672,33.691,277.344
1678025153.441,0.000,-17.090,15.137,20.996,173.340
1678025153.444,-1.953,-18.066,11.719,5.859,-148.438
1678025153.448,-8.789,-21.973,10.742,0.488,-102.539
1678025153.452,-8.789,-18.066,11.719,3.906,128.906
1678025153.456,-0.488,-15.137,12.207,14.648,-42.480
1678025153.460,5.371,-14.648,11.719,20.020,-179.688
1678025153.462,1.465,-18.066,11.230,21.973,-115.723
1678025153.466,-6.348,-23.438,13.184,32.227,-106.934
1678025153.470,-18.066,-24.414,16.113,35.156,-153.809
1678025153.474,-19.043,-24.902,15.137,39.062,-121.094
1678025153.478,-10.254,-22.461,10.742,22.461,-24.414
1678025153.482,-0.488,-20.996,13.672,6.348,31.250
1678025153.486,-4.395,-26.855,16.113,25.879,-54.688
1678025153.489,-8.789,-25.879,15.625,36.621,-163.086
1678025153.493,-5.859,-21.973,10.742,33.203,2.930
1678025153.497,-9.766,-23.438,4.883,24.902,71.777
1678025153.501,-11.230,-22.461,5.371,6.836,-135.742
1678025153.505,-13.672,-21.973,7.812,-2.930,-25.879
1678025153.508,-20.508,-26.855,12.207,14.160,152.832
1678025153.512,-20.508,-32.227,12.695,16.113,31.738
1678025153.516,-8.789,-23.926,12.695,13.672,-169.922
1678025153.520,0.977,-20.020,15.137,13.672,-140.137
1678025153.524,6.348,-20.508,18.555,10.254,67.383
1678025153.528,7.812,-15.625,20.020,23.438,-28.809
1678025153.532,9.277,-16.113,19.531,28.809,-82.520
1678025153.535,20.508,-17.578,20.996,21.484,-6.836
1678025153.539,22.949,-17.578,18.555,19.531,150.879
1678025153.543,15.137,-17.578,16.113,26.855,-26.367
1678025153.547,14.160,-13.184,13.672,26.855,-208.008
1678025153.551,24.902,-9.766,13.184,23.926,-77.148
1678025153.552,37.598,-7.812,14.648,19.043,-74.707
1678025153.556,42.969,-7.324,17.090,9.277,-131.348
1678025153.560,30.273,-14.160,17.090,13.184,-146.973
1678025153.564,21.484,-13.184,21.484,24.414,-83.008
1678025153.568,13.672,-14.160,25.391,26.855,17.578
1678025153.572,12.207,-18.555,23.438,36.133,34.180
1678025153.576,14.160,-15.137,31.250,35.156,-7.324
1678025153.579,7.812,-8.789,32.715,36.621,108.887
1678025153.583,-9.766,-16.602,22.949,34.668,314.453
1678025153.587,-17.578,-22.461,22.461,28.320,14.160
1678025153.591,-11.230,-16.113,20.996,29.785,-110.840
1678025153.595,-24.414,-14.160,15.137,10.254,239.746
1678025153.597,-32.227,-18.555,13.672,-1.953,175.781
1678025153.601,-53.223,-24.414,7.324,-22.461,-159.180
1678025153.605,-83.008,-24.902,-5.371,-60.059,-145.508
1678025153.609,-107.422,-25.879,-14.160,-86.914,-86.914
1678025153.613,-124.023,-25.879,-16.113,-119.141,-122.070
1678025153.617,-147.461,-27.344,-25.391,-144.043,-133.301
1678025153.621,-183.594,-32.227,-37.598,-160.645,-83.496
1678025153.624,-202.148,-32.227,-45.898,-169.922,229.492
1678025153.628,-201.172,-24.414,-48.340,-185.059,181.152
1678025153.632,-208.984,-25.879,-48.828,-201.660,-141.113
1678025153.636,-205.078,-25.879,-47.363,-203.125,-127.441
1678025153.640,-194.336,-17.090,-48.828,-195.312,-104.980
1678025153.642,-199.219,-15.137,-50.781,-179.688,-140.625
1678025153.646,-186.035,-18.066,-46.875,-162.598,-105.469
1678025153.650,-152.344,-12.207,-47.363,-156.738,-74.219
1678025153.654,-125.488,-12.695,-42.969,-144.043,-109.863
1678025153.658,-125.488,-21.973,-38.574,-113.281,-114.258
1678025153.662,-119.629,-19.531,-36.621,-96.191,-67.871
1678025153.666,-81.543,-22.461,-34.668,-62.988,150.391
1678025153.669,-51.270,-25.879,-27.344,-19.531,238.770
1678025153.673,-37.598,-21.973,-23.926,-24.902,-2.930
1678025153.677,-26.855,-16.113,-24.414,-30.762,-134.277
1678025153.681,-14.648,-15.625,-20.508,-11.230,36.621
1678025153.685,5.371,-19.043,-20.508,-2.441,86.914
1678025153.687,30.762,-13.672,-14.160,2.930,-133.789
1678025153.691,38.574,-12.695,-6.836,9.766,-141.113
1678025153.695,31.250,-17.090,-8.301,35.156,117.676
1678025153.699,33.691,-17.578,-5.859,55.176,180.664
1678025153.703,52.246,-19.043,-1.465,55.176,-80.078
1678025153.707,64.453,-19.043,3.418,57.617,-30.762
1678025153.711,67.383,-21.973,13.184,62.500,187.012
1678025153.714,67.383,-23.438,20.508,66.406,-21.484
1678025153.718,64.453,-20.996,20.508,59.570,-179.199
1678025153.722,73.242,-20.996,22.949,60.059,-93.750
1678025153.726,82.031,-22.949,28.809,72.754,14.160
1678025153.730,92.773,-25.879,31.250,66.406,-56.152
1678025153.732,95.215,-25.391,36.621,62.988,-135.254
1678025153.736,83.496,-24.414,39.062,79.590,-86.426
1678025153.740,90.332,-29.297,38.574,90.820,-16.113
1678025153.744,102.051,-28.809,48.828,95.703,-95.215
1678025153.748,101.562,-28.320,53.223,87.891,-125.000
1678025153.752,101.074,-29.785,54.688,86.426,-65.430
1678025153.756,101.074,-27.832,59.570,98.145,-39.062
1678025153.759,107.422,-29.785,58.594,106.445,-50.781
1678025153.763,109.863,-34.180,58.105,108.398,-98.633
1678025153.767,106.445,-34.668,60.059,100.098,52.734
1678025153.771,97.656,-35.156,60.059,101.562,114.258
1678025153.775,89.355,-32.715,59.082,101.074,-20.020
1678025153.792,98.633,-28.809,60.547,100.586,-104.004
1678025153.796,111.816,-24.902,61.523,116.211,141.113
1678025153.800,113.281,-26.367,62.988,113.770,161.133
1678025153.804,111.816,-28.809,62.012,93.750,-113.281
1678025153.808,100.098,-27.344,61.035,103.516,-131.348
1678025153.812,92.773,-27.344,66.406,113.770,27.832
1678025153.816,93.750,-27.832,70.801,110.352,60.547
1678025153.819,99.121,-25.391,70.312,102.051,-120.117
1678025153.823,97.168,-26.367,65.918,99.121,-96.680
1678025153.827,83.008,-28.809,69.336,112.793,159.668
1678025153.831,77.148,-30.762,71.777,101.562,-20.508
1678025153.835,80.078,-30.762,73.242,95.703,-209.473
1678025153.837,81.055,-32.227,74.219,94.238,-128.906
1678025153.841,77.148,-36.133,66.895,80.078,-61.523
1678025153.845,84.473,-31.738,66.406,85.449,-69.824
1678025153.849,86.426,-27.344,67.383,91.309,4.883
1678025153.853,83.496,-30.273,65.430,83.496,72.754
1678025153.857,83.008,-26.855,66.406,83.984,52.734
1678025153.861,87.891,-26.855,60.547,79.102,-10.254
1678025153.864,92.773,-27.344,60.547,77.148,-122.559
1678025153.868,87.891,-27.832,61.035,79.590,41.504
1678025153.872,83.496,-29.785,58.105,88.867,98.633
1678025153.876,81.543,-32.715,63.477,94.238,-123.047
1678025153.880,81.543,-31.738,62.988,83.008,-70.312
1678025153.882,67.383,-28.809,60.547,72.754,40.527
1678025153.886,61.523,-31.250,62.988,63.477,-86.914
1678025153.890,68.848,-27.832,62.012,60.059,-220.703
1678025153.894,71.289,-23.926,62.500,67.383,-138.672
1678025153.898,58.594,-27.344,61.523,64.941,-80.078
1678025153.902,48.828,-31.250,56.641,58.105,-90.332
1678025153.906,46.387,-29.297,55.664,56.152,-37.598
1678025153.909,48.340,-27.832,58.594,54.688,38.574
1678025153.913,49.805,-26.855,61.523,53.223,237.793
1678025153.917,50.781,-25.879,61.035,59.570,44.434
1678025153.921,45.410,-29.785,57.617,54.688,-224.121
1678025153.925,36.133,-27.344,55.664,50.781,-150.879
1678025153.926,38.086,-22.949,54.199,54.199,-118.164
1678025153.930,38.086,-26.855,50.293,41.992,-171.387
1678025153.934,41.504,-24.902,49.316,40.527,-210.938
1678025153.938,43.457,-18.555,47.852,35.156,-65.918
1678025153.942,37.598,-19.531,47.363,29.297,-32.227
1678025153.946,34.180,-23.438,46.875,42.969,-49.316
1678025153.950,45.410,-21.973,45.898,47.852,-99.609
1678025153.953,50.781,-18.555,42.480,49.805,82.031
1678025153.957,42.480,-19.531,37.109,53.223,306.641
1678025153.961,41.992,-23.926,37.598,52.246,-74.707
1678025153.965,42.969,-21.484,37.598,56.152,-169.922
1678025153.969,45.898,-16.602,35.156,58.105,148.926
1678025153.986,48.340,-19.531,34.180,49.805,1.465
1678025153.990,48.340,-23.438,32.715,36.133,-188.477
1678025153.994,32.227,-23.926,28.809,23.926,-114.258
1678025153.998,16.602,-23.438,27.832,20.996,-98.145
1678025154.002,21.973,-22.461,29.297,30.762,-93.750
1678025154.006,27.344,-25.391,25.391,27.832,-132.324
1678025154.010,30.273,-30.762,23.438,17.578,-73.242
1678025154.013,22.949,-32.715,22.949,22.949,74.219
1678025154.017,19.531,-31.738,21.973,27.832,-64.941
1678025154.021,26.855,-28.320,20.020,27.832,-141.113
1678025154.025,28.809,-29.297,20.508,22.949,32.715
1678025154.029,20.508,-35.645,17.090,23.926,230.957
1678025154.020,9.277,-31.250,16.602,30.273,15.625
1678025154.024,0.488,-31.738,21.484,28.320,-165.039
1678025154.028,0.488,-36.621,20.508,6.348,-111.328
1678025154.032,-0.488,-32.715,17.578,1.465,-57.617
1678025154.036,-0.977,-29.785,20.020,5.859,-98.145
1678025154.040,-6.836,-33.691,18.555,6.836,-53.711
1678025154.044,-6.836,-32.715,18.555,0.977,145.508
1678025154.047,1.465,-29.297,20.020,3.906,51.270
1678025154.051,12.207,-29.785,19.043,6.348,-139.160
1678025154.055,17.090,-24.414,16.602,0.977,-154.785
1678025154.059,14.648,-21.973,18.555,4.883,39.551
1678025154.063,14.160,-23.438,22.949,14.160,120.117
1678025154.093,16.602,-21.484,23.438,9.277,-109.375
1678025154.097,14.648,-23.438,19.043,6.836,-83.008
1678025154.101,13.184,-25.879,17.578,0.977,65.430
1678025154.105,14.648,-25.879,19.531,2.930,-58.594
1678025154.109,16.602,-19.043,20.508,2.930,-181.152
1678025154.113,13.672,-16.602,21.973,8.789,-62.500
1678025154.117,9.277,-21.973,21.973,16.602,247.070
1678025154.120,10.254,-22.461,23.438,9.277,362.793
1678025154.124,7.324,-20.996,21.484,-4.395,46.387
1678025154.128,-0.977,-23.926,14.648,-14.648,-132.812
1678025154.132,0.000,-26.367,13.184,-15.625,-92.285
1678025154.136,0.488,-27.344,16.602,-12.207,-105.469
1678025154.122,1.465,-26.367,14.160,-25.391,-192.383
1678025154.126,-0.488,-25.391,11.719,-38.086,-158.691
1678025154.130,-12.695,-25.879,8.789,-33.691,-10.254
1678025154.134,-19.531,-27.344,3.418,-37.598,31.738
1678025154.138,-17.578,-27.832,2.441,-47.363,-77.637
1678025154.142,-15.137,-26.855,3.906,-41.992,37.109
1678025154.146,-10.254,-27.832,6.836,-42.969,24.414
1678025154.149,-19.043,-25.879,7.324,-42.969,-136.230
1678025154.153,-18.066,-20.508,10.254,-35.156,-111.328
1678025154.157,-5.859,-18.066,11.719,-27.832,-38.086
1678025154.161,3.418,-18.555,12.207,-20.996,-20.020
1678025154.165,4.395,-21.484,9.766,-29.785,-45.898
1678025154.167,-4.395,-20.020,9.766,-32.715,-93.750
1678025154.171,-2.441,-15.625,13.184,-23.926,126.953
1678025154.175,-9.766,-22.461,11.230,-15.137,384.766
1678025154.179,-16.602,-26.855,4.883,-42.480,124.023
1678025154.183,-6.836,-24.902,0.488,-51.758,-105.469
1678025154.187,-7.324,-24.902,4.395,-37.598,-12.695
1678025154.191,-15.137,-29.785,10.254,-35.156,-5.371
1678025154.194,-13.672,-27.344,11.230,-27.344,-55.176
1678025154.198,-6.348,-20.508,7.812,-34.668,-61.523
1678025154.202,-3.418,-20.996,2.441,-30.273,193.848
1678025154.206,-6.348,-22.949,0.000,-41.016,169.922
1678025154.210,-18.066,-25.391,-1.953,-47.852,-102.051
1678025154.212,-5.859,-19.531,-1.465,-43.457,-85.938
1678025154.216,5.859,-18.066,-0.488,-55.176,-59.082
1678025154.220,1.465,-17.578,4.395,-50.781,-135.254
1678025154.224,-1.953,-11.230,6.348,-38.086,-214.844
1678025154.228,0.000,-11.230,3.906,-41.992,-129.883
1678025154.232,8.301,-16.602,3.906,-47.852,-55.664
1678025154.236,2.441,-18.066,0.977,-54.199,-30.762
1678025154.239,-3.906,-17.578,0.977,-58.105,11.719
1678025154.243,-8.789,-21.484,-0.977,-56.641,116.211
1678025154.247,-23.438,-22.949,-2.441,-40.527,308.594
1678025154.251,-26.367,-22.461,-0.977,-35.645,52.246
1678025154.255,-12.207,-23.438,-3.906,-41.016,-20.020
1678025154.256,-10.742,-21.973,-5.371,-41.504,79.102
1678025154.260,-22.949,-26.367,-6.836,-35.156,-39.551
1678025154.264,-28.320,-28.809,-4.395,-30.273,-132.324
1678025154.268,-24.414,-23.438,1.953,-16.602,-97.656
1678025154.272,-15.137,-24.902,-3.418,-17.090,89.355
1678025154.276,-12.207,-29.785,-10.742,-27.832,-8.789
1678025154.280,-15.137,-25.879,-8.301,-28.809,-150.879
1678025154.283,-19.531,-22.461,-6.836,-29.785,-66.406
1678025154.287,-29.297,-23.438,-9.277,-19.531,193.359
1678025154.291,-22.949,-19.043,-11.230,-22.461,9.766
1678025154.295,-12.207,-14.160,-10.742,-38.086,-135.742
1678025154.299,-17.090,-19.531,-13.672,-45.410,-113.770
1678025154.301,-36.133,-21.973,-16.113,-41.504,-97.168
1678025154.305,-43.457,-19.043,-16.602,-40.527,-109.863
1678025154.309,-32.715,-22.461,-17.578,-50.781,-109.863
1678025154.313,-28.809,-22.461,-19.043,-47.363,-82.031
1678025154.317,-26.367,-20.508,-14.648,-43.945,-86.426
1678025154.321,-31.738,-21.484,-7.324,-42.969,-9.277
1678025154.325,-34.180,-19.531,-9.766,-34.180,0.488
1678025154.328,-17.090,-20.020,-9.766,-23.926,92.285
1678025154.332,-19.043,-20.508,-3.906,-23.438,196.289
1678025154.336,-16.113,-19.531,-10.742,-19.043,-69.336
1678025154.340,-16.602,-19.531,-15.625,-20.996,-199.219
1678025154.344,-29.785,-19.043,-9.277,-5.859,115.234
1678025154.347,-19.531,-23.438,-10.742,0.000,161.133
1678025154.351,-16.602,-24.902,-18.555,-14.648,-118.652
1678025154.355,-18.066,-22.461,-19.531,-9.277,-199.707
1678025154.359,-19.043,-20.508,-15.625,3.906,-8.301
1678025154.363,-22.949,-21.484,-12.695,16.113,-54.688
1678025154.367,-20.508,-22.461,-11.230,27.832,-145.020
1678025154.371,-25.391,-19.043,-13.672,10.742,57.617
1678025154.374,-27.344,-20.996,-19.043,0.977,225.586
1678025154.378,-24.902,-20.508,-17.578,7.812,0.977
1678025154.382,-24.902,-14.648,-15.137,10.254,-195.801
1678025154.386,-26.855,-17.578,-15.625,6.836,-147.461
1678025154.390,-21.973,-20.996,-13.184,-0.488,-110.352
1678025154.393,-23.438,-20.020,-14.160,-1.953,-127.441
1678025154.397,-32.715,-27.344,-13.672,-3.418,-120.117
1678025154.401,-30.273,-27.832,-8.789,-2.930,-13.184
1678025154.405,-22.461,-20.508,-5.371,9.766,20.996
1678025154.409,-15.625,-16.113,-0.977,11.230,-86.426
1678025154.413,-7.812,-8.789,4.883,9.766,-69.336
1678025154.417,-9.766,-6.836,4.883,13.672,138.672
1678025154.420,-12.695,-7.812,7.812,19.043,237.305
1678025154.424,-3.906,-6.348,9.766,20.508,-100.098
1678025154.428,8.301,-9.766,3.418,12.695,-205.078
1678025154.432,10.254,-10.254,5.859,8.301,-107.910
1678025154.436,5.371,-10.254,9.766,12.695,-109.375
1678025154.437,-2.441,-13.672,5.859,14.648,-176.758
1678025154.441,-6.836,-19.043,3.418,16.602,-172.363
1678025154.445,4.883,-15.625,3.418,8.789,117.188
1678025154.449,9.277,-7.324,1.465,1.465,86.426
1678025154.453,-3.418,-8.301,3.418,6.836,-156.738
1678025154.457,-20.020,-16.602,7.324,8.789,-125.977
1678025154.461,-25.879,-20.996,10.254,20.020,242.676
1678025154.464,-27.344,-18.066,8.301,10.254,168.945
1678025154.468,-26.855,-15.137,5.859,-7.324,-153.320
1678025154.472,-25.391,-18.555,3.906,-5.859,-126.465
1678025154.476,-36.621,-26.855,-0.488,-2.930,0.000
1678025154.480,-42.480,-23.438,-4.883,-9.766,-72.266
1678025154.482,-37.109,-19.043,-3.418,-2.930,-137.207
1678025154.486,-21.973,-16.113,6.836,3.906,-107.422
1678025154.490,-15.625,-11.719,5.859,-2.930,-103.516
1678025154.494,-31.250,-18.066,0.488,-10.254,-133.301
1678025154.498,-36.621,-24.902,3.418,-3.906,-107.910
1678025154.502,-35.156,-23.926,2.930,4.395,-12.207
1678025154.506,-32.715,-27.344,1.953,-0.977,0.488
1678025154.509,-37.109,-29.785,1.465,-10.742,-30.273
1678025154.513,-34.668,-31.250,1.465,-20.996,-60.059
1678025154.517,-27.344,-25.879,4.883,-14.160,120.605
1678025154.521,-23.926,-19.531,5.859,-9.277,275.391
1678025154.525,-23.926,-22.461,3.906,-28.809,-6.348
1678025154.542,-27.832,-25.879,3.418,-35.645,-130.859
1678025154.546,-36.621,-29.785,-0.488,-22.949,45.898
1678025154.550,-49.316,-27.344,2.441,-32.227,15.137
1678025154.554,-50.781,-20.508,10.742,-44.434,-142.578
1678025154.558,-53.711,-22.461,0.000,-57.617,-79.102
1678025154.562,-74.707,-25.391,-19.043,-73.730,-5.371
1678025154.566,-96.191,-24.414,-6.348,-73.730,20.020
1678025154.569,-114.746,-29.297,-5.371,-86.426,-41.992
1678025154.573,-130.371,-34.180,-22.949,-110.352,-89.844
1678025154.577,-138.672,-21.973,-23.926,-113.281,207.520
1678025154.581,-172.363,-34.180,-33.203,-142.090,142.578
1678025154.585,-203.125,-41.504,-46.875,-183.105,-142.578
1678025154.586,-229.980,-28.809,-54.199,-208.008,-135.254
1678025154.590,-252.930,-23.926,-57.129,-251.953,-71.289
1678025154.594,-260.254,-24.902,-62.012,-280.762,-139.160
1678025154.598,-278.320,-28.320,-66.406,-289.551,-237.305
1678025154.602,-295.898,-26.367,-72.266,-307.129,-156.250
1678025154.606,-309.570,-22.949,-76.172,-318.359,-4.883
1678025154.610,-311.523,-19.043,-71.289,-308.594,-28.809
1678025154.613,-296.387,-16.113,-67.871,-307.617,-134.277
1678025154.617,-280.273,-12.695,-71.289,-290.527,60.547
1678025154.621,-266.602,-6.348,-71.777,-275.879,132.324
1678025154.625,-258.789,-5.371,-69.824,-268.555,-133.301
1678025154.629,-242.676,-7.324,-68.848,-252.441,-61.035
1678025154.632,-214.355,-5.371,-66.406,-239.258,224.121
1678025154.636,-189.941,-3.418,-63.965,-227.051,119.629
1678025154.640,-173.828,-7.812,-57.617,-220.703,-156.738
1678025154.644,-165.527,-10.742,-53.711,-202.637,-120.605
1678025154.648,-149.902,-9.766,-50.293,-164.551,-48.828
1678025154.652,-121.094,-10.254,-40.527,-125.977,58.594
1678025154.656,-103.516,-15.137,-38.574,-125.977,106.934
1678025154.659,-85.938,-18.066,-41.504,-122.559,-21.484
1678025154.663,-73.730,-20.508,-35.645,-85.938,109.863
1678025154.667,-75.195,-20.020,-27.832,-65.918,62.012
1678025154.671,-76.660,-20.996,-28.809,-59.082,-102.539
1678025154.675,-66.895,-22.949,-27.832,-57.129,-110.840
1678025154.678,-55.176,-20.020,-23.438,-49.805,-83.984
1678025154.682,-43.457,-20.020,-20.020,-34.668,-83.496
1678025154.686,-37.109,-23.438,-17.090,-23.438,-84.961
1678025154.690,-29.297,-24.414,-20.020,-13.672,13.184
1678025154.694,-3.418,-25.391,-14.648,7.324,20.508
1678025154.698,0.977,-25.879,-9.277,13.672,-22.461
1678025154.702,-3.418,-22.461,-5.859,-3.906,17.090
1678025154.705,0.488,-23.438,-1.465,-6.836,114.746
1678025154.709,0.000,-30.762,-5.859,-0.488,145.508
1678025154.713,9.277,-30.273,-9.277,-11.230,-142.090
1678025154.717,20.996,-24.902,-4.883,-7.324,-191.895
1678025154.721,19.043,-26.855,2.930,6.348,71.777
1678025154.722,5.371,-27.832,3.906,2.441,-43.457
1678025154.726,3.418,-28.320,1.953,0.488,-143.555
1678025154.730,9.766,-29.297,0.977,4.883,-26.367
1678025154.734,13.672,-28.320,0.488,-6.348,17.578
1678025154.738,16.113,-27.344,3.418,-16.602,1.465
1678025154.742,10.254,-25.879,9.277,-9.766,-0.488
1678025154.746,9.766,-28.320,6.836,-10.254,37.109
1678025154.749,9.766,-26.855,7.324,0.488,206.055
1678025154.753,14.160,-24.414,8.789,-1.465,54.688
1678025154.757,16.602,-26.367,-0.977,-23.438,-172.852
1678025154.761,11.230,-20.508,0.977,-25.391,-143.066
1678025154.765,26.855,-9.277,11.719,-9.277,-118.164
1678025154.767,32.715,-8.789,14.648,-1.465,-161.621
1678025154.771,24.902,-8.301,19.531,-14.648,-200.684
1678025154.775,21.484,-10.742,19.531,-22.461,-120.117
1678025154.779,7.324,-17.090,9.277,-29.785,-87.402
1678025154.783,3.906,-17.578,13.184,-27.344,-136.230
1678025154.787,1.953,-21.484,19.531,-10.742,-81.543
1678025154.791,2.441,-22.461,20.996,-0.977,138.184
1678025154.794,12.207,-17.090,27.344,-8.301,257.324
1678025154.798,0.488,-17.090,27.832,-4.883,-49.316
1678025154.802,-8.301,-16.602,24.902,3.418,-158.691
1678025154.806,1.465,-16.602,21.484,-21.484,106.445
1678025154.810,13.184,-18.555,19.043,-53.223,81.055
1678025154.812,14.648,-15.625,25.391,-51.758,-134.766
1678025154.816,4.883,-12.207,27.344,-64.453,-95.703
1678025154.820,0.977,-9.766,27.344,-62.988,94.238
1678025154.824,5.859,-7.324,28.809,-36.133,-10.254
1678025154.828,8.789,-7.812,24.902,-31.250,-142.090
1678025154.832,11.230,-9.766,22.461,-18.066,27.832
1678025154.836,4.883,-8.789,16.113,-13.184,245.117
1678025154.839,-6.836,-5.859,16.602,-9.766,36.133
1678025154.843,-13.672,-8.301,16.602,-7.324,-156.738
1678025154.847,-8.301,-10.742,10.742,-18.555,3.906
1678025154.851,-2.930,-12.207,14.648,-17.090,99.609
1678025154.855,-20.020,-11.719,15.625,-20.996,-47.852
1678025154.857,-27.832,-8.301,14.648,-13.672,-96.680
1678025154.861,-19.531,-10.742,16.602,1.465,-61.035
1678025154.865,-7.812,-11.719,20.020,1.953,-89.844
1678025154.869,-0.488,-11.719,19.043,-1.465,-119.141
1678025154.873,-3.906,-10.742,16.602,2.930,-104.492
1678025154.877,-9.766,-8.301,16.602,9.766,20.020
1678025154.881,-7.812,-10.254,14.648,11.230,13.184
1678025154.884,-6.348,-13.184,11.719,-11.719,-148.926
1678025154.888,-13.672,-14.648,9.277,-31.250,-198.242
1678025154.892,-21.484,-13.672,7.324,-25.879,21.973
1678025154.896,-35.645,-14.648,10.254,-25.879,96.191
1678025154.900,-45.410,-14.648,11.719,-40.527,-48.828
1678025154.917,-46.387,-10.254,8.301,-46.387,10.742
1678025154.921,-49.805,-7.324,5.859,-45.410,167.969
1678025154.925,-56.641,-8.301,5.371,-53.223,33.691
1678025154.929,-69.824,-10.254,7.324,-67.383,-110.840
1678025154.933,-73.242,-15.137,7.324,-71.777,-42.969
1678025154.937,-62.012,-16.602,6.348,-79.102,66.406
1678025154.941,-62.012,-19.531,2.930,-121.582,36.621
1678025154.944,-59.570,-20.996,0.000,-152.832,-74.219
1678025154.948,-61.523,-18.066,-5.371,-147.461,-65.430
1678025154.952,-62.012,-19.043,-5.859,-154.785,159.668
1678025154.956,-48.828,-17.090,0.977,-161.621,71.777
1678025154.960,-51.758,-11.230,-2.930,-173.828,-112.793
1678025154.962,-63.477,-8.789,-6.836,-173.340,-93.750
1678025154.966,-68.848,-9.277,-5.371,-136.719,-48.828
1678025154.970,-70.312,-8.789,-6.836,-112.793,-16.602
1678025154.974,-66.406,-6.348,-7.324,-112.305,-101.074
1678025154.978,-61.035,-11.230,-9.277,-97.168,-78.125
1678025154.982,-63.477,-10.742,-8.789,-76.172,2.930
1678025154.986,-66.895,-15.137,-7.812,-62.988,9.277
1678025154.989,-70.312,-20.996,-9.277,-57.129,-54.688
1678025154.993,-69.336,-18.555,-10.254,-49.805,3.906
1678025154.997,-69.336,-20.996,-12.695,-42.480,146.484
1678025155.001,-66.406,-17.578,-17.090,-44.434,-72.754
1678025155.005,-73.242,-18.066,-19.043,-42.480,-136.719
1678025155.007,-82.031,-21.484,-18.066,-38.086,47.363
1678025155.011,-78.125,-19.043,-15.625,-39.062,14.160
1678025155.015,-75.684,-16.113,-19.043,-53.223,-116.699
1678025155.019,-69.824,-15.625,-24.902,-53.223,-83.984
1678025155.023,-72.266,-17.090,-24.902,-53.223,57.617
1678025155.027,-88.867,-18.066,-22.949,-53.223,76.172
1678025155.031,-87.891,-18.066,-21.973,-48.340,-38.086
1678025155.034,-76.660,-19.043,-20.508,-44.434,-107.422
1678025155.038,-68.359,-23.926,-22.949,-40.039,173.828
1678025155.042,-74.707,-27.832,-20.996,-44.434,112.305
1678025155.046,-83.496,-27.344,-18.066,-50.293,-190.430
1678025155.050,-80.566,-27.344,-17.090,-62.988,-169.922
1678025155.052,-81.055,-28.320,-15.625,-76.660,-118.164
1678025155.056,-78.125,-25.879,-12.207,-86.914,-131.348
1678025155.060,-80.078,-28.320,-13.184,-92.285,-116.699
1678025155.064,-92.285,-31.738,-15.625,-96.191,-131.836
1678025155.068,-90.332,-25.879,-11.230,-109.863,-106.445
1678025155.072,-72.266,-25.879,-14.160,-129.395,23.438
1678025155.076,-73.730,-27.832,-16.602,-137.695,-2.930
1678025155.079,-85.449,-24.902,-11.230,-151.855,145.020
1678025155.083,-85.449,-23.926,-4.883,-156.738,339.844
1678025155.087,-79.590,-20.996,-4.395,-166.504,-54.199
1678025155.091,-67.871,-20.020,-1.953,-183.105,-184.570
1678025155.095,-62.988,-18.555,0.000,-180.664,19.531
1678025155.097,-71.289,-22.949,-2.930,-184.082,-49.316
1678025155.101,-82.520,-23.926,-5.371,-181.641,-164.551
1678025155.105,-81.543,-18.555,-1.465,-134.766,-127.441
1678025155.109,-74.219,-19.531,0.000,-100.098,4.395
1678025155.113,-76.172,-25.391,-2.441,-101.562,-117.188
1678025155.117,-74.707,-24.414,-4.395,-102.539,-194.336
1678025155.121,-77.148,-21.484,-3.418,-87.891,-55.176
1678025155.124,-84.961,-26.367,0.488,-61.523,166.504
1678025155.128,-84.961,-25.391,5.859,-51.270,110.352
1678025155.132,-83.008,-25.879,5.859,-61.523,-84.961
1678025155.136,-75.684,-26.855,5.371,-69.824,-89.355
1678025155.140,-79.102,-26.367,6.836,-62.012,-17.578
1678025155.142,-85.449,-26.855,12.695,-49.316,-65.430
1678025155.146,-80.566,-29.297,9.277,-34.180,-90.332
1678025155.150,-77.637,-25.391,6.836,-30.762,-90.820
1678025155.154,-77.148,-21.973,11.719,-31.738,-144.531
1678025155.158,-85.449,-22.461,8.301,-24.902,-120.605
1678025155.162,-91.309,-22.461,8.789,-33.203,-55.176
1678025155.166,-83.984,-24.902,9.277,-27.832,64.941
1678025155.169,-77.148,-26.855,13.672,-27.832,170.898
1678025155.173,-68.848,-29.297,12.207,-41.504,-42.969
1678025155.177,-75.195,-29.785,11.719,-47.852,-146.973
1678025155.181,-91.309,-32.227,14.648,-43.945,41.992
1678025155.185,-90.332,-32.715,10.742,-36.133,83.496
1678025155.186,-84.961,-30.762,7.324,-35.645,-24.414
1678025155.190,-78.613,-30.273,8.301,-45.898,-59.082
1678025155.194,-83.008,-27.832,14.648,-33.203,152.344
1678025155.198,-95.703,-27.832,16.113,-23.438,188.965
1678025155.202,-94.727,-25.879,17.090,-41.504,-51.270
1678025155.206,-90.820,-25.391,20.508,-39.062,9.766
1678025155.210,-81.055,-30.273,18.066,-33.691,330.566
1678025155.213,-84.961,-27.344,14.648,-41.992,85.449
1678025155.217,-100.098,-29.297,17.090,-45.410,-190.918
1678025155.221,-88.379,-29.297,17.090,-36.621,-128.418
1678025155.225,-87.402,-26.855,14.648,-41.992,-124.023
1678025155.229,-94.727,-32.715,9.766,-62.500,-81.055
1678025155.233,-93.750,-31.738,10.254,-65.430,-129.883
1678025155.237,-104.492,-28.809,12.207,-60.547,-83.984
1678025155.241,-108.398,-27.344,14.648,-51.270,-6.348
1678025155.245,-95.703,-25.391,15.625,-52.734,-73.242
1678025155.249,-90.332,-27.832,14.648,-68.359,-125.488
1678025155.253,-95.215,-29.297,11.719,-63.477,-46.875
1678025155.257,-104.004,-31.738,9.277,-51.270,62.500
1678025155.260,-105.469,-29.785,11.719,-45.410,-26.367
1678025155.264,-94.727,-27.344,9.766,-60.547,-74.219
1678025155.268,-89.844,-26.855,7.324,-75.195,44.434
1678025155.272,-93.262,-26.855,4.395,-111.816,50.781
1678025155.276,-93.750,-25.391,1.953,-148.926,-90.332
1678025155.292,-95.703,-20.020,4.395,-156.738,-143.555
1678025155.296,-95.703,-17.578,5.859,-167.969,73.730
1678025155.300,-99.609,-15.137,4.883,-190.918,4.883
1678025155.304,-96.191,-16.602,2.930,-189.453,-195.801
1678025155.308,-96.680,-20.508,-0.977,-174.316,-59.082
1678025155.312,-98.633,-19.531,-2.930,-164.551,151.367
1678025155.316,-94.727,-20.996,1.953,-161.133,32.715
1678025155.319,-97.168,-21.484,3.418,-167.480,-165.527
1678025155.323,-97.168,-20.508,2.930,-165.039,-143.555
1678025155.327,-102.051,-24.414,2.930,-142.578,43.457
1678025155.331,-101.074,-23.926,4.883,-132.324,-18.066
1678025155.335,-98.145,-20.996,2.441,-149.902,-165.527
1678025155.337,-94.238,-22.949,3.418,-152.344,-159.668
1678025155.341,-92.285,-20.996,5.859,-153.809,-155.762
1678025155.345,-107.422,-22.461,0.977,-179.688,-125.000
1678025155.349,-103.027,-24.414,-1.953,-178.223,-94.238
1678025155.353,-90.820,-21.484,0.977,-176.758,-48.340
1678025155.357,-90.820,-21.484,2.930,-194.336,65.918
1678025155.361,-92.285,-20.020,5.371,-200.195,97.656
1678025155.364,-95.215,-19.531,3.418,-203.125,3.418
1678025155.368,-110.352,-24.414,-1.953,-197.266,72.754
1678025155.372,-110.352,-23.926,-4.883,-167.480,312.988
1678025155.376,-96.191,-25.391,-8.301,-164.062,106.934
1678025155.380,-89.355,-29.785,-8.789,-172.363,-78.613
1678025155.382,-85.938,-26.367,-6.836,-149.902,29.297
1678025155.386,-93.750,-25.879,-11.230,-136.719,-23.926
1678025155.390,-87.402,-22.461,-9.277,-117.188,-162.598
1678025155.394,-77.637,-18.555,-3.906,-105.957,-179.199
1678025155.398,-83.984,-21.484,-5.859,-109.375,-156.250
1678025155.402,-90.820,-24.414,-6.348,-110.840,-38.574
1678025155.406,-97.168,-20.996,-2.441,-111.816,-18.066
1678025155.409,-98.633,-19.531,-1.953,-94.238,-128.906
1678025155.413,-96.191,-20.996,-4.395,-69.336,197.754
1678025155.417,-96.191,-24.414,-8.789,-75.195,232.910
1678025155.421,-101.562,-24.414,-5.371,-83.984,-86.426
1678025155.425,-103.027,-21.484,-3.906,-81.055,-150.391
1678025155.427,-95.703,-21.484,-7.812,-77.148,-104.492
1678025155.431,-91.797,-25.879,-10.742,-69.336,-139.648
1678025155.435,-88.867,-28.809,-10.742,-70.801,-158.691
1678025155.439,-84.473,-28.809,-11.230,-76.172,-106.445
1678025155.443,-88.867,-28.809,-9.766,-73.730,-133.301
1678025155.447,-86.914,-26.855,-7.324,-74.707,-131.836
1678025155.451,-78.613,-25.879,-9.766,-78.613,-100.098
1678025155.454,-79.590,-25.879,-8.301,-79.102,29.297
1678025155.458,-78.613,-23.926,-7.324,-81.543,124.512
1678025155.462,-83.984,-25.391,-5.371,-88.379,-100.586
1678025155.466,-82.520,-25.391,-2.930,-81.055,-92.285
1678025155.470,-72.266,-21.484,-4.395,-75.195,167.480
1678025155.471,-72.266,-20.508,-5.859,-91.309,106.445
1678025155.475,-70.312,-21.484,-5.859,-104.004,-93.262
1678025155.479,-72.266,-17.578,-3.418,-100.098,0.977
1678025155.483,-71.289,-13.672,2.930,-98.145,100.586
1678025155.487,-66.406,-17.090,0.488,-103.027,-2.441
1678025155.491,-63.477,-20.508,-2.930,-100.586,-20.020
1678025155.495,-70.801,-22.949,-2.930,-94.238,65.918
1678025155.498,-88.867,-26.367,-3.906,-92.773,211.426
1678025155.502,-93.262,-27.832,-3.418,-103.027,65.918
1678025155.506,-79.590,-23.438,0.488,-108.398,-167.480
1678025155.510,-68.848,-23.926,1.465,-111.816,-81.055
1678025155.514,-65.918,-23.926,1.465,-108.887,-30.273
1678025155.518,-73.242,-22.461,1.465,-105.469,-137.207
1678025155.522,-84.473,-27.832,-6.836,-104.004,-116.699
1678025155.526,-80.078,-28.320,-7.324,-105.957,7.324
1678025155.530,-73.730,-26.367,-7.812,-104.004,124.023
1678025155.534,-80.078,-25.879,-5.859,-106.445,-62.988
1678025155.538,-83.984,-30.273,-5.859,-110.352,-68.848
1678025155.542,-96.680,-32.715,-10.742,-107.422,219.727
1678025155.545,-97.656,-27.832,-5.371,-90.820,192.383
1678025155.549,-74.219,-25.391,-1.465,-87.891,-115.234
1678025155.553,-66.895,-21.973,-0.488,-111.816,-165.039
1678025155.557,-72.754,-21.973,-0.977,-123.047,-97.656
1678025155.561,-73.242,-26.855,-7.812,-125.977,-83.984
1678025155.562,-63.965,-27.832,-12.695,-116.699,-161.133
1678025155.566,-51.758,-20.996,-9.766,-109.375,-155.762
1678025155.570,-50.293,-21.484,-12.695,-109.375,16.602
1678025155.574,-50.293,-26.855,-18.555,-111.328,-53.711
1678025155.578,-52.734,-22.461,-10.254,-119.629,-229.492
1678025155.582,-53.223,-23.438,-9.766,-126.465,-160.645
1678025155.586,-58.594,-26.367,-15.137,-116.699,200.195
1678025155.589,-60.547,-22.949,-11.230,-115.723,171.875
1678025155.593,-63.477,-21.484,-9.277,-112.305,-177.734
1678025155.597,-77.637,-21.484,-12.207,-99.609,-176.270
1678025155.601,-89.355,-23.438,-13.672,-93.262,-136.719
1678025155.605,-86.914,-24.902,-7.812,-86.914,-116.211
1678025155.607,-73.730,-18.066,-0.977,-65.918,-108.398
1678025155.611,-76.172,-19.043,-6.836,-47.363,-129.395
1678025155.615,-101.562,-22.949,-14.648,-59.082,-84.961
1678025155.619,-119.141,-25.879,-16.113,-67.871,-80.566
1678025155.623,-132.812,-28.809,-12.207,-84.473,-74.219
1678025155.627,-156.250,-28.320,-24.414,-99.121,7.812
1678025155.631,-180.664,-29.785,-40.527,-113.281,56.152
1678025155.634,-207.520,-30.762,-35.156,-129.883,-28.320
1678025155.638,-231.445,-27.832,-43.457,-140.137,-163.574
1678025155.642,-240.234,-28.809,-59.082,-158.203,-12.695
1678025155.646,-252.441,-33.691,-63.965,-187.012,175.293
1678025155.650,-290.527,-38.086,-71.289,-221.680,27.832
1678025155.666,-318.848,-31.250,-81.543,-250.000,-58.105
1678025155.670,-323.730,-26.855,-85.449,-249.023,54.199
1678025155.674,-323.242,-30.762,-89.844,-241.211,-41.504
1678025155.678,-311.523,-30.273,-90.820,-232.910,-247.070
1678025155.682,-290.527,-28.809,-87.891,-217.773,-148.926
1678025155.686,-272.461,-28.320,-82.520,-208.984,6.348
1678025155.690,-253.418,-23.438,-82.520,-189.453,-41.504
1678025155.693,-237.793,-22.461,-83.496,-165.527,-145.508
1678025155.697,-222.168,-25.879,-75.684,-143.555,-102.051
1678025155.701,-195.312,-31.250,-71.777,-123.047,166.992
1678025155.705,-172.852,-28.809,-68.848,-100.098,90.332
1678025155.709,-154.297,-25.879,-60.547,-87.402,-168.457
1678025155.711,-145.508,-28.809,-54.688,-80.566,-135.254
1678025155.715,-130.859,-27.344,-53.711,-69.824,-109.375
1678025155.719,-105.957,-25.391,-46.875,-50.781,-197.266
1678025155.723,-99.121,-24.414,-43.945,-41.016,-217.285
1678025155.727,-85.449,-27.344,-44.922,-29.297,-145.508
1678025155.731,-63.477,-31.738,-42.969,-22.949,-54.688
1678025155.735,-58.105,-33.691,-39.062,-14.648,36.621
1678025155.738,-45.410,-32.715,-29.785,12.207,-39.551
1678025155.742,-29.297,-33.691,-20.020,23.438,-12.207
1678025155.746,-26.367,-33.691,-16.602,17.578,155.762
1678025155.750,-24.414,-35.156,-11.719,29.297,-14.648
1678025155.754,-15.625,-35.156,-4.395,35.156,-56.152
1678025155.756,-0.977,-28.809,1.465,37.109,113.281
1678025155.760,-0.488,-34.180,6.348,35.156,56.152
1678025155.764,-2.930,-36.133,9.277,41.992,-162.109
1678025155.768,6.348,-36.133,10.254,60.547,-126.465
1678025155.772,8.301,-41.992,10.254,58.105,-68.359
1678025155.776,12.695,-41.016,15.137,49.805,-104.004
1678025155.780,21.973,-36.621,22.949,46.875,-93.750
1678025155.783,25.391,-36.133,24.902,51.758,-83.984
1678025155.787,21.484,-38.574,29.297,72.266,135.254
1678025155.791,27.344,-36.621,32.715,63.965,63.965
1678025155.795,30.273,-38.574,36.133,39.551,-163.574
1678025155.799,30.273,-40.527,37.109,44.922,-139.160
1678025155.801,29.785,-36.133,34.180,49.316,-95.703
1678025155.805,23.438,-33.203,35.645,42.969,-98.145
1678025155.809,20.020,-35.645,37.109,41.504,-130.859
1678025155.813,25.879,-39.062,34.180,39.062,-63.965
1678025155.817,32.715,-40.527,39.062,42.969,-3.906
1678025155.821,31.250,-39.551,44.434,47.363,-36.133
1678025155.825,25.879,-39.551,42.480,54.688,-28.320
1678025155.828,28.320,-34.668,42.480,63.477,95.215
1678025155.832,32.227,-29.785,44.922,59.082,173.828
1678025155.836,30.273,-26.855,45.898,34.180,-37.109
1678025155.840,12.695,-29.785,47.852,24.902,-109.863
1678025155.844,2.930,-28.809,46.875,29.785,113.281
1678025155.848,6.348,-25.391,45.410,33.203,37.109
1678025155.852,-0.977,-32.227,49.316,22.461,-172.852
1678025155.856,-3.906,-37.598,49.316,23.926,-73.730
1678025155.860,-9.277,-36.621,49.316,37.109,132.324
1678025155.864,-10.742,-35.156,50.293,24.414,11.719
1678025155.868,-3.418,-31.738,49.316,20.508,-79.590
1678025155.872,-4.395,-31.738,49.805,22.949,41.504
1678025155.875,-13.184,-35.645,51.270,18.555,229.492
1678025155.879,-19.531,-38.574,49.805,14.160,65.918
1678025155.883,-25.879,-34.668,51.758,18.066,-181.152
1678025155.887,-30.273,-33.203,47.363,5.859,-151.855
1678025155.891,-30.273,-36.621,44.434,-13.184,-40.527
1678025155.891,-22.461,-38.086,49.316,-4.395,-88.867
1678025155.895,-21.484,-35.156,48.828,-8.789,-161.133
1678025155.899,-19.043,-32.715,49.805,-15.625,-100.586
1678025155.903,-14.160,-32.227,49.316,-9.766,-78.613
1678025155.907,-19.531,-30.762,47.363,-3.418,-70.801
1678025155.911,-10.742,-29.297,45.898,3.418,-58.105
1678025155.915,-5.371,-27.832,45.898,4.883,153.809
1678025155.918,-20.020,-27.832,46.875,11.719,480.957
1678025155.922,-27.344,-27.344,48.340,8.301,107.422
1678025155.926,-14.160,-30.273,54.199,2.441,-248.535
1678025155.930,-7.812,-29.297,48.828,-1.465,-144.531
1678025155.934,-19.531,-30.273,38.086,-15.137,-65.918
1678025155.936,-32.715,-29.785,39.062,-16.113,-183.594
1678025155.940,-41.992,-29.297,41.504,-8.789,-191.406
1678025155.944,-38.574,-35.645,39.551,-10.742,36.621
1678025155.948,-26.367,-36.621,38.086,-20.996,-68.359
1678025155.952,-26.367,-33.203,41.016,-22.949,-230.957
1678025155.956,-36.621,-29.297,41.016,-23.438,-109.863
1678025155.960,-41.504,-29.297,41.992,-24.414,231.934
1678025155.963,-40.039,-26.367,41.992,-27.344,211.426
1678025155.967,-43.945,-23.438,39.062,-48.828,-123.047
1678025155.971,-46.387,-29.785,39.551,-61.523,-125.488
1678025155.975,-49.316,-32.227,39.062,-55.176,76.172
1678025155.979,-50.781,-28.809,39.062,-49.805,-32.715
1678025155.982,-47.852,-25.879,37.598,-58.105,-131.348
1678025155.986,-38.574,-29.785,31.250,-56.641,-34.668
1678025155.990,-30.762,-32.715,28.320,-41.504,5.859
1678025155.994,-42.480,-25.879,29.297,-46.875,-91.797
1678025155.998,-50.781,-22.461,31.250,-59.570,-125.000
1678025156.002,-49.805,-25.879,25.391,-53.711,47.852
1678025156.006,-41.016,-24.414,24.414,-51.270,162.598
1678025156.009,-34.668,-25.879,28.320,-49.805,-12.695
1678025156.013,-39.062,-27.832,28.809,-43.457,-119.141
1678025156.017,-44.922,-20.996,29.785,-31.250,27.344
1678025156.021,-40.039,-19.531,30.273,-17.090,114.746
1678025156.025,-35.156,-22.461,28.320,-26.367,-64.453
1678025156.042,-29.297,-21.484,22.461,-34.180,-174.805
1678025156.046,-42.969,-26.367,18.066,-30.273,12.695
1678025156.050,-60.059,-28.809,15.625,-25.879,74.707
1678025156.054,-44.922,-30.273,15.625,-39.062,-115.723
1678025156.058,-33.203,-29.785,17.090,-41.504,-115.234
1678025156.062,-38.086,-24.414,18.066,-39.551,1.953
1678025156.066,-38.086,-27.344,16.113,-41.504,-80.566
1678025156.069,-51.758,-30.273,14.160,-41.504,-215.820
1678025156.073,-58.594,-31.738,11.230,-48.828,-105.469
1678025156.077,-50.781,-31.738,11.719,-34.180,121.582
1678025156.081,-46.875,-35.156,9.766,-45.410,0.977
1678025156.085,-48.340,-36.621,8.789,-70.801,-154.785
1678025156.087,-41.504,-32.715,10.742,-60.059,-94.727
1678025156.091,-45.898,-32.227,8.789,-46.875,13.184
1678025156.095,-46.875,-35.156,3.418,-53.711,-32.227
1678025156.099,-40.527,-37.109,1.953,-60.059,-119.629
1678025156.103,-42.969,-33.203,9.277,-55.176,-27.344
1678025156.107,-53.223,-29.785,13.184,-54.688,28.320
1678025156.111,-61.035,-31.738,11.719,-42.480,21.484
1678025156.114,-42.480,-33.203,9.766,-49.805,-76.172
1678025156.118,-34.180,-35.645,10.254,-59.082,2.930
1678025156.122,-36.621,-37.598,12.695,-52.246,141.602
1678025156.126,-42.969,-33.691,10.742,-47.852,-121.094
1678025156.130,-50.781,-30.273,8.789,-34.180,-155.762
1678025156.133,-43.457,-33.691,7.324,-24.902,44.434
1678025156.137,-43.457,-37.109,1.953,-34.668,-61.035
1678025156.141,-48.828,-39.062,0.000,-58.594,-183.594
1678025156.145,-54.199,-38.086,1.953,-59.570,-137.207
1678025156.149,-61.523,-34.668,0.488,-44.922,-16.113
1678025156.153,-56.152,-34.668,-1.953,-41.992,-28.320
1678025156.157,-41.016,-38.574,-3.418,-41.504,-122.070
1678025156.160,-48.340,-38.574,-6.348,-52.246,-63.477
1678025156.164,-58.105,-33.203,-8.789,-61.523,163.086
1678025156.168,-60.547,-32.715,-7.324,-52.734,31.250
1678025156.172,-56.152,-32.715,-6.836,-40.039,-136.719
1678025156.176,-39.551,-28.809,-3.418,-31.738,-108.398
1678025156.178,-36.133,-28.320,-3.906,-35.645,-142.090
1678025156.182,-40.527,-28.809,-2.441,-41.504,-177.246
1678025156.186,-49.805,-29.297,-0.488,-38.086,-107.910
1678025156.190,-58.105,-29.297,-5.371,-37.598,18.066
1678025156.194,-52.246,-32.715,-12.207,-43.945,17.090
1678025156.198,-49.316,-35.156,-9.766,-49.316,32.227
1678025156.202,-49.316,-35.645,-9.766,-57.129,62.988
1678025156.205,-54.199,-33.691,-11.719,-45.898,128.418
1678025156.209,-61.035,-29.785,-9.766,-36.133,341.309
1678025156.213,-49.805,-29.297,-13.672,-53.223,76.660
1678025156.217,-42.969,-30.762,-18.066,-68.848,-99.121
1678025156.221,-56.641,-26.855,-15.137,-79.102,114.746
1678025156.222,-61.523,-24.414,-9.766,-80.566,39.551
1678025156.226,-53.711,-24.414,-4.883,-79.102,-114.746
1678025156.230,-53.711,-26.855,-7.324,-97.656,-67.383
1678025156.234,-49.316,-26.367,-6.348,-121.094,-90.332
1678025156.238,-52.734,-25.391,-6.836,-134.277,-129.395
1678025156.242,-63.965,-28.809,-10.742,-153.809,-94.238
1678025156.246,-63.965,-29.297,-7.812,-159.180,0.000
1678025156.249,-52.246,-26.855,-7.324,-145.996,348.145
1678025156.253,-45.410,-24.902,-6.348,-157.227,220.703
1678025156.257,-51.270,-18.555,-0.977,-173.828,-121.094
1678025156.261,-59.082,-19.043,-3.418,-170.898,-154.297
1678025156.265,-59.570,-26.855,-5.859,-167.480,-157.227
1678025156.282,-57.617,-30.762,-9.766,-177.246,-137.207
1678025156.286,-59.570,-29.297,-11.719,-193.848,-100.586
1678025156.290,-58.105,-27.344,-9.277,-193.848,-50.293
1678025156.294,-52.734,-22.461,-7.812,-183.105,-66.406
1678025156.298,-50.293,-20.508,-11.230,-173.340,-125.977
1678025156.302,-39.551,-21.973,-12.207,-170.898,-146.484
1678025156.306,-20.508,-18.066,-8.789,-175.781,87.891
1678025156.309,-21.484,-20.508,-12.207,-182.617,239.258
1678025156.313,-27.832,-23.438,-13.672,-184.570,-22.461
1678025156.317,-23.926,-20.508,-11.230,-173.340,-84.473
1678025156.321,-17.578,-16.113,-9.766,-157.227,63.477
1678025156.325,-12.207,-18.066,-13.672,-169.922,47.852
1678025156.311,-25.879,-24.414,-15.137,-180.664,-121.094
1678025156.315,-39.551,-22.461,-13.672,-158.203,-172.852
1678025156.319,-48.828,-21.484,-11.230,-151.855,41.992
1678025156.323,-50.781,-22.949,-11.719,-142.578,19.043
1678025156.327,-48.828,-20.996,-11.230,-131.836,-176.758
1678025156.331,-51.270,-22.949,-9.766,-125.000,-80.078
1678025156.335,-54.688,-25.879,-12.207,-138.184,80.566
1678025156.338,-57.617,-28.320,-14.648,-141.113,-24.414
1678025156.342,-54.688,-32.715,-16.113,-117.676,-91.797
1678025156.346,-47.852,-31.250,-19.531,-124.512,-55.664
1678025156.350,-47.363,-29.785,-28.320,-125.000,192.383
1678025156.354,-63.477,-34.180,-30.762,-116.211,120.605
1678025156.359,-66.406,-33.203,-31.738,-111.816,-134.766
1678025156.363,-55.176,-29.297,-31.738,-100.098,-114.746
1678025156.367,-61.035,-28.809,-26.855,-95.215,-32.715
1678025156.371,-64.941,-28.809,-26.367,-105.469,-126.953
1678025156.375,-60.059,-29.785,-27.344,-98.633,-148.926
1678025156.379,-62.988,-28.809,-24.902,-61.035,30.273
1678025156.383,-63.477,-28.320,-26.855,-37.598,59.082
1678025156.386,-57.129,-28.809,-28.809,-38.574,-47.852
1678025156.390,-55.664,-34.668,-28.320,-25.879,-120.117
1678025156.394,-51.270,-38.086,-33.691,-7.324,-47.852
1678025156.398,-48.828,-32.227,-34.180,-18.066,37.598
1678025156.402,-53.711,-29.785,-35.156,-57.617,-46.875
1678025156.417,-52.246,-36.621,-39.062,-115.234,-92.285
1678025156.421,-49.316,-32.227,-34.668,-145.996,45.410
1678025156.425,-48.828,-30.273,-31.738,-163.086,69.824
1678025156.429,-49.805,-31.250,-29.297,-176.758,-127.930
1678025156.433,-54.688,-32.715,-26.367,-171.875,-187.500
1678025156.437,-46.387,-34.668,-24.902,-183.594,135.254
1678025156.441,-34.668,-30.273,-25.879,-196.777,129.395
1678025156.444,-41.016,-30.762,-28.320,-204.102,-191.406
1678025156.448,-50.293,-33.203,-29.297,-215.332,-118.652
1678025156.452,-52.246,-34.668,-31.250,-212.891,99.609
1678025156.456,-56.641,-37.598,-33.691,-219.727,-38.574
1678025156.460,-62.012,-38.086,-31.738,-243.164,-166.016
1678025156.462,-58.594,-38.574,-32.227,-257.324,-145.508
1678025156.466,-69.824,-38.574,-34.180,-261.719,-67.383
1678025156.470,-80.566,-37.598,-32.715,-257.324,-77.148
1678025156.474,-70.312,-39.062,-31.250,-258.789,-149.414
1678025156.478,-64.453,-36.133,-32.715,-267.578,19.043
1678025156.482,-58.105,-32.715,-30.273,-255.859,112.793
1678025156.486,-68.848,-33.691,-30.762,-234.863,-40.527
1678025156.489,-83.008,-33.691,-32.715,-226.074,-148.926
1678025156.493,-61.523,-31.250,-23.926,-214.355,0.977
1678025156.497,-49.316,-30.762,-19.531,-204.590,148.926
1678025156.501,-42.969,-25.879,-21.484,-213.379,-55.664
1678025156.505,-46.875,-27.832,-20.996,-226.074,-39.551
1678025156.507,-60.059,-33.691,-24.414,-229.980,142.090
1678025156.511,-42.969,-33.203,-26.855,-215.332,46.387
1678025156.515,-31.250,-30.762,-27.832,-206.543,-117.676
1678025156.519,-35.156,-31.250,-27.344,-219.238,-74.707
1678025156.523,-34.180,-30.762,-22.949,-220.215,-25.879
1678025156.527,-35.645,-30.762,-20.020,-215.332,25.391
1678025156.531,-34.668,-32.715,-20.996,-215.820,14.648
1678025156.534,-32.715,-35.156,-24.902,-179.199,52.246
1678025156.538,-35.156,-39.062,-31.250,-101.562,295.410
1678025156.542,-35.645,-34.180,-27.832,-35.156,192.383
1678025156.546,-42.480,-34.668,-24.902,-9.766,-82.031
1678025156.550,-49.805,-38.574,-29.785,7.812,-103.027
1678025156.557,-52.246,-35.645,-27.344,22.949,-45.898
1678025156.561,-55.664,-33.203,-27.344,24.414,-56.641
1678025156.565,-60.547,-32.715,-31.250,35.156,-127.930
1678025156.569,-55.664,-31.250,-24.414,43.945,-132.812
1678025156.573,-57.129,-32.227,-19.043,56.152,-89.355
1678025156.577,-49.316,-35.156,-15.625,76.660,-48.828
1678025156.581,-35.156,-33.203,-16.602,82.520,-25.391
1678025156.584,-41.016,-36.133,-17.578,95.703,72.266
1678025156.588,-47.852,-40.527,-18.555,105.469,181.641
1678025156.592,-48.340,-37.109,-13.184,100.586,-20.020
1678025156.596,-36.621,-36.133,-10.254,63.477,-139.160
1678025156.600,-29.785,-37.109,-16.113,26.367,80.566
1678025156.596,-43.457,-36.133,-19.043,5.859,63.477
1678025156.600,-48.828,-34.180,-15.137,-8.301,-175.781
1678025156.604,-47.363,-33.691,-14.160,0.488,-168.457
1678025156.608,-47.852,-38.086,-19.531,-4.395,-59.082
1678025156.612,-45.898,-36.621,-19.531,8.301,-70.312
1678025156.616,-47.852,-35.156,-18.066,26.855,-127.930
1678025156.620,-55.176,-38.086,-20.020,36.621,-58.594
1678025156.623,-58.594,-37.598,-17.578,52.246,240.723
1678025156.627,-59.082,-36.621,-20.508,45.410,133.301
1678025156.631,-53.711,-34.180,-21.973,39.062,-138.672
1678025156.635,-52.734,-37.598,-21.484,22.949,-117.188
1678025156.639,-62.500,-38.574,-26.855,-34.180,-87.891
1678025156.641,-70.801,-36.133,-26.367,-82.031,-87.402
1678025156.645,-68.359,-36.133,-25.391,-117.188,-110.352
1678025156.649,-59.570,-36.621,-27.344,-143.066,-82.031
1678025156.653,-53.223,-37.109,-23.438,-142.090,-17.090
1678025156.657,-62.500,-29.785,-18.066,-145.508,-76.660
1678025156.661,-81.055,-29.785,-15.625,-156.250,-72.754
1678025156.665,-72.266,-29.297,-18.555,-143.555,73.730
1678025156.668,-63.477,-28.809,-20.020,-125.000,194.824
1678025156.672,-74.219,-32.227,-20.508,-143.066,-87.891
1678025156.676,-96.191,-31.250,-26.367,-178.223,-197.266
1678025156.680,-111.328,-35.645,-28.809,-203.125,9.766
1678025156.684,-120.117,-29.785,-29.297,-221.680,7.324
1678025156.703,-131.348,-19.531,-34.668,-252.930,-145.996
1678025156.707,-135.742,-27.344,-47.363,-283.203,-174.805
1678025156.711,-140.625,-31.250,-53.711,-315.918,42.969
1678025156.715,-177.246,-25.879,-57.617,-364.746,34.668
1678025156.719,-215.820,-24.902,-63.477,-404.297,-214.355
1678025156.723,-207.520,-23.926,-71.777,-425.781,-133.301
1678025156.727,-210.938,-20.996,-81.543,-456.055,165.527
1678025156.730,-226.562,-24.414,-85.938,-471.680,4.395
1678025156.734,-222.656,-22.461,-78.613,-470.215,-212.402
1678025156.738,-213.379,-14.648,-75.195,-443.359,-86.914
1678025156.742,-201.660,-15.625,-78.613,-370.605,12.695
1678025156.746,-185.547,-21.484,-73.242,-323.730,-121.582
1678025156.731,-178.711,-22.949,-70.801,-299.316,-187.012
1678025156.735,-176.758,-22.949,-72.266,-280.273,-120.117
1678025156.739,-171.387,-24.414,-70.312,-246.582,-117.676
1678025156.743,-157.227,-23.926,-67.383,-230.469,-72.754
1678025156.747,-137.695,-20.996,-65.430,-213.867,0.488
1678025156.751,-120.117,-24.902,-67.383,-177.246,65.918
1678025156.755,-120.117,-31.738,-62.988,-168.457,83.008
1678025156.758,-111.328,-30.762,-56.152,-147.949,18.066
1678025156.762,-92.773,-27.344,-56.152,-121.094,-80.566
1678025156.766,-91.797,-27.832,-52.246,-103.516,41.016
1678025156.770,-86.914,-31.250,-54.199,-92.285,304.688
1678025156.774,-77.637,-30.273,-55.176,-49.805,57.129
1678025156.792,-72.266,-34.668,-50.293,-18.555,-165.039
1678025156.796,-58.105,-29.297,-44.434,-20.020,30.762
1678025156.800,-42.969,-24.414,-39.551,-48.828,52.246
1678025156.804,-34.668,-30.273,-38.574,-86.426,-144.531
1678025156.808,-39.551,-34.668,-35.645,-92.285,-153.809
1678025156.812,-42.969,-38.086,-34.180,-103.027,3.418
1678025156.816,-29.785,-38.086,-38.086,-120.117,-5.371
1678025156.819,-25.879,-38.086,-32.227,-119.629,-59.082
1678025156.823,-36.621,-38.574,-25.879,-115.234,-52.246
1678025156.827,-38.574,-38.574,-27.344,-111.816,121.582
1678025156.831,-41.504,-40.039,-27.832,-130.371,62.012
1678025156.835,-35.156,-37.598,-27.344,-132.812,-124.023
1678025156.837,-19.043,-32.227,-21.973,-113.770,-105.469
1678025156.841,-14.648,-37.109,-20.508,-110.352,-84.473
1678025156.845,-16.113,-35.645,-17.578,-103.516,-125.977
1678025156.849,-27.832,-32.715,-15.625,-98.145,-121.582
1678025156.853,-23.438,-34.180,-15.137,-94.238,-86.914
1678025156.857,-8.789,-34.180,-17.578,-93.750,-90.820
1678025156.861,-11.230,-34.668,-20.020,-89.844,-37.598
1678025156.864,-8.789,-34.180,-15.137,-97.168,-83.984
1678025156.868,-7.812,-34.668,-9.766,-98.633,33.203
1678025156.872,-9.277,-32.715,-12.207,-79.102,328.125
1678025156.876,0.000,-35.156,-13.184,-61.523,35.156
1678025156.880,14.160,-34.180,-10.742,-56.152,-150.391
1678025156.882,9.277,-34.668,-11.230,-60.059,1.465
1678025156.886,-3.418,-34.668,-10.742,-52.246,-72.754
1678025156.890,-1.465,-34.180,-5.859,-56.152,-200.684
1678025156.894,11.230,-33.203,-2.441,-60.547,-129.883
1678025156.898,10.742,-33.203,-6.348,-67.871,-46.387
1678025156.902,2.930,-34.668,-10.254,-83.496,-15.137
1678025156.906,-5.859,-34.180,-9.277,-86.914,-58.105
1678025156.909,-16.113,-38.086,-9.277,-63.477,-85.449
1678025156.913,-16.602,-35.645,-8.789,-43.457,184.570
1678025156.917,-17.090,-29.297,-7.812,-57.129,84.961
1678025156.921,-15.137,-31.738,-6.348,-78.613,-155.273
1678025156.925,-16.602,-33.203,-5.859,-50.293,-43.945
1678025156.927,-20.996,-29.297,-7.324,-14.160,12.695
1678025156.931,-20.508,-28.320,-5.371,-26.367,-80.078
1678025156.935,-12.695,-25.879,-0.488,-42.969,-77.148
1678025156.939,-7.812,-30.762,0.977,-44.434,-52.734
1678025156.943,-12.207,-31.250,3.906,-34.180,-65.918
1678025156.947,-19.531,-33.203,1.953,-32.715,-47.852
1678025156.951,-18.066,-36.621,-0.977,-30.762,-50.781
1678025156.954,-6.348,-32.715,-0.488,-36.133,32.227
1678025156.958,0.000,-29.297,0.000,-49.805,10.742
1678025156.962,-8.301,-34.668,1.465,-42.480,-106.934
1678025156.966,-17.578,-32.715,3.418,-32.227,-145.996
1678025156.970,-8.789,-25.879,2.441,-28.320,66.406
1678025156.973,-7.812,-31.738,-4.395,-17.578,279.785
1678025156.977,-5.371,-30.273,-4.883,-25.391,25.879
1678025156.981,-1.953,-28.320,-2.930,-29.785,-94.238
1678025156.985,-11.230,-30.762,-9.277,-21.484,91.309
1678025156.989,-7.324,-28.320,-8.301,-10.742,-0.977
1678025156.993,3.418,-28.809,-5.859,-5.859,-86.914
1678025156.997,5.371,-29.785,-14.648,-9.766,18.066
1678025157.000,-3.906,-25.391,-12.695,4.395,199.219
1678025157.004,-16.113,-21.973,-10.742,5.859,28.320
1678025157.008,-19.043,-24.414,-13.672,2.930,-138.672
1678025157.012,-20.020,-31.250,-13.184,10.254,-54.688
1678025157.016,-21.484,-26.855,-10.742,20.996,-96.191
1678025157.017,-21.973,-20.508,-9.277,45.410,-162.109
1678025157.021,-41.016,-26.367,-7.812,62.012,-183.105
1678025157.025,-42.969,-23.438,-7.324,79.102,-94.727
1678025157.029,-28.320,-16.602,-7.812,82.031,-4.883
1678025157.033,-24.414,-23.438,-7.324,48.340,-48.340
1678025157.037,-30.273,-30.762,-9.766,43.945,-84.473
1678025157.041,-41.992,-25.879,-9.277,81.055,104.980
1678025157.044,-46.387,-26.367,-7.324,114.258,362.793
1678025157.048,-37.598,-28.320,-10.254,113.770,69.336
1678025157.052,-29.297,-24.414,-9.766,95.703,-190.430
1678025157.056,-34.180,-24.414,-11.719,75.684,-67.383
1678025157.060,-45.898,-25.391,-16.602,63.965,-11.719
1678025157.062,-38.574,-25.879,-19.043,75.195,-154.297
1678025157.066,-20.996,-24.414,-20.996,89.844,-187.012
1678025157.070,-15.137,-27.344,-24.414,106.934,53.223
1678025157.074,-20.996,-27.344,-24.414,118.164,-46.875
1678025157.078,-40.039,-24.902,-21.484,115.234,-174.805
1678025157.082,-44.434,-29.785,-24.902,97.656,-29.297
1678025157.086,-47.363,-31.738,-26.855,98.145,178.711
1678025157.089,-41.016,-29.785,-25.391,103.516,74.219
1678025157.093,-31.250,-23.926,-23.926,92.773,-174.805
1678025157.097,-51.758,-27.344,-27.344,91.797,-191.406
1678025157.101,-56.152,-31.738,-30.273,102.539,-15.625
1678025157.105,-43.945,-29.785,-32.715,109.375,-92.773
1678025157.107,-44.922,-32.715,-29.297,113.770,-133.301
1678025157.111,-47.363,-32.715,-25.391,112.305,-60.059
1678025157.115,-43.457,-27.832,-29.297,111.816,-81.543
1678025157.119,-39.062,-28.320,-31.738,90.332,-107.422
1678025157.123,-30.762,-31.250,-32.715,67.871,-69.336
1678025157.127,-20.996,-29.297,-33.203,39.062,100.098
1678025157.131,-19.043,-31.738,-34.180,8.789,123.535
1678025157.134,-20.020,-30.762,-34.668,-8.789,-27.832
1678025157.138,-28.320,-26.855,-32.715,-20.508,-4.883
1678025157.142,-29.297,-25.391,-28.320,-15.625,96.680
1678025157.146,-26.367,-22.461,-26.367,-0.977,252.930
1678025157.150,-23.926,-25.879,-30.762,-5.371,83.008
1678025157.166,-25.879,-28.809,-32.715,9.277,-124.512
1678025157.170,-37.109,-25.879,-30.273,33.691,15.625
1678025157.174,-28.320,-23.438,-26.855,38.086,-26.855
1678025157.178,-15.137,-24.414,-23.438,34.180,-105.469
1678025157.182,-25.879,-30.273,-20.508,34.180,-7.324
1678025157.186,-41.504,-36.621,-21.973,40.039,34.180
1678025157.190,-37.598,-32.715,-21.484,42.480,82.031
1678025157.193,-26.855,-27.832,-21.484,34.180,-30.273
1678025157.197,-29.785,-30.762,-27.344,33.691,-62.988
1678025157.201,-32.227,-30.273,-28.809,41.992,41.504
1678025157.205,-28.320,-25.879,-24.414,40.527,-36.621
1678025157.209,-35.645,-28.320,-23.438,44.922,-142.578
1678025157.227,-44.434,-31.250,-25.391,50.293,-73.242
1678025157.231,-33.203,-30.273,-27.832,30.762,245.117
1678025157.235,-27.344,-28.809,-26.855,2.441,153.809
1678025157.239,-24.902,-25.879,-21.484,-6.348,-142.090
1678025157.243,-19.531,-23.926,-14.648,-30.273,-107.910
1678025157.247,-20.508,-25.391,-17.090,-58.594,0.977
1678025157.251,-14.160,-25.879,-21.484,-71.777,-46.875
1678025157.254,-10.254,-27.832,-17.090,-88.379,-194.336
1678025157.258,-17.090,-30.762,-15.137,-104.004,-33.691
1678025157.262,-26.367,-32.715,-16.113,-86.914,124.512
1678025157.266,-33.691,-32.227,-15.625,-87.402,-127.441
1678025157.270,-36.621,-34.668,-14.648,-114.258,-124.512
1678025157.258,-42.480,-37.109,-16.602,-100.586,179.688
1678025157.262,-49.316,-39.062,-19.531,-81.543,123.535
1678025157.266,-56.152,-38.574,-22.949,-68.359,-139.648
1678025157.270,-59.082,-39.062,-22.461,-36.133,-99.609
1678025157.274,-46.387,-40.527,-20.020,-16.113,-68.848
1678025157.278,-33.203,-39.551,-19.531,-18.066,-97.656
1678025157.282,-28.320,-38.574,-19.043,-19.531,-74.219
1678025157.285,-41.504,-40.039,-20.020,0.000,-52.734
1678025157.289,-51.270,-42.480,-19.531,19.531,-49.316
1678025157.293,-35.156,-34.668,-16.113,35.156,-62.500
1678025157.297,-39.551,-26.855,-17.578,38.574,-140.137
1678025157.301,-46.387,-28.320,-20.020,33.203,-89.844
1678025157.302,-44.922,-33.691,-17.578,12.695,222.168
1678025157.306,-51.270,-29.785,-13.672,-0.977,38.086
1678025157.310,-48.828,-28.809,-14.648,-12.207,-159.180
1678025157.314,-51.758,-36.621,-20.020,-8.301,19.043
1678025157.318,-52.246,-37.109,-22.949,13.184,-41.504
1678025157.322,-48.828,-35.156,-21.973,32.715,-111.328
1678025157.326,-55.664,-39.551,-21.484,40.039,-60.059
1678025157.329,-49.805,-38.086,-20.020,45.898,20.996
1678025157.333,-48.340,-32.715,-13.672,64.453,175.293
1678025157.337,-41.992,-32.715,-12.695,57.617,-80.566
1678025157.341,-41.992,-31.738,-14.648,62.012,-157.227
1678025157.345,-50.293,-32.715,-11.719,79.590,102.539
1678025157.347,-39.551,-29.297,-9.766,74.707,43.945
1678025157.351,-28.809,-26.367,-9.277,65.918,-163.086
1678025157.355,-20.508,-31.250,-10.254,62.988,-159.668
1678025157.359,-17.578,-34.180,-8.789,58.105,-114.746
1678025157.363,-37.598,-34.668,-13.184,61.523,-103.516
1678025157.367,-47.363,-33.203,-17.578,58.594,-70.312
1678025157.371,-40.039,-33.203,-17.578,46.875,-14.160
1678025157.374,-35.645,-34.668,-23.438,36.621,65.430
1678025157.378,-41.016,-32.227,-26.367,31.250,-4.883
1678025157.382,-50.293,-29.785,-23.926,29.785,-113.770
1678025157.386,-56.152,-29.297,-17.090,25.391,-59.570
1678025157.390,-59.570,-32.715,-15.137,29.785,194.824
1678025157.453,-47.363,-34.180,-18.555,17.578,41.504
1678025157.457,-44.922,-32.715,-20.020,3.418,-225.098
1678025157.461,-59.570,-38.574,-21.973,-4.883,-111.328
1678025157.465,-61.523,-38.574,-26.855,-8.301,-106.445
1678025157.469,-60.547,-38.086,-29.297,-14.160,-109.375
1678025157.473,-58.105,-43.457,-31.250,-16.602,33.691
1678025157.477,-49.805,-40.039,-30.273,-12.207,151.855
1678025157.480,-53.223,-35.156,-26.855,-1.953,280.762
1678025157.484,-52.246,-39.551,-22.949,7.324,27.344
1678025157.488,-49.316,-38.086,-20.508,9.766,-187.500
1678025157.492,-48.828,-34.668,-19.531,18.066,-41.016
1678025157.496,-45.898,-36.133,-20.996,19.531,59.082
1678025157.470,-48.828,-35.156,-21.973,29.297,-132.812
1678025157.474,-60.059,-34.668,-21.484,40.039,-199.707
1678025157.478,-66.895,-35.645,-21.484,52.246,72.266
1678025157.482,-60.059,-41.016,-24.902,50.781,59.082
1678025157.486,-60.059,-38.086,-27.344,31.738,-107.422
1678025157.490,-67.383,-34.180,-30.273,23.926,-32.715
1678025157.494,-66.406,-35.156,-32.715,31.738,48.828
1678025157.497,-66.406,-37.109,-32.227,21.973,-61.523
1678025157.501,-70.312,-40.039,-36.133,-5.371,-142.090
1678025157.505,-68.848,-41.992,-39.551,1.465,-57.129
1678025157.509,-75.684,-38.574,-36.133,-8.789,40.039
1678025157.513,-93.750,-36.133,-35.156,-60.059,-70.312
1678025157.497,-87.891,-40.039,-39.062,-79.590,-163.086
1678025157.501,-75.195,-38.086,-41.016,-101.562,-109.863
1678025157.505,-75.684,-37.598,-37.109,-142.578,-19.531
1678025157.509,-65.918,-41.992,-37.109,-162.598,-123.535
1678025157.513,-66.895,-40.039,-37.598,-168.457,-124.023
1678025157.517,-57.129,-35.156,-30.273,-154.785,45.410
1678025157.521,-41.504,-32.227,-29.297,-146.484,-5.859
1678025157.524,-39.062,-33.203,-33.691,-163.086,-87.891
1678025157.528,-41.504,-36.621,-33.203,-166.504,-125.488
1678025157.532,-49.316,-33.203,-30.762,-164.062,-0.488
1678025157.536,-49.316,-32.715,-31.738,-169.434,134.766
1678025157.540,-49.316,-38.574,-32.715,-184.082,14.648
1678025157.549,-46.875,-34.668,-31.250,-193.848,50.293
1678025157.553,-41.016,-31.250,-30.762,-200.684,156.738
1678025157.557,-46.875,-37.109,-34.668,-210.938,324.707
1678025157.561,-52.734,-39.551,-38.574,-230.469,219.238
1678025157.565,-41.992,-38.086,-40.527,-247.070,-135.254
1678025157.569,-26.367,-38.086,-41.016,-245.117,162.598
1678025157.573,-31.250,-34.668,-39.551,-254.395,225.098
1678025157.576,-51.270,-35.645,-44.434,-262.207,-195.312
1678025157.580,-51.758,-37.598,-46.875,-247.559,-161.133
1678025157.584,-42.969,-34.668,-41.504,-237.793,75.684
1678025157.588,-43.945,-36.133,-41.992,-256.836,-86.426
1678025157.592,-53.223,-39.551,-40.039,-235.840,-265.625
1678025157.597,-60.059,-41.016,-31.738,-192.871,-175.781
1678025157.601,-54.199,-38.574,-28.320,-169.434,-104.492
1678025157.605,-62.012,-39.062,-33.203,-138.184,-66.406
1678025157.609,-66.895,-41.504,-36.133,-120.605,-125.488
1678025157.613,-70.801,-41.016,-40.527,-97.168,-100.098
1678025157.617,-84.473,-35.156,-41.504,-57.617,14.160
1678025157.621,-86.914,-31.250,-45.898,-39.062,-58.594
1678025157.624,-94.727,-33.691,-45.410,-48.828,-182.129
1678025157.628,-111.328,-36.133,-48.828,-69.336,-69.336
1678025157.632,-125.000,-26.367,-57.617,-73.242,26.367
1678025157.636,-147.949,-28.809,-62.012,-79.590,-117.188
1678025157.640,-189.941,-35.645,-76.660,-122.070,-143.555
1678025157.633,-225.586,-35.156,-88.867,-151.367,95.215
1678025157.637,-250.000,-35.645,-97.656,-188.965,182.617
1678025157.641,-272.949,-30.273,-113.770,-233.887,-172.852
1678025157.645,-305.176,-37.109,-119.629,-241.699,-250.000
1678025157.649,-334.961,-46.387,-118.164,-245.605,-153.809
1678025157.653,-348.145,-48.340,-119.629,-250.488,-133.789
1678025157.657,-351.074,-41.992,-124.023,-261.230,-26.367
1678025157.660,-339.844,-40.527,-125.977,-277.344,-34.668
1678025157.664,-336.426,-37.598,-118.652,-270.508,118.652
1678025157.668,-335.449,-34.180,-117.188,-257.812,114.258
1678025157.672,-311.523,-32.227,-115.723,-237.793,-140.137
1678025157.676,-303.223,-29.785,-110.352,-216.309,-170.410
1678025157.684,-286.133,-34.668,-112.305,-209.961,-103.516
1678025157.688,-252.441,-31.738,-109.863,-177.246,-135.742
1678025157.692,-241.699,-23.926,-103.516,-154.297,-209.961
1678025157.696,-231.445,-22.461,-97.168,-143.555,-73.242
1678025157.700,-211.914,-27.832,-97.656,-123.047,-53.223
1678025157.704,-186.523,-29.297,-100.586,-105.469,-73.242
1678025157.708,-175.781,-27.832,-101.074,-94.727,-57.617
1678025157.711,-165.039,-27.832,-94.238,-77.148,126.465
1678025157.715,-140.625,-26.855,-90.332,-60.059,276.367
1678025157.719,-107.910,-23.926,-90.820,-47.363,-31.250
1678025157.723,-75.684,-22.461,-82.031,-30.273,-185.547
1678025157.727,-60.547,-23.438,-76.660,-23.438,59.570
1678025157.722,-48.828,-27.832,-75.195,-21.484,175.781
1678025157.726,-30.273,-27.832,-71.289,-16.602,-131.348
1678025157.730,-17.090,-33.203,-71.289,-19.043,-191.406
1678025157.734,-14.160,-37.598,-70.801,-35.156,-76.660
1678025157.738,-6.836,-29.785,-62.988,-24.902,-140.625
1678025157.742,-9.277,-24.902,-58.105,-1.953,-180.176
1678025157.746,-13.184,-26.367,-56.152,13.672,-119.629
1678025157.749,0.488,-23.926,-53.223,35.156,112.793
1678025157.753,6.836,-30.273,-54.199,32.715,13.672
1678025157.757,20.508,-31.738,-51.270,16.602,-87.891
1678025157.761,21.973,-29.297,-44.434,36.133,-39.062
1678025157.765,6.836,-33.203,-43.457,60.059,-35.645
1678025157.768,1.953,-37.109,-43.945,63.965,-64.453
1678025157.772,2.441,-41.992,-41.504,68.848,-118.164
1678025157.776,13.672,-37.598,-38.086,70.801,-39.062
1678025157.780,12.207,-35.645,-40.527,75.195,-41.504
1678025157.784,7.324,-41.016,-42.480,81.543,-107.910
1678025157.788,22.461,-40.527,-39.062,88.379,-92.773
1678025157.792,39.062,-37.109,-34.180,97.168,79.590
1678025157.795,50.781,-31.738,-31.250,92.773,305.664
1678025157.799,45.898,-30.762,-31.738,77.148,20.508
1678025157.803,38.086,-31.738,-31.250,73.242,-163.574
1678025157.807,38.574,-31.250,-31.250,66.895,-34.180
1678025157.811,47.852,-31.250,-33.203,65.430,36.133
1678025157.815,53.223,-29.785,-33.203,56.152,-35.156
1678025157.819,48.828,-28.320,-29.297,46.875,-88.379
1678025157.823,51.758,-28.809,-23.926,65.918,138.672
1678025157.827,57.129,-27.344,-28.809,65.430,182.129
1678025157.831,61.035,-31.250,-32.227,46.875,-82.520
1678025157.835,57.617,-36.133,-28.809,32.715,-86.426
1678025157.839,52.246,-35.156,-27.344,32.227,181.641
1678025157.842,46.387,-33.203,-24.414,37.109,25.879
1678025157.846,56.641,-34.668,-20.996,40.527,-198.730
1678025157.850,63.477,-38.574,-21.973,40.039,-76.660
1678025157.854,68.359,-35.156,-21.973,47.363,-9.277
1678025157.858,65.918,-34.180,-20.996,56.152,-72.754
1678025157.858,44.922,-35.645,-19.043,54.199,-83.008
1678025157.862,43.945,-33.203,-16.113,63.477,-6.836
1678025157.866,54.199,-31.738,-15.625,87.891,-21.484
1678025157.870,55.664,-30.762,-17.090,108.398,-133.301
1678025157.874,51.758,-33.691,-19.043,108.398,-163.574
1678025157.878,43.945,-35.645,-17.090,117.676,71.289
1678025157.882,33.203,-35.156,-15.137,138.184,419.922
1678025157.885,39.551,-33.203,-13.184,135.254,153.320
1678025157.889,37.598,-30.762,-11.719,130.859,-71.777
1678025157.893,35.645,-27.344,-11.719,131.348,20.996
1678025157.897,32.715,-25.879,-7.324,126.465,-19.531
1678025157.901,35.645,-26.367,-5.371,127.930,2.441
1678025157.918,46.387,-28.320,-6.836,116.211,-10.742
1678025157.922,40.527,-29.785,-3.418,113.770,68.848
1678025157.926,33.691,-26.855,-2.930,113.770,4.883
1678025157.930,24.902,-27.344,-2.441,102.539,-180.664
1678025157.934,28.809,-26.855,4.395,108.887,-37.598
1678025157.938,37.109,-29.297,4.395,111.328,210.449
1678025157.942,32.715,-33.691,-1.465,107.910,54.688
1678025157.945,32.227,-32.227,0.977,96.680,-125.977
1678025157.949,29.785,-29.297,2.441,86.426,-106.445
1678025157.953,19.531,-26.855,-0.977,92.773,110.840
1678025157.957,19.531,-28.809,-1.465,90.332,-20.996
1678025157.961,27.344,-33.203,2.441,77.148,-178.223
1678025157.962,21.973,-33.203,3.906,68.359,-118.164
1678025157.966,7.324,-32.715,0.977,60.059,-86.426
1678025157.970,-4.395,-35.645,-2.441,46.875,-111.816
1678025157.974,3.906,-34.668,-0.977,40.039,-113.281
1678025157.978,9.277,-31.738,0.977,45.898,-81.055
1678025157.982,1.953,-33.203,1.953,37.109,-62.500
1678025157.986,-0.977,-33.691,0.488,24.414,-73.242
1678025157.989,-4.395,-34.180,0.000,38.086,-43.457
1678025157.993,-1.953,-31.250,4.395,41.016,81.055
1678025157.997,6.836,-31.738,3.906,50.293,293.457
1678025158.001,14.648,-30.762,4.883,51.270,-35.645
1678025158.005,6.348,-26.367,1.465,43.457,-172.363
1678025158.007,-11.230,-29.297,-0.488,46.387,94.238
1678025158.011,-17.090,-30.762,-2.441,49.805,-11.230
1678025158.015,-17.090,-30.762,-5.371,43.457,-194.336
1678025158.019,-14.160,-28.809,-6.348,23.926,-125.000
1678025158.023,-15.625,-27.832,-4.395,20.020,-73.730
1678025158.027,-17.578,-31.250,0.977,25.879,-28.809
1678025158.031,-12.695,-31.250,-1.953,20.996,4.395
1678025158.034,-18.066,-33.691,-8.301,17.090,-63.965
1678025158.038,-20.020,-37.109,-7.812,24.902,200.684
1678025158.042,-10.254,-36.133,-7.812,22.949,224.121
1678025158.046,-22.461,-33.691,-5.371,19.043,-62.500
1678025158.050,-26.367,-31.250,0.977,22.461,-66.895
1678025158.055,-19.043,-27.344,-1.465,19.531,-23.438
1678025158.059,-20.020,-29.785,-0.977,11.230,-122.070
1678025158.063,-19.043,-34.668,1.465,8.301,-140.625
1678025158.067,-31.738,-36.621,1.953,8.789,-73.242
1678025158.071,-45.410,-31.738,5.371,6.348,-68.359
1678025158.075,-31.250,-27.832,1.953,9.277,-89.844
1678025158.079,-21.973,-34.180,-1.465,3.418,-82.520
1678025158.082,-25.879,-33.203,1.953,9.766,37.598
1678025158.086,-32.715,-30.762,1.953,17.090,132.324
1678025158.090,-34.180,-31.250,0.000,2.930,-85.938
1678025158.094,-24.902,-27.832,-2.930,-0.488,-125.977
1678025158.098,-24.414,-27.344,-5.859,-2.930,91.797
1678025158.097,-24.902,-25.391,-12.207,-12.695,58.594
1678025158.101,-22.461,-20.508,-12.207,-17.578,-144.531
1678025158.105,-32.715,-23.926,-7.812,-23.438,-139.648
1678025158.109,-31.250,-25.391,-10.254,-27.832,-37.109
1678025158.113,-18.555,-22.949,-7.324,-26.367,-126.953
1678025158.117,-20.508,-26.855,-10.742,-24.902,-155.273
1678025158.121,-36.621,-25.879,-13.672,-24.414,-77.637
1678025158.124,-40.039,-23.926,-10.742,-14.648,194.824
1678025158.128,-30.273,-24.414,-8.789,-4.883,227.051
1678025158.132,-24.414,-22.949,-5.859,-16.113,-163.574
1678025158.136,-28.320,-20.996,-10.254,-19.531,-235.840
1678025158.140,-37.109,-22.949,-18.555,-24.902,-175.293
1678025158.143,-51.758,-24.902,-16.602,-30.273,-147.949
1678025158.147,-59.082,-24.902,-18.555,-26.367,-107.910
1678025158.151,-45.410,-26.367,-18.555,-17.090,-38.574
1678025158.155,-46.875,-26.367,-16.602,-20.508,24.902
1678025158.159,-55.176,-27.832,-22.949,-26.855,-14.160
1678025158.163,-58.594,-29.297,-19.531,-30.762,-4.395
1678025158.167,-58.105,-24.414,-18.555,-28.320,140.625
1678025158.170,-48.340,-20.020,-27.344,-21.484,262.695
1678025158.174,-45.410,-21.973,-25.391,-35.645,-38.574
1678025158.178,-45.410,-21.973,-22.461,-37.598,-204.590
1678025158.182,-41.016,-20.020,-20.020,-25.879,-76.660
1678025158.186,-39.062,-22.461,-23.438,-32.227,50.781
1678025158.186,-22.461,-22.949,-23.926,-29.785,-54.688
1678025158.190,-16.113,-24.414,-22.949,-33.691,-147.949
1678025158.194,-26.367,-25.879,-25.879,-32.715,18.555
1678025158.198,-28.320,-25.391,-22.949,-20.508,17.578
1678025158.202,-37.109,-22.949,-21.484,-18.066,-94.238
1678025158.206,-39.551,-26.855,-25.879,-18.066,-85.938
1678025158.210,-22.949,-25.879,-22.461,-16.113,168.457
1678025158.213,-27.344,-22.461,-24.414,-16.602,184.570
1678025158.217,-42.480,-21.973,-27.832,-20.508,-145.020
1678025158.221,-35.645,-21.973,-24.414,-12.207,-200.684
1678025158.225,-33.203,-25.879,-28.809,-11.719,-132.812
1678025158.229,-35.645,-24.414,-31.250,-20.996,-157.227
1678025158.233,-33.203,-24.414,-30.273,-25.391,-180.664
1678025158.237,-44.434,-27.832,-29.297,-17.090,-126.465
1678025158.241,-44.922,-34.180,-28.320,-9.277,-93.750
1678025158.245,-29.297,-41.016,-32.715,-26.367,-138.672
1678025158.249,-32.227,-35.156,-32.715,-30.762,-196.289
1678025158.253,-40.527,-30.762,-32.715,-23.438,-42.480
1678025158.257,-44.922,-29.785,-37.598,-27.344,81.055
1678025158.260,-52.734,-24.902,-36.621,-36.133,-60.547
1678025158.264,-46.875,-22.949,-40.527,-31.738,-121.582
1678025158.268,-37.109,-22.461,-41.504,-34.668,3.418
1678025158.272,-34.180,-19.531,-39.551,-39.551,95.703
1678025158.276,-44.922,-21.484,-42.969,-37.598,-51.758
1678025158.294,-47.852,-22.461,-41.016,-27.832,-108.887
1678025158.298,-42.969,-25.391,-41.992,-22.461,-24.414
1678025158.302,-45.898,-27.344,-42.480,-23.926,-17.578
1678025158.306,-53.223,-31.738,-44.434,-29.297,-145.508
1678025158.310,-50.781,-26.855,-41.504,-22.949,-131.348
1678025158.314,-46.875,-23.926,-35.645,-1.953,197.266
1678025158.318,-45.898,-24.414,-33.203,3.906,156.738
1678025158.321,-33.691,-19.531,-38.086,-6.836,-157.715
1678025158.325,-26.367,-23.438,-46.387,-21.484,-120.117
1678025158.329,-29.297,-23.438,-45.898,-30.273,1.953
1678025158.333,-34.668,-22.949,-43.457,-22.949,-147.461
1678025158.337,-38.086,-30.273,-44.922,-15.625,-210.449
1678025158.337,-37.598,-31.250,-45.898,-15.137,-58.594
1678025158.341,-34.180,-31.250,-47.852,-20.996,40.039
1678025158.345,-35.156,-29.297,-48.828,-20.996,-83.984
1678025158.349,-43.457,-23.438,-42.480,-20.020,-151.855
1678025158.353,-44.434,-20.996,-42.480,-21.484,-116.211
1678025158.357,-28.320,-22.461,-48.828,-9.277,-19.043
1678025158.361,-13.672,-23.438,-45.410,-5.859,-13.672
1678025158.364,-25.879,-27.832,-41.992,-16.113,-130.859
1678025158.368,-48.340,-29.297,-41.992,-10.742,-22.949
1678025158.372,-49.316,-27.832,-43.457,-4.883,313.477
1678025158.376,-44.922,-27.344,-50.781,-17.090,158.203
1678025158.380,-37.109,-24.902,-52.246,-33.203,-41.504
1678025158.381,-38.574,-24.414,-47.852,-35.645,159.180
1678025158.385,-52.246,-26.367,-47.852,-28.320,125.977
1678025158.389,-43.457,-25.879,-50.781,-22.461,-164.551
1678025158.393,-35.156,-28.809,-53.223,-26.855,-156.250
1678025158.397,-40.039,-30.273,-55.176,-26.855,-95.703
1678025158.401,-38.086,-27.344,-56.152,-26.855,-29.297
1678025158.405,-42.480,-28.320,-53.223,-30.762,-5.859
1678025158.408,-46.875,-30.762,-50.293,-20.508,-92.285
1678025158.412,-37.109,-28.809,-49.316,-11.230,121.094
1678025158.416,-31.738,-29.297,-47.363,-13.672,79.590
1678025158.420,-33.691,-32.715,-53.711,-22.949,-143.555
1678025158.424,-44.434,-27.344,-50.293,-23.438,-157.227
1678025158.428,-52.246,-27.832,-47.363,-14.160,-39.062
1678025158.432,-47.363,-30.273,-50.293,-7.812,47.363
1678025158.436,-42.969,-27.344,-48.340,-17.090,-114.746
1678025158.440,-49.316,-26.855,-50.293,-22.461,-48.340
1678025158.444,-56.641,-25.879,-53.711,-24.414,34.180
1678025158.448,-59.082,-22.949,-57.129,-30.273,-36.133
1678025158.452,-50.781,-23.438,-60.547,-32.227,-62.988
1678025158.455,-36.133,-23.438,-55.176,-43.457,21.484
1678025158.459,-35.156,-23.438,-53.223,-48.828,228.516
1678025158.463,-42.480,-26.855,-60.547,-53.223,-25.391
1678025158.467,-47.363,-23.438,-58.594,-46.875,-129.883
1678025158.471,-41.504,-26.367,-60.059,-35.156,141.113
1678025158.472,-39.062,-27.344,-66.406,-45.898,54.688
1678025158.476,-40.039,-27.344,-63.965,-48.340,-125.000
1678025158.480,-48.340,-34.668,-66.406,-42.969,-105.957
1678025158.484,-49.316,-28.809,-65.918,-40.039,-48.828
1678025158.488,-53.223,-21.973,-67.871,-34.668,-45.410
1678025158.492,-47.852,-20.020,-65.430,-40.527,-44.922
1678025158.496,-41.016,-19.043,-61.035,-44.434,-53.223
1678025158.499,-44.434,-19.531,-61.523,-27.344,208.984
1678025158.503,-52.246,-22.461,-62.500,-20.020,204.590
1678025158.507,-61.035,-27.832,-63.477,-28.320,-156.738
1678025158.511,-54.199,-31.250,-67.383,-35.645,-167.480
1678025158.515,-46.875,-33.691,-71.289,-38.574,-57.617
1678025158.532,-55.176,-32.227,-67.871,-36.133,-119.141
1678025158.536,-66.406,-30.273,-67.383,-33.691,-168.457
1678025158.540,-68.359,-28.809,-70.312,-46.387,-122.559
1678025158.544,-53.711,-25.391,-71.777,-58.594,-76.172
1678025158.548,-54.688,-23.438,-74.219,-70.312,-103.027
1678025158.552,-68.848,-25.391,-75.195,-87.402,-123.047
1678025158.556,-75.684,-26.855,-77.637,-90.332,55.664
1678025158.559,-77.637,-25.391,-82.031,-87.402,126.953
1678025158.563,-75.195,-27.832,-82.031,-95.703,-71.777
1678025158.567,-69.824,-31.738,-77.637,-112.305,-185.547
1678025158.571,-67.383,-24.414,-75.684,-115.723,43.945
1678025158.575,-79.590,-21.973,-73.730,-114.746,449.219
1678025158.562,-75.195,-31.738,-68.848,-105.957,156.250
1678025158.566,-61.523,-28.320,-73.730,-93.750,-209.473
1678025158.570,-64.453,-22.949,-78.613,-111.816,-99.121
1678025158.574,-64.941,-25.391,-76.172,-129.883,-127.930
1678025158.578,-92.285,-33.203,-82.520,-134.277,-245.117
1678025158.582,-115.234,-34.180,-93.750,-133.301,-20.996
1678025158.586,-124.512,-28.320,-94.727,-131.348,65.918
1678025158.589,-145.996,-32.715,-99.121,-154.297,-144.043
1678025158.593,-159.180,-37.598,-107.910,-181.152,-150.391
1678025158.597,-191.895,-37.109,-110.352,-186.035,-100.098
1678025158.601,-229.492,-33.691,-119.629,-190.430,177.246
1678025158.605,-279.297,-36.133,-131.348,-235.352,95.215
1678025158.607,-316.406,-41.992,-135.742,-284.668,-213.379
1678025158.611,-330.566,-43.457,-144.043,-304.688,-179.688
1678025158.615,-339.844,-42.969,-148.438,-307.129,-143.066
1678025158.619,-341.309,-36.133,-145.996,-308.105,-179.199
1678025158.623,-339.355,-33.691,-145.996,-300.293,-188.965
1678025158.627,-334.473,-38.574,-144.531,-298.828,-112.793
1678025158.631,-320.312,-40.039,-140.625,-299.316,-21.973
1678025158.634,-312.988,-28.809,-136.230,-286.133,-21.973
1678025158.638,-315.918,-23.926,-133.301,-284.668,-113.281
1678025158.642,-306.152,-27.832,-134.766,-278.809,-44.434
1678025158.646,-284.668,-27.832,-130.859,-261.719,133.789
1678025158.650,-254.883,-29.297,-124.023,-250.977,19.043
1678025158.667,-226.074,-27.344,-113.281,-231.934,-71.777
1678025158.671,-212.402,-25.879,-107.422,-205.566,84.961
1678025158.675,-189.941,-24.902,-106.934,-168.457,136.230
1678025158.679,-156.738,-26.367,-102.539,-146.484,-61.523
1678025158.683,-139.160,-28.320,-96.680,-130.371,-84.473
1678025158.687,-126.465,-25.879,-88.867,-109.375,13.184
1678025158.691,-112.305,-29.785,-78.613,-83.496,-26.855
1678025158.694,-85.449,-29.297,-70.801,-62.500,-127.441
1678025158.698,-59.570,-27.832,-68.848,-57.617,-58.594
1678025158.702,-52.246,-28.320,-64.453,-43.457,156.250
1678025158.706,-46.387,-28.320,-61.035,-35.645,3.418
1678025158.710,-41.504,-26.855,-57.617,-8.301,-197.754
1678025158.711,-37.598,-28.809,-51.270,0.488,-108.398
1678025158.715,-33.691,-34.180,-49.316,-11.719,-51.270
1678025158.719,-29.785,-34.668,-44.922,-1.953,-144.043
1678025158.723,-13.184,-33.691,-39.062,12.695,-156.738
1678025158.727,-10.742,-34.180,-31.250,14.648,-110.352
1678025158.731,-13.184,-34.668,-25.391,9.766,-15.137
1678025158.735,-1.953,-32.715,-26.855,9.766,43.457
1678025158.738,13.184,-30.762,-25.879,17.090,-105.469
1678025158.742,15.625,-31.738,-20.996,35.156,-10.742
1678025158.746,11.230,-29.785,-17.090,51.758,150.879
1678025158.750,9.277,-29.785,-10.742,44.434,-53.711
1678025158.754,9.766,-31.250,-8.301,37.598,-67.871
1678025158.757,17.090,-32.227,-6.348,36.621,29.297
1678025158.761,32.227,-33.691,0.488,42.480,-74.219
1678025158.765,37.109,-31.250,10.742,52.734,-153.809
1678025158.769,39.062,-31.250,14.648,70.312,-117.676
1678025158.773,45.410,-33.203,16.602,83.496,113.770
1678025158.777,60.059,-33.203,17.090,80.566,249.023
1678025158.781,57.617,-32.227,15.137,64.453,-28.809
1678025158.784,49.805,-33.203,20.508,58.594,-60.547
1678025158.788,52.246,-29.297,31.250,78.125,211.914
1678025158.792,61.523,-26.855,38.086,86.914,117.676
1678025158.796,70.312,-30.273,33.691,70.801,-127.441
1678025158.800,68.359,-27.832,31.738,73.730,-156.250
1678025158.802,67.383,-26.855,34.180,79.590,-129.395
1678025158.806,68.848,-27.832,38.574,81.543,-119.141
1678025158.810,62.500,-29.785,36.133,97.656,-94.727
1678025158.814,58.594,-34.668,31.250,83.496,-69.824
1678025158.818,70.312,-29.297,38.574,72.266,-39.551
1678025158.822,72.266,-25.879,39.551,75.195,-37.598
1678025158.826,63.965,-27.344,35.645,69.336,-64.941
1678025158.829,62.988,-23.926,40.039,67.383,78.613
1678025158.833,57.129,-22.461,44.434,81.055,320.801
1678025158.837,62.500,-19.531,49.316,75.684,55.664
1678025158.841,59.082,-21.973,51.758,56.641,-123.535
1678025158.845,49.805,-25.879,52.246,62.988,155.762
1678025158.847,48.340,-27.344,51.758,80.566,14.160
1678025158.851,55.176,-27.344,48.828,81.055,-212.402
1678025158.855,63.477,-24.414,45.898,66.895,-119.141
1678025158.859,63.477,-23.926,44.922,71.777,-31.738
1678025158.863,59.082,-22.461,42.969,87.402,-76.660
1678025158.867,66.895,-19.531,45.898,92.285,-71.289
1678025158.871,74.219,-17.578,47.363,89.355,9.277
1678025158.874,68.848,-15.625,52.246,83.496,235.352
1678025158.878,69.824,-17.578,53.711,74.219,187.988
1678025158.882,57.617,-20.996,50.293,69.824,-135.254
1678025158.886,44.434,-22.461,53.711,75.195,-119.141
1678025158.890,49.805,-25.879,49.316,55.176,-53.711
1678025158.892,44.922,-28.320,40.039,20.996,-147.461
1678025158.896,39.062,-29.785,40.039,-6.348,-192.871
1678025158.900,40.039,-28.809,44.434,-15.137,-101.074
1678025158.904,39.062,-21.973,42.480,-13.184,-87.891
1678025158.908,35.645,-20.020,41.992,-14.160,-82.031
1678025158.912,34.668,-26.367,40.527,-24.902,-20.508
1678025158.916,34.180,-30.762,37.598,-22.461,104.980
1678025158.919,24.902,-30.273,39.062,-4.883,234.863
1678025158.923,13.672,-31.250,41.016,-2.930,-48.828
1678025158.927,4.883,-30.273,44.922,-3.906,-200.195
1678025158.931,7.324,-28.809,45.898,-4.395,-0.977
1678025158.935,10.742,-30.273,42.480,3.906,27.832
1678025158.937,2.930,-28.809,42.969,8.301,-121.582
1678025158.941,-0.488,-32.227,46.387,8.789,-159.668
1678025158.945,-0.488,-32.715,42.480,20.996,-2.441
1678025158.949,-2.441,-26.367,36.621,18.066,-29.785
1678025158.953,6.348,-26.855,30.762,12.695,-132.324
1678025158.957,9.766,-27.344,29.297,17.090,-12.695
1678025158.961,-3.418,-30.273,33.691,28.320,244.141
1678025158.964,-4.883,-28.809,34.668,30.273,174.805
1678025158.968,5.859,-25.391,33.691,11.230,-121.582
1678025158.972,8.301,-24.902,32.715,1.953,-154.785
1678025158.976,7.324,-22.949,28.809,6.348,-107.422
1678025158.980,-1.465,-24.414,28.320,15.137,-99.121
1678025158.983,-6.836,-28.320,25.879,5.371,-59.570
1678025158.987,3.906,-24.414,28.809,16.113,0.000
1678025158.991,5.371,-23.438,28.809,34.180,-30.762
1678025158.995,-7.324,-31.738,23.438,21.973,-113.770
1678025158.999,-24.414,-36.133,21.973,18.066,-126.465
1678025159.003,-29.297,-32.227,23.926,26.367,22.461
1678025159.007,-5.859,-25.879,18.555,21.973,203.125
1678025159.010,0.488,-27.832,11.719,13.184,18.066
1678025159.014,-11.230,-29.785,10.254,13.184,-117.676
1678025159.018,-14.160,-27.344,13.184,16.113,-55.176
1678025159.022,-16.113,-31.250,15.137,19.043,-42.969
1678025159.026,-15.625,-29.785,12.695,13.672,-62.988
1678025159.043,-16.602,-24.902,12.695,5.859,-86.914
1678025159.047,-17.578,-29.297,11.719,4.883,21.484
1678025159.051,-24.414,-32.227,7.812,-0.488,13.672
1678025159.055,-28.320,-34.668,1.465,2.441,-144.043
1678025159.059,-36.133,-36.133,0.000,0.000,-140.137
1678025159.063,-32.227,-36.133,6.836,-7.324,114.258
1678025159.067,-22.949,-34.668,8.301,-12.695,163.574
1678025159.070,-28.320,-31.250,6.836,-19.531,-101.074
1678025159.074,-33.691,-26.855,5.859,-12.695,-91.309
1678025159.078,-32.227,-26.367,3.418,-20.508,155.273
1678025159.082,-24.902,-25.879,6.348,-24.902,46.875
1678025159.086,-19.531,-25.391,10.254,-29.297,-155.273
1678025159.087,-32.715,-26.855,8.301,-30.273,-75.684
1678025159.091,-45.410,-27.344,3.418,-23.926,-90.332
1678025159.095,-37.598,-28.320,0.977,-23.926,-120.605
1678025159.099,-23.438,-23.926,5.859,-15.137,-47.852
1678025159.103,-13.672,-19.531,8.301,-18.066,-46.875
1678025159.107,-23.438,-22.949,2.441,-32.227,-28.320
