timestamps,TP9,AF7,AF8,TP10,Right AUX
1678024808.549,-52.246,-25.879,4.395,1.953,-204.590
1678024808.553,-65.918,-24.902,3.906,7.812,-251.953
1678024808.557,-73.242,-26.367,4.395,43.457,-183.594
1678024808.561,-49.316,-28.320,6.836,67.383,-114.746
1678024808.565,-38.086,-25.391,3.906,46.387,-83.984
1678024808.569,-51.758,-20.508,-1.953,12.695,-181.641
1678024808.573,-62.500,-20.020,-2.930,12.207,54.199
1678024808.576,-55.176,-20.996,-6.348,39.062,207.520
1678024808.580,-21.973,-19.531,-3.418,40.527,-75.195
1678024808.584,-9.277,-22.461,-7.812,16.602,-143.066
1678024808.588,-23.438,-21.973,-12.695,-12.207,-148.438
1678024808.592,-36.133,-22.461,-9.766,-11.719,-245.117
1678024808.594,-34.668,-24.902,-10.742,-4.883,-213.379
1678024808.598,-13.672,-25.391,-14.648,-0.977,-132.812
1678024808.602,-11.719,-27.832,-18.066,-12.695,-182.129
1678024808.606,-21.973,-27.344,-11.719,-44.922,-257.812
1678024808.610,-27.344,-27.344,-9.277,-51.758,-360.352
1678024808.614,-41.504,-31.738,-14.160,-21.973,-203.613
1678024808.618,-57.129,-34.180,-16.113,0.488,45.898
1678024808.621,-51.758,-38.086,-16.602,-13.672,-76.660
1678024808.625,-62.012,-38.086,-12.695,-44.434,-203.613
1678024808.629,-74.219,-29.297,-15.137,-46.387,-154.785
1678024808.633,-66.895,-30.762,-17.578,-6.348,160.156
1678024808.637,-63.965,-35.645,-16.602,-2.930,76.660
1678024808.654,-46.875,-29.297,-13.672,-33.203,-235.352
1678024808.658,-54.688,-31.738,-9.766,-49.805,-256.836
1678024808.662,-76.660,-33.691,-7.812,-58.105,-378.418
1678024808.666,-68.848,-30.762,-5.859,-51.758,-417.969
1678024808.670,-55.664,-30.273,-5.371,-50.293,-289.551
1678024808.674,-45.898,-28.809,-7.812,-75.195,-166.992
1678024808.678,-39.062,-26.367,-11.719,-92.773,-181.641
1678024808.681,-61.523,-30.273,-10.254,-101.562,-284.668
1678024808.685,-84.961,-33.691,-10.254,-95.703,-286.133
1678024808.689,-69.824,-31.738,-7.812,-41.992,59.082
1678024808.693,-48.828,-28.809,2.441,-16.113,119.629
1678024808.697,-57.129,-29.297,2.930,-46.387,-296.387
1678024808.699,-82.520,-38.574,1.465,-58.594,-291.992
1678024808.703,-90.820,-42.480,5.859,-28.320,-132.324
1678024808.707,-76.660,-40.039,9.277,13.672,-110.840
1678024808.711,-79.102,-38.574,14.648,31.738,-193.359
1678024808.715,-84.473,-32.227,13.672,5.371,-219.727
1678024808.719,-93.262,-31.250,8.301,-31.250,-180.664
1678024808.723,-95.215,-36.133,8.301,4.883,-193.359
1678024808.726,-74.219,-43.945,9.766,85.449,-151.855
1678024808.730,-64.941,-48.340,2.441,96.680,17.090
1678024808.734,-82.520,-45.410,0.977,72.754,297.363
1678024808.738,-106.934,-47.363,0.000,45.410,169.922
1678024808.742,-97.168,-46.875,-11.230,26.367,-194.336
1678024808.744,-69.824,-46.387,-15.625,68.359,-31.738
1678024808.748,-68.848,-50.293,-18.555,89.355,62.988
1678024808.752,-65.430,-47.363,-18.555,65.918,-145.508
1678024808.756,-55.176,-42.480,-13.184,53.223,-200.684
1678024808.760,-64.941,-40.527,-17.090,60.547,-197.266
1678024808.764,-51.758,-36.621,-19.531,104.492,26.367
1678024808.768,-32.227,-33.203,-16.113,134.766,162.109
1678024808.771,-37.598,-29.785,-10.742,107.422,8.789
1678024808.775,-58.594,-33.203,-11.719,85.449,109.375
1678024808.779,-73.242,-32.227,-11.719,100.586,126.465
1678024808.783,-64.941,-28.809,-12.207,133.301,-78.125
1678024808.787,-42.480,-28.320,-14.160,157.227,-10.742
1678024808.789,-45.410,-25.879,-14.648,138.184,98.145
1678024808.793,-47.363,-22.949,-13.184,100.098,92.773
1678024808.797,-47.852,-22.949,-12.695,81.055,-111.816
1678024808.801,-42.480,-23.926,-16.113,112.305,30.273
1678024808.805,-21.973,-24.902,-15.137,133.301,264.648
1678024808.809,-11.719,-26.855,-15.625,82.031,186.035
1678024808.813,-14.160,-20.996,-15.625,31.250,41.504
1678024808.816,-27.832,-20.020,-12.695,27.832,-53.711
1678024808.820,-36.621,-22.949,-17.578,63.477,318.359
1678024808.824,-8.789,-16.602,-21.484,62.500,290.039
1678024808.828,6.836,-12.207,-14.648,10.742,-78.125
1678024808.832,-8.789,-14.160,-6.348,-39.551,-162.109
1678024808.834,-19.043,-13.184,-5.859,-69.336,-298.340
1678024808.838,-16.113,-12.695,-8.789,-61.523,-279.785
1678024808.842,-6.836,-16.602,-8.301,-38.574,-136.230
1678024808.846,-1.465,-12.695,-7.324,-50.293,20.996
1678024808.850,-9.766,-8.789,-4.395,-93.262,-31.738
1678024808.854,-34.180,-10.254,-0.488,-90.820,-141.602
1678024808.858,-34.180,-12.207,-1.953,-48.828,-138.184
1678024808.861,-21.973,-13.184,-0.977,-1.953,148.926
1678024808.865,-33.203,-15.625,-1.953,-8.301,355.469
1678024808.869,-47.363,-9.766,-2.930,-49.805,14.648
1678024808.873,-44.434,-10.742,-4.883,-62.500,-188.965
1678024808.877,-41.504,-17.578,-15.137,-45.410,-130.371
1678024808.879,-30.273,-13.672,-17.578,-7.812,-21.484
1678024808.883,-17.090,-12.695,-9.766,-17.090,10.254
1678024808.887,-21.973,-11.230,-5.859,-62.988,-22.461
1678024808.891,-27.344,-7.324,-7.324,-96.191,-126.465
1678024808.895,-39.551,-11.719,-7.812,-69.824,-187.988
1678024808.899,-38.086,-15.137,-12.207,-21.973,6.348
1678024808.903,-15.137,-16.113,-13.184,-18.555,270.508
1678024808.906,-7.812,-15.137,-9.277,-53.711,445.801
1678024808.910,-20.996,-8.789,-2.930,-87.891,197.266
1678024808.914,-30.762,-8.789,0.977,-64.941,-85.938
1678024808.918,-31.738,-11.230,-3.906,-15.137,99.609
1678024808.922,-30.273,-12.695,-3.906,12.695,241.699
1678024808.924,-24.414,-9.766,-0.488,-18.555,-28.320
1678024808.928,-35.156,-7.324,-1.953,-60.059,-193.359
1678024808.932,-41.992,-7.324,-6.348,-57.129,-175.781
1678024808.936,-8.789,-4.883,-6.836,-23.926,-82.520
1678024808.940,13.672,-4.883,-9.277,-14.160,18.066
1678024808.944,4.883,-9.277,-13.184,-56.152,12.207
1678024808.948,-1.953,-7.324,-10.254,-94.727,98.145
1678024808.951,-23.926,-6.348,-2.441,-92.773,160.645
1678024808.955,-19.043,-7.812,-4.883,-53.223,-38.086
1678024808.959,8.301,0.000,-4.883,-16.113,-75.195
1678024808.963,8.301,3.906,-0.488,-35.156,77.148
1678024808.967,-12.695,6.836,3.418,-82.520,-70.312
1678024808.969,-18.066,9.277,3.906,-105.957,-262.695
1678024808.973,-11.230,6.348,-3.418,-78.125,-135.254
1678024808.977,-2.441,3.418,-4.883,-61.035,19.043
1678024808.981,-8.301,0.488,0.977,-83.008,-51.270
1678024808.985,-32.227,0.000,2.930,-118.164,-211.914
1678024808.989,-35.156,0.488,1.465,-129.395,-76.660
1678024808.993,-21.973,1.465,-0.488,-83.008,115.723
1678024808.996,-11.230,0.000,1.953,-31.738,62.500
1678024809.000,-9.766,-0.977,2.930,-43.945,-0.488
1678024809.004,-22.461,0.488,0.977,-89.844,-4.883
1678024809.008,-49.805,-3.418,-0.488,-94.238,244.141
1678024809.012,-37.598,-5.371,-7.324,-56.152,241.211
1678024809.059,-17.090,-1.465,-15.137,-39.551,68.848
1678024809.063,-22.461,0.977,-13.184,-53.711,100.586
1678024809.067,-36.133,-0.488,-12.207,-93.750,-46.387
1678024809.071,-54.199,0.000,-10.742,-117.676,-211.914
1678024809.075,-45.410,3.906,-9.277,-82.520,-191.406
1678024809.079,-24.902,2.930,-10.254,-49.805,80.566
1678024809.083,-11.719,0.977,-8.301,-61.523,195.312
1678024809.086,-16.602,-6.348,-9.766,-106.934,-61.035
1678024809.090,-40.527,-13.672,-13.672,-138.184,-192.871
1678024809.094,-47.852,-12.695,-13.672,-114.258,-128.906
1678024809.098,-38.086,-15.137,-10.254,-60.059,4.883
1678024809.102,-34.180,-15.625,-9.766,-55.664,15.625
1678024809.065,-36.621,-14.160,-6.348,-93.750,-129.395
1678024809.069,-32.227,-17.090,-2.930,-100.098,18.066
1678024809.073,-33.691,-20.508,-1.953,-78.613,33.691
1678024809.077,-30.762,-19.043,-3.418,-52.734,-102.051
1678024809.081,-22.461,-20.996,-3.418,-48.340,37.109
1678024809.085,-28.809,-20.508,-5.371,-78.613,26.855
1678024809.089,-30.273,-17.578,-10.254,-106.934,-119.141
1678024809.092,-31.738,-19.531,-6.348,-97.656,-173.340
1678024809.096,-18.555,-19.531,-4.395,-41.016,40.527
1678024809.100,1.953,-21.484,-8.301,-7.324,125.488
1678024809.104,0.488,-20.508,-10.742,-37.598,-46.387
1678024809.108,-5.371,-17.090,-7.812,-77.148,-98.633
1678024809.134,-11.719,-18.066,-2.441,-80.566,-15.137
1678024809.138,-3.906,-16.113,-3.906,-43.457,36.621
1678024809.142,21.973,-17.578,-4.395,-12.695,33.691
1678024809.146,23.926,-22.461,-1.953,-35.156,-5.371
1678024809.150,3.418,-21.484,0.000,-67.383,-6.348
1678024809.154,0.488,-21.484,1.465,-64.453,318.848
1678024809.158,0.488,-28.320,-0.977,-34.668,374.512
1678024809.161,8.301,-29.785,-2.930,-6.348,103.516
1678024809.165,23.438,-24.414,-3.418,-34.668,47.363
1678024809.169,18.066,-23.438,1.465,-88.379,-139.648
1678024809.173,5.371,-20.996,-0.488,-105.469,-249.023
1678024809.177,6.836,-19.531,-5.859,-69.824,-176.758
1678024809.179,15.137,-19.043,-10.254,-32.227,53.711
1678024809.183,25.391,-11.719,-15.137,-45.898,72.754
1678024809.187,12.207,-10.254,-15.625,-78.125,-166.992
1678024809.191,-8.789,-14.648,-20.508,-79.102,-188.965
1678024809.195,-7.324,-16.602,-24.414,-41.016,-116.699
1678024809.199,0.000,-17.578,-20.508,-2.930,32.227
1678024809.203,13.184,-19.043,-21.484,-16.602,53.711
1678024809.206,8.301,-20.996,-23.926,-52.734,24.414
1678024809.210,-5.859,-23.926,-20.020,-62.500,88.379
1678024809.214,-4.883,-25.391,-20.508,-43.945,-61.523
1678024809.218,5.371,-26.855,-23.926,-14.160,-167.969
1678024809.222,21.973,-27.344,-23.926,-7.812,-19.531
1678024809.209,15.137,-24.414,-20.996,-36.133,254.883
1678024809.213,-1.953,-23.926,-11.230,-66.406,28.320
1678024809.217,-10.742,-29.785,-10.742,-41.992,-257.324
1678024809.221,-5.371,-32.227,-12.695,-0.977,50.781
1678024809.225,6.348,-30.273,-7.812,18.555,153.809
1678024809.229,5.371,-32.715,-12.695,-21.484,-25.879
1678024809.233,-0.488,-32.227,-11.719,-49.805,-57.129
1678024809.236,-7.324,-27.344,-3.906,-31.738,-26.367
1678024809.240,-15.625,-27.832,-5.371,-1.465,5.859
1678024809.244,-3.906,-25.879,-0.488,13.672,-46.387
1678024809.248,1.465,-25.879,-0.488,-23.926,-74.707
1678024809.252,-11.719,-28.320,-2.930,-47.363,94.727
1678024809.254,-19.531,-29.785,1.465,-30.762,184.082
1678024809.258,-13.672,-32.227,5.371,-9.766,-78.613
1678024809.262,2.441,-31.250,9.766,-2.930,-33.691
1678024809.266,9.766,-32.227,11.719,-20.996,31.250
1678024809.270,13.184,-33.203,9.766,-38.574,-142.090
1678024809.274,8.301,-34.180,13.672,-31.738,-157.227
1678024809.278,2.930,-32.227,18.555,-4.883,14.648
1678024809.281,8.301,-24.414,21.484,18.066,407.227
1678024809.285,11.719,-19.043,23.926,-3.906,276.855
1678024809.289,6.836,-22.461,20.996,-52.246,-145.508
1678024809.293,-2.441,-26.367,16.602,-52.734,4.395
1678024809.297,-4.883,-24.902,19.043,-14.160,70.312
1678024809.299,0.488,-27.344,20.020,-7.324,-22.461
1678024809.303,-2.930,-34.668,15.137,-34.668,-20.020
1678024809.307,-2.441,-31.250,17.578,-45.410,-98.633
1678024809.311,-13.672,-25.879,17.578,-44.434,-155.762
1678024809.315,-25.391,-23.438,17.090,-32.715,-113.770
1678024809.319,-14.648,-22.461,14.160,-11.230,-43.945
1678024809.323,-2.930,-27.344,11.719,-18.066,184.570
1678024809.326,4.395,-25.879,15.137,-38.574,171.875
1678024809.330,-4.883,-27.344,12.695,-53.711,-121.094
1678024809.334,-17.090,-28.809,0.977,-37.109,-134.766
1678024809.338,-14.648,-23.438,-1.465,-17.578,-47.363
1678024809.342,-5.371,-23.926,4.883,-26.367,-10.254
1678024809.345,3.906,-25.391,7.324,-51.758,-6.348
1678024809.349,0.977,-26.855,0.488,-70.801,-103.027
1678024809.353,-13.672,-25.879,-4.883,-48.828,-36.133
1678024809.357,-11.719,-23.438,-6.836,-28.320,28.320
1678024809.361,2.930,-21.484,-5.859,-51.270,-100.586
1678024809.365,1.953,-26.367,-1.465,-73.242,13.672
1678024809.369,-7.324,-30.762,-4.395,-75.195,269.531
1678024809.372,-21.484,-29.785,-3.906,-67.871,120.117
1678024809.376,-29.297,-33.203,-1.465,-47.852,-93.262
1678024809.380,-12.695,-34.180,0.488,-39.551,76.172
1678024809.384,-0.488,-28.320,1.465,-44.922,210.938
1678024809.388,1.465,-28.320,2.441,-51.758,-61.523
1678024809.404,-14.160,-34.668,2.930,-54.199,-163.574
1678024809.408,-28.809,-32.715,-0.977,-46.387,-44.922
1678024809.412,-14.160,-30.273,4.883,-43.945,66.406
1678024809.416,-5.371,-32.715,2.441,-62.988,6.836
1678024809.420,-11.230,-32.715,0.977,-77.637,-150.879
1678024809.424,-19.043,-28.320,7.324,-59.082,82.520
1678024809.428,-31.250,-25.879,7.324,-39.551,300.293
1678024809.431,-27.344,-25.879,4.395,-36.621,20.020
1678024809.435,-12.207,-24.414,5.859,-40.527,-74.707
1678024809.439,-6.836,-30.273,14.648,-47.363,-4.395
1678024809.443,-22.949,-32.715,12.695,-45.410,-7.812
1678024809.447,-44.434,-36.133,3.418,-30.762,-41.992
1678024809.449,-37.598,-40.527,10.254,-22.461,43.945
1678024809.453,-22.461,-39.062,13.672,-43.457,96.680
1678024809.457,-17.090,-43.945,6.836,-64.453,-80.566
1678024809.461,-44.922,-46.387,5.371,-68.848,-157.715
1678024809.465,-71.777,-49.316,2.441,-66.406,15.137
1678024809.469,-63.965,-47.852,-1.465,-66.406,212.402
1678024809.473,-29.297,-43.945,-0.488,-79.102,204.102
1678024809.476,-26.367,-47.363,-2.441,-104.004,-27.832
1678024809.480,-43.457,-59.082,4.395,-101.562,-37.109
1678024809.484,-19.043,-59.570,4.883,-63.477,401.367
1678024809.488,-9.766,-41.992,-9.766,-64.453,389.160
1678024809.492,-36.621,-42.480,-20.020,-103.027,54.688
1678024809.494,-67.871,-44.922,-25.879,-138.184,22.949
1678024809.498,-90.332,-38.086,-43.457,-172.852,-58.105
1678024809.502,-128.906,-33.691,-63.965,-182.617,-115.723
1678024809.506,-145.996,-29.785,-74.707,-189.453,-84.473
1678024809.510,-146.973,-26.855,-88.867,-222.656,-46.875
1678024809.514,-150.879,-23.438,-98.633,-275.391,33.691
1678024809.518,-155.273,-20.996,-107.910,-316.895,20.020
1678024809.521,-195.801,-16.602,-120.117,-325.195,-13.672
1678024809.525,-217.285,-12.695,-127.441,-315.430,241.211
1678024809.529,-198.730,-9.277,-130.859,-332.520,276.367
1678024809.533,-181.152,-3.418,-138.672,-368.164,-80.566
1678024809.537,-177.246,0.977,-144.531,-375.000,-137.695
1678024809.539,-187.988,5.371,-146.973,-365.723,-97.656
1678024809.543,-190.918,12.695,-152.832,-343.750,-111.328
1678024809.547,-169.434,18.066,-156.738,-330.566,-76.172
1678024809.551,-142.578,20.020,-156.738,-338.867,-5.371
1678024809.555,-133.301,20.996,-156.738,-339.355,-49.316
1678024809.559,-142.578,22.949,-159.668,-318.848,5.859
1678024809.563,-160.645,23.438,-157.227,-298.340,28.320
1678024809.566,-140.137,18.066,-151.367,-287.598,93.750
1678024809.570,-117.188,23.926,-147.461,-288.574,472.168
1678024809.574,-110.352,32.227,-142.578,-295.410,268.555
1678024809.578,-97.168,35.156,-136.230,-284.668,-198.242
1678024809.582,-98.633,38.574,-132.324,-256.836,26.367
1678024809.584,-83.496,36.133,-131.348,-246.094,183.594
1678024809.588,-57.617,25.879,-127.441,-250.488,-85.938
1678024809.592,-45.410,24.414,-119.629,-251.465,-202.148
1678024809.596,-51.270,32.715,-110.840,-232.910,-224.121
1678024809.600,-59.082,36.621,-104.492,-194.824,-157.715
1678024809.604,-51.758,34.180,-102.539,-183.594,-20.996
1678024809.608,-29.785,34.180,-98.145,-199.707,-31.738
1678024809.611,-18.555,30.273,-95.703,-213.867,32.227
1678024809.615,-22.949,21.973,-89.844,-197.754,-57.617
1678024809.619,-27.832,19.531,-77.637,-162.109,-156.250
1678024809.623,-24.414,17.090,-66.406,-152.832,-76.172
1678024809.627,-17.090,11.719,-54.688,-169.434,105.957
1678024809.629,-18.066,5.859,-47.852,-182.129,31.738
1678024809.633,-27.344,5.859,-48.828,-177.734,-244.141
1678024809.637,-52.734,-0.977,-47.852,-145.996,-128.906
1678024809.641,-53.711,-9.766,-40.527,-128.906,28.320
1678024809.645,-33.691,-11.719,-32.715,-144.531,-63.965
1678024809.649,-30.273,-15.625,-30.273,-170.410,-122.070
1678024809.653,-40.039,-20.508,-23.926,-164.062,16.602
1678024809.656,-57.617,-20.020,-18.066,-110.840,337.402
1678024809.660,-57.129,-23.438,-14.160,-88.379,312.500
1678024809.664,-37.598,-25.391,-17.578,-108.398,-10.742
1678024809.668,-28.809,-32.715,-18.555,-127.930,-27.344
1678024809.672,-38.574,-40.039,-9.277,-131.836,-90.332
1678024809.675,-64.453,-26.367,-9.766,-105.957,-138.672
1678024809.679,-73.242,-20.020,-11.230,-93.750,-56.152
1678024809.683,-54.688,-25.879,-11.719,-107.910,97.168
1678024809.687,-36.133,-29.785,-8.301,-128.418,42.969
1678024809.691,-37.109,-31.250,-1.953,-137.207,-180.664
1678024809.695,-60.059,-28.809,0.488,-110.840,-150.391
1678024809.699,-83.008,-32.715,-3.906,-81.543,199.707
1678024809.702,-69.824,-38.574,-3.906,-83.984,263.184
1678024809.706,-49.316,-36.621,1.465,-117.188,-91.309
1678024809.710,-46.875,-35.156,-2.441,-138.184,-205.078
1678024809.714,-69.336,-38.086,-1.953,-119.629,-209.961
1678024809.718,-83.496,-43.945,2.441,-97.656,-133.301
1678024809.719,-79.590,-48.340,-3.906,-104.492,-84.473
1678024809.723,-75.684,-51.758,-7.812,-134.766,-70.801
1678024809.727,-67.871,-48.828,-4.883,-158.691,-105.957
1678024809.731,-84.473,-43.457,-4.883,-147.949,-221.191
1678024809.735,-104.492,-44.922,0.488,-115.723,-93.750
1678024809.739,-99.121,-46.875,-0.488,-108.887,104.004
1678024809.743,-93.750,-49.805,-6.836,-121.582,346.191
1678024809.746,-88.867,-52.246,-1.465,-128.418,199.707
1678024809.750,-93.262,-52.246,2.930,-117.676,-226.562
1678024809.754,-117.676,-52.734,-0.977,-87.891,-44.922
1678024809.758,-120.605,-54.199,-3.418,-77.148,164.062
1678024809.762,-97.656,-50.293,0.488,-96.191,-68.359
1678024809.779,-86.426,-52.246,1.953,-106.934,-199.707
1678024809.783,-99.609,-50.293,0.977,-88.867,-168.457
1678024809.787,-113.281,-50.293,3.418,-55.176,-93.750
1678024809.791,-101.074,-52.246,1.953,-50.781,-76.660
1678024809.795,-89.844,-51.270,0.000,-80.566,-90.332
1678024809.799,-80.566,-50.293,0.977,-88.867,-30.762
1678024809.803,-83.984,-46.387,0.977,-82.520,-50.293
1678024809.806,-101.074,-43.457,2.441,-67.383,-66.406
1678024809.810,-95.215,-41.016,4.883,-48.828,-43.945
1678024809.814,-77.148,-42.480,7.324,-43.945,131.836
1678024809.818,-59.082,-40.039,9.766,-74.219,83.496
1678024809.822,-60.547,-41.016,7.324,-98.633,-268.555
1678024809.824,-76.660,-46.875,7.812,-61.523,-184.570
1678024809.828,-74.707,-44.434,9.766,-35.156,-16.113
1678024809.832,-74.219,-37.598,-0.488,-62.012,-56.641
1678024809.836,-64.453,-40.039,-6.836,-83.984,-189.453
1678024809.840,-65.430,-39.551,1.953,-81.055,-190.918
1678024809.844,-96.680,-41.016,4.395,-63.965,-24.414
1678024809.848,-97.168,-38.086,3.418,-31.250,-98.145
1678024809.851,-71.289,-34.668,6.348,-34.668,-94.727
1678024809.855,-57.617,-35.645,9.277,-70.801,39.551
1678024809.859,-51.270,-30.762,9.277,-67.383,237.305
1678024809.863,-79.590,-29.297,4.883,-37.109,227.051
1678024809.867,-104.492,-35.156,1.953,-28.320,-55.664
1678024809.869,-93.262,-35.645,0.977,-34.668,-58.105
1678024809.873,-71.289,-35.156,5.859,-51.758,-77.637
1678024809.877,-74.219,-33.691,6.836,-70.312,-230.957
1678024809.881,-96.191,-34.668,4.395,-61.035,-251.953
1678024809.885,-99.609,-33.203,0.977,-39.062,-80.078
1678024809.889,-84.473,-33.203,-3.418,-33.203,73.242
1678024809.893,-66.406,-39.062,2.441,-41.016,15.137
1678024809.896,-62.500,-38.574,5.371,-52.734,-197.754
1678024809.900,-90.820,-37.109,2.930,-35.156,10.742
1678024809.904,-98.633,-35.645,1.465,-10.742,171.875
1678024809.908,-75.195,-31.738,-3.906,-27.832,-106.934
1678024809.912,-63.477,-31.250,-2.930,-58.105,-95.215
1678024809.915,-61.035,-30.273,-1.465,-62.988,-67.383
1678024809.919,-69.336,-29.297,0.000,-36.133,-188.965
1678024809.923,-83.984,-27.832,-0.488,-15.625,-203.613
1678024809.927,-77.637,-30.273,-3.418,-10.254,-79.102
1678024809.931,-47.363,-28.809,0.977,-23.438,29.297
1678024809.935,-41.992,-24.414,0.488,-48.340,-29.785
1678024809.939,-75.684,-28.809,-4.883,-49.805,-97.656
1678024809.942,-98.633,-28.809,-5.371,-29.785,83.984
1678024809.946,-97.168,-28.320,-1.953,-12.695,402.832
1678024809.950,-68.848,-30.273,-5.859,-25.391,194.824
1678024809.954,-44.434,-23.926,-7.812,-53.223,-252.930
1678024809.958,-57.617,-19.043,-5.859,-56.152,-189.453
1678024809.960,-76.172,-20.996,-4.883,-25.391,-30.762
1678024809.964,-85.938,-26.855,-2.441,-8.789,-48.340
1678024809.968,-77.148,-30.762,-4.395,-25.391,-78.125
1678024809.972,-58.105,-27.344,-3.906,-41.504,-70.801
1678024809.976,-61.035,-23.926,-0.488,-40.527,-127.441
1678024809.980,-74.219,-27.344,-1.953,-20.020,-62.012
1678024809.984,-72.266,-27.344,-3.418,-14.648,10.254
1678024809.987,-59.082,-25.879,-5.371,-23.438,152.832
1678024809.991,-43.457,-29.297,-5.371,-34.668,234.863
1678024809.995,-52.734,-25.879,2.441,-49.805,-103.027
1678024809.999,-72.754,-24.902,5.859,-30.762,-179.199
1678024810.003,-70.801,-27.832,-0.488,-13.672,-78.613
1678024810.004,-59.082,-27.832,-2.441,-27.344,-53.711
1678024810.008,-46.875,-24.414,-6.836,-47.852,-147.949
1678024810.012,-47.363,-27.344,-2.930,-48.340,-190.918
1678024810.016,-70.801,-29.785,1.953,-40.527,-52.246
1678024810.020,-81.055,-28.320,-2.930,-19.043,-16.602
1678024810.024,-71.289,-27.344,-2.441,-20.996,8.301
1678024810.028,-68.848,-28.809,5.859,-63.477,70.801
1678024810.031,-62.012,-30.273,0.000,-51.270,301.758
1678024810.035,-79.102,-28.320,-3.906,-2.930,283.203
1678024810.039,-82.520,-28.809,5.859,6.348,-75.195
1678024810.043,-56.641,-24.902,3.418,-9.766,-107.910
1678024810.047,-49.316,-21.484,-3.418,-33.203,-113.770
1678024810.049,-43.945,-24.902,-2.930,-42.969,-232.422
1678024810.053,-58.594,-25.391,-2.930,-17.090,-193.848
1678024810.057,-80.566,-24.414,-6.836,21.484,-54.688
1678024810.061,-65.918,-26.855,-3.906,29.297,-86.426
1678024810.065,-40.527,-23.926,-0.488,-0.488,-163.086
1678024810.069,-40.527,-21.484,1.465,-13.672,-110.352
1678024810.073,-65.430,-23.438,-0.488,5.371,170.898
1678024810.076,-77.637,-23.926,-1.465,29.297,269.531
1678024810.080,-67.383,-16.113,3.418,22.949,-30.273
1678024810.084,-49.805,-15.625,7.324,-1.465,-140.137
1678024810.088,-34.180,-22.461,3.906,-18.066,-77.637
1678024810.092,-44.434,-20.508,1.953,-10.742,-41.992
1678024810.094,-65.430,-16.113,2.930,-0.488,-84.473
1678024810.098,-61.035,-19.043,2.441,-5.859,-28.320
1678024810.102,-47.363,-13.672,1.465,-18.555,18.066
1678024810.106,-28.809,-11.230,1.953,-30.273,-81.543
1678024810.110,-28.809,-12.695,-4.883,-29.785,-178.223
1678024810.114,-56.152,-11.230,0.977,-7.324,42.969
1678024810.118,-56.641,-16.113,4.395,17.090,286.133
1678024810.121,-32.715,-13.184,-1.953,-2.441,108.887
1678024810.125,-18.555,-13.672,-0.488,-33.203,-48.340
1678024810.129,-25.879,-12.695,-4.395,-24.414,-83.984
1678024810.133,-46.387,-12.695,0.488,3.418,150.391
1678024810.137,-41.992,-8.789,-2.930,10.254,55.664
1678024810.154,-21.973,-6.348,-0.488,-10.254,-147.949
1678024810.158,-23.926,-10.742,-0.488,-45.410,-98.633
1678024810.162,-35.156,-17.090,-11.230,-58.594,-138.184
1678024810.166,-43.457,-16.602,-3.906,-32.227,-183.105
1678024810.170,-52.734,-10.254,-6.348,-19.531,-115.234
1678024810.174,-44.922,-11.719,-9.277,-45.410,9.766
1678024810.178,-34.668,-15.625,-13.672,-71.289,-85.938
1678024810.181,-38.086,-17.090,-14.160,-65.918,-207.520
1678024810.185,-49.805,-13.672,-15.137,-52.246,-207.520
1678024810.189,-53.223,-21.973,-12.695,-37.109,80.078
1678024810.193,-41.992,-19.043,-16.113,-53.223,158.691
1678024810.197,-31.738,-19.043,-15.137,-86.426,-121.582
1678024810.199,-32.227,-17.090,-17.578,-99.121,-157.715
1678024810.203,-62.500,-14.160,-16.602,-73.242,-62.012
1678024810.207,-72.266,-25.391,-10.742,-45.898,-15.625
1678024810.211,-60.059,-22.461,-16.113,-58.105,-57.129
1678024810.215,-40.039,-14.648,-21.973,-82.520,-90.820
1678024810.219,-23.926,-16.113,-27.832,-86.914,-17.578
1678024810.223,-45.410,-19.531,-17.578,-58.105,72.754
1678024810.226,-63.477,-21.484,-17.090,-48.340,73.730
1678024810.230,-46.875,-17.090,-21.973,-50.293,107.422
1678024810.234,-31.250,-16.113,-17.578,-53.711,133.301
1678024810.238,-30.273,-18.066,-16.113,-69.824,-104.980
1678024810.242,-59.570,-18.555,-16.602,-51.758,-209.473
1678024810.244,-97.168,-20.020,-17.090,-30.273,14.160
1678024810.248,-78.125,-21.973,-19.043,-23.926,451.660
1678024810.252,-52.246,-17.578,-19.531,-47.852,308.105
1678024810.256,-53.711,-15.137,-21.484,-84.473,-129.883
1678024810.260,-71.777,-17.578,-19.043,-72.266,-111.816
1678024810.264,-71.777,-18.555,-12.207,-41.504,46.387
1678024810.268,-60.547,-16.602,-10.742,-55.664,86.426
1678024810.271,-54.688,-17.090,-16.113,-73.730,-113.770
1678024810.275,-40.527,-12.695,-16.602,-74.219,-27.832
1678024810.279,-47.852,-11.719,-13.184,-67.871,83.984
1678024810.283,-68.359,-13.672,-11.719,-66.406,-159.180
1678024810.287,-69.336,-16.602,-14.160,-62.988,-106.934
1678024810.289,-65.430,-19.531,-15.137,-81.543,-43.457
1678024810.293,-47.852,-10.742,-14.648,-104.980,-122.559
1678024810.297,-36.621,-7.324,-11.230,-87.891,-198.730
1678024810.301,-79.102,-17.578,-10.254,-71.777,-97.656
1678024810.305,-88.867,-18.066,-16.113,-78.125,90.820
1678024810.309,-73.242,-20.020,-15.137,-99.609,25.391
1678024810.313,-42.480,-12.207,-16.602,-102.051,-158.203
1678024810.316,-41.016,-15.137,-17.578,-109.863,-70.801
1678024810.320,-89.355,-25.879,-18.066,-99.609,325.195
1678024810.324,-74.707,-20.020,-24.414,-74.707,229.004
1678024810.328,-57.129,-24.414,-18.066,-97.168,-113.770
1678024810.332,-62.988,-20.020,-20.996,-136.719,-154.785
1678024810.334,-60.547,-22.949,-29.297,-129.395,-218.262
1678024810.338,-78.125,-30.762,-29.785,-94.238,-231.445
1678024810.342,-84.961,-28.320,-33.203,-90.820,-126.465
1678024810.346,-72.266,-26.367,-31.738,-108.398,-52.246
1678024810.350,-60.059,-27.344,-24.902,-106.934,-94.238
1678024810.354,-72.266,-35.645,-33.691,-105.469,-122.559
1678024810.358,-84.961,-41.504,-51.270,-89.355,-75.195
1678024810.361,-94.238,-42.480,-44.434,-67.383,234.863
1678024810.365,-88.867,-42.480,-52.734,-81.055,357.910
1678024810.369,-92.285,-47.852,-71.289,-122.070,-21.484
1678024810.373,-114.258,-57.129,-72.754,-156.250,-156.250
1678024810.377,-127.441,-63.965,-83.984,-156.738,-63.477
1678024810.379,-141.602,-66.895,-97.656,-146.484,-20.996
1678024810.383,-146.973,-70.312,-96.680,-159.180,-57.617
1678024810.387,-151.855,-75.684,-104.004,-201.172,-87.402
1678024810.391,-157.715,-82.520,-121.582,-222.168,-116.699
1678024810.395,-172.852,-85.449,-118.164,-201.172,-172.852
1678024810.399,-169.434,-86.914,-125.977,-190.430,-79.590
1678024810.403,-156.250,-88.867,-135.254,-196.777,98.633
1678024810.406,-164.062,-87.402,-136.719,-218.750,304.688
1678024810.410,-164.551,-92.773,-145.996,-244.141,211.914
1678024810.414,-191.895,-92.773,-146.484,-246.582,-150.879
1678024810.418,-223.633,-95.703,-155.273,-233.398,-25.879
1678024810.422,-208.984,-106.445,-161.133,-216.797,112.793
1678024810.424,-204.102,-99.609,-156.250,-228.516,-151.367
1678024810.428,-206.055,-93.750,-156.738,-258.789,-201.172
1678024810.432,-214.355,-88.379,-161.133,-240.723,-98.633
1678024810.436,-237.793,-90.820,-161.621,-208.984,-84.473
1678024810.440,-217.773,-92.285,-152.344,-196.289,-82.031
1678024810.444,-202.148,-84.961,-150.879,-216.309,-121.582
1678024810.448,-195.801,-79.590,-146.973,-221.680,47.363
1678024810.451,-192.383,-83.984,-141.113,-209.961,116.699
1678024810.455,-209.473,-81.055,-135.254,-198.730,-143.555
1678024810.459,-193.359,-70.801,-144.531,-186.523,-155.762
1678024810.463,-169.922,-79.590,-133.789,-186.523,-121.094
1678024810.467,-154.785,-87.402,-121.582,-201.172,-188.965
1678024810.470,-174.316,-87.891,-131.836,-210.938,-337.891
1678024810.474,-203.125,-84.473,-127.441,-204.590,-235.352
1678024810.478,-185.547,-83.008,-119.629,-199.707,22.461
1678024810.482,-162.598,-91.309,-119.141,-205.566,15.137
1678024810.486,-150.391,-83.008,-114.258,-207.520,-143.066
1678024810.490,-156.738,-76.172,-109.863,-209.961,-19.043
1678024810.494,-180.664,-84.473,-112.305,-204.102,226.074
1678024810.497,-173.828,-84.961,-112.305,-182.617,27.344
1678024810.501,-158.203,-78.613,-111.328,-204.590,-106.934
1678024810.505,-147.949,-80.078,-108.887,-218.750,13.672
1678024810.509,-139.160,-77.637,-102.539,-217.773,164.062
1678024810.513,-171.387,-72.754,-98.633,-218.262,-38.574
1678024810.515,-188.477,-75.684,-91.309,-197.266,-110.352
1678024810.519,-161.133,-76.172,-86.914,-192.871,53.711
1678024810.523,-146.484,-77.637,-83.496,-208.984,-29.785
1678024810.527,-145.020,-73.730,-82.031,-219.238,-143.555
1678024810.531,-144.531,-68.359,-79.102,-206.543,-131.348
1678024810.535,-164.551,-74.707,-64.941,-187.012,161.621
1678024810.539,-165.527,-72.266,-53.711,-161.621,339.355
1678024810.542,-122.070,-59.082,-49.805,-171.875,-15.137
1678024810.546,-123.047,-62.500,-58.594,-185.059,-233.398
1678024810.550,-128.906,-62.500,-54.688,-138.184,-44.922
1678024810.554,-135.742,-61.523,-45.410,-95.215,34.668
1678024810.558,-145.020,-64.941,-45.898,-89.844,-115.234
1678024810.589,-110.840,-61.523,-41.016,-105.957,-104.492
1678024810.593,-98.145,-62.012,-37.598,-110.840,-104.980
1678024810.597,-121.582,-66.406,-28.320,-91.309,-154.297
1678024810.601,-139.160,-63.965,-26.855,-97.168,-95.215
1678024810.605,-121.582,-67.871,-26.367,-116.699,-44.922
1678024810.609,-99.609,-70.801,-23.926,-147.461,61.035
1678024810.613,-108.398,-72.266,-26.855,-172.363,-39.551
1678024810.616,-103.516,-73.730,-23.926,-166.992,-166.504
1678024810.620,-113.770,-70.312,-25.391,-156.738,-41.016
1678024810.624,-114.258,-72.754,-24.414,-129.395,220.215
1678024810.628,-75.684,-70.801,-23.926,-141.602,89.355
1678024810.632,-65.430,-62.012,-29.785,-176.758,-220.703
1678024810.619,-91.309,-70.312,-27.832,-158.203,-190.918
1678024810.623,-105.469,-59.082,-24.902,-131.836,-129.883
1678024810.627,-113.770,-61.035,-24.414,-126.953,-171.875
1678024810.631,-97.656,-68.359,-13.672,-142.578,-179.199
1678024810.635,-60.547,-54.688,-11.719,-148.438,-94.238
1678024810.639,-63.477,-55.176,-16.113,-142.578,-26.367
1678024810.643,-114.746,-61.523,-17.090,-148.438,-45.410
1678024810.646,-118.164,-63.965,-18.555,-132.324,-14.160
1678024810.650,-82.031,-60.059,-21.973,-135.254,43.945
1678024810.654,-79.590,-56.152,-24.414,-155.762,-80.566
1678024810.658,-66.406,-57.129,-21.484,-154.785,-151.855
1678024810.662,-84.473,-51.758,-21.484,-136.230,-136.719
1678024810.664,-121.582,-50.781,-20.020,-125.488,145.020
1678024810.668,-84.473,-49.805,-18.066,-117.188,227.539
1678024810.672,-55.664,-51.758,-8.301,-125.000,-89.355
1678024810.676,-58.594,-45.410,-13.184,-145.508,-135.254
1678024810.680,-97.656,-36.621,-31.250,-131.348,-45.410
1678024810.684,-121.094,-46.387,-28.320,-112.793,20.996
1678024810.688,-85.938,-48.828,-22.461,-127.930,-15.625
1678024810.691,-86.914,-48.828,-28.809,-178.223,24.414
1678024810.695,-118.652,-50.293,-35.156,-194.336,295.410
1678024810.699,-146.973,-51.270,-41.016,-180.176,258.301
1678024810.703,-170.410,-61.523,-47.852,-192.871,-105.469
1678024810.707,-153.320,-63.965,-48.340,-208.008,-53.223
1678024810.709,-144.043,-61.035,-55.176,-228.027,0.488
1678024810.713,-158.203,-53.711,-62.012,-245.117,-189.453
1678024810.717,-187.500,-50.781,-58.594,-259.766,-174.316
1678024810.721,-198.730,-51.758,-51.758,-199.707,-17.578
1678024810.725,-166.016,-39.062,-42.969,-183.594,9.766
1678024810.729,-141.113,-32.227,-53.223,-219.238,-85.938
1678024810.733,-118.164,-40.527,-57.617,-222.656,-97.168
1678024810.736,-118.164,-36.133,-52.734,-187.012,125.488
1678024810.740,-150.879,-30.273,-50.293,-154.297,172.363
1678024810.744,-131.348,-30.762,-50.781,-163.574,-91.797
1678024810.748,-108.887,-26.855,-56.641,-178.711,-123.535
1678024810.752,-112.305,-28.809,-58.105,-176.758,-149.414
1678024810.769,-103.516,-11.230,-48.828,-159.180,-237.305
1678024810.773,-124.023,7.324,-37.109,-162.109,-193.359
1678024810.777,-129.395,4.395,-34.180,-155.273,-65.430
1678024810.781,-83.008,4.395,-41.016,-164.062,-54.199
1678024810.785,-71.777,4.883,-41.016,-187.500,-191.895
1678024810.789,-105.957,1.465,-40.527,-214.355,-171.387
1678024810.793,-129.395,1.465,-44.922,-225.586,22.949
1678024810.796,-120.117,4.395,-53.711,-208.496,156.738
1678024810.800,-107.422,-3.906,-54.199,-228.027,-9.766
1678024810.804,-97.168,-0.977,-49.805,-251.953,-274.902
1678024810.808,-102.539,10.742,-52.246,-229.980,-155.273
1678024810.812,-131.348,11.230,-55.176,-164.062,200.684
1678024810.800,-116.211,11.719,-53.711,-132.812,67.383
1678024810.804,-83.008,18.066,-44.922,-147.949,-210.449
1678024810.808,-68.359,17.578,-40.527,-155.762,-140.625
1678024810.812,-71.289,17.578,-45.898,-132.324,-138.672
1678024810.816,-84.961,20.508,-33.691,-98.633,-205.566
1678024810.820,-83.008,28.809,-25.879,-60.547,-34.668
1678024810.824,-60.059,39.551,-36.133,-43.457,144.043
1678024810.827,-35.645,36.621,-37.109,-87.891,-22.949
1678024810.831,-39.551,38.574,-36.621,-84.961,-240.723
1678024810.835,-76.172,41.504,-24.902,-29.297,-216.309
1678024810.839,-77.148,43.945,-14.160,2.441,81.543
1678024810.843,-43.457,59.570,-18.066,12.207,134.277
1678024810.874,-23.926,66.895,-16.113,-25.391,-146.973
1678024810.878,-34.180,62.500,-12.695,-53.711,-145.508
1678024810.882,-83.008,63.965,-7.812,-22.949,-66.406
1678024810.886,-97.168,73.242,-11.719,-2.930,-50.781
1678024810.890,-58.594,74.219,-9.277,-1.465,-101.562
1678024810.894,-22.949,72.754,-0.977,9.766,32.227
1678024810.898,-31.250,80.078,1.465,27.344,335.449
1678024810.901,-73.242,83.008,0.488,29.297,217.773
1678024810.905,-93.262,76.660,3.418,26.855,-99.121
1678024810.909,-59.082,80.078,5.859,25.391,-17.578
1678024810.913,-37.598,77.637,4.395,21.484,19.531
1678024810.917,-55.664,69.336,5.859,-12.207,-183.105
1678024810.904,-67.871,71.289,6.348,-19.043,-189.453
1678024810.908,-75.684,75.195,-0.977,8.789,-39.062
1678024810.912,-70.801,75.684,-7.324,-25.391,46.387
1678024810.916,-58.105,73.242,-11.230,-80.078,-104.004
1678024810.920,-61.035,68.848,-13.672,-77.637,-199.707
1678024810.924,-70.312,71.289,-20.996,-72.266,82.520
1678024810.928,-89.355,73.730,-21.484,-60.547,189.941
1678024810.931,-95.215,73.242,-17.578,-61.523,24.902
1678024810.935,-71.289,80.078,-17.578,-93.750,-108.398
1678024810.939,-63.965,76.660,-24.414,-124.023,-137.207
1678024810.943,-78.613,76.660,-30.273,-124.023,-127.441
1678024810.947,-78.125,88.867,-25.879,-74.219,-125.488
1678024810.949,-83.984,89.844,-13.184,-55.176,-85.938
1678024810.953,-81.055,90.332,-18.555,-77.637,125.000
1678024810.957,-87.402,83.496,-24.414,-86.426,99.121
1678024810.961,-109.375,87.891,-27.832,-97.168,-132.324
1678024810.965,-113.770,94.727,-32.227,-87.891,-18.066
1678024810.969,-102.051,92.773,-31.250,-58.105,62.500
1678024810.973,-69.824,103.027,-40.527,-44.922,-34.668
1678024810.976,-47.363,107.910,-26.367,-41.504,-96.191
1678024810.980,-86.426,94.727,-18.555,-48.828,1.465
1678024810.984,-145.020,85.449,-20.508,-33.691,299.316
1678024810.988,-157.715,86.426,-12.207,-23.438,283.203
1678024810.992,-115.723,79.102,-4.883,-42.480,-20.020
1678024810.994,-71.289,71.777,7.812,-47.852,-139.160
1678024810.998,-72.266,71.289,17.578,-43.457,-200.684
1678024811.002,-98.145,62.012,23.438,-25.391,-164.551
1678024811.006,-126.953,57.129,26.855,-28.809,-47.852
1678024811.010,-95.703,65.918,29.297,-59.082,-38.574
1678024811.014,-52.246,67.383,33.203,-55.176,-14.648
1678024811.018,-61.523,63.477,40.039,0.977,-54.688
1678024811.021,-79.102,61.035,55.176,39.551,-132.324
1678024811.025,-61.523,65.918,65.918,65.918,89.355
1678024811.029,-22.949,69.824,71.777,96.191,232.910
1678024811.033,-14.160,71.777,74.219,106.934,-104.004
1678024811.037,-20.508,71.289,82.031,86.914,-258.789
1678024811.039,-29.297,70.312,89.844,99.121,-44.434
1678024811.043,-33.691,78.613,90.332,147.461,22.461
1678024811.047,-0.977,79.102,95.703,153.320,-83.008
1678024811.051,9.277,75.684,99.121,155.273,-80.078
1678024811.055,1.465,76.172,96.191,155.273,-99.121
1678024811.059,-9.277,76.172,98.145,171.387,-98.145
1678024811.063,15.137,84.961,103.027,202.148,-59.082
1678024811.066,50.293,81.055,110.352,208.496,54.688
1678024811.070,71.777,75.684,114.746,211.426,379.883
1678024811.074,85.938,78.125,111.328,223.145,186.523
1678024811.078,61.035,73.730,109.375,244.141,-166.504
1678024811.082,40.527,69.824,102.539,272.949,-1.465
1678024811.084,73.730,71.289,93.262,269.043,27.832
1678024811.088,107.910,75.195,86.426,219.238,-83.008
1678024811.092,103.027,72.754,79.102,192.871,-127.930
1678024811.096,58.594,65.918,68.848,198.242,-92.285
1678024811.100,27.344,68.359,68.848,187.500,-9.277
1678024811.104,34.668,71.777,62.012,165.527,14.648
1678024811.108,52.734,62.500,57.617,141.113,-1.465
1678024811.111,45.898,62.988,55.664,129.883,139.648
1678024811.115,44.434,79.102,49.316,117.676,157.227
1678024811.119,40.527,70.801,51.758,138.184,-162.598
1678024811.123,26.367,63.965,45.410,137.695,-167.969
1678024811.127,48.828,71.777,27.344,79.102,-90.332
1678024811.130,36.621,61.523,20.996,49.316,-157.227
1678024811.134,19.531,59.082,21.484,52.734,-219.238
1678024811.138,44.434,65.430,20.508,63.477,-106.934
1678024811.142,53.711,65.918,25.879,64.453,62.988
1678024811.146,63.477,65.430,30.273,63.965,-98.145
1678024811.150,83.984,67.871,29.785,63.477,-199.219
1678024811.154,48.340,67.383,22.461,26.367,-36.133
1678024811.157,23.926,65.430,19.531,33.691,325.195
1678024811.161,45.410,64.941,19.043,36.621,239.258
1678024811.165,78.613,61.035,12.695,22.949,-91.797
1678024811.169,83.984,60.059,9.277,23.438,-33.691
1678024811.173,38.086,55.176,2.930,-7.812,-101.074
1678024811.174,22.949,49.805,4.883,20.020,-189.453
1678024811.178,32.715,48.340,12.207,45.410,-125.000
1678024811.182,43.457,48.828,7.324,32.227,-110.840
1678024811.186,52.246,50.781,-6.836,6.836,-238.770
1678024811.190,34.180,41.504,-9.277,-19.043,-276.855
1678024811.194,20.020,35.645,-1.465,11.230,-213.379
1678024811.198,43.945,41.504,1.465,34.180,114.746
1678024811.201,52.734,44.434,4.395,27.344,258.301
1678024811.205,41.504,37.598,5.371,2.930,-148.438
1678024811.209,35.645,31.250,-5.859,-6.348,-238.770
1678024811.213,31.738,31.738,-8.301,14.160,-135.742
1678024811.217,36.133,31.738,-5.859,19.043,-126.465
1678024811.219,48.828,24.414,-6.348,9.766,-183.594
1678024811.223,64.941,20.996,-3.418,13.184,-168.945
1678024811.227,57.129,25.391,-3.418,11.719,-120.605
1678024811.231,35.645,29.297,-8.301,14.160,-179.688
1678024811.235,39.062,31.738,-7.324,13.672,-138.184
1678024811.239,51.758,27.344,-4.883,-1.953,68.848
1678024811.243,50.781,24.902,-7.324,0.977,195.312
1678024811.246,52.734,30.273,-6.836,-10.742,115.723
1678024811.250,45.898,31.738,-1.953,-16.602,-53.711
1678024811.254,15.625,23.438,1.465,-5.371,-33.691
1678024811.258,20.996,19.531,-3.906,-3.906,236.328
1678024811.262,24.414,12.695,0.488,-41.992,91.309
1678024811.279,12.695,2.930,-0.488,-65.918,-154.785
1678024811.283,4.883,-1.953,-6.836,-65.430,-144.531
1678024811.287,-1.465,-0.488,-5.371,-64.453,-98.145
1678024811.291,-7.812,-0.488,-1.465,-49.805,-109.375
1678024811.295,-12.207,-4.395,-1.953,-69.824,-196.289
1678024811.299,-15.625,-8.301,2.441,-81.055,-121.582
1678024811.303,-26.855,-9.277,3.418,-78.613,-27.832
1678024811.306,-28.320,-1.953,-15.137,-85.938,-35.156
1678024811.310,-40.039,-6.348,-8.789,-77.148,-78.613
1678024811.314,-26.367,-6.836,-1.465,-83.984,228.516
1678024811.318,-27.832,-4.883,-1.465,-95.703,298.828
1678024811.322,-62.988,-6.348,1.465,-103.027,-89.355
1678024811.324,-58.105,-4.883,-0.977,-107.422,-62.012
1678024811.328,-45.898,-7.324,2.441,-98.145,33.203
1678024811.332,-41.992,-14.648,4.395,-88.867,-39.551
1678024811.336,-46.875,-14.648,2.930,-101.074,-120.117
1678024811.340,-72.266,-11.230,0.977,-116.699,-20.996
1678024811.344,-87.891,-10.742,-1.953,-102.051,104.492
1678024811.348,-80.566,-12.207,0.000,-86.426,112.793
1678024811.351,-85.938,-13.184,2.441,-97.656,98.145
1678024811.355,-116.211,-9.277,0.977,-125.000,129.395
1678024811.359,-119.629,-9.766,3.906,-125.488,187.012
1678024811.363,-102.051,-9.766,1.465,-105.957,10.254
1678024811.367,-73.242,-5.859,-6.836,-115.234,-92.773
1678024811.370,-47.363,-6.348,-2.930,-119.141,68.848
1678024811.374,-54.199,-11.719,3.906,-102.051,227.051
1678024811.378,-57.129,-13.184,3.906,-112.305,-49.316
1678024811.382,-42.480,-6.348,0.000,-130.371,-173.828
1678024811.386,-26.855,-2.930,-3.418,-114.746,-32.227
1678024811.390,-30.762,-3.418,2.441,-111.816,-77.148
1678024811.394,-23.438,-12.207,3.906,-127.441,-119.629
1678024811.397,-41.992,-12.695,-2.441,-131.836,-144.043
1678024811.401,-69.824,-15.137,3.418,-121.582,58.594
1678024811.405,-53.711,-23.438,0.977,-117.188,165.527
1678024811.409,-39.062,-32.715,6.348,-107.422,-91.309
1678024811.413,8.301,-25.391,9.277,-111.328,-131.836
1678024811.414,13.672,-8.301,-5.371,-155.762,-109.863
1678024811.418,-52.246,-8.789,-16.113,-177.734,-120.605
1678024811.422,-49.316,-5.371,-20.508,-170.410,-150.879
1678024811.426,-50.293,0.977,-35.645,-194.336,-55.176
1678024811.430,-79.590,2.930,-52.246,-219.727,17.578
1678024811.434,-92.285,6.348,-56.641,-262.695,-43.945
1678024811.438,-114.258,9.766,-69.336,-286.621,-180.176
1678024811.441,-113.281,17.578,-80.078,-264.160,-98.633
1678024811.445,-130.371,22.949,-93.750,-277.344,72.266
1678024811.449,-121.582,22.461,-104.492,-314.941,-119.629
1678024811.453,-104.492,27.832,-109.863,-327.148,-224.121
1678024811.457,-119.141,31.738,-119.141,-321.289,-90.820
1678024811.459,-114.258,39.551,-125.977,-311.035,40.039
1678024811.463,-101.074,45.410,-125.488,-291.992,-11.719
1678024811.467,-66.406,47.363,-124.023,-283.691,-129.883
1678024811.471,-52.246,52.246,-133.789,-330.078,5.371
1678024811.475,-82.031,50.293,-132.324,-332.031,410.156
1678024811.479,-135.742,47.363,-128.906,-309.082,214.844
1678024811.483,-85.449,50.293,-128.418,-278.320,-137.207
1678024811.486,-46.387,52.246,-118.652,-239.746,114.258
1678024811.490,-72.754,48.828,-121.094,-277.832,144.043
1678024811.494,-66.406,57.617,-130.859,-257.324,-211.426
1678024811.498,-76.172,55.664,-118.652,-230.469,-167.480
1678024811.502,-76.172,48.828,-99.609,-217.773,-35.645
1678024811.504,-58.594,44.922,-94.727,-192.383,-49.316
1678024811.508,-52.734,37.109,-91.309,-222.656,-191.406
1678024811.512,-32.715,37.598,-81.543,-210.938,-169.434
1678024811.516,-28.320,31.250,-75.684,-167.969,-29.785
1678024811.520,-41.504,27.832,-69.824,-153.809,1.953
1678024811.524,-14.648,27.832,-53.223,-147.949,-9.277
1678024811.528,19.043,25.879,-41.992,-143.066,-5.859
1678024811.531,6.348,20.996,-43.945,-132.812,357.422
1678024811.535,-10.254,16.602,-35.156,-100.098,313.477
1678024811.539,7.324,18.555,-32.227,-66.895,-78.125
1678024811.543,19.531,10.742,-22.949,-63.477,43.945
1678024811.547,31.738,4.883,-15.137,-68.359,104.980
1678024811.549,10.254,9.766,-9.766,-60.059,-108.398
1678024811.553,-25.879,0.488,-5.371,-53.223,-139.648
1678024811.557,-14.648,-4.883,-14.648,-55.664,13.672
1678024811.561,-23.926,-3.418,-7.324,-56.152,22.461
1678024811.565,-31.250,-10.742,1.465,-62.500,-103.516
1678024811.569,-23.438,-9.766,-0.488,-65.430,-99.609
1678024811.573,-44.922,-11.719,1.953,-6.348,169.434
1678024811.576,-45.898,-19.531,7.812,52.246,251.465
1678024811.580,-27.832,-13.672,10.742,4.883,15.625
1678024811.584,-6.836,-5.859,4.395,-35.156,-4.395
1678024811.588,-4.883,-11.230,5.859,-13.184,-52.246
1678024811.592,-23.438,-24.902,12.695,4.883,-182.617
1678024811.594,-5.859,-37.109,14.648,26.855,-167.480
1678024811.598,5.859,-33.691,7.324,25.879,-16.113
1678024811.602,20.020,-18.555,-5.371,-4.395,-26.367
1678024811.606,22.461,-43.945,-8.789,-33.691,-146.484
1678024811.610,-28.320,-84.961,-16.602,-10.254,-213.867
1678024811.614,-52.734,-32.227,-13.672,40.039,-61.523
1678024811.618,-61.035,9.277,-8.301,53.711,152.832
1678024811.621,-36.621,-29.785,-1.953,25.391,85.938
1678024811.625,11.719,-38.574,-0.488,6.836,-58.105
1678024811.629,-32.227,-0.977,-8.301,15.137,0.977
1678024811.633,-63.477,3.906,-3.418,56.152,253.418
1678024811.637,-63.477,-6.836,-0.977,71.777,148.926
1678024811.654,-40.527,-4.395,-4.883,31.250,-90.820
1678024811.658,-19.043,-6.348,0.977,-0.488,-130.859
1678024811.662,-26.367,-13.672,6.348,3.906,-100.098
1678024811.666,-31.738,-11.719,-2.441,27.832,-90.820
1678024811.670,-29.785,-7.324,-0.977,51.270,-109.375
1678024811.674,-11.230,-9.277,8.301,51.758,-47.363
1678024811.678,-13.184,-10.254,2.930,32.227,5.859
1678024811.681,-28.320,-8.789,15.137,39.551,-114.746
1678024811.685,-43.945,-9.277,15.137,67.383,-175.781
1678024811.689,-51.758,-11.719,1.953,79.102,130.371
1678024811.693,-18.066,-3.418,0.000,73.730,189.453
1678024811.697,0.977,2.441,6.836,43.945,-178.711
1678024811.699,-10.254,-3.906,10.742,58.594,-193.848
1678024811.703,-31.250,-5.371,5.859,99.609,-14.160
1678024811.707,-39.551,-8.789,17.578,122.559,-4.395
1678024811.711,-13.184,-9.277,20.508,110.352,-114.258
1678024811.715,1.465,-6.836,11.719,71.777,-138.184
1678024811.719,1.953,-6.836,0.977,58.594,-45.898
1678024811.723,-6.836,-0.977,-3.906,98.633,-59.570
1678024811.726,-23.438,-10.254,3.906,120.605,35.156
1678024811.730,-15.137,-17.578,8.301,105.957,164.062
1678024811.734,2.930,-13.184,9.766,96.680,282.227
1678024811.738,20.508,-8.301,2.441,89.844,129.395
1678024811.742,5.371,-11.230,-4.395,115.234,-128.906
1678024811.744,-12.207,-15.625,11.719,150.391,6.836
1678024811.748,-8.789,-12.695,16.113,149.414,9.277
1678024811.752,4.395,-8.301,8.789,132.324,-141.113
1678024811.756,7.324,-7.324,8.789,110.840,-128.906
1678024811.760,4.395,-11.230,8.301,122.070,64.453
1678024811.764,3.418,-10.254,-1.953,156.250,180.664
1678024811.768,9.766,-12.207,5.859,161.133,91.797
1678024811.771,21.973,-14.648,18.555,138.672,-123.047
1678024811.775,13.672,-15.137,11.230,126.465,-10.254
1678024811.779,-17.578,-21.484,7.812,150.879,129.395
1678024811.783,-31.738,-26.855,11.230,177.734,-66.406
1678024811.787,-4.883,-26.367,12.207,166.992,-48.340
1678024811.789,0.000,-28.320,11.230,131.348,-9.766
1678024811.793,3.906,-21.484,11.230,103.516,-96.191
1678024811.797,6.348,-16.602,8.301,115.723,-162.109
1678024811.801,-3.906,-20.020,0.977,142.578,-50.781
1678024811.805,-2.930,-26.855,5.859,139.160,22.949
1678024811.809,-14.160,-31.738,11.230,101.074,-24.902
1678024811.813,-18.066,-28.809,4.883,54.688,-101.074
1678024811.816,-12.695,-23.926,4.883,47.852,-50.293
1678024811.820,-9.277,-25.879,1.953,77.148,348.145
1678024811.824,-0.488,-29.297,3.906,97.168,420.410
1678024811.828,34.180,-26.855,1.953,64.941,50.293
1678024811.832,38.086,-29.297,8.301,34.180,-92.773
1678024811.849,16.113,-22.949,12.695,48.340,-153.809
1678024811.853,-0.977,-17.578,4.395,62.988,-136.230
1678024811.857,-13.672,-23.926,3.906,80.078,-31.738
1678024811.861,1.953,-24.902,9.766,70.312,-45.410
1678024811.865,28.809,-17.578,4.883,14.160,-125.977
1678024811.869,19.043,-18.066,-3.418,-4.883,-138.672
1678024811.873,-21.973,-24.414,-3.906,25.391,-76.172
1678024811.876,-29.785,-21.484,0.977,57.617,192.871
1678024811.880,-17.090,-19.531,12.695,34.668,215.332
1678024811.884,-0.488,-18.555,8.301,-10.742,-201.660
1678024811.888,10.742,-14.648,-4.395,-6.348,-288.574
1678024811.892,-14.160,-14.648,-3.906,20.508,-127.441
1678024811.879,-42.969,-18.555,2.930,37.109,-26.855
1678024811.883,-42.480,-21.484,12.207,42.480,-141.113
1678024811.887,-14.648,-22.461,22.461,26.855,-174.316
1678024811.891,-4.395,-20.020,19.043,20.996,-176.270
1678024811.895,-21.973,-17.578,15.137,53.223,-167.480
1678024811.899,-20.020,-16.602,7.324,93.750,-36.133
1678024811.903,-17.578,-17.578,6.348,73.730,145.508
1678024811.906,-25.879,-14.648,22.461,11.230,128.906
1678024811.910,-26.855,-15.625,20.996,3.906,-141.602
1678024811.914,-36.133,-19.043,15.625,32.715,-186.523
1678024811.918,-53.223,-16.113,12.695,41.504,69.336
1678024811.922,-50.293,-14.160,12.207,40.527,393.555
1678024811.924,-34.668,-20.020,18.066,1.465,253.906
1678024811.928,-31.738,-21.484,14.648,-44.922,-166.992
1678024811.932,-41.504,-16.602,9.766,-32.715,-203.613
1678024811.936,-40.039,-21.484,13.184,-6.348,0.000
1678024811.940,-25.391,-20.508,3.906,-20.508,20.996
1678024811.944,-22.949,-18.066,-3.906,-60.059,-28.809
1678024811.948,-42.969,-23.926,1.953,-62.988,161.133
1678024811.951,-59.570,-27.344,0.000,-39.551,101.074
1678024811.955,-48.828,-23.438,0.000,-2.441,-100.586
1678024811.959,-48.340,-21.484,2.930,-2.930,-21.973
1678024811.963,-45.898,-23.438,-5.371,-41.504,-110.352
1678024811.967,-41.504,-20.996,-3.418,-84.961,-251.953
1678024811.970,-69.336,-20.996,0.000,-100.586,-211.914
1678024811.974,-73.242,-20.508,-3.906,-73.730,-32.715
1678024811.978,-56.152,-18.555,-6.348,-64.453,65.918
1678024811.982,-56.641,-32.227,-3.418,-75.195,-43.457
1678024811.986,-58.105,-34.180,-4.883,-111.816,-256.836
1678024811.990,-62.500,-18.066,-5.371,-104.980,-148.926
1678024811.994,-69.824,-18.555,-6.836,-59.082,184.570
1678024811.997,-61.523,-26.367,-11.719,-47.363,140.625
1678024812.001,-51.758,-26.367,-13.184,-62.988,-58.105
1678024812.005,-60.547,-21.973,-13.184,-91.797,-105.957
1678024812.009,-70.801,-24.414,-7.812,-82.031,50.781
1678024812.013,-59.570,-20.508,-10.742,-38.574,-18.555
1678024812.029,-55.176,-9.277,-5.371,-20.508,-113.281
1678024812.033,-49.316,-11.719,-1.953,-42.480,-112.793
1678024812.037,-30.273,-15.137,-5.371,-70.312,-168.945
1678024812.041,-34.668,-10.254,-1.953,-73.242,-220.215
1678024812.045,-50.781,-18.555,1.465,-22.949,-124.023
1678024812.049,-42.480,-21.484,-2.441,3.906,192.871
1678024812.053,-28.320,-13.184,-6.836,-34.180,242.676
1678024812.056,-37.109,-16.113,2.930,-79.590,-157.715
1678024812.060,-30.273,-16.113,-4.883,-92.285,-315.430
1678024812.064,-37.109,-11.230,-14.648,-47.363,-57.617
1678024812.068,-44.434,-13.184,-4.395,-1.465,82.520
1678024812.072,-28.809,-14.648,-4.395,-19.043,-39.062
1678024812.074,-30.762,-16.602,-9.766,-68.359,-130.371
1678024812.078,-30.273,-18.555,-6.836,-73.242,-162.598
1678024812.082,-35.156,-11.719,-4.395,-36.133,-138.184
1678024812.086,-39.062,-12.695,-7.812,-7.324,-20.996
1678024812.090,-7.324,-15.625,-8.301,-24.902,110.840
1678024812.094,2.930,-12.207,-9.277,-63.965,122.070
1678024812.098,-8.789,-16.113,-12.695,-66.895,-7.812
1678024812.101,-11.230,-19.531,-11.719,-29.785,-39.551
1678024812.105,-20.996,-19.531,-15.137,3.906,173.340
1678024812.109,-28.320,-24.902,-14.648,10.742,475.586
1678024812.113,-10.742,-19.531,-12.695,-16.602,279.297
1678024812.117,2.930,-7.812,-10.254,-60.059,-163.574
1678024812.134,-21.973,-4.883,-7.324,-39.551,-159.180
1678024812.138,-19.043,0.977,-6.836,10.254,23.438
1678024812.142,-14.648,-3.906,-1.953,-8.789,21.973
1678024812.146,-14.160,-6.348,-5.371,-46.387,-95.703
1678024812.150,0.488,-1.465,-15.137,-74.219,-163.086
1678024812.154,-10.742,-0.488,-19.043,-54.688,-78.125
1678024812.158,-15.137,0.977,-20.508,-0.977,37.109
1678024812.161,-5.371,-6.836,-26.367,-8.301,52.734
1678024812.165,6.348,0.488,-35.645,-50.781,204.590
1678024812.169,16.113,3.906,-37.598,-87.891,161.133
1678024812.173,12.695,-1.953,-34.668,-87.891,-227.051
1678024812.177,0.488,-0.977,-36.621,-52.734,-125.977
1678024812.164,4.395,-5.859,-39.062,-47.363,44.434
1678024812.168,-1.953,-3.906,-53.223,-80.566,-62.012
1678024812.172,-9.766,-1.465,-61.523,-104.492,-280.762
1678024812.176,-5.371,6.348,-53.223,-65.918,-226.562
1678024812.180,-15.625,10.742,-58.105,-1.953,-39.062
1678024812.184,-22.461,7.324,-58.105,14.648,30.762
1678024812.188,7.812,13.672,-56.641,-20.020,11.719
1678024812.191,36.133,21.484,-57.129,-59.082,-4.395
1678024812.195,29.785,22.461,-66.895,-59.082,-76.172
1678024812.199,0.000,15.625,-82.031,-26.855,-201.172
1678024812.203,-14.648,6.836,-83.496,7.812,-22.949
1678024812.207,1.465,6.348,-79.102,-21.484,6.348
1678024812.209,8.301,11.719,-82.031,-73.730,161.133
1678024812.213,6.836,14.160,-83.008,-69.824,86.914
1678024812.217,-7.324,17.090,-79.102,-57.617,-155.762
1678024812.221,-14.160,19.531,-75.195,-52.246,-58.105
1678024812.225,6.348,30.273,-74.707,-73.242,-112.305
1678024812.229,7.812,27.832,-79.590,-101.562,-197.266
1678024812.233,5.859,21.973,-76.660,-98.633,-148.926
1678024812.236,-8.301,30.762,-71.777,-67.871,49.805
1678024812.240,-7.324,34.668,-73.730,-48.828,152.832
1678024812.244,11.719,24.414,-79.102,-81.543,-48.340
1678024812.248,7.324,18.555,-73.242,-138.672,-208.008
1678024812.252,2.930,22.461,-69.824,-140.625,-243.164
1678024812.254,-20.020,20.508,-72.754,-111.816,-138.184
1678024812.258,-20.020,20.020,-69.336,-97.168,-85.938
1678024812.262,-7.324,16.113,-69.824,-110.840,-45.898
1678024812.266,9.766,16.113,-68.359,-132.812,-33.203
1678024812.270,18.066,21.973,-68.359,-154.785,-179.199
1678024812.274,-13.672,19.043,-67.871,-136.230,-191.406
1678024812.278,-31.738,18.555,-57.617,-109.863,21.973
1678024812.281,-18.555,20.508,-61.035,-113.281,181.641
1678024812.285,4.395,13.184,-71.777,-128.418,17.090
1678024812.289,28.809,11.230,-58.594,-145.508,-220.703
1678024812.293,8.301,10.742,-54.688,-126.953,-115.234
1678024812.297,-26.367,13.184,-65.918,-98.633,178.711
1678024812.300,-2.441,12.695,-57.129,-102.539,63.965
1678024812.304,8.301,7.812,-50.293,-128.906,-193.848
1678024812.308,2.930,7.812,-62.012,-146.484,-94.238
1678024812.312,-11.230,8.789,-66.406,-119.629,150.879
1678024812.316,-37.109,10.742,-63.477,-81.543,0.000
1678024812.320,-15.137,3.418,-59.570,-74.707,-74.707
1678024812.324,10.254,0.000,-61.523,-107.910,81.543
1678024812.327,10.742,7.812,-60.547,-149.902,53.711
1678024812.331,3.906,11.230,-56.152,-139.160,-242.188
1678024812.335,-15.137,5.371,-60.547,-87.402,-184.570
1678024812.339,-21.484,1.465,-57.617,-67.871,-87.402
1678024812.343,-17.090,3.906,-41.992,-101.074,-184.082
1678024812.344,-0.488,6.836,-45.410,-128.418,-281.250
1678024812.348,7.324,8.789,-45.410,-114.746,-263.184
1678024812.352,-19.531,13.184,-46.387,-74.707,-120.605
1678024812.356,-25.879,10.254,-44.922,-62.012,-68.848
1678024812.360,-6.348,8.789,-41.016,-78.125,-85.938
1678024812.364,4.883,8.301,-43.457,-105.469,-71.289
1678024812.368,6.348,7.812,-41.016,-114.746,-9.766
1678024812.371,-7.812,0.488,-49.316,-74.219,39.551
1678024812.375,-10.742,-3.906,-51.758,-48.340,52.734
1678024812.379,-9.766,4.395,-50.293,-81.055,52.734
1678024812.383,-3.418,9.277,-55.176,-108.887,142.578
1678024812.387,-5.371,4.883,-48.340,-126.953,-91.797
1678024812.404,-19.531,1.465,-33.691,-96.680,-195.801
1678024812.408,-40.039,-5.859,-43.457,-59.570,-89.844
1678024812.412,-44.922,-7.324,-49.316,-77.637,-97.168
1678024812.416,-12.207,-2.930,-41.504,-113.770,-156.250
1678024812.420,-10.254,-5.859,-46.387,-131.836,-251.465
1678024812.424,-54.688,-10.254,-52.734,-89.844,-87.402
1678024812.428,-54.688,-9.277,-48.828,-42.969,-18.555
1678024812.431,-29.297,-5.371,-50.293,-52.734,-88.379
1678024812.435,-28.320,-5.859,-38.086,-91.797,-207.031
1678024812.439,-35.645,-5.371,-26.855,-110.352,-60.547
1678024812.443,-48.340,-3.906,-40.527,-81.055,141.602
1678024812.447,-66.406,-5.371,-39.551,-55.664,-80.566
1678024812.449,-66.895,-9.277,-38.574,-58.105,-124.023
1678024812.453,-35.645,-6.836,-40.527,-79.590,-118.164
1678024812.457,-33.691,-5.371,-33.691,-118.164,-187.500
1678024812.461,-52.734,-6.348,-38.086,-107.910,-214.355
1678024812.465,-48.340,-11.719,-40.527,-65.918,-34.668
1678024812.469,-39.551,-14.648,-29.297,-68.359,136.719
1678024812.473,-18.555,-9.766,-40.039,-81.055,110.352
1678024812.476,-21.973,-14.648,-46.387,-88.867,-18.555
1678024812.480,-63.477,-27.344,-37.598,-78.613,-34.180
1678024812.484,-78.613,-28.809,-35.156,-53.711,386.230
1678024812.488,-63.965,-24.414,-29.297,-55.664,329.102
1678024812.492,-41.992,-26.367,-32.715,-83.496,-148.926
1678024812.494,-25.391,-25.391,-43.457,-110.840,-109.375
1678024812.498,-49.805,-30.762,-36.621,-106.445,52.734
1678024812.502,-74.707,-36.133,-36.621,-76.172,-10.254
1678024812.506,-69.824,-35.645,-40.527,-63.477,-84.961
1678024812.510,-34.668,-37.109,-30.762,-89.355,-105.469
1678024812.514,-34.668,-39.062,-31.738,-123.047,-108.398
1678024812.518,-52.734,-38.086,-34.668,-109.375,-119.141
1678024812.521,-74.219,-35.156,-37.598,-94.238,-100.098
1678024812.525,-87.891,-40.039,-44.434,-82.031,121.582
1678024812.529,-74.707,-38.086,-40.039,-83.984,134.277
1678024812.533,-58.105,-37.598,-32.715,-108.398,-178.711
1678024812.537,-53.711,-41.504,-43.945,-99.121,-137.207
1678024812.554,-73.242,-42.480,-48.340,-65.430,18.555
1678024812.558,-82.520,-44.434,-39.062,-54.199,11.230
1678024812.562,-62.012,-43.457,-28.320,-81.543,-64.941
1678024812.566,-43.945,-44.434,-32.715,-106.934,-74.707
1678024812.570,-48.828,-50.293,-35.645,-105.469,-83.984
1678024812.574,-67.383,-42.969,-35.645,-85.449,-52.246
1678024812.578,-81.543,-45.898,-30.762,-78.613,66.406
1678024812.581,-68.359,-47.852,-32.715,-103.027,85.449
1678024812.585,-34.180,-41.992,-35.156,-114.746,69.336
1678024812.589,-27.832,-37.109,-29.785,-107.910,-86.914
1678024812.593,-59.082,-35.156,-29.297,-89.355,-195.312
1678024812.597,-78.613,-41.016,-21.973,-75.684,50.293
1678024812.585,-71.289,-47.852,-23.926,-86.914,163.086
1678024812.589,-31.738,-46.875,-32.227,-95.215,-65.430
1678024812.593,-8.789,-38.086,-27.832,-94.727,-120.117
1678024812.597,-50.293,-40.527,-22.461,-75.684,85.449
1678024812.601,-83.008,-45.898,-19.043,-56.641,227.051
1678024812.605,-56.152,-44.434,-18.066,-58.594,191.895
1678024812.609,-31.250,-38.086,-10.742,-69.336,67.871
1678024812.612,-39.062,-39.551,-14.160,-61.523,109.375
1678024812.616,-64.941,-41.992,-19.043,-32.715,222.168
1678024812.620,-83.984,-41.504,-11.719,-39.551,-11.230
1678024812.624,-64.941,-37.598,-18.066,-51.758,-119.141
1678024812.628,-30.762,-41.504,-24.414,-47.363,81.055
1678024812.659,-17.090,-45.410,-21.973,-53.711,142.578
1678024812.663,-31.738,-41.992,-11.719,-37.598,-112.793
1678024812.667,-49.805,-49.316,-12.695,-19.043,-92.773
1678024812.671,-37.598,-57.617,-15.625,-24.414,-30.762
1678024812.675,-12.695,-54.199,-4.883,-47.363,-38.086
1678024812.679,5.371,-38.086,-2.930,-76.172,-67.871
1678024812.683,-25.391,-28.320,-6.836,-63.965,-7.812
1678024812.686,-50.293,-34.180,-5.371,-29.297,337.891
1678024812.690,-37.109,-40.039,-7.324,-26.367,197.266
1678024812.694,-20.020,-42.969,-17.090,-48.828,-232.422
1678024812.698,10.254,-32.715,-12.207,-47.852,-132.812
1678024812.702,-15.137,-28.320,-1.465,-22.461,43.945
1678024812.678,-48.828,-34.668,-4.883,-2.441,-33.203
1678024812.682,-29.785,-30.273,0.488,6.836,-80.078
1678024812.686,-6.348,-25.391,9.766,-1.953,79.102
1678024812.690,5.859,-30.273,9.766,-18.066,89.355
1678024812.694,-1.953,-36.133,-0.488,-12.695,-109.375
1678024812.698,-27.344,-38.086,-2.930,3.906,-10.742
1678024812.702,-25.879,-43.945,1.953,-6.348,103.027
1678024812.705,1.953,-39.551,1.465,-19.043,38.574
1678024812.709,23.926,-36.621,-1.465,-23.438,-104.492
1678024812.713,23.926,-40.039,2.930,-18.555,-155.273
1678024812.717,-8.301,-39.551,10.254,11.719,58.105
1678024812.721,-12.695,-38.086,6.348,19.043,134.277
1678024812.734,10.742,-36.621,6.836,-2.930,-95.703
1678024812.738,42.969,-32.715,16.113,-39.551,-153.809
1678024812.742,32.715,-30.273,13.184,-43.457,33.203
1678024812.746,-13.184,-26.367,6.836,-14.648,41.504
1678024812.750,10.254,-25.879,14.648,20.020,-76.172
1678024812.754,34.668,-27.344,19.531,20.996,30.762
1678024812.758,40.039,-30.273,18.555,-0.977,222.168
1678024812.761,56.152,-35.156,17.090,15.625,433.105
1678024812.765,27.832,-33.203,22.949,47.363,228.027
1678024812.769,19.043,-27.832,30.762,43.945,33.691
1678024812.773,37.598,-22.949,25.391,22.949,59.082
1678024812.777,46.387,-27.832,18.066,8.789,-183.594
1678024812.779,43.945,-38.574,26.855,10.254,-279.785
1678024812.783,20.508,-34.180,33.203,37.598,-187.988
1678024812.787,5.859,-35.645,28.320,69.824,-132.324
1678024812.791,29.297,-36.133,25.879,58.594,-150.879
1678024812.795,46.875,-33.203,25.391,20.020,-166.016
1678024812.799,45.410,-34.668,21.484,8.301,-111.328
1678024812.803,11.230,-39.062,20.020,36.621,-36.133
1678024812.806,-5.371,-42.480,21.484,55.176,-26.367
1678024812.810,6.836,-42.969,17.090,39.551,-101.074
1678024812.814,37.109,-42.969,7.324,41.992,69.824
1678024812.818,60.547,-49.805,14.648,51.758,100.586
1678024812.822,1.465,-57.617,29.785,25.879,-133.301
1678024812.826,-24.414,-55.664,36.133,17.090,-101.562
1678024812.830,-13.672,-63.965,28.320,45.410,-28.320
1678024812.834,-6.836,-72.266,37.109,58.105,-105.469
1678024812.838,15.137,-79.590,57.129,53.223,-222.656
1678024812.842,11.719,-81.543,49.316,60.059,-86.914
1678024812.846,-16.113,-89.355,60.547,74.219,116.699
1678024812.850,-18.066,-92.285,69.824,73.242,152.344
1678024812.853,12.207,-95.215,76.172,74.707,-34.180
1678024812.857,14.160,-105.957,83.984,62.012,-117.188
1678024812.861,-8.301,-113.281,83.984,49.805,11.230
1678024812.865,-22.461,-113.281,87.891,65.430,-104.980
1678024812.869,-19.531,-112.793,77.148,83.008,-186.035
1678024812.885,-13.184,-121.094,76.172,70.312,-68.848
1678024812.889,4.395,-126.465,97.168,73.242,42.480
1678024812.893,0.000,-123.535,97.656,66.895,-119.141
1678024812.897,-41.504,-124.023,90.332,66.406,-248.535
1678024812.901,-65.430,-133.789,96.191,64.453,-12.207
1678024812.905,-59.570,-134.277,83.984,62.012,88.867
1678024812.909,-31.250,-134.277,71.289,60.059,-46.387
1678024812.912,-26.855,-139.160,79.590,39.062,-150.391
1678024812.916,-60.059,-136.230,73.730,41.504,-4.883
1678024812.920,-76.660,-135.742,70.312,48.828,249.512
1678024812.924,-59.570,-133.789,67.871,20.508,-70.312
1678024812.928,-27.832,-133.301,59.082,-1.953,-202.148
1678024812.914,-14.160,-132.324,55.664,29.785,-94.727
1678024812.918,-44.922,-131.348,46.875,27.344,-87.402
1678024812.922,-56.152,-123.047,39.551,18.555,-114.258
1678024812.926,-38.574,-112.305,24.902,31.738,-45.410
1678024812.930,-39.062,-113.770,12.695,-4.395,29.785
1678024812.934,-50.781,-108.887,11.719,-25.391,-17.090
1678024812.938,-70.801,-101.074,-1.465,-19.043,-10.254
1678024812.941,-82.031,-100.098,-7.324,-13.672,52.734
1678024812.945,-61.035,-96.191,-9.277,-13.672,29.297
1678024812.949,-32.715,-90.820,-15.137,-21.973,-114.258
1678024812.953,-46.387,-83.008,-21.973,-54.199,-214.355
1678024812.957,-88.867,-82.520,-25.879,-65.918,-136.719
1678024812.959,-84.961,-81.055,-32.715,-9.277,284.668
1678024812.963,-48.340,-72.266,-34.668,-0.488,299.316
1678024812.967,-21.484,-73.730,-35.645,-29.297,-31.250
1678024812.971,-29.785,-71.777,-42.480,-50.293,-145.996
1678024812.975,-49.316,-63.965,-40.039,-27.832,-172.363
1678024812.979,-54.199,-60.059,-44.922,-13.184,-75.195
1678024812.983,-46.387,-60.547,-41.992,-47.363,-55.664
1678024812.986,-22.461,-59.570,-43.945,-45.898,136.719
1678024812.990,2.441,-55.664,-56.152,-51.758,250.000
1678024812.994,-7.812,-45.898,-49.316,-51.270,-78.125
1678024812.998,-29.785,-43.457,-50.293,-31.250,-163.574
1678024813.002,-35.156,-48.828,-58.594,-35.645,-74.219
1678024813.004,-19.531,-49.316,-51.758,-32.227,-145.508
1678024813.008,18.066,-44.922,-43.945,-31.738,-198.730
1678024813.012,18.555,-37.109,-44.434,-26.367,-152.832
1678024813.016,-12.695,-37.598,-44.922,-8.301,-136.230
1678024813.020,-26.855,-34.180,-48.828,-14.160,-104.004
1678024813.024,-11.230,-27.832,-38.574,-24.414,-54.688
1678024813.028,7.812,-21.973,-38.574,-14.648,-20.996
1678024813.031,0.488,-23.926,-54.199,3.906,275.879
1678024813.035,-54.688,-31.250,-53.711,2.441,251.953
1678024813.039,-46.387,-27.344,-50.781,-22.949,-106.934
1678024813.043,-10.742,-20.020,-48.828,-9.277,-61.523
1678024813.047,3.418,-23.926,-48.828,11.230,24.902
1678024813.049,6.348,-26.855,-51.758,-11.230,-121.582
1678024813.053,-0.488,-27.832,-60.547,-22.949,-121.094
1678024813.057,-20.020,-25.391,-63.477,-14.648,5.371
1678024813.061,-34.180,-31.250,-55.176,-26.367,-14.648
1678024813.065,29.785,-27.344,-60.059,-3.906,-123.535
1678024813.069,52.246,-20.996,-55.176,26.367,-49.805
1678024813.073,-17.090,-29.785,-44.434,6.836,198.242
1678024813.076,-18.555,-31.738,-38.086,29.785,204.590
1678024813.080,48.340,-25.391,-36.133,41.016,-64.453
1678024813.084,38.086,-28.320,-36.133,-9.277,-97.656
1678024813.088,28.320,-39.062,-21.973,0.488,-132.324
1678024813.092,44.434,-34.668,-32.715,35.645,-65.430
1678024813.094,13.184,-33.203,-36.621,40.527,-45.898
1678024813.098,20.020,-40.039,-23.438,51.758,-87.891
1678024813.102,33.203,-45.410,-28.320,49.805,-17.578
1678024813.106,16.113,-43.945,-30.273,20.020,-42.969
1678024813.110,-19.531,-38.574,-19.043,35.645,-95.215
1678024813.114,-40.527,-36.133,-23.438,24.414,66.406
1678024813.118,-32.227,-34.180,-36.621,14.160,223.633
1678024813.121,0.488,-33.691,-36.621,29.297,126.953
1678024813.125,19.531,-36.133,-35.645,21.484,-12.207
1678024813.129,-14.648,-35.156,-34.668,9.766,-37.598
1678024813.133,-31.738,-33.691,-30.273,2.441,62.500
1678024813.137,-25.391,-39.062,-32.715,33.691,-49.316
1678024813.140,4.883,-53.223,-28.320,62.500,-140.625
1678024813.144,6.836,-52.734,-19.043,22.949,14.648
1678024813.148,-52.734,-58.105,-16.113,20.508,56.152
1678024813.152,-70.801,-58.105,-15.625,27.832,-92.773
1678024813.156,-39.551,-41.992,-28.809,16.113,-129.395
1678024813.160,-19.531,-43.945,-31.250,18.066,144.043
1678024813.164,-22.949,-52.734,-25.391,3.906,259.766
1678024813.167,-49.316,-56.152,-19.531,-13.672,-41.016
1678024813.171,-80.566,-54.199,-30.273,-4.883,-120.117
1678024813.175,-58.105,-51.270,-38.086,0.000,0.488
1678024813.179,-21.973,-48.828,-28.320,6.348,37.109
1678024813.183,-16.113,-54.199,-25.879,-12.207,-68.848
1678024813.199,-54.688,-58.105,-28.320,-35.156,-97.656
1678024813.203,-86.914,-62.500,-17.090,-21.973,-53.711
1678024813.207,-73.242,-54.199,-23.926,-6.348,-30.762
1678024813.211,-26.855,-49.805,-37.598,5.371,-97.168
1678024813.215,-25.879,-56.641,-31.738,-17.578,-38.086
1678024813.219,-32.227,-48.340,-35.156,-25.391,202.148
1678024813.223,-51.758,-49.316,-30.762,-0.488,146.484
1678024813.226,-68.848,-53.711,-32.715,0.977,-42.969
1678024813.230,-45.410,-50.781,-41.504,-17.090,-32.227
1678024813.234,-38.574,-53.711,-35.156,-20.508,258.301
1678024813.238,-28.809,-56.152,-34.668,-35.156,161.133
1678024813.242,-41.504,-60.547,-40.039,-44.434,-141.602
1678024813.244,-74.219,-63.965,-43.457,-29.785,-103.516
1678024813.248,-77.637,-61.523,-39.062,-30.762,-86.914
1678024813.252,-22.949,-51.270,-42.969,-39.551,-114.746
1678024813.256,-13.184,-53.223,-41.992,-71.777,-179.199
1678024813.260,-58.594,-59.570,-42.969,-74.707,-95.215
1678024813.264,-76.172,-60.547,-42.480,-57.617,105.957
1678024813.268,-58.105,-62.988,-37.598,-57.129,56.152
1678024813.271,-33.691,-61.035,-43.457,-51.758,-64.941
1678024813.275,-31.738,-59.082,-36.621,-61.523,128.418
1678024813.279,-59.570,-61.523,-36.133,-68.848,263.672
1678024813.283,-101.074,-66.406,-41.992,-83.496,-64.941
1678024813.287,-78.125,-62.988,-52.246,-95.215,-155.762
1678024813.289,-24.902,-62.012,-53.711,-113.281,-76.172
1678024813.293,-15.625,-67.383,-47.363,-121.094,-162.598
1678024813.297,-51.758,-66.406,-42.480,-111.816,-158.691
1678024813.301,-57.617,-62.500,-42.969,-109.863,-96.680
1678024813.305,-31.250,-62.988,-50.781,-106.445,-42.969
1678024813.309,-21.484,-63.477,-53.711,-98.633,-29.785
1678024813.313,-28.320,-65.918,-45.898,-94.238,-33.203
1678024813.316,-36.133,-66.895,-44.434,-101.074,-21.484
1678024813.320,-54.688,-60.059,-54.688,-100.098,207.031
1678024813.324,-64.453,-64.941,-51.758,-85.449,259.277
1678024813.328,-29.785,-63.477,-50.781,-92.285,-84.961
1678024813.332,-16.602,-62.988,-47.363,-112.793,-107.910
1678024813.334,-48.828,-64.453,-43.945,-114.258,-68.848
1678024813.338,-86.914,-66.406,-38.574,-108.887,-115.723
1678024813.342,-71.289,-69.824,-34.668,-109.863,-148.926
1678024813.346,-30.762,-63.477,-42.969,-103.027,-113.281
1678024813.350,-18.555,-56.152,-41.016,-76.660,-93.750
1678024813.354,-47.363,-51.270,-34.668,-59.082,-62.988
1678024813.358,-81.543,-49.316,-37.598,-77.637,-9.766
1678024813.361,-68.359,-53.711,-42.969,-66.895,161.133
1678024813.365,-41.504,-57.129,-41.992,-56.152,171.875
1678024813.369,-21.973,-48.340,-37.598,-62.012,-78.613
1678024813.373,-14.160,-45.898,-39.062,-51.758,-80.078
1678024813.377,-56.152,-48.828,-30.762,-51.270,-16.602
1678024813.379,-83.984,-44.434,-26.855,-30.273,-131.348
1678024813.383,-40.039,-46.875,-30.273,-5.371,-167.969
1678024813.387,-23.926,-43.457,-28.320,-22.949,-82.520
1678024813.391,-53.223,-40.039,-32.227,-42.480,-43.945
1678024813.395,-61.523,-42.969,-31.738,-36.621,-74.707
1678024813.399,-67.383,-38.574,-25.879,-24.902,-49.805
1678024813.403,-64.453,-34.668,-33.691,-36.621,20.020
1678024813.406,-52.246,-37.598,-37.598,-41.504,294.922
1678024813.410,-56.152,-48.340,-28.809,-38.574,207.031
1678024813.414,-81.055,-48.340,-27.832,-32.227,-196.777
1678024813.418,-88.867,-46.387,-35.156,-11.230,-78.613
1678024813.422,-62.500,-46.875,-42.480,-45.898,6.836
1678024813.426,-31.738,-40.039,-44.434,-78.125,-109.375
1678024813.430,-37.109,-36.621,-41.992,-61.035,-123.047
1678024813.434,-80.078,-38.086,-41.992,-54.199,42.969
1678024813.438,-96.680,-41.504,-45.410,-64.453,58.594
1678024813.442,-98.633,-41.992,-49.316,-78.125,-104.980
1678024813.446,-76.172,-42.480,-53.711,-77.148,-140.625
1678024813.450,-66.406,-41.992,-52.734,-79.102,102.539
1678024813.453,-112.793,-41.504,-53.223,-89.355,150.879
1678024813.457,-129.395,-44.434,-56.641,-104.492,-180.176
1678024813.461,-119.141,-46.387,-57.129,-115.234,-220.215
1678024813.465,-96.191,-48.828,-58.594,-114.258,-142.090
1678024813.469,-67.871,-40.039,-59.082,-113.770,-96.680
1678024813.469,-105.469,-35.156,-56.152,-130.371,-123.047
1678024813.473,-142.578,-41.016,-58.594,-134.277,-121.582
1678024813.477,-118.652,-37.109,-57.129,-114.746,-113.770
1678024813.481,-90.332,-33.203,-66.406,-121.094,-69.824
1678024813.485,-82.031,-38.086,-69.824,-136.230,-76.172
1678024813.489,-99.121,-39.062,-61.523,-106.445,3.418
1678024813.493,-139.648,-36.621,-66.895,-93.262,273.438
1678024813.496,-135.254,-31.250,-65.430,-112.793,171.875
1678024813.500,-102.539,-26.855,-59.570,-118.652,-66.895
1678024813.504,-90.820,-25.879,-59.570,-97.168,-30.273
1678024813.508,-108.887,-28.320,-50.781,-87.402,-2.441
1678024813.512,-133.789,-30.762,-40.527,-106.445,-149.414
1678024813.514,-131.348,-27.344,-49.805,-141.602,-224.609
1678024813.518,-89.355,-26.855,-68.359,-134.277,-85.938
1678024813.522,-48.828,-24.902,-65.918,-128.418,-8.789
1678024813.526,-64.941,-28.320,-56.152,-148.926,-119.629
1678024813.530,-118.164,-29.785,-52.734,-150.879,-118.652
1678024813.534,-120.117,-26.855,-55.176,-146.484,-41.992
1678024813.538,-99.609,-28.809,-52.734,-144.531,-6.836
1678024813.541,-83.496,-24.902,-47.852,-143.555,-24.902
1678024813.545,-74.219,-24.902,-57.129,-136.719,-125.000
1678024813.549,-96.680,-31.250,-58.594,-120.117,-3.906
1678024813.553,-103.027,-28.809,-59.570,-109.375,129.883
1678024813.557,-87.402,-26.367,-60.547,-105.957,-124.023
1678024813.574,-72.266,-29.297,-61.035,-113.281,-158.691
1678024813.578,-74.219,-31.738,-62.012,-117.676,-34.668
1678024813.582,-105.469,-33.203,-51.758,-93.262,-25.391
1678024813.586,-114.258,-32.227,-56.641,-90.332,-138.672
1678024813.590,-86.426,-33.691,-46.387,-102.539,-88.379
1678024813.594,-57.129,-30.762,-42.480,-103.516,68.848
1678024813.598,-55.664,-29.297,-66.895,-94.727,-38.086
1678024813.601,-105.957,-32.227,-64.941,-98.145,-142.578
1678024813.605,-111.816,-31.250,-62.988,-118.652,-58.594
1678024813.609,-71.289,-31.738,-61.523,-120.605,270.508
1678024813.613,-47.852,-29.297,-50.781,-104.492,247.559
1678024813.617,-39.551,-24.414,-45.898,-96.680,-96.191
1678024813.634,-75.684,-27.832,-42.969,-96.680,-136.719
1678024813.638,-105.469,-26.367,-42.480,-87.891,-192.871
1678024813.642,-89.355,-24.902,-43.945,-89.355,-202.148
1678024813.646,-43.945,-26.367,-50.293,-86.426,-168.945
1678024813.650,-10.254,-26.855,-44.922,-86.426,-141.602
1678024813.654,-58.594,-27.832,-41.016,-103.027,-78.613
1678024813.658,-97.656,-22.461,-42.969,-98.633,-101.562
1678024813.661,-60.059,-9.277,-36.133,-79.102,-130.859
1678024813.665,-27.832,-14.160,-35.645,-81.055,66.895
1678024813.669,-7.812,-18.066,-36.133,-83.984,147.461
1678024813.673,-47.852,-13.672,-41.504,-86.914,-65.430
1678024813.677,-92.285,-13.184,-44.434,-94.727,-93.750
1678024813.664,-82.031,-11.719,-41.992,-93.262,-41.504
1678024813.668,-57.129,-18.066,-36.133,-99.609,-55.176
1678024813.672,-32.715,-24.414,-29.785,-119.629,-131.836
1678024813.676,-54.199,-19.531,-37.109,-110.352,-148.926
1678024813.680,-85.449,-13.672,-31.738,-95.703,-68.848
1678024813.684,-61.035,-15.625,-24.902,-97.656,2.441
1678024813.688,-34.180,-14.160,-33.203,-88.867,63.965
1678024813.691,-25.879,-12.207,-36.133,-83.984,114.746
1678024813.695,-30.762,-13.184,-28.320,-106.445,62.988
1678024813.699,-54.688,-3.418,-22.949,-107.422,-88.867
1678024813.703,-74.707,-8.789,-26.855,-96.191,-82.520
1678024813.707,-43.457,-18.066,-25.879,-85.938,38.086
1678024813.709,-18.066,-14.648,-24.902,-74.707,391.602
1678024813.713,-37.109,-8.301,-24.902,-86.914,295.410
1678024813.717,-54.199,-5.859,-20.020,-78.125,-105.957
1678024813.721,-71.777,-6.836,-16.602,-99.609,-81.543
1678024813.725,-68.848,-4.395,-16.113,-117.676,-123.047
1678024813.729,-25.879,-2.930,-28.320,-120.605,-76.660
1678024813.733,-38.086,-4.883,-37.109,-138.672,-17.578
1678024813.736,-103.516,-5.859,-27.832,-104.980,104.492
1678024813.740,-129.395,-9.766,-28.320,-103.027,157.227
1678024813.744,-85.938,-8.789,-30.762,-107.910,-130.371
1678024813.748,-31.738,-11.230,-25.879,-104.004,-157.227
1678024813.752,-35.645,-10.742,-24.902,-107.422,-89.844
1678024813.770,-103.027,-6.348,-21.973,-98.145,-99.121
1678024813.774,-120.117,-1.465,-19.043,-95.703,-174.316
1678024813.778,-83.984,-3.418,-23.926,-101.562,-129.883
1678024813.782,-72.266,-20.508,-24.414,-95.703,64.941
1678024813.786,-67.383,-15.625,-27.344,-107.910,-22.949
1678024813.790,-101.562,3.418,-33.203,-121.094,-84.473
1678024813.794,-131.836,0.977,-23.926,-114.258,-17.578
1678024813.797,-119.629,-10.254,-28.320,-104.492,319.336
1678024813.801,-87.402,-8.301,-31.738,-112.305,349.609
1678024813.805,-82.031,-3.906,-24.414,-129.395,-129.395
1678024813.809,-111.328,-7.812,-22.949,-132.324,-145.020
1678024813.813,-129.395,-5.371,-21.973,-125.488,-68.359
1678024813.799,-110.352,-6.836,-26.855,-129.395,-132.812
1678024813.803,-87.891,-13.184,-32.715,-140.137,-161.133
1678024813.807,-85.938,-12.695,-38.574,-145.508,-142.090
1678024813.811,-117.676,-8.789,-33.203,-163.086,-176.270
1678024813.815,-143.555,-6.836,-28.809,-147.461,-217.773
1678024813.819,-113.770,-11.719,-32.227,-106.934,-104.004
1678024813.823,-70.801,-6.836,-35.156,-113.770,163.574
1678024813.826,-57.617,-9.766,-30.273,-125.000,127.441
1678024813.830,-87.891,-18.555,-29.297,-122.559,-112.793
1678024813.834,-124.512,-18.066,-35.156,-125.977,-191.406
1678024813.838,-119.629,-15.625,-36.621,-110.840,74.707
1678024813.842,-81.055,-15.625,-33.691,-108.398,302.246
1678024813.844,-56.152,-20.996,-40.527,-141.113,-29.785
1678024813.848,-89.844,-31.738,-39.062,-145.508,-183.105
1678024813.852,-137.207,-33.203,-39.062,-120.117,-116.211
1678024813.856,-122.559,-27.344,-45.898,-110.840,-105.957
1678024813.860,-89.355,-27.832,-48.828,-128.418,-128.906
1678024813.864,-64.453,-38.086,-45.898,-139.648,-54.688
1678024813.868,-69.336,-35.645,-45.410,-144.531,180.664
1678024813.871,-127.441,-30.762,-55.664,-159.180,159.668
1678024813.875,-146.484,-33.203,-53.223,-143.066,-56.641
1678024813.879,-103.027,-33.691,-49.316,-134.277,15.137
1678024813.883,-72.266,-38.086,-54.199,-143.555,172.363
1678024813.887,-76.172,-36.133,-55.664,-128.906,20.020
1678024813.904,-134.277,-37.109,-57.129,-128.906,-173.340
1678024813.908,-157.227,-50.781,-59.082,-132.812,-81.543
1678024813.912,-128.418,-55.176,-60.059,-115.234,-83.008
1678024813.916,-104.004,-45.898,-62.500,-127.930,-185.547
1678024813.920,-93.750,-44.434,-59.082,-124.512,-180.664
1678024813.924,-134.766,-52.246,-55.664,-117.188,-124.023
1678024813.928,-139.648,-54.199,-55.176,-109.863,-34.180
1678024813.931,-101.562,-48.340,-65.918,-91.797,-101.562
1678024813.935,-80.078,-43.457,-63.965,-96.680,-116.699
1678024813.939,-80.566,-42.969,-53.711,-90.820,-45.898
1678024813.943,-94.238,-39.062,-57.617,-73.242,-105.957
1678024813.947,-107.422,-41.016,-60.059,-70.312,-96.191
1678024813.949,-95.703,-43.945,-52.246,-62.988,-131.836
1678024813.953,-61.523,-36.621,-45.898,-43.457,83.496
1678024813.957,-52.734,-29.297,-51.758,-51.270,219.727
1678024813.961,-93.262,-30.273,-46.387,-62.012,-56.641
1678024813.965,-113.770,-34.180,-34.668,-35.156,-48.340
1678024813.969,-83.008,-34.668,-38.086,-36.133,-30.273
1678024813.973,-61.035,-30.273,-44.434,-58.594,-45.410
1678024813.976,-57.129,-32.715,-49.316,-53.223,-18.066
1678024813.980,-126.953,-29.297,-47.852,-92.285,-22.949
1678024813.984,-169.434,-26.855,-58.594,-99.609,237.793
1678024813.988,-140.625,-34.180,-57.129,-67.871,203.613
1678024813.992,-82.520,-38.086,-49.316,-85.938,-150.879
1678024813.994,-110.840,-23.438,-57.129,-124.023,59.570
1678024813.998,-151.367,-24.414,-55.176,-123.047,110.840
1678024814.002,-114.258,-31.250,-52.246,-95.215,-122.559
1678024814.006,-135.742,-27.832,-58.105,-130.371,-126.953
1678024814.010,-59.570,-32.715,-65.430,-146.484,-81.055
1678024814.014,-32.227,-27.344,-51.270,-135.742,-41.016
1678024814.018,-84.473,-37.109,-36.133,-126.465,-63.477
1678024814.021,-109.375,-37.598,-52.246,-133.789,-137.695
1678024814.025,-103.027,-27.832,-66.406,-146.484,69.336
1678024814.029,-72.266,-30.762,-66.406,-148.438,150.879
1678024814.033,-60.059,-30.273,-63.965,-155.762,-84.473
1678024814.037,-58.105,-24.414,-73.242,-149.414,-104.492
1678024814.040,-84.961,-22.461,-64.941,-129.883,-109.863
1678024814.044,-110.840,-16.113,-71.777,-136.719,-49.805
1678024814.048,-81.055,-17.578,-77.637,-122.070,12.695
1678024814.052,-64.941,-24.414,-62.988,-104.980,-31.250
1678024814.056,-99.121,-24.902,-66.406,-123.047,-55.664
1678024814.060,-133.789,-24.902,-77.637,-106.934,-56.152
1678024814.064,-109.863,-20.020,-74.219,-68.848,-77.148
1678024814.067,-70.312,-21.484,-73.242,-66.895,-16.113
1678024814.071,-54.199,-31.250,-72.754,-34.668,338.867
1678024814.075,-67.383,-35.645,-61.523,-8.789,261.230
1678024814.079,-106.445,-26.855,-58.594,-20.508,-151.367
1678024814.083,-115.723,-30.273,-57.617,-13.672,-112.305
1678024814.084,-83.496,-30.273,-60.547,8.301,-41.504
1678024814.088,-46.387,-21.973,-64.941,29.785,-89.844
1678024814.092,-69.336,-22.461,-60.547,11.719,-140.137
1678024814.096,-108.398,-12.207,-62.500,18.555,-125.000
1678024814.100,-109.375,-12.207,-71.777,53.711,-61.035
1678024814.104,-90.820,-27.344,-60.059,67.383,-40.039
1678024814.108,-63.965,-27.832,-49.316,64.941,-74.219
1678024814.111,-63.477,-19.531,-44.434,63.477,65.430
1678024814.115,-93.750,-18.066,-46.387,100.098,187.012
1678024814.119,-111.328,-21.484,-52.246,112.305,-72.754
1678024814.123,-116.211,-22.949,-54.688,97.168,-137.207
1678024814.127,-105.469,-20.020,-59.570,81.055,-90.820
1678024814.129,-78.125,-20.508,-60.547,78.613,-103.027
1678024814.133,-104.492,-24.902,-58.105,90.332,-86.914
1678024814.137,-147.461,-25.391,-54.199,101.562,-48.340
1678024814.141,-131.348,-34.180,-53.711,77.148,-29.297
1678024814.145,-79.590,-30.762,-52.246,54.199,-81.055
1678024814.149,-77.148,-20.020,-52.734,44.434,-120.605
1678024814.153,-119.141,-25.391,-51.758,52.246,-43.457
1678024814.156,-155.273,-25.391,-46.875,95.703,307.129
1678024814.160,-142.090,-29.297,-38.574,94.238,277.344
1678024814.164,-90.820,-32.227,-37.109,71.289,-90.332
1678024814.168,-70.312,-29.297,-44.434,63.965,-39.062
1678024814.172,-95.703,-24.414,-48.340,52.246,72.754
1678024814.174,-146.484,-25.879,-41.504,39.551,-74.219
1678024814.178,-166.992,-33.203,-45.898,23.926,-116.699
1678024814.182,-128.906,-24.414,-57.129,18.066,-62.500
1678024814.186,-90.820,-18.555,-50.781,20.508,-123.047
1678024814.190,-127.930,-31.250,-41.992,20.508,-180.176
1678024814.194,-177.246,-32.715,-50.781,14.160,-76.172
1678024814.198,-157.715,-22.461,-57.617,26.855,221.680
1678024814.201,-122.070,-28.320,-53.223,23.926,285.645
1678024814.205,-90.332,-31.738,-46.875,6.348,-62.012
1678024814.209,-101.562,-26.855,-46.875,-5.859,-66.406
1678024814.213,-142.090,-23.926,-47.852,-10.742,15.625
1678024814.217,-133.301,-20.020,-45.898,-14.648,-42.969
1678024814.219,-101.562,-25.879,-49.805,-34.668,-105.469
1678024814.223,-72.754,-30.273,-43.945,-38.574,-109.863
1678024814.227,-67.871,-20.508,-45.898,-50.781,-55.176
1678024814.231,-109.375,-11.230,-53.711,-62.012,-25.879
1678024814.235,-120.117,-12.695,-51.270,-54.688,-68.848
1678024814.239,-71.777,-13.184,-42.480,-50.293,-19.531
1678024814.243,-44.434,-13.184,-36.133,-59.570,189.941
1678024814.246,-60.547,-8.301,-42.969,-82.031,68.848
1678024814.250,-86.426,-5.859,-32.227,-78.613,-156.738
1678024814.254,-95.215,-8.789,-28.809,-80.566,-72.266
1678024814.258,-59.570,-13.672,-40.039,-83.984,97.656
1678024814.262,-13.184,-12.207,-39.551,-77.637,-33.203
1678024814.265,-17.090,-5.371,-39.062,-101.074,-124.512
1678024814.269,-76.660,-2.441,-34.180,-103.516,-86.914
1678024814.273,-91.309,-3.418,-28.320,-90.332,-37.109
1678024814.277,-52.246,-6.348,-32.715,-100.098,-130.371
1678024814.281,-11.230,-5.859,-43.457,-117.676,-176.758
1678024814.285,0.488,-7.812,-47.852,-111.816,3.906
1678024814.289,-53.223,-8.301,-47.852,-110.352,21.484
1678024814.292,-84.961,-10.254,-47.363,-121.582,-149.414
1678024814.296,-50.781,-12.207,-49.805,-104.980,-177.734
1678024814.300,-9.277,-16.113,-51.270,-90.332,21.484
1678024814.304,-13.672,-14.648,-58.105,-102.051,50.293
1678024814.308,-66.406,-12.695,-73.242,-117.676,-169.434
1678024814.324,-95.215,-21.484,-77.637,-126.953,-163.086
1678024814.328,-75.684,-20.020,-83.984,-136.230,-51.758
1678024814.332,-47.363,-17.090,-90.332,-124.023,1.465
1678024814.336,-15.625,-23.926,-92.285,-127.441,-60.059
1678024814.340,-61.523,-20.996,-100.098,-147.949,-81.055
1678024814.344,-110.840,-17.578,-99.121,-147.949,79.590
1678024814.348,-87.402,-23.926,-86.914,-141.113,68.359
1678024814.351,-59.082,-24.902,-98.633,-158.691,-63.965
1678024814.355,-50.781,-25.391,-117.188,-168.945,-13.184
1678024814.359,-80.566,-33.203,-106.934,-157.715,183.594
1678024814.363,-117.188,-34.668,-102.051,-160.645,71.777
1678024814.367,-104.004,-35.645,-98.145,-168.457,-162.109
1678024814.369,-58.594,-35.645,-93.750,-162.109,-128.418
1678024814.373,-30.273,-20.996,-100.098,-159.180,-75.684
1678024814.377,-55.664,-21.484,-102.051,-173.340,-133.789
1678024814.381,-97.656,-29.785,-96.680,-167.480,-148.926
1678024814.385,-109.375,-29.297,-96.680,-157.715,2.930
1678024814.389,-81.055,-31.738,-101.074,-157.715,124.512
1678024814.393,-49.805,-38.086,-96.680,-166.992,45.898
1678024814.396,-62.988,-36.621,-95.703,-181.152,-109.863
1678024814.400,-110.840,-37.109,-101.562,-167.969,45.410
1678024814.404,-121.094,-36.621,-102.051,-156.250,183.594
1678024814.408,-86.426,-35.156,-96.680,-174.316,-70.801
1678024814.412,-54.199,-42.480,-97.168,-169.434,-132.324
1678024814.414,-57.617,-45.410,-104.980,-168.457,-81.543
1678024814.418,-104.492,-42.969,-102.539,-173.340,-114.746
1678024814.422,-123.047,-42.480,-103.027,-176.758,-129.395
1678024814.426,-89.844,-43.945,-108.398,-172.363,-69.336
1678024814.430,-51.270,-46.875,-107.422,-162.109,9.277
1678024814.434,-46.387,-44.922,-111.328,-162.109,108.398
1678024814.438,-99.121,-46.387,-109.375,-172.363,52.246
1678024814.441,-118.164,-50.293,-104.492,-167.969,14.648
1678024814.445,-84.961,-44.922,-105.957,-159.668,234.375
1678024814.449,-41.016,-41.016,-104.492,-161.621,130.371
1678024814.453,-45.410,-45.898,-104.980,-164.551,-132.324
1678024814.457,-116.211,-47.363,-102.539,-179.688,-112.305
1678024814.459,-128.418,-44.434,-95.703,-163.574,219.238
1678024814.463,-89.355,-45.410,-89.844,-145.020,195.801
1678024814.467,-52.246,-49.805,-89.844,-158.203,-152.832
1678024814.471,-51.758,-46.875,-92.285,-157.715,-119.629
1678024814.475,-110.352,-45.898,-85.938,-163.086,-95.215
1678024814.479,-144.531,-41.504,-83.984,-171.387,-152.344
1678024814.483,-107.422,-40.527,-83.008,-153.809,-81.055
1678024814.486,-47.363,-41.992,-79.590,-141.602,97.656
1678024814.490,-31.738,-46.387,-77.637,-151.367,163.086
1678024814.494,-91.797,-44.922,-83.008,-177.734,-77.148
1678024814.498,-156.250,-47.852,-80.078,-181.152,-194.336
1678024814.502,-140.137,-50.781,-80.078,-161.621,-54.199
1678024814.504,-79.102,-46.875,-83.984,-160.645,-89.355
1678024814.508,-57.129,-48.828,-71.777,-174.805,-131.836
1678024814.512,-102.539,-45.898,-67.383,-182.129,-76.172
1678024814.516,-143.066,-42.480,-62.988,-176.758,-89.844
1678024814.520,-117.676,-37.598,-62.012,-152.344,-87.402
1678024814.524,-58.594,-38.574,-66.895,-156.738,-73.242
1678024814.528,-40.039,-43.457,-57.617,-166.504,61.035
1678024814.531,-81.055,-38.574,-60.059,-152.344,371.094
1678024814.535,-125.488,-33.691,-66.895,-152.832,224.121
1678024814.539,-114.258,-36.133,-65.430,-168.945,-24.902
1678024814.543,-63.477,-35.156,-66.406,-162.109,12.695
1678024814.547,-41.016,-31.738,-59.570,-154.785,28.809
1678024814.549,-71.289,-31.738,-59.082,-161.133,-1.953
1678024814.553,-117.676,-29.785,-58.594,-152.832,-142.578
1678024814.557,-127.441,-26.855,-56.641,-138.672,-62.988
1678024814.561,-83.496,-29.297,-59.082,-134.766,14.160
1678024814.565,-41.504,-33.691,-56.641,-141.602,-72.754
1678024814.569,-59.082,-37.598,-61.523,-141.113,-98.633
1678024814.573,-122.070,-39.551,-60.059,-126.953,164.062
1678024814.576,-125.977,-35.645,-54.199,-118.652,242.676
1678024814.580,-81.543,-35.645,-54.688,-122.070,-138.672
1678024814.584,-54.688,-39.062,-60.547,-115.234,-167.969
1678024814.588,-62.988,-35.645,-61.035,-108.887,-60.547
1678024814.592,-109.375,-29.785,-52.734,-100.098,-136.230
1678024814.595,-115.234,-31.250,-52.734,-86.426,-235.352
1678024814.599,-81.543,-30.762,-62.988,-77.148,-119.141
1678024814.603,-32.227,-29.785,-57.617,-57.129,48.828
1678024814.607,-2.930,-24.902,-50.781,-50.781,-59.082
1678024814.611,-71.777,-21.973,-56.152,-56.641,-190.430
1678024814.615,-111.816,-25.391,-50.781,-67.871,-53.223
1678024814.619,-76.172,-23.438,-51.270,-68.359,209.961
1678024814.622,-37.109,-25.879,-52.246,-64.941,201.660
1678024814.626,-27.832,-29.785,-48.828,-73.242,9.766
1678024814.630,-74.707,-24.902,-44.922,-75.684,-23.438
1678024814.634,-115.723,-19.531,-39.062,-61.035,144.531
1678024814.638,-80.566,-20.508,-36.621,-57.129,9.766
1678024814.639,-17.578,-24.414,-38.086,-65.430,-142.090
1678024814.643,-4.883,-24.414,-36.133,-73.242,-9.766
1678024814.647,-61.523,-20.020,-39.062,-79.590,-16.602
1678024814.651,-107.422,-24.414,-45.898,-94.238,-127.441
1678024814.655,-76.660,-31.250,-45.898,-96.191,-155.762
1678024814.659,-25.879,-29.297,-40.527,-71.289,141.113
1678024814.663,-5.371,-27.344,-45.410,-76.660,297.852
1678024814.666,-48.340,-22.461,-51.758,-76.172,-83.984
1678024814.670,-93.262,-20.508,-45.898,-53.711,-225.586
1678024814.674,-86.914,-29.785,-48.828,-66.895,-118.652
1678024814.678,-43.945,-33.691,-51.270,-81.543,-46.875
1678024814.682,-5.371,-31.250,-43.945,-63.965,-61.523
1678024814.699,-42.480,-25.879,-41.992,-71.777,-91.309
1678024814.703,-98.633,-25.391,-44.922,-84.473,-111.816
1678024814.707,-91.797,-24.902,-39.551,-75.195,-99.121
1678024814.711,-43.945,-16.602,-38.086,-73.730,-78.613
1678024814.715,-6.348,-13.184,-41.504,-73.730,-45.410
1678024814.719,-40.039,-15.625,-40.039,-78.613,133.301
1678024814.723,-101.074,-20.020,-39.551,-83.008,46.387
1678024814.726,-106.445,-22.461,-39.062,-77.637,-117.676
1678024814.730,-55.664,-17.090,-36.133,-71.777,1.953
1678024814.734,-7.812,-19.531,-33.203,-52.246,375.488
1678024814.738,-29.785,-26.367,-33.203,-50.293,321.777
1678024814.742,-97.656,-25.879,-28.320,-76.660,-105.957
1678024814.744,-114.746,-22.949,-26.855,-70.801,-151.855
1678024814.748,-58.594,-18.066,-32.227,-64.453,-98.145
1678024814.752,-2.441,-15.137,-32.715,-68.359,-145.996
1678024814.756,-17.090,-19.531,-34.180,-81.055,-89.355
1678024814.760,-63.965,-19.043,-35.645,-76.172,-2.930
1678024814.764,-80.566,-15.625,-32.715,-61.523,-32.227
1678024814.768,-57.129,-14.648,-29.785,-76.660,-25.879
1678024814.771,-10.742,-11.719,-32.227,-77.148,-83.984
1678024814.775,-16.113,-13.184,-35.156,-76.172,44.922
1678024814.779,-81.543,-14.160,-36.621,-84.473,205.078
1678024814.783,-110.840,-16.602,-32.227,-94.238,-126.465
1678024814.787,-73.730,-19.531,-33.203,-95.703,-237.793
1678024814.789,-15.625,-15.625,-35.156,-84.473,-111.816
1678024814.793,-2.930,-16.113,-32.715,-77.148,-132.812
1678024814.797,-59.082,-18.555,-28.809,-98.145,-197.266
1678024814.801,-106.445,-14.648,-24.902,-111.328,-130.859
1678024814.805,-87.402,-21.484,-28.320,-112.305,-7.812
1678024814.809,-44.434,-27.832,-31.738,-110.840,-18.066
1678024814.813,-33.691,-21.973,-29.297,-110.352,-4.395
1678024814.816,-79.590,-15.137,-25.879,-108.887,110.352
1678024814.820,-101.074,-13.672,-20.020,-109.375,162.109
1678024814.824,-62.988,-10.742,-16.113,-108.398,-39.062
1678024814.828,-27.832,-12.207,-19.043,-101.562,-102.051
1678024814.832,-14.160,-17.578,-18.066,-94.727,11.230
1678024814.834,-59.082,-19.043,-18.555,-91.309,253.906
1678024814.838,-108.887,-19.531,-20.020,-90.332,110.352
1678024814.842,-86.426,-22.949,-20.020,-85.449,-196.289
1678024814.846,-31.250,-23.438,-16.602,-80.078,-123.535
1678024814.850,-13.184,-20.508,-11.230,-87.402,-132.324
1678024814.854,-53.223,-17.090,-12.695,-85.449,-103.516
1678024814.858,-91.309,-20.508,-13.184,-70.801,-82.520
1678024814.861,-73.730,-24.902,-8.789,-69.824,14.648
1678024814.865,-37.109,-21.973,-11.230,-65.918,79.590
1678024814.869,-23.438,-20.996,-16.113,-83.496,-140.137
1678024814.873,-48.828,-22.461,-11.719,-89.844,-151.367
1678024814.877,-89.844,-18.555,-11.719,-83.984,-90.820
1678024814.880,-88.867,-20.020,-13.672,-83.984,-144.043
1678024814.884,-33.203,-19.043,-9.277,-78.613,-157.715
1678024814.888,-6.348,-16.113,-13.184,-89.844,-92.773
1678024814.892,-52.734,-20.996,-19.043,-98.633,-52.246
1678024814.896,-95.703,-24.902,-21.973,-91.797,-56.641
1678024814.900,-76.660,-22.461,-21.484,-81.055,-66.895
1678024814.904,-45.898,-22.949,-14.160,-83.496,-86.914
1678024814.907,-22.461,-25.391,-9.766,-75.195,283.691
1678024814.911,-33.691,-25.879,-14.648,-74.707,260.742
1678024814.915,-89.355,-25.879,-18.066,-81.543,-171.875
1678024814.919,-96.191,-27.832,-16.602,-69.336,-52.734
1678024814.923,-57.129,-30.273,-20.996,-82.520,30.762
1678024814.924,-15.625,-23.926,-20.996,-81.055,-91.797
1678024814.928,-25.879,-17.578,-19.043,-73.242,-140.137
1678024814.932,-83.984,-20.996,-21.484,-82.520,-74.707
1678024814.936,-90.820,-22.949,-23.926,-79.590,-37.598
1678024814.940,-55.176,-28.320,-27.832,-88.379,-113.770
1678024814.944,-21.484,-35.156,-31.250,-98.633,-45.410
1678024814.948,-15.625,-30.762,-36.133,-85.449,200.684
1678024814.951,-77.637,-28.320,-40.039,-74.219,208.984
1678024814.955,-103.516,-29.297,-35.645,-76.172,-73.730
1678024814.959,-57.129,-22.461,-31.250,-87.402,-112.305
1678024814.963,-17.090,-22.949,-36.133,-99.121,-45.410
1678024814.967,-16.602,-25.879,-33.691,-94.727,-103.027
1678024814.969,-79.102,-27.344,-30.762,-96.191,-145.508
1678024814.973,-109.863,-24.414,-31.738,-102.051,-162.598
1678024814.977,-78.613,-29.297,-36.133,-101.562,-146.484
1678024814.981,-49.805,-29.785,-41.016,-101.562,-118.164
1678024814.985,-24.414,-27.344,-38.574,-104.004,-177.734
1678024814.989,-60.547,-29.785,-37.598,-112.305,-111.816
1678024814.993,-99.609,-26.367,-36.621,-104.492,147.461
1678024814.996,-68.359,-26.855,-37.598,-96.680,3.906
1678024815.000,-28.809,-25.879,-41.016,-104.980,-145.020
1678024815.004,-11.230,-24.902,-43.945,-118.652,-17.578
1678024815.008,-38.086,-33.691,-47.363,-131.836,-94.238
1678024815.012,-77.637,-36.133,-49.316,-119.141,-167.969
1678024815.029,-70.801,-33.691,-50.781,-99.609,-172.363
1678024815.033,-28.320,-29.785,-48.340,-91.797,-43.945
1678024815.037,-19.043,-23.926,-45.898,-94.238,343.750
1678024815.041,-52.734,-29.785,-50.293,-108.398,127.441
1678024815.045,-95.215,-28.320,-53.711,-108.398,-305.176
1678024815.049,-103.516,-29.297,-51.270,-101.074,-29.297
1678024815.053,-45.410,-28.809,-45.410,-92.773,129.883
1678024815.056,-17.578,-23.438,-45.410,-92.773,-60.547
1678024815.060,-58.594,-26.855,-46.875,-106.445,-81.055
1678024815.064,-98.633,-29.297,-43.945,-104.980,65.430
1678024815.068,-99.609,-35.645,-49.316,-93.750,138.184
1678024815.072,-62.988,-37.109,-50.781,-91.797,-89.844
1678024815.074,-33.203,-31.738,-52.246,-98.145,-136.230
1678024815.078,-64.453,-32.227,-52.734,-104.980,-102.539
1678024815.082,-107.422,-31.250,-49.805,-99.609,-162.109
1678024815.086,-102.051,-30.762,-51.758,-108.887,-189.941
1678024815.090,-61.523,-29.297,-47.363,-105.469,-131.348
1678024815.094,-35.645,-23.438,-44.434,-101.074,-99.121
1678024815.098,-39.062,-26.855,-44.434,-99.121,-123.047
1678024815.101,-87.402,-32.227,-43.945,-101.562,-138.672
1678024815.105,-104.492,-29.785,-42.480,-104.004,-117.676
1678024815.109,-62.012,-22.949,-38.086,-77.148,120.117
1678024815.113,-28.320,-23.926,-44.434,-71.289,196.777
1678024815.117,-36.133,-21.973,-44.922,-94.727,-91.309
1678024815.119,-77.148,-17.578,-39.551,-86.426,-81.543
1678024815.123,-87.891,-21.484,-41.992,-75.195,-42.480
1678024815.127,-57.129,-24.902,-35.156,-77.148,-162.109
1678024815.131,-22.949,-21.973,-28.320,-76.660,-161.133
1678024815.135,-19.531,-20.996,-24.414,-72.266,-133.789
1678024815.139,-60.547,-20.508,-25.879,-80.566,-85.938
1678024815.143,-94.727,-19.043,-32.227,-83.496,-32.715
1678024815.146,-70.801,-20.508,-28.320,-67.871,-145.508
1678024815.150,-20.020,-18.066,-24.902,-63.477,26.855
1678024815.154,-9.766,-15.625,-28.809,-67.383,207.520
1678024815.158,-58.594,-16.113,-27.344,-69.824,-55.664
1678024815.162,-91.797,-13.672,-24.414,-68.848,-188.477
1678024815.164,-63.965,-16.602,-26.367,-46.875,-99.609
1678024815.168,-13.184,-15.137,-25.879,-45.898,-6.836
1678024815.172,2.441,-13.184,-26.367,-60.547,-125.000
1678024815.176,-37.598,-16.602,-23.926,-55.664,-120.605
1678024815.180,-69.336,-18.066,-23.926,-52.246,-3.418
1678024815.184,-49.316,-16.602,-24.902,-46.875,19.043
1678024815.188,-16.113,-9.766,-19.043,-44.922,-49.805
1678024815.191,2.441,-4.883,-14.160,-42.969,-30.273
1678024815.195,-30.273,-4.395,-15.625,-26.367,285.645
1678024815.199,-75.684,-6.836,-14.648,-20.020,225.098
1678024815.203,-64.941,-11.230,-16.113,-33.203,-104.004
1678024815.207,-16.602,-11.719,-20.020,-27.832,-113.770
1678024815.209,6.836,-10.254,-19.531,-22.949,-72.266
1678024815.213,-31.250,-11.230,-17.090,-32.227,-95.215
1678024815.217,-77.637,-11.719,-16.602,-36.133,-153.809
1678024815.221,-69.336,-12.207,-16.113,-21.973,-24.414
1678024815.225,-19.043,-13.184,-15.625,-20.020,14.160
1678024815.229,10.254,-8.789,-11.230,-23.438,-34.180
1678024815.233,-20.020,-4.395,-11.230,-33.691,-40.527
1678024815.236,-72.266,-7.324,-13.672,-30.762,100.586
1678024815.240,-71.777,-12.207,-14.648,-20.508,141.602
1678024815.244,-32.715,-7.812,-14.648,-29.297,-117.676
1678024815.248,9.766,-5.859,-12.695,-27.344,-97.656
1678024815.252,1.953,-8.789,-13.672,-24.414,-1.953
1678024815.254,-53.711,-8.789,-13.672,-26.855,-60.547
1678024815.258,-74.707,-7.324,-11.719,-33.691,-74.219
1678024815.262,-42.480,-4.395,-10.254,-22.949,-77.148
1678024815.266,-9.766,-5.859,-9.766,-14.160,-48.828
1678024815.270,-30.273,-6.836,-15.625,-22.461,-27.832
1678024815.274,-68.848,-9.277,-20.508,-41.016,-53.223
1678024815.278,-92.285,-8.789,-19.531,-28.809,-16.602
1678024815.281,-63.965,-14.160,-20.996,4.883,354.492
1678024815.285,-26.855,-19.043,-24.902,0.488,369.141
1678024815.289,-25.879,-16.602,-28.320,-17.090,-69.824
1678024815.293,-65.918,-14.160,-27.344,-18.066,-54.688
1678024815.297,-96.191,-13.184,-24.902,-23.438,58.105
1678024815.299,-68.848,-12.207,-19.531,-35.156,-97.168
1678024815.303,-24.902,-13.184,-20.020,-29.785,-178.711
1678024815.307,-14.160,-15.137,-21.484,-24.414,-101.074
1678024815.311,-60.547,-9.766,-19.531,-23.438,-47.852
1678024815.315,-100.098,-10.254,-18.555,-31.250,-133.789
1678024815.319,-79.102,-9.766,-17.578,-39.551,-128.418
1678024815.323,-23.438,-6.348,-18.555,-28.320,194.824
1678024815.326,2.441,-8.789,-21.973,-20.508,360.352
1678024815.330,-45.898,-7.324,-25.879,-33.691,12.695
1678024815.334,-87.402,-12.207,-25.391,-39.062,-222.656
1678024815.338,-63.477,-17.090,-26.855,-29.785,-72.754
1678024815.342,-8.789,-15.625,-19.043,-9.766,13.184
1678024815.344,17.090,-18.066,-15.625,-21.973,-103.516
1678024815.348,-25.879,-15.137,-24.902,-34.668,-108.398
1678024815.352,-88.379,-16.602,-25.879,-34.668,-45.410
1678024815.356,-85.449,-20.020,-19.531,-44.434,-65.918
1678024815.360,-42.480,-16.113,-20.020,-51.758,-62.012
1678024815.364,-20.508,-16.602,-20.020,-47.363,56.641
1678024815.368,-62.012,-15.625,-14.648,-31.250,198.242
1678024815.371,-88.379,-17.578,-18.066,-26.855,39.062
1678024815.375,-66.406,-20.020,-19.043,-27.344,-112.793
1678024815.379,-34.668,-20.020,-16.602,-30.762,-101.562
1678024815.383,-1.953,-25.391,-20.996,-35.156,236.816
1678024815.387,-29.785,-22.949,-22.461,-50.781,198.242
1678024815.390,-95.215,-21.973,-21.484,-64.941,-148.926
1678024815.394,-88.867,-19.531,-21.973,-63.477,-99.609
1678024815.398,-30.273,-15.625,-24.902,-50.781,-112.305
1678024815.402,1.465,-12.207,-21.484,-43.457,-114.258
1678024815.406,-32.715,-14.648,-16.602,-60.547,-111.816
1678024815.410,-81.055,-17.090,-15.625,-67.383,27.832
1678024815.414,-88.379,-16.602,-15.137,-61.035,99.609
1678024815.417,-63.477,-20.996,-19.531,-76.660,-99.609
1678024815.421,-3.906,-20.508,-17.090,-75.684,-148.926
1678024815.425,-4.883,-18.066,-14.648,-69.824,88.867
1678024815.429,-85.449,-17.090,-17.578,-85.449,81.543
1678024815.433,-104.980,-18.066,-20.508,-89.844,-161.133
1678024815.449,-58.594,-17.578,-15.625,-71.289,-112.305
1678024815.453,-8.789,-11.719,-10.742,-62.012,-26.855
1678024815.457,-8.301,-8.301,-12.207,-69.824,-67.383
1678024815.461,-60.547,-10.254,-5.859,-75.684,-131.348
1678024815.465,-88.867,-14.160,-7.324,-88.867,-116.699
1678024815.469,-60.059,-19.531,-15.625,-88.867,137.207
1678024815.473,-13.672,-20.996,-15.625,-78.613,138.184
1678024815.476,0.977,-20.996,-8.301,-81.543,-45.898
1678024815.480,-58.594,-26.367,-5.859,-90.332,-43.457
1678024815.484,-101.562,-26.855,-11.719,-82.520,113.281
1678024815.488,-62.500,-22.949,-13.184,-84.961,56.641
1678024815.492,-17.090,-24.414,-10.254,-93.262,-160.156
1678024815.495,-2.441,-26.367,-12.207,-85.938,-82.031
1678024815.499,-42.969,-25.391,-18.555,-100.098,-94.727
1678024815.503,-88.867,-24.414,-18.555,-114.258,-134.277
1678024815.507,-63.965,-28.809,-11.719,-99.121,-133.301
1678024815.511,-10.742,-31.738,-10.742,-84.961,-51.758
1678024815.515,8.301,-29.297,-5.859,-71.289,100.098
1678024815.519,-44.922,-27.832,-3.906,-75.195,15.137
1678024815.522,-88.379,-31.738,-5.371,-102.539,-164.551
1678024815.526,-51.270,-35.156,-5.371,-81.543,2.441
1678024815.530,6.348,-28.809,-10.254,-68.848,124.023
1678024815.534,0.488,-23.926,-10.742,-89.355,-165.039
1678024815.538,-54.688,-21.973,-3.906,-91.309,-195.312
1678024815.539,-93.750,-26.367,2.441,-78.125,-111.816
1678024815.543,-75.195,-25.879,-0.977,-61.523,-124.023
1678024815.547,-20.996,-18.555,-2.441,-49.805,-165.039
1678024815.551,16.602,-23.438,1.953,-46.387,-82.031
1678024815.555,-5.371,-27.344,4.883,-49.316,27.832
1678024815.559,-51.270,-24.902,6.348,-61.523,26.367
1678024815.563,-50.293,-24.414,3.906,-56.152,28.320
1678024815.566,0.977,-23.438,0.977,-45.898,103.516
1678024815.570,46.875,-20.996,-3.906,-39.062,344.727
1678024815.574,6.836,-21.973,-5.859,-52.246,250.000
1678024815.578,-48.340,-23.438,0.000,-84.473,-199.219
1678024815.582,-42.969,-21.973,3.906,-84.473,-65.430
1678024815.599,-7.324,-21.484,-1.953,-51.270,170.898
1678024815.603,18.555,-24.902,-1.465,-44.922,-37.598
1678024815.607,3.906,-27.344,3.906,-48.828,-125.488
1678024815.611,-37.598,-27.832,5.859,-42.969,-49.805
1678024815.615,-61.035,-25.879,5.859,-53.711,-35.156
1678024815.619,-22.461,-23.438,8.301,-38.086,-11.230
1678024815.623,24.414,-29.297,14.160,-16.602,-41.504
1678024815.626,8.301,-30.762,6.348,-22.461,145.996
1678024815.630,-31.250,-25.879,6.348,-22.949,123.047
1678024815.634,-36.133,-20.996,17.090,-20.020,-151.855
1678024815.638,-12.695,-23.438,14.648,-15.137,-174.316
1678024815.642,10.742,-30.273,6.836,-16.602,98.633
1678024815.629,18.555,-25.879,4.395,-21.484,204.102
1678024815.633,-11.719,-23.438,10.254,-15.137,-121.582
1678024815.637,-44.922,-22.461,16.113,-16.113,-167.969
1678024815.641,-25.391,-20.996,14.160,-27.344,-121.582
1678024815.645,33.691,-17.090,25.391,8.301,-131.836
1678024815.649,51.758,-16.602,27.344,21.484,-124.023
1678024815.653,-9.277,-20.996,20.996,-11.230,-52.734
1678024815.656,-62.500,-21.973,20.996,-22.461,-19.531
1678024815.660,-18.555,-16.602,18.066,-9.766,-93.262
1678024815.664,34.668,-14.160,17.578,-2.930,-92.773
1678024815.668,33.203,-15.625,17.090,-12.695,-0.977
1678024815.672,-3.906,-15.137,15.137,-20.020,251.953
1678024815.674,-29.297,-17.090,16.602,-18.555,197.266
1678024815.678,-8.789,-19.531,17.578,-21.973,-135.742
1678024815.682,39.062,-18.555,20.508,-10.254,-41.504
1678024815.686,58.594,-15.625,22.461,-4.883,2.441
1678024815.690,20.020,-13.184,24.414,-9.766,-112.793
1678024815.694,-34.668,-16.602,22.949,-12.695,-148.926
1678024815.698,-25.879,-16.602,19.043,-2.441,51.758
1678024815.701,36.133,-14.648,25.391,16.602,183.105
1678024815.705,61.523,-18.555,27.344,19.531,-53.711
1678024815.709,36.133,-19.043,30.273,17.578,-91.797
1678024815.713,-16.602,-17.090,33.203,20.020,-55.664
1678024815.717,-19.043,-20.020,29.785,29.785,-85.938
1678024815.720,27.832,-24.414,24.902,25.391,-65.430
1678024815.724,66.406,-20.508,27.832,29.785,-77.637
1678024815.728,37.109,-15.137,26.367,33.691,-59.570
1678024815.732,-11.230,-18.555,26.367,25.391,-41.992
1678024815.736,-3.418,-24.902,26.855,28.809,-135.254
1678024815.740,24.414,-25.391,20.020,26.855,-10.742
1678024815.744,57.129,-21.973,15.625,35.156,215.332
1678024815.747,54.688,-19.043,17.578,35.156,97.656
1678024815.751,7.812,-18.066,24.414,20.508,-140.625
1678024815.755,-13.184,-20.996,27.344,22.949,-137.695
1678024815.759,31.250,-24.414,22.461,24.902,54.688
1678024815.763,77.637,-27.344,17.578,18.066,-31.738
1678024815.779,49.805,-27.344,18.066,13.184,-149.414
1678024815.783,6.348,-30.273,19.043,6.348,-98.145
1678024815.787,6.348,-31.250,18.066,17.578,11.230
1678024815.791,33.691,-27.344,12.695,29.297,-48.340
1678024815.795,66.406,-27.344,6.348,27.832,-136.230
1678024815.799,56.641,-26.855,4.395,28.320,124.512
1678024815.803,6.836,-25.391,8.789,11.719,350.586
1678024815.806,-10.742,-27.344,11.230,6.836,24.414
1678024815.810,21.484,-24.902,11.719,28.320,-162.109
1678024815.814,77.148,-23.926,12.207,32.227,-4.883
1678024815.818,73.242,-29.785,13.184,27.832,32.715
1678024815.822,10.742,-29.297,14.160,33.203,-122.559
1678024815.824,-9.277,-27.832,19.043,39.551,-137.695
1678024815.828,9.766,-28.320,19.531,26.367,-77.637
1678024815.832,64.941,-22.461,18.066,22.949,-60.547
1678024815.836,87.891,-20.996,11.230,31.250,-65.918
1678024815.840,28.320,-26.855,5.859,20.508,-37.598
1678024815.844,-24.902,-28.809,5.859,13.672,63.965
1678024815.848,6.836,-27.832,5.371,20.996,12.207
1678024815.851,50.781,-31.738,1.953,29.785,16.113
1678024815.855,63.477,-30.762,-1.465,33.691,47.852
1678024815.859,22.949,-28.809,1.953,38.086,219.238
1678024815.863,-22.949,-30.762,5.371,28.320,188.477
1678024815.867,-5.859,-30.273,0.977,15.625,-171.387
1678024815.884,44.434,-33.203,2.441,19.531,-138.672
1678024815.888,73.242,-31.250,9.277,13.672,-15.625
1678024815.892,40.527,-24.902,5.371,3.906,-99.609
1678024815.896,-9.277,-26.855,-0.977,6.348,-256.348
1678024815.900,-3.418,-27.344,-2.930,17.090,-143.555
1678024815.904,44.922,-31.738,-6.348,17.578,-34.668
1678024815.908,66.406,-34.180,-5.859,17.090,-12.695
1678024815.911,27.832,-29.297,-5.859,21.973,23.438
1678024815.915,-13.672,-29.785,-3.418,20.996,80.566
1678024815.919,2.930,-31.250,0.977,24.902,136.230
1678024815.923,50.293,-27.832,-3.418,24.414,-68.848
1678024815.927,75.684,-27.832,-8.789,21.973,-182.617
1678024815.914,41.504,-29.785,-9.766,21.973,-47.363
1678024815.918,-13.184,-30.273,-16.602,18.066,-49.805
1678024815.922,-5.859,-32.227,-15.625,21.484,-194.824
1678024815.926,36.621,-32.715,-14.648,28.320,-128.418
1678024815.930,71.289,-34.180,-18.555,23.926,-91.309
1678024815.934,46.875,-36.621,-17.578,20.508,-74.219
1678024815.938,-28.320,-40.039,-24.414,9.277,-105.469
1678024815.941,-24.414,-38.574,-24.414,12.695,-41.504
1678024815.945,34.180,-33.691,-17.090,25.391,106.445
1678024815.949,67.383,-34.180,-18.066,22.949,20.508
1678024815.953,48.828,-35.645,-18.555,16.113,-103.516
1678024815.957,-8.301,-31.250,-20.996,14.648,-72.266
1678024815.959,-6.836,-33.203,-28.320,22.949,253.906
1678024815.963,37.598,-40.527,-26.855,17.578,255.371
1678024815.967,81.055,-40.039,-21.484,27.344,-89.844
1678024815.971,76.660,-41.992,-15.137,38.574,-23.926
1678024815.975,12.695,-43.457,-10.742,28.320,21.973
1678024815.979,6.836,-39.062,-13.672,37.598,-48.340
1678024815.983,38.574,-36.133,-16.113,33.691,-51.758
1678024815.986,64.453,-37.598,-20.996,28.809,28.320
1678024815.990,66.895,-36.621,-20.996,22.949,128.906
1678024815.994,23.438,-35.156,-19.043,23.438,-138.672
1678024815.998,-11.719,-34.668,-23.926,34.668,-197.266
1678024816.002,16.602,-31.250,-26.367,37.598,-67.383
1678024816.004,74.707,-29.297,-26.367,35.645,-106.934
1678024816.008,89.355,-26.367,-25.879,33.203,-179.688
1678024816.012,56.641,-24.902,-25.879,29.297,-166.016
1678024816.016,21.973,-32.715,-24.414,20.508,-131.348
1678024816.020,35.645,-34.668,-23.926,22.461,-109.863
1678024816.024,77.637,-34.180,-28.320,26.855,-53.711
1678024816.028,79.102,-37.109,-28.809,21.973,-66.895
1678024816.031,32.715,-36.621,-26.367,29.785,250.977
1678024816.035,7.324,-36.621,-22.949,39.551,285.156
1678024816.039,31.250,-37.598,-25.391,34.668,-122.559
1678024816.043,81.055,-33.691,-25.391,37.598,-141.113
1678024816.047,104.492,-30.762,-20.020,49.316,-96.191
1678024816.050,53.223,-30.762,-20.508,30.273,-109.375
1678024816.054,10.742,-28.320,-23.438,12.207,-96.680
1678024816.058,34.180,-31.250,-25.879,27.344,10.742
1678024816.062,68.848,-31.250,-26.855,39.062,0.977
1678024816.066,92.773,-31.250,-24.902,24.902,-104.980
1678024816.070,67.383,-34.180,-21.484,16.602,-108.398
1678024816.074,24.414,-31.250,-23.438,30.762,142.578
1678024816.077,27.832,-34.180,-30.273,27.344,262.207
1678024816.081,53.223,-40.527,-32.715,19.043,-75.684
1678024816.085,75.195,-43.457,-33.203,20.508,-97.168
1678024816.089,50.293,-44.434,-28.809,18.066,-64.453
1678024816.093,-7.812,-43.457,-21.973,8.789,-174.316
1678024816.109,-6.348,-47.363,-24.902,14.160,-205.078
1678024816.113,46.387,-42.480,-26.855,34.668,-189.941
1678024816.117,69.824,-42.480,-25.391,40.527,-121.094
1678024816.121,57.617,-51.758,-28.320,24.902,-132.324
1678024816.125,21.973,-49.805,-31.250,16.602,-173.828
1678024816.129,-17.090,-45.410,-31.250,15.625,-123.047
1678024816.133,16.602,-39.551,-33.203,28.320,267.578
1678024816.136,77.637,-43.457,-29.785,35.156,356.445
1678024816.140,84.961,-49.805,-23.438,38.086,-108.398
1678024816.144,40.527,-42.480,-27.344,39.551,-132.812
1678024816.148,27.344,-33.691,-27.832,30.273,-3.418
1678024816.152,61.523,-32.227,-20.996,30.273,-150.391
1678024816.139,91.309,-35.645,-19.531,37.109,-205.078
1678024816.143,82.520,-40.527,-19.531,51.270,-19.531
1678024816.147,23.926,-41.016,-21.973,36.621,14.160
1678024816.151,7.324,-41.992,-24.414,30.762,-126.465
1678024816.155,35.156,-42.969,-19.531,50.293,-189.941
1678024816.159,56.641,-41.016,-17.578,44.434,-8.789
1678024816.163,52.734,-44.922,-22.461,35.156,80.566
1678024816.166,-1.953,-51.758,-22.461,30.273,-120.605
1678024816.170,-39.551,-53.223,-19.043,26.367,-241.699
1678024816.174,6.348,-51.758,-17.578,34.180,13.672
1678024816.178,61.035,-49.316,-20.020,45.898,239.258
1678024816.182,69.824,-48.828,-24.414,44.434,-74.219
1678024816.199,23.438,-48.340,-29.297,29.297,-166.504
1678024816.203,-30.762,-52.246,-33.203,0.488,-68.359
1678024816.207,-5.371,-54.688,-30.762,2.441,-104.004
1678024816.211,50.293,-51.270,-24.902,20.508,-125.488
1678024816.215,65.430,-48.340,-24.414,25.391,-29.297
1678024816.219,20.020,-48.828,-27.344,29.297,107.910
1678024816.223,-22.949,-49.316,-31.250,21.484,12.695
1678024816.226,-13.184,-53.223,-30.273,14.160,-57.617
1678024816.230,25.879,-55.176,-29.297,22.461,22.949
1678024816.234,48.340,-52.734,-32.715,30.273,324.219
1678024816.238,13.184,-49.805,-35.645,18.066,294.922
1678024816.242,-34.180,-50.781,-36.621,1.953,-110.352
1678024816.244,-33.203,-57.129,-34.180,3.418,-112.793
1678024816.248,2.441,-56.641,-33.691,10.254,-67.871
1678024816.252,38.574,-59.570,-36.621,15.625,-91.797
1678024816.256,17.578,-64.453,-32.715,20.020,-71.289
1678024816.260,-27.832,-61.035,-32.715,21.484,-71.289
1678024816.264,-20.508,-59.570,-37.109,20.508,-23.926
1678024816.268,17.090,-58.594,-36.621,32.715,-23.926
1678024816.271,36.621,-60.547,-33.691,25.391,-139.648
1678024816.275,5.859,-64.941,-32.227,3.906,9.277
1678024816.279,-55.176,-66.895,-37.598,-6.836,115.723
1678024816.283,-55.664,-64.453,-39.551,-12.207,-113.770
1678024816.287,-4.395,-63.477,-36.133,-0.488,-104.004
1678024816.289,35.645,-65.918,-41.504,1.953,-26.367
1678024816.293,24.414,-64.453,-40.527,2.441,-55.664
1678024816.297,-35.645,-62.500,-35.156,0.977,-127.441
1678024816.301,-69.336,-67.871,-38.086,-3.418,-157.227
1678024816.305,-39.062,-67.383,-40.527,-4.883,-115.723
1678024816.309,14.160,-63.477,-41.016,-4.883,11.230
1678024816.313,9.277,-61.523,-42.480,-12.207,71.777
1678024816.316,-49.316,-61.035,-46.387,-28.320,-15.625
1678024816.320,-79.102,-57.617,-41.992,-14.160,196.777
1678024816.324,-43.945,-53.711,-39.551,-8.301,208.008
1678024816.328,13.672,-48.828,-40.039,-14.648,-123.047
1678024816.332,15.625,-46.387,-40.527,-14.160,-106.445
1678024816.335,-30.273,-47.852,-42.480,-30.762,-157.715
1678024816.339,-58.594,-51.758,-38.574,-25.879,-194.336
1678024816.343,-39.062,-51.270,-35.645,-17.090,-159.668
1678024816.347,6.348,-45.410,-33.691,-18.066,-96.680
1678024816.351,9.766,-47.363,-28.809,-0.488,12.207
1678024816.355,-45.410,-47.852,-25.391,-23.438,-6.348
1678024816.359,-81.055,-43.945,-29.785,-30.273,-84.473
1678024816.362,-63.477,-52.246,-31.250,-7.324,5.371
1678024816.366,-9.766,-58.594,-35.156,-10.742,103.516
1678024816.370,17.578,-51.270,-42.969,-21.973,-100.098
1678024816.374,-37.109,-52.246,-41.992,-29.297,-154.785
1678024816.378,-82.520,-55.664,-41.016,-35.645,-133.301
1678024816.379,-45.898,-54.199,-38.086,-34.668,-107.422
1678024816.383,-19.043,-51.270,-34.180,-24.902,-85.449
1678024816.387,-28.809,-51.758,-31.250,-27.344,-104.980
1678024816.391,-56.641,-52.734,-32.715,-41.016,-62.500
1678024816.395,-87.891,-51.270,-39.551,-44.922,-101.074
1678024816.399,-76.660,-52.246,-37.109,-35.645,-52.246
1678024816.403,-32.715,-49.316,-27.832,-12.695,31.738
1678024816.406,-14.160,-49.316,-30.762,-25.391,253.906
1678024816.410,-41.504,-50.293,-34.668,-30.762,342.773
1678024816.414,-96.191,-52.246,-34.180,-31.738,-48.828
1678024816.418,-100.586,-61.035,-42.480,-51.270,-194.824
1678024816.422,-54.199,-63.965,-45.410,-50.781,-83.008
1678024816.424,-25.879,-58.594,-44.434,-55.176,-62.500
1678024816.428,-44.434,-54.199,-44.922,-61.523,-95.215
1678024816.432,-104.980,-58.105,-48.828,-70.312,-72.754
1678024816.436,-116.699,-60.547,-53.711,-75.195,-70.312
1678024816.440,-62.012,-57.617,-54.688,-64.453,-143.066
1678024816.444,-22.461,-54.199,-52.734,-64.941,-142.578
1678024816.448,-48.340,-55.176,-45.410,-74.219,172.852
1678024816.451,-103.027,-57.617,-46.387,-79.590,214.844
1678024816.455,-111.816,-56.641,-49.316,-81.543,-58.594
1678024816.459,-80.566,-54.199,-47.852,-94.238,-160.156
1678024816.463,-37.109,-54.688,-50.781,-86.426,80.078
1678024816.467,-34.180,-52.246,-48.828,-71.777,252.441
1678024816.469,-100.098,-47.363,-40.039,-86.426,-36.621
1678024816.473,-114.258,-50.293,-38.086,-78.613,-130.371
1678024816.477,-70.801,-52.246,-41.504,-76.172,-100.586
1678024816.481,-25.879,-48.340,-41.504,-78.613,-89.355
1678024816.485,-25.879,-46.387,-41.504,-81.055,-129.883
1678024816.489,-84.961,-46.387,-45.410,-92.285,-112.793
1678024816.493,-105.957,-47.363,-52.246,-86.426,73.730
1678024816.496,-74.219,-42.480,-53.223,-87.402,76.172
1678024816.500,-37.109,-38.086,-48.340,-93.262,-10.742
1678024816.504,-32.715,-39.551,-50.781,-90.332,-6.348
1678024816.508,-96.680,-41.992,-52.246,-93.262,203.613
1678024816.512,-126.953,-41.504,-51.758,-94.727,123.047
1678024816.515,-90.820,-39.551,-54.688,-93.262,-145.508
1678024816.519,-48.340,-38.574,-56.152,-99.609,-98.145
1678024816.523,-41.504,-39.551,-54.199,-98.633,-24.414
1678024816.527,-97.656,-40.039,-52.734,-96.191,-88.379
1678024816.531,-139.160,-39.551,-52.734,-100.586,-112.793
1678024816.535,-112.305,-40.527,-46.875,-89.355,-8.789
1678024816.539,-72.266,-41.504,-43.945,-102.051,23.438
1678024816.542,-50.293,-41.992,-45.410,-112.793,-43.457
1678024816.546,-96.680,-39.551,-41.992,-109.375,-114.746
1678024816.550,-154.297,-41.504,-47.363,-109.375,5.371
1678024816.554,-130.371,-44.922,-47.363,-111.816,60.547
1678024816.558,-79.102,-40.527,-46.875,-121.094,-109.375
1678024816.574,-51.270,-38.574,-51.270,-117.676,-136.719
1678024816.578,-96.191,-40.039,-51.758,-119.629,-101.562
1678024816.582,-134.277,-37.598,-47.363,-127.441,-138.672
1678024816.586,-120.117,-38.574,-39.062,-118.164,-211.426
1678024816.590,-83.984,-38.574,-35.156,-109.375,-141.602
1678024816.594,-57.617,-39.551,-37.109,-104.980,161.133
1678024816.598,-83.008,-41.992,-39.062,-106.934,140.625
1678024816.601,-119.629,-40.527,-37.109,-100.098,-44.922
1678024816.605,-113.281,-37.109,-42.480,-90.820,-50.781
1678024816.609,-81.543,-36.621,-46.875,-87.891,137.695
1678024816.613,-49.316,-33.691,-40.527,-93.262,36.133
1678024816.617,-63.965,-30.762,-41.504,-107.910,-207.520
1678024816.619,-126.953,-38.574,-46.875,-120.605,-44.434
1678024816.623,-129.883,-40.527,-44.434,-111.328,-18.555
1678024816.627,-86.426,-38.574,-41.504,-110.840,-81.055
1678024816.631,-51.758,-39.551,-41.016,-121.582,-37.109
1678024816.635,-71.289,-36.133,-37.109,-118.652,15.137
1678024816.639,-131.836,-34.180,-36.621,-125.000,29.297
1678024816.643,-133.301,-33.691,-40.527,-122.070,42.969
1678024816.646,-88.379,-35.156,-42.480,-109.375,9.277
1678024816.650,-51.270,-36.621,-40.039,-107.422,103.516
1678024816.654,-50.781,-29.785,-35.645,-100.586,219.727
1678024816.658,-103.516,-25.391,-36.133,-105.469,-88.379
1678024816.662,-127.441,-26.855,-33.691,-104.492,-204.590
1678024816.664,-96.680,-27.832,-29.785,-91.797,-121.094
1678024816.668,-51.270,-29.785,-32.227,-88.379,-83.496
1678024816.672,-50.781,-31.250,-28.809,-88.867,-64.941
1678024816.676,-121.582,-33.203,-27.344,-91.797,-24.902
1678024816.680,-160.645,-36.133,-32.715,-98.145,-14.648
1678024816.684,-126.465,-35.645,-36.133,-104.004,-36.133
1678024816.688,-76.660,-39.062,-41.016,-104.980,34.180
1678024816.691,-68.848,-42.480,-44.922,-114.746,31.250
1678024816.695,-116.211,-39.551,-37.109,-115.723,216.797
1678024816.699,-138.672,-39.551,-29.297,-117.676,179.688
1678024816.703,-119.141,-38.574,-31.738,-123.047,-150.391
1678024816.707,-68.359,-35.156,-31.738,-110.352,-147.461
1678024816.709,-38.574,-36.133,-31.738,-107.910,-86.914
1678024816.713,-86.426,-35.156,-31.738,-109.375,-120.117
1678024816.717,-143.066,-36.621,-29.785,-108.398,-212.402
1678024816.721,-135.742,-42.480,-32.227,-105.469,-161.133
1678024816.725,-90.332,-41.992,-33.691,-104.004,-119.629
1678024816.729,-66.406,-41.016,-31.250,-104.980,-77.637
1678024816.733,-115.234,-39.551,-35.156,-111.328,-60.059
1678024816.736,-170.898,-41.016,-39.551,-110.352,56.641
1678024816.740,-159.180,-42.969,-40.527,-104.004,243.652
1678024816.744,-109.375,-41.992,-41.504,-115.234,15.137
1678024816.748,-83.008,-46.875,-43.457,-118.652,-117.676
1678024816.752,-122.559,-47.852,-41.992,-113.281,-66.895
1678024816.754,-173.340,-47.852,-41.504,-121.094,-158.203
1678024816.758,-160.156,-45.898,-40.527,-114.746,-174.805
1678024816.762,-121.582,-47.852,-42.480,-108.398,-51.270
1678024816.766,-84.473,-49.316,-44.922,-109.375,-31.738
1678024816.770,-98.145,-49.316,-39.551,-107.910,-66.406
1678024816.774,-157.227,-48.340,-40.527,-114.258,-119.629
1678024816.778,-159.180,-48.340,-41.016,-110.840,-104.980
1678024816.781,-126.465,-52.734,-40.039,-98.145,277.832
1678024816.785,-88.867,-47.852,-37.109,-93.750,322.754
1678024816.789,-92.285,-41.504,-36.621,-106.934,-52.246
1678024816.793,-153.809,-40.039,-42.969,-115.723,-78.125
1678024816.797,-167.480,-41.016,-41.016,-109.863,63.965
1678024816.799,-125.488,-42.969,-40.527,-112.793,-54.199
1678024816.803,-91.309,-49.316,-44.922,-114.258,-125.977
1678024816.807,-113.770,-50.781,-41.504,-120.605,-29.785
1678024816.811,-164.062,-46.875,-44.922,-123.535,-9.766
1678024816.815,-173.340,-45.410,-48.828,-122.559,-93.750
1678024816.819,-134.766,-44.434,-45.410,-123.047,-108.398
1678024816.823,-85.449,-44.434,-46.387,-109.375,147.461
1678024816.826,-89.355,-40.039,-40.527,-109.863,227.051
1678024816.830,-141.113,-32.227,-38.086,-118.652,-64.453
1678024816.834,-147.461,-31.250,-43.945,-116.211,-135.254
1678024816.838,-120.605,-32.227,-45.898,-112.305,94.727
1678024816.842,-95.215,-33.203,-45.410,-124.023,53.711
1678024816.844,-105.469,-35.645,-48.828,-138.672,-171.875
1678024816.848,-157.715,-38.574,-51.758,-135.254,-118.164
1678024816.852,-177.246,-43.945,-53.223,-131.348,-84.961
1678024816.856,-154.297,-46.387,-53.223,-124.512,-37.598
1678024816.860,-109.863,-40.039,-58.594,-125.977,-36.133
1678024816.864,-99.121,-43.457,-63.965,-136.719,10.254
1678024816.868,-156.738,-45.410,-65.430,-135.742,193.848
1678024816.871,-187.988,-45.898,-69.824,-135.254,40.039
1678024816.875,-172.852,-57.129,-70.801,-146.973,-222.656
1678024816.879,-136.230,-65.430,-68.848,-148.926,-152.344
1678024816.883,-96.680,-60.059,-69.336,-139.160,-29.297
1678024816.887,-151.367,-49.805,-75.684,-164.551,-101.074
1678024816.890,-209.473,-54.199,-80.078,-186.523,-101.562
1678024816.894,-187.012,-54.199,-76.172,-168.457,31.250
1678024816.898,-145.508,-46.387,-76.660,-181.152,247.559
1678024816.902,-121.582,-47.363,-74.707,-189.941,30.762
1678024816.906,-159.180,-54.688,-74.219,-185.059,-211.426
1678024816.910,-212.891,-51.270,-77.148,-187.012,23.926
1678024816.914,-195.312,-42.480,-77.148,-177.246,54.688
1678024816.917,-139.648,-39.551,-76.660,-181.152,-57.617
1678024816.921,-107.422,-39.551,-75.195,-190.918,-106.445
1678024816.925,-139.648,-40.527,-73.242,-186.523,57.617
1678024816.929,-193.359,-41.504,-73.242,-180.176,132.812
1678024816.933,-185.059,-40.527,-75.195,-180.664,-97.656
1678024816.950,-140.137,-39.551,-72.754,-183.105,-115.723
1678024816.954,-109.375,-39.551,-67.383,-174.805,-36.621
1678024816.958,-128.906,-34.668,-64.453,-159.668,-33.203
1678024816.962,-180.664,-36.621,-62.988,-156.250,-65.918
1678024816.966,-190.430,-45.410,-66.406,-162.598,-58.105
1678024816.970,-145.508,-45.410,-72.754,-150.879,126.953
1678024816.974,-108.398,-54.688,-76.172,-151.367,158.691
1678024816.977,-126.465,-52.734,-67.383,-156.250,-0.977
1678024816.981,-174.316,-43.945,-59.570,-150.879,2.930
1678024816.985,-185.059,-43.945,-62.500,-129.883,283.691
1678024816.989,-151.855,-41.016,-64.941,-132.324,245.117
1678024816.993,-115.234,-42.480,-63.965,-155.273,-107.910
1678024816.994,-132.324,-41.504,-67.871,-164.551,-115.723
1678024816.998,-190.430,-41.992,-72.754,-163.086,-148.926
1678024817.002,-198.242,-41.504,-71.777,-149.414,-217.773
1678024817.006,-156.738,-39.062,-70.312,-143.555,-156.738
1678024817.010,-114.746,-39.062,-70.801,-145.020,-98.145
1678024817.014,-110.840,-33.203,-67.383,-153.320,-95.215
1678024817.018,-172.363,-34.180,-62.500,-167.969,-72.754
1678024817.021,-196.289,-39.062,-60.059,-159.180,-118.652
1678024817.025,-156.250,-37.109,-59.570,-145.508,31.738
1678024817.029,-106.445,-34.180,-61.035,-145.020,257.812
1678024817.033,-88.379,-33.691,-57.129,-140.137,31.250
1678024817.037,-139.160,-32.227,-52.734,-139.160,-147.461
1678024817.039,-167.969,-31.250,-59.082,-139.648,-166.504
1678024817.043,-138.672,-33.203,-65.918,-142.578,-141.602
1678024817.047,-102.051,-37.109,-67.383,-147.949,-105.957
1678024817.051,-87.891,-35.156,-65.430,-149.902,-116.699
1678024817.055,-135.742,-34.180,-60.547,-147.461,-93.262
1678024817.059,-173.340,-40.527,-60.059,-139.648,-39.551
1678024817.063,-153.320,-40.527,-61.523,-133.789,-73.242
1678024817.066,-115.234,-36.621,-57.129,-141.113,-105.957
1678024817.070,-100.586,-36.133,-55.664,-139.160,188.965
1678024817.074,-140.137,-33.691,-57.129,-133.789,293.457
1678024817.078,-169.922,-30.273,-56.641,-138.672,-63.477
1678024817.082,-152.832,-32.715,-50.781,-129.395,-162.598
1678024817.084,-119.141,-35.156,-49.316,-128.906,-103.027
1678024817.088,-102.539,-36.621,-48.340,-134.277,-128.418
1678024817.092,-124.512,-33.691,-44.922,-133.301,-120.605
1678024817.096,-161.621,-33.203,-47.363,-137.695,-92.285
1678024817.100,-157.715,-36.621,-51.758,-136.719,-99.609
1678024817.104,-114.258,-31.738,-54.688,-138.184,-57.617
1678024817.108,-77.637,-27.832,-50.293,-140.625,-22.949
1678024817.111,-108.887,-31.250,-47.852,-148.926,95.215
1678024817.115,-171.875,-31.738,-48.340,-155.273,110.840
1678024817.119,-161.621,-32.227,-45.898,-147.461,-92.285
1678024817.123,-106.445,-33.203,-46.387,-138.184,-100.586
1678024817.127,-71.289,-30.273,-51.270,-134.277,3.906
1678024817.129,-88.379,-30.762,-51.758,-126.953,-27.832
1678024817.133,-140.137,-28.320,-50.781,-130.371,-142.090
1678024817.137,-158.691,-29.297,-54.688,-122.070,-135.254
1678024817.141,-127.441,-31.738,-50.781,-113.770,-82.520
1678024817.145,-97.656,-30.273,-51.270,-123.535,-93.262
