timestamps,TP9,AF7,AF8,TP10,Right AUX
1678023417.860,-60.547,-41.992,-46.875,-43.457,115.723
1678023417.864,-56.641,-39.551,-50.293,-54.688,-166.504
1678023417.868,-50.781,-37.109,-44.922,-51.758,-86.426
1678023417.872,-47.363,-37.598,-41.504,-40.039,45.898
1678023417.876,-50.293,-37.109,-41.504,-39.062,-92.285
1678023417.880,-50.293,-34.180,-38.574,-44.434,-137.207
1678023417.884,-47.852,-33.691,-38.086,-40.527,-17.090
1678023417.887,-38.086,-34.180,-39.551,-31.250,239.258
1678023417.891,-34.180,-32.227,-41.016,-40.039,164.551
1678023417.895,-39.062,-33.691,-41.504,-49.316,-117.676
1678023417.899,-39.062,-34.180,-37.598,-49.316,-99.609
1678023417.903,-42.480,-35.156,-34.668,-54.199,-92.773
1678023417.907,-44.434,-35.156,-37.598,-49.316,-28.809
1678023417.911,-48.828,-35.645,-33.691,-48.828,181.641
1678023417.914,-38.574,-34.180,-35.156,-38.574,129.395
1678023417.918,-45.898,-35.156,-40.527,-47.363,-63.965
1678023417.922,-61.523,-38.086,-39.551,-56.152,-155.273
1678023417.926,-41.016,-35.645,-40.527,-53.223,3.418
1678023417.930,-28.809,-31.738,-36.133,-37.598,257.812
1678023417.950,-39.062,-30.273,-34.668,-42.969,-16.602
1678023417.954,-41.504,-29.785,-34.668,-46.387,-228.027
1678023417.958,-40.039,-34.668,-31.738,-37.109,-109.375
1678023417.962,-33.691,-38.574,-35.645,-32.715,-108.398
1678023417.966,-25.391,-38.086,-36.133,-19.531,-228.516
1678023417.970,-24.902,-41.016,-37.598,-7.324,-44.434
1678023417.974,-26.855,-37.598,-39.062,-4.883,180.664
1678023417.977,-33.691,-29.297,-37.109,-19.043,40.527
1678023417.981,-29.297,-29.785,-36.621,-29.297,-147.461
1678023417.985,-32.227,-28.809,-34.668,-11.719,-26.855
1678023417.989,-34.668,-22.949,-33.203,-8.789,132.812
1678023417.993,-30.273,-20.508,-30.762,-20.020,-84.961
1678023417.977,-33.691,-20.508,-28.809,-19.043,-127.441
1678023417.981,-38.574,-20.020,-28.320,-10.742,-49.316
1678023417.985,-32.227,-21.484,-25.879,-18.066,-75.684
1678023417.989,-23.926,-25.879,-26.855,-20.996,-116.699
1678023417.993,-35.645,-26.855,-31.738,-18.066,-44.434
1678023417.997,-41.016,-28.809,-35.156,-21.973,124.023
1678023418.001,-34.668,-29.785,-34.668,-20.996,23.926
1678023418.004,-29.297,-32.715,-36.621,-25.879,-118.652
1678023418.008,-20.508,-29.297,-36.133,-22.461,-92.285
1678023418.012,-29.785,-28.320,-34.180,-16.113,144.531
1678023418.016,-41.992,-31.738,-38.574,-17.578,466.309
1678023418.020,-46.387,-28.320,-41.016,-36.621,205.566
1678023418.039,-47.363,-27.832,-40.039,-49.316,-145.996
1678023418.043,-40.527,-33.203,-37.598,-48.340,-115.723
1678023418.047,-37.598,-32.715,-31.250,-45.898,-88.379
1678023418.051,-40.527,-35.645,-29.785,-42.969,-172.363
1678023418.055,-35.645,-31.738,-31.738,-36.133,-163.086
1678023418.059,-16.602,-26.367,-33.691,-25.391,-20.996
1678023418.063,-4.883,-33.203,-37.109,-31.250,-42.969
1678023418.066,-15.625,-35.156,-36.621,-39.551,-98.145
1678023418.070,-26.367,-35.156,-39.551,-31.250,-49.805
1678023418.074,-32.227,-34.180,-37.109,-30.762,71.777
1678023418.078,-37.109,-37.109,-40.039,-46.387,-23.926
1678023418.082,-44.434,-42.480,-38.086,-44.922,-73.242
1678023418.082,-43.945,-41.992,-32.715,-40.527,38.574
1678023418.086,-42.480,-41.504,-32.715,-36.621,3.906
1678023418.090,-50.293,-38.574,-29.785,-44.922,-152.344
1678023418.094,-46.875,-38.574,-29.785,-57.617,-187.500
1678023418.098,-44.434,-32.715,-31.250,-46.387,-62.500
1678023418.102,-54.688,-34.180,-30.273,-38.086,31.250
1678023418.106,-65.918,-39.551,-34.180,-53.223,30.273
1678023418.109,-50.293,-30.762,-38.574,-60.059,-148.926
1678023418.113,-29.785,-32.715,-37.109,-38.086,-84.961
1678023418.117,-30.273,-34.668,-34.180,-25.391,232.910
1678023418.121,-42.969,-31.738,-41.504,-42.480,25.879
1678023418.125,-54.199,-32.227,-49.805,-55.664,-177.246
1678023418.144,-51.758,-35.156,-43.457,-54.688,-59.570
1678023418.148,-44.922,-34.668,-36.133,-54.688,-91.309
1678023418.152,-33.203,-32.227,-40.039,-48.340,-135.742
1678023418.156,-26.367,-34.668,-39.551,-39.062,-92.773
1678023418.160,-35.156,-34.180,-40.039,-50.293,-39.062
1678023418.164,-41.992,-35.156,-43.457,-64.453,-53.223
1678023418.168,-33.691,-36.133,-44.922,-58.105,-83.984
1678023418.171,-28.809,-35.156,-43.945,-51.270,-37.598
1678023418.175,-27.344,-36.621,-39.551,-47.852,140.137
1678023418.179,-40.527,-30.273,-41.016,-57.129,56.641
1678023418.183,-49.316,-30.762,-43.945,-61.035,-125.000
1678023418.187,-49.316,-33.203,-41.992,-59.570,-98.145
1678023418.172,-42.969,-24.902,-41.992,-59.082,-116.699
1678023418.176,-38.086,-29.785,-43.945,-47.852,-212.402
1678023418.180,-46.387,-28.320,-36.621,-44.922,-241.699
1678023418.184,-52.246,-25.879,-32.227,-47.852,-23.926
1678023418.188,-48.340,-36.133,-42.480,-53.223,24.414
1678023418.192,-41.992,-33.203,-41.016,-57.617,-88.379
1678023418.196,-39.551,-33.203,-35.645,-52.246,-33.691
1678023418.199,-47.852,-36.621,-41.504,-50.293,64.453
1678023418.203,-58.105,-36.621,-39.062,-52.734,-36.133
1678023418.207,-60.059,-40.527,-34.180,-56.152,-195.312
1678023418.211,-52.734,-41.016,-37.598,-60.547,-192.871
1678023418.215,-48.340,-42.969,-35.156,-44.434,77.148
1678023418.249,-52.246,-41.016,-32.227,-29.785,391.113
1678023418.253,-50.781,-35.156,-31.738,-41.504,159.668
1678023418.257,-41.504,-32.715,-29.785,-48.340,-80.566
1678023418.261,-39.062,-35.156,-34.668,-37.598,-83.984
1678023418.265,-41.504,-36.621,-36.621,-29.297,-164.062
1678023418.269,-48.828,-33.203,-32.715,-31.738,-77.637
1678023418.273,-53.711,-32.227,-31.738,-42.480,49.316
1678023418.276,-48.340,-39.551,-31.250,-36.133,285.645
1678023418.280,-43.945,-38.086,-33.203,-34.180,251.953
1678023418.284,-37.598,-32.227,-36.621,-43.945,-91.309
1678023418.288,-32.227,-30.762,-41.016,-44.434,-103.516
1678023418.292,-41.992,-32.715,-39.551,-42.480,-99.609
1678023418.264,-47.852,-31.738,-34.180,-42.969,-170.898
1678023418.268,-41.992,-33.203,-38.086,-45.410,-154.785
1678023418.272,-34.180,-30.273,-36.621,-44.922,-45.410
1678023418.276,-29.297,-23.438,-35.645,-40.527,5.859
1678023418.280,-39.062,-24.902,-37.109,-44.434,-69.824
1678023418.284,-45.898,-23.438,-36.621,-43.945,-85.938
1678023418.288,-42.969,-25.391,-36.621,-33.203,83.984
1678023418.291,-41.992,-28.320,-31.738,-38.574,77.148
1678023418.295,-42.480,-26.855,-29.785,-45.410,-25.391
1678023418.299,-47.852,-31.250,-34.668,-50.781,81.055
1678023418.303,-53.223,-33.691,-35.156,-57.129,85.938
1678023418.307,-50.293,-32.715,-30.762,-58.594,-48.828
1678023418.323,-42.480,-31.738,-34.180,-54.199,-139.648
1678023418.327,-41.016,-32.715,-39.062,-49.805,-133.301
1678023418.331,-45.898,-36.133,-37.598,-38.574,149.902
1678023418.335,-50.781,-34.180,-32.227,-32.715,287.598
1678023418.339,-51.270,-32.715,-34.668,-46.387,-78.125
1678023418.343,-43.945,-32.227,-39.062,-50.293,-82.031
1678023418.347,-41.016,-30.273,-40.527,-37.109,295.410
1678023418.350,-51.270,-30.762,-41.992,-37.598,160.645
1678023418.354,-60.547,-34.668,-43.457,-53.711,-208.496
1678023418.358,-48.828,-33.691,-40.039,-47.363,-143.555
1678023418.362,-39.062,-28.320,-38.086,-43.457,-118.164
1678023418.366,-36.133,-25.391,-39.062,-39.062,-155.273
1678023418.353,-33.691,-22.461,-32.715,-34.668,-142.578
1678023418.357,-40.039,-25.391,-26.367,-37.598,-133.789
1678023418.361,-43.945,-31.250,-26.367,-39.062,-72.266
1678023418.365,-41.992,-35.156,-33.691,-33.203,-104.492
1678023418.369,-38.574,-28.809,-37.109,-29.297,-124.023
1678023418.373,-43.945,-28.320,-33.203,-28.809,95.703
1678023418.377,-56.152,-35.645,-33.691,-29.297,152.344
1678023418.380,-56.641,-34.668,-36.133,-44.434,-103.027
1678023418.384,-47.852,-32.227,-37.109,-39.062,-193.848
1678023418.388,-39.062,-40.039,-33.203,-29.785,26.855
1678023418.392,-47.852,-41.504,-34.180,-41.992,204.102
1678023418.396,-58.105,-36.133,-39.062,-54.688,-85.449
1678023418.412,-53.711,-34.668,-36.133,-52.246,-210.938
1678023418.416,-48.828,-31.250,-31.250,-49.316,-98.145
1678023418.420,-48.340,-28.320,-34.668,-48.340,-71.289
1678023418.424,-55.176,-27.344,-41.016,-48.828,-176.270
1678023418.428,-62.012,-27.832,-40.527,-53.711,-121.094
1678023418.432,-61.523,-27.344,-39.062,-58.105,65.918
1678023418.436,-50.781,-30.273,-37.598,-59.082,56.152
1678023418.439,-42.969,-34.180,-38.086,-57.129,-115.723
1678023418.443,-43.945,-34.180,-37.598,-51.270,-131.836
1678023418.447,-50.293,-35.156,-37.598,-39.062,-12.695
1678023418.451,-58.594,-34.668,-41.504,-50.781,-143.066
1678023418.455,-48.828,-33.691,-39.551,-54.688,-228.516
1678023418.460,-42.969,-40.527,-36.133,-43.945,-193.848
1678023418.464,-46.875,-42.480,-42.480,-49.805,-145.996
1678023418.468,-51.758,-32.715,-44.922,-46.387,-154.785
1678023418.472,-47.852,-32.715,-41.016,-46.875,-149.414
1678023418.476,-34.180,-39.062,-40.527,-43.457,75.195
1678023418.480,-28.320,-39.062,-41.016,-35.156,239.746
1678023418.484,-34.668,-36.621,-42.969,-37.598,30.273
1678023418.487,-46.875,-33.203,-38.574,-41.016,-108.887
1678023418.491,-50.293,-36.621,-39.551,-44.434,-51.758
1678023418.495,-40.039,-37.109,-42.969,-45.898,-28.320
1678023418.499,-35.156,-33.691,-37.598,-48.828,-158.691
1678023418.503,-35.645,-30.762,-36.133,-39.551,-168.457
1678023418.503,-46.875,-31.250,-36.133,-34.668,-40.039
1678023418.507,-52.246,-30.762,-37.598,-39.062,-66.895
1678023418.511,-40.039,-27.832,-37.109,-39.062,-128.906
1678023418.515,-28.809,-27.344,-37.598,-31.738,-41.504
1678023418.519,-22.949,-32.715,-41.016,-25.391,41.504
1678023418.523,-33.691,-33.691,-38.574,-21.973,34.180
1678023418.527,-43.457,-28.320,-32.715,-26.855,41.992
1678023418.530,-38.086,-30.273,-32.715,-35.156,21.973
1678023418.534,-22.461,-30.273,-33.691,-25.879,205.566
1678023418.538,-15.625,-25.879,-34.180,-9.766,338.867
1678023418.542,-28.320,-28.320,-31.250,-18.555,40.039
1678023418.546,-30.762,-30.273,-30.762,-21.484,-37.598
1678023418.562,-23.438,-31.738,-32.227,-14.160,15.137
1678023418.566,-25.391,-30.273,-35.156,-31.250,-155.273
1678023418.570,-23.438,-25.879,-38.086,-38.574,-191.895
1678023418.574,-25.879,-26.855,-36.133,-29.785,-80.566
1678023418.578,-40.527,-32.715,-35.156,-29.297,-87.402
1678023418.582,-45.898,-36.621,-34.180,-31.738,-68.848
1678023418.586,-40.039,-34.668,-34.668,-30.762,17.578
1678023418.589,-27.344,-30.762,-33.203,-22.461,88.379
1678023418.593,-31.738,-35.156,-30.273,-16.113,287.109
1678023418.597,-50.781,-37.109,-33.691,-34.180,63.965
1678023418.601,-48.340,-33.203,-35.645,-35.645,-151.855
1678023418.605,-38.086,-27.344,-33.691,-27.832,-52.734
1678023418.595,-31.250,-26.367,-35.156,-32.227,-72.754
1678023418.599,-27.344,-26.855,-34.180,-24.902,-97.168
1678023418.603,-34.180,-28.320,-28.320,-19.531,-59.082
1678023418.607,-30.762,-24.414,-25.879,-26.367,-112.305
1678023418.611,-21.973,-20.020,-26.367,-25.391,-173.828
1678023418.615,-20.508,-22.461,-26.855,-26.855,-98.633
1678023418.619,-23.438,-25.879,-21.973,-23.926,20.996
1678023418.622,-32.715,-27.344,-24.414,-29.785,50.293
1678023418.626,-39.062,-22.461,-30.273,-42.480,-130.859
1678023418.630,-37.598,-26.367,-27.344,-38.574,-193.359
1678023418.634,-28.809,-31.250,-25.391,-32.227,-33.203
1678023418.638,-24.902,-30.273,-23.926,-20.996,244.141
1678023418.652,-34.668,-32.227,-27.832,-21.484,128.418
1678023418.656,-38.086,-30.762,-30.762,-38.086,-152.344
1678023418.660,-33.203,-35.645,-25.879,-36.621,4.883
1678023418.664,-35.156,-40.527,-30.762,-30.273,77.637
1678023418.668,-34.668,-40.039,-34.668,-35.645,-19.043
1678023418.672,-38.574,-34.668,-30.762,-42.480,-13.184
1678023418.676,-45.410,-37.109,-28.320,-44.922,96.680
1678023418.679,-46.387,-41.992,-27.832,-39.551,351.562
1678023418.683,-53.711,-40.039,-31.738,-47.363,190.918
1678023418.687,-51.270,-36.621,-32.227,-50.293,-126.465
1678023418.691,-44.922,-31.250,-26.367,-44.434,-108.398
1678023418.695,-48.340,-25.391,-24.414,-43.457,-168.457
1678023418.700,-44.922,-27.832,-29.785,-41.016,-196.289
1678023418.704,-41.992,-37.109,-39.062,-43.457,-33.691
1678023418.708,-43.457,-36.133,-37.109,-40.039,41.504
1678023418.712,-45.410,-31.738,-33.203,-40.527,-15.137
1678023418.716,-49.805,-33.203,-30.273,-47.852,-107.910
1678023418.720,-45.410,-33.203,-30.273,-48.340,-83.496
1678023418.724,-35.645,-28.809,-34.668,-44.434,94.727
1678023418.727,-33.691,-22.949,-34.668,-42.480,18.555
1678023418.731,-41.504,-23.438,-34.180,-38.574,-149.902
1678023418.735,-48.340,-28.320,-34.180,-35.645,-63.965
1678023418.739,-41.016,-29.297,-35.156,-42.480,12.207
1678023418.743,-35.645,-27.344,-36.133,-46.387,-137.207
1678023418.727,-32.715,-27.344,-34.668,-43.457,-240.723
1678023418.731,-32.715,-31.738,-37.109,-42.969,-84.961
1678023418.735,-41.504,-34.180,-34.668,-49.316,101.562
1678023418.739,-39.551,-34.668,-39.551,-59.570,-50.781
1678023418.743,-35.156,-37.598,-41.016,-53.223,-76.660
1678023418.747,-36.621,-40.039,-35.156,-43.457,74.707
1678023418.751,-34.180,-30.273,-35.645,-41.016,81.055
1678023418.754,-43.945,-27.344,-34.668,-39.062,-46.875
1678023418.758,-49.316,-33.691,-35.645,-38.574,-188.477
1678023418.762,-40.039,-34.668,-33.691,-31.250,-46.387
1678023418.766,-34.668,-33.203,-32.227,-22.461,243.164
1678023418.770,-38.086,-32.227,-37.598,-37.598,28.809
1678023418.787,-46.387,-32.227,-39.062,-42.480,-171.387
1678023418.791,-40.527,-33.691,-37.598,-41.504,-80.078
1678023418.795,-29.297,-32.227,-37.109,-42.480,-119.629
1678023418.799,-25.879,-31.738,-34.180,-40.039,-214.844
1678023418.803,-18.066,-26.367,-32.227,-33.691,-153.320
1678023418.807,-25.391,-22.949,-29.785,-31.250,-12.207
1678023418.811,-39.551,-23.438,-25.391,-39.062,-44.922
1678023418.814,-34.668,-27.832,-24.414,-41.504,-164.062
1678023418.818,-22.949,-32.227,-29.785,-39.062,-109.375
1678023418.822,-27.344,-32.715,-32.715,-41.016,-3.418
1678023418.826,-49.316,-35.645,-28.320,-49.316,-84.961
1678023418.830,-48.340,-32.227,-27.344,-41.016,-166.992
1678023418.862,-41.016,-29.785,-28.809,-36.621,-39.062
1678023418.866,-42.480,-30.762,-25.391,-29.297,198.730
1678023418.870,-51.270,-29.785,-30.273,-27.344,-2.441
1678023418.874,-59.570,-29.297,-37.109,-38.086,-135.254
1678023418.878,-59.570,-30.762,-29.785,-33.691,73.242
1678023418.882,-54.688,-32.227,-30.273,-27.832,149.414
1678023418.886,-46.875,-31.738,-37.598,-33.691,-51.758
1678023418.889,-49.805,-31.738,-40.039,-46.387,-167.969
1678023418.893,-61.523,-35.645,-37.109,-37.109,90.332
1678023418.897,-64.941,-33.691,-36.133,-24.414,225.098
1678023418.901,-62.988,-30.762,-41.504,-38.574,-99.609
1678023418.905,-59.082,-35.156,-38.574,-42.969,-187.500
1678023418.896,-55.664,-36.621,-34.668,-37.109,-120.605
1678023418.900,-57.617,-34.180,-36.621,-38.086,-172.363
1678023418.904,-62.500,-34.668,-34.668,-41.992,-194.336
1678023418.908,-57.129,-32.227,-35.156,-42.480,-144.043
1678023418.912,-44.922,-29.785,-32.227,-39.551,-105.469
1678023418.916,-44.922,-34.668,-28.809,-34.180,-64.941
1678023418.920,-55.176,-37.109,-31.738,-33.203,-1.465
1678023418.923,-53.223,-35.156,-32.715,-34.180,25.879
1678023418.927,-48.828,-35.156,-32.227,-30.762,27.832
1678023418.931,-45.898,-39.062,-33.691,-25.391,-109.863
1678023418.935,-40.527,-43.457,-31.738,-26.367,-141.113
1678023418.939,-47.363,-40.527,-35.156,-33.691,-1.953
1678023418.922,-53.711,-39.551,-39.551,-36.133,-31.738
1678023418.926,-45.898,-37.598,-40.527,-41.992,-148.926
1678023418.930,-31.250,-34.668,-35.156,-38.574,-156.738
1678023418.934,-19.531,-28.809,-29.297,-22.461,-27.832
1678023418.938,-29.297,-32.715,-27.832,-19.043,215.332
1678023418.942,-50.781,-43.945,-30.273,-36.133,58.594
1678023418.946,-51.758,-41.992,-32.715,-42.969,-83.008
1678023418.949,-37.109,-34.180,-35.156,-42.480,-38.086
1678023418.953,-31.738,-33.691,-36.133,-50.293,-62.500
1678023418.957,-36.621,-34.180,-31.250,-43.457,-132.324
1678023418.961,-44.434,-34.668,-29.297,-41.504,-155.273
1678023418.965,-39.062,-35.156,-29.785,-40.527,31.738
1678023418.971,-23.438,-31.738,-31.738,-30.762,393.066
1678023418.975,-31.250,-34.180,-38.086,-32.227,354.980
1678023418.979,-40.039,-33.691,-37.109,-41.016,-16.602
1678023418.983,-31.738,-36.133,-36.621,-45.898,-174.316
1678023418.987,-25.391,-36.621,-40.039,-42.480,-113.281
1678023418.991,-22.949,-36.133,-37.598,-39.062,-40.527
1678023418.995,-21.973,-37.598,-35.156,-39.062,2.930
1678023418.998,-20.020,-31.738,-33.691,-32.227,273.438
1678023419.002,-28.320,-31.250,-36.133,-41.016,88.379
1678023419.006,-33.691,-30.762,-37.109,-53.223,-215.332
1678023419.010,-27.344,-32.227,-34.180,-43.457,-104.004
1678023419.014,-15.137,-32.715,-33.691,-34.668,-19.531
1678023419.012,-12.207,-32.227,-36.133,-28.320,-91.797
1678023419.016,-24.902,-33.203,-38.086,-30.762,-142.090
1678023419.020,-31.738,-34.668,-33.691,-39.062,-53.223
1678023419.024,-30.273,-36.133,-32.715,-36.133,2.930
1678023419.028,-25.391,-32.715,-34.180,-33.691,-41.016
1678023419.032,-19.531,-30.762,-34.180,-32.227,8.301
1678023419.036,-20.508,-29.297,-36.133,-24.902,205.078
1678023419.039,-29.297,-34.180,-33.691,-16.113,424.805
1678023419.043,-36.621,-39.062,-34.180,-24.414,117.676
1678023419.047,-34.180,-33.691,-31.250,-39.551,-207.520
1678023419.051,-26.367,-32.715,-24.902,-38.574,-149.414
1678023419.055,-32.227,-31.738,-24.902,-38.574,-160.645
1678023419.088,-44.922,-31.738,-24.414,-40.039,-169.434
1678023419.092,-44.434,-34.180,-26.367,-39.551,-145.020
1678023419.096,-40.039,-35.156,-35.156,-50.293,-72.266
1678023419.100,-37.109,-36.621,-35.156,-49.805,-86.426
1678023419.104,-42.480,-33.691,-31.250,-38.574,-131.836
1678023419.108,-49.316,-31.738,-30.762,-42.480,-56.641
1678023419.112,-43.945,-30.273,-30.762,-42.480,162.598
1678023419.115,-37.598,-30.762,-33.203,-41.504,124.512
1678023419.119,-31.738,-33.203,-34.668,-40.039,-130.859
1678023419.123,-35.156,-37.598,-32.227,-36.621,-79.590
1678023419.127,-47.363,-42.969,-32.227,-41.016,82.520
1678023419.131,-52.246,-40.527,-36.133,-49.316,-114.258
1678023419.105,-32.715,-43.945,-35.645,-33.691,-238.770
1678023419.109,-20.996,-41.016,-38.086,-20.996,-123.047
1678023419.113,-46.875,-36.133,-38.574,-41.992,-87.891
1678023419.117,-54.199,-32.227,-38.574,-51.758,-86.426
1678023419.121,-36.133,-26.367,-45.410,-38.574,-44.922
1678023419.125,-28.809,-31.250,-45.898,-33.691,44.434
1678023419.129,-26.855,-35.645,-37.598,-34.180,29.297
1678023419.132,-37.109,-35.156,-37.598,-42.969,-115.723
1678023419.136,-48.828,-31.738,-42.480,-50.293,-91.797
1678023419.140,-42.480,-29.785,-41.016,-44.434,-3.418
1678023419.144,-36.133,-29.785,-36.621,-40.527,-39.551
1678023419.148,-36.621,-29.785,-34.668,-36.621,-125.488
1678023419.179,-37.109,-31.738,-35.645,-32.227,-146.484
1678023419.183,-35.156,-33.691,-33.203,-20.996,125.000
1678023419.187,-38.574,-35.645,-35.156,-23.926,235.840
1678023419.191,-43.457,-34.668,-34.180,-44.434,-65.918
1678023419.195,-41.016,-34.668,-27.344,-41.016,-180.664
1678023419.199,-34.180,-37.598,-23.926,-20.508,207.520
1678023419.203,-40.039,-32.715,-26.855,-26.855,342.773
1678023419.206,-51.270,-35.156,-29.785,-52.246,-181.152
1678023419.210,-47.363,-39.551,-28.320,-47.852,-214.844
1678023419.214,-37.109,-33.691,-35.156,-43.945,-42.969
1678023419.218,-36.621,-32.227,-35.156,-42.480,-88.867
1678023419.222,-51.758,-30.762,-30.762,-42.480,-170.410
1678023419.402,-56.641,-32.227,-34.668,-38.086,-95.703
1678023419.406,-50.781,-40.039,-34.180,-37.109,-83.496
1678023419.410,-41.016,-35.156,-29.785,-40.039,-127.930
1678023419.414,-32.227,-28.320,-28.320,-27.832,-59.570
1678023419.418,-32.715,-33.691,-23.926,-23.438,50.781
1678023419.422,-41.504,-36.133,-24.414,-24.902,134.277
1678023419.426,-39.551,-34.180,-27.344,-34.180,12.207
1678023419.429,-27.832,-30.762,-26.367,-33.691,-84.473
1678023419.433,-26.367,-30.273,-27.344,-26.367,-55.176
1678023419.437,-29.297,-28.320,-32.227,-29.297,-63.477
1678023419.441,-38.086,-29.297,-32.227,-30.273,-165.527
1678023419.445,-36.621,-33.691,-30.762,-43.457,-137.207
1678023419.420,-26.367,-33.203,-35.645,-41.016,47.363
1678023419.424,-25.879,-31.250,-37.109,-19.043,348.633
1678023419.428,-40.039,-28.809,-38.086,-28.809,127.441
1678023419.432,-46.387,-28.809,-34.668,-41.504,-172.363
1678023419.436,-35.156,-28.809,-27.832,-35.645,-183.105
1678023419.440,-29.297,-31.250,-28.809,-39.551,-143.066
1678023419.444,-29.297,-31.250,-32.227,-40.527,-73.242
1678023419.447,-28.809,-26.855,-29.297,-27.344,-65.918
1678023419.451,-38.574,-30.273,-27.344,-29.785,-46.387
1678023419.455,-43.457,-31.738,-31.250,-37.598,-111.816
1678023419.459,-40.039,-33.203,-29.297,-32.715,-257.324
1678023419.463,-36.621,-38.086,-25.879,-27.832,-89.355
1678023419.508,-31.250,-36.133,-24.902,-30.762,45.898
1678023419.512,-35.156,-30.273,-28.320,-41.016,-111.816
1678023419.516,-40.039,-31.250,-28.320,-47.363,-68.359
1678023419.520,-35.156,-32.715,-27.344,-34.668,170.898
1678023419.524,-25.391,-31.250,-26.367,-24.902,181.152
1678023419.528,-23.438,-29.297,-24.902,-30.273,89.844
1678023419.532,-32.715,-28.809,-27.832,-34.668,38.086
1678023419.535,-37.109,-30.762,-34.180,-43.457,-59.082
1678023419.539,-33.691,-30.762,-32.715,-41.016,-91.797
1678023419.543,-31.250,-29.785,-22.949,-35.645,-124.512
1678023419.547,-33.691,-31.738,-23.926,-33.691,-102.539
1678023419.551,-37.109,-32.715,-29.297,-35.645,-80.566
1678023419.514,-41.504,-32.227,-34.180,-44.922,-122.559
1678023419.518,-36.621,-30.762,-36.133,-45.898,-145.996
1678023419.522,-23.438,-29.297,-31.738,-36.621,-105.469
1678023419.526,-28.809,-33.203,-29.297,-37.109,-63.965
1678023419.530,-47.363,-33.691,-32.715,-42.480,-73.730
1678023419.534,-48.340,-37.109,-31.250,-40.039,-92.773
1678023419.538,-41.992,-38.086,-29.297,-36.621,-14.160
1678023419.541,-39.062,-36.621,-34.180,-37.109,155.273
1678023419.545,-34.180,-37.598,-38.574,-46.387,53.223
1678023419.549,-39.551,-39.551,-36.621,-52.246,-124.512
1678023419.553,-50.781,-40.039,-32.227,-52.734,-48.340
1678023419.557,-46.875,-37.598,-33.691,-51.758,32.715
1678023419.518,-43.457,-40.039,-36.133,-46.875,-130.371
1678023419.522,-46.387,-42.480,-33.203,-45.410,-164.551
1678023419.526,-48.340,-37.109,-34.180,-45.410,-12.207
1678023419.530,-53.711,-34.668,-33.203,-42.480,-2.441
1678023419.534,-49.316,-34.180,-28.809,-48.340,-29.297
1678023419.538,-40.039,-34.180,-28.809,-51.270,-28.320
1678023419.542,-40.039,-34.668,-26.855,-47.363,129.395
1678023419.545,-45.898,-30.762,-22.949,-43.945,132.324
1678023419.549,-51.270,-29.297,-24.902,-45.410,-151.367
1678023419.553,-52.734,-34.668,-25.879,-55.176,-229.004
1678023419.557,-51.758,-41.992,-28.320,-60.547,-128.418
1678023419.561,-56.152,-40.527,-30.762,-56.152,-117.676
1678023419.542,-61.035,-35.645,-30.273,-55.176,-187.500
1678023419.546,-60.059,-37.109,-34.180,-56.641,-192.871
1678023419.550,-53.223,-40.527,-33.203,-53.223,-119.629
1678023419.554,-46.875,-40.527,-35.156,-53.711,-90.332
1678023419.558,-44.922,-38.574,-33.691,-51.270,-130.371
1678023419.562,-45.898,-38.086,-31.738,-46.875,23.926
1678023419.566,-46.875,-32.715,-30.273,-51.270,150.391
1678023419.569,-49.805,-29.297,-28.809,-55.664,0.488
1678023419.573,-47.852,-34.668,-26.367,-46.875,-141.602
1678023419.577,-40.527,-38.086,-26.367,-36.621,-62.988
1678023419.581,-38.086,-37.109,-28.320,-26.367,333.008
1678023419.585,-56.641,-38.574,-31.250,-34.180,249.512
1678023419.598,-63.477,-36.621,-37.598,-48.828,-126.953
1678023419.602,-43.945,-32.715,-40.039,-40.527,-123.535
1678023419.606,-33.691,-32.715,-42.969,-26.367,239.258
1678023419.610,-35.156,-30.762,-44.922,-27.832,251.465
1678023419.614,-46.387,-26.855,-38.574,-36.621,-85.938
1678023419.618,-44.434,-29.785,-35.645,-32.227,21.973
1678023419.622,-32.227,-34.180,-34.668,-30.762,112.305
1678023419.625,-29.785,-34.180,-34.180,-39.062,-90.332
1678023419.629,-35.645,-35.156,-31.738,-36.133,-188.965
1678023419.633,-43.945,-32.227,-33.203,-34.180,-29.297
1678023419.637,-40.039,-31.250,-39.551,-45.898,-48.828
1678023419.641,-33.691,-27.832,-35.156,-44.922,-233.887
1678023419.604,-25.391,-22.461,-29.297,-33.691,-185.547
1678023419.608,-20.020,-23.926,-30.273,-26.367,128.418
1678023419.612,-29.297,-26.367,-30.762,-29.785,161.621
1678023419.616,-33.203,-27.832,-31.250,-40.527,-126.953
1678023419.620,-28.809,-28.809,-27.832,-36.133,-148.438
1678023419.624,-25.391,-26.367,-26.367,-26.367,-54.199
1678023419.628,-37.598,-25.391,-33.691,-25.879,-0.977
1678023419.631,-56.641,-27.832,-37.109,-35.156,-117.676
1678023419.635,-58.105,-24.902,-29.785,-33.691,-111.816
1678023419.639,-49.805,-28.809,-28.809,-36.133,18.066
1678023419.643,-43.945,-30.273,-30.273,-42.969,-108.887
1678023419.647,-42.480,-29.297,-28.320,-41.992,-206.543
1678023419.609,-48.340,-30.762,-29.785,-49.316,-91.309
1678023419.613,-54.199,-32.227,-29.297,-43.457,210.938
1678023419.617,-45.898,-31.250,-26.855,-33.203,380.371
1678023419.621,-29.297,-26.367,-28.320,-32.227,480.469
1678023419.625,-28.809,-23.926,-30.762,-33.203,233.887
1678023419.629,-41.504,-23.926,-29.785,-43.457,-87.891
1678023419.633,-47.363,-21.484,-25.391,-47.852,-79.102
1678023419.636,-51.270,-21.484,-23.926,-47.852,-212.891
1678023419.640,-37.109,-16.602,-20.508,-33.203,-135.742
1678023419.644,-34.668,-10.742,-26.367,-21.484,252.441
1678023419.648,-62.012,-10.742,-40.039,-46.875,146.973
1678023419.652,-72.266,-9.277,-39.062,-72.266,-176.758
1678023419.646,-77.148,-9.277,-32.715,-77.637,-42.480
1678023419.650,-75.684,-0.488,-24.414,-86.426,-38.574
1678023419.654,-76.660,17.090,-25.879,-103.516,-166.016
1678023419.658,-93.262,24.902,-31.738,-110.840,-190.430
1678023419.662,-120.605,26.367,-24.414,-121.094,-89.844
1678023419.666,-134.277,31.250,-17.090,-150.391,-137.207
1678023419.670,-143.555,42.969,-11.230,-169.434,-259.277
1678023419.673,-164.551,53.223,-5.859,-170.898,-82.031
1678023419.677,-188.965,47.852,-18.555,-182.617,-56.152
1678023419.681,-206.055,51.270,-29.785,-199.219,-173.828
1678023419.685,-216.309,59.082,-19.531,-209.473,-198.242
1678023419.689,-213.867,59.082,-1.465,-204.102,-141.113
1678023419.672,-208.496,62.012,0.000,-194.824,160.156
1678023419.676,-215.332,67.383,-7.324,-202.637,351.562
1678023419.680,-223.633,61.523,-7.812,-207.031,304.688
1678023419.684,-232.910,48.828,-4.395,-218.750,97.656
1678023419.688,-224.609,52.734,-7.324,-230.469,-161.621
1678023419.692,-204.102,59.570,-1.465,-210.938,-186.035
1678023419.696,-203.613,58.594,-0.977,-207.031,-147.949
1678023419.699,-212.402,48.828,-14.160,-224.121,-26.855
1678023419.703,-207.520,44.922,-14.648,-211.914,-55.176
1678023419.707,-198.242,42.480,-15.137,-197.266,-205.566
1678023419.711,-186.523,37.109,-20.996,-195.801,-199.219
1678023419.715,-175.781,34.668,-16.602,-183.105,7.324
1678023419.719,-178.711,30.762,-15.137,-173.828,332.031
1678023419.723,-185.059,26.855,-23.438,-182.129,170.898
1678023419.727,-163.574,22.461,-29.297,-183.105,-162.598
1678023419.731,-135.254,20.996,-23.926,-153.320,-169.434
1678023419.735,-125.000,13.184,-20.996,-134.766,-180.664
1678023419.739,-118.652,5.859,-25.391,-126.953,-199.707
1678023419.743,-102.539,-2.930,-28.320,-100.098,-81.055
1678023419.746,-77.637,-16.602,-29.297,-71.289,36.133
1678023419.750,-54.199,-23.926,-35.156,-56.152,-112.793
1678023419.754,-24.414,-30.273,-38.574,-33.691,-229.004
1678023419.758,-7.324,-41.504,-38.574,-6.348,-126.953
1678023419.762,-4.883,-49.805,-37.598,11.719,123.535
1678023419.762,3.418,-55.664,-39.062,13.184,-11.719
1678023419.766,21.973,-60.059,-41.016,16.113,-226.074
1678023419.770,33.203,-68.848,-37.109,35.645,-97.656
1678023419.774,28.809,-80.078,-36.621,44.922,-21.484
1678023419.778,28.320,-79.102,-36.621,45.898,-44.434
1678023419.782,33.203,-82.031,-36.621,48.340,-145.996
1678023419.786,36.621,-87.891,-40.527,46.387,45.898
1678023419.789,46.875,-88.379,-40.527,55.176,341.309
1678023419.793,45.410,-83.984,-40.527,61.523,41.016
1678023419.797,40.039,-89.355,-49.805,54.688,-193.359
1678023419.801,43.945,-92.773,-48.828,51.270,-107.910
1678023419.805,46.387,-89.355,-41.992,50.293,-96.191
1678023419.810,50.293,-87.402,-41.992,60.547,-167.480
1678023419.814,53.223,-85.449,-42.969,61.035,-193.848
1678023419.818,48.828,-82.031,-39.551,49.805,-105.469
1678023419.822,40.527,-79.590,-37.598,53.711,-126.465
1678023419.826,41.016,-82.031,-41.504,49.316,-160.156
1678023419.830,46.875,-83.984,-41.992,45.410,-29.297
1678023419.834,51.758,-83.008,-39.062,70.801,254.395
1678023419.837,43.945,-81.055,-39.551,67.383,170.410
1678023419.841,34.180,-75.195,-39.551,53.223,-162.109
1678023419.845,38.086,-75.684,-45.410,54.199,-173.828
1678023419.849,41.504,-75.195,-43.945,48.828,-62.988
1678023419.853,40.527,-72.754,-41.992,46.875,-42.969
1678023419.853,37.109,-72.266,-46.875,44.434,-174.805
1678023419.857,36.133,-69.824,-45.410,43.945,-151.855
1678023419.861,31.250,-68.359,-46.875,38.086,-68.848
1678023419.865,30.762,-66.406,-42.969,41.016,-86.426
1678023419.869,31.738,-64.453,-38.086,52.734,-147.949
1678023419.873,28.809,-62.500,-37.598,53.711,9.277
1678023419.877,26.855,-62.988,-41.504,52.734,408.691
1678023419.880,25.879,-62.012,-43.457,47.363,196.777
1678023419.884,29.297,-60.547,-39.551,41.016,-170.410
1678023419.888,35.156,-61.035,-39.062,31.250,-34.668
1678023419.892,24.902,-62.012,-38.574,29.297,-8.301
1678023419.896,6.348,-65.918,-40.039,19.043,-162.598
1678023419.912,8.301,-67.871,-43.457,5.859,-156.250
1678023419.916,15.137,-58.594,-37.598,8.301,-134.766
1678023419.920,14.648,-50.293,-35.645,14.160,-148.926
1678023419.924,11.719,-50.293,-43.945,15.625,-145.020
1678023419.928,3.906,-51.758,-46.387,8.789,-66.895
1678023419.932,2.441,-52.246,-46.875,6.348,178.711
1678023419.936,10.254,-53.223,-41.504,10.742,202.148
1678023419.939,13.184,-51.758,-35.645,12.695,3.906
1678023419.943,3.906,-51.758,-38.086,12.207,-32.227
1678023419.947,-3.906,-50.293,-37.109,14.160,47.363
1678023419.951,-6.836,-45.410,-38.574,3.906,-83.008
1678023419.955,-4.883,-42.969,-36.133,-2.930,-154.297
1678023419.957,6.836,-38.086,-31.250,2.930,-102.539
1678023419.961,5.371,-36.133,-32.227,4.395,-113.281
1678023419.965,-4.395,-40.527,-31.738,-1.953,-124.023
1678023419.969,-5.859,-42.480,-36.133,-12.695,-101.562
1678023419.973,2.930,-43.945,-35.645,-11.230,106.445
1678023419.977,2.930,-46.875,-32.227,-7.324,189.941
1678023419.981,-10.742,-45.410,-35.156,-16.113,15.137
1678023419.984,-16.602,-46.387,-37.109,-20.508,-41.016
1678023419.988,-17.578,-50.781,-36.133,-17.090,114.746
1678023419.992,-14.160,-51.270,-36.133,-13.672,221.191
1678023419.996,-12.695,-46.875,-36.621,-19.043,-6.348
1678023420.000,-10.254,-40.527,-38.574,-16.113,-123.047
1678023420.017,-15.137,-35.156,-37.598,-9.766,-102.539
1678023420.021,-19.531,-36.621,-36.133,-15.137,-128.906
1678023420.025,-14.160,-37.598,-37.598,-19.043,-207.520
1678023420.029,-5.371,-37.598,-33.203,-12.695,-166.504
1678023420.033,-3.418,-39.551,-31.738,-8.789,-45.410
1678023420.037,-15.137,-40.527,-32.715,-8.301,50.293
1678023420.041,-19.043,-39.551,-32.227,-17.090,11.719
1678023420.044,-8.789,-37.598,-33.203,-12.695,-106.445
1678023420.048,-9.766,-42.480,-36.133,-3.906,173.340
1678023420.052,-21.484,-45.410,-35.645,-13.184,97.656
1678023420.056,-32.227,-41.016,-33.203,-20.508,-244.629
1678023420.060,-29.785,-42.480,-30.273,-21.484,-145.508
1678023420.048,-24.414,-40.527,-31.738,-30.273,-86.426
1678023420.052,-23.438,-29.297,-33.691,-33.203,-174.805
1678023420.056,-21.973,-27.832,-30.762,-25.879,-197.754
1678023420.060,-32.227,-31.738,-31.738,-27.344,-31.738
1678023420.064,-37.598,-33.691,-33.203,-35.156,24.902
1678023420.068,-38.086,-35.156,-37.598,-39.062,-3.418
1678023420.072,-35.156,-30.273,-36.621,-37.598,5.859
1678023420.075,-27.832,-29.785,-34.180,-27.344,76.660
1678023420.079,-35.156,-34.668,-36.621,-25.879,18.555
1678023420.083,-45.410,-37.109,-38.086,-31.250,-95.703
1678023420.087,-37.598,-34.180,-36.621,-35.156,-99.609
1678023420.091,-33.203,-33.203,-32.227,-24.902,71.289
1678023420.108,-37.109,-38.574,-38.086,-15.625,226.562
1678023420.112,-47.852,-40.527,-40.527,-30.762,-85.449
1678023420.116,-54.688,-42.969,-37.109,-33.203,-200.195
1678023420.120,-48.340,-43.945,-39.551,-36.621,-183.105
1678023420.124,-35.645,-37.109,-40.039,-35.156,-172.363
1678023420.128,-28.320,-36.133,-37.109,-29.785,-102.051
1678023420.132,-31.738,-38.086,-32.227,-28.320,-12.695
1678023420.135,-31.250,-37.109,-27.832,-23.926,219.238
1678023420.139,-26.367,-29.297,-27.832,-29.785,48.340
1678023420.143,-20.508,-25.391,-28.809,-34.180,-202.637
1678023420.147,-21.973,-32.715,-30.762,-34.668,-73.730
1678023420.151,-31.738,-33.203,-35.156,-36.133,-12.207
1678023420.138,-41.504,-32.715,-34.668,-33.691,-146.484
1678023420.142,-41.992,-39.062,-36.621,-44.922,-154.297
1678023420.146,-36.133,-43.457,-37.109,-45.898,69.336
1678023420.150,-31.250,-41.992,-31.738,-33.203,123.535
1678023420.154,-30.273,-40.527,-33.691,-38.086,-29.785
1678023420.158,-35.645,-42.480,-38.086,-38.574,-92.773
1678023420.162,-38.574,-37.109,-37.598,-32.227,162.598
1678023420.165,-37.109,-36.133,-37.109,-36.621,249.023
1678023420.169,-36.621,-37.598,-34.668,-38.574,-29.785
1678023420.173,-38.086,-34.180,-28.809,-36.133,-160.645
1678023420.177,-38.574,-36.133,-26.855,-35.645,24.414
1678023420.181,-40.039,-37.598,-26.855,-35.645,202.148
1678023420.184,-43.945,-38.086,-29.297,-40.039,-82.520
1678023420.188,-42.480,-35.645,-34.180,-36.621,-133.789
1678023420.192,-37.598,-35.156,-34.180,-36.621,-82.031
1678023420.196,-41.992,-39.062,-32.227,-38.574,-110.352
1678023420.200,-43.457,-32.227,-29.297,-40.039,-116.211
1678023420.204,-36.133,-29.785,-28.809,-45.898,-110.352
1678023420.208,-28.809,-37.109,-26.855,-29.297,171.387
1678023420.211,-39.062,-42.969,-32.227,-26.367,191.406
1678023420.215,-54.688,-44.434,-42.480,-45.410,-167.969
1678023420.219,-52.734,-38.574,-38.086,-50.781,-176.270
1678023420.223,-44.434,-35.645,-34.668,-51.758,-123.535
1678023420.227,-35.156,-33.691,-37.109,-42.480,-171.875
1678023420.227,-30.273,-32.715,-32.227,-35.645,-142.578
1678023420.231,-40.527,-34.668,-29.785,-41.016,-76.660
1678023420.235,-43.457,-33.691,-28.809,-42.480,-79.590
1678023420.239,-32.227,-31.738,-28.809,-40.039,-55.664
1678023420.243,-33.691,-34.180,-33.203,-37.598,20.508
1678023420.247,-38.086,-37.598,-29.297,-28.809,147.461
1678023420.251,-39.551,-39.062,-29.297,-29.297,365.234
1678023420.254,-48.828,-33.691,-38.086,-33.203,125.488
1678023420.258,-51.758,-36.621,-36.621,-45.898,-220.703
1678023420.262,-41.504,-41.016,-31.738,-48.340,-96.191
1678023420.266,-36.621,-34.180,-30.273,-36.621,-61.035
1678023420.270,-43.457,-30.762,-29.785,-35.645,-219.727
1678023420.287,-49.316,-35.645,-28.809,-35.645,-159.668
1678023420.291,-46.387,-34.668,-28.809,-39.062,-133.789
1678023420.295,-42.969,-26.855,-29.297,-40.039,-96.191
1678023420.299,-37.598,-26.367,-29.785,-29.785,-88.379
1678023420.303,-37.598,-26.855,-31.738,-32.715,-98.633
1678023420.307,-41.992,-28.320,-33.691,-34.180,115.234
1678023420.311,-41.992,-29.297,-34.668,-40.039,63.477
1678023420.314,-36.133,-27.832,-37.598,-55.176,-142.090
1678023420.318,-21.484,-27.832,-34.180,-45.410,-47.852
1678023420.322,-19.043,-32.227,-33.203,-29.297,294.434
1678023420.326,-39.551,-34.668,-37.598,-39.062,201.172
1678023420.330,-49.805,-32.227,-32.227,-45.410,-149.902
1678023420.332,-41.992,-30.762,-24.414,-40.527,-153.320
1678023420.336,-38.086,-34.180,-27.344,-36.621,-75.684
1678023420.340,-38.086,-34.180,-26.855,-31.250,-101.074
1678023420.344,-44.434,-33.203,-26.855,-42.480,-116.211
1678023420.348,-43.945,-34.180,-30.273,-40.039,78.125
1678023420.352,-31.738,-30.273,-32.227,-26.367,82.031
1678023420.356,-26.855,-28.320,-33.691,-29.297,-53.223
1678023420.359,-29.785,-30.273,-31.738,-35.156,-144.043
1678023420.363,-38.574,-32.227,-33.691,-31.250,2.930
1678023420.367,-43.457,-30.762,-34.668,-34.668,156.738
1678023420.371,-39.551,-32.227,-32.715,-44.434,-57.617
1678023420.375,-33.691,-30.762,-31.738,-41.016,-71.289
1678023420.378,-35.156,-33.691,-30.762,-38.574,-18.555
1678023420.382,-41.992,-36.133,-30.762,-36.621,-65.918
1678023420.386,-44.434,-33.691,-30.762,-38.574,-172.363
1678023420.390,-37.109,-31.250,-27.832,-35.645,-171.875
1678023420.394,-27.832,-26.855,-32.227,-32.227,-99.609
1678023420.398,-29.785,-24.902,-36.133,-32.227,-45.410
1678023420.402,-37.109,-23.438,-31.738,-28.320,-72.754
1678023420.405,-41.992,-29.785,-33.203,-31.250,-102.051
1678023420.409,-40.527,-33.203,-35.645,-25.391,55.176
1678023420.413,-41.016,-29.297,-34.668,-27.344,-40.039
1678023420.417,-49.805,-32.715,-38.086,-40.527,-192.871
1678023420.421,-56.641,-33.691,-38.574,-39.062,-115.723
1678023420.423,-52.734,-33.691,-33.691,-36.621,-87.402
1678023420.427,-46.875,-32.227,-34.180,-37.598,-87.402
1678023420.431,-41.992,-31.738,-35.156,-44.922,-164.062
1678023420.435,-36.133,-34.180,-31.250,-27.832,16.602
1678023420.439,-42.969,-29.297,-29.297,-12.207,214.355
1678023420.443,-48.340,-24.414,-25.391,-28.320,-33.203
1678023420.447,-45.410,-29.297,-29.297,-39.062,-59.570
1678023420.450,-40.039,-31.738,-34.668,-30.273,160.156
1678023420.454,-39.551,-30.273,-31.738,-27.344,168.945
1678023420.458,-49.316,-31.250,-28.320,-37.598,-124.023
1678023420.462,-57.617,-32.715,-28.809,-40.039,-141.113
1678023420.466,-55.664,-32.715,-33.203,-45.410,-31.738
1678023420.469,-45.898,-29.297,-31.250,-48.340,-61.035
1678023420.473,-38.574,-25.391,-32.227,-46.875,-122.559
1678023420.477,-41.504,-28.320,-34.180,-49.316,-112.793
1678023420.481,-53.223,-34.668,-34.180,-48.340,1.953
1678023420.485,-55.176,-36.133,-39.062,-51.270,-33.691
1678023420.489,-45.410,-31.250,-41.016,-51.758,-90.332
1678023420.493,-34.668,-32.715,-35.645,-40.527,17.090
1678023420.496,-36.133,-38.086,-33.203,-34.668,226.562
1678023420.500,-43.945,-35.645,-34.180,-40.527,114.746
1678023420.504,-40.039,-30.273,-28.320,-42.480,-134.277
1678023420.508,-33.691,-32.227,-31.250,-44.922,-118.652
1678023420.512,-33.691,-39.062,-39.062,-47.852,-94.727
1678023420.512,-36.621,-40.527,-43.457,-46.387,-106.934
1678023420.516,-43.945,-34.668,-39.062,-46.875,-108.887
1678023420.520,-45.410,-33.203,-33.203,-40.527,-84.961
1678023420.524,-37.109,-30.762,-34.180,-35.156,-85.938
1678023420.528,-29.297,-25.879,-35.645,-36.133,-120.605
1678023420.532,-29.297,-33.203,-38.574,-41.504,-127.441
1678023420.536,-35.645,-39.551,-40.527,-35.645,25.391
1678023420.539,-42.969,-39.551,-43.457,-30.273,357.910
1678023420.543,-44.922,-37.598,-40.039,-38.086,281.250
1678023420.547,-40.527,-40.527,-38.086,-47.363,-128.906
1678023420.551,-34.668,-34.668,-35.156,-41.992,-115.723
1678023420.555,-37.598,-31.738,-33.691,-36.133,-53.223
1678023420.559,-40.527,-38.574,-37.598,-38.574,-142.090
1678023420.563,-26.855,-34.668,-36.133,-42.480,-163.086
1678023420.567,-17.578,-30.762,-36.621,-33.203,-113.281
1678023420.571,-26.367,-35.156,-39.062,-30.273,-103.516
1678023420.575,-33.691,-38.086,-39.551,-35.156,-160.156
1678023420.579,-31.738,-36.621,-36.621,-32.715,3.418
1678023420.583,-27.832,-32.715,-34.180,-31.738,292.969
1678023420.586,-31.738,-33.203,-38.574,-33.203,166.992
1678023420.590,-34.668,-35.156,-43.457,-33.203,-53.711
1678023420.594,-41.016,-40.039,-39.551,-30.273,-32.715
1678023420.598,-47.363,-43.945,-40.527,-32.715,69.336
1678023420.602,-44.922,-41.992,-44.434,-38.574,-41.016
1678023420.617,-39.062,-41.992,-38.086,-36.133,-172.363
1678023420.621,-39.551,-45.898,-36.133,-30.273,-145.020
1678023420.625,-48.340,-42.480,-42.480,-30.273,-87.402
1678023420.629,-48.340,-35.645,-42.480,-30.762,-40.527
1678023420.633,-39.551,-36.133,-40.527,-34.668,-92.285
1678023420.637,-38.086,-37.598,-37.598,-36.133,69.824
1678023420.641,-34.668,-36.133,-34.180,-25.879,348.145
1678023420.644,-45.410,-36.133,-36.133,-33.203,74.219
1678023420.648,-61.035,-39.062,-39.551,-51.758,-172.363
1678023420.652,-54.199,-41.504,-41.016,-45.898,-85.449
1678023420.656,-41.992,-39.551,-36.133,-42.969,-70.801
1678023420.660,-39.062,-39.062,-31.250,-46.875,-174.805
1678023420.651,-40.527,-38.086,-38.574,-43.945,-101.074
1678023420.655,-47.852,-36.621,-36.621,-39.551,8.789
1678023420.659,-51.270,-36.133,-31.250,-45.898,-104.492
1678023420.663,-42.969,-30.762,-34.180,-51.270,-240.723
1678023420.667,-34.668,-27.832,-29.297,-49.316,-94.238
1678023420.671,-36.621,-31.250,-29.297,-45.410,41.504
1678023420.675,-44.434,-32.227,-32.227,-47.363,-54.199
1678023420.678,-45.410,-32.227,-30.762,-44.434,-174.805
1678023420.682,-39.551,-35.645,-29.297,-25.391,-113.770
1678023420.686,-29.297,-32.715,-30.762,-12.695,166.992
1678023420.690,-29.785,-29.785,-35.156,-23.926,49.805
1678023420.694,-35.156,-29.297,-35.645,-28.320,-198.242
1678023420.707,-32.715,-25.879,-32.227,-22.461,-77.148
1678023420.711,-28.320,-28.320,-30.762,-29.785,-17.090
1678023420.715,-23.926,-32.227,-34.668,-32.227,-132.812
1678023420.719,-20.020,-30.273,-36.133,-22.461,-54.688
1678023420.723,-26.367,-35.645,-30.273,-15.137,131.836
1678023420.727,-34.668,-39.551,-31.738,-18.555,347.656
1678023420.731,-32.715,-33.691,-35.645,-35.156,167.969
1678023420.734,-33.203,-32.227,-38.086,-35.645,-123.535
1678023420.738,-34.668,-33.203,-34.180,-31.738,-26.855
1678023420.742,-35.645,-33.203,-29.785,-37.598,-62.988
1678023420.746,-41.016,-32.715,-29.785,-40.527,-207.520
1678023420.750,-43.945,-35.156,-29.785,-40.527,-194.336
1678023420.754,-42.480,-37.598,-32.227,-35.645,-43.945
1678023420.758,-40.039,-31.738,-37.109,-39.062,-72.266
1678023420.762,-47.363,-31.250,-39.551,-44.922,-111.816
1678023420.766,-47.363,-29.785,-33.691,-46.875,-20.508
1678023420.770,-39.551,-30.762,-33.691,-51.758,-24.902
1678023420.774,-35.645,-37.109,-37.598,-54.199,0.000
1678023420.778,-38.086,-34.180,-39.551,-49.316,-27.344
1678023420.781,-45.898,-32.715,-39.551,-47.363,-62.500
1678023420.785,-45.898,-31.250,-38.086,-46.875,-3.418
1678023420.789,-46.387,-29.785,-38.086,-50.781,-38.086
1678023420.793,-42.969,-32.715,-40.039,-46.387,-173.340
1678023420.797,-29.297,-29.297,-35.645,-34.180,-62.500
1678023420.798,-28.809,-28.320,-32.227,-35.156,98.145
1678023420.802,-40.039,-29.297,-37.109,-43.945,-44.434
1678023420.806,-42.480,-33.203,-31.738,-46.875,-157.715
1678023420.810,-32.715,-36.133,-29.297,-37.598,29.297
1678023420.814,-20.020,-31.738,-30.273,-23.926,67.871
1678023420.818,-26.367,-27.832,-33.691,-25.879,-105.469
1678023420.822,-32.227,-27.832,-36.621,-34.668,-87.891
1678023420.825,-27.344,-27.344,-34.180,-36.621,92.285
1678023420.829,-26.855,-26.367,-32.227,-29.297,303.711
1678023420.833,-31.250,-26.855,-31.738,-33.691,84.961
1678023420.837,-34.668,-27.344,-32.227,-41.016,-193.848
1678023420.841,-45.898,-29.297,-32.227,-42.480,-213.379
1678023420.844,-51.758,-30.762,-29.297,-43.945,-171.387
1678023420.848,-39.062,-29.785,-22.461,-38.574,-192.383
1678023420.852,-34.180,-24.902,-22.949,-31.738,-187.500
1678023420.856,-44.434,-26.855,-26.855,-43.457,-159.180
1678023420.860,-39.551,-26.855,-16.602,-42.969,-117.188
1678023420.864,-32.227,-18.555,-17.090,-37.109,-49.805
1678023420.868,-39.551,-14.648,-30.762,-52.734,-52.734
1678023420.871,-40.039,-20.020,-21.973,-47.363,220.703
1678023420.875,-45.898,-28.809,-18.066,-48.340,206.543
1678023420.879,-63.477,-15.625,-17.578,-61.035,-165.527
1678023420.883,-82.031,4.395,-7.812,-77.637,-132.812
1678023420.887,-100.098,11.230,-12.695,-106.934,-117.676
1678023420.887,-116.699,23.926,-27.832,-123.047,-188.477
1678023420.891,-133.789,40.039,-29.297,-143.555,-169.434
1678023420.895,-175.293,47.852,-14.648,-168.945,-43.457
1678023420.899,-214.355,62.500,-16.113,-204.590,55.176
1678023420.903,-229.004,59.570,-22.949,-230.469,-18.066
1678023420.907,-226.074,52.246,-15.625,-223.145,-100.586
1678023420.911,-229.492,68.359,-5.371,-219.727,174.316
1678023420.914,-236.328,64.453,-6.836,-218.750,402.344
1678023420.918,-243.652,59.570,-6.836,-235.840,77.148
1678023420.922,-248.535,60.547,-8.789,-246.582,-154.297
1678023420.926,-244.629,66.895,-7.812,-250.977,-30.762
1678023420.930,-237.793,66.406,-13.184,-248.047,-78.613
1678023420.934,-232.422,54.199,-10.742,-234.375,-160.645
1678023420.938,-238.770,52.734,-12.695,-241.211,-155.273
1678023420.942,-224.609,53.711,-17.090,-229.492,-137.207
1678023420.946,-214.844,46.387,-19.043,-229.004,-125.488
1678023420.950,-187.500,48.340,-10.742,-214.355,-132.812
1678023420.954,-176.270,56.152,-4.883,-204.590,-50.293
1678023420.958,-210.938,51.270,-21.973,-214.844,190.918
1678023420.961,-210.449,42.480,-32.715,-215.332,94.727
1678023420.965,-201.172,33.203,-26.855,-216.797,-172.363
1678023420.969,-196.289,32.227,-21.973,-198.730,-78.125
1678023420.973,-197.754,34.668,-22.461,-191.406,-57.129
1678023420.977,-202.148,22.461,-21.484,-200.684,-165.527
1678023420.993,-186.035,17.090,-22.461,-190.430,-93.750
1678023420.997,-168.945,22.949,-20.020,-180.664,64.941
1678023421.001,-153.809,17.090,-20.996,-162.598,26.855
1678023421.005,-140.137,14.160,-17.578,-136.719,-115.723
1678023421.009,-136.230,9.766,-18.066,-126.465,-135.254
1678023421.013,-118.164,0.000,-20.508,-110.352,20.996
1678023421.017,-90.332,-7.812,-20.508,-89.355,326.172
1678023421.020,-72.754,-16.113,-21.484,-72.266,111.816
1678023421.024,-62.988,-26.367,-23.926,-50.781,-148.926
1678023421.028,-54.688,-33.203,-32.715,-41.992,-102.539
1678023421.032,-38.574,-40.527,-39.551,-32.227,-88.379
1678023421.036,-14.648,-54.199,-40.527,-17.090,-98.633
1678023421.026,9.766,-60.059,-36.133,8.789,-88.867
1678023421.030,9.277,-63.477,-38.574,20.996,-47.363
1678023421.034,7.324,-70.801,-46.387,16.602,-50.781
1678023421.038,19.531,-74.219,-52.246,28.809,-121.094
1678023421.042,41.016,-77.148,-56.641,34.668,-51.758
1678023421.046,53.223,-85.449,-57.129,42.969,136.230
1678023421.050,42.969,-87.402,-58.105,53.223,73.730
1678023421.053,34.668,-83.008,-56.641,42.969,-64.941
1678023421.057,40.039,-82.031,-51.270,45.410,-63.477
1678023421.061,55.664,-86.914,-47.363,67.871,269.531
1678023421.065,60.547,-84.961,-52.246,66.406,295.410
1678023421.069,64.453,-80.566,-53.223,57.617,-118.164
1678023421.083,69.336,-80.566,-48.828,57.617,-139.648
1678023421.087,66.895,-82.031,-49.805,53.711,-121.582
1678023421.091,67.383,-83.496,-51.758,60.059,-187.500
1678023421.095,69.336,-84.473,-49.805,63.965,-102.051
1678023421.099,66.406,-87.891,-47.852,70.312,109.863
1678023421.103,46.875,-88.379,-45.410,75.195,350.098
1678023421.107,37.109,-86.914,-47.363,63.477,135.254
1678023421.110,48.828,-83.496,-44.434,61.035,-189.941
1678023421.114,56.641,-81.055,-36.133,75.195,-25.879
1678023421.118,56.641,-75.684,-36.621,82.520,110.352
1678023421.122,46.875,-72.754,-42.969,70.801,-95.703
1678023421.126,41.504,-74.707,-39.551,62.988,-164.062
1678023421.129,45.898,-75.195,-41.504,51.758,-176.270
1678023421.133,51.758,-72.754,-49.316,47.852,-127.930
1678023421.137,51.270,-66.406,-44.922,52.246,-129.883
1678023421.141,43.945,-65.918,-40.527,50.293,-164.062
1678023421.145,37.109,-64.453,-44.922,41.504,-94.727
1678023421.149,32.715,-64.453,-44.434,38.574,-6.836
1678023421.153,39.551,-64.941,-38.574,43.457,9.277
1678023421.156,45.898,-60.547,-38.574,46.387,-40.527
1678023421.160,34.180,-63.965,-41.016,51.270,206.055
1678023421.164,20.020,-63.965,-40.527,52.246,247.559
1678023421.168,21.484,-57.617,-42.969,40.039,-75.195
1678023421.172,28.320,-56.641,-47.852,33.203,-62.500
1678023421.172,31.738,-59.082,-46.387,31.250,-60.059
1678023421.176,27.832,-62.012,-43.945,29.785,-105.957
1678023421.180,14.648,-61.523,-46.387,25.391,-136.230
1678023421.184,18.066,-58.105,-43.457,12.207,-64.453
1678023421.188,22.949,-62.500,-41.016,14.160,35.156
1678023421.192,23.438,-62.012,-37.598,27.344,-29.297
1678023421.196,23.438,-56.152,-34.668,23.438,-86.426
1678023421.199,15.625,-53.223,-32.715,28.320,52.246
1678023421.203,15.625,-52.734,-30.762,32.227,250.488
1678023421.207,20.508,-56.152,-30.273,30.762,27.344
1678023421.211,18.066,-53.223,-27.832,28.320,-223.145
1678023421.215,14.160,-52.246,-29.297,32.715,31.250
1678023421.225,8.789,-49.805,-30.762,37.109,158.203
1678023421.229,2.441,-46.875,-30.762,21.973,-113.281
1678023421.233,4.883,-51.758,-32.227,14.648,-105.957
1678023421.237,6.348,-54.199,-34.668,16.113,-103.027
1678023421.241,1.953,-50.781,-38.574,13.672,-163.574
1678023421.245,-5.859,-50.781,-43.945,6.836,-97.656
1678023421.249,-6.348,-52.246,-41.504,5.371,-56.152
1678023421.252,5.371,-46.875,-37.109,10.254,80.078
1678023421.256,2.930,-43.457,-40.039,3.906,-15.625
1678023421.260,0.488,-44.434,-39.062,2.930,-216.309
1678023421.264,0.000,-42.969,-33.203,7.812,-178.223
1678023421.268,-6.348,-39.062,-35.156,4.395,-79.590
1678023421.263,-10.254,-41.992,-37.109,-1.465,-86.914
1678023421.267,-8.301,-42.480,-36.133,-2.930,-141.602
1678023421.271,-2.930,-41.504,-35.645,2.441,-28.809
1678023421.275,-10.254,-43.945,-35.645,-1.953,29.297
1678023421.279,-18.555,-41.504,-37.109,-7.812,-118.652
1678023421.283,-12.695,-38.086,-32.227,-7.812,-133.789
1678023421.287,-6.836,-40.527,-28.320,-4.883,66.895
1678023421.290,-9.277,-49.316,-30.762,3.418,314.453
1678023421.294,-19.531,-48.340,-32.715,-7.324,181.152
1678023421.298,-27.344,-45.898,-31.738,-22.949,-179.688
1678023421.302,-25.391,-50.781,-31.250,-20.508,-190.918
1678023421.306,-20.508,-45.410,-32.227,-18.066,-138.672
1678023421.310,-22.461,-41.504,-34.668,-19.043,-181.152
1678023421.314,-31.738,-42.480,-34.668,-20.996,-101.074
1678023421.318,-41.992,-44.922,-41.992,-25.879,-19.043
1678023421.322,-43.945,-48.340,-45.898,-33.691,-73.242
1678023421.326,-37.109,-45.898,-39.551,-36.133,-123.047
1678023421.330,-27.832,-42.480,-35.645,-25.879,-42.969
1678023421.334,-24.414,-41.016,-33.203,-12.207,253.418
1678023421.337,-41.504,-40.039,-33.203,-21.484,158.691
1678023421.341,-51.270,-35.645,-30.273,-32.715,-144.531
1678023421.345,-38.574,-34.668,-27.832,-30.273,-104.004
1678023421.349,-32.227,-37.598,-28.809,-29.785,-86.426
1678023421.353,-41.992,-42.480,-31.250,-32.227,-180.664
1678023421.352,-50.293,-46.387,-33.691,-33.691,-139.648
1678023421.356,-47.852,-42.969,-33.203,-32.715,-83.984
1678023421.360,-43.945,-36.621,-35.645,-33.203,-75.195
1678023421.364,-34.180,-35.645,-31.250,-24.902,-44.434
1678023421.368,-36.133,-33.691,-36.133,-25.879,-73.730
1678023421.372,-41.992,-29.297,-40.527,-22.461,39.062
1678023421.376,-38.086,-31.250,-34.668,-20.020,409.180
1678023421.379,-41.016,-30.273,-39.062,-35.645,206.543
1678023421.383,-44.434,-30.273,-39.551,-45.898,-212.402
1678023421.387,-41.992,-36.133,-39.062,-42.480,-156.250
1678023421.391,-40.527,-33.691,-37.598,-29.785,-111.328
1678023421.395,-43.945,-34.180,-41.016,-30.273,-187.012
1678023421.412,-44.922,-37.598,-39.062,-39.551,-208.496
1678023421.416,-41.016,-37.598,-33.691,-36.133,-106.934
1678023421.420,-37.598,-36.621,-30.762,-25.391,-58.105
1678023421.424,-42.480,-36.133,-32.715,-20.996,-104.004
1678023421.428,-45.410,-34.668,-36.133,-29.297,-90.820
1678023421.432,-35.645,-37.109,-30.762,-31.738,-23.438
1678023421.436,-26.855,-34.180,-28.320,-29.785,-43.945
1678023421.439,-34.668,-33.203,-30.762,-42.969,-70.801
1678023421.443,-44.434,-34.668,-30.762,-44.922,-101.074
1678023421.447,-41.992,-31.250,-29.785,-33.691,139.648
1678023421.451,-39.551,-29.785,-30.273,-34.668,213.867
1678023421.455,-35.156,-30.762,-37.598,-46.875,-73.730
1678023421.457,-30.273,-32.227,-37.109,-38.574,-142.578
1678023421.461,-41.504,-32.715,-34.180,-28.320,-62.500
1678023421.465,-49.805,-34.180,-32.715,-33.691,-58.105
1678023421.469,-38.574,-32.227,-34.180,-34.180,-95.703
1678023421.473,-28.320,-26.855,-32.715,-23.438,95.703
1678023421.477,-30.273,-27.344,-34.668,-24.414,183.105
1678023421.481,-38.574,-27.344,-32.227,-38.086,55.176
1678023421.484,-41.016,-23.926,-28.809,-39.062,-89.355
1678023421.488,-36.133,-27.344,-29.297,-34.668,43.945
1678023421.492,-28.320,-32.715,-33.691,-28.809,358.887
1678023421.496,-32.715,-31.250,-41.016,-34.668,-11.230
1678023421.500,-42.480,-31.738,-36.621,-32.227,-211.914
1678023421.503,-44.434,-28.320,-37.598,-29.297,-84.961
1678023421.507,-42.480,-21.973,-35.156,-41.504,-109.863
1678023421.511,-34.668,-24.902,-30.762,-41.992,-133.789
1678023421.515,-29.785,-28.809,-34.180,-33.691,-88.379
1678023421.519,-38.086,-30.273,-37.109,-38.086,-78.613
1678023421.523,-46.875,-34.668,-39.062,-44.434,3.418
1678023421.527,-45.410,-37.109,-38.086,-44.922,-42.969
1678023421.530,-38.086,-33.691,-36.133,-43.945,-119.629
1678023421.534,-33.203,-27.344,-37.109,-28.320,154.785
1678023421.538,-41.992,-27.832,-37.598,-30.273,109.375
1678023421.542,-48.340,-34.180,-36.621,-43.945,-154.297
1678023421.546,-35.645,-31.738,-33.203,-38.574,-40.527
1678023421.547,-30.273,-29.785,-34.180,-38.086,41.504
1678023421.551,-30.273,-31.250,-36.133,-44.434,-50.293
1678023421.555,-33.203,-29.785,-32.227,-46.387,-62.988
1678023421.559,-38.574,-31.250,-31.250,-43.457,43.945
1678023421.563,-41.992,-32.227,-30.762,-46.875,76.172
1678023421.567,-41.992,-30.762,-31.250,-48.340,-14.648
1678023421.571,-33.691,-31.250,-32.715,-40.039,27.344
1678023421.574,-32.715,-29.297,-29.785,-30.273,141.113
1678023421.578,-46.875,-34.180,-28.320,-31.250,262.207
1678023421.582,-60.547,-39.551,-38.086,-53.223,0.000
1678023421.586,-50.781,-38.574,-41.504,-49.316,-163.086
1678023421.590,-40.527,-36.621,-35.645,-33.203,-71.777
1678023421.595,-43.457,-38.574,-33.691,-33.691,-98.145
1678023421.599,-51.758,-36.133,-36.133,-38.574,-133.301
1678023421.603,-54.688,-30.762,-36.133,-40.039,-79.590
1678023421.607,-44.434,-28.320,-36.621,-34.180,-15.137
1678023421.611,-39.062,-29.785,-39.062,-34.668,-78.125
1678023421.615,-37.598,-25.879,-36.621,-37.598,-69.336
1678023421.619,-31.738,-24.414,-29.785,-32.227,75.684
1678023421.622,-35.645,-28.809,-24.902,-29.785,216.309
1678023421.626,-41.992,-32.227,-28.809,-40.527,56.152
1678023421.630,-30.273,-30.273,-28.809,-43.945,-196.777
1678023421.634,-28.320,-30.273,-30.762,-38.574,-149.902
1678023421.638,-42.480,-34.668,-36.133,-40.039,-68.359
1678023421.637,-47.363,-32.227,-34.180,-40.527,-135.254
1678023421.641,-43.457,-34.180,-33.691,-43.457,-169.922
1678023421.645,-37.109,-35.156,-35.645,-39.062,-27.832
1678023421.649,-33.691,-34.180,-36.621,-32.227,92.285
1678023421.653,-38.086,-37.109,-38.574,-34.180,35.156
1678023421.657,-46.387,-39.551,-34.668,-36.133,-91.309
1678023421.661,-42.969,-39.062,-37.109,-35.645,64.453
1678023421.664,-33.203,-38.086,-38.086,-22.461,388.184
1678023421.668,-35.156,-36.133,-32.227,-22.461,222.168
1678023421.672,-44.922,-34.668,-32.715,-39.551,-116.211
1678023421.676,-49.805,-28.320,-30.762,-45.898,-112.793
1678023421.680,-48.828,-30.762,-36.133,-54.688,-144.531
1678023421.684,-42.480,-40.527,-41.016,-55.176,-193.359
1678023421.688,-36.621,-37.598,-42.480,-53.223,-84.961
1678023421.692,-42.969,-37.109,-41.992,-51.270,-22.461
1678023421.696,-53.711,-41.504,-42.969,-54.199,-75.684
1678023421.700,-49.316,-37.109,-39.062,-56.641,-212.891
1678023421.704,-40.039,-36.621,-34.668,-45.898,-145.508
1678023421.708,-37.109,-41.016,-35.156,-45.410,149.414
1678023421.711,-36.621,-37.598,-32.227,-44.434,172.363
1678023421.715,-41.016,-32.715,-33.203,-40.527,-120.605
1678023421.719,-46.387,-29.785,-36.621,-48.828,-146.973
1678023421.723,-37.598,-26.855,-35.645,-47.363,14.648
1678023421.727,-32.715,-26.855,-39.062,-41.992,-118.652
1678023421.727,-36.621,-24.414,-38.086,-37.598,-197.266
1678023421.731,-42.969,-25.879,-35.156,-41.992,-113.770
1678023421.735,-46.387,-28.320,-36.133,-47.363,-108.887
1678023421.739,-40.039,-21.973,-38.086,-44.434,-99.121
1678023421.743,-30.762,-20.996,-35.645,-35.645,-59.570
1678023421.747,-27.832,-24.414,-33.691,-23.926,111.816
1678023421.751,-40.039,-27.832,-36.621,-21.973,417.969
1678023421.754,-43.945,-26.367,-34.668,-31.738,146.973
1678023421.758,-35.156,-26.367,-32.715,-36.621,-163.086
1678023421.762,-31.738,-30.273,-35.645,-30.762,-67.383
1678023421.766,-31.738,-27.832,-32.715,-29.785,-71.289
1678023421.770,-35.645,-28.320,-31.738,-35.645,-152.344
1678023421.788,-39.551,-33.203,-34.180,-37.598,-183.594
1678023421.792,-37.109,-31.738,-34.180,-41.992,-184.082
1678023421.796,-32.227,-29.785,-37.598,-40.039,-109.375
1678023421.800,-34.668,-29.785,-40.039,-33.203,-136.230
1678023421.804,-41.504,-32.227,-39.062,-43.945,-96.191
1678023421.808,-41.016,-32.715,-38.086,-44.434,124.023
1678023421.812,-36.133,-28.320,-40.039,-41.504,57.129
1678023421.815,-39.551,-27.344,-38.574,-44.434,-77.637
1678023421.819,-37.598,-27.344,-35.156,-42.480,-67.871
1678023421.823,-40.527,-33.203,-38.574,-34.180,95.215
1678023421.827,-50.293,-39.551,-39.551,-43.945,41.992
1678023421.831,-49.805,-41.992,-41.504,-56.152,-142.578
1678023421.833,-36.621,-39.062,-44.922,-47.363,-27.832
1678023421.837,-24.902,-35.645,-42.969,-41.504,67.871
1678023421.841,-37.598,-37.598,-41.504,-47.852,-105.957
1678023421.845,-42.480,-36.133,-37.109,-49.805,-118.164
1678023421.849,-33.691,-32.227,-34.180,-42.969,85.449
1678023421.853,-36.621,-37.109,-35.645,-37.109,225.098
1678023421.857,-37.598,-36.621,-33.691,-41.992,30.762
1678023421.860,-42.969,-35.645,-35.645,-41.992,-148.438
1678023421.864,-51.758,-39.551,-32.715,-32.715,-13.672
1678023421.868,-54.199,-39.551,-30.273,-37.109,139.160
1678023421.872,-49.316,-39.062,-34.180,-47.363,-55.664
1678023421.876,-37.109,-36.621,-30.762,-37.598,-135.742
1678023421.881,-38.574,-34.180,-32.715,-33.691,-7.812
1678023421.885,-40.039,-29.785,-33.203,-31.738,-34.180
1678023421.889,-39.551,-26.855,-26.855,-33.691,-169.922
1678023421.893,-37.109,-30.762,-27.832,-39.551,-156.738
1678023421.897,-31.738,-32.227,-29.785,-35.645,-20.020
1678023421.901,-33.691,-32.715,-27.832,-35.156,52.246
1678023421.905,-34.668,-31.738,-27.344,-36.133,-43.945
1678023421.908,-32.227,-24.902,-27.344,-36.133,-122.559
1678023421.912,-26.855,-24.902,-29.297,-27.832,99.609
1678023421.916,-26.367,-29.297,-29.785,-21.484,60.059
1678023421.920,-31.738,-27.344,-33.203,-27.832,-154.785
1678023421.924,-37.598,-24.902,-31.738,-27.344,-108.398
1678023421.937,-42.969,-26.855,-31.738,-32.715,-147.949
1678023421.941,-41.992,-29.785,-37.109,-41.016,-161.621
1678023421.945,-37.598,-28.809,-39.551,-39.551,-180.176
1678023421.949,-39.551,-29.785,-36.621,-33.203,-27.344
1678023421.953,-48.340,-32.715,-29.297,-32.715,130.859
1678023421.957,-53.711,-31.738,-32.715,-38.574,22.949
1678023421.961,-51.758,-35.645,-37.598,-44.434,38.086
1678023421.964,-40.527,-34.180,-29.297,-30.273,92.773
1678023421.968,-35.645,-27.832,-29.785,-12.695,268.555
1678023421.972,-50.293,-29.785,-33.691,-22.461,147.461
1678023421.976,-59.082,-34.180,-29.785,-32.227,-171.875
1678023421.980,-54.688,-34.180,-34.180,-39.062,-190.918
1678023421.982,-46.875,-33.203,-34.668,-40.039,-148.926
1678023421.986,-41.016,-36.621,-33.203,-38.574,-183.105
1678023421.990,-46.875,-37.109,-37.109,-35.156,-171.387
1678023421.994,-48.828,-35.156,-37.109,-31.738,-124.512
1678023421.998,-38.574,-32.715,-32.227,-36.133,-122.559
1678023422.002,-30.762,-31.250,-35.645,-36.621,-130.859
1678023422.006,-27.832,-31.250,-35.645,-25.391,-39.062
1678023422.009,-35.156,-30.762,-34.668,-23.438,70.801
1678023422.013,-50.293,-29.785,-41.016,-36.621,-106.445
1678023422.017,-49.805,-29.785,-36.133,-42.969,-177.734
1678023422.021,-32.227,-26.367,-31.250,-33.203,-75.195
1678023422.025,-20.508,-24.902,-32.227,-15.625,245.605
1678023422.012,-31.250,-23.926,-32.227,-16.113,178.711
1678023422.016,-41.992,-22.949,-31.738,-29.297,-149.902
1678023422.020,-37.598,-27.344,-36.133,-39.551,-87.891
1678023422.024,-34.180,-26.367,-34.668,-38.574,-47.363
1678023422.028,-32.227,-27.344,-33.691,-36.133,-71.289
1678023422.032,-38.086,-28.809,-38.086,-32.715,-135.254
1678023422.036,-42.969,-28.809,-36.621,-30.273,48.828
1678023422.039,-35.645,-27.344,-35.645,-29.297,100.586
1678023422.043,-35.645,-26.367,-35.156,-33.203,-46.387
1678023422.047,-41.992,-29.785,-34.180,-36.621,-112.305
1678023422.051,-42.969,-31.250,-35.156,-25.391,60.547
1678023422.055,-41.992,-33.203,-34.180,-25.391,259.766
1678023422.060,-42.969,-31.738,-31.738,-41.992,16.602
1678023422.064,-32.715,-31.250,-31.250,-44.434,-134.277
1678023422.068,-22.949,-33.203,-34.180,-39.062,-104.980
1678023422.072,-26.367,-32.227,-37.598,-40.527,-86.426
1678023422.076,-36.133,-31.250,-39.062,-33.691,-161.133
1678023422.080,-31.250,-29.785,-38.086,-28.320,-99.121
1678023422.084,-21.973,-34.180,-37.598,-29.297,43.945
1678023422.087,-28.809,-32.227,-39.062,-30.273,-6.348
1678023422.091,-33.691,-28.320,-35.645,-33.203,-126.465
1678023422.095,-34.668,-30.762,-33.691,-29.297,-99.609
1678023422.099,-38.574,-25.391,-41.992,-35.645,-11.230
1678023422.103,-37.109,-20.508,-46.875,-35.156,-78.125
1678023422.102,-33.691,-25.879,-44.434,-32.715,-159.180
1678023422.106,-37.109,-25.879,-43.945,-40.039,-72.754
1678023422.110,-39.062,-27.832,-40.039,-41.992,-41.992
1678023422.114,-39.551,-32.227,-39.551,-41.016,-94.727
1678023422.118,-39.551,-32.715,-41.016,-37.598,-90.820
1678023422.122,-38.086,-34.668,-36.621,-31.738,19.043
1678023422.126,-32.715,-36.133,-38.086,-19.531,375.488
1678023422.129,-41.504,-34.668,-40.527,-26.367,292.480
1678023422.133,-50.293,-31.738,-38.086,-45.898,-61.035
1678023422.137,-46.387,-31.738,-33.203,-49.316,-120.117
1678023422.141,-41.992,-26.855,-32.227,-39.062,-163.574
1678023422.145,-46.875,-33.691,-28.320,-44.434,-215.332
1678023422.150,-52.246,-28.320,-14.648,-48.340,-138.672
1678023422.154,-64.453,-19.043,-23.438,-48.828,-52.734
1678023422.158,-67.383,-25.879,-37.598,-62.500,-120.605
1678023422.162,-49.805,-12.695,-17.090,-60.547,-195.801
1678023422.166,-73.242,-1.953,-15.625,-73.242,-35.645
1678023422.170,-104.004,1.465,-27.344,-97.656,65.430
1678023422.174,-124.512,13.184,-25.391,-122.559,58.594
1678023422.177,-151.367,31.738,-22.461,-156.250,-76.172
1678023422.181,-167.969,45.898,-20.508,-178.711,-128.418
1678023422.185,-184.082,49.805,-15.625,-194.824,103.027
1678023422.189,-215.332,48.340,-14.648,-216.309,51.270
1678023422.193,-229.980,48.340,-18.555,-233.887,-105.469
1678023422.207,-216.309,61.523,-9.766,-230.469,-90.332
1678023422.211,-213.867,70.801,-14.160,-220.215,-83.008
1678023422.215,-217.773,68.848,-16.113,-216.309,-163.086
1678023422.219,-224.609,60.059,-12.207,-222.168,-134.277
1678023422.223,-221.680,58.105,-6.836,-214.844,107.910
1678023422.227,-224.609,66.895,11.230,-208.984,374.512
1678023422.231,-238.281,72.754,6.348,-229.980,178.223
1678023422.234,-228.027,64.453,-8.789,-231.445,-158.203
1678023422.238,-219.238,57.129,-13.184,-215.820,-7.324
1678023422.242,-227.051,61.523,-21.973,-215.820,62.500
1678023422.246,-232.910,55.664,-19.043,-224.121,-132.324
1678023422.250,-218.262,47.363,-17.578,-222.656,-122.559
1678023422.254,-205.078,46.387,-22.461,-210.449,-20.508
1678023422.258,-206.055,42.480,-19.043,-204.102,-5.859
1678023422.262,-206.543,35.645,-20.996,-206.055,-92.773
1678023422.266,-189.453,42.480,-24.414,-188.477,-81.543
1678023422.270,-166.504,35.156,-24.414,-164.062,-103.027
1678023422.274,-152.832,21.484,-24.902,-153.320,-138.184
1678023422.278,-142.090,23.926,-20.996,-143.555,33.203
1678023422.281,-141.602,17.578,-20.508,-140.625,-0.977
1678023422.285,-124.512,5.371,-28.809,-121.094,174.805
1678023422.289,-104.492,7.812,-29.785,-103.516,212.402
1678023422.293,-84.961,9.277,-33.203,-100.586,-187.988
1678023422.297,-62.012,-5.859,-39.062,-75.684,-145.020
1678023422.297,-51.270,-17.090,-41.016,-49.316,-125.488
1678023422.301,-44.922,-24.902,-42.480,-44.434,-210.938
1678023422.305,-25.391,-33.691,-44.434,-34.180,-196.777
1678023422.309,0.488,-46.387,-46.875,-14.648,0.488
1678023422.313,11.719,-58.105,-44.922,-5.371,77.637
1678023422.317,12.207,-58.594,-43.945,0.977,30.273
1678023422.321,14.160,-64.453,-47.852,4.395,-46.387
1678023422.324,26.367,-71.777,-48.340,22.949,1.953
1678023422.328,42.969,-75.684,-46.875,47.363,335.449
1678023422.332,46.875,-75.195,-46.875,45.898,155.762
1678023422.336,47.363,-72.266,-45.410,43.945,-115.234
1678023422.340,46.387,-78.613,-46.875,49.805,-28.809
1678023422.344,48.340,-83.496,-48.340,53.711,-38.574
1678023422.348,59.570,-87.891,-50.781,57.617,-128.418
1678023422.352,65.430,-89.844,-54.688,66.406,-94.727
1678023422.356,61.035,-85.938,-51.758,67.383,-66.895
1678023422.360,54.688,-82.031,-50.781,56.641,-113.281
1678023422.364,63.477,-80.078,-50.781,56.641,-105.469
1678023422.368,75.684,-81.543,-43.945,65.918,47.363
1678023422.371,76.172,-85.449,-38.086,77.148,203.125
1678023422.375,65.918,-81.543,-42.969,72.266,75.195
1678023422.379,60.059,-80.566,-46.387,57.129,-72.754
1678023422.383,62.500,-84.961,-43.945,54.688,13.184
1678023422.387,62.012,-84.961,-43.457,55.664,66.406
1678023422.387,58.594,-82.031,-42.969,52.734,-73.730
1678023422.391,56.152,-77.148,-41.504,50.781,-203.125
1678023422.395,54.199,-74.707,-38.086,53.711,-24.902
1678023422.399,55.176,-73.730,-36.133,55.664,76.660
1678023422.403,57.617,-72.266,-37.109,51.270,-56.641
1678023422.407,58.105,-71.777,-37.109,49.316,-51.758
1678023422.411,58.594,-74.707,-34.180,57.129,30.762
1678023422.414,49.805,-74.707,-36.133,59.570,230.469
1678023422.418,39.062,-70.312,-41.992,38.574,26.367
1678023422.422,36.133,-69.824,-40.527,32.227,-221.680
1678023422.426,33.691,-70.801,-39.062,31.738,-126.465
1678023422.430,32.227,-67.871,-35.645,29.785,-110.352
1678023422.451,27.344,-67.383,-35.156,29.297,-79.102
1678023422.455,21.973,-69.824,-34.180,20.996,-108.887
1678023422.459,26.855,-65.430,-35.645,25.391,-62.500
1678023422.463,37.109,-60.059,-39.551,28.320,-2.441
1678023422.467,34.180,-61.523,-35.156,22.461,-87.891
1678023422.471,14.648,-66.895,-36.621,12.695,-69.336
1678023422.475,7.324,-68.359,-35.645,9.277,221.191
1678023422.478,16.113,-65.430,-33.691,8.789,130.371
1678023422.482,20.996,-63.965,-35.645,7.324,-187.988
1678023422.486,19.531,-62.988,-34.668,13.184,-20.996
1678023422.490,17.090,-60.059,-31.738,14.160,-3.418
1678023422.494,5.859,-56.641,-26.855,14.648,-176.758
1678023422.508,4.395,-56.152,-25.879,13.184,-140.137
1678023422.512,15.137,-55.664,-32.227,11.230,-79.102
1678023422.516,17.090,-50.781,-36.621,12.695,4.883
1678023422.520,5.859,-50.781,-33.691,5.371,34.668
1678023422.524,0.977,-52.734,-32.227,0.488,-40.527
1678023422.528,11.230,-49.805,-31.250,12.695,28.320
1678023422.532,12.695,-51.270,-30.762,18.555,60.059
1678023422.535,7.812,-49.805,-39.062,7.812,-25.879
1678023422.539,3.418,-43.457,-39.062,6.836,-109.375
1678023422.543,-4.883,-43.945,-30.762,6.348,-25.879
1678023422.547,-2.441,-42.480,-27.832,11.230,334.961
1678023422.551,-0.488,-37.109,-25.879,8.301,212.891
1678023422.540,-4.395,-40.039,-31.250,-7.324,-171.387
1678023422.544,-1.465,-38.574,-32.227,-6.348,-147.949
1678023422.548,-6.348,-36.621,-35.156,0.488,-129.395
1678023422.552,-19.043,-41.016,-36.133,-10.254,-242.676
1678023422.556,-15.137,-41.504,-29.785,-17.578,-169.434
1678023422.560,-8.789,-38.086,-29.297,-8.789,14.160
1678023422.564,-19.531,-38.574,-32.715,-15.625,20.020
1678023422.567,-30.762,-43.457,-33.203,-23.438,-79.590
1678023422.571,-30.762,-45.410,-37.109,-18.066,-78.613
1678023422.575,-29.297,-42.969,-37.598,-24.414,-43.945
1678023422.579,-21.484,-41.504,-38.086,-32.715,-103.027
1678023422.583,-23.926,-40.527,-39.551,-30.273,-175.293
1678023422.582,-32.715,-39.551,-36.133,-26.855,-68.359
1678023422.586,-30.273,-42.480,-38.086,-29.785,20.508
1678023422.590,-26.367,-40.527,-43.945,-34.668,-151.855
1678023422.594,-20.996,-40.039,-42.969,-32.715,-63.965
1678023422.598,-16.602,-40.039,-39.062,-23.926,185.059
1678023422.602,-21.973,-41.504,-35.645,-18.555,178.711
1678023422.606,-29.785,-42.969,-38.086,-31.250,7.324
1678023422.609,-26.855,-41.016,-37.598,-30.273,-70.312
1678023422.613,-25.879,-40.527,-34.668,-20.508,31.250
1678023422.617,-22.461,-39.551,-32.715,-20.508,326.172
1678023422.621,-30.273,-39.062,-35.645,-29.297,212.402
1678023422.625,-38.086,-39.062,-39.062,-38.086,-140.625
1678023422.643,-31.738,-38.574,-36.133,-38.574,-189.941
1678023422.647,-27.344,-33.203,-38.086,-33.203,-180.176
1678023422.651,-24.902,-31.250,-40.527,-24.414,-184.082
1678023422.655,-30.762,-34.668,-33.203,-27.344,-217.773
1678023422.659,-38.574,-36.133,-29.785,-34.668,-215.332
1678023422.663,-39.062,-35.645,-31.250,-33.203,-180.176
1678023422.667,-29.785,-40.527,-26.367,-24.902,-183.594
1678023422.670,-29.297,-43.457,-28.320,-29.297,-110.352
1678023422.674,-32.227,-38.574,-34.180,-27.344,113.770
1678023422.678,-36.621,-29.785,-31.250,-18.066,82.031
1678023422.682,-38.574,-31.738,-29.297,-30.762,-120.605
1678023422.686,-30.273,-34.180,-28.809,-34.668,-25.391
1678023422.672,-28.320,-31.738,-31.738,-24.414,69.336
1678023422.676,-30.762,-34.668,-33.203,-25.879,-89.844
1678023422.680,-34.180,-35.156,-29.297,-31.738,-144.531
1678023422.684,-34.180,-35.156,-28.809,-27.832,34.668
1678023422.688,-30.762,-37.598,-27.832,-22.461,114.258
1678023422.692,-27.832,-38.574,-27.832,-25.391,63.965
1678023422.696,-34.180,-37.598,-28.320,-26.367,-36.621
1678023422.699,-39.551,-36.621,-27.832,-20.020,56.641
1678023422.703,-38.086,-34.668,-30.762,-25.879,112.793
1678023422.707,-35.645,-35.156,-35.645,-28.809,-121.094
1678023422.711,-25.391,-33.691,-33.203,-16.113,-155.273
1678023422.715,-28.809,-37.109,-26.855,-16.602,28.320
1678023422.719,-42.969,-40.039,-31.738,-30.762,91.309
1678023422.723,-45.898,-35.156,-36.621,-37.109,-93.750
1678023422.727,-39.551,-34.668,-33.203,-39.062,-188.965
1678023422.731,-27.832,-33.203,-22.461,-24.902,92.285
1678023422.735,-32.715,-34.180,-24.902,-16.113,213.867
1678023422.739,-47.363,-33.203,-29.785,-34.180,-7.324
1678023422.743,-48.340,-34.180,-27.344,-43.945,-48.340
1678023422.746,-40.039,-40.039,-27.344,-31.738,125.000
1678023422.750,-38.086,-38.086,-29.785,-24.902,105.957
1678023422.754,-43.457,-36.621,-28.809,-34.668,-147.461
1678023422.758,-43.457,-35.645,-26.855,-32.227,-83.496
1678023422.762,-41.504,-33.691,-30.273,-33.203,-59.082
1678023422.777,-39.551,-33.203,-33.203,-38.574,-136.230
1678023422.781,-33.203,-34.180,-39.062,-35.645,-147.949
1678023422.785,-29.297,-34.668,-37.598,-28.320,9.277
1678023422.789,-36.133,-35.645,-37.109,-29.297,88.379
1678023422.793,-40.527,-34.180,-40.039,-37.598,-83.984
1678023422.797,-30.273,-33.203,-36.621,-38.086,-121.094
1678023422.801,-24.902,-33.203,-35.156,-32.227,41.504
1678023422.804,-27.832,-30.762,-34.180,-23.438,259.277
1678023422.808,-36.133,-29.297,-38.574,-41.016,79.102
1678023422.812,-37.598,-29.785,-37.598,-51.270,-178.223
1678023422.816,-28.320,-28.809,-34.180,-36.621,-82.031
1678023422.820,-27.344,-31.738,-35.645,-33.691,-34.180
1678023422.809,-25.879,-35.156,-29.297,-35.156,-108.887
1678023422.813,-28.320,-34.668,-31.738,-32.227,-116.699
1678023422.817,-39.062,-37.109,-36.621,-41.992,-145.996
1678023422.821,-37.598,-38.574,-37.109,-43.945,-153.320
1678023422.825,-29.297,-36.621,-38.086,-32.715,-82.031
1678023422.829,-23.926,-34.668,-34.668,-30.762,-55.176
1678023422.833,-31.250,-33.203,-33.203,-30.273,148.438
1678023422.836,-37.598,-29.785,-39.062,-39.062,76.660
1678023422.840,-34.180,-26.367,-42.969,-49.805,-213.867
1678023422.844,-33.203,-25.879,-41.504,-40.039,-131.836
1678023422.848,-34.180,-28.320,-42.480,-34.180,28.320
1678023422.852,-38.086,-28.320,-38.086,-31.738,-91.309
1678023422.912,-45.898,-26.367,-29.785,-31.738,-181.152
1678023422.916,-42.969,-33.691,-29.785,-33.203,-10.254
1678023422.920,-34.668,-36.621,-38.086,-36.621,63.965
1678023422.924,-37.598,-32.227,-42.480,-41.992,-85.449
1678023422.928,-47.363,-36.133,-39.551,-38.574,-99.609
1678023422.932,-47.852,-42.480,-41.016,-36.621,-20.508
1678023422.936,-35.645,-40.527,-39.551,-24.902,323.730
1678023422.939,-33.691,-38.086,-35.645,-32.715,282.227
1678023422.943,-37.598,-34.668,-35.156,-38.086,-155.273
1678023422.947,-37.109,-38.086,-33.691,-25.391,-6.836
1678023422.951,-41.504,-42.480,-32.227,-27.832,51.270
1678023422.955,-48.828,-42.969,-33.203,-35.156,-204.590
