timestamps,TP9,AF7,AF8,TP10,Right AUX
1678023659.661,-34.668,-35.645,-42.969,82.520,-210.938
1678023659.665,-20.020,-32.715,-40.527,93.750,-168.457
1678023659.669,-34.668,-33.691,-35.645,80.566,-116.211
1678023659.673,-46.875,-35.645,-34.668,69.336,-148.926
1678023659.677,-49.316,-34.180,-37.109,56.152,-126.465
1678023659.681,-33.203,-27.344,-38.574,57.129,35.156
1678023659.685,-22.461,-24.414,-37.109,58.105,-7.324
1678023659.688,-33.691,-30.762,-30.273,53.711,-108.398
1678023659.692,-38.574,-37.109,-35.645,48.828,-114.746
1678023659.696,-40.039,-36.621,-33.203,45.410,118.652
1678023659.700,-40.527,-37.109,-33.203,40.527,34.668
1678023659.704,-30.273,-34.180,-38.574,28.809,-273.926
1678023659.719,-33.691,-36.621,-34.180,28.320,-118.164
1678023659.723,-29.297,-35.645,-34.180,38.086,0.488
1678023659.727,-16.602,-29.297,-36.133,29.785,-131.348
1678023659.731,-22.949,-34.668,-32.715,28.320,-196.289
1678023659.735,-16.113,-36.133,-27.832,47.363,52.246
1678023659.739,2.930,-23.438,-35.156,47.363,232.422
1678023659.743,-19.043,-24.902,-40.527,22.949,-3.906
1678023659.746,-32.715,-23.926,-39.062,4.395,-172.363
1678023659.750,-20.020,-14.160,-41.504,-0.488,-35.645
1678023659.754,-27.344,-19.043,-45.898,5.859,71.289
1678023659.758,-41.992,-15.625,-54.688,1.953,-72.266
1678023659.762,-42.969,-14.160,-57.129,-13.184,-125.977
1678023659.764,-48.340,-18.555,-58.594,-20.996,-84.473
1678023659.768,-48.828,-8.301,-68.848,-24.414,-77.148
1678023659.772,-40.527,-4.395,-69.824,-31.250,-215.332
1678023659.776,-41.992,-6.836,-69.336,-37.109,-198.730
1678023659.780,-42.480,-7.812,-79.102,-42.969,-80.078
1678023659.784,-56.641,-7.324,-82.031,-50.781,9.766
1678023659.788,-62.988,-9.766,-83.008,-57.129,-64.453
1678023659.791,-47.852,-6.836,-89.355,-40.039,-143.555
1678023659.795,-39.551,-0.488,-84.961,-25.879,128.418
1678023659.799,-52.246,-5.859,-90.820,-47.852,104.492
1678023659.803,-64.453,-11.719,-92.773,-50.293,-165.039
1678023659.807,-56.152,-8.301,-81.055,-58.594,-104.004
1678023659.810,-41.504,-4.395,-79.590,-55.176,7.812
1678023659.814,-22.949,-4.395,-83.984,-21.973,-32.715
1678023659.818,-35.156,-9.277,-86.426,-29.785,-192.383
1678023659.822,-43.457,-11.719,-87.402,-44.922,-74.219
1678023659.826,-29.785,-6.348,-84.961,-26.855,133.789
1678023659.830,-33.203,-3.906,-77.148,-25.391,-14.648
1678023659.834,-36.621,-3.906,-71.289,-11.719,-84.961
1678023659.837,-31.250,-9.766,-65.430,0.977,49.805
1678023659.841,-19.043,-14.648,-64.941,-18.066,102.539
1678023659.845,-27.832,-12.695,-65.430,-19.043,-101.074
1678023659.849,-33.203,-14.648,-70.312,-11.719,-205.078
1678023659.853,-20.996,-15.625,-65.430,-2.441,-197.266
1678023659.856,-22.949,-16.602,-60.547,-0.488,-178.711
1678023659.860,-33.203,-19.531,-58.594,13.672,-154.297
1678023659.864,-16.602,-22.461,-50.293,23.926,-109.375
1678023659.868,-27.344,-24.414,-49.805,2.930,-23.438
1678023659.872,-38.086,-25.879,-50.293,8.301,-36.133
1678023659.876,-26.855,-27.344,-54.199,13.184,-37.109
1678023659.880,-32.227,-22.461,-59.082,7.324,-74.707
1678023659.883,-25.391,-22.949,-54.199,22.461,118.164
1678023659.887,-30.273,-24.902,-51.758,32.227,192.383
1678023659.891,-34.668,-20.508,-51.270,27.344,-103.516
1678023659.895,-26.367,-20.508,-51.270,35.156,-103.027
1678023659.899,-23.926,-18.555,-50.781,35.645,-81.543
1678023659.899,-25.391,-18.555,-50.293,17.578,-163.086
1678023659.903,-28.809,-18.066,-51.270,10.254,-208.008
1678023659.907,-22.949,-17.578,-45.410,5.859,-103.516
1678023659.911,-16.602,-20.996,-40.039,13.184,-13.672
1678023659.915,-38.086,-25.391,-40.039,29.785,-22.461
1678023659.919,-41.504,-26.367,-38.086,31.250,-16.113
1678023659.923,-30.273,-24.414,-38.086,23.438,147.461
1678023659.926,-30.273,-25.879,-40.527,25.391,425.781
1678023659.930,-31.250,-20.508,-40.039,31.250,234.375
1678023659.934,-38.574,-20.020,-39.062,33.203,-155.762
1678023659.938,-37.598,-20.996,-41.504,27.832,-149.902
1678023659.942,-38.574,-21.973,-42.480,20.508,-90.332
1678023659.946,-43.457,-26.855,-36.133,20.508,-188.477
1678023659.950,-36.621,-26.855,-36.621,30.273,-157.715
1678023659.954,-35.156,-26.855,-36.133,36.133,-94.727
1678023659.958,-47.852,-29.297,-39.062,37.598,-131.836
1678023659.962,-52.246,-26.367,-42.969,41.016,-191.406
1678023659.966,-34.180,-25.391,-37.109,31.250,-129.883
1678023659.970,-36.621,-30.273,-39.551,27.832,156.738
1678023659.973,-52.734,-34.668,-44.922,25.879,109.375
1678023659.977,-44.434,-36.621,-47.852,7.812,-176.270
1678023659.981,-38.086,-35.645,-46.387,-1.465,-193.359
1678023659.985,-35.156,-34.668,-41.504,2.441,3.906
1678023659.989,-46.875,-33.691,-40.527,12.207,-36.621
1678023659.989,-57.129,-29.297,-37.598,6.836,-177.246
1678023659.993,-64.453,-30.762,-40.039,1.465,-185.059
1678023659.997,-68.359,-34.180,-39.551,4.395,-129.395
1678023660.001,-62.500,-34.668,-35.645,10.742,-65.918
1678023660.005,-61.523,-35.156,-35.156,4.395,-136.719
1678023660.009,-58.105,-32.715,-33.203,0.977,-32.227
1678023660.013,-61.523,-29.785,-26.855,17.578,346.680
1678023660.016,-62.500,-22.949,-27.832,12.695,170.410
1678023660.020,-53.711,-29.297,-33.691,10.254,-155.273
1678023660.024,-58.594,-34.668,-28.320,15.137,-92.773
1678023660.028,-67.383,-34.180,-26.855,0.000,-41.504
1678023660.032,-59.570,-30.273,-34.180,-9.766,-118.164
1678023660.049,-46.387,-23.438,-38.086,-2.441,-127.441
1678023660.053,-44.434,-19.531,-35.156,20.020,6.348
1678023660.057,-46.875,-27.344,-34.668,22.949,-10.254
1678023660.061,-51.758,-34.180,-31.738,8.301,-93.750
1678023660.065,-45.410,-30.762,-29.297,4.883,-126.953
1678023660.069,-46.875,-30.762,-30.762,10.254,-88.867
1678023660.073,-52.734,-32.715,-33.203,10.742,-78.613
1678023660.076,-45.410,-29.785,-33.691,6.348,-114.258
1678023660.080,-42.969,-30.762,-32.227,8.301,-104.980
1678023660.084,-48.828,-33.203,-31.738,24.414,94.238
1678023660.088,-53.711,-31.250,-29.785,17.090,32.227
1678023660.092,-54.199,-32.227,-26.855,2.441,-235.352
1678023660.094,-53.223,-32.227,-23.438,1.465,-18.555
1678023660.098,-45.898,-32.715,-28.809,11.719,102.051
1678023660.102,-55.176,-36.133,-36.133,15.625,-123.535
1678023660.106,-68.848,-33.691,-30.273,11.719,-44.434
1678023660.110,-58.105,-32.715,-24.414,5.859,182.617
1678023660.114,-54.199,-30.273,-29.297,11.230,227.539
1678023660.118,-46.875,-24.902,-32.227,13.184,82.520
1678023660.121,-51.270,-28.320,-29.785,-0.488,-126.465
1678023660.125,-67.383,-31.250,-27.344,3.906,-35.645
1678023660.129,-61.523,-30.762,-25.879,20.508,166.992
1678023660.133,-53.711,-30.273,-32.227,-6.348,-61.523
1678023660.137,-52.734,-33.203,-35.645,-5.859,-145.508
1678023660.143,-50.293,-32.715,-36.133,12.207,-85.938
1678023660.147,-49.316,-31.738,-37.109,2.930,-112.793
1678023660.151,-54.688,-31.738,-36.621,-10.254,-90.332
1678023660.155,-56.641,-36.621,-35.156,5.859,-6.348
1678023660.159,-50.781,-41.504,-34.180,7.324,-16.602
1678023660.163,-50.293,-35.645,-35.156,-5.371,-22.949
1678023660.167,-47.363,-34.180,-35.645,-0.977,-25.879
1678023660.170,-42.969,-34.668,-33.691,0.977,-166.992
1678023660.174,-37.598,-34.180,-26.367,17.578,20.996
1678023660.178,-37.598,-32.715,-24.902,13.672,51.270
1678023660.182,-41.016,-29.297,-26.367,18.555,-193.359
1678023660.186,-37.598,-32.227,-26.367,14.648,-180.176
1678023660.184,-41.504,-38.574,-28.320,-4.883,-137.695
1678023660.188,-40.039,-37.109,-29.785,-2.441,-166.992
1678023660.192,-32.715,-36.133,-33.691,8.301,-168.457
1678023660.196,-41.504,-40.039,-40.039,10.742,-86.914
1678023660.200,-32.715,-33.203,-47.363,6.348,-36.133
1678023660.204,-20.996,-29.785,-41.992,19.531,-34.668
1678023660.208,-52.246,-35.156,-30.273,-0.977,-38.086
1678023660.211,-68.359,-38.086,-29.297,-12.207,103.516
1678023660.215,-49.805,-35.645,-28.809,15.625,363.770
1678023660.219,-73.242,-38.574,-20.996,-7.324,179.688
1678023660.223,-95.215,-40.527,-12.695,-36.621,-174.316
1678023660.227,-77.637,-39.062,-6.348,-33.203,-150.879
1678023660.231,-76.172,-46.387,-1.465,-20.508,-158.691
1678023660.235,-87.891,-54.199,3.906,-33.691,-176.758
1678023660.239,-103.027,-59.570,4.395,-49.316,-158.203
1678023660.243,-103.027,-60.547,6.836,-30.762,-84.961
1678023660.247,-98.145,-65.430,12.207,-26.367,-133.301
1678023660.251,-83.984,-61.035,20.508,-25.391,-112.793
1678023660.255,-83.984,-55.664,22.461,-30.273,12.207
1678023660.258,-103.516,-59.570,14.648,-25.879,111.816
1678023660.262,-114.258,-52.734,14.648,-32.227,28.320
1678023660.266,-125.000,-42.480,16.602,-59.082,-105.957
1678023660.270,-135.254,-35.645,29.785,-60.547,-98.145
1678023660.274,-143.066,-17.090,40.039,-61.523,206.055
1678023660.274,-183.105,-1.953,31.738,-95.215,157.227
1678023660.278,-227.539,9.766,22.949,-143.555,-212.402
1678023660.282,-234.375,27.832,23.926,-171.387,-160.156
1678023660.286,-248.047,41.504,22.949,-187.012,-35.156
1678023660.290,-263.184,41.504,14.648,-199.707,-140.625
1678023660.294,-265.137,36.133,20.020,-207.031,-148.926
1678023660.298,-266.113,40.039,29.297,-198.730,94.727
1678023660.301,-262.207,36.133,31.250,-181.641,341.797
1678023660.305,-252.441,33.203,27.832,-180.664,136.719
1678023660.309,-247.559,37.109,22.461,-179.199,-64.941
1678023660.313,-237.793,25.879,22.949,-170.410,9.766
1678023660.317,-211.426,23.926,13.672,-160.645,-74.219
1678023660.321,-189.941,29.297,0.977,-134.766,-163.574
1678023660.325,-177.734,19.043,8.301,-107.910,-177.246
1678023660.329,-154.785,5.859,7.324,-102.051,-142.578
1678023660.333,-135.742,-3.906,-2.441,-73.242,-117.676
1678023660.337,-124.512,-17.090,0.488,-53.223,-150.879
1678023660.341,-97.656,-21.973,-3.418,-43.457,-115.723
1678023660.345,-74.219,-27.344,-15.137,-24.414,217.285
1678023660.348,-75.195,-44.922,-19.531,-28.809,166.016
1678023660.352,-59.570,-49.316,-20.996,-18.555,-184.570
1678023660.356,-51.270,-41.992,-22.949,-6.348,-106.445
1678023660.360,-51.758,-46.875,-24.902,-4.395,-84.473
1678023660.364,-39.551,-52.246,-23.926,5.371,-110.352
1678023660.380,-28.809,-53.223,-23.926,15.137,-33.203
1678023660.384,-28.320,-61.523,-32.715,13.672,45.410
1678023660.388,-18.555,-64.453,-33.691,14.160,-10.742
1678023660.392,-9.277,-60.059,-30.762,21.973,-102.539
1678023660.396,-19.043,-59.570,-35.156,17.090,-69.336
1678023660.400,-12.695,-65.918,-36.621,24.414,52.734
1678023660.404,3.418,-64.941,-32.227,39.551,426.758
1678023660.407,0.488,-59.570,-33.691,34.668,195.801
1678023660.411,-8.301,-61.035,-35.156,26.367,-179.199
1678023660.415,-0.977,-63.965,-33.691,36.133,-192.871
1678023660.419,8.301,-60.059,-30.273,44.922,-176.758
1678023660.423,11.230,-58.594,-28.809,46.875,-141.113
1678023660.424,12.695,-65.430,-35.156,43.945,-108.887
1678023660.428,11.230,-65.430,-34.180,44.922,-87.402
1678023660.432,7.324,-62.012,-35.645,43.945,-136.230
1678023660.436,5.371,-62.012,-40.039,37.598,-167.480
1678023660.440,12.207,-62.988,-35.645,43.457,-121.582
1678023660.444,9.766,-64.941,-34.668,42.969,-13.672
1678023660.448,2.441,-64.453,-36.133,27.832,-3.418
1678023660.451,-0.488,-62.012,-32.227,30.273,-144.531
1678023660.455,5.859,-61.035,-32.715,38.086,-177.734
1678023660.459,28.320,-57.129,-31.738,47.852,180.176
1678023660.463,18.066,-51.758,-32.715,37.598,203.613
1678023660.467,-0.977,-52.246,-34.668,18.555,-187.500
1678023660.469,1.953,-55.176,-38.574,27.832,-141.602
1678023660.473,-0.977,-53.223,-43.457,28.320,-45.898
1678023660.477,0.488,-49.805,-38.574,21.484,-71.289
1678023660.481,-0.488,-49.316,-35.156,22.461,-105.957
1678023660.485,-1.465,-51.758,-38.574,30.762,40.039
1678023660.489,12.207,-52.734,-39.551,26.367,268.555
1678023660.493,9.277,-49.316,-34.668,21.484,61.035
1678023660.496,-5.371,-50.293,-34.668,23.438,-112.305
1678023660.500,-1.465,-44.922,-34.180,25.879,48.340
1678023660.504,-7.812,-38.574,-30.762,27.344,153.320
1678023660.508,-16.113,-36.621,-32.227,12.695,-109.375
1678023660.512,6.836,-30.273,-32.227,16.113,-162.598
1678023660.515,10.254,-30.273,-32.227,18.555,-131.836
1678023660.519,1.465,-33.691,-28.809,5.859,-126.953
1678023660.523,-10.742,-38.086,-26.367,5.859,-135.742
1678023660.527,-16.113,-42.969,-27.344,8.789,-144.043
1678023660.531,-4.883,-46.387,-27.832,1.953,-62.012
1678023660.535,-4.883,-46.387,-32.715,-2.441,-31.738
1678023660.539,-10.254,-43.457,-33.203,-2.441,-55.176
1678023660.542,-23.926,-43.945,-34.180,-17.578,-19.043
1678023660.546,-28.320,-47.363,-34.180,-7.324,220.215
1678023660.550,-24.414,-53.223,-39.551,-0.977,155.762
1678023660.554,-26.855,-51.270,-37.598,-15.137,-160.645
1678023660.558,-31.738,-44.434,-28.809,-13.184,-102.539
1678023660.559,-48.828,-43.945,-33.691,-14.648,-104.004
1678023660.563,-53.223,-45.898,-34.180,-19.531,-209.473
1678023660.567,-38.086,-41.016,-27.832,-20.020,-236.816
1678023660.571,-34.180,-40.527,-25.879,-16.602,-24.414
1678023660.575,-38.086,-43.945,-32.715,-26.855,134.766
1678023660.579,-44.434,-38.086,-33.203,-36.621,17.578
1678023660.583,-54.688,-41.016,-28.320,-32.227,-53.711
1678023660.586,-48.828,-46.387,-25.391,-22.461,-41.504
1678023660.590,-47.852,-42.480,-32.227,-18.555,94.238
1678023660.594,-48.340,-42.969,-43.457,-34.180,-27.832
1678023660.598,-41.504,-40.039,-43.457,-44.434,-167.969
1678023660.602,-40.039,-36.621,-39.062,-26.367,-21.973
1678023660.606,-37.598,-40.527,-35.645,-18.066,36.621
1678023660.610,-49.316,-41.016,-34.668,-38.574,-84.961
1678023660.614,-51.270,-41.016,-31.738,-22.461,-106.445
1678023660.618,-46.387,-41.992,-30.273,-12.207,-132.324
1678023660.622,-59.082,-42.969,-34.668,-26.367,-96.680
1678023660.626,-55.664,-40.527,-35.645,-25.879,-107.910
1678023660.630,-37.109,-35.156,-33.203,-22.949,-49.805
1678023660.633,-35.156,-39.062,-31.250,-13.672,211.914
1678023660.637,-35.156,-42.969,-32.227,-4.883,114.746
1678023660.641,-41.016,-37.598,-33.691,-30.762,-186.035
1678023660.645,-54.199,-34.668,-38.574,-50.781,-214.355
1678023660.649,-55.176,-36.621,-36.621,-43.457,-85.449
1678023660.649,-54.199,-39.551,-31.738,-50.293,-50.781
1678023660.653,-63.965,-42.480,-33.203,-52.246,-141.113
1678023660.657,-72.754,-42.480,-32.715,-47.363,-10.742
1678023660.661,-67.871,-39.551,-34.180,-49.316,122.559
1678023660.665,-56.641,-36.133,-31.250,-54.199,-40.527
1678023660.669,-62.012,-37.598,-31.738,-50.781,-6.348
1678023660.673,-70.801,-40.527,-35.645,-45.898,209.473
1678023660.676,-66.895,-32.227,-35.156,-47.852,354.004
1678023660.680,-69.824,-31.250,-37.109,-49.805,133.789
1678023660.684,-62.988,-33.691,-33.203,-35.645,-180.176
1678023660.688,-59.570,-36.133,-29.297,-37.598,-178.223
1678023660.692,-61.035,-36.133,-34.180,-53.223,-112.305
1678023660.697,-69.824,-34.668,-36.621,-56.641,-111.816
1678023660.701,-68.848,-36.133,-31.250,-49.316,-165.039
1678023660.705,-54.688,-35.156,-28.809,-42.969,-73.242
1678023660.709,-52.246,-34.180,-31.250,-38.086,-70.801
1678023660.713,-59.082,-38.086,-29.785,-36.621,-166.016
1678023660.717,-62.500,-37.598,-25.391,-36.133,-52.246
1678023660.721,-54.688,-31.738,-28.320,-35.645,106.934
1678023660.724,-51.270,-29.785,-31.738,-36.133,-1.953
1678023660.728,-57.129,-33.203,-32.715,-36.621,-142.090
1678023660.732,-59.570,-31.738,-27.344,-34.668,-68.848
1678023660.736,-67.383,-32.227,-25.391,-47.363,-20.508
1678023660.740,-63.477,-37.109,-27.832,-52.734,-54.688
1678023660.739,-55.664,-31.738,-26.855,-32.715,-103.027
1678023660.743,-60.547,-33.691,-28.809,-33.691,-84.961
1678023660.747,-59.570,-34.668,-29.785,-42.969,-72.754
1678023660.751,-60.547,-34.180,-32.227,-43.945,-91.797
1678023660.755,-69.824,-40.039,-32.715,-45.898,-43.457
1678023660.759,-73.730,-39.062,-33.203,-48.340,42.480
1678023660.763,-56.152,-38.086,-34.668,-41.992,364.746
1678023660.766,-54.199,-37.598,-35.156,-46.387,241.699
1678023660.770,-73.730,-37.598,-32.715,-54.688,-160.645
1678023660.774,-76.660,-43.945,-34.180,-54.199,-153.320
1678023660.778,-64.941,-42.969,-36.133,-51.758,-112.793
1678023660.782,-60.059,-41.016,-32.715,-51.758,-130.371
1678023660.786,-53.711,-40.039,-32.227,-56.152,-105.469
1678023660.790,-52.246,-36.133,-31.738,-50.293,-37.598
1678023660.794,-55.176,-34.180,-25.879,-51.758,-47.852
1678023660.798,-58.594,-31.738,-26.367,-54.199,-148.438
1678023660.802,-52.734,-29.785,-26.855,-40.527,-123.535
1678023660.806,-46.387,-33.203,-24.902,-33.203,29.297
1678023660.810,-60.059,-37.598,-26.855,-46.875,20.996
1678023660.813,-62.012,-30.762,-26.855,-57.617,-52.246
1678023660.817,-50.781,-30.762,-25.879,-48.340,-58.594
1678023660.821,-48.340,-32.227,-27.344,-30.762,142.090
1678023660.825,-42.969,-28.809,-32.715,-40.039,115.723
1678023660.829,-52.734,-28.809,-33.203,-50.781,-151.367
1678023660.844,-55.664,-30.273,-32.715,-50.293,-145.020
1678023660.848,-49.316,-28.320,-34.180,-49.316,-80.078
1678023660.852,-50.293,-27.344,-33.203,-50.781,-82.031
1678023660.856,-59.570,-27.344,-26.367,-56.152,-128.418
1678023660.860,-62.988,-26.855,-22.461,-51.758,70.312
1678023660.864,-60.059,-28.320,-23.438,-38.574,209.961
1678023660.868,-50.781,-21.484,-25.391,-38.574,-26.367
1678023660.871,-46.875,-18.066,-21.484,-49.316,-199.707
1678023660.875,-45.898,-21.484,-19.531,-36.133,44.434
1678023660.879,-36.621,-23.438,-24.414,-33.691,281.250
1678023660.883,-41.992,-23.926,-30.762,-48.340,-74.707
1678023660.887,-60.547,-25.879,-30.273,-46.875,-211.426
1678023660.890,-57.617,-29.785,-30.273,-42.969,-110.840
1678023660.894,-48.340,-30.762,-27.344,-42.969,-71.777
1678023660.898,-59.570,-37.109,-29.297,-43.457,-94.727
1678023660.902,-58.594,-36.621,-33.691,-41.016,-125.488
1678023660.906,-54.199,-39.551,-37.109,-57.129,-106.445
1678023660.910,-57.617,-45.410,-40.039,-63.965,-83.984
1678023660.914,-52.246,-39.551,-37.109,-45.898,-28.809
1678023660.917,-43.945,-39.551,-33.691,-53.223,-52.246
1678023660.921,-50.781,-43.457,-35.156,-56.641,77.637
1678023660.925,-61.523,-40.039,-36.621,-53.223,74.219
1678023660.929,-54.688,-32.715,-33.691,-57.129,-186.035
1678023660.933,-49.316,-34.180,-33.203,-52.734,-52.734
1678023660.934,-45.410,-37.109,-33.691,-44.922,20.020
1678023660.938,-50.293,-34.180,-41.016,-52.246,-127.930
1678023660.942,-57.617,-34.180,-39.062,-52.734,-147.461
1678023660.946,-52.246,-41.992,-36.133,-42.969,39.551
1678023660.950,-49.316,-44.434,-42.480,-46.875,170.410
1678023660.954,-46.387,-37.109,-43.457,-44.434,33.691
1678023660.958,-47.363,-32.227,-39.551,-57.129,-20.996
1678023660.961,-49.805,-34.668,-37.598,-55.176,95.703
1678023660.965,-49.805,-36.621,-39.062,-45.410,335.449
1678023660.969,-55.664,-36.133,-39.062,-47.852,114.746
1678023660.973,-59.570,-38.086,-37.598,-46.387,-92.773
1678023660.977,-54.199,-38.086,-33.691,-50.293,-58.105
1678023660.995,-59.570,-36.133,-36.133,-47.852,-125.977
1678023660.999,-53.223,-36.621,-39.062,-52.734,-173.340
1678023661.003,-46.875,-37.109,-37.109,-52.246,-157.715
1678023661.007,-57.129,-33.203,-36.621,-55.176,18.066
1678023661.011,-57.617,-31.250,-39.551,-65.918,63.477
1678023661.015,-48.828,-33.691,-37.598,-55.176,-10.254
1678023661.019,-49.316,-38.574,-32.715,-50.781,-66.406
1678023661.022,-54.199,-38.086,-35.156,-52.246,99.609
1678023661.026,-52.734,-26.855,-32.715,-47.363,108.398
1678023661.030,-55.664,-27.832,-27.344,-55.176,-172.852
1678023661.034,-60.059,-32.715,-24.414,-63.477,-119.629
1678023661.038,-56.152,-29.297,-29.297,-62.012,-21.973
1678023661.024,-49.805,-31.250,-34.180,-58.105,-66.895
1678023661.028,-50.293,-32.227,-30.762,-61.035,-90.820
1678023661.032,-54.688,-33.203,-31.250,-60.547,-49.316
1678023661.036,-56.152,-37.598,-34.180,-59.570,16.113
1678023661.040,-58.594,-36.133,-35.645,-65.430,23.926
1678023661.044,-54.688,-32.715,-33.691,-68.359,9.766
1678023661.048,-44.434,-35.156,-30.273,-55.176,142.090
1678023661.051,-51.270,-35.156,-33.203,-43.945,349.121
1678023661.055,-68.359,-32.715,-37.598,-58.105,-9.277
1678023661.059,-67.871,-35.645,-32.715,-59.082,-291.504
1678023661.063,-52.246,-37.598,-32.715,-46.875,-41.992
1678023661.067,-49.805,-31.250,-33.691,-50.781,153.809
1678023661.071,-52.734,-27.832,-31.250,-54.688,-78.125
1678023661.075,-57.617,-30.762,-35.156,-54.688,-185.059
1678023661.079,-60.059,-30.762,-36.133,-51.270,-115.723
1678023661.083,-46.875,-27.344,-32.715,-50.293,-160.156
1678023661.087,-46.387,-30.273,-31.738,-53.711,-187.012
1678023661.091,-49.316,-33.203,-31.738,-56.152,-152.344
1678023661.095,-46.875,-30.273,-34.180,-57.617,106.934
1678023661.098,-47.363,-30.273,-33.203,-56.641,143.555
1678023661.102,-45.410,-27.344,-30.762,-53.223,-205.566
1678023661.106,-43.945,-29.297,-30.273,-56.641,-176.270
1678023661.110,-45.410,-31.250,-30.273,-62.012,-31.738
1678023661.114,-55.176,-28.320,-31.738,-66.895,-107.422
1678023661.114,-55.176,-30.273,-29.297,-69.336,-166.992
1678023661.118,-43.457,-28.320,-25.391,-59.082,-83.984
1678023661.122,-42.969,-26.367,-26.855,-51.270,-35.645
1678023661.126,-46.387,-30.273,-24.902,-60.547,-82.031
1678023661.130,-46.875,-25.879,-23.926,-64.453,-123.047
1678023661.134,-46.875,-26.855,-27.344,-66.895,56.152
1678023661.138,-44.922,-29.297,-32.227,-55.176,420.898
1678023661.141,-43.945,-30.273,-28.320,-54.688,225.098
1678023661.145,-55.664,-31.738,-26.855,-78.613,-105.469
1678023661.149,-64.941,-21.973,-27.832,-78.125,39.551
1678023661.153,-72.754,-19.043,-24.902,-85.938,-0.977
1678023661.157,-84.961,-10.742,-28.809,-100.098,-201.660
1678023661.176,-87.891,4.395,-31.738,-104.492,-170.410
1678023661.180,-98.633,7.812,-23.438,-129.883,-91.309
1678023661.184,-137.207,18.066,-16.113,-164.551,-94.238
1678023661.188,-187.500,36.133,-18.555,-201.660,-195.801
1678023661.192,-207.520,48.340,-15.625,-227.051,-116.211
1678023661.196,-212.891,53.223,-7.812,-231.934,35.645
1678023661.200,-230.469,58.594,-0.488,-249.023,-51.270
1678023661.203,-256.836,56.641,3.906,-281.738,-166.504
1678023661.207,-259.766,50.781,10.254,-277.832,-147.461
1678023661.211,-245.605,51.758,18.555,-260.254,60.547
1678023661.215,-247.070,44.922,22.461,-266.113,9.766
1678023661.219,-248.047,31.250,21.484,-262.207,-176.270
1678023661.219,-245.117,27.344,23.926,-245.117,-78.125
1678023661.223,-239.258,26.855,31.738,-233.887,63.477
1678023661.227,-236.816,16.602,33.691,-241.211,-98.145
1678023661.231,-239.258,7.324,32.227,-258.301,-103.027
1678023661.235,-228.516,1.953,36.133,-251.465,136.719
1678023661.239,-221.191,-1.465,39.551,-238.281,106.934
1678023661.243,-221.191,-5.859,40.039,-230.469,-56.152
1678023661.246,-209.961,-9.766,33.691,-228.027,-180.664
1678023661.250,-194.824,-9.277,29.297,-208.008,-109.863
1678023661.254,-179.199,-14.160,33.203,-175.293,248.535
1678023661.258,-171.387,-21.484,30.762,-178.223,54.688
1678023661.262,-157.715,-27.832,24.902,-174.805,-187.012
1678023661.268,-130.371,-35.645,21.973,-150.391,-119.141
1678023661.272,-118.164,-47.363,16.602,-144.043,-96.680
1678023661.276,-107.422,-55.664,6.348,-140.625,-112.793
1678023661.280,-95.703,-62.012,2.441,-113.770,-91.797
1678023661.284,-95.215,-65.918,9.277,-111.816,2.441
1678023661.288,-79.102,-72.754,12.207,-98.145,4.395
1678023661.292,-57.617,-79.102,13.184,-54.688,-10.742
1678023661.295,-44.922,-73.730,8.789,-46.387,14.160
1678023661.299,-26.367,-75.684,-0.488,-49.316,155.273
1678023661.303,-19.531,-77.637,-3.906,-34.180,41.504
1678023661.307,-20.996,-72.266,-10.742,-26.855,-219.238
1678023661.311,-1.465,-71.289,-20.996,-20.020,-149.414
1678023661.309,12.695,-65.430,-29.785,-14.648,-96.191
1678023661.313,10.742,-60.059,-31.738,-6.348,-123.047
1678023661.317,2.930,-63.477,-35.645,-12.207,-128.906
1678023661.321,11.230,-62.500,-41.992,-20.508,-24.902
1678023661.325,20.996,-62.012,-43.945,-5.371,2.441
1678023661.329,20.996,-62.012,-42.969,3.418,-27.832
1678023661.333,32.227,-63.477,-41.992,2.441,-56.152
1678023661.336,44.922,-61.035,-43.945,7.324,-44.434
1678023661.340,41.504,-61.035,-46.387,17.578,240.723
1678023661.344,38.086,-58.594,-44.434,10.254,137.695
1678023661.348,44.434,-50.781,-47.852,8.789,-187.012
1678023661.352,55.664,-53.223,-47.852,15.625,-146.484
1678023661.356,48.828,-57.617,-41.992,16.602,-105.957
1678023661.360,41.504,-56.641,-43.457,9.277,-242.676
1678023661.364,46.875,-55.664,-48.828,4.883,-291.992
1678023661.368,52.246,-58.105,-47.852,7.812,-139.648
1678023661.372,51.758,-57.617,-41.016,9.277,-97.656
1678023661.376,51.270,-57.617,-40.527,9.277,-119.629
1678023661.380,51.758,-55.176,-39.551,5.371,-80.078
1678023661.383,54.688,-51.270,-38.086,6.836,250.488
1678023661.387,51.758,-51.270,-41.992,4.883,239.258
1678023661.391,47.363,-50.293,-42.480,-6.348,-127.441
1678023661.395,45.410,-46.875,-42.480,-7.324,-97.656
1678023661.399,35.156,-46.387,-42.969,-9.277,80.078
1678023661.399,30.273,-50.781,-44.922,-14.648,-23.926
1678023661.403,32.227,-55.176,-48.340,-20.996,-188.477
1678023661.407,25.391,-58.594,-45.410,-21.484,-61.523
1678023661.411,15.137,-58.105,-41.016,-18.555,20.508
1678023661.415,9.277,-57.617,-43.945,-27.832,-6.836
1678023661.419,5.859,-59.570,-48.340,-35.645,-98.633
1678023661.423,8.301,-63.477,-50.781,-31.738,17.090
1678023661.426,15.137,-61.523,-53.711,-14.648,330.078
1678023661.430,2.930,-56.641,-54.199,-19.531,187.012
1678023661.434,-2.441,-53.223,-53.223,-32.227,-142.578
1678023661.438,9.277,-49.805,-50.293,-33.203,-167.480
1678023661.442,5.371,-46.875,-50.293,-39.551,-144.531
1678023661.446,11.719,-42.969,-50.781,-32.715,-133.789
1678023661.450,11.719,-45.898,-54.199,-37.598,-102.539
1678023661.454,-7.812,-46.875,-60.547,-52.734,-65.918
1678023661.458,-5.859,-47.363,-57.129,-50.293,-83.496
1678023661.462,-2.930,-46.875,-49.805,-47.852,-160.156
1678023661.466,-4.883,-42.480,-54.688,-48.340,-59.082
1678023661.470,-6.348,-45.410,-57.617,-36.621,200.195
1678023661.473,-12.695,-45.898,-55.176,-38.086,24.414
1678023661.477,-15.137,-42.969,-53.711,-53.223,-211.426
1678023661.481,-12.695,-42.969,-50.781,-48.340,-142.090
1678023661.485,-20.020,-43.457,-54.199,-50.293,-36.133
1678023661.489,-23.438,-46.387,-53.711,-49.805,-7.812
1678023661.489,-32.715,-48.828,-47.363,-48.828,-83.008
1678023661.493,-32.715,-45.898,-49.805,-60.059,-33.691
1678023661.497,-17.578,-43.945,-49.316,-57.129,19.043
1678023661.501,-10.742,-43.457,-42.969,-61.035,60.059
1678023661.505,-15.625,-41.992,-39.551,-61.523,51.758
1678023661.509,-22.461,-41.992,-42.480,-58.594,-17.090
1678023661.513,-26.855,-41.016,-42.969,-58.105,316.406
1678023661.516,-27.344,-39.551,-46.387,-61.523,178.223
1678023661.520,-26.367,-36.133,-48.828,-63.477,-194.336
1678023661.524,-30.273,-32.227,-44.434,-58.105,-147.949
1678023661.528,-29.297,-33.691,-45.410,-67.383,-109.375
1678023661.532,-23.926,-33.691,-43.457,-70.801,-170.898
1678023661.537,-34.668,-39.062,-40.039,-76.172,-138.672
1678023661.541,-40.527,-42.480,-43.457,-77.637,-25.391
1678023661.545,-31.738,-39.062,-51.270,-72.266,-42.480
1678023661.549,-35.156,-39.551,-50.781,-80.078,-121.094
1678023661.553,-41.016,-41.992,-49.316,-84.961,-103.027
1678023661.557,-32.715,-38.086,-48.828,-83.008,82.031
1678023661.561,-21.484,-30.762,-50.293,-74.707,45.898
1678023661.564,-21.484,-31.738,-48.340,-64.453,-152.832
1678023661.568,-27.344,-35.156,-43.945,-62.988,-135.742
1678023661.572,-32.227,-33.203,-47.363,-66.895,70.312
1678023661.576,-32.715,-33.203,-48.340,-71.289,-22.461
1678023661.580,-25.391,-34.668,-44.922,-84.961,-151.367
1678023661.595,-21.973,-34.668,-41.504,-88.379,-30.762
1678023661.599,-41.016,-37.598,-41.504,-80.078,-10.742
1678023661.603,-51.270,-38.574,-42.480,-84.961,-79.102
1678023661.607,-40.039,-37.109,-43.457,-88.867,-101.562
1678023661.611,-32.227,-34.668,-43.457,-80.078,52.734
1678023661.615,-28.809,-34.180,-42.480,-66.895,359.375
1678023661.619,-34.180,-36.133,-43.457,-77.637,239.746
1678023661.622,-44.922,-31.250,-41.504,-87.891,-205.078
1678023661.626,-37.598,-26.855,-38.086,-81.543,-137.207
1678023661.630,-31.738,-31.250,-42.480,-88.379,-7.812
1678023661.634,-36.133,-31.250,-40.527,-89.355,-103.516
1678023661.638,-41.504,-30.762,-37.109,-83.496,-91.309
1678023661.643,-51.270,-34.668,-42.480,-95.703,-59.082
1678023661.647,-48.340,-32.715,-48.340,-102.539,-137.695
1678023661.651,-43.457,-31.738,-47.852,-101.074,-155.273
1678023661.655,-41.504,-34.180,-42.480,-94.238,-115.723
1678023661.659,-41.504,-29.785,-44.922,-84.473,-97.168
1678023661.663,-53.223,-29.785,-48.828,-95.703,-38.574
1678023661.667,-58.105,-36.133,-44.434,-104.980,21.484
1678023661.670,-48.340,-35.156,-38.086,-90.332,-11.719
1678023661.674,-45.898,-36.133,-39.551,-80.566,167.969
1678023661.678,-54.688,-40.527,-44.434,-87.891,222.168
1678023661.682,-64.453,-41.504,-45.410,-95.703,-117.676
1678023661.686,-65.430,-41.504,-41.992,-102.539,-161.133
1678023661.684,-57.129,-39.062,-41.504,-98.145,-122.070
1678023661.688,-49.805,-32.715,-39.551,-89.844,-125.488
1678023661.692,-45.898,-30.273,-37.109,-85.449,-170.410
1678023661.696,-49.316,-38.574,-39.062,-78.613,-41.016
1678023661.700,-51.758,-42.969,-40.527,-80.566,48.828
1678023661.704,-32.227,-48.828,-41.504,-72.266,-81.543
1678023661.708,-22.949,-42.480,-48.828,-60.059,-135.254
1678023661.711,-31.738,-33.203,-51.758,-79.102,-18.555
1678023661.715,-36.133,-36.133,-48.828,-75.684,297.852
1678023661.719,-34.180,-33.691,-55.176,-76.660,161.621
1678023661.723,-17.090,-30.273,-62.500,-87.402,-195.801
1678023661.727,-10.254,-32.227,-63.965,-67.871,-169.434
1678023661.731,-20.508,-38.086,-63.965,-50.293,-103.027
1678023661.735,-26.367,-38.574,-62.988,-56.641,-147.949
1678023661.739,-27.832,-26.855,-60.059,-71.777,-107.910
1678023661.743,-25.879,-24.414,-62.988,-72.266,-72.266
1678023661.747,-17.578,-30.762,-64.941,-74.707,-60.059
1678023661.751,-11.230,-33.203,-63.477,-77.637,33.691
1678023661.755,-24.902,-34.180,-60.547,-77.148,-3.418
1678023661.758,-30.762,-32.715,-55.176,-67.871,127.930
1678023661.762,-26.367,-28.320,-57.617,-66.895,70.312
1678023661.766,-26.855,-26.367,-57.129,-73.730,-174.805
1678023661.770,-21.973,-27.832,-52.734,-68.848,-41.016
1678023661.774,-28.320,-28.320,-48.340,-65.918,-5.859
1678023661.774,-41.504,-27.832,-46.875,-67.383,-126.953
1678023661.778,-39.551,-26.855,-46.875,-77.148,-207.520
1678023661.782,-28.320,-28.809,-48.828,-77.637,-127.930
1678023661.786,-23.926,-27.344,-51.270,-67.383,-31.250
1678023661.790,-29.297,-23.438,-45.898,-70.801,-60.059
1678023661.794,-40.527,-27.832,-45.898,-75.684,-56.152
1678023661.798,-50.293,-31.738,-46.875,-72.754,-15.137
1678023661.801,-42.480,-32.227,-43.457,-63.477,253.906
1678023661.805,-39.551,-31.738,-45.898,-63.965,133.301
1678023661.809,-41.504,-36.621,-46.875,-79.590,-188.965
1678023661.813,-37.598,-35.156,-41.016,-86.426,-144.043
1678023661.817,-35.156,-31.738,-43.457,-79.590,-135.254
1678023661.822,-26.367,-34.668,-46.387,-74.219,-99.121
1678023661.826,-27.832,-34.180,-41.504,-75.195,-115.723
1678023661.830,-37.109,-38.086,-41.016,-71.777,35.156
1678023661.834,-39.551,-39.062,-39.551,-77.148,68.359
1678023661.838,-39.062,-36.133,-36.621,-82.520,-110.352
1678023661.842,-37.109,-35.645,-34.180,-81.055,-105.469
1678023661.846,-25.879,-31.738,-37.109,-69.336,219.727
1678023661.849,-20.020,-30.762,-38.574,-60.059,226.074
1678023661.853,-34.180,-30.762,-37.109,-71.289,-159.180
1678023661.857,-40.527,-28.809,-35.156,-70.801,-146.484
1678023661.861,-32.715,-27.344,-32.227,-62.988,-98.633
1678023661.865,-35.645,-30.762,-37.598,-71.777,-185.059
1678023661.880,-35.156,-26.855,-40.527,-64.453,-188.477
1678023661.884,-28.320,-21.484,-32.715,-56.152,-94.238
1678023661.888,-38.574,-23.926,-31.250,-62.500,-11.230
1678023661.892,-40.039,-24.902,-34.668,-62.012,17.578
1678023661.896,-27.832,-26.367,-34.180,-66.895,-65.918
1678023661.900,-28.320,-29.785,-34.668,-72.266,60.059
1678023661.904,-36.621,-29.297,-37.109,-62.988,453.613
1678023661.907,-45.898,-26.855,-39.551,-70.312,191.895
1678023661.911,-47.363,-20.508,-37.109,-87.891,-181.152
1678023661.915,-36.133,-23.926,-36.621,-76.660,-118.164
1678023661.919,-33.203,-26.855,-37.598,-73.730,-118.652
1678023661.923,-37.109,-22.461,-31.250,-79.590,-149.902
1678023661.911,-42.480,-21.973,-30.273,-77.637,-148.438
1678023661.915,-43.457,-23.926,-30.273,-76.172,-104.004
1678023661.919,-41.016,-24.902,-31.738,-71.289,-119.629
1678023661.923,-43.945,-22.949,-33.691,-70.801,-147.949
1678023661.927,-45.410,-20.996,-30.273,-66.406,-123.535
1678023661.931,-48.340,-29.785,-29.785,-63.965,-55.664
1678023661.935,-45.898,-32.227,-30.273,-70.312,-20.508
1678023661.938,-39.062,-29.297,-29.785,-76.660,-58.105
1678023661.942,-35.645,-28.809,-31.250,-75.195,-158.691
1678023661.946,-40.527,-26.855,-24.414,-62.012,51.270
1678023661.950,-45.898,-26.367,-24.902,-64.941,165.039
1678023661.954,-42.969,-28.320,-28.809,-83.984,-140.625
1678023661.969,-43.945,-32.715,-26.855,-79.590,-100.098
1678023661.973,-40.527,-35.156,-28.809,-68.848,-45.898
1678023661.977,-35.156,-36.621,-33.203,-74.707,-137.695
1678023661.981,-43.457,-40.527,-35.156,-80.566,-162.109
1678023661.985,-47.363,-44.434,-37.598,-75.684,28.809
1678023661.989,-43.457,-41.016,-37.109,-66.895,168.457
1678023661.993,-41.992,-37.598,-35.645,-66.895,-61.523
1678023661.996,-42.480,-35.645,-35.645,-77.637,-105.957
1678023662.000,-51.270,-35.156,-36.133,-74.707,63.477
1678023662.004,-57.129,-37.598,-38.574,-77.148,61.523
1678023662.008,-57.617,-32.227,-40.039,-81.543,-71.777
1678023662.012,-54.199,-29.785,-37.598,-81.055,-99.609
1678023662.015,-44.922,-36.621,-36.621,-73.730,152.832
1678023662.019,-46.387,-33.691,-36.621,-68.359,288.086
1678023662.023,-56.152,-34.668,-38.086,-79.102,-33.203
1678023662.027,-50.293,-39.551,-37.109,-81.055,-118.164
1678023662.031,-34.180,-33.203,-35.156,-81.543,-53.223
1678023662.035,-30.273,-28.320,-34.180,-73.730,16.113
1678023662.039,-47.852,-28.809,-31.250,-68.848,16.113
1678023662.042,-55.176,-27.344,-27.344,-75.195,-142.090
1678023662.046,-49.316,-27.832,-29.785,-69.824,93.262
1678023662.050,-42.969,-29.785,-35.156,-70.312,166.992
1678023662.054,-37.598,-28.809,-32.715,-67.871,-101.562
1678023662.058,-41.016,-31.738,-29.785,-61.523,-88.867
1678023662.059,-43.945,-35.156,-30.762,-60.547,-8.301
1678023662.063,-29.297,-30.762,-31.250,-51.270,-108.887
1678023662.067,-14.648,-28.320,-28.320,-48.828,-153.809
1678023662.071,-27.832,-31.250,-24.902,-50.293,83.008
1678023662.075,-48.828,-33.691,-27.344,-53.711,180.664
1678023662.079,-42.969,-34.180,-31.250,-53.223,-19.043
1678023662.083,-27.344,-31.738,-34.668,-43.945,-88.867
1678023662.086,-13.672,-31.250,-31.250,-31.738,-18.066
1678023662.090,-7.812,-28.320,-28.320,-19.043,169.434
1678023662.094,-15.137,-26.367,-34.668,-31.250,23.438
1678023662.098,-22.461,-28.809,-34.668,-54.688,-208.008
1678023662.102,-24.902,-33.691,-30.273,-53.223,-148.926
1678023662.121,-17.090,-34.668,-31.738,-53.223,-108.887
1678023662.125,-8.301,-28.320,-30.273,-52.734,-217.773
1678023662.129,-9.277,-25.391,-28.320,-51.270,-198.730
1678023662.133,-12.207,-30.273,-32.715,-52.246,-89.844
1678023662.137,-3.906,-35.645,-35.645,-63.477,-83.496
1678023662.141,-11.230,-36.621,-34.180,-65.430,-111.816
1678023662.145,-25.391,-36.133,-28.809,-56.641,-13.672
1678023662.148,-28.320,-36.133,-30.273,-57.617,160.156
1678023662.152,-39.551,-33.203,-35.645,-65.918,137.207
1678023662.156,-42.480,-32.715,-33.691,-73.242,-117.676
1678023662.160,-30.762,-35.645,-29.785,-73.730,-140.625
1678023662.164,-29.785,-33.203,-29.297,-66.895,-61.035
1678023662.150,-41.992,-35.645,-31.738,-65.430,-114.258
1678023662.154,-52.734,-37.109,-31.738,-59.082,-134.277
1678023662.158,-44.434,-35.645,-28.320,-59.082,15.625
1678023662.162,-34.180,-31.738,-30.273,-65.918,134.277
1678023662.166,-37.598,-29.785,-33.203,-71.289,33.691
1678023662.170,-44.434,-34.180,-30.762,-70.801,-43.457
1678023662.174,-54.688,-34.180,-32.715,-72.266,55.176
1678023662.177,-55.176,-31.738,-32.715,-86.914,21.973
1678023662.181,-46.875,-32.715,-32.715,-86.426,-171.387
1678023662.185,-50.781,-30.273,-35.156,-74.707,-208.008
1678023662.189,-46.387,-28.809,-31.738,-63.965,-2.930
1678023662.193,-42.480,-26.855,-27.832,-57.617,289.551
1678023662.196,-45.410,-28.809,-28.320,-68.359,88.867
1678023662.200,-46.875,-35.156,-32.227,-74.707,-74.219
1678023662.204,-47.363,-33.203,-35.156,-77.148,-66.406
1678023662.208,-39.551,-35.156,-31.738,-76.660,-120.117
1678023662.212,-48.828,-36.621,-29.297,-78.125,-111.816
1678023662.216,-56.152,-32.227,-31.250,-73.730,-121.094
1678023662.220,-44.434,-34.668,-29.297,-68.848,248.047
1678023662.223,-39.551,-31.250,-26.367,-67.871,304.688
1678023662.227,-34.668,-25.391,-23.926,-65.430,-107.422
1678023662.231,-35.645,-26.367,-24.902,-65.918,-155.762
1678023662.235,-48.828,-28.809,-29.297,-74.707,-159.180
1678023662.239,-45.898,-30.273,-30.273,-78.613,-216.309
1678023662.239,-39.551,-29.785,-31.250,-75.684,-160.645
1678023662.243,-41.016,-29.785,-27.344,-66.895,-68.848
1678023662.247,-38.574,-27.832,-28.809,-65.918,-53.223
1678023662.251,-37.109,-23.926,-27.344,-69.824,-47.363
1678023662.255,-41.016,-25.879,-23.438,-66.895,-99.609
1678023662.259,-41.992,-27.344,-24.902,-63.965,-32.715
1678023662.263,-37.109,-26.855,-23.438,-46.387,405.273
1678023662.266,-45.410,-25.391,-27.344,-40.039,334.961
1678023662.270,-55.176,-26.855,-32.715,-67.383,-87.891
1678023662.274,-48.828,-27.344,-29.785,-75.684,-79.590
1678023662.278,-40.039,-24.902,-26.855,-63.965,-56.152
1678023662.282,-39.551,-23.926,-25.391,-61.035,-151.855
1678023662.286,-44.922,-30.273,-25.391,-66.406,-157.227
1678023662.290,-46.387,-36.133,-27.344,-72.754,-111.816
1678023662.294,-45.898,-37.598,-25.879,-68.359,-157.227
1678023662.298,-39.062,-33.691,-23.438,-58.594,-240.723
1678023662.302,-33.203,-30.273,-21.484,-52.734,-178.711
1678023662.306,-32.227,-29.297,-25.879,-56.152,17.090
1678023662.310,-39.062,-29.297,-28.320,-63.477,73.730
1678023662.313,-33.203,-26.855,-25.391,-65.430,-93.262
1678023662.317,-29.785,-28.809,-29.785,-63.965,-143.066
1678023662.321,-35.645,-29.785,-29.785,-59.082,146.973
1678023662.325,-41.504,-24.414,-28.320,-54.688,155.273
1678023662.329,-50.293,-28.809,-26.367,-70.801,-168.457
1678023662.344,-56.641,-37.598,-22.949,-85.938,-108.398
1678023662.348,-50.293,-35.156,-26.367,-83.008,15.625
1678023662.352,-41.504,-25.879,-26.855,-77.637,-105.469
1678023662.356,-37.598,-36.133,-20.508,-64.941,-144.043
1678023662.360,-46.875,-36.621,-28.320,-77.148,62.500
1678023662.364,-58.105,-20.996,-33.691,-94.238,302.734
1678023662.368,-57.617,-16.602,-26.367,-87.891,93.750
1678023662.371,-72.266,-16.113,-33.691,-99.609,-87.402
1678023662.375,-76.660,-16.113,-32.227,-105.957,92.285
1678023662.379,-93.262,0.488,-24.902,-112.305,155.273
1678023662.383,-119.141,21.973,-35.156,-143.555,-137.207
1678023662.387,-148.438,32.715,-41.992,-182.129,-105.469
1678023662.389,-176.270,48.340,-38.574,-216.797,34.668
1678023662.393,-194.824,54.199,-35.645,-229.004,-82.031
1678023662.397,-214.355,52.734,-25.879,-229.004,-189.941
1678023662.401,-237.305,65.430,-25.879,-267.578,-178.711
1678023662.405,-250.488,63.477,-25.879,-298.340,-145.996
1678023662.409,-235.352,55.176,-19.531,-274.902,-34.668
1678023662.413,-256.836,67.871,-21.973,-282.227,-5.859
1678023662.416,-266.113,76.660,-27.344,-290.039,-147.949
1678023662.420,-262.207,77.148,-26.367,-280.273,41.016
1678023662.424,-265.625,78.125,-24.902,-294.922,111.816
1678023662.428,-269.531,80.078,-29.785,-308.105,-174.316
1678023662.432,-279.297,77.637,-34.180,-310.059,-113.770
1678023662.435,-275.879,74.707,-42.969,-312.988,-41.504
1678023662.439,-278.320,79.590,-51.758,-322.754,-48.828
1678023662.443,-268.066,85.938,-52.734,-320.801,-119.629
1678023662.447,-239.746,88.379,-53.711,-296.387,24.414
1678023662.451,-235.840,78.125,-60.059,-279.297,252.441
1678023662.455,-241.211,75.684,-69.336,-270.020,46.387
1678023662.459,-244.141,75.684,-67.383,-287.109,-82.520
1678023662.462,-227.539,66.406,-72.266,-280.762,42.969
1678023662.466,-212.891,66.406,-80.566,-259.766,99.609
1678023662.470,-199.707,71.289,-84.473,-255.371,-110.352
1678023662.474,-183.105,77.637,-86.426,-244.629,-194.824
1678023662.478,-191.895,74.707,-90.820,-246.094,-118.652
1678023662.481,-175.293,59.570,-94.238,-242.676,-130.859
1678023662.485,-147.949,53.711,-100.098,-228.027,-114.746
1678023662.489,-135.742,51.270,-103.027,-200.684,-81.055
1678023662.493,-144.531,41.504,-98.145,-196.289,-32.715
1678023662.497,-136.230,30.273,-95.703,-188.477,-28.320
1678023662.501,-116.699,20.508,-102.051,-175.293,-1.953
1678023662.505,-101.562,12.695,-107.910,-171.387,-0.488
1678023662.508,-83.008,3.418,-103.027,-134.766,141.113
1678023662.512,-88.379,3.418,-98.633,-117.188,166.016
1678023662.516,-94.238,-0.488,-101.074,-141.602,-144.043
1678023662.520,-75.195,-10.254,-97.656,-137.695,-98.633
1678023662.524,-63.477,-8.789,-95.215,-105.469,142.090
1678023662.539,-61.523,-12.695,-93.750,-109.863,68.848
1678023662.543,-55.664,-15.625,-89.355,-117.188,-133.301
1678023662.547,-28.320,-18.066,-83.008,-89.355,-90.820
1678023662.551,-15.625,-32.715,-70.312,-75.684,-9.277
1678023662.555,-34.180,-45.410,-70.312,-87.402,-17.090
1678023662.559,-34.668,-50.781,-73.242,-94.238,-74.707
1678023662.563,-15.137,-52.734,-65.430,-79.102,87.402
1678023662.566,-7.812,-59.570,-52.734,-43.457,387.695
1678023662.570,-12.695,-65.918,-47.363,-41.016,224.121
1678023662.574,-11.230,-68.359,-45.898,-54.199,-119.629
1678023662.578,-3.906,-69.824,-37.109,-29.785,-116.211
1678023662.582,5.859,-71.777,-30.762,-21.484,-62.988
1678023662.571,8.301,-78.613,-24.902,-21.484,-68.359
1678023662.575,11.719,-85.449,-22.461,-13.672,-83.496
1678023662.579,18.066,-92.773,-24.902,-18.066,-102.051
1678023662.583,15.625,-93.750,-24.414,-16.602,-82.031
1678023662.587,15.137,-86.914,-21.973,-7.812,-69.336
1678023662.591,20.020,-88.379,-19.531,8.301,-58.594
1678023662.595,13.672,-91.309,-22.461,4.395,66.895
1678023662.598,19.531,-83.008,-22.461,3.906,-25.879
1678023662.602,28.320,-83.496,-20.508,9.766,-105.957
1678023662.606,30.762,-85.449,-22.949,1.465,-29.785
1678023662.610,29.297,-82.031,-22.949,14.648,192.383
1678023662.614,16.113,-83.496,-25.391,16.113,182.617
1678023662.614,9.766,-80.566,-28.809,-8.301,-164.062
1678023662.618,26.855,-71.289,-29.297,4.883,-112.305
1678023662.622,34.180,-70.312,-30.762,20.020,-66.895
1678023662.626,22.461,-74.707,-24.902,13.672,-66.406
1678023662.630,25.391,-73.242,-21.973,15.625,-97.168
1678023662.634,32.227,-73.730,-24.414,19.043,-69.336
1678023662.638,29.297,-77.637,-27.344,13.672,295.898
1678023662.641,21.484,-78.613,-35.156,9.277,122.559
1678023662.645,19.531,-78.613,-31.250,6.348,-210.449
1678023662.649,11.719,-74.707,-28.320,-4.395,-131.836
1678023662.653,6.836,-69.336,-26.855,-13.184,-113.770
1678023662.657,14.648,-68.848,-25.391,-15.625,-171.387
1678023662.662,20.508,-68.359,-28.809,-6.348,-186.523
1678023662.666,10.742,-66.406,-25.879,-1.465,-57.617
1678023662.670,0.000,-60.059,-25.879,-10.254,-92.285
1678023662.674,13.184,-59.570,-27.832,-13.672,-235.352
1678023662.678,17.090,-63.477,-26.367,-11.230,-175.293
1678023662.682,9.766,-62.012,-26.367,-10.254,-41.504
1678023662.686,11.719,-60.547,-26.855,-10.254,29.785
1678023662.689,0.977,-63.965,-28.320,-24.902,-79.102
1678023662.693,-0.488,-62.012,-25.879,-27.832,-165.527
1678023662.697,13.184,-55.664,-21.484,-9.277,107.910
1678023662.701,12.207,-53.711,-23.438,-11.719,93.262
1678023662.705,4.883,-52.734,-23.926,-14.648,-144.531
1678023662.734,2.930,-51.270,-20.020,-5.859,-95.703
1678023662.738,1.953,-52.246,-21.973,-12.207,30.273
1678023662.742,0.488,-55.176,-28.320,-26.367,-60.059
1678023662.746,-3.906,-58.105,-25.879,-21.484,-119.141
1678023662.750,-0.488,-55.176,-20.508,-9.766,48.828
1678023662.754,-5.371,-57.129,-24.414,-4.395,302.734
1678023662.758,-11.230,-54.688,-27.344,-20.508,131.348
1678023662.761,-6.836,-48.340,-26.367,-35.645,-174.805
1678023662.765,-4.883,-55.176,-27.344,-23.926,-32.227
1678023662.769,-9.277,-58.105,-23.926,-24.414,62.500
1678023662.773,-22.949,-55.176,-27.832,-37.598,-108.887
1678023662.777,-29.297,-57.129,-27.832,-38.574,-180.664
1678023662.765,-22.949,-52.734,-22.461,-38.574,-125.488
1678023662.769,-23.438,-48.828,-26.855,-45.898,-81.543
1678023662.773,-29.297,-49.316,-26.367,-45.410,-98.145
1678023662.777,-27.832,-46.875,-23.438,-46.875,-10.254
1678023662.781,-30.762,-47.852,-27.832,-44.434,78.613
1678023662.785,-31.250,-47.363,-24.902,-42.969,86.426
1678023662.789,-31.250,-43.457,-21.484,-41.504,1.465
1678023662.792,-34.668,-40.039,-22.461,-39.551,-44.434
1678023662.796,-36.621,-41.504,-23.438,-38.086,-16.602
1678023662.800,-35.156,-42.480,-24.902,-45.898,-76.660
1678023662.804,-26.367,-41.992,-22.461,-51.270,-190.918
1678023662.808,-26.367,-44.434,-23.926,-46.875,-126.465
1678023662.809,-23.926,-44.922,-26.855,-36.133,107.422
1678023662.813,-23.926,-41.016,-29.785,-35.645,29.785
1678023662.817,-31.250,-36.621,-27.344,-45.898,-209.473
1678023662.821,-26.855,-35.645,-24.902,-43.945,-45.898
1678023662.825,-20.508,-34.180,-26.855,-43.457,29.785
1678023662.829,-22.461,-38.086,-23.438,-37.109,-128.906
1678023662.833,-29.785,-43.945,-22.949,-35.156,-33.203
1678023662.836,-35.645,-44.434,-25.879,-49.316,118.652
1678023662.840,-27.344,-42.969,-23.926,-41.504,301.758
1678023662.844,-20.508,-36.133,-30.273,-36.621,104.492
1678023662.848,-19.043,-32.715,-29.297,-41.016,-204.590
1678023662.852,-18.555,-34.180,-25.391,-37.598,-134.277
1678023662.856,-26.855,-35.156,-27.344,-41.992,-128.418
1678023662.860,-30.273,-35.645,-29.785,-42.969,-232.910
1678023662.864,-25.879,-34.180,-32.715,-41.504,-215.820
1678023662.868,-29.297,-34.180,-35.156,-52.246,-130.371
1678023662.872,-29.297,-32.227,-32.715,-51.270,-78.125
1678023662.876,-35.156,-35.156,-28.809,-52.246,-40.527
1678023662.880,-40.039,-40.039,-34.668,-62.500,-67.871
1678023662.883,-23.926,-38.574,-32.227,-45.898,112.793
1678023662.887,-13.672,-36.133,-27.344,-34.668,197.754
1678023662.891,-23.438,-38.086,-33.203,-48.828,-114.746
1678023662.895,-33.691,-41.016,-37.598,-45.898,-192.871
1678023662.899,-30.273,-40.039,-33.203,-41.992,-82.031
1678023662.914,-22.461,-39.062,-28.809,-47.363,-170.898
1678023662.918,-24.902,-41.016,-31.250,-47.363,-193.359
1678023662.922,-29.785,-39.551,-30.762,-39.551,-47.852
1678023662.926,-37.598,-39.062,-31.250,-40.527,-1.953
1678023662.930,-31.250,-38.574,-28.320,-41.016,-25.879
1678023662.934,-17.090,-35.645,-24.902,-40.039,-77.148
1678023662.938,-18.555,-37.109,-28.320,-39.551,-19.531
1678023662.941,-22.461,-39.551,-28.809,-24.902,242.676
1678023662.945,-32.227,-39.062,-33.203,-41.504,133.301
1678023662.949,-38.574,-33.203,-28.320,-50.781,-130.371
1678023662.953,-25.879,-32.715,-25.391,-42.969,-31.738
1678023662.957,-28.320,-36.621,-33.203,-53.711,-38.086
1678023662.946,-33.691,-38.086,-35.156,-51.270,-136.230
1678023662.950,-39.551,-37.598,-34.668,-49.316,-160.156
1678023662.954,-41.016,-34.668,-34.180,-50.293,-153.320
1678023662.958,-34.668,-31.250,-33.203,-56.641,-136.230
1678023662.962,-36.621,-31.738,-34.180,-61.523,-160.156
1678023662.966,-31.250,-35.645,-36.621,-65.918,-55.664
1678023662.970,-32.715,-41.504,-34.668,-62.012,92.773
1678023662.973,-41.016,-40.527,-34.180,-57.129,-17.090
1678023662.977,-42.480,-36.133,-33.691,-62.988,-176.758
1678023662.981,-35.156,-33.691,-31.250,-60.547,-152.344
1678023662.985,-34.668,-41.504,-29.785,-49.805,169.922
1678023662.989,-45.898,-43.457,-30.273,-51.270,153.320
1678023662.991,-50.781,-43.457,-33.691,-66.895,-117.188
1678023662.995,-45.898,-41.016,-33.203,-59.082,32.227
1678023662.999,-42.969,-36.133,-33.691,-54.688,85.449
1678023663.003,-34.180,-39.551,-37.109,-53.223,9.766
1678023663.007,-36.621,-38.086,-39.551,-39.062,-82.031
1678023663.011,-43.457,-32.715,-36.621,-41.016,-57.129
1678023663.015,-31.738,-33.203,-34.180,-44.922,302.246
1678023663.018,-32.715,-35.645,-34.668,-53.223,170.898
1678023663.022,-34.180,-32.715,-32.715,-56.641,-175.781
1678023663.026,-31.738,-32.227,-30.273,-48.340,-101.562
1678023663.030,-41.504,-38.086,-27.832,-55.176,-93.262
1678023663.034,-41.016,-40.039,-23.926,-58.594,-166.504
1678023663.036,-30.762,-42.969,-26.367,-57.129,-154.297
1678023663.040,-25.391,-45.410,-29.785,-61.523,-82.520
1678023663.044,-20.508,-40.527,-29.297,-58.594,-15.137
1678023663.048,-26.367,-39.551,-28.320,-54.688,-31.250
1678023663.052,-42.480,-44.434,-28.320,-64.941,-157.715
1678023663.056,-36.621,-46.875,-30.762,-50.781,72.266
1678023663.060,-28.320,-44.922,-31.250,-39.551,221.680
1678023663.063,-38.574,-42.969,-35.156,-58.105,-104.004
1678023663.067,-41.504,-43.945,-34.180,-64.453,-220.215
1678023663.071,-36.133,-41.504,-30.762,-59.570,-135.254
1678023663.075,-38.574,-34.668,-28.809,-55.664,-160.156
1678023663.079,-32.227,-35.645,-26.855,-56.152,-163.574
1678023663.094,-22.949,-36.133,-24.414,-50.293,-116.211
1678023663.098,-33.691,-33.203,-27.832,-51.270,-67.871
1678023663.102,-40.527,-39.062,-35.645,-62.500,-95.703
1678023663.106,-35.156,-42.480,-36.133,-56.641,-120.605
1678023663.110,-22.949,-37.598,-34.180,-56.152,57.617
1678023663.114,-20.508,-32.715,-32.227,-50.781,218.262
1678023663.118,-34.668,-35.156,-31.250,-42.480,107.422
1678023663.121,-30.273,-32.715,-26.855,-52.246,-50.293
1678023663.125,-19.531,-29.785,-26.367,-45.410,-9.766
1678023663.129,-26.855,-38.086,-31.250,-40.039,142.578
1678023663.133,-39.062,-38.086,-36.133,-49.316,-18.066
1678023663.137,-42.480,-32.715,-37.598,-51.270,-118.164
1678023663.140,-43.945,-33.203,-35.156,-45.898,-13.184
1678023663.144,-40.039,-32.227,-34.180,-48.828,-26.855
1678023663.148,-33.203,-31.738,-30.762,-52.246,-131.348
1678023663.152,-29.297,-32.715,-28.809,-37.109,-139.160
1678023663.156,-35.645,-34.668,-33.203,-38.574,-96.191
1678023663.160,-41.016,-34.180,-36.621,-48.828,-22.461
1678023663.164,-40.527,-36.621,-37.109,-55.176,-17.578
1678023663.167,-35.645,-36.621,-36.621,-59.570,-98.145
1678023663.171,-30.273,-31.250,-35.645,-44.922,138.672
1678023663.175,-40.527,-32.715,-32.715,-38.574,244.141
1678023663.179,-52.734,-35.156,-31.250,-53.711,-104.492
1678023663.183,-42.969,-32.715,-31.250,-58.594,-127.930
1678023663.184,-43.457,-33.203,-35.645,-58.105,-42.480
1678023663.188,-43.945,-31.738,-36.621,-52.246,-97.656
1678023663.192,-46.875,-32.715,-36.133,-54.688,-140.625
1678023663.196,-53.711,-37.598,-36.621,-60.059,-10.254
1678023663.200,-47.363,-41.992,-33.691,-57.129,106.934
1678023663.204,-41.992,-43.945,-39.062,-60.547,-11.230
1678023663.208,-39.551,-43.457,-36.133,-59.570,-53.711
1678023663.211,-47.363,-44.434,-27.832,-47.363,86.426
1678023663.215,-57.129,-40.527,-30.273,-39.551,239.258
1678023663.219,-58.594,-37.109,-33.203,-60.059,-36.133
1678023663.223,-46.875,-35.645,-31.738,-57.617,-212.402
1678023663.227,-46.387,-36.133,-29.785,-48.340,-32.227
1678023663.246,-56.641,-38.086,-27.832,-51.758,-20.996
1678023663.250,-64.453,-38.574,-32.715,-58.594,-129.883
1678023663.254,-63.477,-37.109,-34.668,-65.430,-124.023
1678023663.258,-53.711,-34.180,-31.250,-63.965,-121.094
1678023663.262,-46.387,-29.297,-25.879,-57.617,-106.934
1678023663.266,-39.062,-25.879,-25.879,-47.363,17.090
1678023663.270,-46.875,-29.785,-26.367,-44.434,25.879
1678023663.273,-48.828,-29.785,-23.438,-44.434,120.605
1678023663.277,-41.504,-27.344,-28.809,-47.852,97.168
1678023663.281,-32.227,-25.391,-31.250,-58.594,-166.504
1678023663.285,-31.738,-28.320,-29.785,-54.688,-132.324
1678023663.289,-50.293,-31.250,-27.344,-47.363,-100.586
1678023663.305,-52.246,-28.320,-25.391,-53.711,-105.469
1678023663.309,-45.898,-27.344,-28.320,-61.035,-169.922
1678023663.313,-43.945,-28.809,-30.273,-60.547,-144.531
1678023663.317,-19.043,-21.484,-34.668,-45.410,73.242
1678023663.321,-21.484,-25.879,-28.809,-39.062,-12.695
1678023663.325,-61.035,-40.039,-17.578,-65.918,-72.266
1678023663.329,-56.152,-39.551,-21.973,-67.871,42.480
1678023663.332,-32.227,-34.180,-25.879,-49.316,78.125
1678023663.336,-36.133,-34.180,-25.879,-52.734,-59.082
1678023663.340,-42.969,-34.180,-23.438,-49.805,-157.715
1678023663.344,-47.363,-39.551,-18.066,-48.340,3.418
1678023663.348,-47.852,-38.574,-21.973,-53.223,302.734
1678023663.323,-42.480,-37.598,-25.879,-58.594,69.336
1678023663.327,-35.645,-36.133,-20.508,-51.270,-137.207
1678023663.331,-39.062,-37.598,-16.113,-40.527,0.488
1678023663.335,-41.992,-40.527,-17.090,-46.875,-0.977
1678023663.339,-41.504,-42.480,-19.531,-49.805,-110.352
1678023663.343,-37.109,-43.457,-20.508,-44.434,-72.266
1678023663.347,-33.691,-47.363,-20.508,-41.504,36.621
1678023663.350,-36.133,-43.945,-22.461,-39.062,-43.945
1678023663.354,-33.691,-38.574,-24.902,-37.598,-145.020
1678023663.358,-23.926,-35.645,-23.926,-40.039,-137.695
1678023663.362,-16.602,-29.297,-20.996,-38.574,-90.820
1678023663.366,-23.438,-32.227,-21.973,-38.086,-129.883
1678023663.394,-32.715,-35.156,-22.461,-37.598,-192.383
1678023663.398,-37.598,-35.156,-21.973,-34.668,-146.484
1678023663.402,-33.691,-38.086,-18.555,-26.367,79.590
1678023663.406,-31.738,-40.039,-23.438,-31.250,110.352
1678023663.410,-33.691,-37.109,-28.809,-34.668,-83.496
1678023663.414,-26.367,-37.109,-21.973,-27.344,23.926
1678023663.418,-30.762,-41.504,-20.508,-23.926,364.746
1678023663.421,-38.574,-38.574,-26.367,-34.668,248.535
1678023663.425,-35.645,-37.109,-22.949,-47.363,-135.254
1678023663.429,-31.738,-41.504,-26.367,-44.434,-125.977
1678023663.433,-40.527,-22.949,-21.484,-45.898,-78.613
1678023663.437,-43.945,-20.020,-1.465,-44.434,-177.734
1678023663.426,-45.410,-42.480,-13.184,-56.641,-203.613
1678023663.430,-52.246,-35.645,-9.277,-81.055,-118.164
1678023663.434,-63.477,4.395,8.789,-92.285,-97.168
1678023663.438,-102.051,0.977,-3.906,-117.676,-162.598
1678023663.442,-137.207,-1.465,39.062,-146.973,-116.211
1678023663.446,-154.297,33.691,34.668,-164.551,-0.977
1678023663.450,-201.660,43.945,-24.414,-219.727,-36.133
1678023663.453,-237.793,40.039,-17.090,-245.117,-54.199
1678023663.457,-251.465,31.738,-8.789,-249.023,-28.809
1678023663.461,-277.344,27.344,-4.395,-289.062,-60.059
1678023663.465,-285.156,41.016,-0.488,-303.711,-119.629
1678023663.469,-275.391,45.898,5.371,-292.969,-135.742
1678023663.469,-282.227,38.574,11.230,-307.129,-108.887
1678023663.473,-287.598,31.250,24.902,-289.062,155.273
1678023663.477,-290.527,36.621,23.438,-288.086,107.422
1678023663.481,-290.527,38.574,22.949,-296.875,-135.254
1678023663.485,-276.367,32.227,35.156,-273.438,25.879
1678023663.489,-249.512,38.574,39.551,-240.723,93.262
1678023663.493,-230.469,41.016,41.992,-224.121,-11.719
1678023663.496,-221.680,30.273,42.969,-222.168,-142.090
1678023663.500,-210.449,15.137,41.504,-211.914,-136.719
1678023663.504,-184.570,6.836,37.598,-190.430,203.125
1678023663.508,-157.227,4.883,33.691,-163.574,179.199
1678023663.512,-140.137,-6.348,35.156,-147.461,-139.160
1678023663.514,-125.000,-20.996,28.809,-121.582,-78.125
1678023663.518,-108.887,-32.715,16.602,-95.215,-67.871
1678023663.522,-82.520,-41.992,10.254,-81.543,-143.066
1678023663.526,-66.895,-47.363,6.348,-74.707,-42.480
1678023663.530,-53.711,-53.223,4.883,-59.570,-24.414
1678023663.534,-49.316,-67.871,3.906,-50.781,-16.113
1678023663.538,-44.434,-69.336,-1.953,-41.504,67.871
1678023663.541,-32.715,-67.871,-8.789,-32.227,-75.684
1678023663.545,-28.809,-79.102,-14.160,-20.996,83.984
1678023663.549,-21.973,-79.102,-20.508,-12.695,156.738
1678023663.553,-7.812,-76.172,-22.949,-5.371,-146.973
1678023663.557,0.977,-76.660,-19.043,11.230,-88.379
1678023663.559,-4.883,-78.125,-19.531,12.207,-31.738
1678023663.563,7.812,-78.125,-24.414,17.090,-118.164
1678023663.567,25.391,-76.660,-28.320,29.297,-122.559
1678023663.571,33.691,-76.172,-31.250,44.922,29.785
1678023663.575,30.762,-74.219,-30.762,41.504,224.121
1678023663.579,30.762,-70.801,-30.273,28.320,106.934
1678023663.583,39.062,-69.336,-34.180,24.902,-20.508
1678023663.586,47.852,-67.383,-40.039,41.504,100.586
1678023663.590,44.434,-68.848,-42.480,50.293,210.938
1678023663.594,30.762,-69.824,-47.852,36.133,-43.457
1678023663.598,29.785,-63.477,-45.410,31.250,-221.680
1678023663.602,41.992,-59.082,-39.062,32.715,-155.273
1678023663.607,46.387,-60.547,-43.457,41.504,-105.957
1678023663.611,37.109,-69.336,-41.992,37.109,-120.605
1678023663.615,31.250,-73.242,-41.016,28.320,-56.152
1678023663.619,33.203,-62.500,-45.898,26.855,44.434
1678023663.623,37.109,-59.570,-40.527,28.809,5.371
1678023663.627,42.969,-63.965,-40.527,35.156,-79.102
1678023663.631,46.875,-60.547,-45.898,35.156,-83.008
1678023663.634,45.898,-57.617,-44.434,43.457,103.516
1678023663.638,40.039,-57.617,-44.434,35.645,64.941
1678023663.642,35.156,-55.176,-44.922,18.066,-229.492
1678023663.646,40.039,-51.758,-45.410,35.645,-185.059
1678023663.650,45.410,-47.852,-49.316,31.738,-125.000
1678023663.649,40.039,-46.875,-47.852,17.578,-207.031
1678023663.653,29.785,-49.316,-45.410,24.414,-215.332
1678023663.657,28.320,-51.270,-42.969,28.320,-166.992
1678023663.661,30.762,-53.711,-44.922,24.902,-56.152
1678023663.665,28.809,-50.293,-43.945,18.555,-26.367
1678023663.669,29.297,-45.898,-38.574,19.043,-51.758
1678023663.673,21.973,-44.434,-39.062,16.602,89.844
1678023663.676,20.996,-41.504,-41.504,24.902,310.059
1678023663.680,27.832,-41.992,-41.992,22.461,266.602
1678023663.684,28.320,-38.086,-36.621,18.066,-62.988
1678023663.688,24.902,-38.086,-36.133,19.531,-138.672
1678023663.692,18.555,-40.039,-38.086,13.672,-123.047
1678023663.697,15.625,-41.504,-37.598,17.090,-166.016
1678023663.701,16.113,-43.945,-34.668,22.461,-140.137
1678023663.705,16.113,-44.922,-31.250,18.066,-60.059
1678023663.709,18.066,-46.875,-34.180,6.836,-100.586
1678023663.713,15.137,-47.363,-34.668,-0.977,-145.508
1678023663.717,5.371,-45.410,-31.250,-2.930,-104.004
1678023663.721,10.742,-44.434,-31.250,4.883,125.977
1678023663.724,19.043,-48.340,-32.227,4.395,258.789
1678023663.728,11.719,-47.363,-31.738,-2.441,-25.879
1678023663.732,5.371,-44.922,-33.203,-1.953,-160.156
1678023663.736,-1.465,-50.293,-37.598,-7.812,-91.797
1678023663.740,-1.953,-50.293,-41.504,-10.742,-105.469
1678023663.739,6.348,-42.969,-40.039,-7.324,-163.086
1678023663.743,5.371,-37.109,-33.691,2.441,-100.586
1678023663.747,-2.930,-40.039,-29.785,-2.441,49.316
1678023663.751,-3.906,-44.434,-34.668,-16.602,-59.082
1678023663.755,0.000,-44.434,-38.086,-20.020,-125.488
1678023663.759,0.000,-44.434,-36.621,-14.160,47.852
1678023663.763,2.441,-42.480,-36.621,0.488,395.508
1678023663.766,-3.906,-41.504,-36.621,-14.648,253.418
1678023663.770,-17.090,-44.434,-34.180,-30.273,-124.512
1678023663.774,-13.672,-43.945,-32.715,-24.902,-10.742
1678023663.778,-10.742,-41.992,-37.109,-17.578,-26.855
1678023663.782,-14.648,-40.039,-36.621,-20.508,-142.090
1678023663.786,-15.137,-39.551,-32.715,-30.273,-124.512
1678023663.790,-17.090,-37.598,-31.250,-27.832,-125.000
1678023663.794,-18.066,-33.691,-32.227,-28.320,-163.086
1678023663.798,-17.578,-36.133,-31.738,-31.250,-205.566
1678023663.802,-15.625,-40.039,-27.832,-19.043,-221.191
1678023663.806,-15.137,-42.480,-32.227,-16.602,-122.070
1678023663.810,-21.484,-43.945,-36.621,-30.273,-57.129
1678023663.813,-31.250,-41.504,-33.203,-37.598,-112.305
1678023663.817,-34.668,-40.039,-32.227,-36.621,-104.492
1678023663.821,-31.250,-36.133,-32.227,-26.855,118.652
1678023663.825,-29.297,-32.715,-34.180,-32.715,43.945
1678023663.829,-27.832,-36.133,-34.180,-41.504,-160.645
1678023663.859,-25.879,-37.109,-29.785,-33.203,-52.246
1678023663.863,-20.996,-39.062,-34.668,-34.668,-19.531
1678023663.867,-18.555,-37.598,-36.133,-40.039,-88.867
1678023663.871,-19.531,-38.574,-33.203,-42.480,-75.684
1678023663.875,-21.973,-42.480,-32.227,-38.574,99.121
1678023663.879,-28.320,-37.109,-32.715,-30.273,293.945
1678023663.883,-28.320,-34.180,-39.551,-37.109,133.789
1678023663.886,-23.438,-33.203,-41.504,-44.922,-101.074
1678023663.890,-26.855,-37.598,-35.645,-34.180,22.461
1678023663.894,-38.574,-41.992,-33.691,-31.250,83.496
1678023663.898,-37.598,-39.551,-37.109,-44.434,-78.125
1678023663.902,-24.414,-37.598,-34.668,-44.922,-100.586
1678023663.891,-21.484,-34.668,-29.785,-35.156,-77.637
1678023663.895,-28.320,-38.086,-30.273,-30.273,-20.020
1678023663.899,-37.109,-40.527,-32.715,-31.250,-32.227
1678023663.903,-37.598,-41.016,-30.762,-35.156,-98.633
1678023663.907,-33.691,-41.504,-27.832,-35.645,-75.684
1678023663.911,-34.668,-40.039,-28.320,-29.785,-0.977
1678023663.915,-36.133,-37.598,-24.414,-27.832,-31.738
1678023663.918,-35.645,-31.250,-27.832,-36.621,-97.168
1678023663.922,-26.367,-28.320,-28.809,-41.504,-72.266
1678023663.926,-31.250,-32.227,-27.344,-34.668,-119.629
1678023663.930,-36.621,-32.227,-30.273,-37.598,-174.316
1678023663.934,-30.273,-30.273,-30.762,-39.551,-107.910
1678023663.934,-22.461,-34.668,-35.156,-26.855,170.410
1678023663.938,-28.320,-34.180,-40.039,-30.762,105.957
1678023663.942,-43.457,-33.203,-37.598,-55.664,-181.641
1678023663.946,-41.016,-29.785,-32.227,-60.059,21.484
1678023663.950,-39.551,-27.344,-30.273,-50.781,86.426
1678023663.954,-54.688,-35.645,-29.785,-53.223,-83.984
1678023663.958,-62.012,-38.574,-33.691,-62.988,-110.840
1678023663.961,-49.316,-34.180,-33.203,-54.688,-20.508
1678023663.965,-44.922,-35.156,-31.738,-39.062,274.414
1678023663.969,-58.105,-36.621,-38.086,-50.293,132.812
1678023663.973,-61.523,-36.621,-38.574,-59.570,-208.008
1678023663.977,-57.617,-38.086,-34.180,-64.941,-130.371
1678023663.981,-54.199,-35.645,-32.715,-66.895,8.789
1678023663.985,-45.410,-37.598,-32.227,-62.988,-93.262
1678023663.989,-45.898,-40.039,-28.809,-50.781,-113.281
1678023663.993,-43.457,-37.598,-29.297,-43.457,-98.633
1678023663.997,-38.574,-31.250,-36.133,-43.945,-160.156
1678023664.001,-36.621,-28.809,-37.109,-44.434,-117.188
1678023664.005,-32.715,-31.738,-31.738,-45.898,-90.820
1678023664.008,-27.344,-31.738,-32.715,-40.039,184.082
1678023664.012,-30.762,-33.691,-38.574,-42.480,250.488
1678023664.016,-42.480,-31.738,-38.574,-48.828,-120.605
1678023664.020,-36.621,-25.391,-33.203,-48.828,-170.898
1678023664.024,-22.949,-24.414,-30.762,-43.457,-88.379
1678023664.040,-29.297,-27.344,-32.227,-43.945,-114.258
1678023664.044,-41.992,-27.832,-32.715,-49.316,-182.617
1678023664.048,-40.039,-30.273,-32.227,-47.363,-153.320
1678023664.052,-36.621,-29.785,-31.738,-50.293,-50.293
1678023664.056,-36.621,-26.855,-37.598,-49.316,-82.031
1678023664.060,-33.691,-28.320,-34.668,-50.293,-58.594
1678023664.064,-38.086,-34.180,-35.645,-54.688,100.586
1678023664.067,-40.039,-30.762,-40.039,-41.992,301.270
1678023664.071,-37.598,-28.320,-39.551,-44.922,167.480
1678023664.075,-32.715,-25.879,-33.691,-57.129,-126.465
1678023664.079,-35.156,-26.367,-29.297,-55.664,-73.242
1678023664.083,-41.992,-32.715,-33.203,-53.711,-99.609
1678023664.071,-50.781,-34.180,-36.133,-51.270,-234.863
1678023664.075,-52.734,-36.133,-38.574,-50.293,-238.281
1678023664.079,-43.457,-35.156,-39.551,-42.480,-70.312
1678023664.083,-37.598,-32.715,-37.598,-47.852,-28.320
1678023664.087,-33.691,-28.809,-36.133,-56.641,-133.301
1678023664.091,-31.250,-27.344,-34.668,-48.340,-96.680
1678023664.095,-31.250,-25.391,-36.133,-52.246,-45.898
1678023664.098,-32.227,-23.926,-38.086,-51.270,-81.543
1678023664.102,-33.691,-26.855,-37.109,-46.387,-154.785
1678023664.106,-29.297,-31.738,-34.180,-52.246,-105.469
1678023664.110,-31.250,-32.227,-31.738,-43.945,189.941
1678023664.114,-35.645,-28.809,-32.227,-41.504,224.609
1678023664.115,-29.785,-27.344,-33.691,-41.504,-173.828
1678023664.119,-23.926,-29.297,-32.227,-26.855,-135.742
1678023664.123,-30.273,-33.203,-32.715,-30.273,-49.316
1678023664.127,-36.621,-32.227,-31.738,-41.016,-108.398
1678023664.131,-38.574,-30.273,-26.855,-44.434,-165.039
1678023664.135,-34.180,-33.691,-25.879,-40.039,-33.691
1678023664.139,-22.461,-31.738,-27.344,-31.250,352.539
1678023664.142,-28.809,-31.250,-37.598,-40.039,195.312
1678023664.146,-36.621,-32.715,-35.645,-48.340,-202.148
1678023664.150,-36.133,-31.738,-29.785,-47.363,-124.023
1678023664.154,-38.086,-31.250,-30.273,-46.875,-91.797
1678023664.158,-35.156,-31.250,-31.250,-48.828,-230.957
1678023664.162,-31.738,-32.227,-30.762,-49.805,-211.914
1678023664.166,-37.109,-33.203,-32.227,-43.457,-66.406
1678023664.170,-43.945,-35.156,-34.668,-47.852,-66.406
1678023664.174,-39.062,-34.180,-30.273,-54.199,-204.590
1678023664.178,-33.691,-32.227,-34.668,-48.828,-231.445
1678023664.182,-30.762,-33.203,-43.945,-40.039,40.527
1678023664.186,-31.250,-33.691,-42.969,-45.410,129.883
1678023664.189,-45.410,-36.133,-40.527,-58.594,-104.980
1678023664.193,-45.410,-38.574,-33.691,-57.617,-169.922
1678023664.197,-32.715,-35.645,-31.738,-45.898,-23.926
1678023664.201,-35.645,-38.086,-37.109,-47.363,-22.949
1678023664.205,-38.086,-42.480,-38.574,-49.805,-142.578
1678023664.219,-38.086,-43.457,-35.156,-50.781,-73.242
1678023664.223,-35.156,-44.434,-36.133,-56.152,-90.820
1678023664.227,-29.297,-41.992,-36.133,-50.781,-145.020
1678023664.231,-28.809,-38.574,-37.109,-41.504,-97.168
1678023664.235,-26.367,-32.715,-35.156,-41.992,3.418
1678023664.239,-27.344,-32.227,-30.273,-37.109,259.277
1678023664.243,-28.809,-31.738,-34.180,-37.109,151.855
1678023664.246,-25.391,-32.227,-37.109,-42.480,-102.051
1678023664.250,-18.066,-33.691,-32.227,-27.344,-9.277
1678023664.254,-24.414,-35.156,-31.738,-20.020,140.137
1678023664.258,-33.691,-32.227,-34.668,-37.598,-99.609
1678023664.262,-32.227,-31.738,-33.203,-41.504,-214.355
1678023664.265,-29.297,-33.691,-35.156,-30.762,-106.445
1678023664.269,-29.297,-35.156,-39.062,-32.227,-123.535
1678023664.273,-33.691,-34.668,-39.062,-37.598,-174.805
1678023664.277,-39.062,-29.297,-35.645,-41.992,-190.918
1678023664.281,-34.668,-25.879,-33.691,-41.504,-139.160
1678023664.285,-27.344,-29.785,-34.180,-39.062,-84.961
1678023664.289,-21.484,-36.621,-36.621,-28.809,-21.484
1678023664.292,-20.508,-32.227,-37.109,-21.973,-54.688
1678023664.296,-25.391,-33.203,-33.691,-19.043,143.066
1678023664.300,-30.273,-37.598,-34.180,-26.367,224.609
1678023664.304,-29.785,-30.762,-36.621,-41.504,-153.320
1678023664.308,-20.508,-31.250,-37.598,-32.715,-126.953
1678023664.324,-32.715,-37.109,-38.086,-31.250,-34.668
1678023664.328,-41.504,-36.133,-38.574,-36.621,-96.680
1678023664.332,-32.715,-31.250,-34.180,-40.527,-124.023
1678023664.336,-24.414,-29.297,-35.645,-39.551,-43.945
1678023664.340,-18.066,-25.879,-41.016,-30.762,77.148
1678023664.344,-23.438,-23.926,-37.598,-29.297,17.090
1678023664.348,-31.738,-30.273,-30.273,-31.738,-26.855
1678023664.351,-31.738,-27.344,-33.203,-38.574,-20.508
1678023664.355,-25.391,-14.160,-36.621,-29.297,245.605
1678023664.359,-22.949,-28.320,-27.832,-39.062,160.156
1678023664.363,-33.203,-4.883,-32.227,-62.500,-134.277
1678023664.367,-44.922,-0.488,-31.738,-69.824,-83.496
1678023664.356,-66.406,-23.438,-15.625,-91.797,-145.508
1678023664.360,-71.289,12.695,0.977,-92.773,-266.602
1678023664.364,-89.844,11.719,-11.230,-98.145,-221.680
1678023664.368,-138.672,17.090,-20.020,-141.602,-115.723
1678023664.372,-175.781,50.293,-19.531,-193.848,-131.836
1678023664.376,-210.449,55.664,-12.207,-231.445,-74.219
1678023664.380,-251.465,54.199,-2.441,-270.996,-22.461
1678023664.383,-278.320,50.293,1.465,-297.363,-31.738
1678023664.387,-268.066,56.641,12.695,-281.738,-84.961
1678023664.391,-266.113,54.199,17.578,-270.508,-132.812
1678023664.395,-284.180,43.457,14.160,-294.922,-169.922
1678023664.399,-288.086,41.504,16.602,-298.340,122.559
1678023664.399,-279.297,42.480,19.531,-271.973,206.055
1678023664.403,-262.207,41.016,23.926,-261.719,-134.277
1678023664.407,-250.000,33.203,27.832,-254.395,-144.043
1678023664.411,-238.281,23.926,32.227,-251.465,-118.652
1678023664.415,-219.727,17.090,33.203,-235.352,-125.977
1678023664.419,-208.008,5.859,34.668,-202.148,-123.535
1678023664.423,-193.848,-8.789,44.922,-180.664,-27.344
1678023664.426,-177.246,-20.508,45.898,-160.645,314.941
1678023664.430,-163.574,-27.344,42.480,-143.555,172.852
1678023664.434,-150.391,-35.645,42.480,-135.742,-189.453
1678023664.438,-125.488,-49.316,42.480,-111.328,-111.816
1678023664.442,-102.051,-56.152,41.992,-84.961,-82.520
1678023664.448,-83.984,-64.941,34.180,-69.336,-88.867
1678023664.452,-72.266,-75.684,30.762,-50.293,-53.711
1678023664.456,-61.523,-78.613,34.668,-39.062,-48.340
1678023664.460,-43.457,-81.055,29.297,-33.203,-82.520
1678023664.464,-31.738,-83.984,22.949,-21.484,-196.289
1678023664.468,-23.438,-90.332,25.879,-8.789,-156.250
1678023664.472,-21.973,-93.262,28.809,3.418,176.270
1678023664.475,-17.090,-92.773,26.855,9.766,195.801
1678023664.479,-11.719,-97.656,19.531,6.836,-94.727
1678023664.483,1.465,-99.121,15.625,16.113,-68.359
1678023664.487,11.230,-94.238,14.648,32.715,-28.809
1678023664.491,0.977,-90.820,8.789,36.133,-77.637
1678023664.489,0.000,-93.750,3.906,39.551,-127.930
1678023664.493,10.254,-98.145,1.465,37.598,-95.215
1678023664.497,30.273,-97.656,4.883,35.645,-64.941
1678023664.501,33.691,-99.121,4.395,41.992,-7.812
1678023664.505,20.996,-97.656,0.000,41.992,-25.391
1678023664.509,19.531,-94.238,0.000,39.062,-69.336
1678023664.513,38.574,-93.262,-0.977,61.035,284.668
1678023664.516,46.875,-86.914,-1.953,68.848,323.242
1678023664.520,40.039,-85.449,-2.441,60.059,-73.242
1678023664.524,41.504,-87.402,0.977,59.082,-120.117
1678023664.528,35.156,-85.449,1.465,52.246,-100.098
1678023664.532,46.387,-86.914,1.465,50.293,-164.062
1678023664.536,54.688,-83.496,-1.953,53.711,-144.043
1678023664.540,45.410,-82.520,-2.441,53.223,-81.543
1678023664.544,38.086,-82.520,-4.883,58.105,-60.059
1678023664.548,32.227,-82.520,-12.207,54.688,-125.977
1678023664.552,30.273,-89.355,-12.207,34.180,-166.504
1678023664.556,40.039,-83.008,-13.184,49.316,-2.930
1678023664.560,48.828,-74.707,-17.090,66.895,40.527
1678023664.563,43.457,-75.195,-18.066,54.688,-61.523
1678023664.567,36.133,-68.848,-15.625,47.363,-162.109
1678023664.571,32.227,-67.383,-16.113,55.664,84.961
1678023664.575,34.180,-73.730,-19.043,50.781,181.641
1678023664.579,24.902,-77.637,-22.949,40.527,-105.957
1678023664.594,29.785,-74.219,-22.461,41.992,-31.738
1678023664.598,36.133,-71.289,-19.531,38.086,0.977
1678023664.602,25.879,-69.336,-23.926,29.785,-123.047
1678023664.606,25.879,-64.941,-26.855,30.273,-110.352
1678023664.610,31.250,-63.965,-29.297,38.574,-10.742
1678023664.614,31.250,-62.500,-33.691,31.738,175.293
1678023664.618,22.949,-58.105,-32.227,19.043,91.797
1678023664.621,22.949,-58.105,-36.133,0.488,-98.145
1678023664.625,29.785,-61.035,-44.434,8.301,-12.207
1678023664.629,24.414,-59.082,-44.434,27.832,176.270
1678023664.633,12.207,-54.688,-42.480,15.137,-28.809
1678023664.637,10.742,-50.781,-38.574,6.348,-179.688
1678023664.640,12.695,-47.852,-37.109,7.324,-84.961
1678023664.644,15.137,-47.363,-40.039,2.930,-116.211
1678023664.648,25.391,-46.875,-45.898,0.977,-133.789
1678023664.652,18.555,-40.527,-46.387,9.277,-105.469
1678023664.656,5.371,-40.527,-46.875,7.324,-114.746
1678023664.660,0.000,-44.922,-48.340,0.000,-42.480
1678023664.664,4.883,-41.016,-47.852,-6.348,-61.523
1678023664.667,4.883,-35.645,-49.805,-9.277,-152.832
1678023664.671,0.488,-34.180,-49.805,8.789,62.500
1678023664.675,0.488,-32.227,-46.387,15.137,161.621
1678023664.679,3.906,-25.391,-42.969,-0.488,-48.340
1678023664.683,9.277,-24.414,-49.805,-11.230,-72.266
1678023664.684,9.277,-25.879,-47.363,-5.371,-31.250
1678023664.688,8.301,-26.367,-46.875,-6.836,-67.871
1678023664.692,14.160,-25.879,-51.270,-7.812,-135.742
1678023664.696,16.113,-25.391,-47.852,8.789,-37.109
1678023664.700,-1.953,-21.973,-44.922,-7.324,9.277
1678023664.704,-19.043,-24.902,-42.969,-36.133,-13.672
1678023664.708,-15.625,-33.203,-41.016,-31.250,14.648
1678023664.711,-22.461,-33.691,-33.691,-15.625,14.648
1678023664.715,-42.969,-40.527,-36.621,-11.230,177.246
1678023664.719,-35.156,-43.945,-35.645,-15.625,13.184
1678023664.723,-30.273,-41.992,-30.273,-20.996,-187.988
1678023664.727,-38.574,-41.016,-26.855,-21.484,-163.574
1678023664.733,-42.969,-44.922,-22.949,-36.621,-120.605
1678023664.737,-50.781,-51.758,-27.832,-40.039,-150.391
1678023664.741,-45.410,-49.805,-29.785,-21.484,-156.738
1678023664.745,-39.062,-49.316,-25.391,-28.320,-18.066
1678023664.749,-33.691,-50.781,-26.367,-28.320,-20.508
1678023664.753,-40.527,-49.805,-23.438,-20.508,-64.453
1678023664.757,-42.480,-44.922,-17.578,-20.020,-69.824
1678023664.760,-31.738,-43.457,-18.555,-11.719,114.746
1678023664.764,-26.855,-41.992,-21.973,-12.207,143.555
1678023664.768,-26.367,-37.109,-24.414,-18.066,-125.977
1678023664.772,-24.902,-34.668,-21.484,-19.531,-123.047
1678023664.776,-24.902,-32.715,-20.996,-16.602,-102.051
1678023664.776,-23.438,-33.691,-26.367,-24.414,-144.531
1678023664.780,-14.648,-33.203,-29.297,-38.086,-214.844
1678023664.784,-8.789,-34.668,-27.832,-21.484,-85.449
1678023664.788,-14.648,-34.180,-28.320,-6.348,79.102
1678023664.792,-29.785,-33.691,-31.250,-20.996,13.672
1678023664.796,-30.273,-35.156,-28.320,-28.320,6.836
1678023664.800,-19.531,-33.691,-25.879,-27.344,99.609
1678023664.803,-14.160,-34.668,-26.855,-21.973,351.562
1678023664.807,-25.391,-37.598,-29.297,-17.578,197.266
1678023664.811,-34.180,-40.527,-33.691,-26.367,-166.016
1678023664.815,-22.461,-35.156,-33.691,-32.227,-109.863
1678023664.819,-18.066,-31.738,-35.645,-21.484,-66.406
1678023664.821,-21.973,-32.227,-32.227,-20.996,-98.145
1678023664.825,-23.926,-30.762,-30.273,-30.273,-62.500
1678023664.829,-33.203,-30.273,-33.203,-32.227,-41.504
1678023664.833,-32.227,-34.180,-32.227,-32.715,-102.051
1678023664.837,-21.973,-34.668,-28.320,-14.648,-112.305
1678023664.841,-19.531,-35.156,-31.738,-14.160,-71.289
1678023664.845,-26.855,-41.504,-32.715,-17.090,227.539
1678023664.848,-35.645,-39.062,-30.273,-19.043,292.969
1678023664.852,-41.504,-30.762,-31.738,-34.180,-102.051
1678023664.856,-29.785,-30.762,-34.668,-25.879,-139.160
1678023664.860,-18.555,-32.715,-38.574,-22.461,-42.969
1678023664.864,-25.391,-30.762,-37.598,-29.297,-130.371
1678023664.879,-29.785,-29.297,-36.621,-31.738,-185.547
1678023664.883,-27.832,-30.273,-34.668,-22.949,-101.562
1678023664.887,-26.367,-32.715,-32.715,-11.230,-91.797
1678023664.891,-21.973,-28.809,-30.273,-17.578,-60.059
1678023664.895,-20.996,-28.320,-31.250,-30.273,-33.203
1678023664.899,-21.484,-29.785,-36.133,-30.273,-14.648
1678023664.903,-22.949,-26.855,-33.691,-22.949,272.949
1678023664.906,-27.832,-24.902,-32.227,-29.297,180.664
1678023664.910,-27.832,-28.809,-32.715,-49.805,-216.797
1678023664.914,-28.809,-30.762,-31.738,-34.668,-49.805
1678023664.918,-33.691,-25.879,-28.809,-18.555,77.637
1678023664.922,-34.668,-26.367,-33.203,-41.504,-119.141
1678023664.911,-32.715,-29.297,-37.109,-44.922,-192.871
1678023664.915,-30.762,-30.762,-35.645,-38.574,-121.094
1678023664.919,-30.273,-30.762,-40.039,-43.945,-58.105
1678023664.923,-33.203,-27.832,-41.504,-52.734,-81.055
1678023664.927,-38.574,-28.809,-39.062,-59.570,-82.520
1678023664.931,-33.691,-30.273,-41.016,-58.105,74.219
1678023664.935,-27.832,-29.297,-41.992,-57.617,64.453
1678023664.938,-32.227,-27.344,-39.551,-47.852,-71.777
1678023664.942,-31.738,-27.344,-36.133,-47.363,-205.078
1678023664.946,-30.273,-32.227,-38.086,-46.387,82.031
1678023664.950,-35.156,-33.691,-42.969,-44.434,285.645
1678023664.954,-36.133,-37.109,-43.457,-52.246,-128.906
1678023664.969,-26.855,-35.645,-38.086,-44.922,-145.996
1678023664.973,-30.273,-26.367,-34.180,-35.645,-62.988
1678023664.977,-29.297,-23.438,-38.086,-40.039,-162.598
1678023664.981,-21.484,-24.414,-40.039,-51.270,-179.199
1678023664.985,-23.438,-24.414,-39.551,-46.875,-34.668
1678023664.989,-17.090,-25.391,-37.109,-24.902,217.285
1678023664.993,-24.414,-28.320,-40.527,-22.949,135.254
1678023664.996,-37.598,-32.227,-41.016,-41.016,-130.859
1678023665.000,-30.273,-32.715,-40.527,-41.992,-29.297
1678023665.004,-26.367,-31.250,-42.969,-38.574,58.105
1678023665.008,-31.738,-30.273,-39.551,-37.598,-145.020
1678023665.012,-36.621,-29.785,-37.109,-36.133,-118.164
1678023665.014,-38.086,-31.250,-34.668,-33.691,80.078
1678023665.018,-35.645,-32.715,-34.668,-35.156,-20.020
1678023665.022,-40.527,-32.715,-39.062,-51.758,-158.691
1678023665.026,-43.945,-43.945,-32.227,-44.434,-98.145
1678023665.030,-26.367,-52.246,-22.949,-15.625,-135.254
1678023665.034,-15.625,-31.250,-32.715,-16.602,-103.027
1678023665.038,-32.715,-21.973,-44.922,-43.457,-87.402
1678023665.041,-38.574,-21.973,-46.875,-57.129,-165.527
1678023665.045,-33.691,-18.066,-49.805,-47.852,79.590
1678023665.049,-36.133,-15.137,-56.152,-45.898,125.000
1678023665.053,-51.758,-9.766,-69.824,-70.312,-178.711
1678023665.057,-52.734,-4.395,-75.684,-82.520,-147.461
1678023665.061,-38.086,2.441,-76.660,-85.449,-64.453
1678023665.065,-30.762,7.324,-78.613,-80.078,-57.129
1678023665.069,-30.273,8.301,-83.008,-75.684,-52.734
1678023665.073,-30.762,2.441,-92.773,-65.430,-27.832
1678023665.077,-24.902,2.930,-97.656,-62.012,195.801
1678023665.081,-29.785,5.371,-101.074,-79.102,201.660
1678023665.085,-23.438,7.812,-103.027,-75.195,43.945
1678023665.088,-18.555,11.230,-104.004,-68.359,110.352
1678023665.092,-32.715,8.789,-109.375,-73.730,165.527
1678023665.096,-27.832,9.277,-112.793,-82.031,-55.664
1678023665.100,-15.137,11.719,-110.352,-85.449,-191.406
1678023665.104,-12.207,9.766,-114.746,-78.613,-61.523
1678023665.106,-5.371,7.812,-110.352,-57.617,-21.484
1678023665.110,-15.137,8.301,-101.074,-45.410,-155.273
1678023665.114,-16.602,9.277,-103.027,-55.664,-167.480
1678023665.118,-12.695,7.324,-97.656,-62.988,-125.000
1678023665.122,-17.578,2.441,-90.820,-55.664,-53.711
1678023665.126,-10.254,1.953,-91.309,-54.199,83.008
1678023665.130,-11.230,1.465,-90.820,-60.547,56.641
1678023665.133,-19.043,-0.488,-87.891,-45.410,187.012
1678023665.137,-28.320,-3.418,-88.379,-36.133,235.352
1678023665.141,-33.203,0.977,-84.473,-47.852,-62.012
1678023665.145,-26.855,-0.488,-76.172,-48.828,-93.262
1678023665.149,-27.344,-6.348,-71.777,-48.340,-27.344
1678023665.149,-33.691,-8.301,-67.383,-46.387,-77.148
1678023665.153,-33.203,-10.742,-65.430,-51.270,-150.391
1678023665.157,-22.949,-11.719,-61.035,-45.898,-156.250
1678023665.161,-11.230,-10.742,-58.594,-38.086,-60.547
1678023665.165,-15.137,-9.766,-56.641,-40.527,28.809
1678023665.169,-20.508,-12.207,-54.688,-40.039,17.090
1678023665.173,-17.090,-9.277,-52.246,-38.574,21.973
1678023665.176,-12.695,-9.277,-50.781,-25.879,335.449
1678023665.180,-19.531,-13.184,-55.176,-15.137,250.000
1678023665.184,-32.715,-12.207,-57.617,-24.902,-104.980
1678023665.188,-33.203,-14.648,-54.688,-32.227,-105.957
1678023665.192,-32.227,-14.648,-54.688,-36.621,-151.367
1678023665.196,-28.320,-14.648,-52.246,-42.480,-192.383
1678023665.200,-26.367,-20.020,-50.781,-41.016,-119.141
1678023665.204,-26.367,-18.555,-50.293,-38.086,-63.965
1678023665.208,-32.715,-14.160,-45.898,-35.156,-72.754
1678023665.212,-33.203,-15.625,-40.527,-41.504,-126.465
1678023665.216,-36.621,-19.531,-46.875,-51.270,-122.070
1678023665.220,-31.250,-20.020,-48.340,-36.621,105.957
1678023665.223,-20.996,-20.996,-43.945,-25.391,164.062
1678023665.227,-38.086,-25.391,-43.457,-41.504,-118.164
1678023665.231,-43.945,-23.926,-38.574,-40.527,-132.812
1678023665.235,-38.086,-24.902,-38.574,-42.480,-7.812
1678023665.239,-39.062,-36.621,-41.504,-51.758,-103.516
1678023665.239,-41.016,-40.527,-41.504,-54.199,-223.633
1678023665.243,-45.898,-35.156,-39.062,-49.805,-109.375
1678023665.247,-45.410,-36.133,-38.086,-46.387,-42.969
1678023665.251,-37.598,-40.527,-35.645,-51.270,-44.922
1678023665.255,-34.668,-35.645,-26.855,-47.852,-30.273
1678023665.259,-30.273,-27.344,-23.926,-31.738,75.195
1678023665.263,-33.203,-26.367,-28.809,-27.832,418.945
1678023665.266,-48.340,-31.250,-36.133,-49.316,209.473
1678023665.270,-45.410,-32.227,-33.691,-54.688,-153.809
1678023665.274,-34.668,-29.785,-32.715,-49.805,-81.055
1678023665.278,-36.133,-33.203,-34.180,-54.199,-35.156
1678023665.282,-47.852,-35.156,-30.762,-55.176,-57.129
1678023665.288,-42.969,-35.156,-28.809,-53.223,-108.887
1678023665.292,-30.273,-39.551,-23.926,-42.969,-39.062
1678023665.296,-47.363,-37.598,-31.250,-45.410,-42.480
1678023665.300,-61.523,-18.555,-38.086,-60.059,-138.184
1678023665.304,-32.715,-20.996,-10.254,-30.273,-115.723
1678023665.308,-16.602,-16.602,-3.906,-14.160,-2.930
1678023665.312,-59.082,0.000,-40.039,-74.707,16.113
1678023665.315,-74.707,-11.230,-34.180,-96.191,-126.465
1678023665.319,-63.965,6.836,-21.484,-82.520,-148.926
1678023665.323,-99.121,32.227,-30.273,-114.746,101.074
1678023665.327,-157.227,53.711,-36.621,-175.781,97.656
1678023665.331,-184.082,71.289,-47.363,-217.773,-134.277
1678023665.345,-209.961,71.289,-48.828,-238.770,-168.945
1678023665.349,-246.094,82.520,-44.434,-274.902,-53.223
1678023665.353,-263.184,87.891,-39.551,-295.898,-5.371
1678023665.357,-262.695,82.031,-37.598,-294.922,-106.934
1678023665.361,-263.672,82.520,-37.109,-300.293,-104.492
1678023665.365,-256.836,84.473,-34.180,-288.086,342.773
1678023665.369,-236.816,81.543,-45.898,-275.391,375.977
1678023665.372,-215.332,82.031,-61.035,-264.160,-122.070
1678023665.376,-190.430,75.195,-51.270,-231.934,-100.098
1678023665.380,-187.012,56.641,-49.316,-215.820,18.555
1678023665.384,-164.551,45.410,-52.734,-189.453,-138.184
1678023665.388,-133.789,40.527,-51.758,-161.621,-216.797
1678023665.390,-118.652,26.367,-56.641,-140.625,-134.766
1678023665.394,-102.051,12.207,-57.617,-120.605,-126.953
1678023665.398,-79.102,6.348,-58.105,-105.957,-184.570
1678023665.402,-67.871,-2.441,-60.547,-98.633,-174.316
1678023665.406,-57.617,-11.230,-58.594,-76.660,18.066
1678023665.410,-30.762,-16.113,-56.641,-46.875,123.535
1678023665.414,-28.320,-19.043,-54.199,-40.039,-16.602
1678023665.417,-35.645,-30.762,-53.223,-43.457,-130.371
1678023665.421,-2.930,-36.133,-51.270,-19.531,69.336
1678023665.425,1.465,-37.109,-55.176,-6.348,148.926
1678023665.429,-6.836,-42.969,-53.223,-12.207,-97.656
1678023665.433,-0.488,-48.340,-48.340,-3.418,-81.543
1678023665.434,-5.371,-51.758,-52.246,-4.395,-68.848
1678023665.438,3.906,-53.223,-52.246,-4.395,-92.773
1678023665.442,14.648,-51.758,-46.875,10.742,-131.836
1678023665.446,19.043,-52.246,-41.992,23.438,16.602
1678023665.450,16.113,-56.152,-39.062,27.832,104.492
1678023665.454,13.184,-59.570,-42.480,19.043,-12.695
1678023665.458,16.602,-65.918,-45.898,7.812,8.789
1678023665.461,21.973,-72.754,-42.480,14.648,43.945
1678023665.465,28.320,-75.195,-38.574,37.109,275.391
1678023665.469,22.461,-65.918,-38.086,29.785,149.414
1678023665.473,17.090,-62.012,-37.598,19.531,-194.336
1678023665.477,22.461,-67.383,-40.039,26.367,-191.406
1678023665.481,32.227,-62.500,-37.109,30.273,-187.500
1678023665.485,36.621,-59.570,-36.133,38.574,-165.527
1678023665.489,28.809,-60.547,-36.133,32.715,-113.770
1678023665.493,24.414,-58.105,-34.668,30.273,-41.016
1678023665.497,26.367,-57.129,-35.156,31.250,-44.922
1678023665.501,33.691,-54.688,-31.738,29.297,-36.621
1678023665.505,34.668,-52.246,-33.203,33.203,-38.574
1678023665.508,31.738,-53.223,-35.645,33.203,154.297
1678023665.512,20.508,-53.223,-30.762,23.926,228.027
1678023665.516,12.695,-48.340,-25.879,11.719,-106.445
1678023665.520,19.531,-48.340,-29.297,3.418,-150.391
1678023665.524,23.438,-48.828,-28.809,11.719,14.160
1678023665.524,23.438,-49.805,-28.320,18.555,-68.359
1678023665.528,17.578,-53.711,-32.227,13.184,-195.801
1678023665.532,14.648,-54.688,-33.691,13.672,-130.859
1678023665.536,18.066,-54.199,-35.156,11.719,-12.207
1678023665.540,16.602,-49.805,-35.645,10.742,1.465
1678023665.544,16.113,-45.898,-35.156,7.812,-72.266
1678023665.548,18.066,-48.340,-36.621,8.789,20.996
1678023665.551,18.555,-51.270,-35.645,19.043,343.262
1678023665.555,13.184,-52.734,-33.203,11.230,181.641
1678023665.559,12.695,-53.223,-29.297,8.789,-190.918
1678023665.563,16.113,-53.711,-24.414,18.066,-125.977
1678023665.567,6.836,-51.758,-24.902,6.348,-79.590
1678023665.571,-5.859,-50.781,-28.320,1.465,-128.418
1678023665.575,-1.953,-55.664,-30.762,0.977,-184.570
1678023665.579,7.324,-53.223,-28.320,-4.395,-62.500
1678023665.583,0.488,-47.363,-24.414,-5.371,61.035
1678023665.587,-7.324,-50.781,-24.902,-7.324,-6.348
1678023665.591,-14.648,-55.176,-26.367,-9.277,-27.832
1678023665.595,-14.160,-49.805,-24.414,-4.395,216.797
1678023665.598,-11.719,-50.293,-28.809,-3.906,227.051
1678023665.602,-16.602,-49.316,-30.273,-11.719,-116.699
1678023665.606,-14.648,-45.898,-26.855,-8.789,-125.000
1678023665.610,-3.906,-43.945,-24.902,-17.090,-138.672
1678023665.614,0.977,-41.016,-23.926,-23.438,-202.637
1678023665.615,-3.418,-39.062,-21.973,-11.230,-186.035
1678023665.619,-4.395,-34.668,-20.508,-6.348,-42.969
1678023665.623,-10.254,-32.715,-20.996,-11.230,-15.625
1678023665.627,-14.648,-33.691,-24.414,-11.230,-73.242
1678023665.631,-12.695,-34.180,-26.855,-12.695,-83.008
1678023665.635,-5.859,-31.738,-22.949,-16.113,-94.238
1678023665.639,6.836,-29.785,-17.578,-4.883,290.527
1678023665.642,-8.789,-37.109,-20.508,-4.883,229.004
1678023665.646,-24.902,-37.598,-22.949,-17.578,-202.148
1678023665.650,-20.996,-31.250,-23.926,-22.949,-135.254
1678023665.654,-18.555,-36.621,-23.438,-21.484,-108.887
1678023665.658,-18.555,-37.598,-25.391,-21.484,-175.293
1678023665.661,-23.438,-36.133,-31.250,-28.809,-151.855
1678023665.665,-32.715,-42.480,-29.297,-36.621,-66.895
1678023665.669,-35.156,-48.828,-28.320,-41.992,-75.684
1678023665.673,-25.879,-50.781,-25.879,-31.738,-115.234
1678023665.677,-25.879,-50.293,-23.926,-33.203,-71.289
1678023665.681,-27.344,-49.805,-24.902,-33.203,230.957
1678023665.685,-31.250,-46.387,-24.902,-29.785,363.770
1678023665.688,-39.551,-44.434,-25.879,-39.062,-42.969
1678023665.692,-28.320,-49.316,-20.996,-29.297,-164.062
1678023665.696,-11.719,-42.480,-24.902,-13.672,-28.809
1678023665.700,-24.902,-26.367,-28.320,-22.461,-11.230
1678023665.704,-45.410,-25.391,-29.297,-47.852,-111.328
1678023665.719,-42.480,-27.832,-34.668,-53.223,-137.207
1678023665.723,-32.715,-23.438,-39.062,-44.922,-82.031
1678023665.727,-30.762,-17.090,-43.457,-42.969,-121.582
1678023665.731,-39.062,-19.531,-47.852,-50.293,-123.047
1678023665.735,-41.504,-16.602,-53.223,-51.758,6.836
1678023665.739,-41.504,-7.812,-55.176,-54.199,223.633
1678023665.743,-43.457,-6.836,-55.664,-67.871,124.512
1678023665.746,-39.551,-5.859,-57.617,-69.824,-89.844
1678023665.750,-41.504,-9.766,-58.594,-63.477,95.703
1678023665.754,-46.387,-12.207,-56.152,-54.688,286.133
1678023665.758,-52.734,-14.160,-53.711,-54.199,5.859
1678023665.762,-49.316,-17.090,-51.758,-52.734,-166.504
1678023665.764,-33.203,-13.672,-51.270,-44.922,-124.512
1678023665.768,-26.367,-13.672,-53.223,-42.480,-124.023
1678023665.772,-27.832,-20.020,-55.176,-48.340,-105.957
1678023665.776,-39.551,-21.484,-51.270,-45.410,-89.355
1678023665.780,-43.457,-25.879,-48.340,-38.574,-101.074
1678023665.784,-29.297,-30.273,-46.387,-33.691,-82.520
1678023665.788,-23.926,-23.438,-40.527,-27.832,3.418
1678023665.791,-29.297,-20.508,-38.086,-31.250,-61.523
1678023665.795,-27.832,-25.391,-37.109,-32.715,113.281
1678023665.799,-30.273,-30.273,-41.992,-33.691,273.926
1678023665.803,-29.297,-26.367,-45.410,-41.016,-42.480
1678023665.807,-21.973,-22.461,-41.504,-35.645,-141.113
1678023665.809,-31.250,-30.762,-41.504,-42.480,-118.652
1678023665.813,-40.527,-32.715,-39.062,-43.457,-143.066
1678023665.817,-33.203,-28.320,-33.203,-42.969,-230.469
1678023665.821,-33.203,-31.250,-37.598,-41.992,-45.898
1678023665.825,-33.203,-33.691,-40.527,-33.203,149.414
1678023665.829,-34.668,-32.715,-35.645,-36.133,27.344
1678023665.833,-41.992,-31.738,-35.156,-34.668,-76.660
1678023665.836,-39.062,-28.809,-35.645,-33.203,1.465
1678023665.840,-35.645,-30.273,-36.621,-37.598,127.930
1678023665.844,-36.133,-35.156,-37.109,-34.180,-68.359
1678023665.848,-34.668,-40.527,-38.086,-35.645,-98.633
1678023665.852,-41.992,-41.504,-37.109,-48.340,57.129
1678023665.856,-46.387,-41.992,-33.691,-49.316,-27.832
1678023665.860,-41.992,-39.062,-36.133,-48.828,-167.969
1678023665.864,-36.133,-35.156,-30.273,-38.574,-133.789
1678023665.868,-41.504,-41.016,-21.484,-36.133,-72.754
1678023665.872,-46.387,-39.062,-21.484,-47.363,-126.465
1678023665.876,-41.504,-33.203,-25.391,-52.246,-146.484
1678023665.880,-44.922,-36.133,-27.832,-45.898,-86.426
1678023665.883,-41.504,-34.668,-26.367,-32.227,138.184
1678023665.887,-35.645,-33.203,-24.414,-37.109,159.180
1678023665.891,-40.527,-37.598,-26.855,-53.711,-132.324
1678023665.895,-35.156,-38.574,-27.832,-53.711,-157.227
1678023665.899,-33.691,-40.527,-27.344,-52.246,-108.887
1678023665.900,-29.785,-39.062,-25.391,-47.852,-110.840
1678023665.904,-37.109,-37.598,-28.320,-44.434,-182.129
1678023665.908,-54.688,-41.504,-28.809,-44.434,-132.324
1678023665.912,-49.316,-41.016,-24.902,-42.480,13.672
1678023665.916,-46.875,-40.039,-28.320,-51.758,-62.500
1678023665.920,-46.387,-42.969,-32.227,-55.664,-51.270
1678023665.924,-49.316,-42.969,-28.320,-45.410,79.102
1678023665.927,-54.688,-42.969,-28.320,-32.715,305.664
1678023665.931,-55.176,-43.945,-33.203,-40.527,186.523
1678023665.935,-55.176,-44.922,-32.227,-54.688,-114.258
1678023665.939,-46.875,-42.480,-28.809,-53.711,-145.508
1678023665.943,-45.410,-41.992,-30.273,-50.781,-161.621
1678023665.946,-51.758,-45.898,-32.227,-54.688,-170.898
1678023665.950,-48.340,-41.016,-30.273,-52.734,-177.734
1678023665.954,-41.016,-39.551,-26.367,-45.898,-149.902
1678023665.958,-36.621,-41.016,-23.438,-40.039,-121.094
1678023665.962,-34.668,-40.039,-21.973,-30.762,-112.305
1678023665.966,-40.527,-42.480,-22.949,-40.039,-83.496
1678023665.970,-46.387,-42.480,-26.367,-41.504,190.918
1678023665.973,-44.434,-40.039,-28.809,-35.645,317.383
1678023665.977,-44.922,-39.551,-30.762,-46.387,16.113
1678023665.981,-41.992,-41.504,-25.879,-43.945,-113.281
1678023665.985,-47.852,-41.016,-22.949,-42.480,-141.602
1678023665.989,-56.152,-42.480,-26.855,-44.922,-149.902
1678023665.989,-50.293,-42.969,-26.855,-44.922,-166.992
1678023665.993,-48.340,-43.945,-27.344,-46.875,-129.883
1678023665.997,-43.945,-45.898,-25.391,-46.387,-69.336
1678023666.001,-45.898,-41.992,-22.949,-41.992,-92.285
1678023666.005,-49.316,-34.180,-20.020,-46.875,-133.301
1678023666.009,-46.875,-31.738,-18.555,-52.734,-82.520
1678023666.013,-37.598,-35.156,-20.508,-37.598,362.305
1678023666.016,-34.180,-31.250,-27.832,-31.738,285.645
1678023666.020,-41.992,-28.320,-32.715,-43.945,-226.562
1678023666.024,-43.945,-32.227,-29.297,-47.363,-116.211
1678023666.028,-44.922,-31.738,-31.738,-45.898,-33.203
1678023666.032,-43.457,-30.273,-31.738,-40.039,-231.934
1678023666.036,-37.598,-34.180,-25.391,-36.133,-189.453
1678023666.040,-37.598,-41.016,-29.785,-36.133,-107.910
1678023666.044,-37.598,-41.992,-34.668,-36.133,-187.012
1678023666.048,-38.086,-44.434,-30.273,-41.504,-219.238
1678023666.052,-34.180,-42.480,-25.879,-34.180,-204.102
1678023666.056,-28.320,-34.180,-25.391,-22.461,-43.945
1678023666.060,-25.391,-33.691,-25.391,-24.414,52.734
1678023666.063,-24.414,-32.715,-25.879,-28.320,-66.895
1678023666.067,-32.715,-35.645,-24.902,-29.785,-106.445
1678023666.071,-27.344,-37.598,-19.043,-17.090,130.859
1678023666.075,-27.344,-33.203,-23.438,-11.719,184.082
1678023666.079,-37.598,-37.598,-30.273,-21.484,-161.621
1678023666.094,-37.598,-42.969,-24.414,-23.438,-198.242
1678023666.098,-39.551,-38.086,-24.902,-27.832,-141.113
1678023666.102,-35.156,-38.086,-27.344,-29.297,-116.699
1678023666.106,-30.762,-42.480,-26.367,-31.738,-69.336
1678023666.110,-30.273,-42.969,-28.809,-30.762,23.926
1678023666.114,-32.227,-42.969,-26.855,-21.973,154.297
1678023666.118,-38.574,-42.480,-22.461,-27.832,53.223
1678023666.121,-37.598,-40.039,-21.484,-31.250,-145.996
1678023666.125,-27.344,-41.504,-22.949,-18.555,-35.156
1678023666.129,-24.414,-41.504,-26.855,-16.113,125.000
1678023666.133,-29.785,-42.969,-26.367,-31.250,-93.750
1678023666.137,-32.715,-46.875,-20.996,-36.621,-216.309
1678023666.139,-35.156,-44.434,-22.461,-26.855,-30.762
1678023666.143,-28.809,-42.480,-26.367,-18.066,8.789
1678023666.147,-27.832,-42.969,-24.902,-22.949,-138.672
1678023666.151,-30.762,-40.527,-22.949,-25.879,-150.879
1678023666.155,-28.320,-41.504,-24.902,-25.391,-124.512
1678023666.159,-20.996,-41.016,-25.879,-23.926,54.199
1678023666.163,-18.066,-39.551,-27.344,-20.996,52.734
1678023666.166,-27.344,-40.527,-29.785,-20.508,-90.332
1678023666.170,-31.250,-45.410,-28.809,-17.578,99.121
1678023666.174,-38.574,-45.898,-33.203,-24.902,84.473
1678023666.178,-40.039,-39.551,-37.598,-30.762,-169.922
1678023666.182,-34.180,-37.598,-32.227,-19.531,-161.621
1678023666.184,-34.668,-37.109,-26.855,-23.438,-13.672
1678023666.188,-36.621,-29.297,-20.508,-29.785,-16.113
1678023666.192,-60.547,-29.785,-27.344,-45.898,-179.199
1678023666.196,-55.176,-32.227,-27.344,-45.410,-75.684
1678023666.200,-39.062,-15.137,-7.812,-19.531,212.891
1678023666.204,-57.617,4.395,-6.836,-42.480,85.938
1678023666.208,-86.914,-2.930,-27.832,-79.102,-56.152
1678023666.211,-121.094,-6.348,-14.648,-106.934,65.918
1678023666.215,-140.625,41.016,1.953,-128.906,156.250
1678023666.219,-175.781,50.781,-34.668,-158.203,12.695
1678023666.223,-193.359,65.918,-37.598,-182.129,-183.594
1678023666.227,-214.844,68.359,-7.812,-207.520,-145.996
1678023666.232,-274.414,31.250,-7.324,-258.789,-129.395
1678023666.236,-284.180,33.203,-12.207,-271.484,-230.469
1678023666.240,-260.742,58.105,0.488,-267.578,-162.109
1678023666.244,-271.973,47.363,5.859,-270.996,52.246
1678023666.248,-279.297,42.480,1.953,-270.996,53.223
1678023666.252,-269.531,48.340,1.465,-262.207,-30.273
1678023666.256,-270.996,44.434,3.418,-261.719,-106.445
1678023666.259,-261.230,37.598,6.348,-253.906,80.566
1678023666.263,-243.652,34.668,7.812,-237.305,182.129
1678023666.267,-247.559,32.227,11.230,-229.980,-96.680
1678023666.271,-236.328,26.855,0.488,-212.891,-181.641
1678023666.275,-220.703,22.461,-3.906,-200.684,-133.789
1678023666.289,-205.566,16.113,5.371,-198.242,-153.320
1678023666.293,-173.828,12.695,5.371,-169.922,-182.617
1678023666.297,-140.625,2.930,3.418,-136.719,-101.562
1678023666.301,-135.742,-12.695,-0.488,-130.859,20.508
1678023666.305,-124.023,-19.043,-12.207,-109.863,2.441
1678023666.309,-106.445,-25.391,-14.648,-92.285,6.836
1678023666.313,-98.145,-38.574,-13.672,-78.125,119.141
1678023666.316,-76.172,-49.805,-19.531,-41.992,334.473
1678023666.320,-74.219,-60.547,-18.066,-32.715,252.930
1678023666.324,-59.082,-62.988,-17.090,-34.180,-135.742
1678023666.328,-24.902,-62.988,-21.973,-16.602,-185.059
1678023666.332,-23.926,-73.730,-22.461,-16.602,-204.590
1678023666.321,-15.137,-78.613,-19.531,-9.766,-221.191
1678023666.325,1.953,-74.707,-22.949,7.812,-144.531
1678023666.329,-10.742,-78.613,-26.855,9.766,-34.668
1678023666.333,-8.789,-79.590,-29.785,13.672,-41.504
1678023666.337,12.207,-74.707,-30.273,29.785,-160.156
1678023666.341,31.250,-76.172,-26.855,45.898,-98.633
1678023666.345,26.855,-78.125,-25.879,42.969,88.379
1678023666.348,26.367,-78.125,-23.438,30.273,0.000
1678023666.352,38.086,-76.172,-20.508,30.762,-125.000
1678023666.356,38.574,-76.660,-24.902,38.574,-151.855
1678023666.360,45.410,-75.684,-29.297,48.340,83.984
1678023666.364,43.945,-72.754,-30.273,49.316,206.543
1678023666.364,38.086,-70.801,-37.109,33.203,-107.910
1678023666.368,48.828,-65.918,-38.086,40.527,-148.438
1678023666.372,54.688,-69.336,-37.109,48.828,-95.703
1678023666.376,49.805,-70.801,-39.062,45.898,-85.938
1678023666.380,44.922,-67.871,-37.598,43.945,-64.453
1678023666.384,47.363,-67.383,-37.109,43.457,0.000
1678023666.388,44.922,-65.430,-36.133,56.152,359.863
1678023666.391,39.551,-62.012,-34.180,52.734,243.652
1678023666.395,40.039,-59.570,-34.668,41.992,-171.387
1678023666.399,38.086,-58.105,-34.180,41.992,-27.344
1678023666.403,34.180,-58.105,-35.645,35.156,28.320
1678023666.407,31.738,-53.711,-34.180,29.785,-164.551
1678023666.411,37.598,-53.711,-32.715,29.297,-185.547
1678023666.415,35.645,-55.176,-39.062,30.273,-35.645
1678023666.419,27.832,-53.711,-42.480,24.414,-6.348
1678023666.423,22.949,-56.641,-45.410,18.066,-107.910
1678023666.427,25.879,-56.152,-43.457,20.020,-124.512
1678023666.431,36.133,-51.758,-37.598,26.855,-0.488
1678023666.435,34.668,-47.363,-36.133,26.855,10.742
1678023666.438,25.879,-47.363,-39.551,13.672,-120.117
1678023666.442,20.020,-51.270,-41.992,8.789,-117.188
1678023666.446,16.113,-49.805,-40.039,17.578,25.391
1678023666.450,18.066,-44.922,-40.527,8.789,5.859
1678023666.454,28.809,-42.480,-40.527,4.395,-211.914
1678023666.469,22.461,-45.898,-41.992,16.113,-96.191
1678023666.473,16.113,-49.805,-42.969,5.371,2.441
1678023666.477,11.719,-48.340,-47.363,-16.602,-201.172
1678023666.481,11.230,-42.969,-50.293,-18.555,-184.082
1678023666.485,15.137,-41.016,-46.387,-7.812,-1.953
1678023666.489,8.301,-41.504,-47.852,-4.883,217.773
1678023666.493,-0.488,-41.504,-49.805,-11.719,120.117
1678023666.496,0.488,-42.969,-49.316,-16.602,-145.020
1678023666.500,8.301,-47.363,-51.270,-12.207,-61.523
1678023666.504,8.789,-44.922,-52.734,-10.742,112.305
1678023666.508,1.465,-45.410,-49.805,-19.043,-71.289
1678023666.512,-2.930,-45.898,-43.945,-19.043,-185.059
1678023666.516,-5.859,-45.898,-41.504,-15.625,-85.938
1678023666.520,-4.395,-44.434,-41.504,-11.230,-57.129
1678023666.524,0.488,-39.551,-35.645,-8.301,-61.523
1678023666.528,7.324,-36.133,-33.203,-3.906,-136.230
1678023666.532,6.348,-36.133,-40.039,-7.812,-44.922
1678023666.536,-12.207,-41.992,-47.363,-15.625,32.715
1678023666.540,-13.672,-39.062,-46.875,-21.973,-67.871
1678023666.543,2.930,-29.785,-39.551,-29.785,-127.930
1678023666.547,7.812,-27.832,-33.691,-18.555,81.543
1678023666.551,-8.789,-24.414,-36.133,-14.648,145.020
1678023666.555,-23.438,-23.926,-38.086,-27.832,-149.902
1678023666.559,-17.090,-29.297,-31.250,-29.785,-164.551
1678023666.559,-15.625,-31.250,-37.109,-30.273,-111.328
1678023666.563,-19.043,-31.250,-43.457,-29.297,-120.117
1678023666.567,-20.508,-29.785,-38.574,-35.156,-146.973
1678023666.571,-23.926,-29.785,-39.062,-35.156,19.043
1678023666.575,-18.066,-30.273,-39.551,-32.227,123.047
1678023666.579,-16.602,-33.691,-40.527,-34.668,77.148
1678023666.583,-18.555,-32.715,-42.480,-27.832,60.547
1678023666.586,-22.461,-31.738,-39.062,-23.926,26.855
1678023666.590,-35.156,-39.062,-36.133,-17.090,272.461
1678023666.594,-34.180,-38.086,-37.109,-24.414,165.039
1678023666.598,-25.391,-34.180,-41.504,-38.086,-118.652
1678023666.602,-23.926,-32.227,-42.480,-32.715,-67.871
1678023666.606,-30.762,-32.227,-41.992,-27.344,-76.172
1678023666.610,-36.621,-34.668,-41.016,-37.598,-155.762
1678023666.614,-38.086,-35.645,-41.992,-50.781,-203.613
1678023666.618,-34.668,-37.109,-36.621,-47.363,-147.461
1678023666.622,-22.949,-36.621,-41.992,-33.203,-110.840
1678023666.626,-1.953,-34.668,-53.223,-20.508,-44.922
1678023666.630,-10.254,-38.574,-45.410,-25.879,32.715
1678023666.633,-39.551,-42.480,-38.086,-43.945,251.953
1678023666.637,-41.016,-41.504,-36.621,-50.293,272.949
1678023666.641,-21.484,-38.574,-33.203,-42.969,-22.949
1678023666.645,-29.297,-39.551,-24.414,-37.598,-77.637
1678023666.649,-51.270,-43.945,-17.578,-45.898,-104.004
1678023666.649,-45.410,-42.969,-14.648,-42.480,-145.996
1678023666.653,-35.645,-45.898,-10.254,-41.504,-156.738
1678023666.657,-44.434,-49.316,-8.789,-46.387,-135.254
1678023666.661,-52.246,-46.387,-10.254,-43.457,-107.910
1678023666.665,-49.316,-44.434,-13.672,-41.504,-192.383
1678023666.669,-49.316,-45.898,-17.578,-43.945,-145.508
1678023666.673,-41.992,-45.898,-16.113,-44.922,-41.016
1678023666.676,-28.809,-43.457,-11.719,-29.785,193.359
1678023666.680,-31.738,-39.551,-16.113,-30.762,150.879
1678023666.684,-37.109,-35.156,-21.973,-40.039,-162.598
1678023666.688,-32.227,-39.062,-21.973,-24.902,-32.227
1678023666.692,-34.668,-39.062,-20.020,-31.738,-13.672
1678023666.696,-41.016,-31.250,-20.996,-52.734,-140.137
1678023666.700,-30.762,-33.203,-20.508,-44.434,-152.344
1678023666.704,-38.574,-39.551,-21.484,-37.598,-131.348
1678023666.708,-45.410,-40.039,-28.809,-42.969,-102.539
1678023666.712,-37.109,-41.992,-29.785,-41.504,-115.723
1678023666.716,-39.551,-45.410,-28.320,-41.016,-43.457
1678023666.720,-35.645,-41.504,-24.902,-32.227,230.957
1678023666.723,-34.180,-37.109,-28.320,-34.180,229.492
1678023666.727,-44.922,-37.109,-30.762,-50.781,-86.426
1678023666.731,-39.062,-38.086,-24.902,-46.875,-70.312
1678023666.735,-24.902,-33.203,-22.949,-47.852,-50.293
1678023666.739,-28.320,-25.391,-21.484,-49.316,-8.789
1678023666.740,-35.156,-27.832,-23.438,-48.340,-46.387
1678023666.744,-42.969,-38.574,-27.344,-51.270,-97.168
1678023666.748,-41.016,-37.598,-23.926,-51.270,-23.926
1678023666.752,-32.227,-28.809,-22.949,-52.734,-55.664
1678023666.756,-31.738,-33.691,-30.762,-54.199,-75.195
1678023666.760,-33.203,-37.598,-32.227,-49.805,2.441
1678023666.764,-37.598,-35.645,-29.297,-46.875,277.344
1678023666.767,-43.457,-36.133,-31.250,-53.711,227.051
1678023666.771,-33.203,-34.668,-34.668,-57.129,-84.961
1678023666.775,-29.785,-32.227,-34.180,-48.828,-106.445
1678023666.779,-40.527,-31.250,-32.715,-45.898,-73.730
1678023666.783,-45.898,-30.762,-37.598,-54.688,-148.438
1678023666.800,-45.410,-32.715,-36.133,-56.641,-190.918
1678023666.804,-33.691,-32.715,-32.227,-43.945,-106.445
1678023666.808,-23.438,-34.180,-34.180,-39.062,-80.566
1678023666.812,-37.109,-34.180,-37.598,-48.828,-99.609
1678023666.816,-42.480,-32.227,-37.109,-55.176,-165.527
1678023666.820,-33.691,-35.156,-31.738,-50.293,54.199
1678023666.824,-38.086,-34.180,-31.738,-49.316,203.613
1678023666.827,-38.574,-32.715,-36.133,-55.176,-110.352
1678023666.831,-38.086,-31.738,-39.551,-57.129,-119.629
1678023666.835,-40.527,-31.250,-41.504,-53.711,-14.648
1678023666.839,-39.551,-38.574,-38.574,-49.805,-111.816
1678023666.843,-35.645,-39.551,-38.574,-43.945,-228.027
1678023666.844,-26.367,-33.203,-32.227,-38.086,-183.594
1678023666.848,-7.324,-30.762,-31.738,-24.902,-152.344
1678023666.852,-1.465,-30.762,-29.785,-4.395,-207.031
1678023666.856,-45.898,-34.668,-24.902,-36.133,-210.938
1678023666.860,-63.965,-39.062,-30.762,-68.359,-24.414
1678023666.864,-46.875,-34.668,-21.973,-49.316,151.367
1678023666.868,-47.363,-34.180,-17.090,-47.363,18.555
1678023666.871,-57.617,-41.016,-19.043,-65.918,-120.605
1678023666.875,-60.547,-48.340,-20.508,-59.082,-87.891
1678023666.879,-57.129,-46.875,-21.973,-57.617,88.867
1678023666.883,-58.594,-37.109,-24.902,-78.613,-48.828
1678023666.887,-49.316,-38.086,-27.344,-62.012,-205.566
1678023666.890,-55.176,-39.551,-24.902,-54.688,-163.574
1678023666.894,-57.617,-34.668,-26.855,-64.941,-186.523
1678023666.898,-55.664,-39.062,-28.320,-64.453,-246.582
1678023666.902,-47.363,-41.992,-27.344,-61.035,-267.578
1678023666.906,-31.250,-35.156,-24.902,-55.664,-238.281
1678023666.910,-36.133,-35.156,-24.414,-43.457,-118.164
1678023666.914,-40.527,-36.621,-24.902,-33.691,-47.363
1678023666.917,-38.574,-33.691,-26.855,-37.598,-127.930
1678023666.921,-32.227,-40.527,-29.297,-28.809,43.457
1678023666.925,-29.785,-43.945,-32.715,-23.438,166.504
1678023666.929,-34.180,-40.039,-35.156,-29.785,-139.160
1678023666.933,-36.621,-40.039,-34.668,-34.668,-244.629
1678023666.934,-28.809,-34.668,-29.785,-40.527,-163.574
1678023666.938,-20.020,-32.715,-28.320,-34.180,-168.945
1678023666.942,-20.508,-28.809,-29.297,-25.879,-269.043
1678023666.946,-19.531,-25.879,-29.785,-28.809,-140.625
1678023666.950,-28.320,-31.250,-32.715,-33.691,-3.418
1678023666.954,-36.133,-26.367,-34.668,-34.668,-30.273
1678023666.958,-28.809,-20.508,-33.203,-41.504,-30.762
1678023666.961,-26.367,-20.996,-38.086,-39.551,-55.664
1678023666.965,-30.273,-24.414,-39.551,-28.809,182.129
1678023666.969,-42.480,-28.809,-36.621,-37.598,7.812
1678023666.973,-46.875,-23.926,-38.574,-44.922,-320.801
1678023666.977,-37.598,-25.391,-39.551,-41.504,-156.738
1678023666.981,-27.344,-29.297,-38.086,-33.203,-76.660
1678023666.985,-31.738,-26.367,-39.551,-30.762,-208.496
1678023666.989,-40.527,-29.297,-42.480,-30.273,-199.707
1678023666.993,-38.574,-30.762,-43.457,-35.156,-178.223
1678023666.997,-30.762,-30.273,-41.504,-33.691,-211.426
1678023667.001,-26.855,-32.227,-41.016,-27.344,-125.488
1678023667.005,-34.180,-36.621,-40.039,-34.180,-95.215
1678023667.008,-40.527,-37.109,-39.551,-26.855,41.992
1678023667.012,-45.410,-35.156,-43.945,-27.344,95.215
1678023667.016,-48.340,-30.762,-40.527,-41.992,-191.406
1678023667.020,-37.598,-29.297,-32.715,-32.715,-213.379
1678023667.024,-34.180,-28.809,-35.645,-22.949,-78.125
1678023667.024,-53.711,-23.926,-38.086,-37.109,-144.531
1678023667.028,-57.129,-25.391,-37.598,-46.875,-208.496
1678023667.032,-45.898,-29.297,-36.133,-38.086,-210.938
1678023667.036,-52.246,-32.227,-36.621,-33.203,-164.551
1678023667.040,-78.613,-29.785,-39.062,-40.039,-155.273
1678023667.044,-100.586,-28.320,-39.062,-40.039,-146.484
1678023667.048,-96.680,-28.809,-39.551,-35.645,-73.242
1678023667.051,-91.309,-25.879,-33.691,-21.484,161.133
1678023667.055,-90.332,-24.902,-32.715,-28.809,71.289
1678023667.059,-84.473,-25.879,-35.156,-38.086,-251.465
1678023667.063,-81.543,-28.809,-34.180,-34.180,-179.199
1678023667.067,-82.520,-27.344,-36.621,-42.480,-146.484
1678023667.072,-72.754,-27.832,-43.457,-47.852,-183.594
1678023667.076,-63.965,-28.809,-49.316,-45.410,-140.137
1678023667.080,-62.500,-30.273,-48.340,-40.039,-14.648
1678023667.084,-66.406,-30.762,-44.922,-42.969,-58.594
1678023667.088,-68.848,-30.762,-40.039,-43.945,-169.922
1678023667.092,-66.406,-37.109,-42.969,-49.316,-46.387
1678023667.096,-50.781,-39.062,-41.992,-44.434,153.809
1678023667.099,-44.434,-36.621,-35.645,-28.320,119.141
1678023667.103,-56.641,-31.738,-40.039,-32.227,-153.320
1678023667.107,-60.547,-29.785,-45.898,-38.574,-228.516
1678023667.111,-57.129,-39.062,-43.945,-47.852,-174.805
1678023667.115,-60.547,-27.344,-38.574,-57.617,-202.148
1678023667.114,-48.340,-7.812,-31.738,-45.410,-253.418
1678023667.118,-36.621,-26.367,-19.531,-24.902,-168.457
1678023667.122,-73.730,-10.742,-10.254,-52.734,-116.699
1678023667.126,-94.727,10.254,-23.438,-81.543,-140.137
1678023667.130,-92.773,-1.953,-25.391,-97.168,-123.047
1678023667.134,-89.844,30.273,13.672,-106.445,-57.617
1678023667.138,-125.488,51.270,-1.465,-120.605,296.387
1678023667.141,-187.012,47.852,-35.156,-168.457,322.266
1678023667.145,-229.980,58.105,-34.668,-212.891,-135.742
1678023667.149,-253.906,64.453,-22.949,-248.047,-186.035
1678023667.153,-281.250,65.430,-2.441,-278.809,-125.000
1678023667.157,-284.668,57.129,10.254,-279.785,-183.105
1678023667.161,-281.738,52.734,4.883,-268.066,-185.059
1678023667.165,-284.180,49.316,-1.465,-277.832,-168.457
1678023667.169,-290.039,46.875,5.859,-289.062,-176.270
1678023667.173,-290.039,50.781,14.160,-288.086,-167.480
1678023667.177,-269.531,46.387,17.090,-266.602,-92.285
1678023667.181,-257.812,44.434,18.066,-248.535,6.348
1678023667.185,-256.836,45.410,13.672,-250.977,0.000
1678023667.188,-246.094,42.480,11.230,-248.535,-23.926
1678023667.192,-236.328,37.109,14.648,-234.375,-130.859
1678023667.196,-227.051,30.762,20.508,-212.402,21.973
1678023667.200,-211.426,21.484,23.438,-200.195,179.199
1678023667.204,-201.172,12.695,14.160,-193.359,-67.871
1678023667.219,-175.781,9.277,10.742,-172.363,-102.051
1678023667.223,-152.344,5.859,15.137,-153.320,-76.172
1678023667.227,-141.602,-0.977,16.113,-150.391,-96.680
1678023667.231,-133.301,-14.160,12.207,-141.113,-115.234
1678023667.235,-108.887,-21.484,-0.488,-110.352,-17.578
1678023667.239,-83.984,-18.555,-8.301,-87.402,185.547
1678023667.243,-83.008,-25.879,-3.906,-86.914,105.469
1678023667.246,-63.965,-39.062,-5.371,-71.777,-120.117
1678023667.250,-48.828,-51.270,-5.859,-46.387,-53.223
1678023667.254,-32.227,-54.688,-10.742,-25.879,127.441
1678023667.258,-15.137,-52.734,-20.020,-25.391,-49.316
1678023667.262,-13.184,-58.594,-27.344,-30.762,-182.617
1678023667.265,6.348,-54.688,-39.062,-24.414,-98.145
1678023667.269,8.789,-48.340,-42.969,-26.367,-60.547
1678023667.273,-6.836,-56.641,-37.109,-21.484,-114.746
1678023667.277,6.836,-62.500,-39.062,-9.277,-79.102
1678023667.281,21.484,-60.059,-43.945,7.324,-22.949
1678023667.285,23.438,-59.570,-43.945,20.508,-11.719
1678023667.289,18.555,-65.918,-49.805,22.461,-21.484
1678023667.292,20.508,-69.824,-57.129,20.996,-128.906
1678023667.296,41.016,-66.895,-56.641,37.109,67.383
1678023667.300,52.734,-66.406,-52.246,45.410,95.703
1678023667.304,47.363,-66.895,-53.223,30.762,-77.637
1678023667.308,40.039,-66.895,-56.152,33.203,-2.441
1678023667.309,36.133,-70.312,-51.758,45.410,109.863
1678023667.313,37.598,-66.895,-49.805,38.086,73.730
1678023667.317,46.875,-61.523,-49.805,28.809,-92.773
1678023667.321,59.082,-65.430,-48.828,41.016,41.016
1678023667.325,58.594,-63.477,-50.293,60.547,131.836
1678023667.329,44.434,-57.617,-48.340,58.594,44.922
1678023667.333,44.434,-60.059,-48.828,40.527,34.180
1678023667.336,61.035,-61.523,-51.758,38.086,12.695
1678023667.340,60.547,-59.570,-51.758,47.363,166.992
1678023667.344,57.129,-61.035,-55.176,50.293,61.523
1678023667.348,51.270,-62.500,-53.223,49.805,-137.207
1678023667.352,47.363,-63.477,-49.805,49.805,-79.590
1678023667.357,56.641,-60.059,-52.734,42.969,-46.387
1678023667.361,62.500,-53.711,-52.734,44.922,-30.273
1678023667.365,59.570,-50.781,-48.828,47.852,-112.305
1678023667.369,48.828,-55.664,-51.270,44.434,-54.688
1678023667.373,46.875,-56.152,-52.734,41.992,-2.441
1678023667.377,51.270,-55.664,-44.922,42.969,-90.332
1678023667.381,56.152,-51.270,-42.480,49.316,-59.570
1678023667.384,56.641,-48.340,-44.922,59.082,137.695
1678023667.388,36.621,-51.270,-45.410,49.805,157.715
1678023667.392,24.902,-49.805,-46.387,35.645,-97.656
1678023667.396,30.273,-53.711,-48.828,35.156,-139.648
1678023667.400,33.203,-54.688,-51.270,36.133,-121.582
1678023667.399,37.109,-51.270,-45.898,39.062,-104.004
1678023667.403,31.738,-50.293,-40.527,32.715,-114.258
1678023667.407,23.438,-50.781,-45.410,26.367,-91.309
1678023667.411,15.625,-56.152,-53.223,24.414,-13.184
1678023667.415,24.902,-53.223,-50.781,30.762,-3.906
1678023667.419,39.551,-46.875,-39.551,36.621,-19.043
1678023667.423,26.367,-49.316,-33.203,31.738,54.199
1678023667.426,22.461,-46.875,-32.715,35.645,336.914
1678023667.430,28.320,-44.922,-37.109,24.902,319.824
1678023667.434,20.996,-45.898,-41.504,8.301,-32.227
1678023667.438,17.578,-45.410,-38.086,9.766,-145.996
1678023667.442,7.324,-45.898,-37.109,4.395,-131.836
1678023667.446,0.977,-43.457,-41.504,2.930,-172.852
1678023667.450,11.719,-45.410,-41.016,13.184,-250.977
1678023667.454,13.184,-43.945,-38.086,14.160,-144.531
1678023667.458,10.742,-37.598,-37.109,2.441,-70.801
1678023667.462,12.695,-42.480,-39.062,4.883,-92.773
1678023667.466,3.906,-45.898,-40.039,-0.488,-90.820
1678023667.470,-0.977,-46.875,-38.086,-4.395,147.949
1678023667.473,1.465,-45.898,-33.691,3.906,217.773
1678023667.477,-7.324,-43.945,-40.039,-6.836,-123.535
1678023667.481,-14.160,-45.898,-41.016,-13.184,-95.703
1678023667.485,-13.184,-46.387,-32.227,-1.953,24.902
1678023667.489,-8.789,-42.969,-34.668,-5.859,-82.031
1678023667.489,-5.371,-41.016,-40.039,-9.277,-149.414
1678023667.493,-1.953,-41.992,-36.133,-5.371,-82.031
1678023667.497,4.395,-41.504,-33.691,-6.836,-43.457
1678023667.501,-2.930,-41.992,-31.250,-9.766,-27.832
1678023667.505,-10.254,-42.480,-34.180,-17.090,-55.176
1678023667.509,-0.977,-41.016,-38.574,-15.625,-17.578
1678023667.513,2.930,-40.527,-35.156,-2.441,260.254
1678023667.516,-6.836,-42.480,-36.621,-1.465,184.570
1678023667.520,-18.555,-38.574,-36.621,-18.555,-103.027
1678023667.524,-15.625,-35.645,-32.227,-14.160,-7.324
1678023667.528,-8.301,-39.551,-32.227,-12.695,-1.465
1678023667.532,-3.906,-39.062,-33.203,-29.785,-166.504
1678023667.536,-4.883,-34.668,-32.715,-26.367,-141.113
1678023667.540,-20.020,-35.156,-36.133,-23.438,-69.336
1678023667.544,-24.902,-35.156,-33.691,-23.926,-87.402
1678023667.548,-11.719,-33.691,-33.203,-21.973,-183.105
1678023667.552,-6.836,-35.645,-35.156,-24.414,-156.250
1678023667.556,-14.648,-37.598,-32.715,-25.391,-9.277
1678023667.560,-20.020,-34.668,-33.691,-31.250,50.293
1678023667.563,-21.973,-32.227,-30.273,-31.738,-80.566
1678023667.567,-20.020,-30.762,-24.902,-30.762,-206.543
1678023667.571,-10.254,-29.785,-25.391,-24.414,22.949
1678023667.575,-14.160,-32.227,-28.809,-28.809,173.340
1678023667.579,-25.879,-32.715,-31.250,-44.922,-62.500
1678023667.594,-26.855,-30.762,-32.227,-39.551,-110.840
1678023667.598,-21.973,-34.180,-32.715,-28.809,-14.648
1678023667.602,-18.555,-31.738,-30.273,-30.273,-133.789
1678023667.606,-10.254,-26.367,-25.391,-34.180,-130.371
1678023667.610,-11.719,-29.297,-24.902,-34.668,-25.879
1678023667.614,-25.391,-29.785,-28.809,-38.086,116.699
1678023667.618,-27.832,-29.785,-30.762,-40.039,79.590
1678023667.621,-18.066,-30.273,-32.227,-41.016,-195.312
1678023667.625,-8.301,-30.762,-33.691,-36.621,-114.258
1678023667.629,-15.625,-27.344,-36.133,-23.438,82.031
1678023667.633,-21.484,-28.809,-40.527,-26.855,-65.918
1678023667.637,-12.207,-36.133,-38.086,-28.809,-194.824
1678023667.641,-29.785,-41.016,-35.156,-37.109,-20.508
1678023667.645,-43.457,-40.039,-35.645,-57.617,9.766
1678023667.649,-31.250,-36.621,-31.250,-49.316,-186.523
1678023667.653,-43.945,-37.109,-28.320,-50.293,-180.176
1678023667.657,-46.387,-40.527,-26.367,-58.594,-113.281
1678023667.661,-26.855,-41.016,-22.949,-41.016,-108.887
1678023667.665,-24.414,-36.133,-22.949,-35.156,-92.285
1678023667.668,-36.133,-38.574,-23.438,-46.875,-89.844
1678023667.672,-43.945,-40.527,-25.879,-40.039,80.566
1678023667.676,-39.062,-37.598,-24.902,-29.297,125.488
1678023667.680,-41.016,-35.645,-22.461,-29.785,-199.219
1678023667.684,-38.574,-39.062,-26.367,-21.973,-156.250
1678023667.684,-31.250,-39.551,-26.855,-17.578,-108.398
1678023667.688,-36.133,-35.156,-23.926,-19.043,-139.160
1678023667.692,-41.016,-33.203,-25.391,-24.414,-132.324
1678023667.696,-35.645,-31.738,-24.902,-23.926,-65.430
1678023667.700,-30.762,-35.645,-23.438,-17.578,88.867
1678023667.704,-31.250,-38.086,-20.508,-15.625,2.930
1678023667.708,-35.156,-35.645,-20.020,-14.648,-105.957
1678023667.711,-35.645,-32.715,-17.578,-10.254,-50.293
1678023667.715,-29.297,-36.133,-16.113,2.441,288.574
1678023667.719,-21.973,-37.598,-18.555,5.859,160.645
1678023667.723,-17.578,-34.668,-17.578,-4.395,-180.176
1678023667.727,-19.531,-33.203,-18.066,-4.395,-70.801
1678023667.731,-25.391,-30.762,-19.043,-2.441,-114.746
1678023667.735,-20.020,-28.320,-19.531,-13.672,-268.555
1678023667.739,-9.766,-23.926,-19.531,-14.160,-188.477
1678023667.743,-13.672,-21.484,-16.113,-6.348,-115.234
1678023667.747,-26.855,-23.438,-14.648,-12.695,-162.598
1678023667.751,-29.785,-27.832,-18.555,-22.461,-47.852
1678023667.755,-27.344,-28.809,-19.043,-20.996,-27.832
1678023667.758,-24.414,-30.273,-20.020,-10.254,134.766
1678023667.762,-26.855,-37.109,-26.855,-2.930,249.023
1678023667.766,-31.250,-30.273,-26.855,-16.602,-67.383
1678023667.770,-24.902,-27.344,-25.391,-20.996,-176.270
1678023667.774,-23.926,-32.227,-25.391,-16.113,-138.672
1678023667.774,-27.344,-29.785,-22.949,-18.555,-142.578
1678023667.778,-21.973,-32.715,-23.926,-15.137,-83.984
1678023667.782,-22.949,-38.086,-23.926,-9.766,-55.176
1678023667.786,-31.738,-31.250,-22.461,-4.395,-47.363
1678023667.790,-33.203,-31.250,-25.391,-6.836,-43.945
1678023667.794,-26.367,-30.273,-18.066,-11.719,-56.152
1678023667.798,-20.508,-36.133,-16.113,-11.230,8.789
1678023667.801,-27.344,-43.457,-24.902,-15.625,317.383
1678023667.805,-40.527,-37.598,-27.344,-33.203,196.777
1678023667.809,-42.969,-35.156,-26.855,-37.598,-181.152
1678023667.813,-33.203,-35.156,-27.832,-28.320,-26.855
1678023667.817,-30.273,-35.645,-29.785,-22.949,149.902
1678023667.821,-41.504,-35.645,-31.250,-27.344,-44.434
1678023667.825,-45.898,-36.621,-28.320,-26.367,-119.141
1678023667.829,-44.434,-37.598,-26.367,-37.109,-74.219
1678023667.833,-41.992,-37.598,-24.902,-48.340,-100.586
1678023667.837,-32.715,-37.598,-23.438,-38.086,-105.469
1678023667.841,-30.273,-39.062,-26.855,-35.156,0.488
1678023667.845,-35.156,-39.551,-25.879,-27.832,243.164
1678023667.848,-46.387,-41.992,-27.344,-35.645,160.156
1678023667.852,-39.551,-42.969,-27.344,-44.922,-157.227
1678023667.856,-33.203,-43.457,-21.484,-41.016,-116.699
1678023667.860,-42.969,-37.598,-20.508,-39.062,-48.340
1678023667.864,-43.457,-32.715,-24.902,-42.969,-152.344
1678023667.864,-35.156,-32.715,-25.879,-49.316,-175.781
1678023667.868,-26.855,-31.738,-22.461,-39.062,-68.848
1678023667.872,-22.461,-34.668,-23.926,-37.598,-47.852
1678023667.876,-29.785,-32.227,-21.484,-38.574,-93.262
1678023667.880,-36.133,-29.297,-24.902,-30.273,-91.309
1678023667.884,-28.809,-32.227,-26.855,-29.297,-15.137
1678023667.888,-24.902,-34.180,-20.508,-23.926,303.711
1678023667.891,-29.297,-37.109,-20.996,-22.949,228.516
1678023667.895,-34.180,-37.109,-19.531,-25.879,-87.402
1678023667.899,-34.668,-31.250,-17.090,-23.926,-67.383
1678023667.903,-40.527,-26.855,-20.996,-27.344,-143.555
1678023667.907,-34.668,-30.762,-20.020,-29.785,-231.445
1678023667.925,-26.367,-35.156,-20.020,-28.809,-113.281
1678023667.929,-29.297,-37.109,-23.438,-19.531,28.320
1678023667.933,-41.504,-38.574,-21.484,-17.090,-57.129
1678023667.937,-42.969,-38.574,-21.973,-25.391,-181.641
1678023667.941,-35.645,-39.062,-21.484,-26.855,-170.410
1678023667.945,-42.480,-40.527,-18.066,-26.367,9.766
1678023667.949,-41.016,-40.527,-25.391,-25.391,50.293
1678023667.952,-36.621,-36.133,-24.902,-20.508,-93.750
1678023667.956,-41.992,-36.133,-19.531,-20.996,-130.371
1678023667.960,-32.715,-40.527,-20.508,-22.461,51.758
1678023667.964,-29.297,-37.598,-23.926,-21.973,60.547
1678023667.968,-31.738,-35.645,-22.949,-20.996,-131.836
1678023667.970,-33.691,-36.133,-23.438,-29.297,-66.406
1678023667.974,-43.457,-36.133,-28.320,-42.969,-97.168
1678023667.978,-45.898,-40.039,-27.344,-38.086,-89.355
1678023667.982,-39.062,-41.016,-29.785,-33.691,-46.387
1678023667.986,-34.180,-37.598,-33.203,-31.738,-19.531
1678023667.990,-42.480,-41.992,-34.180,-35.156,255.859
1678023667.994,-48.828,-41.016,-32.227,-38.086,181.152
1678023667.997,-42.969,-35.156,-29.297,-33.691,-148.438
1678023668.001,-39.062,-37.598,-28.809,-32.715,-135.254
1678023668.005,-38.574,-46.387,-30.273,-28.320,228.516
1678023668.009,-42.480,-44.434,-28.809,-28.809,142.578
1678023668.013,-42.969,-37.109,-25.391,-39.062,-138.184
1678023668.015,-44.922,-38.574,-28.809,-49.316,-102.051
1678023668.019,-47.363,-38.086,-29.297,-42.969,-65.430
1678023668.023,-41.992,-35.645,-31.250,-33.691,-89.355
1678023668.027,-38.574,-32.227,-33.691,-27.832,-139.160
1678023668.031,-41.504,-32.715,-29.297,-30.762,-28.320
1678023668.035,-38.574,-32.715,-28.809,-38.086,56.641
1678023668.039,-36.133,-32.715,-32.715,-38.086,-14.160
1678023668.042,-34.180,-38.086,-31.738,-37.598,-64.941
1678023668.046,-29.297,-38.574,-27.344,-23.438,98.145
1678023668.050,-39.062,-41.016,-25.391,-23.438,201.172
1678023668.054,-35.645,-37.109,-25.879,-40.039,-63.965
1678023668.058,-28.809,-30.762,-26.855,-39.551,-123.535
1678023668.059,-32.227,-32.715,-26.855,-33.691,-114.746
1678023668.063,-30.273,-33.691,-25.391,-28.320,-51.758
1678023668.067,-39.551,-34.668,-25.391,-31.738,-79.102
1678023668.071,-48.828,-40.039,-26.855,-34.180,-14.648
1678023668.075,-40.527,-38.574,-26.367,-29.297,100.586
1678023668.079,-31.738,-33.203,-20.996,-25.879,8.301
1678023668.083,-39.062,-28.320,-24.414,-36.621,-22.461
1678023668.086,-50.781,-34.668,-25.391,-61.035,72.754
1678023668.090,-47.852,-31.250,-18.066,-66.895,157.715
1678023668.094,-31.250,-20.508,-13.184,-56.641,-34.180
1678023668.098,-46.875,-20.508,-15.625,-70.801,-145.508
1678023668.102,-65.918,-10.742,-0.488,-72.754,-20.508
1678023668.106,-100.586,-12.207,5.859,-88.867,150.391
1678023668.110,-136.230,-14.160,-2.930,-131.348,-90.332
1678023668.114,-123.047,-19.531,32.715,-114.258,-261.719
1678023668.118,-126.465,0.000,62.500,-114.746,-140.137
1678023668.122,-149.414,14.160,31.738,-143.555,-139.160
1678023668.126,-204.102,4.883,-5.859,-190.918,-31.738
1678023668.130,-256.836,1.465,2.930,-248.047,22.461
1678023668.133,-252.441,3.906,5.371,-254.883,116.699
1678023668.137,-223.633,21.484,20.020,-232.910,135.254
1678023668.141,-236.816,29.297,28.809,-252.930,-109.375
1678023668.145,-250.977,24.414,25.391,-249.023,-128.418
1678023668.149,-236.328,31.250,30.273,-221.680,-67.383
1678023668.149,-219.727,33.203,20.020,-222.168,-93.750
1678023668.153,-214.355,28.320,5.371,-216.309,-132.324
1678023668.157,-194.824,25.879,10.254,-192.383,-72.266
1678023668.161,-168.945,27.344,8.789,-176.270,-21.973
1678023668.165,-160.645,19.043,0.488,-168.457,-36.621
1678023668.169,-151.855,7.324,-0.977,-151.367,-69.824
1678023668.173,-120.605,10.742,-5.371,-124.512,-30.762
1678023668.176,-101.074,-0.977,-13.184,-100.098,246.094
1678023668.180,-109.863,-17.090,-20.996,-105.957,192.383
1678023668.184,-87.402,-15.625,-19.531,-83.984,-76.172
1678023668.188,-45.410,-16.113,-18.066,-41.992,-40.527
1678023668.192,-25.879,-20.508,-24.902,-32.715,-45.898
1678023668.240,-18.555,-24.902,-28.320,-21.973,-55.664
1678023668.244,-2.441,-30.273,-34.668,-7.324,-93.262
1678023668.248,4.883,-33.203,-42.480,1.953,27.344
1678023668.252,0.000,-39.551,-49.316,-2.441,28.809
1678023668.256,10.254,-47.363,-55.664,5.371,-96.191
1678023668.260,36.621,-46.387,-57.617,15.625,15.625
1678023668.264,49.316,-47.363,-57.129,23.926,188.477
1678023668.267,36.621,-46.875,-64.453,31.738,166.016
1678023668.271,33.203,-44.434,-68.848,28.320,-56.152
1678023668.275,41.016,-41.504,-63.965,24.414,-40.527
