timestamps,TP9,AF7,AF8,TP10,Right AUX
1678023469.698,-41.504,-40.039,-33.203,-27.344,-139.648
1678023469.702,-52.734,-43.457,-35.156,-34.668,-107.422
1678023469.706,-54.688,-41.504,-35.156,-40.527,-140.137
1678023469.710,-46.875,-39.062,-37.109,-43.945,-122.070
1678023469.714,-37.109,-37.598,-33.691,-39.062,-55.176
1678023469.718,-32.715,-38.086,-31.738,-33.203,16.602
1678023469.722,-35.645,-35.156,-34.668,-37.109,-16.602
1678023469.725,-39.062,-39.062,-34.668,-36.621,-150.879
1678023469.729,-24.414,-40.039,-33.691,-20.996,-28.320
1678023469.733,-22.461,-35.645,-35.156,-21.973,189.941
1678023469.737,-33.203,-35.645,-40.039,-33.203,21.484
1678023469.741,-35.645,-37.598,-44.922,-28.809,-20.020
1678023469.743,-40.039,-38.086,-44.434,-30.762,-19.043
1678023469.747,-42.480,-34.668,-41.504,-38.574,19.531
1678023469.751,-38.574,-36.133,-41.504,-37.598,-19.043
1678023469.755,-30.762,-36.621,-42.969,-30.273,-151.367
1678023469.759,-34.668,-36.133,-41.016,-32.227,33.203
1678023469.763,-37.598,-31.738,-41.016,-40.527,144.043
1678023469.767,-32.227,-30.762,-41.504,-44.922,17.090
1678023469.770,-21.973,-32.227,-37.598,-30.762,-89.844
1678023469.774,-24.414,-29.297,-36.133,-23.926,93.750
1678023469.778,-41.504,-35.645,-41.992,-35.156,13.184
1678023469.782,-43.945,-35.645,-41.992,-41.016,-229.004
1678023469.786,-38.086,-33.203,-34.668,-39.551,-170.410
1678023469.788,-31.250,-34.668,-33.691,-35.645,-48.828
1678023469.792,-27.344,-30.273,-36.621,-33.691,-33.691
1678023469.796,-34.668,-30.762,-33.691,-28.320,-179.199
1678023469.800,-38.086,-33.203,-29.297,-19.531,-176.758
1678023469.804,-34.668,-31.738,-30.762,-24.414,125.488
1678023469.808,-34.668,-31.738,-32.715,-37.109,56.152
1678023469.812,-41.992,-35.156,-35.156,-41.016,-118.652
1678023469.815,-44.434,-40.039,-34.668,-40.039,-0.977
1678023469.819,-48.340,-42.480,-39.551,-36.133,109.375
1678023469.823,-49.805,-35.645,-39.551,-41.992,-119.141
1678023469.827,-35.645,-31.250,-32.227,-41.504,-186.035
1678023469.831,-31.250,-34.180,-36.621,-36.133,-75.684
1678023469.833,-32.227,-31.738,-39.062,-40.039,-105.469
1678023469.837,-43.945,-31.738,-34.180,-38.086,-62.012
1678023469.841,-48.340,-35.156,-29.785,-40.527,-103.516
1678023469.845,-37.598,-36.133,-27.344,-36.621,57.617
1678023469.849,-32.227,-34.180,-28.809,-38.574,143.066
1678023469.853,-37.598,-34.180,-30.273,-46.875,-48.828
1678023469.857,-49.316,-37.109,-25.879,-45.898,-116.699
1678023469.860,-51.270,-38.086,-27.832,-37.109,60.059
1678023469.864,-44.922,-33.203,-33.203,-33.691,107.422
1678023469.868,-41.504,-34.180,-31.250,-41.016,-189.453
1678023469.872,-41.016,-38.086,-31.250,-40.527,-223.145
1678023469.876,-49.805,-36.133,-36.133,-42.969,-81.543
1678023469.878,-52.734,-38.574,-36.133,-51.758,-55.176
1678023469.882,-47.363,-42.480,-33.203,-52.246,-130.859
1678023469.886,-41.992,-36.621,-35.156,-41.504,-109.375
1678023469.890,-35.156,-31.250,-36.133,-39.062,-37.109
1678023469.894,-40.039,-33.203,-34.668,-40.039,-46.387
1678023469.898,-46.875,-34.180,-32.715,-39.551,-101.074
1678023469.902,-35.645,-37.598,-28.320,-40.527,43.945
1678023469.905,-28.320,-38.086,-29.785,-33.691,369.629
1678023469.909,-31.738,-33.203,-36.621,-39.551,152.832
1678023469.913,-35.156,-32.715,-40.039,-51.270,-105.957
1678023469.917,-36.621,-35.156,-41.504,-60.059,-61.035
1678023469.921,-31.738,-34.668,-39.062,-63.965,-101.562
1678023469.923,-25.391,-28.809,-33.691,-54.199,-167.969
1678023469.927,-26.367,-27.344,-31.738,-43.945,-139.648
1678023469.931,-28.320,-27.832,-32.227,-40.527,-0.977
1678023469.935,-41.016,-24.902,-32.715,-42.969,15.137
1678023469.939,-41.992,-26.855,-35.156,-47.363,-150.879
1678023469.943,-29.297,-29.297,-33.203,-50.293,-36.621
1678023469.947,-27.344,-31.250,-29.297,-36.133,262.695
1678023469.950,-39.062,-33.203,-36.621,-29.297,148.438
1678023469.954,-44.434,-34.180,-39.551,-41.504,-70.312
1678023469.958,-33.691,-35.156,-36.133,-39.551,-73.242
1678023469.962,-28.320,-33.203,-34.180,-35.156,28.809
1678023469.966,-25.879,-31.250,-32.715,-33.203,-95.703
1678023469.968,-30.762,-36.133,-35.156,-37.598,-204.102
1678023469.972,-47.363,-38.086,-37.109,-49.805,-135.254
1678023469.976,-48.828,-33.203,-35.156,-53.711,-108.398
1678023469.980,-41.992,-34.180,-31.738,-50.293,-136.230
1678023469.984,-37.109,-37.109,-28.809,-47.363,-151.367
1678023469.988,-35.156,-41.504,-28.320,-41.504,-55.664
1678023469.992,-45.410,-41.992,-30.762,-40.527,24.902
1678023469.995,-49.316,-41.504,-35.645,-48.340,-101.074
1678023469.999,-38.086,-37.598,-31.738,-43.945,-182.617
1678023470.003,-36.133,-39.062,-32.227,-35.156,-76.172
1678023470.007,-38.086,-42.480,-35.156,-29.785,99.121
1678023470.011,-43.945,-39.551,-35.156,-32.227,-36.133
1678023470.028,-46.875,-39.551,-28.809,-32.715,-202.637
1678023470.032,-37.109,-40.039,-21.973,-23.926,44.922
1678023470.036,-35.645,-39.551,-27.344,-23.438,213.379
1678023470.040,-40.527,-34.668,-33.203,-30.762,-63.965
1678023470.044,-46.875,-30.273,-25.391,-25.391,-124.023
1678023470.048,-44.922,-33.203,-20.508,-18.555,25.391
1678023470.052,-33.691,-36.133,-25.391,-26.855,26.367
1678023470.055,-31.250,-34.180,-28.320,-32.227,-116.699
1678023470.059,-31.738,-35.645,-31.738,-26.855,-110.352
1678023470.063,-30.273,-36.133,-33.691,-17.578,143.555
1678023470.067,-37.109,-35.156,-32.227,-24.414,33.691
1678023470.071,-34.668,-32.227,-30.762,-38.086,-125.977
1678023470.088,-26.367,-35.156,-30.762,-37.598,-20.508
1678023470.092,-29.297,-39.062,-33.691,-39.551,18.555
1678023470.096,-40.039,-35.645,-37.598,-42.969,-72.754
1678023470.100,-41.016,-33.691,-33.203,-42.969,-97.168
1678023470.104,-36.621,-34.180,-35.645,-47.363,-83.984
1678023470.108,-33.691,-37.109,-38.086,-41.016,-37.598
1678023470.112,-34.668,-34.668,-33.691,-39.062,55.664
1678023470.115,-41.016,-28.809,-32.227,-45.898,-11.719
1678023470.119,-41.992,-28.320,-28.809,-36.133,32.715
1678023470.123,-36.621,-34.668,-31.738,-27.832,245.605
1678023470.127,-38.574,-33.203,-40.039,-41.992,-21.973
1678023470.131,-37.109,-31.738,-29.297,-37.109,-155.762
1678023470.119,-30.273,-31.738,-15.137,-19.531,7.324
1678023470.123,-31.738,-33.691,-17.578,-22.949,25.391
1678023470.127,-33.203,-33.203,-25.879,-28.320,-104.492
1678023470.131,-30.273,-24.902,-22.949,-30.762,-145.020
1678023470.135,-38.574,-25.879,-20.996,-37.109,122.559
1678023470.139,-47.852,-14.160,-21.484,-40.039,177.734
1678023470.143,-62.012,1.953,-24.902,-58.105,-74.707
1678023470.146,-76.660,5.371,-24.902,-80.078,-124.023
1678023470.150,-99.609,19.531,-27.344,-108.887,-19.531
1678023470.154,-131.836,35.156,-30.273,-140.625,-52.734
1678023470.158,-158.691,48.340,-26.855,-166.016,-163.574
1678023470.162,-189.453,58.105,-24.902,-195.312,-130.371
1678023470.163,-186.523,64.941,1.465,-179.688,93.750
1678023470.167,-177.246,70.312,0.488,-179.199,69.336
1678023470.171,-185.547,64.453,-13.672,-197.754,-112.793
1678023470.175,-193.359,56.152,-12.207,-202.148,-95.703
1678023470.179,-213.379,52.246,-16.113,-221.680,-67.383
1678023470.183,-220.215,48.340,-19.531,-229.004,-73.242
1678023470.187,-208.496,45.898,-18.066,-217.285,-117.676
1678023470.190,-206.055,41.992,-8.789,-212.402,20.996
1678023470.194,-196.289,41.992,-10.254,-197.266,263.672
1678023470.198,-197.266,45.410,-15.137,-197.266,53.223
1678023470.202,-194.824,39.062,-13.184,-189.453,-164.551
1678023470.206,-174.805,31.250,-11.230,-171.875,-151.855
1678023470.208,-168.945,25.391,-11.230,-167.969,-144.531
1678023470.212,-168.457,24.414,-15.137,-163.086,-103.516
1678023470.216,-175.293,22.949,-21.973,-165.039,-93.750
1678023470.220,-170.898,17.090,-26.367,-158.203,24.902
1678023470.224,-158.203,22.461,-26.367,-154.785,79.590
1678023470.228,-145.508,25.879,-25.879,-147.461,8.789
1678023470.232,-131.836,15.137,-30.273,-131.836,12.207
1678023470.235,-122.559,5.859,-37.598,-112.305,317.383
1678023470.239,-104.004,5.859,-42.969,-93.750,334.473
1678023470.243,-78.613,1.465,-45.410,-82.031,-72.754
1678023470.247,-59.082,-16.113,-48.340,-61.035,-136.230
1678023470.251,-48.340,-33.203,-49.805,-41.504,-49.805
1678023470.253,-47.363,-37.598,-46.875,-28.320,-95.215
1678023470.257,-36.621,-44.922,-47.363,-19.043,-202.148
1678023470.261,-15.137,-54.199,-49.316,-13.184,-194.336
1678023470.265,-1.953,-63.477,-46.875,-2.930,-116.699
1678023470.269,3.906,-67.383,-40.039,16.602,-111.328
1678023470.273,8.301,-58.594,-35.156,20.996,-78.613
1678023470.277,14.160,-62.988,-32.227,28.809,84.473
1678023470.280,23.926,-76.172,-32.227,41.016,267.578
1678023470.284,29.297,-77.637,-35.645,31.250,52.734
1678023470.288,34.180,-78.613,-38.086,41.016,-62.988
1678023470.292,36.621,-76.660,-39.551,53.223,9.766
1678023470.296,28.320,-74.707,-40.039,46.387,-29.785
1678023470.298,32.715,-76.660,-42.969,39.551,-87.891
1678023470.302,45.898,-79.102,-41.016,42.480,-60.547
1678023470.306,46.387,-79.102,-40.527,50.781,65.918
1678023470.310,38.086,-77.148,-43.945,48.340,33.203
1678023470.314,32.227,-76.660,-39.062,43.457,-134.277
1678023470.318,37.109,-76.660,-38.086,42.969,-70.801
1678023470.322,47.852,-71.777,-39.551,49.316,225.586
1678023470.325,46.875,-65.430,-38.574,53.223,166.016
1678023470.329,37.598,-64.941,-41.504,44.434,-134.277
1678023470.333,27.832,-64.941,-41.992,41.016,-148.926
1678023470.337,25.879,-61.035,-42.480,40.039,-120.117
1678023470.341,31.738,-59.570,-43.457,41.016,-133.301
1678023470.344,30.762,-62.012,-37.109,38.086,-88.379
1678023470.348,22.949,-60.547,-38.086,35.645,-58.594
1678023470.352,16.602,-57.129,-42.480,28.809,14.648
1678023470.356,14.648,-58.594,-41.992,22.949,-109.863
1678023470.360,20.996,-63.965,-42.969,20.996,-260.742
1678023470.364,22.949,-65.918,-44.434,20.996,-20.020
1678023470.368,25.391,-63.477,-40.039,34.668,182.617
1678023470.371,15.625,-61.523,-38.086,28.320,7.324
1678023470.375,12.695,-63.965,-34.668,19.043,-108.887
1678023470.379,19.043,-67.383,-35.156,16.602,-53.223
1678023470.383,28.320,-63.477,-38.086,20.508,29.297
1678023470.387,29.297,-60.547,-37.598,26.855,-58.594
1678023470.403,16.602,-59.082,-35.645,20.508,-153.320
1678023470.407,15.625,-61.523,-31.250,22.461,64.453
1678023470.411,18.066,-63.477,-34.180,26.855,202.148
1678023470.415,22.949,-56.641,-38.086,20.996,-59.570
1678023470.419,23.926,-49.805,-30.273,21.973,-173.828
1678023470.423,18.066,-50.293,-27.832,27.344,141.602
1678023470.427,13.184,-56.152,-33.203,19.531,164.551
1678023470.430,7.324,-54.688,-36.133,5.371,-213.867
1678023470.434,11.719,-52.734,-35.645,10.742,-212.402
1678023470.438,13.184,-52.246,-36.133,18.066,-8.789
1678023470.442,1.465,-52.246,-36.621,8.301,-105.957
1678023470.446,-9.766,-54.688,-34.180,0.977,-211.914
1678023470.448,-10.254,-53.711,-33.203,0.000,-178.223
1678023470.452,-6.836,-51.270,-34.668,0.977,-94.727
1678023470.456,-3.418,-44.922,-34.668,0.488,-69.824
1678023470.460,-6.348,-41.016,-36.133,0.488,-122.559
1678023470.464,-8.789,-45.410,-39.062,4.395,-109.375
1678023470.468,-5.859,-45.898,-32.715,1.953,-93.262
1678023470.472,3.906,-38.086,-29.297,8.301,-102.539
1678023470.475,4.883,-32.227,-30.273,15.625,-120.605
1678023470.479,0.977,-32.227,-27.344,19.043,-36.133
1678023470.483,-3.906,-37.598,-26.367,17.578,217.773
1678023470.487,-9.277,-38.086,-25.879,1.465,-5.371
1678023470.491,-2.441,-35.645,-26.367,3.906,-186.035
1678023470.493,2.441,-41.016,-24.902,9.277,-88.379
1678023470.497,-4.883,-48.340,-28.809,3.418,-32.227
1678023470.501,-20.508,-48.340,-34.180,-5.371,-66.406
1678023470.505,-20.020,-43.945,-31.250,-16.113,-108.398
1678023470.509,-15.137,-47.363,-34.668,-21.484,84.473
1678023470.513,-16.602,-49.805,-37.598,-22.461,117.676
1678023470.517,-15.625,-45.410,-35.156,-26.855,55.176
1678023470.520,-23.926,-44.434,-36.133,-32.227,44.434
1678023470.524,-20.020,-43.945,-30.273,-18.555,215.332
1678023470.528,-9.766,-41.016,-25.391,-11.230,274.414
1678023470.532,-15.625,-37.598,-27.344,-28.320,-120.117
1678023470.536,-25.391,-42.480,-26.855,-27.832,-216.309
1678023470.538,-34.668,-46.387,-29.297,-25.391,-73.730
1678023470.542,-36.133,-47.852,-25.879,-33.203,-136.230
1678023470.546,-34.668,-49.805,-20.508,-27.344,-200.684
1678023470.550,-35.156,-51.758,-29.785,-29.297,-178.223
1678023470.554,-34.668,-47.852,-33.691,-31.738,-82.031
1678023470.558,-40.039,-42.969,-31.250,-29.785,-14.160
1678023470.562,-39.062,-41.504,-33.691,-33.691,-58.594
1678023470.565,-28.809,-39.062,-28.320,-32.715,-18.066
1678023470.569,-23.438,-40.527,-32.715,-23.438,234.375
1678023470.573,-26.855,-37.598,-43.457,-23.926,99.609
1678023470.577,-35.645,-39.551,-37.598,-33.691,-124.023
1678023470.581,-40.039,-43.945,-33.691,-38.086,-74.219
1678023470.583,-33.203,-42.969,-35.156,-36.621,-53.711
1678023470.587,-29.297,-45.410,-37.109,-37.109,-148.438
1678023470.591,-25.879,-48.340,-37.109,-35.156,-174.316
1678023470.595,-28.809,-41.992,-33.203,-26.855,2.930
1678023470.599,-38.086,-38.086,-34.180,-30.273,36.621
1678023470.603,-30.273,-36.133,-36.621,-42.969,-85.449
1678023470.607,-21.484,-32.227,-31.250,-38.574,-92.773
1678023470.610,-20.996,-34.180,-26.367,-23.438,124.023
1678023470.614,-28.809,-31.738,-25.879,-28.320,96.191
1678023470.618,-38.574,-27.344,-31.250,-38.574,-178.223
1678023470.622,-33.203,-32.227,-36.621,-36.133,-195.801
1678023470.626,-27.832,-33.691,-32.715,-32.227,-90.332
1678023470.628,-32.227,-33.691,-32.715,-32.715,-64.941
1678023470.632,-43.457,-37.598,-36.621,-33.203,-147.949
1678023470.636,-57.129,-43.945,-37.109,-43.457,-68.359
1678023470.640,-53.711,-45.898,-41.504,-48.828,8.301
1678023470.644,-43.457,-42.969,-43.945,-43.457,-106.934
1678023470.648,-37.598,-40.039,-41.504,-40.039,-58.594
1678023470.652,-35.645,-38.574,-37.109,-38.574,153.809
1678023470.655,-39.062,-38.086,-35.156,-41.016,296.387
1678023470.659,-39.062,-35.645,-34.668,-52.734,7.812
1678023470.663,-33.203,-35.645,-38.574,-58.105,-145.996
1678023470.667,-25.391,-37.598,-36.621,-55.176,-38.086
1678023470.671,-28.809,-35.645,-34.668,-47.852,-97.168
1678023470.674,-40.527,-36.133,-35.645,-44.922,-139.160
1678023470.678,-36.621,-37.109,-38.086,-46.387,-70.312
1678023470.682,-27.832,-35.156,-36.133,-39.062,92.773
1678023470.686,-29.785,-32.715,-33.203,-31.738,55.664
1678023470.690,-35.156,-29.297,-32.227,-39.062,-156.250
1678023470.694,-37.598,-32.227,-33.203,-41.992,-69.336
1678023470.698,-35.645,-35.645,-33.691,-35.645,187.988
1678023470.701,-32.715,-34.668,-33.203,-40.527,83.984
1678023470.705,-30.273,-29.785,-34.668,-50.781,-183.594
1678023470.709,-25.879,-29.297,-31.250,-45.410,-127.930
1678023470.713,-31.738,-33.203,-27.832,-42.480,-53.223
1678023470.717,-39.551,-30.273,-27.344,-47.363,-95.215
1678023470.718,-34.668,-31.250,-30.273,-51.758,-131.836
1678023470.722,-24.902,-29.785,-27.832,-41.016,-31.250
1678023470.726,-27.344,-26.367,-25.391,-33.203,83.984
1678023470.730,-43.457,-28.809,-30.273,-40.527,-27.344
1678023470.734,-48.828,-31.738,-32.715,-44.434,-98.145
1678023470.738,-42.480,-31.738,-30.273,-35.156,33.203
1678023470.742,-32.227,-30.273,-28.320,-20.996,310.059
1678023470.745,-32.715,-27.344,-34.668,-22.949,89.844
1678023470.749,-40.527,-23.926,-41.504,-27.344,-229.004
1678023470.753,-39.062,-24.414,-36.621,-27.832,-171.387
1678023470.757,-36.133,-29.785,-35.645,-34.668,-99.609
1678023470.761,-31.738,-30.762,-38.086,-36.621,-147.461
1678023470.778,-31.738,-29.785,-29.785,-29.785,-147.949
1678023470.782,-46.875,-37.109,-25.879,-27.832,118.652
1678023470.786,-59.082,-40.527,-33.691,-39.551,96.680
1678023470.790,-50.781,-38.574,-35.156,-43.945,-175.781
1678023470.794,-40.527,-38.574,-31.738,-37.598,-195.312
1678023470.798,-40.039,-41.016,-30.273,-25.879,-4.395
1678023470.802,-47.363,-41.992,-35.156,-26.855,20.996
1678023470.805,-50.293,-38.574,-30.762,-41.016,-69.824
1678023470.809,-47.363,-36.133,-29.785,-41.504,-151.855
1678023470.813,-42.480,-38.086,-33.203,-32.227,50.781
1678023470.817,-36.621,-36.621,-34.668,-38.086,94.727
1678023470.821,-45.898,-33.691,-35.645,-47.363,-171.387
1678023470.823,-56.152,-36.133,-32.227,-46.387,-96.680
1678023470.827,-47.363,-35.156,-32.227,-44.434,16.602
1678023470.831,-36.133,-32.227,-35.156,-41.504,-109.375
1678023470.835,-32.227,-27.344,-36.621,-36.621,-116.699
1678023470.839,-33.691,-25.879,-35.156,-32.715,-124.512
1678023470.843,-38.574,-30.273,-37.109,-35.645,-42.480
1678023470.847,-36.133,-28.320,-35.645,-34.668,-1.953
1678023470.850,-31.738,-25.879,-36.621,-37.109,-198.730
1678023470.854,-31.250,-31.738,-40.039,-32.227,-116.699
1678023470.858,-33.691,-33.203,-35.645,-19.531,332.031
1678023470.862,-46.875,-33.691,-33.691,-25.391,57.129
1678023470.866,-50.781,-34.668,-31.250,-35.645,-280.273
1678023470.868,-41.992,-34.180,-31.250,-36.133,-108.398
1678023470.872,-41.504,-34.180,-30.762,-38.574,-45.410
1678023470.876,-47.852,-35.156,-32.715,-35.645,-125.488
1678023470.880,-46.387,-33.203,-37.109,-34.668,-175.293
1678023470.884,-38.574,-29.785,-37.109,-32.715,-31.250
1678023470.888,-36.621,-29.297,-37.598,-26.367,93.262
1678023470.892,-31.250,-31.250,-38.086,-24.902,10.254
1678023470.895,-27.832,-35.156,-34.180,-25.391,-62.988
1678023470.899,-33.203,-34.668,-27.832,-24.414,199.707
1678023470.903,-36.621,-34.668,-32.715,-29.785,215.820
1678023470.907,-35.156,-35.156,-34.668,-36.133,-96.191
1678023470.911,-30.273,-38.086,-32.715,-31.738,-46.387
1678023470.913,-36.133,-41.504,-31.738,-22.949,68.848
1678023470.917,-46.387,-37.109,-28.809,-34.180,-63.477
1678023470.921,-46.387,-38.086,-35.645,-44.434,-189.453
1678023470.925,-45.410,-37.109,-39.551,-41.016,-163.574
1678023470.929,-43.945,-38.574,-39.551,-42.969,-138.184
1678023470.933,-40.039,-42.480,-36.133,-38.086,2.441
1678023470.937,-44.922,-37.598,-32.227,-36.133,31.250
1678023470.940,-48.828,-36.621,-32.227,-41.992,62.988
1678023470.944,-43.457,-38.086,-33.691,-38.574,195.312
1678023470.948,-38.086,-33.691,-33.203,-45.410,-26.367
1678023470.952,-30.273,-28.809,-30.273,-43.457,-87.891
1678023470.956,-33.691,-30.273,-31.738,-35.156,-13.184
1678023470.959,-51.758,-35.156,-38.574,-45.410,-67.871
1678023470.963,-50.781,-36.133,-39.062,-47.363,-92.285
1678023470.967,-37.109,-32.715,-36.621,-37.109,-50.293
1678023470.971,-31.250,-32.227,-38.086,-33.203,121.582
1678023470.975,-36.133,-33.691,-38.574,-34.180,189.941
1678023470.979,-47.363,-33.691,-32.715,-43.457,-14.160
1678023470.983,-39.551,-29.785,-32.227,-48.828,-38.086
1678023470.986,-29.785,-31.250,-34.180,-41.016,191.406
1678023470.990,-33.203,-32.227,-33.691,-33.691,113.770
1678023470.994,-33.691,-26.855,-33.203,-30.273,-169.922
1678023470.998,-39.062,-23.438,-33.691,-38.574,-127.930
1678023471.002,-37.109,-23.926,-34.668,-42.969,-32.715
1678023471.003,-30.273,-24.902,-37.109,-39.551,-144.531
1678023471.007,-30.273,-25.879,-40.527,-36.621,-132.812
1678023471.011,-34.668,-28.809,-39.551,-31.250,-35.156
1678023471.015,-39.551,-27.344,-31.738,-35.645,-32.715
1678023471.019,-33.203,-23.926,-32.227,-42.969,-79.590
1678023471.023,-29.785,-27.832,-39.551,-41.016,-121.582
1678023471.027,-38.086,-29.785,-39.062,-35.645,61.523
1678023471.030,-40.039,-29.785,-37.598,-27.832,292.969
1678023471.034,-44.922,-30.273,-41.016,-37.109,55.664
1678023471.038,-45.410,-25.879,-36.621,-50.293,-181.641
1678023471.042,-27.344,-25.391,-28.320,-43.945,-129.395
1678023471.046,-20.996,-30.762,-29.297,-44.922,-123.535
1678023471.047,-33.203,-30.273,-33.203,-44.922,-80.566
1678023471.051,-45.410,-29.785,-34.668,-44.434,-45.898
1678023471.055,-47.363,-34.180,-33.203,-46.387,43.945
1678023471.059,-40.527,-36.133,-33.203,-48.340,37.109
1678023471.063,-31.250,-33.203,-28.320,-40.527,-175.781
1678023471.067,-31.738,-31.250,-19.043,-27.344,-149.414
1678023471.071,-46.387,-34.668,-21.484,-25.391,123.047
1678023471.074,-45.898,-35.645,-35.156,-33.691,133.301
1678023471.078,-38.574,-33.203,-43.945,-46.875,-126.953
1678023471.082,-32.227,-32.715,-39.551,-39.551,-138.184
1678023471.086,-29.297,-34.180,-39.062,-27.832,42.480
1678023471.090,-43.945,-35.645,-40.527,-50.293,-102.539
1678023471.093,-48.828,-35.156,-34.668,-62.500,-220.215
1678023471.097,-38.086,-35.156,-31.250,-50.781,-183.105
1678023471.101,-32.715,-31.250,-36.133,-48.340,-112.793
1678023471.105,-26.367,-28.320,-39.062,-42.969,-81.543
1678023471.109,-29.297,-29.785,-38.086,-36.133,-118.164
1678023471.113,-37.598,-35.645,-42.480,-35.156,68.359
1678023471.117,-32.715,-37.598,-43.945,-34.668,178.223
1678023471.120,-36.133,-38.574,-39.062,-32.227,-102.051
1678023471.124,-37.109,-35.156,-36.621,-31.738,-154.785
1678023471.128,-39.062,-31.250,-32.715,-37.598,36.133
1678023471.132,-45.898,-34.180,-33.691,-39.062,61.523
1678023471.136,-43.457,-37.598,-38.574,-49.805,-127.441
1678023471.153,-41.504,-38.086,-39.062,-58.105,-194.824
1678023471.157,-38.574,-34.180,-31.250,-45.410,53.711
1678023471.161,-39.551,-19.531,-30.762,-37.598,289.062
1678023471.165,-55.664,-23.926,-41.992,-61.523,-5.859
1678023471.169,-49.316,-24.902,-24.902,-64.941,-162.109
1678023471.173,-40.527,-5.859,-13.184,-59.082,-0.488
1678023471.177,-57.617,-17.090,-40.039,-74.219,36.621
1678023471.180,-78.613,-5.371,-39.551,-85.449,-140.625
1678023471.184,-98.633,23.926,-15.137,-103.516,-172.852
1678023471.188,-133.789,38.574,-22.461,-139.648,32.227
1678023471.192,-175.781,47.852,-26.367,-177.734,-0.488
1678023471.196,-207.520,47.363,-25.391,-210.449,-150.391
1678023471.187,-220.703,53.223,-20.996,-219.727,-104.492
1678023471.191,-233.887,58.594,-16.113,-229.980,-22.949
1678023471.195,-240.723,62.988,-16.113,-235.352,-176.758
1678023471.199,-243.164,67.383,-18.066,-240.234,-189.453
1678023471.203,-231.445,68.359,-24.902,-237.793,-89.844
1678023471.207,-210.938,67.871,-30.762,-212.891,-11.719
1678023471.211,-211.914,65.430,-27.832,-200.684,60.547
1678023471.214,-204.590,58.105,-29.297,-192.871,-65.430
1678023471.218,-186.035,55.176,-33.691,-177.734,-82.031
1678023471.222,-167.480,50.781,-31.250,-148.926,192.383
1678023471.226,-156.250,39.551,-30.762,-138.672,41.016
1678023471.230,-153.320,26.855,-38.574,-140.137,-125.488
1678023471.243,-138.672,20.996,-41.992,-123.047,-46.387
1678023471.247,-109.863,16.602,-41.992,-103.027,-11.230
1678023471.251,-79.590,3.906,-49.316,-83.008,-43.945
1678023471.255,-66.895,-10.254,-47.852,-62.988,-108.887
1678023471.259,-53.711,-18.066,-43.457,-40.039,109.375
1678023471.263,-40.039,-25.879,-42.480,-20.020,323.730
1678023471.267,-37.598,-41.992,-41.016,-19.043,20.996
1678023471.270,-21.973,-49.316,-39.062,-11.719,-39.551
1678023471.274,-6.348,-53.223,-35.645,5.371,158.203
1678023471.278,-13.184,-58.105,-37.598,8.789,45.410
1678023471.282,-13.184,-60.547,-37.598,3.418,-125.488
1678023471.286,1.465,-64.941,-33.203,4.395,-63.965
1678023471.289,14.648,-68.359,-31.250,10.742,-44.922
1678023471.293,17.090,-62.988,-27.344,23.438,-115.234
1678023471.297,9.277,-58.594,-22.461,31.738,-116.699
1678023471.301,3.418,-63.477,-20.996,32.715,-10.254
1678023471.305,7.812,-63.477,-21.484,29.785,22.461
1678023471.309,14.648,-59.082,-27.832,18.066,-7.812
1678023471.313,20.996,-61.523,-34.668,19.043,-12.207
1678023471.316,20.020,-70.312,-31.738,22.461,-26.367
1678023471.320,7.812,-69.336,-31.738,20.508,131.348
1678023471.324,8.301,-63.477,-36.621,17.578,-72.754
1678023471.328,13.672,-69.824,-37.598,23.926,-182.617
1678023471.332,17.090,-67.871,-40.039,28.809,-72.754
1678023471.333,15.137,-63.965,-38.574,28.320,-40.527
1678023471.337,7.812,-67.871,-41.504,20.508,-7.812
1678023471.341,15.625,-67.871,-43.945,17.578,-90.820
1678023471.345,25.879,-68.848,-38.574,20.020,18.066
1678023471.349,22.949,-66.895,-39.062,17.578,6.836
1678023471.353,19.531,-65.918,-40.039,22.461,-72.266
1678023471.357,13.672,-64.941,-42.480,20.508,-42.969
1678023471.360,15.137,-65.430,-40.039,25.879,168.457
1678023471.364,25.879,-59.570,-35.645,36.621,316.895
1678023471.368,22.949,-52.246,-38.086,25.879,-1.465
1678023471.372,19.531,-55.176,-37.109,20.020,-131.836
1678023471.376,19.043,-52.734,-33.203,21.973,-64.941
1678023471.379,18.555,-49.805,-32.227,17.578,-125.488
1678023471.383,25.391,-52.246,-33.203,16.113,-141.602
1678023471.387,31.250,-52.246,-32.715,23.926,-163.086
1678023471.391,24.414,-50.781,-31.250,24.414,-117.676
1678023471.395,4.883,-51.270,-33.203,10.742,-128.418
1678023471.399,-1.465,-53.223,-37.109,3.418,-157.227
1678023471.403,6.836,-48.340,-39.062,10.254,89.844
1678023471.406,13.672,-47.363,-41.504,18.066,297.852
1678023471.410,6.348,-52.734,-48.340,9.277,58.594
1678023471.414,-4.395,-53.223,-47.852,0.977,-139.648
1678023471.418,-9.277,-48.340,-44.922,-3.418,-54.688
1678023471.422,-0.977,-45.898,-43.457,-2.441,-62.988
1678023471.423,15.625,-44.922,-36.621,4.395,-161.621
1678023471.427,11.230,-43.457,-34.180,5.371,-70.801
1678023471.431,2.930,-41.992,-30.273,6.836,69.336
1678023471.435,-1.465,-42.480,-26.855,6.836,-42.480
1678023471.439,-5.859,-42.969,-31.250,-2.441,-196.289
1678023471.443,0.977,-41.504,-31.250,-0.977,-112.305
1678023471.447,2.930,-45.410,-27.344,9.766,190.918
1678023471.450,-14.160,-47.852,-31.250,7.812,293.457
1678023471.454,-25.391,-41.992,-32.715,-12.695,-103.516
1678023471.458,-20.020,-42.480,-27.832,-16.113,-181.641
1678023471.462,-9.277,-47.363,-30.273,-11.230,6.836
1678023471.466,-11.230,-44.922,-29.297,-12.695,-99.121
1678023471.468,-20.996,-40.527,-31.738,-10.742,-167.969
1678023471.472,-23.438,-43.945,-40.527,-12.695,-145.020
1678023471.476,-19.043,-41.016,-38.086,-13.184,-76.172
1678023471.480,-17.578,-40.527,-32.227,-17.090,-116.699
1678023471.484,-14.160,-41.992,-32.227,-17.090,-181.641
1678023471.488,-10.742,-43.945,-30.762,-12.695,-21.484
1678023471.492,-19.531,-45.410,-35.156,-17.578,135.742
1678023471.495,-26.367,-42.480,-42.480,-27.832,-8.789
1678023471.499,-18.066,-40.527,-41.504,-26.855,-137.695
1678023471.503,-5.859,-36.133,-33.691,-22.949,-122.070
1678023471.507,-14.160,-36.133,-32.715,-20.996,-82.031
1678023471.511,-36.133,-38.574,-39.551,-30.273,-150.879
1678023471.528,-39.551,-41.992,-40.039,-29.297,-230.469
1678023471.532,-30.273,-41.504,-33.691,-20.996,2.930
1678023471.536,-32.227,-37.598,-31.738,-25.391,125.977
1678023471.540,-38.574,-36.133,-35.645,-32.227,-143.066
1678023471.544,-43.457,-36.133,-38.086,-28.809,-206.055
1678023471.548,-40.039,-35.156,-40.039,-20.996,-2.930
1678023471.552,-35.156,-32.715,-37.598,-28.809,27.832
1678023471.555,-30.762,-29.297,-31.250,-37.598,-179.688
1678023471.559,-28.320,-31.738,-30.273,-33.691,-180.176
1678023471.563,-33.691,-34.180,-31.250,-23.926,145.508
1678023471.567,-42.969,-34.180,-35.156,-37.598,48.828
1678023471.571,-34.668,-31.738,-32.715,-41.504,-217.773
1678023471.573,-28.320,-37.109,-33.203,-30.273,-78.613
1678023471.577,-35.645,-39.551,-39.551,-35.645,-11.230
1678023471.581,-45.410,-31.738,-39.062,-41.016,-38.086
1678023471.585,-42.969,-30.273,-33.691,-39.062,-61.523
1678023471.589,-33.691,-32.715,-29.785,-36.621,-66.406
1678023471.593,-31.250,-34.180,-30.273,-36.133,96.191
1678023471.597,-35.156,-39.551,-34.180,-41.504,43.457
1678023471.600,-46.875,-43.945,-35.645,-45.410,-139.160
1678023471.604,-50.293,-41.992,-36.621,-43.457,-5.859
1678023471.608,-43.457,-38.574,-36.133,-35.645,176.270
1678023471.612,-41.992,-41.016,-38.086,-45.410,-99.609
1678023471.616,-37.109,-38.086,-36.133,-44.922,-222.656
1678023471.618,-41.992,-32.715,-36.621,-34.668,-112.305
1678023471.622,-47.852,-33.203,-36.621,-33.203,-33.203
1678023471.626,-41.992,-33.691,-36.621,-31.738,-112.305
1678023471.630,-33.691,-31.738,-35.156,-33.203,-160.645
1678023471.634,-30.762,-30.273,-32.715,-32.227,48.828
1678023471.638,-32.715,-26.855,-33.203,-31.738,89.355
1678023471.642,-39.062,-24.902,-39.062,-39.062,2.930
1678023471.645,-39.551,-28.320,-42.480,-44.434,-70.312
1678023471.649,-31.738,-32.715,-36.133,-33.203,108.887
1678023471.653,-32.227,-32.715,-32.715,-25.879,213.379
1678023471.657,-43.457,-37.598,-35.156,-34.668,-120.605
1678023471.661,-45.410,-39.551,-34.668,-33.691,-135.742
1678023471.663,-44.434,-36.621,-30.762,-31.738,-46.875
1678023471.667,-41.992,-34.668,-31.250,-33.691,-166.504
1678023471.671,-37.109,-32.715,-37.598,-27.344,-131.348
1678023471.675,-38.086,-35.156,-40.527,-30.762,-61.035
1678023471.679,-42.480,-39.062,-40.039,-42.969,-94.238
1678023471.683,-39.062,-39.062,-42.969,-46.875,52.246
1678023471.687,-38.086,-40.527,-42.480,-45.898,74.707
1678023471.690,-44.922,-43.457,-39.062,-37.109,51.270
1678023471.694,-40.039,-46.387,-36.133,-23.926,325.195
1678023471.698,-45.410,-43.457,-35.645,-28.809,130.371
1678023471.702,-48.340,-41.016,-32.715,-33.691,-136.719
1678023471.706,-34.668,-41.504,-29.785,-31.250,-97.656
1678023471.708,-28.320,-41.504,-31.738,-28.320,-73.730
1678023471.712,-32.715,-38.574,-32.715,-20.508,-57.617
1678023471.716,-41.016,-35.156,-30.273,-27.832,-136.230
1678023471.720,-40.039,-34.668,-28.809,-28.809,3.418
1678023471.724,-27.832,-30.273,-31.738,-27.832,75.195
1678023471.728,-24.902,-33.203,-33.691,-35.156,8.301
1678023471.732,-25.391,-33.691,-28.809,-23.926,85.938
1678023471.735,-31.250,-27.832,-23.926,-13.672,216.797
1678023471.739,-37.109,-33.203,-26.855,-20.508,203.125
1678023471.743,-27.832,-32.715,-26.367,-29.785,-60.547
1678023471.747,-16.602,-30.273,-23.438,-20.996,-34.180
1678023471.751,-19.043,-35.645,-22.461,-7.324,81.543
1678023471.753,-39.062,-35.645,-24.902,-18.555,-29.785
1678023471.757,-43.945,-37.598,-26.855,-24.414,-137.207
1678023471.761,-31.250,-32.715,-25.391,-14.648,-170.898
1678023471.765,-30.273,-27.344,-29.297,-17.090,-74.219
1678023471.769,-33.203,-29.785,-28.809,-25.391,-39.551
1678023471.773,-36.621,-30.762,-27.344,-22.461,-75.195
1678023471.777,-36.133,-27.832,-34.180,-20.508,63.477
1678023471.780,-20.996,-33.203,-29.785,-18.066,175.293
1678023471.784,-19.043,-35.645,-20.996,-21.484,-68.848
1678023471.788,-29.785,-26.855,-29.297,-23.438,-175.293
1678023471.792,-45.410,-31.738,-31.250,-30.273,-96.680
1678023471.796,-52.246,-36.621,-27.832,-36.133,-134.766
1678023471.799,-40.039,-32.715,-31.250,-31.738,-100.586
1678023471.803,-31.738,-31.738,-34.180,-28.809,-116.699
1678023471.807,-33.691,-33.691,-38.086,-27.832,-12.207
1678023471.811,-36.133,-31.250,-41.016,-27.832,146.973
1678023471.815,-41.016,-30.762,-34.668,-33.203,-48.828
1678023471.819,-41.016,-35.645,-32.227,-35.156,-34.180
1678023471.823,-30.273,-35.156,-35.156,-22.949,182.617
1678023471.826,-30.762,-35.156,-32.715,-23.926,35.645
1678023471.830,-38.574,-34.668,-34.668,-32.715,-262.695
1678023471.834,-48.340,-34.668,-38.086,-29.785,-227.051
1678023471.838,-52.246,-36.621,-39.062,-38.086,-98.145
1678023471.842,-45.410,-38.574,-38.086,-39.551,-104.492
1678023471.857,-39.062,-40.039,-38.086,-29.297,-140.625
1678023471.861,-39.062,-39.062,-42.969,-27.832,-119.629
1678023471.865,-44.922,-32.715,-40.527,-28.320,-76.172
1678023471.869,-46.875,-32.227,-33.203,-30.273,-116.211
1678023471.873,-37.109,-35.645,-28.809,-28.320,-193.848
1678023471.877,-31.738,-35.645,-33.203,-21.484,12.207
1678023471.881,-32.227,-33.203,-36.133,-14.648,374.023
1678023471.884,-48.828,-32.227,-38.086,-24.414,118.164
1678023471.888,-56.152,-31.738,-38.574,-34.668,-185.059
1678023471.892,-46.875,-32.715,-35.645,-33.691,-110.352
1678023471.896,-42.480,-35.156,-36.621,-30.762,-68.848
1678023471.900,-44.922,-36.133,-41.016,-29.297,-138.184
1678023471.918,-56.152,-36.621,-36.621,-29.785,-143.555
1678023471.922,-53.223,-37.598,-36.621,-24.414,85.449
1678023471.926,-42.969,-32.227,-39.551,-19.043,104.492
1678023471.930,-41.504,-26.367,-33.691,-21.973,-93.262
1678023471.934,-34.180,-23.438,-27.832,-20.996,-138.184
1678023471.938,-37.598,-26.367,-28.809,-9.277,77.148
1678023471.942,-43.457,-28.320,-31.250,-12.695,85.938
1678023471.945,-32.715,-26.855,-30.762,-29.297,-21.484
1678023471.949,-28.320,-25.879,-28.809,-16.602,-60.547
1678023471.953,-25.879,-27.344,-26.855,-4.883,141.113
1678023471.957,-39.062,-32.715,-29.785,-32.227,119.141
1678023471.961,-53.223,-34.180,-28.320,-44.434,-148.926
1678023471.947,-43.945,-28.809,-24.902,-33.203,-108.398
1678023471.951,-32.715,-26.367,-23.438,-27.832,-33.203
1678023471.955,-20.996,-23.438,-27.344,-35.156,-117.188
1678023471.959,-17.090,-20.020,-29.785,-37.598,-212.891
1678023471.963,-36.621,-21.484,-28.809,-35.645,-108.398
1678023471.967,-40.039,-23.438,-32.715,-36.621,53.711
1678023471.971,-27.344,-26.367,-34.180,-29.785,-48.340
1678023471.974,-23.438,-28.320,-31.250,-28.320,-112.793
1678023471.978,-26.367,-28.320,-32.715,-35.645,-32.715
1678023471.982,-29.297,-25.879,-34.180,-29.785,-11.719
1678023471.986,-30.762,-26.855,-31.250,-27.832,-107.910
1678023471.990,-28.320,-31.738,-27.832,-34.668,-185.547
1678023471.993,-21.973,-33.691,-29.297,-31.250,3.418
1678023471.997,-23.438,-32.227,-33.691,-22.461,421.875
1678023472.001,-38.574,-31.738,-35.645,-32.227,233.887
1678023472.005,-43.945,-30.762,-39.551,-45.410,-161.133
1678023472.009,-35.156,-32.227,-39.062,-37.109,-94.727
1678023472.013,-21.973,-28.809,-29.785,-31.738,-20.996
1678023472.017,-20.508,-25.879,-29.785,-29.785,1.953
1678023472.020,-35.156,-33.203,-31.250,-30.762,-62.012
1678023472.024,-38.086,-37.598,-29.297,-25.879,66.895
1678023472.028,-30.762,-33.203,-29.297,-27.832,129.883
1678023472.032,-27.344,-32.227,-29.785,-31.250,-158.691
1678023472.036,-30.273,-34.180,-28.809,-25.879,-155.273
1678023472.038,-44.922,-30.762,-28.320,-30.762,4.395
1678023472.042,-45.898,-33.203,-31.250,-43.457,-93.262
1678023472.046,-35.156,-40.527,-36.621,-51.758,-223.145
1678023472.050,-35.156,-37.109,-37.598,-46.875,-157.227
1678023472.054,-31.738,-33.691,-35.156,-41.504,-64.941
1678023472.058,-34.668,-35.156,-38.574,-41.992,-19.531
1678023472.062,-48.340,-34.180,-43.945,-43.457,-100.586
1678023472.065,-39.062,-31.738,-41.016,-40.039,-49.316
1678023472.069,-20.508,-28.320,-36.133,-24.902,179.199
1678023472.073,-20.508,-22.949,-35.645,-36.133,8.301
1678023472.077,-30.762,-24.414,-36.133,-44.922,-138.184
1678023472.081,-34.180,-28.320,-34.668,-34.668,-87.402
1678023472.083,-24.902,-24.414,-39.062,-33.203,-58.105
1678023472.087,-22.461,-20.996,-38.086,-32.715,-21.973
1678023472.091,-32.715,-28.809,-34.668,-36.133,-110.840
1678023472.095,-37.109,-30.762,-41.016,-37.109,22.461
1678023472.099,-43.457,-26.367,-41.504,-40.039,158.691
1678023472.103,-38.574,-30.273,-36.621,-45.898,1.465
1678023472.107,-20.020,-25.391,-32.227,-38.574,-48.828
1678023472.110,-21.973,-28.320,-37.598,-27.832,190.430
1678023472.114,-50.293,-37.598,-42.480,-39.551,187.988
1678023472.118,-44.922,-14.160,-10.742,-39.551,-176.270
1678023472.122,-24.414,-13.184,-13.184,-34.180,-218.262
1678023472.126,-38.574,-30.762,-35.645,-54.688,-133.789
1678023472.129,-55.664,-15.625,-29.297,-65.430,-188.965
1678023472.133,-77.148,11.230,-24.902,-81.543,-240.234
1678023472.137,-109.375,21.484,-21.973,-110.840,-58.594
1678023472.141,-125.488,28.809,-26.367,-116.211,-4.883
1678023472.145,-147.949,46.387,-24.902,-142.578,-179.199
1678023472.149,-176.758,57.617,-20.996,-178.711,-129.883
1678023472.153,-202.148,56.641,-18.555,-197.754,82.031
1678023472.156,-217.773,61.523,-9.766,-205.566,205.078
1678023472.160,-228.516,64.453,-12.207,-227.539,-28.809
1678023472.164,-234.375,64.941,-12.207,-252.441,-193.359
1678023472.168,-224.121,64.941,-16.113,-242.676,-125.488
1678023472.172,-217.285,69.824,-16.113,-233.398,-76.172
1678023472.174,-225.586,66.406,-7.324,-236.816,-162.598
1678023472.178,-230.469,53.223,-6.836,-233.398,-181.641
1678023472.182,-207.520,58.105,-10.742,-216.309,-31.738
1678023472.186,-210.449,56.641,-21.973,-220.703,-7.324
1678023472.190,-218.262,44.434,-25.879,-224.121,-80.566
1678023472.194,-211.914,40.527,-25.391,-210.938,-109.863
1678023472.198,-203.125,41.992,-20.996,-195.801,118.652
1678023472.201,-195.801,41.016,-20.020,-188.477,295.410
1678023472.205,-185.059,42.480,-28.809,-193.359,-31.250
1678023472.209,-167.969,43.945,-32.715,-185.059,-139.648
1678023472.213,-176.758,36.133,-32.227,-176.758,-69.824
1678023472.217,-183.594,31.250,-29.785,-170.410,-136.719
1678023472.217,-163.574,25.391,-32.715,-169.434,-146.973
1678023472.221,-138.184,21.484,-31.738,-162.109,-84.473
1678023472.225,-125.488,19.043,-26.367,-141.113,-62.988
1678023472.229,-118.652,14.160,-33.203,-119.141,-171.387
1678023472.233,-101.562,6.836,-37.598,-115.723,-210.938
1678023472.237,-78.125,-4.883,-37.109,-99.121,24.414
1678023472.241,-59.570,-15.625,-40.527,-69.824,158.203
1678023472.244,-47.852,-22.461,-45.410,-62.988,20.996
1678023472.248,-29.297,-28.320,-47.852,-44.922,-71.289
1678023472.252,-12.695,-43.457,-46.387,-21.484,-29.785
1678023472.256,1.953,-55.664,-48.340,-14.160,93.262
1678023472.260,24.414,-55.176,-52.246,-3.418,-50.781
1678023472.278,32.227,-62.988,-49.316,7.812,-96.680
1678023472.282,29.785,-76.660,-46.387,19.531,107.422
1678023472.286,25.879,-78.613,-46.875,28.809,73.242
1678023472.290,24.902,-82.031,-48.340,29.297,-97.656
1678023472.294,34.668,-83.984,-45.898,33.691,-75.195
1678023472.298,41.992,-83.496,-39.062,42.480,157.715
1678023472.302,40.039,-86.426,-39.551,47.363,171.387
1678023472.305,37.109,-86.914,-43.457,44.434,-126.465
1678023472.309,44.434,-85.449,-42.969,44.922,-157.715
1678023472.313,59.570,-85.938,-40.527,60.547,238.281
1678023472.317,59.570,-88.379,-40.527,67.871,218.262
1678023472.321,53.223,-84.473,-40.527,62.988,-97.656
1678023472.323,43.945,-83.496,-42.480,57.129,-121.094
1678023472.327,48.828,-83.496,-47.363,50.781,-77.637
1678023472.331,67.871,-78.125,-44.434,55.176,-72.266
1678023472.335,68.848,-78.125,-37.598,62.012,-101.562
1678023472.339,62.988,-73.730,-33.691,62.012,-76.172
1678023472.343,55.664,-67.383,-33.691,56.152,95.703
1678023472.347,51.270,-66.895,-37.109,49.805,18.555
1678023472.350,52.734,-70.801,-36.133,46.387,-179.688
1678023472.354,48.340,-76.660,-34.668,55.176,-33.691
1678023472.358,44.434,-76.172,-34.668,65.430,247.559
1678023472.362,33.691,-72.754,-35.645,52.246,-10.742
1678023472.366,25.391,-69.336,-37.598,45.410,-124.023
1678023472.368,31.738,-65.430,-33.203,53.223,24.902
1678023472.372,43.945,-62.012,-25.391,53.711,62.012
1678023472.376,38.574,-63.477,-30.273,40.039,-30.762
1678023472.380,21.484,-63.965,-36.621,34.668,-115.234
1678023472.384,20.020,-62.012,-30.762,36.621,49.805
1678023472.388,25.391,-62.012,-31.738,33.203,104.004
1678023472.392,26.855,-58.594,-36.621,31.250,-122.559
1678023472.395,25.879,-58.105,-32.715,35.156,-194.336
1678023472.399,16.602,-62.988,-28.809,42.480,45.410
1678023472.403,10.254,-61.035,-28.809,41.504,143.555
1678023472.407,17.578,-55.664,-30.273,31.738,-75.684
1678023472.411,21.973,-55.176,-29.297,32.715,-125.977
1678023472.414,21.973,-55.176,-30.273,34.180,-91.797
1678023472.418,20.508,-52.246,-30.762,34.668,-104.492
1678023472.422,18.555,-50.781,-27.832,32.715,-122.559
1678023472.426,22.949,-51.758,-25.879,31.250,-72.266
1678023472.430,30.762,-51.270,-21.973,29.297,36.133
1678023472.434,26.367,-55.176,-20.996,27.344,-3.418
1678023472.438,15.625,-54.199,-23.926,25.391,-60.059
1678023472.441,12.695,-49.805,-25.391,22.461,-16.113
1678023472.445,15.137,-52.734,-26.367,20.996,126.953
1678023472.449,13.672,-52.246,-28.809,15.625,-70.801
1678023472.453,10.742,-50.293,-30.273,13.184,-157.715
1678023472.457,0.488,-51.270,-30.762,9.766,-53.711
1678023472.457,-7.324,-51.758,-30.762,3.418,-38.086
1678023472.461,-3.906,-51.758,-33.203,-0.977,-62.988
1678023472.465,0.977,-49.316,-33.203,-2.441,-144.043
1678023472.469,2.441,-46.387,-30.273,6.836,-15.137
1678023472.473,-7.324,-47.852,-31.250,1.465,137.207
1678023472.477,-11.719,-42.969,-34.180,-10.254,41.504
1678023472.481,-7.812,-40.039,-34.668,-11.230,-15.137
1678023472.484,-1.465,-40.527,-33.203,-6.836,128.906
1678023472.488,3.906,-32.715,-32.715,-1.465,197.266
1678023472.492,-5.859,-34.180,-37.109,-10.742,-80.566
1678023472.496,-14.160,-41.992,-38.086,-18.555,-189.941
1678023472.500,-13.184,-38.574,-32.227,-22.461,-140.137
1678023472.503,-8.301,-36.133,-29.785,-17.090,-125.488
1678023472.507,-5.371,-41.016,-33.203,-9.766,-126.465
1678023472.511,-12.207,-45.898,-40.039,-20.996,-108.398
1678023472.515,-20.508,-42.480,-41.504,-24.414,-89.844
1678023472.519,-18.066,-38.574,-33.691,-19.043,-94.238
1678023472.523,-16.113,-42.480,-31.738,-21.973,-120.117
1678023472.527,-15.625,-42.969,-35.156,-21.973,104.492
1678023472.530,-20.020,-43.457,-34.180,-10.254,422.852
1678023472.534,-32.227,-40.527,-35.156,-17.578,107.910
1678023472.538,-33.203,-41.504,-35.156,-29.297,-199.707
1678023472.542,-25.391,-41.504,-32.715,-20.020,-118.164
1678023472.546,-21.973,-40.039,-34.668,-20.508,-99.121
1678023472.548,-23.438,-42.480,-33.691,-28.809,-91.797
1678023472.552,-36.133,-38.086,-31.250,-29.297,-88.379
1678023472.556,-42.480,-34.180,-29.297,-32.715,-18.066
1678023472.560,-37.598,-37.598,-31.250,-30.273,11.719
1678023472.564,-29.785,-40.527,-33.691,-30.762,-67.383
1678023472.568,-22.461,-34.668,-29.297,-30.273,-35.645
1678023472.572,-28.320,-34.180,-29.785,-20.996,238.770
1678023472.575,-38.086,-38.574,-32.715,-21.973,198.242
1678023472.579,-33.691,-40.527,-32.227,-25.391,-115.723
1678023472.583,-30.273,-36.133,-31.738,-33.203,-110.352
1678023472.587,-30.762,-32.227,-31.250,-31.250,6.836
1678023472.591,-37.109,-36.621,-31.738,-28.320,-82.520
1678023472.593,-40.527,-37.109,-35.645,-32.715,-180.176
1678023472.597,-36.133,-37.109,-35.156,-32.227,-145.508
1678023472.601,-34.668,-37.598,-36.621,-31.250,-85.449
1678023472.605,-26.367,-33.203,-37.109,-29.785,-91.797
1678023472.609,-24.414,-36.133,-36.621,-23.926,-164.551
1678023472.613,-39.062,-41.016,-32.227,-21.484,-17.090
1678023472.617,-38.574,-35.156,-31.738,-31.738,191.406
1678023472.620,-36.621,-30.273,-34.180,-44.922,-41.504
1678023472.624,-41.992,-31.738,-33.691,-44.922,-172.852
1678023472.628,-42.969,-28.320,-32.715,-36.621,-55.664
1678023472.632,-46.387,-26.855,-30.273,-30.273,-17.578
1678023472.636,-39.062,-27.344,-32.227,-25.879,-100.586
1678023472.653,-31.738,-29.785,-31.250,-21.973,-160.645
1678023472.657,-32.227,-39.062,-29.785,-21.484,124.023
1678023472.661,-40.527,-38.574,-36.621,-25.391,297.363
1678023472.665,-50.293,-30.273,-38.086,-37.109,-63.477
1678023472.669,-47.852,-30.273,-28.320,-35.156,-143.066
1678023472.673,-37.598,-31.738,-25.391,-29.297,28.809
1678023472.677,-31.250,-29.297,-29.785,-34.180,-7.812
1678023472.680,-35.645,-30.762,-31.738,-36.621,-131.348
1678023472.684,-40.527,-33.203,-33.203,-28.809,-106.934
1678023472.688,-40.039,-36.133,-33.203,-24.414,74.707
1678023472.692,-36.133,-36.133,-30.762,-26.855,-84.961
1678023472.696,-32.715,-37.598,-32.715,-29.297,-248.047
1678023472.686,-34.180,-39.551,-36.133,-28.809,-153.320
1678023472.690,-41.504,-38.574,-36.133,-30.273,-51.270
1678023472.694,-38.086,-36.621,-37.109,-39.551,-68.359
1678023472.698,-28.809,-33.691,-35.645,-37.598,-147.461
1678023472.702,-22.461,-30.273,-28.809,-19.531,-53.223
1678023472.706,-26.855,-29.785,-28.320,-20.996,83.984
1678023472.710,-39.551,-31.250,-33.203,-38.086,20.508
1678023472.713,-41.504,-35.645,-34.180,-36.133,-126.465
1678023472.717,-37.109,-37.598,-34.180,-25.391,-65.918
1678023472.721,-32.227,-38.086,-34.668,-20.020,265.625
1678023472.725,-35.156,-37.109,-41.504,-27.344,91.797
1678023472.729,-39.062,-34.180,-41.504,-26.367,-107.910
1678023472.743,-34.668,-38.574,-35.645,-26.367,32.715
1678023472.747,-31.250,-42.969,-37.109,-33.691,31.250
1678023472.751,-26.855,-37.598,-36.621,-35.645,-96.191
1678023472.755,-26.855,-37.109,-30.273,-33.203,-49.316
1678023472.759,-39.551,-41.016,-28.320,-32.227,106.445
1678023472.763,-47.852,-38.086,-32.227,-32.227,235.840
1678023472.767,-41.504,-34.668,-33.203,-42.969,13.184
1678023472.770,-30.273,-31.250,-32.715,-51.270,-125.000
1678023472.774,-28.809,-30.762,-32.227,-46.387,86.426
1678023472.778,-33.691,-29.785,-30.273,-44.434,37.109
1678023472.782,-35.645,-27.832,-31.738,-48.340,-155.762
1678023472.786,-34.668,-29.785,-28.809,-45.898,-169.434
1678023472.788,-32.715,-33.691,-22.461,-41.504,-113.281
1678023472.792,-29.297,-29.297,-24.414,-42.969,-122.559
1678023472.796,-34.180,-29.785,-28.809,-43.945,-137.207
1678023472.800,-44.434,-33.203,-29.785,-49.316,-137.695
1678023472.804,-46.387,-34.180,-31.738,-52.246,-131.348
1678023472.808,-35.156,-38.574,-34.668,-43.945,-17.090
1678023472.812,-31.738,-40.039,-36.621,-44.434,24.414
1678023472.815,-32.227,-37.109,-36.133,-43.457,20.020
1678023472.819,-36.621,-38.086,-34.668,-31.738,221.680
1678023472.823,-45.410,-38.574,-36.133,-31.738,96.680
1678023472.827,-42.480,-39.551,-36.133,-33.203,-146.484
1678023472.831,-34.668,-41.504,-30.762,-30.273,-53.223
1678023472.833,-30.762,-41.016,-29.297,-31.250,-50.781
1678023472.837,-36.621,-38.086,-33.691,-29.785,-70.801
1678023472.841,-43.457,-41.504,-30.762,-28.809,-104.980
1678023472.845,-36.621,-43.945,-34.668,-21.973,-50.293
1678023472.849,-30.762,-37.598,-41.992,-26.855,-47.363
1678023472.853,-28.809,-36.133,-40.527,-31.250,-113.770
1678023472.857,-29.297,-35.156,-35.156,-26.855,-28.320
1678023472.860,-28.809,-34.180,-32.715,-23.438,153.809
1678023472.864,-28.320,-34.180,-33.691,-16.602,240.723
1678023472.868,-28.809,-34.180,-29.785,-24.902,-90.332
1678023472.872,-30.273,-31.738,-24.414,-34.180,-148.438
1678023472.876,-41.992,-29.785,-22.949,-29.785,-54.688
1678023472.878,-46.387,-29.297,-29.297,-29.297,-139.160
1678023472.882,-41.016,-26.367,-28.320,-34.180,-196.777
1678023472.886,-35.156,-27.832,-24.902,-31.738,-225.098
1678023472.890,-34.668,-29.785,-34.180,-33.203,-187.988
1678023472.894,-39.062,-26.855,-36.621,-34.668,-168.457
1678023472.898,-48.340,-30.273,-36.133,-38.574,-112.305
1678023472.902,-44.434,-35.156,-33.691,-35.156,32.227
1678023472.905,-31.250,-34.180,-31.250,-30.273,259.277
1678023472.909,-38.086,-28.809,-35.156,-41.992,61.035
1678023472.913,-48.340,-25.879,-36.621,-42.969,-190.430
1678023472.917,-45.410,-28.320,-32.715,-45.410,-74.219
1678023472.921,-41.016,-33.691,-35.645,-53.223,-83.496
1678023472.923,-33.203,-28.320,-34.668,-44.922,-151.367
1678023472.927,-29.785,-27.344,-31.250,-41.016,-59.082
1678023472.931,-40.039,-30.762,-31.738,-40.039,0.977
1678023472.935,-42.969,-27.832,-32.227,-37.109,39.551
1678023472.939,-39.062,-26.855,-33.203,-41.992,-83.008
1678023472.943,-35.156,-29.785,-30.273,-38.574,-76.660
1678023472.947,-33.203,-32.715,-25.391,-21.973,229.004
1678023472.950,-41.992,-32.715,-25.879,-24.414,215.332
1678023472.954,-51.270,-31.738,-27.344,-42.969,-145.020
1678023472.958,-51.270,-32.715,-28.320,-47.363,-153.320
1678023472.962,-46.387,-35.645,-29.785,-42.480,-67.871
1678023472.966,-42.969,-37.109,-30.273,-38.086,-70.312
1678023472.969,-42.969,-38.086,-28.809,-33.691,-113.281
1678023472.973,-44.922,-37.109,-28.809,-35.645,-84.961
1678023472.977,-44.434,-35.156,-29.297,-32.227,9.277
1678023472.981,-41.016,-35.156,-28.320,-34.668,-111.328
1678023472.985,-41.504,-32.227,-26.855,-36.133,-190.918
1678023472.989,-38.574,-28.320,-28.809,-28.320,-69.336
1678023472.993,-45.410,-31.250,-33.691,-29.785,32.227
1678023472.996,-52.246,-31.738,-32.715,-42.969,-30.273
1678023473.000,-41.504,-26.367,-25.391,-38.086,-89.844
1678023473.004,-31.738,-23.438,-25.391,-25.879,-54.688
1678023473.008,-46.387,-27.832,-31.738,-36.621,55.176
1678023473.012,-53.711,-31.738,-22.461,-47.363,-59.082
1678023473.028,-42.969,-23.926,-20.020,-42.969,-201.660
1678023473.032,-40.527,-17.090,-31.250,-42.969,11.230
1678023473.036,-44.922,-15.625,-27.344,-55.664,103.516
1678023473.040,-55.176,-12.695,-24.414,-65.430,-31.738
1678023473.044,-79.102,-4.883,-29.297,-78.613,-107.910
1678023473.048,-94.727,9.766,-34.180,-93.750,95.215
1678023473.052,-108.398,29.785,-31.250,-116.699,237.793
1678023473.055,-137.207,48.828,-33.203,-156.250,-50.293
1678023473.059,-166.504,67.383,-30.273,-185.059,-101.562
1678023473.063,-187.500,72.754,-21.484,-193.359,82.520
1678023473.067,-203.125,70.312,-18.555,-211.426,-68.848
1678023473.071,-210.938,73.242,-20.020,-223.633,-219.238
1678023473.073,-214.355,69.336,-22.949,-219.238,-167.480
1678023473.077,-210.449,66.406,-19.531,-211.914,-145.020
1678023473.081,-216.309,61.523,-16.602,-213.867,-145.508
1678023473.085,-217.773,54.688,-16.602,-213.867,-198.730
1678023473.089,-204.102,51.270,-21.484,-202.637,-148.926
1678023473.093,-185.547,47.363,-25.391,-188.477,-44.922
1678023473.097,-173.828,45.898,-27.344,-180.176,-54.199
1678023473.100,-177.246,40.039,-33.691,-179.688,-64.941
1678023473.104,-167.480,35.645,-35.156,-166.504,15.625
1678023473.108,-143.066,31.738,-38.574,-143.066,245.605
1678023473.112,-129.883,20.996,-45.898,-137.207,90.332
1678023473.116,-117.188,7.812,-43.457,-124.023,-130.371
1678023473.118,-107.910,-0.488,-41.016,-109.863,-24.902
1678023473.122,-97.656,-8.789,-43.457,-107.910,19.043
1678023473.126,-76.172,-23.926,-47.852,-90.332,-151.367
1678023473.130,-58.105,-32.227,-46.387,-71.289,-183.594
1678023473.134,-50.293,-41.504,-41.504,-50.293,68.848
1678023473.138,-52.734,-45.410,-42.969,-39.062,131.836
1678023473.142,-50.781,-39.062,-46.387,-48.828,-4.395
1678023473.145,-38.086,-41.504,-45.410,-44.434,3.418
1678023473.149,-22.949,-46.875,-40.527,-21.973,220.703
1678023473.153,-20.508,-51.758,-40.527,-14.160,270.020
1678023473.157,-20.508,-50.781,-41.504,-21.484,-49.316
1678023473.161,-21.973,-55.664,-40.039,-20.508,-138.184
1678023473.163,-15.137,-62.012,-41.504,-11.230,-76.660
1678023473.167,-2.930,-64.941,-42.480,-4.883,-133.789
1678023473.171,5.371,-69.336,-39.062,3.906,-156.250
1678023473.175,9.277,-72.266,-39.062,15.137,-83.984
1678023473.179,1.953,-74.219,-39.062,18.066,-88.867
1678023473.183,3.906,-76.172,-36.621,17.090,-86.426
1678023473.187,19.043,-69.336,-36.621,25.879,-52.246
1678023473.190,31.250,-67.383,-35.645,39.551,11.230
1678023473.194,35.156,-69.824,-32.715,46.387,188.477
1678023473.198,28.809,-65.918,-34.180,41.016,16.113
1678023473.202,32.227,-62.500,-31.738,42.969,-138.672
1678023473.206,31.250,-64.941,-31.250,46.875,-80.078
1678023473.208,24.414,-65.430,-36.621,45.898,-17.090
1678023473.212,30.273,-61.523,-46.387,42.480,0.000
1678023473.216,26.367,-62.012,-43.457,41.504,-95.703
1678023473.220,26.367,-64.941,-35.156,46.387,-40.039
1678023473.224,33.691,-62.988,-34.668,42.969,-25.879
1678023473.228,37.598,-59.082,-38.574,41.016,-75.195
1678023473.232,36.133,-58.105,-35.645,47.852,-5.859
1678023473.235,31.250,-56.641,-31.250,54.199,107.422
1678023473.239,26.855,-55.176,-32.227,46.875,32.227
1678023473.243,27.832,-49.805,-29.785,36.133,-176.270
1678023473.247,30.273,-52.734,-27.344,39.062,-162.109
1678023473.251,29.785,-57.617,-27.832,39.551,-105.957
1678023473.253,21.973,-59.570,-29.785,30.762,-87.402
1678023473.257,7.812,-59.570,-32.715,20.508,-125.488
1678023473.261,8.789,-62.988,-34.668,19.531,-100.586
1678023473.265,19.531,-59.570,-32.715,26.855,-9.766
1678023473.269,20.508,-54.199,-27.344,26.855,-20.996
1678023473.273,12.207,-57.617,-24.414,21.484,-23.926
1678023473.277,11.719,-55.664,-22.461,19.043,52.246
1678023473.280,14.160,-50.293,-24.414,20.508,227.051
1678023473.284,10.742,-51.270,-29.785,15.137,62.500
1678023473.288,13.672,-49.805,-32.715,16.113,-100.586
1678023473.292,12.695,-47.363,-32.715,11.230,-20.508
1678023473.296,0.977,-52.246,-34.180,5.859,-93.262
1678023473.299,-1.953,-52.246,-31.738,3.906,-178.711
1678023473.303,2.441,-53.223,-36.133,-7.324,-51.758
1678023473.307,10.254,-51.270,-39.551,4.883,107.422
1678023473.311,2.930,-47.852,-39.062,4.395,81.543
1678023473.315,-20.508,-52.734,-38.086,-16.113,-180.664
1678023473.319,-18.555,-49.805,-35.156,-20.508,-198.730
1678023473.323,-10.742,-47.852,-39.551,-12.207,132.324
1678023473.326,-8.789,-50.293,-44.434,-3.906,179.688
1678023473.330,-13.184,-47.363,-43.457,-10.254,-137.207
1678023473.334,-26.367,-47.852,-42.480,-16.113,-175.293
1678023473.338,-28.320,-48.828,-40.039,-19.043,-116.699
1678023473.342,-23.438,-49.316,-37.598,-17.578,-153.809
1678023473.343,-21.484,-45.898,-39.551,-17.578,-172.363
1678023473.347,-22.461,-39.551,-40.039,-17.090,-142.578
1678023473.351,-22.949,-38.086,-34.668,-16.602,-130.859
1678023473.355,-20.020,-39.551,-34.180,-14.160,-115.723
1678023473.359,-13.184,-40.039,-34.668,-14.160,-130.371
1678023473.363,-7.812,-42.480,-31.250,-12.695,-26.367
1678023473.367,-14.648,-45.410,-29.297,-6.836,297.363
1678023473.370,-25.391,-39.062,-25.879,-5.859,155.273
1678023473.374,-27.832,-39.062,-26.855,-8.789,-155.273
1678023473.378,-23.926,-43.457,-30.273,-14.648,-68.359
1678023473.382,-16.602,-40.527,-35.645,-15.137,57.617
1678023473.386,-17.578,-41.016,-38.574,-22.461,-112.793
1678023473.403,-30.273,-46.387,-41.016,-24.902,-181.641
1678023473.407,-31.738,-44.434,-43.457,-19.531,54.199
1678023473.411,-29.785,-43.945,-44.434,-26.367,147.949
1678023473.415,-29.297,-38.574,-42.969,-28.320,-100.098
1678023473.419,-24.414,-34.180,-35.645,-17.578,-92.773
1678023473.423,-27.344,-37.598,-34.668,-20.020,78.125
1678023473.427,-30.762,-36.133,-33.691,-29.785,13.672
1678023473.430,-28.809,-36.621,-33.203,-32.227,-50.781
1678023473.434,-25.879,-43.457,-36.621,-30.273,-103.516
1678023473.438,-20.020,-43.457,-32.227,-17.090,126.465
1678023473.442,-28.809,-37.598,-34.668,-17.090,175.293
1678023473.446,-34.180,-28.809,-39.062,-30.273,-150.879
1678023473.448,-24.414,-29.297,-36.621,-34.180,-165.039
1678023473.452,-17.090,-33.691,-38.574,-34.668,-82.031
1678023473.456,-5.859,-23.926,-42.969,-28.320,-130.371
1678023473.460,-12.695,-27.832,-38.086,-20.996,-81.055
1678023473.464,-33.691,-35.156,-23.926,-24.414,-73.730
1678023473.468,-38.574,-32.227,-20.508,-34.668,-44.922
1678023473.472,-31.738,-38.574,-29.785,-33.691,36.621
1678023473.475,-26.855,-35.645,-32.715,-31.250,-99.121
1678023473.479,-27.832,-30.762,-30.273,-20.508,-101.562
1678023473.483,-33.691,-33.691,-30.762,-11.230,264.160
1678023473.487,-38.574,-36.621,-32.227,-26.367,158.203
1678023473.491,-34.668,-35.645,-33.203,-37.598,-137.207
1678023473.493,-29.297,-30.273,-31.250,-26.855,-20.508
1678023473.497,-29.785,-30.762,-32.227,-24.902,14.648
1678023473.501,-40.527,-36.621,-33.203,-29.785,-131.348
1678023473.505,-38.086,-39.551,-33.691,-31.738,-147.461
1678023473.509,-23.438,-38.086,-31.250,-27.344,7.812
1678023473.513,-24.902,-37.598,-26.367,-25.879,160.645
1678023473.517,-33.203,-37.109,-29.297,-39.062,53.223
1678023473.520,-42.480,-39.551,-34.180,-47.363,-93.262
1678023473.524,-39.062,-38.086,-32.715,-36.621,83.008
1678023473.528,-35.645,-33.691,-37.598,-36.621,65.430
1678023473.532,-31.738,-34.668,-38.574,-39.551,-193.359
1678023473.536,-20.508,-29.297,-33.691,-29.785,-177.734
1678023473.538,-30.762,-31.250,-36.621,-35.645,-35.645
1678023473.542,-37.109,-29.785,-35.645,-39.062,-75.684
1678023473.546,-33.203,-33.691,-34.180,-38.574,-173.340
1678023473.550,-31.738,-39.062,-38.574,-37.109,-120.117
1678023473.554,-33.691,-36.621,-39.062,-30.273,-65.430
1678023473.558,-43.945,-41.016,-36.621,-39.551,-28.809
1678023473.562,-43.945,-38.086,-35.156,-52.734,-69.336
1678023473.565,-37.109,-36.133,-35.156,-52.734,-41.016
1678023473.569,-33.203,-40.527,-31.738,-36.133,183.594
1678023473.573,-36.133,-39.551,-32.227,-37.109,23.438
1678023473.577,-46.875,-40.039,-36.621,-47.852,-156.250
1678023473.581,-48.828,-39.062,-39.062,-43.457,-99.609
1678023473.584,-43.457,-39.551,-37.109,-41.992,-143.066
1678023473.588,-38.574,-41.016,-33.691,-41.504,-157.227
1678023473.592,-33.203,-38.574,-32.227,-35.156,-103.027
1678023473.596,-33.203,-37.109,-28.809,-25.879,101.074
1678023473.600,-34.180,-36.133,-26.855,-24.414,243.164
1678023473.604,-33.691,-35.156,-29.785,-33.691,74.219
1678023473.608,-32.227,-35.645,-37.598,-31.250,-17.090
1678023473.611,-31.250,-41.504,-41.016,-26.855,176.758
1678023473.615,-36.133,-42.969,-40.527,-39.551,170.898
1678023473.619,-37.598,-38.574,-42.480,-51.758,-113.281
1678023473.623,-31.250,-42.969,-43.457,-43.457,-178.223
1678023473.627,-28.320,-43.457,-41.504,-37.598,-131.348
1678023473.628,-31.738,-43.945,-41.992,-35.645,-94.727
1678023473.632,-37.109,-45.410,-41.016,-39.062,-101.562
1678023473.636,-44.434,-42.480,-40.527,-42.969,-90.820
1678023473.640,-43.457,-40.039,-37.598,-37.109,-83.008
1678023473.644,-32.715,-35.156,-38.086,-32.715,-117.188
1678023473.648,-28.320,-30.762,-35.156,-35.645,-88.867
1678023473.652,-33.203,-33.203,-30.762,-32.715,84.473
1678023473.655,-36.621,-35.645,-34.180,-26.367,342.773
1678023473.659,-40.039,-35.156,-38.574,-39.062,90.820
1678023473.663,-37.109,-32.227,-35.645,-43.945,-158.691
1678023473.667,-27.832,-29.297,-34.180,-30.762,-54.199
1678023473.671,-28.320,-28.320,-36.621,-28.320,-68.359
1678023473.673,-36.133,-25.391,-37.598,-28.809,-66.895
1678023473.677,-35.156,-25.391,-36.621,-30.762,62.500
1678023473.681,-24.902,-27.344,-31.250,-23.438,90.820
1678023473.685,-22.949,-27.832,-33.691,-18.066,36.621
1678023473.689,-26.855,-30.762,-40.039,-23.926,-78.125
1678023473.693,-32.227,-34.668,-34.180,-25.391,-81.543
1678023473.697,-33.691,-36.621,-32.715,-24.414,103.516
1678023473.700,-32.227,-35.156,-33.203,-27.832,164.551
1678023473.704,-29.785,-32.227,-33.691,-32.715,-51.758
1678023473.708,-32.227,-33.203,-38.086,-36.133,-114.746
1678023473.712,-41.992,-35.156,-37.598,-41.504,13.672
1678023473.716,-47.363,-31.250,-35.645,-49.805,-119.141
1678023473.718,-41.016,-29.785,-33.691,-46.387,-209.473
1678023473.722,-35.156,-32.715,-31.738,-44.922,-138.672
1678023473.726,-39.062,-35.645,-35.645,-52.246,-70.312
1678023473.730,-50.781,-35.156,-38.086,-56.152,-63.477
1678023473.734,-48.828,-30.273,-34.668,-44.922,-102.539
1678023473.738,-42.969,-31.250,-31.738,-34.180,39.062
1678023473.742,-40.527,-32.227,-34.668,-30.273,134.766
1678023473.745,-36.133,-32.227,-36.133,-28.809,-91.309
1678023473.749,-41.504,-33.203,-35.156,-28.809,-220.703
1678023473.753,-50.293,-38.086,-37.598,-32.227,-97.656
1678023473.757,-54.199,-44.434,-38.574,-37.109,115.234
1678023473.761,-48.828,-40.039,-38.086,-44.434,-4.395
1678023473.778,-42.480,-28.809,-38.574,-36.621,-84.961
1678023473.782,-49.316,-30.273,-39.551,-31.738,66.895
1678023473.786,-56.641,-35.156,-40.527,-36.621,22.949
1678023473.790,-51.270,-27.344,-40.527,-39.551,-153.320
1678023473.794,-40.039,-25.391,-36.621,-38.574,-137.207
1678023473.798,-33.203,-30.762,-33.203,-30.762,8.301
1678023473.802,-38.574,-28.809,-32.227,-29.785,-40.039
1678023473.805,-50.293,-29.297,-35.156,-43.945,-166.016
1678023473.809,-55.664,-32.227,-35.156,-52.734,-163.574
1678023473.813,-49.805,-39.551,-32.227,-48.828,70.312
1678023473.817,-43.945,-39.062,-35.156,-48.828,49.316
1678023473.821,-44.922,-34.180,-34.668,-50.781,-123.047
1678023473.811,-48.340,-33.691,-29.785,-52.246,-45.410
1678023473.815,-48.340,-31.738,-29.297,-49.316,8.301
1678023473.819,-48.340,-35.156,-33.203,-50.293,-100.586
1678023473.823,-45.898,-35.156,-32.715,-44.434,-153.809
1678023473.827,-48.828,-36.133,-29.785,-31.738,-157.227
1678023473.831,-54.199,-41.016,-28.320,-30.762,-81.055
1678023473.835,-46.387,-39.062,-31.250,-34.668,-86.914
1678023473.838,-37.598,-35.645,-33.691,-39.062,-156.738
1678023473.842,-27.832,-34.668,-35.645,-40.039,-73.730
1678023473.846,-26.367,-35.645,-36.133,-37.109,209.473
1678023473.850,-36.133,-38.086,-38.574,-41.504,-3.418
1678023473.854,-42.480,-37.598,-39.551,-36.621,-265.137
1678023473.869,-34.668,-36.621,-35.645,-28.809,-111.328
1678023473.873,-24.414,-39.551,-32.715,-27.344,-14.648
1678023473.877,-33.203,-36.133,-31.250,-24.414,-6.348
1678023473.881,-50.293,-33.203,-31.738,-29.785,-59.082
1678023473.885,-55.664,-36.133,-33.203,-29.297,47.363
1678023473.889,-50.293,-35.156,-31.250,-29.785,423.340
1678023473.893,-49.316,-34.668,-34.668,-37.598,176.270
1678023473.896,-39.062,-31.738,-32.715,-29.785,-138.184
1678023473.900,-40.527,-26.367,-31.250,-25.879,23.926
1678023473.904,-47.363,-28.809,-37.598,-30.762,-30.762
1678023473.908,-29.297,-28.809,-37.598,-31.250,-185.547
1678023473.912,-23.438,-29.297,-34.668,-31.250,-123.535
1678023473.913,-28.809,-31.250,-35.645,-27.344,-43.945
1678023473.917,-30.762,-33.691,-32.715,-31.738,-31.738
1678023473.921,-36.133,-32.227,-33.203,-33.691,-96.191
1678023473.925,-33.691,-35.156,-36.621,-33.203,-93.262
1678023473.929,-24.902,-39.062,-37.598,-34.180,-29.297
1678023473.933,-26.367,-39.062,-40.039,-32.715,-59.082
1678023473.937,-33.203,-35.645,-38.086,-29.785,-111.328
1678023473.940,-33.203,-30.273,-33.691,-31.738,-75.195
1678023473.944,-28.809,-29.785,-31.738,-23.926,222.168
1678023473.948,-34.668,-32.227,-30.762,-26.367,157.227
1678023473.952,-27.344,-33.203,-33.203,-27.832,-125.000
1678023473.956,-25.391,-33.203,-32.227,-12.207,-141.602
1678023473.958,-37.109,-33.203,-26.367,-13.672,-94.727
1678023473.962,-37.598,-30.762,-27.344,-21.484,-119.141
1678023473.966,-35.156,-27.344,-28.809,-22.949,-192.383
1678023473.970,-32.715,-33.203,-26.855,-20.996,-59.082
1678023473.974,-41.992,-37.109,-32.227,-23.438,31.738
1678023473.978,-48.340,-36.621,-30.762,-28.809,-73.730
1678023473.982,-46.387,-34.668,-28.320,-36.621,-133.301
1678023473.985,-45.898,-36.133,-27.832,-34.668,151.855
1678023473.989,-39.551,-32.715,-24.902,-26.855,245.605
1678023473.993,-39.062,-26.855,-26.367,-31.250,-104.980
1678023473.997,-47.363,-27.344,-22.949,-33.691,-127.930
1678023474.001,-49.316,-34.180,-13.184,-40.527,-39.062
1678023474.003,-54.688,-37.109,-22.461,-53.223,-119.141
1678023474.007,-61.523,-25.391,-29.785,-56.641,-129.395
1678023474.011,-58.105,-15.137,-16.113,-48.340,-72.266
1678023474.015,-74.707,-18.555,-30.762,-68.848,-18.555
1678023474.019,-86.914,-12.695,-41.016,-89.355,-40.527
1678023474.023,-93.750,-2.930,-34.668,-104.492,-22.461
1678023474.027,-123.535,24.902,-24.902,-116.211,57.617
1678023474.030,-152.832,47.852,-22.461,-131.836,187.988
1678023474.034,-176.758,48.340,-33.203,-164.062,9.277
1678023474.038,-195.312,54.199,-34.180,-194.336,-163.574
1678023474.042,-196.289,62.500,-31.250,-198.242,-61.523
1678023474.046,-203.613,65.430,-22.461,-201.172,-44.922
1678023474.048,-210.449,64.453,-18.066,-210.938,-187.988
1678023474.052,-214.844,65.430,-18.066,-213.379,-189.941
1678023474.056,-222.656,59.082,-23.926,-219.727,-44.434
1678023474.060,-218.750,57.617,-26.367,-215.820,5.371
1678023474.064,-205.566,56.641,-22.461,-205.078,-147.461
1678023474.068,-198.242,45.898,-19.531,-198.730,-113.770
1678023474.072,-202.148,48.340,-20.508,-193.848,161.133
1678023474.075,-202.148,52.734,-29.297,-192.383,123.047
1678023474.079,-187.500,49.316,-39.062,-195.312,-196.777
1678023474.083,-162.109,40.039,-35.156,-167.480,-240.723
1678023474.087,-132.812,33.203,-27.832,-132.812,-170.410
1678023474.091,-117.676,27.344,-31.250,-114.258,-102.539
1678023474.095,-110.840,14.160,-38.574,-97.656,-120.605
1678023474.099,-84.473,2.930,-41.992,-84.473,-151.855
1678023474.103,-64.941,-10.742,-40.039,-63.477,13.672
1678023474.107,-58.594,-22.461,-43.945,-45.898,-17.578
1678023474.111,-48.828,-32.227,-46.387,-38.574,-140.625
1678023474.115,-35.156,-36.621,-41.016,-18.555,20.508
1678023474.119,-29.785,-46.875,-41.504,-3.906,205.566
1678023474.122,-21.484,-54.199,-46.387,-7.812,-34.180
1678023474.126,-11.719,-55.176,-43.945,-2.930,-99.121
1678023474.130,-11.719,-60.547,-42.480,7.812,-16.113
1678023474.134,-8.301,-64.941,-41.992,12.207,-28.809
1678023474.138,-8.301,-71.777,-39.062,3.418,-81.055
1678023474.139,-6.836,-75.195,-39.551,2.930,-99.609
1678023474.143,6.348,-74.707,-38.574,14.648,84.473
1678023474.147,16.602,-73.242,-36.621,23.926,158.203
1678023474.151,5.859,-73.730,-39.551,20.020,4.883
1678023474.155,3.906,-75.195,-40.039,15.137,-154.785
1678023474.159,23.438,-74.707,-39.551,32.227,70.801
1678023474.163,27.832,-71.777,-41.016,41.504,290.039
1678023474.166,13.672,-72.266,-46.875,27.344,-7.812
1678023474.170,13.672,-69.824,-44.922,24.414,-120.117
1678023474.174,25.879,-67.383,-39.551,29.785,14.160
1678023474.178,30.762,-66.895,-40.527,28.320,-55.176
1678023474.182,33.203,-64.941,-42.969,28.320,-108.887
1678023474.198,35.156,-66.406,-39.551,31.738,-69.824
1678023474.202,24.414,-65.430,-33.691,33.691,-82.520
1678023474.206,18.555,-63.965,-32.715,30.762,-127.441
1678023474.210,27.832,-66.895,-35.645,28.809,-182.129
1678023474.214,38.086,-67.383,-34.180,32.227,-28.320
1678023474.218,39.062,-67.871,-31.250,31.738,248.535
1678023474.222,22.461,-67.871,-32.715,17.090,121.582
1678023474.225,20.508,-65.430,-34.668,12.207,-122.070
1678023474.229,26.855,-61.523,-32.715,15.625,-49.805
1678023474.233,31.250,-60.547,-32.715,18.066,60.547
1678023474.237,28.809,-61.035,-35.156,19.531,-101.074
1678023474.241,19.043,-59.082,-33.691,17.090,-197.754
1678023474.243,17.578,-56.641,-30.762,17.090,-99.121
1678023474.247,16.602,-57.129,-33.691,15.625,-6.348
1678023474.251,9.277,-59.082,-33.691,10.254,-65.918
1678023474.255,7.324,-59.570,-30.762,10.254,-85.938
1678023474.259,4.883,-57.129,-28.320,13.184,81.543
1678023474.263,-2.930,-60.059,-34.180,4.883,143.066
1678023474.267,0.488,-58.594,-41.016,1.465,-3.906
1678023474.270,8.789,-50.781,-38.086,4.395,-115.723
1678023474.274,13.672,-49.805,-33.691,14.160,72.266
1678023474.278,5.859,-53.223,-37.109,11.230,160.645
1678023474.282,-5.371,-52.246,-39.062,-10.254,-161.621
1678023474.286,1.953,-52.734,-38.086,-1.953,-192.383
1678023474.288,12.695,-53.223,-38.086,-0.488,-94.238
1678023474.292,14.648,-50.293,-34.180,-9.766,-115.723
1678023474.296,7.324,-50.781,-29.785,-3.906,-158.203
1678023474.300,-1.953,-51.270,-34.180,-9.766,-116.699
1678023474.304,-4.883,-50.293,-34.668,-17.090,-112.305
1678023474.308,1.465,-51.758,-30.762,-10.742,-126.953
1678023474.312,0.977,-54.688,-36.133,-10.742,-104.980
1678023474.315,-2.930,-56.641,-37.109,-11.230,-83.008
1678023474.319,-10.254,-53.711,-32.715,-7.324,223.145
1678023474.323,-21.484,-53.711,-36.133,-17.578,38.086
1678023474.327,-15.625,-52.734,-39.062,-22.461,-245.117
1678023474.331,-7.324,-45.898,-34.180,-21.484,-90.332
1678023474.333,-10.742,-41.016,-28.809,-16.602,-31.738
1678023474.337,-21.484,-48.340,-30.762,-21.973,-32.715
1678023474.341,-19.531,-49.316,-29.297,-27.344,-83.008
1678023474.345,-10.254,-46.387,-27.832,-21.973,-36.621
1678023474.349,-11.230,-46.875,-33.691,-16.602,44.922
1678023474.353,-10.742,-43.457,-34.180,-20.996,-21.484
1678023474.357,-22.461,-37.598,-34.180,-29.785,-101.074
1678023474.360,-25.879,-35.156,-36.621,-25.391,80.566
1678023474.364,-15.137,-33.203,-31.250,-25.391,109.863
1678023474.368,-13.184,-33.203,-30.273,-31.250,-146.484
1678023474.372,-19.531,-36.621,-29.297,-23.926,-87.402
1678023474.376,-30.273,-34.668,-25.879,-22.461,46.875
1678023474.378,-36.133,-30.762,-28.809,-29.785,-98.633
1678023474.382,-33.691,-28.809,-29.785,-30.273,-209.473
1678023474.386,-31.250,-31.738,-32.227,-29.297,-147.949
1678023474.390,-27.832,-31.250,-36.621,-26.367,-10.742
1678023474.394,-35.645,-34.668,-34.668,-28.809,-76.172
1678023474.398,-41.992,-39.551,-34.180,-40.527,-83.008
1678023474.402,-38.086,-37.109,-35.645,-44.434,55.176
1678023474.405,-26.367,-32.715,-30.762,-33.691,204.102
1678023474.409,-22.461,-31.738,-31.250,-39.551,-17.578
1678023474.413,-35.156,-32.715,-31.250,-47.363,-201.660
1678023474.417,-39.551,-31.250,-26.367,-42.480,-130.859
1678023474.421,-31.250,-30.762,-28.320,-39.062,-46.875
1678023474.424,-25.391,-32.227,-28.809,-33.691,-38.574
1678023474.428,-23.438,-37.109,-31.250,-28.809,-15.625
1678023474.432,-23.438,-35.156,-29.785,-20.508,93.262
1678023474.436,-29.785,-28.320,-26.855,-15.137,157.227
1678023474.440,-27.344,-31.738,-31.250,-34.668,-116.211
1678023474.444,-17.578,-38.086,-32.715,-35.645,-198.242
1678023474.448,-18.066,-39.551,-31.738,-31.738,228.027
1678023474.451,-29.785,-38.574,-35.645,-38.574,219.238
1678023474.455,-42.969,-36.133,-37.109,-48.828,-147.949
1678023474.459,-36.133,-39.551,-34.668,-51.758,-105.469
1678023474.463,-28.809,-42.969,-35.645,-44.922,-19.531
1678023474.467,-34.180,-42.480,-37.598,-42.969,-56.641
1678023474.468,-41.504,-43.945,-32.227,-41.504,-94.727
1678023474.472,-50.781,-48.828,-28.809,-39.062,-93.750
1678023474.476,-49.805,-46.387,-33.203,-44.434,-45.898
1678023474.480,-42.480,-41.992,-36.621,-41.504,-1.953
1678023474.484,-33.691,-41.504,-34.668,-39.551,-97.656
1678023474.488,-32.227,-39.551,-32.715,-41.504,-23.926
1678023474.492,-45.410,-39.062,-33.691,-37.598,334.961
1678023474.495,-41.992,-37.598,-30.273,-38.574,92.285
1678023474.499,-34.180,-34.180,-27.344,-39.062,-198.242
1678023474.503,-32.227,-32.227,-25.879,-37.109,-145.996
1678023474.507,-34.668,-33.691,-33.691,-45.410,-183.105
1678023474.511,-46.387,-31.250,-41.992,-49.316,-133.301
1678023474.528,-47.852,-30.762,-36.621,-41.504,-97.168
1678023474.532,-36.621,-28.320,-33.691,-42.480,32.227
1678023474.536,-26.855,-24.902,-36.133,-41.016,20.508
1678023474.540,-26.855,-23.926,-35.156,-37.598,-173.340
1678023474.544,-33.691,-22.949,-33.203,-38.574,-154.785
1678023474.548,-32.227,-23.438,-33.691,-34.668,35.156
1678023474.552,-26.367,-22.461,-31.738,-30.762,87.891
1678023474.555,-24.902,-19.531,-33.691,-30.273,15.625
1678023474.559,-18.066,-21.484,-32.715,-33.203,-51.758
1678023474.563,-22.949,-23.438,-26.855,-32.715,116.211
1678023474.567,-36.621,-22.461,-30.273,-40.039,154.785
1678023474.571,-32.227,-23.438,-32.227,-46.387,-62.500
1678023474.573,-26.367,-24.902,-32.715,-41.504,-96.191
1678023474.577,-26.367,-22.949,-33.203,-46.387,-114.258
1678023474.581,-31.738,-23.926,-32.227,-48.340,-130.859
1678023474.585,-34.668,-24.902,-30.273,-48.828,-150.391
1678023474.589,-28.320,-19.531,-22.949,-51.270,-170.898
1678023474.593,-20.996,-23.438,-23.438,-42.480,-101.562
1678023474.597,-25.391,-28.809,-32.715,-34.180,-64.453
1678023474.600,-34.180,-30.762,-37.598,-45.898,-126.465
1678023474.604,-38.086,-34.668,-36.133,-53.223,-47.852
1678023474.608,-39.062,-35.156,-31.250,-46.875,129.883
1678023474.612,-34.668,-33.691,-36.133,-46.875,-21.484
1678023474.616,-30.273,-30.273,-35.156,-47.363,-202.148
1678023474.618,-37.598,-32.715,-23.926,-43.945,-37.109
1678023474.622,-45.898,-34.668,-23.438,-37.109,404.297
1678023474.626,-39.551,-27.832,-30.762,-36.133,212.891
1678023474.630,-29.297,-27.344,-36.621,-36.621,-139.160
1678023474.634,-22.949,-32.227,-31.250,-28.320,-81.055
1678023474.638,-34.180,-35.645,-21.484,-27.344,-114.258
1678023474.642,-45.410,-28.320,-24.414,-42.969,-180.664
1678023474.645,-36.133,-25.391,-26.367,-49.805,-189.453
1678023474.649,-33.203,-29.785,-28.809,-46.387,49.316
1678023474.653,-31.738,-33.691,-31.738,-46.387,148.926
1678023474.657,-30.273,-36.621,-30.762,-52.734,-54.688
1678023474.661,-42.480,-36.133,-29.297,-46.875,-166.504
1678023474.663,-45.898,-40.039,-25.391,-39.062,-71.777
1678023474.667,-35.156,-41.504,-27.344,-43.457,-96.680
1678023474.671,-31.738,-40.039,-31.250,-45.410,-147.949
1678023474.675,-32.715,-39.551,-29.297,-43.945,-131.836
1678023474.679,-40.039,-43.945,-30.762,-39.551,-94.238
1678023474.683,-45.898,-44.922,-36.621,-47.363,-80.566
1678023474.687,-33.203,-41.016,-33.203,-53.711,-70.801
1678023474.690,-30.273,-35.645,-31.738,-41.016,0.977
1678023474.694,-39.062,-36.621,-31.738,-28.320,241.699
1678023474.698,-47.363,-34.180,-26.855,-31.250,76.172
1678023474.702,-44.922,-30.273,-25.391,-37.109,-139.648
1678023474.706,-36.621,-32.715,-25.879,-36.133,-41.016
1678023474.708,-26.855,-32.715,-26.367,-29.785,21.973
1678023474.712,-26.367,-31.250,-25.879,-27.344,8.301
1678023474.716,-40.527,-35.645,-29.785,-41.016,-11.719
1678023474.720,-42.480,-38.574,-32.227,-41.992,110.352
1678023474.724,-25.879,-34.668,-32.715,-39.551,165.527
1678023474.728,-25.879,-29.297,-35.156,-43.945,-10.742
1678023474.732,-31.250,-28.809,-32.715,-41.016,26.367
1678023474.735,-33.203,-28.320,-31.738,-36.133,177.246
1678023474.739,-44.434,-23.438,-33.203,-35.645,103.516
1678023474.743,-37.109,-21.973,-29.785,-39.551,-116.211
1678023474.747,-24.414,-23.438,-27.832,-35.645,-78.125
1678023474.751,-25.879,-24.414,-32.715,-30.273,-73.242
1678023474.754,-33.691,-22.949,-31.738,-30.273,-151.855
1678023474.758,-39.062,-24.414,-33.691,-40.527,-143.066
1678023474.762,-30.273,-27.832,-36.621,-36.621,-112.793
1678023474.766,-20.020,-28.809,-33.203,-33.691,-18.066
1678023474.770,-24.414,-30.762,-33.203,-39.062,-41.016
1678023474.774,-29.785,-29.297,-33.203,-36.621,-64.453
1678023474.778,-31.738,-26.855,-29.785,-40.039,59.082
1678023474.781,-30.762,-32.715,-32.227,-39.551,234.863
1678023474.785,-29.785,-31.250,-36.621,-51.270,95.215
1678023474.789,-25.879,-26.367,-38.086,-48.340,-120.605
1678023474.793,-31.250,-28.320,-36.133,-40.039,-113.770
1678023474.797,-42.969,-31.250,-37.598,-48.340,-103.027
1678023474.798,-41.016,-30.762,-38.086,-44.922,-145.996
1678023474.802,-35.645,-35.645,-35.645,-42.969,-129.883
1678023474.806,-35.156,-39.062,-36.133,-41.992,-14.160
1678023474.810,-39.062,-38.086,-38.086,-40.527,-40.527
1678023474.814,-41.992,-36.621,-33.203,-44.922,-174.805
1678023474.818,-40.039,-35.645,-32.227,-47.363,-62.500
1678023474.822,-36.133,-35.156,-36.133,-42.969,178.223
1678023474.825,-31.250,-30.273,-33.691,-33.691,187.988
1678023474.829,-33.203,-33.203,-28.809,-31.250,-124.023
1678023474.833,-32.227,-35.645,-28.320,-24.902,-189.453
1678023474.837,-36.133,-36.621,-30.273,-32.227,17.090
1678023474.841,-36.621,-40.039,-36.133,-56.152,-34.668
1678023474.843,-27.344,-35.645,-38.086,-52.734,-96.191
1678023474.847,-29.785,-34.668,-36.621,-40.039,-92.773
1678023474.851,-39.551,-38.574,-39.551,-38.574,-79.590
1678023474.855,-41.992,-34.180,-34.180,-32.715,-130.859
1678023474.859,-37.109,-31.738,-32.715,-32.227,-259.277
1678023474.863,-31.250,-35.645,-36.621,-33.691,-76.172
1678023474.867,-28.320,-36.621,-35.156,-23.926,278.320
1678023474.870,-38.086,-38.574,-34.668,-27.344,133.789
1678023474.874,-40.527,-36.133,-32.227,-36.621,-170.898
1678023474.878,-27.832,-33.203,-29.297,-32.715,-94.238
1678023474.882,-22.949,-33.203,-29.297,-22.949,5.859
1678023474.886,-22.461,-32.715,-29.297,-24.902,-150.391
1678023474.903,-29.297,-34.180,-31.250,-33.203,-205.566
1678023474.907,-32.227,-36.133,-36.133,-30.762,45.410
1678023474.911,-25.879,-32.715,-35.156,-21.973,178.223
1678023474.915,-27.832,-37.109,-44.434,-38.086,-78.613
1678023474.919,-36.621,-44.922,-46.875,-43.457,-118.652
1678023474.923,-32.715,-35.156,-37.109,-33.203,45.410
1678023474.927,-23.926,-28.320,-36.133,-25.391,44.922
1678023474.930,-24.902,-33.691,-34.668,-25.879,-75.684
1678023474.934,-25.879,-34.180,-29.785,-39.551,-163.574
1678023474.938,-34.180,-41.504,-34.668,-46.387,54.199
1678023474.942,-61.035,-45.410,-21.973,-61.523,54.688
1678023474.946,-65.918,3.906,-3.418,-64.941,-187.012
1678023474.948,-55.664,1.953,-28.809,-57.129,-112.305
1678023474.952,-52.246,-20.020,-39.062,-57.129,37.109
1678023474.956,-66.406,-3.418,-18.066,-67.383,-41.992
1678023474.960,-118.164,8.301,-19.043,-118.164,-166.504
1678023474.964,-162.598,26.367,-26.855,-158.691,-127.441
1678023474.968,-176.758,43.945,-19.043,-180.664,-19.043
1678023474.972,-194.336,44.922,-16.113,-218.262,-30.762
1678023474.975,-201.172,45.898,-20.996,-219.238,-70.801
1678023474.979,-207.031,52.246,-21.973,-205.078,-25.391
1678023474.983,-218.262,49.805,-27.344,-212.402,170.410
1678023474.987,-212.402,50.293,-27.832,-214.844,15.625
1678023474.991,-193.848,52.734,-21.973,-201.660,-121.094
1678023474.993,-180.176,46.875,-22.461,-189.941,81.055
1678023474.997,-169.922,43.457,-20.508,-177.246,118.652
1678023475.001,-163.086,43.457,-19.531,-170.410,-133.789
1678023475.005,-153.320,36.133,-24.414,-169.922,-271.973
1678023475.009,-132.812,22.461,-30.273,-153.320,-47.852
1678023475.013,-116.699,14.160,-33.691,-123.535,150.879
1678023475.017,-99.121,6.348,-35.156,-104.492,5.859
1678023475.020,-87.402,-4.395,-35.645,-102.539,-133.301
1678023475.024,-78.125,-12.695,-31.738,-91.309,32.715
1678023475.028,-65.918,-21.973,-36.621,-68.848,49.805
1678023475.032,-57.129,-34.668,-41.016,-60.059,-147.949
1678023475.036,-44.922,-44.434,-38.086,-48.828,-141.602
1678023475.054,-35.645,-47.363,-31.250,-36.621,-101.562
1678023475.058,-27.344,-50.781,-33.203,-32.227,-101.562
1678023475.062,-21.484,-58.594,-37.598,-32.715,-104.980
1678023475.066,-10.742,-62.012,-34.668,-23.926,-34.180
1678023475.070,1.465,-57.617,-33.203,-6.836,-13.184
1678023475.074,-7.324,-58.594,-35.156,-9.277,-134.766
1678023475.078,-17.578,-65.430,-33.691,-12.207,-72.754
1678023475.081,-9.766,-68.848,-34.180,-5.371,52.734
1678023475.085,3.906,-67.383,-29.785,3.418,209.961
1678023475.089,-0.977,-60.547,-33.203,0.977,38.574
1678023475.093,-4.883,-62.012,-41.016,7.324,-144.531
1678023475.097,0.000,-66.406,-38.574,10.742,-144.043
1678023475.083,6.348,-62.988,-35.156,7.812,-120.605
1678023475.087,13.184,-66.406,-37.109,15.137,-75.195
1678023475.091,15.625,-66.895,-41.504,12.207,-131.348
1678023475.095,12.207,-63.477,-41.504,15.625,-53.711
1678023475.099,7.324,-62.012,-38.086,22.949,49.316
1678023475.103,16.602,-55.664,-36.133,14.648,33.691
1678023475.107,22.949,-52.734,-33.691,16.113,4.883
1678023475.110,24.902,-53.711,-34.180,26.855,64.941
1678023475.114,17.578,-51.758,-37.598,24.902,-33.691
1678023475.118,9.277,-49.805,-42.480,21.973,-183.105
1678023475.122,11.719,-52.734,-47.363,20.508,-162.598
1678023475.126,20.996,-55.176,-43.457,26.367,155.273
1678023475.128,21.484,-52.246,-41.504,33.203,242.188
1678023475.132,8.789,-54.199,-47.363,23.926,-57.617
1678023475.136,-1.465,-56.641,-48.340,15.625,-130.859
1678023475.140,3.418,-55.176,-42.969,11.230,-75.684
1678023475.144,11.230,-56.152,-40.039,6.348,-151.855
1678023475.148,11.230,-56.152,-35.156,13.672,-103.516
1678023475.152,1.465,-58.105,-37.598,13.672,30.762
1678023475.155,-4.395,-55.664,-37.598,13.184,247.070
1678023475.159,-2.930,-50.293,-39.062,6.348,100.586
1678023475.163,-5.859,-55.176,-46.387,-3.418,-118.652
1678023475.167,-2.441,-51.758,-39.062,3.418,-86.914
1678023475.171,3.418,-46.875,-30.273,8.789,-136.230
1678023475.173,-3.906,-45.898,-30.273,5.859,-151.367
1678023475.177,-15.137,-47.363,-32.715,0.977,-96.680
1678023475.181,-14.160,-47.852,-33.691,-1.465,35.645
1678023475.185,-8.789,-47.852,-35.645,0.000,50.293
1678023475.189,-11.719,-53.223,-38.086,-1.953,-134.766
1678023475.193,-20.020,-54.199,-36.621,-6.836,-179.199
1678023475.197,-15.625,-49.805,-30.273,-4.395,132.812
1678023475.200,-9.766,-50.293,-29.297,-3.418,172.852
1678023475.204,-11.719,-49.805,-32.715,-3.418,-112.793
1678023475.208,-11.230,-44.434,-31.250,1.465,-16.602
1678023475.212,-12.207,-41.016,-30.273,-4.883,23.438
1678023475.216,-20.996,-44.434,-29.297,-16.113,-127.930
1678023475.218,-18.066,-45.410,-30.762,-16.602,-176.758
1678023475.222,-4.883,-40.527,-29.297,-11.719,-159.668
1678023475.226,-7.812,-44.434,-27.344,-8.789,-27.832
1678023475.230,-19.531,-47.852,-29.297,-9.277,-44.922
1678023475.234,-25.879,-44.922,-32.715,-12.207,-230.469
1678023475.238,-17.090,-42.480,-29.785,-13.672,-0.488
1678023475.242,-8.301,-39.062,-27.344,-6.836,367.188
1678023475.245,-12.695,-34.180,-32.227,-11.719,56.641
1678023475.249,-23.438,-34.668,-31.738,-18.066,-122.559
1678023475.253,-32.715,-36.133,-26.855,-20.508,-56.152
1678023475.257,-29.785,-37.109,-29.297,-32.227,-100.098
1678023475.261,-29.785,-41.992,-33.691,-33.203,-102.539
1678023475.264,-28.809,-38.574,-33.203,-34.180,-102.539
1678023475.268,-29.785,-35.156,-32.227,-31.250,-7.812
1678023475.272,-41.504,-35.645,-31.738,-26.367,157.227
1678023475.276,-41.992,-33.691,-31.250,-37.109,-53.223
1678023475.280,-26.855,-32.715,-24.902,-28.809,-170.898
1678023475.284,-18.555,-32.715,-24.902,-17.090,92.285
1678023475.288,-22.949,-32.715,-32.227,-20.996,71.777
1678023475.291,-31.250,-30.762,-29.297,-31.250,-114.258
1678023475.295,-28.809,-36.621,-35.156,-35.156,-81.543
1678023475.299,-28.320,-44.434,-34.180,-21.484,101.074
1678023475.303,-33.203,-42.969,-30.273,-18.555,105.469
1678023475.307,-38.086,-41.016,-29.785,-34.180,-99.609
1678023475.311,-43.945,-40.039,-27.832,-31.250,-116.699
1678023475.315,-38.574,-41.992,-35.156,-31.250,-41.992
1678023475.319,-29.785,-38.574,-35.156,-34.180,-42.969
1678023475.323,-28.809,-35.156,-29.297,-34.180,-125.000
1678023475.327,-32.227,-39.062,-27.832,-32.227,-36.133
1678023475.331,-33.203,-38.574,-27.832,-27.832,167.480
1678023475.335,-34.180,-34.668,-26.855,-37.598,0.977
1678023475.338,-35.156,-37.598,-27.832,-41.992,-141.113
1678023475.342,-28.809,-43.945,-30.762,-30.273,-26.367
1678023475.346,-27.344,-49.316,-35.156,-24.902,163.574
1678023475.350,-41.016,-42.969,-35.156,-41.504,16.602
1678023475.354,-41.504,-35.156,-33.203,-40.527,-158.203
1678023475.383,-34.180,-32.715,-33.691,-34.180,-125.000
1678023475.387,-31.738,-31.738,-32.715,-41.016,-5.859
1678023475.391,-29.297,-28.809,-28.809,-38.574,-20.020
1678023475.395,-33.203,-34.668,-27.832,-35.645,-124.023
1678023475.399,-33.691,-38.574,-29.297,-32.715,67.871
1678023475.403,-32.227,-35.645,-35.156,-30.273,357.910
1678023475.407,-27.344,-33.203,-41.016,-33.203,94.727
1678023475.410,-25.391,-32.715,-39.062,-32.715,-145.020
1678023475.414,-37.109,-39.062,-36.621,-31.250,73.242
1678023475.418,-48.340,-39.551,-39.551,-35.156,78.613
1678023475.422,-46.387,-41.016,-38.086,-47.852,-176.270
1678023475.426,-42.969,-45.898,-33.691,-49.316,-149.902
1678023475.413,-41.016,-52.734,-30.762,-42.969,-32.715
1678023475.417,-47.852,-52.246,-26.855,-45.898,-105.469
1678023475.421,-50.781,-48.828,-22.949,-43.457,-156.738
1678023475.425,-41.992,-47.852,-23.926,-39.551,-108.398
1678023475.429,-37.598,-45.410,-31.738,-43.457,13.184
1678023475.433,-35.156,-39.551,-32.227,-39.551,58.105
1678023475.437,-41.016,-36.621,-28.809,-34.668,-32.715
1678023475.440,-42.969,-37.109,-28.809,-38.574,-14.160
1678023475.444,-37.109,-35.645,-30.273,-41.504,-25.879
1678023475.448,-34.668,-31.738,-25.391,-30.762,-108.887
1678023475.452,-33.203,-26.855,-20.508,-21.484,-111.328
1678023475.456,-40.039,-28.809,-24.902,-22.949,-24.414
1678023475.458,-44.922,-31.738,-26.367,-21.973,250.977
1678023475.462,-45.410,-26.367,-30.273,-32.227,203.125
1678023475.466,-44.434,-24.414,-29.297,-41.504,-133.789
1678023475.470,-34.180,-24.414,-24.902,-34.180,-98.633
1678023475.474,-35.156,-26.855,-26.855,-32.227,-36.133
1678023475.478,-40.039,-30.762,-26.855,-34.668,-90.820
1678023475.482,-46.875,-30.273,-28.320,-42.969,-65.918
1678023475.485,-40.527,-32.227,-30.273,-39.551,62.500
1678023475.489,-33.203,-29.297,-28.809,-26.855,75.684
1678023475.493,-39.062,-21.484,-29.297,-31.250,-143.066
1678023475.497,-44.922,-27.344,-26.855,-45.898,-153.809
1678023475.501,-46.387,-35.156,-22.461,-43.945,8.301
1678023475.503,-41.504,-33.691,-25.391,-42.480,-119.629
1678023475.507,-37.598,-34.668,-28.320,-46.387,-161.133
1678023475.511,-42.969,-36.621,-26.367,-41.504,-71.289
1678023475.515,-42.969,-31.250,-24.902,-40.527,-90.820
1678023475.519,-41.992,-28.320,-25.879,-36.133,-118.164
1678023475.523,-37.109,-33.203,-27.344,-34.180,-128.418
1678023475.527,-31.250,-36.621,-26.855,-36.621,20.996
1678023475.530,-30.762,-39.062,-31.250,-27.832,306.152
1678023475.534,-38.574,-40.527,-25.879,-27.832,58.594
1678023475.538,-35.645,-38.574,-18.066,-22.461,-207.520
1678023475.542,-23.926,-38.574,-22.461,-18.555,-110.352
1678023475.546,-21.973,-41.504,-24.902,-31.250,21.484
1678023475.563,-26.855,-38.574,-28.809,-31.738,-29.785
1678023475.567,-34.180,-35.156,-28.809,-28.809,-144.531
1678023475.571,-37.109,-35.156,-24.414,-27.344,-56.152
1678023475.575,-31.738,-38.086,-23.438,-21.484,141.113
1678023475.579,-27.832,-37.109,-27.344,-22.461,-47.852
1678023475.583,-27.344,-37.109,-31.738,-23.926,-111.328
1678023475.587,-38.086,-39.062,-25.879,-24.902,127.930
1678023475.590,-49.805,-39.062,-22.461,-33.691,111.816
1678023475.594,-44.434,-36.133,-30.762,-40.527,-218.262
1678023475.598,-37.598,-37.109,-36.133,-40.039,-272.461
1678023475.602,-35.156,-36.621,-34.180,-36.133,-30.273
1678023475.606,-41.504,-33.691,-32.715,-38.574,-81.055
1678023475.594,-55.664,-33.203,-32.227,-48.340,-217.285
1678023475.598,-51.270,-35.156,-31.250,-43.457,-115.723
1678023475.602,-41.016,-34.668,-32.715,-36.133,84.473
1678023475.606,-35.156,-33.691,-35.156,-35.156,-47.363
1678023475.610,-38.574,-33.691,-31.738,-34.668,-184.082
1678023475.614,-45.410,-32.227,-34.668,-37.598,-47.363
1678023475.618,-42.480,-31.738,-32.715,-36.621,32.715
1678023475.621,-30.762,-30.273,-27.344,-41.016,-51.270
1678023475.625,-27.832,-26.367,-29.297,-45.410,-164.062
1678023475.629,-31.250,-29.785,-34.668,-41.016,-123.535
1678023475.633,-36.133,-31.250,-34.668,-27.832,175.781
1678023475.637,-45.410,-31.738,-37.109,-39.551,14.160
1678023475.653,-40.039,-32.715,-38.574,-45.898,-154.297
1678023475.657,-25.879,-31.738,-33.691,-29.297,39.551
1678023475.661,-30.273,-26.855,-34.180,-26.855,62.012
1678023475.665,-35.645,-25.391,-35.156,-32.715,-81.055
1678023475.669,-31.738,-29.297,-29.297,-32.715,-107.422
1678023475.673,-21.484,-30.762,-23.926,-22.461,127.441
1678023475.677,-10.254,-26.367,-24.902,-11.230,311.035
1678023475.680,-19.043,-27.344,-25.879,-21.484,8.789
1678023475.684,-34.180,-30.762,-24.414,-27.832,-82.520
1678023475.688,-36.621,-33.203,-28.320,-28.320,-52.246
1678023475.692,-32.715,-34.180,-31.738,-27.832,-118.652
1678023475.696,-33.203,-28.809,-28.320,-24.902,-141.113
1678023475.698,-31.250,-26.367,-29.297,-24.902,-107.422
1678023475.702,-34.668,-32.227,-33.203,-32.227,-71.777
1678023475.706,-48.340,-36.621,-35.156,-42.969,-146.973
1678023475.710,-49.316,-38.086,-31.738,-41.016,-176.270
1678023475.714,-39.551,-35.156,-33.691,-35.156,-75.195
1678023475.718,-36.621,-29.785,-38.086,-34.668,27.832
1678023475.722,-46.387,-31.250,-35.645,-38.086,0.977
1678023475.725,-55.176,-33.203,-36.621,-48.340,-51.270
1678023475.729,-50.293,-31.250,-36.621,-50.293,-58.594
1678023475.733,-42.480,-28.809,-30.273,-29.785,240.723
1678023475.737,-42.969,-27.344,-30.273,-25.391,165.039
1678023475.741,-50.781,-30.273,-28.809,-37.598,-142.090
1678023475.743,-47.852,-31.738,-26.855,-41.016,-85.938
1678023475.747,-43.945,-32.715,-27.344,-43.457,-28.809
1678023475.751,-43.945,-31.738,-26.855,-39.551,-125.000
1678023475.755,-38.574,-28.809,-32.227,-38.574,-207.520
1678023475.759,-44.922,-33.691,-34.668,-42.969,-23.926
1678023475.763,-50.781,-36.133,-34.668,-44.922,115.234
1678023475.767,-47.852,-36.621,-36.133,-45.898,-37.598
1678023475.770,-45.410,-41.504,-37.598,-48.828,-89.355
1678023475.774,-39.062,-44.434,-41.016,-41.504,136.719
1678023475.778,-48.340,-44.922,-40.039,-34.668,340.820
1678023475.782,-63.965,-41.016,-40.039,-47.852,4.395
1678023475.786,-55.176,-36.133,-41.016,-45.410,-144.043
1678023475.788,-40.039,-34.180,-39.062,-41.504,-78.613
1678023475.792,-38.574,-30.762,-37.598,-41.504,-127.441
1678023475.796,-49.805,-31.250,-39.062,-38.574,-114.746
1678023475.800,-56.152,-29.297,-33.203,-42.480,-71.289
1678023475.804,-48.340,-27.832,-27.344,-41.504,-50.293
1678023475.808,-39.062,-30.762,-30.762,-37.109,-73.242
1678023475.812,-38.574,-31.250,-31.250,-39.062,-128.418
1678023475.815,-46.387,-34.668,-32.227,-42.480,-3.906
1678023475.819,-53.711,-38.574,-34.668,-38.574,220.703
1678023475.823,-51.758,-38.086,-31.738,-43.945,2.441
1678023475.827,-41.992,-32.715,-27.344,-42.480,-218.750
1678023475.831,-37.109,-34.668,-31.250,-41.992,-69.336
1678023475.833,-43.457,-36.133,-32.715,-38.574,54.199
1678023475.837,-50.781,-33.691,-28.809,-34.180,12.207
1678023475.841,-50.781,-35.645,-36.133,-37.598,-138.184
1678023475.845,-41.992,-36.621,-38.086,-30.273,-120.117
1678023475.849,-37.109,-34.668,-35.156,-27.344,-50.781
1678023475.853,-38.086,-33.203,-33.691,-31.738,-113.281
1678023475.857,-42.969,-34.180,-32.715,-39.551,-43.945
1678023475.860,-43.457,-34.180,-33.691,-38.574,136.719
1678023475.864,-40.527,-35.156,-33.691,-31.738,96.680
1678023475.868,-39.551,-37.109,-34.668,-37.109,-188.477
1678023475.872,-38.574,-38.574,-36.621,-39.062,-217.773
1678023475.876,-40.527,-40.039,-37.109,-38.086,-127.930
1678023475.879,-45.898,-38.574,-37.598,-40.527,-157.715
1678023475.883,-40.527,-33.691,-33.691,-41.504,-208.496
1678023475.887,-32.227,-31.738,-32.715,-30.762,-105.957
1678023475.891,-33.203,-36.133,-36.133,-26.367,70.312
1678023475.895,-40.039,-39.062,-39.551,-40.527,3.418
1678023475.899,-42.969,-38.086,-33.203,-41.016,-49.805
1678023475.903,-41.016,-38.086,-31.738,-39.062,2.441
1678023475.906,-29.297,-36.133,-36.133,-34.668,186.035
1678023475.910,-26.367,-33.691,-31.738,-33.691,-16.602
1678023475.914,-37.598,-36.621,-23.926,-37.598,-208.496
1678023475.918,-51.270,-36.133,-21.484,-45.410,-70.801
1678023475.922,-53.711,-34.180,-27.832,-47.363,-53.711
1678023475.923,-53.711,-36.621,-33.691,-52.734,-90.332
1678023475.927,-46.875,-38.086,-33.691,-49.805,-75.195
1678023475.931,-39.062,-33.203,-27.832,-33.691,0.000
1678023475.935,-45.410,-32.227,-29.785,-32.227,33.691
1678023475.939,-46.387,-35.156,-32.715,-38.086,-96.680
1678023475.943,-42.969,-34.668,-28.809,-36.133,-28.320
1678023475.947,-34.668,-32.715,-31.250,-28.809,179.688
1678023475.950,-37.109,-35.645,-33.691,-26.367,258.301
1678023475.954,-50.293,-37.598,-37.109,-49.805,-22.461
1678023475.958,-47.363,-35.156,-34.668,-51.270,-103.027
1678023475.962,-39.062,-36.621,-30.273,-42.480,-14.648
1678023475.966,-36.133,-36.133,-28.809,-46.387,-94.238
1678023475.969,-34.180,-32.715,-29.297,-39.062,-122.070
1678023475.973,-44.922,-36.621,-34.180,-38.086,-54.688
1678023475.977,-46.387,-40.039,-33.203,-40.527,-66.895
1678023475.981,-41.504,-40.039,-30.273,-40.039,-100.586
1678023475.985,-37.109,-38.574,-33.203,-41.016,-76.172
1678023475.989,-32.227,-37.598,-33.691,-44.922,37.109
1678023475.993,-42.480,-37.598,-32.227,-47.852,126.953
1678023475.996,-46.875,-36.621,-34.668,-54.688,51.758
1678023476.000,-42.480,-38.086,-34.180,-56.641,-90.332
1678023476.004,-33.691,-36.621,-26.855,-44.434,-84.473
1678023476.008,-28.809,-32.715,-30.762,-32.715,171.387
1678023476.012,-48.828,-31.250,-46.875,-49.805,-20.020
1678023476.028,-50.293,-30.762,-39.551,-59.082,-206.543
1678023476.032,-32.715,-38.574,-25.391,-47.852,93.262
1678023476.036,-32.227,-39.062,-27.344,-42.969,147.949
1678023476.040,-37.109,-34.668,-18.066,-45.410,-75.684
1678023476.044,-46.387,-31.738,-13.184,-52.734,-151.855
1678023476.048,-54.199,-20.996,-24.902,-47.852,-6.348
1678023476.052,-57.129,-15.625,-25.879,-49.316,115.234
1678023476.055,-65.430,-2.441,-20.020,-67.871,-96.191
1678023476.059,-92.285,12.207,-26.855,-96.680,-86.914
1678023476.063,-132.812,24.902,-30.762,-130.859,43.945
1678023476.067,-162.598,46.875,-30.273,-157.715,-6.836
1678023476.071,-179.688,60.547,-29.297,-178.223,-164.062
1678023476.073,-187.988,66.406,-23.438,-195.801,-129.883
1678023476.077,-192.383,69.824,-17.578,-205.566,-17.090
1678023476.081,-208.008,61.035,-16.113,-212.402,-46.387
1678023476.085,-216.797,51.270,-20.996,-221.191,-118.164
1678023476.089,-202.637,50.781,-22.461,-217.285,-96.680
1678023476.093,-184.570,50.781,-11.719,-203.613,-24.414
1678023476.097,-179.199,48.340,-10.254,-192.871,-57.129
1678023476.100,-192.871,40.039,-25.879,-200.195,-115.723
1678023476.104,-196.777,40.039,-23.926,-200.195,-87.402
1678023476.108,-182.617,44.922,-20.020,-187.012,152.344
1678023476.112,-181.152,40.527,-24.902,-190.918,21.484
1678023476.116,-185.059,39.062,-17.090,-189.941,-204.102
1678023476.118,-176.270,42.480,-14.648,-176.758,10.254
1678023476.122,-171.875,40.039,-18.066,-172.852,123.535
1678023476.126,-167.969,33.691,-26.367,-171.875,-125.488
1678023476.130,-154.297,26.855,-22.461,-161.621,-220.703
1678023476.134,-151.367,19.043,-12.695,-148.926,-46.875
1678023476.138,-151.367,13.672,-16.602,-142.090,106.445
1678023476.142,-149.414,6.836,-21.484,-135.254,-23.926
1678023476.145,-139.648,2.930,-21.973,-124.023,-119.141
1678023476.149,-125.000,-2.930,-27.344,-113.281,86.426
1678023476.153,-121.094,-14.160,-36.621,-104.004,117.676
1678023476.157,-107.910,-16.113,-35.645,-88.867,-67.871
1678023476.161,-87.891,-21.484,-32.715,-70.312,-111.816
1678023476.163,-67.383,-31.738,-33.203,-51.758,-126.465
1678023476.167,-39.551,-45.410,-42.480,-28.320,-57.129
1678023476.171,-17.578,-56.641,-46.875,-15.137,-121.582
1678023476.175,-2.930,-58.594,-41.016,-2.930,-106.445
1678023476.179,-6.348,-68.848,-43.457,13.672,11.230
1678023476.183,-3.418,-73.730,-44.434,20.996,-106.445
1678023476.187,15.625,-74.707,-41.992,24.902,-181.641
1678023476.190,20.508,-83.496,-44.922,22.461,-69.336
1678023476.194,22.461,-87.891,-42.480,29.785,201.660
1678023476.198,21.484,-85.938,-41.016,30.762,61.035
1678023476.202,22.461,-87.891,-44.434,32.227,-183.105
1678023476.206,30.762,-83.984,-45.898,40.039,-116.699
1678023476.208,38.086,-79.590,-43.945,41.016,-79.590
1678023476.212,43.457,-76.172,-39.551,47.363,-41.016
1678023476.216,38.574,-75.684,-43.945,38.574,-99.609
1678023476.220,43.945,-76.660,-45.410,34.668,0.977
1678023476.224,53.223,-74.219,-41.504,41.504,121.582
1678023476.228,55.176,-69.824,-43.945,40.527,-65.918
1678023476.232,51.758,-69.824,-45.410,42.480,-30.762
1678023476.235,45.410,-69.824,-46.387,43.945,156.738
1678023476.239,41.504,-66.406,-41.504,46.875,126.953
1678023476.243,38.086,-62.012,-38.086,43.457,-151.855
1678023476.247,41.016,-63.965,-39.062,39.062,-172.363
1678023476.251,42.480,-66.895,-39.551,40.039,-41.016
1678023476.253,39.062,-64.453,-41.016,44.434,-42.969
1678023476.257,32.715,-62.988,-41.992,41.992,-132.324
1678023476.261,29.297,-65.918,-41.992,34.668,-144.043
1678023476.265,33.691,-66.895,-37.109,31.250,-31.738
1678023476.269,32.715,-68.848,-38.574,33.203,-92.773
1678023476.273,25.391,-68.848,-41.504,34.668,-68.359
1678023476.277,20.996,-66.895,-40.527,28.809,77.148
1678023476.280,24.902,-64.453,-35.645,34.668,282.227
1678023476.284,21.973,-58.105,-38.086,36.133,108.887
1678023476.288,22.949,-55.664,-35.156,35.645,-162.109
1678023476.292,23.438,-56.641,-31.250,36.133,-97.656
1678023476.296,12.207,-52.734,-33.203,28.809,-119.629
1678023476.298,15.137,-51.270,-31.250,27.832,-109.375
1678023476.302,26.367,-51.758,-28.320,28.809,-47.852
1678023476.306,25.391,-49.316,-32.227,24.414,41.504
1678023476.310,17.090,-46.387,-37.109,17.578,61.035
1678023476.314,14.160,-47.363,-33.203,13.672,-131.836
1678023476.318,14.160,-47.363,-29.785,18.555,-136.719
1678023476.322,11.719,-49.316,-33.691,16.113,138.184
1678023476.325,12.207,-49.316,-35.645,13.184,260.742
1678023476.329,8.789,-50.781,-35.645,8.301,6.836
1678023476.333,-4.883,-55.664,-38.574,8.301,-106.934
1678023476.337,-8.789,-51.758,-34.668,13.184,10.742
1678023476.341,-3.906,-48.340,-37.109,7.324,-100.098
1678023476.343,0.488,-51.758,-39.062,2.930,-165.527
1678023476.347,1.953,-53.711,-40.527,-5.371,-46.387
1678023476.351,-9.766,-52.734,-41.992,-10.742,-8.789
1678023476.355,-10.254,-46.387,-36.133,-10.742,-93.262
1678023476.359,1.953,-45.898,-37.109,-16.602,-127.441
1678023476.363,7.812,-46.875,-34.180,-6.836,-32.715
1678023476.367,3.906,-41.992,-34.180,3.418,140.137
1678023476.370,-9.277,-40.527,-38.574,-8.301,-27.344
1678023476.374,-13.184,-46.875,-36.621,-12.695,-208.496
1678023476.378,-11.230,-49.805,-38.574,-8.789,-75.195
1678023476.382,-14.648,-48.828,-40.039,-11.719,38.574
1678023476.386,-9.766,-45.410,-43.457,-16.602,-140.625
1678023476.403,-13.184,-41.016,-41.504,-9.766,-184.082
1678023476.407,-18.555,-44.922,-34.668,-8.301,59.082
1678023476.411,-12.207,-47.852,-35.645,-8.789,92.285
1678023476.415,-10.742,-42.969,-35.156,-8.301,-119.141
1678023476.419,-9.766,-39.551,-31.250,-6.348,-122.559
1678023476.423,-10.254,-40.527,-30.273,-5.859,45.898
1678023476.427,-23.926,-38.574,-33.691,-9.277,55.664
1678023476.430,-26.855,-33.203,-33.691,-18.555,-136.230
1678023476.434,-22.949,-36.133,-36.133,-22.461,-165.527
1678023476.438,-20.996,-38.086,-34.180,-16.113,44.922
1678023476.442,-31.738,-40.039,-36.621,-25.391,69.336
1678023476.446,-39.062,-45.410,-34.180,-31.738,-111.328
1678023476.448,-29.785,-47.852,-33.691,-29.785,-83.008
1678023476.452,-26.855,-48.340,-37.598,-26.367,95.703
1678023476.456,-33.203,-45.410,-38.574,-20.996,20.508
1678023476.460,-34.668,-42.969,-37.109,-16.602,-116.699
1678023476.464,-36.133,-39.551,-36.133,-22.461,-60.547
1678023476.468,-40.039,-39.551,-37.109,-38.574,41.992
1678023476.472,-31.738,-41.992,-38.086,-41.504,19.531
1678023476.475,-22.949,-39.551,-38.086,-31.250,-164.062
1678023476.479,-28.320,-35.645,-35.645,-27.832,-137.695
1678023476.483,-33.203,-38.574,-32.227,-18.066,150.879
1678023476.487,-33.203,-44.922,-37.598,-21.973,-21.973
1678023476.491,-25.391,-45.410,-38.086,-20.020,-193.848
1678023476.508,-23.926,-45.410,-36.133,-27.344,-76.172
1678023476.512,-43.457,-44.922,-35.645,-43.945,-4.883
1678023476.516,-53.711,-42.480,-37.598,-50.781,-64.453
1678023476.520,-46.387,-41.016,-40.039,-45.898,-112.793
1678023476.524,-41.016,-42.480,-40.039,-34.180,3.906
1678023476.528,-39.062,-43.945,-38.086,-31.738,143.555
1678023476.532,-39.551,-38.086,-38.086,-36.133,29.785
1678023476.535,-42.480,-32.715,-35.156,-40.039,-111.328
1678023476.539,-40.039,-36.621,-28.809,-36.621,22.461
1678023476.543,-36.621,-39.062,-33.203,-34.668,85.449
1678023476.547,-35.156,-36.621,-32.227,-34.668,-146.973
1678023476.551,-33.691,-34.668,-33.691,-28.809,-181.641
1678023476.538,-39.062,-31.738,-39.062,-27.344,-106.445
1678023476.542,-43.945,-31.738,-41.992,-35.645,-159.180
1678023476.546,-37.598,-32.227,-39.551,-43.457,-206.055
1678023476.550,-30.273,-30.762,-30.762,-42.480,-152.832
1678023476.554,-28.809,-33.691,-28.320,-37.109,-99.609
1678023476.558,-35.645,-33.691,-35.156,-40.039,0.488
1678023476.562,-36.133,-27.344,-36.621,-44.922,49.316
1678023476.565,-32.715,-27.344,-34.180,-39.551,38.574
1678023476.569,-36.133,-29.297,-37.109,-36.621,88.379
1678023476.573,-33.203,-26.367,-38.574,-37.598,-42.480
1678023476.577,-32.715,-24.902,-40.527,-33.691,-199.219
1678023476.581,-36.621,-25.879,-41.016,-36.133,-140.137
1678023476.583,-31.250,-27.344,-36.133,-27.832,151.855
1678023476.587,-29.297,-23.438,-36.133,-29.785,67.871
1678023476.591,-29.297,-20.508,-41.016,-36.621,-155.762
1678023476.595,-27.832,-22.949,-39.551,-31.738,-65.430
1678023476.599,-29.785,-27.832,-33.203,-33.691,3.418
1678023476.603,-29.785,-26.367,-32.227,-39.551,-76.172
1678023476.607,-27.832,-22.461,-31.738,-35.645,-88.867
1678023476.610,-15.625,-26.367,-29.785,-27.344,151.855
1678023476.614,-20.508,-34.180,-33.691,-29.785,300.293
1678023476.618,-35.156,-27.344,-32.227,-38.086,-56.641
1678023476.622,-32.715,-25.391,-33.691,-44.922,-163.086
1678023476.626,-26.367,-32.227,-33.691,-51.758,-80.566
1678023476.628,-21.484,-32.227,-28.809,-41.992,-108.887
1678023476.632,-26.855,-27.832,-26.855,-35.645,-145.020
1678023476.636,-30.762,-24.414,-24.414,-35.645,-174.316
1678023476.640,-27.832,-27.344,-26.367,-36.621,-125.000
1678023476.644,-26.367,-30.273,-29.785,-41.016,-120.117
1678023476.648,-26.367,-32.715,-26.855,-42.480,-76.660
1678023476.652,-34.180,-35.645,-29.297,-40.527,38.086
1678023476.655,-46.875,-36.133,-36.133,-38.086,219.238
1678023476.659,-43.457,-34.180,-37.109,-37.109,47.363
1678023476.663,-32.715,-29.297,-34.180,-37.598,-123.535
1678023476.667,-27.344,-24.902,-35.645,-34.180,-40.039
1678023476.671,-30.273,-21.484,-35.156,-32.227,-26.855
1678023476.673,-37.598,-19.043,-32.715,-43.945,-33.203
1678023476.677,-34.180,-25.879,-37.598,-46.875,66.406
1678023476.681,-25.879,-28.809,-40.527,-40.039,123.047
1678023476.685,-25.879,-23.926,-40.527,-39.551,58.105
1678023476.689,-26.367,-20.020,-35.156,-43.945,-76.172
1678023476.693,-34.668,-23.926,-33.203,-41.992,-92.773
1678023476.697,-37.598,-33.203,-38.086,-35.156,163.574
1678023476.700,-30.762,-34.180,-43.457,-33.203,179.199
1678023476.704,-27.832,-29.785,-40.527,-36.621,-103.027
1678023476.708,-25.879,-25.879,-40.039,-32.715,-123.047
1678023476.712,-31.250,-26.855,-37.109,-26.855,-48.340
1678023476.716,-34.668,-27.832,-29.297,-29.785,-94.727
1678023476.719,-26.367,-28.320,-33.691,-35.156,-180.664
1678023476.723,-26.855,-30.762,-38.086,-33.203,-165.039
1678023476.727,-27.832,-30.762,-36.621,-23.438,39.551
1678023476.731,-28.809,-29.297,-34.668,-27.344,-11.230
1678023476.735,-39.062,-27.344,-32.715,-40.039,-157.227
1678023476.739,-31.738,-29.297,-31.738,-39.551,-6.836
1678023476.743,-21.973,-28.809,-35.645,-31.250,242.188
1678023476.746,-24.902,-27.344,-39.551,-36.621,-4.395
1678023476.750,-26.855,-29.785,-34.180,-40.527,-171.875
1678023476.754,-26.855,-28.809,-29.297,-36.621,-115.723
1678023476.758,-23.926,-25.879,-37.598,-35.645,-94.238
1678023476.762,-23.926,-27.344,-43.457,-37.109,-123.047
1678023476.764,-24.902,-26.367,-39.551,-33.691,-93.262
1678023476.768,-27.832,-28.320,-39.551,-26.855,75.195
1678023476.772,-36.621,-29.785,-39.551,-32.227,69.336
1678023476.776,-38.574,-26.855,-40.527,-43.945,-127.930
1678023476.780,-35.156,-30.762,-45.898,-49.805,-188.477
1678023476.784,-26.367,-33.691,-39.551,-38.086,28.809
1678023476.788,-34.180,-30.273,-32.715,-30.762,150.879
1678023476.791,-46.387,-27.344,-36.621,-41.992,-118.652
1678023476.795,-43.457,-27.832,-43.457,-50.293,-153.320
1678023476.799,-37.598,-26.855,-40.039,-39.551,45.410
1678023476.803,-35.645,-28.809,-37.109,-37.598,-52.246
1678023476.807,-41.992,-30.273,-38.574,-39.551,-127.441
1678023476.823,-44.922,-28.809,-33.691,-37.109,-94.238
1678023476.827,-40.527,-27.832,-34.180,-35.645,-48.340
1678023476.831,-39.062,-29.785,-33.691,-33.203,-42.969
1678023476.835,-35.645,-35.156,-35.156,-34.668,-108.887
1678023476.839,-36.133,-34.668,-37.598,-35.156,-1.953
1678023476.843,-37.598,-32.227,-36.133,-33.203,204.590
1678023476.847,-35.645,-37.109,-38.086,-36.133,45.410
1678023476.850,-43.945,-40.039,-39.551,-46.387,-161.133
1678023476.854,-45.410,-43.457,-38.086,-51.270,-148.438
1678023476.858,-48.340,-46.387,-37.598,-43.945,88.379
1678023476.862,-62.500,-43.457,-40.527,-52.734,-7.324
1678023476.866,-56.641,-39.062,-39.062,-54.199,-159.180
1678023476.868,-42.480,-36.133,-39.551,-42.969,-84.961
1678023476.872,-40.527,-38.574,-41.016,-37.109,7.324
1678023476.876,-42.480,-38.086,-39.062,-40.039,-63.477
1678023476.880,-51.270,-37.109,-37.598,-44.922,-120.605
1678023476.884,-53.223,-36.621,-34.668,-45.410,17.578
1678023476.888,-50.781,-38.086,-35.156,-51.758,78.613
1678023476.892,-44.434,-38.086,-36.621,-55.176,-52.246
1678023476.895,-44.922,-37.109,-35.645,-49.805,-21.973
1678023476.899,-54.688,-44.922,-40.527,-46.875,134.277
1678023476.903,-54.688,-40.039,-41.016,-45.410,259.277
1678023476.907,-47.852,-33.203,-35.645,-51.270,-21.973
1678023476.911,-38.574,-35.645,-37.598,-47.852,-170.898
1678023476.913,-31.250,-34.180,-35.156,-43.945,-102.051
1678023476.917,-35.645,-27.832,-27.832,-42.480,-145.996
1678023476.921,-41.992,-28.809,-29.297,-41.016,-170.410
1678023476.925,-40.039,-32.715,-30.762,-38.086,-84.473
1678023476.929,-33.203,-33.203,-31.250,-39.062,-72.754
1678023476.933,-28.809,-28.809,-30.762,-37.598,-20.020
1678023476.937,-27.344,-23.438,-29.785,-34.180,93.262
1678023476.940,-32.227,-21.973,-24.902,-30.762,59.570
1678023476.944,-28.320,-26.367,-25.879,-28.809,204.590
1678023476.948,-27.832,-28.809,-31.250,-36.621,75.684
1678023476.952,-25.391,-23.438,-29.785,-35.156,-119.629
1678023476.956,-29.785,-25.879,-32.715,-32.227,-80.566
1678023476.958,-37.109,-26.855,-32.227,-36.133,-56.152
1678023476.962,-37.598,-24.902,-32.715,-39.062,-100.586
1678023476.966,-39.551,-34.668,-37.598,-51.758,-145.508
1678023476.970,-29.785,-37.598,-36.133,-50.781,12.207
1678023476.974,-25.879,-30.762,-32.715,-46.387,20.508
1678023476.978,-31.250,-34.180,-33.691,-50.781,-51.270
1678023476.982,-28.320,-33.691,-31.738,-50.293,-35.645
1678023476.985,-20.996,-30.762,-30.762,-42.480,119.629
1678023476.989,-16.602,-32.715,-34.668,-35.156,164.551
1678023476.993,-27.344,-34.180,-33.691,-35.156,-120.605
1678023476.997,-45.898,-33.203,-31.250,-30.273,-129.395
1678023477.001,-47.852,-33.691,-31.250,-33.691,-10.742
1678023477.003,-45.898,-39.062,-38.086,-42.480,-81.543
1678023477.007,-36.621,-36.621,-34.180,-38.086,-159.668
1678023477.011,-26.367,-29.297,-28.320,-25.879,-86.914
1678023477.015,-39.551,-33.203,-34.668,-29.785,14.648
1678023477.019,-46.875,-39.062,-36.133,-44.434,-72.266
1678023477.023,-33.203,-36.621,-31.738,-51.758,-131.836
1678023477.027,-25.879,-34.668,-28.320,-43.457,-17.578
1678023477.030,-35.156,-39.551,-32.715,-32.715,205.078
1678023477.034,-48.828,-36.621,-41.992,-40.039,-39.062
1678023477.038,-39.551,-25.879,-33.203,-42.969,-159.180
1678023477.042,-27.832,-29.785,-29.785,-43.945,-42.969
1678023477.046,-34.668,-40.527,-31.250,-43.945,-84.473
1678023477.049,-34.668,-33.691,-28.320,-42.969,-136.719
1678023477.053,-42.480,-25.391,-22.949,-44.922,-109.863
1678023477.057,-53.223,-28.320,-19.043,-45.410,130.371
1678023477.061,-47.363,-23.926,-26.367,-42.480,250.488
1678023477.065,-56.641,-11.719,-35.645,-61.523,-40.527
1678023477.069,-68.359,-2.930,-20.508,-76.660,-110.352
1678023477.073,-84.961,17.578,-12.207,-83.984,176.270
1678023477.076,-122.070,28.809,-26.367,-115.723,208.008
1678023477.080,-142.090,41.504,-30.762,-147.949,-144.043
1678023477.084,-154.785,60.547,-35.156,-167.480,-191.406
1678023477.088,-177.246,65.430,-40.527,-184.570,-66.406
1678023477.092,-193.848,69.336,-41.016,-199.219,-73.242
1678023477.093,-198.242,73.242,-41.016,-207.520,-150.391
1678023477.097,-199.707,72.266,-31.250,-208.984,-165.527
1678023477.101,-201.172,71.777,-27.832,-219.727,-94.727
1678023477.105,-196.289,62.500,-31.738,-218.750,-73.242
1678023477.109,-199.707,59.082,-30.273,-213.867,-87.402
1678023477.113,-212.402,56.641,-28.809,-223.145,-66.895
1678023477.117,-211.914,43.457,-21.484,-215.332,224.609
1678023477.120,-203.125,48.828,-28.320,-210.938,121.094
1678023477.124,-183.594,61.523,-33.203,-201.172,-174.805
1678023477.128,-180.664,50.293,-33.691,-198.242,-171.875
1678023477.132,-184.570,41.016,-39.551,-199.707,-169.922
1678023477.136,-182.617,36.621,-44.434,-196.289,-177.734
1678023477.153,-169.922,34.180,-38.574,-191.406,-128.418
1678023477.157,-157.227,31.738,-29.785,-178.711,39.062
1678023477.161,-163.574,25.391,-32.715,-179.688,67.383
1678023477.165,-168.457,32.715,-32.715,-184.570,-110.840
1678023477.169,-148.926,33.203,-30.273,-166.016,-116.699
1678023477.173,-123.535,24.902,-35.156,-139.648,58.594
1678023477.177,-114.258,19.531,-41.504,-130.859,71.777
1678023477.180,-108.887,10.254,-44.922,-120.117,-47.852
1678023477.184,-99.121,7.324,-45.898,-97.656,-83.984
1678023477.188,-74.219,0.977,-48.828,-72.266,137.207
1678023477.192,-56.641,-14.160,-53.223,-54.199,248.047
1678023477.196,-39.551,-22.949,-56.641,-41.504,-78.613
1678023477.198,-11.719,-31.250,-55.176,-11.719,-143.555
1678023477.202,-4.395,-44.434,-47.363,9.766,-64.941
1678023477.206,6.348,-56.641,-43.945,13.672,-89.355
1678023477.210,18.066,-63.477,-45.898,27.344,-88.867
1678023477.214,24.902,-66.406,-45.898,30.273,-91.309
1678023477.218,25.391,-74.219,-45.410,19.531,19.043
1678023477.222,15.137,-80.566,-41.504,24.414,93.750
1678023477.225,17.090,-83.008,-41.992,31.738,-20.020
1678023477.229,30.762,-86.914,-41.992,30.273,-54.688
1678023477.233,40.527,-85.449,-36.621,45.410,333.008
1678023477.237,44.434,-82.520,-34.180,49.805,218.262
1678023477.241,40.527,-82.031,-37.109,41.992,-119.141
1678023477.243,36.621,-82.031,-38.574,42.480,-39.551
1678023477.247,39.062,-85.449,-39.551,41.504,28.320
1678023477.251,41.992,-83.496,-41.504,41.504,-117.188
1678023477.255,47.852,-78.613,-38.086,46.387,-193.359
1678023477.259,44.434,-81.055,-39.551,48.340,-35.645
1678023477.263,36.133,-81.055,-40.527,43.945,4.395
1678023477.267,38.574,-77.637,-40.527,45.898,-149.902
1678023477.270,46.875,-75.195,-41.016,46.875,-203.125
1678023477.274,48.828,-76.660,-38.574,59.570,2.930
1678023477.278,37.109,-76.172,-40.039,63.477,62.012
1678023477.282,23.926,-75.195,-41.504,47.363,-156.738
1678023477.286,34.180,-72.266,-41.992,46.387,-94.238
1678023477.288,42.969,-67.871,-41.016,49.805,20.508
1678023477.292,35.156,-66.895,-41.504,43.457,-101.562
1678023477.296,27.344,-64.941,-38.086,43.945,-160.645
1678023477.300,23.926,-63.965,-30.762,43.457,-129.395
1678023477.304,30.273,-66.895,-33.691,41.016,-94.727
1678023477.308,36.133,-67.871,-35.645,49.316,-54.688
1678023477.312,32.227,-67.383,-33.691,46.875,-61.523
1678023477.315,24.902,-62.012,-31.738,34.668,-61.035
1678023477.319,12.207,-59.570,-31.738,35.645,152.344
1678023477.323,3.418,-62.012,-37.598,29.297,20.996
1678023477.327,12.207,-61.523,-33.203,31.250,-181.152
1678023477.331,16.602,-62.988,-33.203,28.809,-100.098
1678023477.348,7.812,-64.453,-35.156,22.461,-81.055
1678023477.352,0.000,-65.918,-27.344,21.973,-44.922
1678023477.356,2.441,-66.406,-29.785,9.277,-0.488
1678023477.360,7.812,-66.406,-32.227,9.766,105.957
1678023477.364,7.324,-63.965,-30.273,18.066,233.887
1678023477.368,7.324,-61.035,-28.809,13.184,75.195
1678023477.372,1.465,-61.035,-26.855,8.301,-24.414
1678023477.375,-3.418,-61.523,-25.879,10.742,158.203
1678023477.379,-1.465,-57.617,-28.320,14.160,223.633
1678023477.383,0.000,-54.688,-30.273,6.348,-62.500
1678023477.387,0.000,-50.293,-27.832,2.930,-110.840
1678023477.391,-4.395,-49.805,-31.250,-0.977,-46.875
1678023477.378,-10.742,-52.734,-32.227,-9.277,-93.750
1678023477.382,-4.395,-46.387,-28.320,-4.395,-124.512
1678023477.386,12.695,-38.086,-24.902,1.953,-92.285
1678023477.390,10.742,-42.969,-28.320,-2.441,21.973
1678023477.394,-8.789,-48.340,-31.250,-8.789,-57.129
1678023477.398,-16.602,-48.340,-33.691,-12.207,-104.004
1678023477.402,-14.648,-48.340,-38.086,-8.301,46.387
1678023477.405,-7.812,-46.387,-33.203,-1.465,67.383
1678023477.409,-9.766,-44.434,-36.133,-2.930,-92.285
1678023477.413,-15.625,-43.457,-38.574,-4.395,-195.312
1678023477.417,-16.113,-37.598,-33.203,-4.883,-105.469
1678023477.421,-9.766,-35.156,-33.203,2.930,204.590
1678023477.423,-5.371,-41.016,-37.598,-5.859,44.922
1678023477.427,-8.301,-38.574,-35.645,-19.043,-76.660
1678023477.431,-20.020,-38.574,-33.691,-20.020,79.590
1678023477.435,-26.855,-43.945,-38.086,-19.043,51.758
1678023477.439,-27.344,-47.363,-39.062,-21.484,-86.426
1678023477.443,-17.578,-46.387,-31.250,-17.578,-161.133
1678023477.447,-12.207,-43.457,-30.273,-2.930,89.355
1678023477.450,-24.414,-42.969,-31.738,0.977,393.555
1678023477.454,-34.668,-36.621,-29.297,-13.184,-26.367
1678023477.458,-29.785,-31.738,-24.414,-8.789,-223.145
1678023477.462,-22.461,-34.668,-22.949,-6.348,-73.242
1678023477.466,-19.531,-37.109,-22.949,-17.090,-162.109
1678023477.468,-27.832,-41.016,-25.879,-26.367,-194.824
1678023477.472,-34.180,-42.480,-25.879,-24.414,-137.207
1678023477.476,-35.645,-42.969,-25.391,-28.320,-80.566
1678023477.480,-27.344,-44.922,-26.855,-34.668,-119.629
1678023477.484,-25.391,-41.992,-28.320,-30.762,-152.832
1678023477.488,-28.320,-38.086,-27.344,-24.902,27.832
1678023477.492,-32.715,-39.062,-27.344,-22.461,216.797
1678023477.495,-41.504,-36.621,-34.180,-34.180,33.203
1678023477.499,-34.668,-33.691,-36.133,-32.227,-125.977
1678023477.503,-26.367,-32.715,-32.715,-26.367,-38.086
1678023477.507,-31.738,-34.180,-30.762,-24.414,56.152
1678023477.511,-42.969,-35.645,-34.668,-28.320,-88.867
1678023477.528,-41.992,-30.273,-36.133,-40.039,-141.113
1678023477.532,-34.668,-36.133,-36.621,-41.992,84.473
1678023477.536,-29.297,-39.062,-41.992,-40.039,104.004
1678023477.540,-22.949,-34.180,-42.480,-26.855,-96.191
1678023477.544,-34.180,-36.621,-31.250,-23.926,-119.629
1678023477.548,-49.805,-32.715,-31.250,-34.180,17.090
1678023477.552,-40.039,-24.902,-37.109,-33.203,63.965
1678023477.555,-34.668,-27.832,-37.598,-35.645,-49.805
1678023477.559,-36.621,-29.297,-37.109,-32.715,-103.516
1678023477.563,-37.109,-28.809,-34.180,-26.855,79.590
1678023477.567,-34.180,-26.855,-36.621,-31.738,111.816
1678023477.571,-34.180,-26.855,-40.039,-39.551,-112.793
1678023477.561,-30.273,-31.738,-38.086,-36.621,-100.586
1678023477.565,-21.484,-30.762,-33.203,-23.926,17.578
1678023477.569,-27.832,-27.832,-33.203,-29.297,-131.836
1678023477.573,-37.109,-34.180,-31.738,-39.062,-259.277
1678023477.577,-30.273,-34.668,-30.273,-39.062,-200.195
1678023477.581,-28.320,-32.715,-31.738,-33.203,-44.922
1678023477.585,-33.203,-33.203,-30.273,-22.949,47.852
1678023477.588,-40.527,-33.203,-29.785,-32.715,-84.473
1678023477.592,-48.828,-36.621,-29.785,-38.086,-171.875
1678023477.596,-46.875,-39.551,-30.762,-27.344,124.023
1678023477.600,-41.504,-40.039,-32.715,-31.738,-17.090
1678023477.604,-39.062,-38.574,-36.621,-34.668,-193.848
1678023477.618,-38.086,-34.668,-34.668,-29.297,-88.867
1678023477.622,-39.551,-33.203,-28.320,-27.344,-104.492
1678023477.626,-38.086,-33.691,-24.902,-28.320,-112.305
1678023477.630,-31.250,-33.691,-24.902,-28.320,-193.359
1678023477.634,-25.879,-35.645,-27.344,-19.531,-40.527
1678023477.638,-35.156,-37.109,-31.250,-18.555,258.789
1678023477.642,-51.270,-35.645,-36.621,-36.133,13.184
1678023477.645,-43.945,-32.715,-37.109,-44.434,-204.590
1678023477.649,-32.227,-32.715,-27.832,-35.645,-4.395
1678023477.653,-38.086,-36.621,-27.832,-31.250,41.992
1678023477.657,-39.551,-36.133,-31.250,-37.109,-121.094
1678023477.661,-44.434,-34.668,-31.250,-40.039,-104.004
1678023477.664,-48.340,-34.180,-32.227,-36.621,-58.105
1678023477.668,-40.039,-34.180,-36.621,-37.109,-98.145
1678023477.672,-32.227,-33.691,-34.180,-33.691,-125.977
1678023477.676,-31.738,-38.086,-31.738,-29.297,-24.414
1678023477.680,-40.039,-46.875,-33.691,-25.391,22.949
1678023477.684,-43.457,-46.387,-33.203,-28.809,-101.562
1678023477.688,-40.039,-43.945,-28.809,-29.785,-134.277
1678023477.691,-37.109,-42.969,-29.785,-20.508,-97.656
1678023477.695,-33.691,-39.062,-34.668,-14.648,125.977
1678023477.699,-46.875,-35.156,-37.109,-27.832,1.465
1678023477.703,-51.758,-35.156,-41.992,-33.691,-199.219
1678023477.707,-40.527,-40.039,-39.062,-27.344,-152.832
1678023477.708,-38.086,-37.598,-32.715,-24.414,-90.332
1678023477.712,-42.969,-31.250,-32.227,-24.902,-55.664
1678023477.716,-52.246,-33.203,-30.273,-30.762,-116.211
1678023477.720,-52.246,-36.621,-25.391,-34.668,-17.578
1678023477.724,-41.992,-33.691,-31.250,-32.227,38.086
1678023477.728,-35.156,-31.738,-33.203,-31.250,-133.301
1678023477.732,-32.715,-31.738,-31.250,-33.691,-77.148
1678023477.735,-30.273,-32.715,-29.785,-27.344,164.551
1678023477.739,-28.809,-40.039,-28.809,-26.855,355.957
1678023477.743,-34.180,-31.738,-30.762,-36.621,78.613
1678023477.747,-33.203,-29.297,-34.180,-34.668,-138.184
1678023477.751,-28.320,-36.133,-39.551,-30.762,-82.031
1678023477.753,-35.645,-32.227,-33.691,-29.297,-123.047
1678023477.757,-43.945,-28.809,-30.273,-33.691,-139.648
1678023477.761,-43.945,-33.203,-30.762,-39.062,-89.355
1678023477.765,-37.598,-32.715,-26.855,-43.457,-102.051
1678023477.769,-38.086,-31.738,-26.855,-41.504,-91.797
1678023477.773,-44.922,-35.645,-27.344,-39.062,-18.066
1678023477.777,-45.410,-37.598,-23.926,-41.504,-6.836
1678023477.780,-44.434,-37.598,-25.879,-37.598,266.602
1678023477.784,-41.992,-34.180,-30.273,-43.945,149.902
1678023477.788,-41.016,-29.785,-33.203,-49.316,-202.637
1678023477.792,-43.457,-33.691,-30.762,-43.945,-94.727
1678023477.796,-47.363,-35.645,-28.320,-36.621,84.961
1678023477.798,-51.270,-33.691,-33.691,-39.551,-89.355
1678023477.802,-38.574,-34.668,-37.109,-41.992,-207.520
1678023477.806,-24.902,-33.691,-32.227,-33.203,-55.176
1678023477.810,-37.109,-30.273,-29.785,-25.391,49.805
1678023477.814,-47.852,-34.180,-33.203,-27.832,-80.566
1678023477.818,-41.504,-37.598,-32.715,-30.273,-78.125
1678023477.822,-26.855,-32.227,-30.273,-25.391,153.809
1678023477.825,-24.414,-29.297,-29.785,-20.508,152.832
1678023477.829,-31.250,-31.738,-28.809,-28.320,-136.719
1678023477.833,-38.086,-35.156,-28.320,-31.250,-110.840
1678023477.837,-38.086,-34.180,-23.926,-32.227,34.180
1678023477.841,-31.250,-31.738,-23.438,-36.621,-90.820
1678023477.843,-28.809,-30.762,-28.809,-35.645,-222.656
1678023477.847,-24.414,-31.250,-27.344,-28.320,-183.594
1678023477.851,-25.879,-34.180,-22.949,-22.461,-93.750
1678023477.855,-31.738,-33.691,-24.902,-30.762,-87.402
1678023477.859,-26.855,-33.203,-29.297,-36.133,-155.762
1678023477.863,-20.508,-34.180,-27.832,-28.809,-29.297
1678023477.867,-20.996,-31.250,-23.926,-21.973,198.730
1678023477.870,-29.297,-27.832,-23.438,-32.227,19.531
1678023477.874,-35.156,-28.320,-24.902,-41.016,-150.391
1678023477.878,-32.227,-28.320,-21.484,-34.180,-45.410
1678023477.882,-28.320,-33.203,-20.508,-27.344,50.293
1678023477.886,-30.273,-37.109,-27.344,-32.227,-23.926
1678023477.889,-39.062,-35.156,-25.879,-41.504,-86.914
1678023477.893,-43.457,-43.457,-21.973,-38.086,96.680
1678023477.897,-34.180,-49.805,-27.832,-35.156,288.086
1678023477.901,-33.203,-37.109,-29.785,-45.410,-14.648
1678023477.905,-39.062,-32.227,-25.879,-42.969,-182.617
1678023477.909,-40.527,-39.062,-22.949,-45.410,-41.016
1678023477.913,-47.363,-41.016,-25.879,-50.293,-15.625
1678023477.916,-53.711,-39.551,-29.785,-56.641,-109.375
1678023477.920,-44.434,-40.527,-29.297,-55.664,-161.621
1678023477.924,-35.645,-43.945,-24.902,-40.039,6.836
1678023477.928,-44.434,-42.969,-27.832,-49.316,3.418
1678023477.932,-55.176,-42.969,-33.691,-65.918,-201.172
1678023477.949,-49.316,-41.992,-33.203,-62.012,-183.594
1678023477.953,-38.574,-37.109,-33.203,-58.594,-92.773
1678023477.957,-34.180,-36.621,-28.809,-54.199,-20.020
1678023477.961,-43.945,-42.969,-30.273,-55.664,-31.738
1678023477.965,-52.246,-43.457,-34.180,-53.223,-23.438
1678023477.969,-40.527,-43.945,-30.762,-38.086,335.938
1678023477.973,-34.668,-41.016,-28.320,-41.992,109.375
1678023477.976,-33.203,-36.621,-27.344,-46.387,-201.660
1678023477.980,-32.715,-38.086,-24.902,-34.668,-65.430
1678023477.984,-41.016,-40.527,-24.414,-28.320,20.508
1678023477.988,-48.340,-41.992,-30.273,-34.668,-95.703
1678023477.992,-39.551,-40.527,-31.738,-31.738,-168.457
1678023477.993,-21.973,-34.180,-28.809,-16.113,9.277
1678023477.997,-19.043,-36.133,-26.367,-11.719,154.785
1678023478.001,-26.855,-43.457,-20.996,-13.184,-95.215
1678023478.005,-35.156,-31.250,-27.832,-22.461,-191.895
1678023478.009,-30.273,-20.996,-26.855,-25.879,-43.945
1678023478.013,-15.137,-23.438,-18.066,-18.066,27.832
1678023478.017,-22.949,-11.719,-13.672,-25.879,45.410
1678023478.020,-49.805,4.883,-22.949,-46.875,54.688
1678023478.024,-73.242,7.812,-33.691,-70.312,117.676
1678023478.028,-103.516,15.137,-35.645,-96.680,284.668
1678023478.032,-139.648,40.039,-32.227,-141.602,-18.555
1678023478.036,-164.551,52.734,-29.785,-174.805,-177.246
1678023478.038,-187.988,55.176,-25.879,-186.523,-78.613
1678023478.042,-204.102,59.082,-22.461,-201.660,-124.512
1678023478.046,-192.383,63.965,-17.578,-200.684,-176.270
1678023478.050,-184.082,66.406,-16.113,-190.918,-167.480
1678023478.054,-181.152,63.477,-24.902,-187.012,-136.230
1678023478.058,-181.641,51.758,-28.809,-181.152,-92.773
1678023478.062,-183.594,42.480,-28.320,-183.105,-61.523
1678023478.065,-184.570,42.969,-28.809,-189.941,0.000
1678023478.069,-172.852,42.480,-28.320,-168.945,263.672
1678023478.073,-166.504,42.480,-24.414,-162.109,189.453
1678023478.077,-171.387,41.016,-20.508,-170.898,-165.527
1678023478.081,-157.227,35.645,-21.484,-159.180,-188.477
1678023478.083,-136.719,28.320,-25.391,-142.578,-166.504
1678023478.087,-124.023,15.137,-25.391,-131.836,-183.105
1678023478.091,-117.188,3.906,-29.785,-117.188,-132.324
1678023478.095,-104.492,-10.742,-36.621,-93.262,-29.297
1678023478.099,-96.191,-26.367,-41.504,-90.820,1.953
1678023478.103,-68.848,-33.203,-45.410,-72.754,-105.957
1678023478.107,-28.809,-40.527,-45.898,-41.016,-54.688
1678023478.110,-18.555,-51.758,-44.434,-17.090,129.883
1678023478.114,-15.137,-53.223,-41.992,1.465,111.328
1678023478.118,-16.113,-57.617,-41.992,-4.883,-83.496
1678023478.122,-11.719,-65.430,-42.480,-5.371,-28.320
1678023478.126,-1.953,-66.895,-41.016,2.441,107.422
1678023478.128,-6.836,-71.777,-47.363,2.441,-50.781
1678023478.132,-3.418,-70.312,-46.387,8.301,-201.660
1678023478.136,0.977,-68.359,-39.551,8.301,-118.164
1678023478.140,2.441,-67.871,-34.668,8.301,-70.801
1678023478.144,13.184,-63.965,-32.715,19.531,-110.352
1678023478.148,15.625,-66.406,-40.527,28.320,-149.414
1678023478.152,13.184,-67.871,-36.133,35.645,-25.391
1678023478.155,11.719,-66.895,-32.227,38.574,254.395
1678023478.159,9.766,-66.406,-34.668,25.879,45.898
1678023478.163,23.438,-61.523,-30.762,25.879,-174.805
1678023478.167,34.668,-59.082,-34.180,33.203,-109.375
1678023478.171,37.598,-61.035,-37.109,41.504,-127.930
1678023478.173,32.715,-63.965,-38.086,46.387,-102.051
1678023478.177,28.809,-65.430,-40.527,34.180,-45.410
1678023478.181,40.527,-63.477,-35.156,39.062,16.602
1678023478.185,49.316,-60.547,-32.227,54.688,123.047
1678023478.189,42.969,-61.523,-38.086,46.387,-120.117
1678023478.193,35.156,-64.453,-33.203,37.109,-126.465
1678023478.197,43.945,-62.012,-29.785,43.457,209.961
1678023478.200,47.852,-58.105,-35.645,40.039,148.438
1678023478.204,49.805,-51.270,-35.645,33.203,-181.152
1678023478.208,50.293,-48.340,-28.320,36.133,-146.973
1678023478.212,33.203,-54.688,-26.367,31.738,-39.551
1678023478.216,14.648,-56.152,-27.832,15.625,-121.094
1678023478.219,13.672,-54.199,-28.320,11.230,-171.387
1678023478.223,16.602,-55.664,-30.762,20.996,-118.164
1678023478.227,15.137,-55.664,-29.297,23.438,28.809
1678023478.231,7.324,-54.199,-30.273,11.230,-28.320
1678023478.235,-2.930,-53.711,-31.250,4.883,-145.996
1678023478.239,6.348,-50.781,-27.832,6.348,-66.895
1678023478.243,9.277,-54.688,-30.762,8.301,250.488
1678023478.246,-6.348,-54.688,-36.133,-1.465,122.070
