timestamps,TP9,AF7,AF8,TP10,Right AUX
1678023700.205,-172.852,7.812,8.789,-167.480,-180.176
1678023700.209,-166.504,-7.324,11.230,-154.785,-126.465
1678023700.213,-144.043,-14.648,8.789,-131.348,-91.309
1678023700.217,-108.887,-20.996,3.418,-115.723,-60.059
1678023700.221,-92.285,-23.438,-7.812,-108.398,-97.656
1678023700.225,-87.402,-29.785,-20.508,-92.285,41.992
1678023700.229,-69.824,-43.945,-21.484,-61.035,453.613
1678023700.232,-54.688,-44.434,-21.484,-51.758,281.738
1678023700.236,-41.016,-40.527,-32.227,-51.270,-122.070
1678023700.240,-20.996,-49.805,-36.133,-27.832,-19.531
1678023700.244,-18.066,-52.246,-41.504,-16.113,-20.020
1678023700.248,-22.949,-51.758,-43.945,-21.973,-95.215
1678023700.248,-22.949,-51.758,-43.945,-21.973,-95.215
1678023700.252,-20.508,-53.711,-41.016,-20.996,-89.355
1678023700.256,-1.953,-47.363,-40.527,-4.883,-130.859
1678023700.260,15.137,-47.363,-42.480,5.859,-104.004
1678023700.264,15.625,-51.758,-47.852,5.859,-121.582
1678023700.268,7.812,-52.734,-45.410,5.371,-108.887
1678023700.272,10.254,-51.758,-43.945,4.883,0.977
1678023700.276,16.602,-54.688,-51.270,6.836,-13.184
1678023700.279,22.461,-57.129,-57.129,13.672,37.598
1678023700.283,28.809,-53.223,-51.758,21.973,22.949
1678023700.287,27.832,-51.758,-47.852,22.949,180.664
1678023700.291,21.973,-51.758,-52.734,5.371,187.988
1678023700.295,26.855,-51.270,-55.664,-4.395,-140.625
1678023700.310,29.785,-56.152,-53.711,5.859,-57.129
1678023700.314,28.320,-56.152,-50.293,15.137,13.184
1678023700.318,22.949,-51.758,-52.734,20.020,-131.836
1678023700.322,20.996,-51.270,-54.199,14.160,-145.020
1678023700.326,27.832,-49.805,-52.246,19.531,-76.172
1678023700.330,37.598,-51.270,-54.199,35.156,222.656
1678023700.334,35.156,-51.270,-56.641,26.367,181.152
1678023700.337,18.066,-48.828,-54.688,17.090,-203.613
1678023700.341,20.020,-52.246,-51.758,21.973,-143.066
1678023700.345,29.297,-52.734,-50.781,27.832,-4.883
1678023700.349,19.531,-49.316,-56.641,15.137,-146.484
1678023700.353,19.531,-48.828,-56.641,11.719,-235.840
1678023700.355,20.020,-49.316,-53.223,23.926,-41.992
1678023700.359,15.625,-46.875,-52.734,16.602,-31.250
1678023700.363,16.602,-44.922,-52.246,5.859,-180.664
1678023700.367,20.996,-44.434,-54.199,17.090,-92.773
1678023700.371,23.438,-44.434,-50.293,28.320,-64.941
1678023700.375,19.043,-44.434,-45.410,26.855,-91.797
1678023700.379,10.742,-44.434,-47.363,12.207,-74.219
1678023700.382,5.371,-41.992,-45.410,10.254,-124.023
1678023700.386,17.578,-39.062,-40.039,24.902,79.102
1678023700.390,24.414,-38.574,-41.504,21.484,99.121
1678023700.394,16.602,-35.645,-41.504,14.160,-167.969
1678023700.398,8.789,-38.574,-42.480,10.742,-139.648
1678023700.400,11.230,-41.504,-44.922,3.418,-88.379
1678023700.404,17.090,-38.574,-44.922,-0.488,-146.973
1678023700.408,13.672,-38.574,-41.992,0.488,-209.473
1678023700.412,12.207,-40.527,-37.598,2.441,-54.199
1678023700.416,4.395,-41.992,-39.551,2.930,183.105
1678023700.420,0.977,-44.434,-42.969,-4.883,56.152
1678023700.424,-1.465,-43.457,-44.434,-11.719,-71.289
1678023700.427,0.977,-43.945,-43.945,0.488,20.508
1678023700.431,-0.488,-45.898,-43.457,3.906,97.656
1678023700.435,-12.207,-43.945,-43.945,-9.766,-79.102
1678023700.439,-11.719,-44.434,-40.527,-10.742,-133.301
1678023700.443,-7.324,-44.922,-40.039,-4.395,-66.406
1678023700.448,-5.371,-43.457,-44.922,-8.301,-71.777
1678023700.452,-15.625,-39.062,-43.945,-6.348,-93.750
1678023700.456,-22.949,-38.574,-40.527,0.000,-54.199
1678023700.460,-18.555,-38.574,-43.457,-13.184,3.906
1678023700.464,-20.020,-35.156,-46.875,-20.996,-45.410
1678023700.468,-20.020,-35.156,-43.945,-14.160,-47.852
1678023700.472,-16.113,-32.715,-40.039,-14.160,11.719
1678023700.475,-14.160,-29.297,-39.062,-8.789,83.008
1678023700.479,-17.090,-35.645,-37.109,-7.324,17.090
1678023700.483,-10.742,-37.109,-41.504,-15.625,-158.203
1678023700.487,-4.883,-35.645,-43.457,-9.766,-109.863
1678023700.491,-11.230,-36.133,-43.945,-7.812,8.789
1678023700.490,-14.648,-36.133,-51.270,-19.043,-67.871
1678023700.494,-14.160,-37.598,-50.781,-25.879,-193.359
1678023700.498,-9.766,-36.133,-48.340,-24.414,-136.230
1678023700.502,-10.742,-34.668,-43.945,-18.555,-52.734
1678023700.506,-9.277,-32.227,-40.039,-10.742,-54.199
1678023700.510,-9.766,-33.691,-39.551,-9.277,-30.762
1678023700.514,-11.719,-36.133,-38.574,-11.719,43.945
1678023700.517,-4.883,-34.668,-40.527,-2.441,279.785
1678023700.521,-0.977,-32.715,-44.434,-4.883,223.633
1678023700.525,-8.789,-27.344,-43.945,-22.461,-83.496
1678023700.529,-19.043,-23.926,-38.086,-20.508,-170.410
1678023700.533,-22.949,-27.832,-34.668,-21.973,-77.148
1678023700.536,-20.020,-32.715,-38.086,-30.762,-62.500
1678023700.540,-17.090,-30.273,-38.086,-23.438,-70.801
1678023700.544,-18.555,-29.297,-35.645,-14.160,-10.742
1678023700.548,-23.438,-31.738,-34.668,-17.090,-66.406
1678023700.552,-31.738,-32.227,-36.133,-29.297,-98.145
1678023700.556,-29.785,-28.320,-43.945,-37.109,1.465
1678023700.560,-21.973,-30.273,-44.434,-19.043,266.602
1678023700.563,-20.020,-34.180,-42.480,-1.953,263.184
1678023700.567,-33.691,-30.762,-43.945,-19.043,-98.633
1678023700.571,-43.457,-29.297,-42.480,-36.621,-155.273
1678023700.575,-41.016,-28.320,-43.945,-40.527,-97.656
1678023700.579,-32.715,-27.344,-50.781,-38.086,-133.301
1678023700.580,-30.273,-30.273,-49.316,-37.109,-219.727
1678023700.584,-39.062,-35.645,-40.527,-39.551,-108.887
1678023700.588,-42.969,-33.691,-43.457,-40.039,8.789
1678023700.592,-39.551,-35.645,-43.457,-40.039,-96.191
1678023700.596,-35.645,-41.504,-39.551,-40.527,-85.938
1678023700.600,-23.438,-33.691,-42.480,-25.391,86.914
1678023700.604,-20.996,-33.691,-42.480,-15.625,409.180
1678023700.607,-37.598,-37.109,-43.945,-29.785,172.852
1678023700.611,-33.203,-34.180,-45.898,-37.598,-217.773
1678023700.615,-24.902,-35.645,-44.922,-38.574,-1.465
1678023700.619,-27.832,-31.250,-43.945,-32.227,16.113
1678023700.623,-25.391,-27.832,-44.434,-28.320,-189.941
1678023700.627,-28.320,-28.320,-39.551,-29.785,-232.422
1678023700.631,-33.203,-29.297,-37.109,-33.203,-166.992
1678023700.635,-30.273,-29.297,-39.551,-36.133,-99.121
1678023700.639,-29.297,-28.809,-42.969,-33.691,-107.910
1678023700.643,-29.785,-30.762,-39.062,-29.297,-96.191
1678023700.647,-35.645,-33.203,-36.133,-27.832,-14.160
1678023700.651,-36.133,-29.297,-42.480,-31.738,21.484
1678023700.654,-28.320,-25.391,-43.945,-31.738,-88.867
1678023700.658,-25.879,-24.414,-38.574,-30.273,-91.797
1678023700.662,-24.902,-28.809,-37.109,-22.461,105.957
1678023700.666,-34.668,-31.738,-40.527,-25.391,19.531
1678023700.670,-36.133,-26.367,-39.551,-36.133,-135.254
1678023700.685,-26.855,-25.879,-40.039,-39.062,21.973
1678023700.689,-23.926,-21.973,-39.551,-32.227,9.766
1678023700.693,-28.809,-22.461,-43.457,-25.879,-143.066
1678023700.697,-33.203,-29.785,-41.504,-24.902,-123.535
1678023700.701,-32.715,-28.809,-37.598,-25.391,44.922
1678023700.705,-31.738,-27.832,-34.668,-28.320,191.406
1678023700.709,-32.715,-32.715,-35.156,-31.738,92.285
1678023700.712,-31.738,-34.668,-37.109,-33.691,-89.355
1678023700.716,-34.180,-32.715,-32.227,-27.344,-23.438
1678023700.720,-38.086,-37.109,-33.203,-25.879,87.402
1678023700.724,-42.969,-39.551,-36.621,-33.691,-128.906
1678023700.728,-34.180,-35.156,-38.574,-29.297,-186.035
1678023700.732,-32.227,-32.227,-38.086,-22.461,-86.914
1678023700.736,-38.086,-30.273,-36.621,-21.973,-7.812
1678023700.740,-31.738,-29.297,-34.668,-25.879,-22.949
1678023700.744,-30.762,-33.203,-32.227,-33.203,-80.566
1678023700.748,-15.137,-27.832,-45.410,-22.949,-45.898
1678023700.752,0.000,-33.691,-43.457,-2.930,28.809
1678023700.756,-30.273,-36.621,-30.762,-25.391,-33.203
1678023700.759,-63.965,-27.832,-26.367,-59.082,-109.863
1678023700.763,-59.082,-36.133,-23.438,-57.129,98.145
1678023700.767,-63.477,-45.410,-20.996,-59.082,69.824
1678023700.771,-78.613,-44.434,-18.066,-64.941,-158.691
1678023700.775,-79.102,-45.898,-8.301,-63.477,-35.156
1678023700.775,-102.051,-55.664,-4.395,-81.543,-23.438
1678023700.779,-115.234,-63.965,-2.930,-87.891,-154.297
1678023700.783,-111.816,-65.918,2.441,-87.402,-257.324
1678023700.787,-110.840,-70.312,5.859,-86.914,-40.527
1678023700.791,-116.699,-68.359,8.301,-83.984,114.258
1678023700.795,-126.953,-62.988,12.695,-81.543,-72.266
1678023700.799,-119.629,-66.406,15.137,-81.543,-111.328
1678023700.802,-111.328,-69.824,19.531,-77.637,-34.180
1678023700.806,-106.934,-70.801,23.926,-64.941,257.812
1678023700.810,-106.934,-68.848,19.531,-73.730,188.477
1678023700.814,-104.980,-67.871,18.555,-83.496,-85.938
1678023700.818,-99.609,-70.801,24.414,-80.078,-119.629
1678023700.825,-95.703,-67.871,29.785,-77.148,-131.348
1678023700.829,-95.215,-70.312,26.367,-64.453,-148.926
1678023700.833,-91.797,-75.195,28.320,-52.246,-98.633
1678023700.837,-93.262,-73.730,29.297,-53.223,-66.895
1678023700.841,-91.309,-69.824,27.832,-56.152,-80.078
1678023700.845,-76.660,-73.242,23.438,-45.898,-88.867
1678023700.849,-65.918,-78.613,19.531,-39.062,-28.809
1678023700.852,-62.988,-75.684,18.066,-27.832,288.086
1678023700.856,-71.289,-75.195,9.277,-27.832,259.277
1678023700.860,-69.336,-74.219,1.953,-47.852,-102.539
1678023700.864,-53.223,-68.359,1.465,-38.574,-155.273
1678023700.868,-47.852,-62.988,-0.977,-27.344,-117.188
1678023700.865,-52.246,-59.570,-0.977,-31.250,-93.750
1678023700.869,-48.340,-59.082,2.441,-22.949,-117.676
1678023700.873,-48.340,-56.152,-1.953,-17.578,-52.246
1678023700.877,-41.992,-55.176,-5.859,-28.809,-11.719
1678023700.881,-32.227,-54.688,-5.371,-27.344,-98.145
1678023700.885,-35.156,-46.387,-8.301,-23.926,-81.055
1678023700.889,-40.527,-45.898,-10.254,-27.832,45.410
1678023700.892,-44.434,-51.758,-14.160,-12.695,294.922
1678023700.896,-45.410,-47.852,-18.066,-20.996,122.070
1678023700.900,-38.086,-40.527,-19.043,-30.273,-151.367
1678023700.904,-30.762,-44.922,-19.531,-17.578,-9.277
1678023700.908,-35.645,-49.316,-21.484,-18.066,22.461
1678023700.911,-45.410,-46.387,-20.020,-33.691,-139.160
1678023700.915,-46.875,-46.875,-17.090,-36.133,-160.156
1678023700.919,-39.551,-45.410,-21.973,-33.203,-94.727
1678023700.923,-28.809,-37.109,-24.902,-32.227,-134.277
1678023700.927,-32.227,-33.691,-22.461,-28.320,-169.434
1678023700.931,-39.062,-35.645,-18.555,-26.855,-125.488
1678023700.935,-32.227,-37.598,-18.066,-25.391,173.340
1678023700.938,-32.227,-41.504,-26.367,-23.926,180.176
1678023700.942,-31.250,-38.086,-30.762,-24.902,-119.629
1678023700.946,-33.691,-40.039,-30.273,-26.855,-100.098
1678023700.950,-40.039,-45.410,-29.297,-31.738,-13.672
1678023700.954,-38.086,-41.504,-33.691,-35.156,-49.805
1678023700.956,-41.504,-41.016,-41.016,-39.062,-123.047
1678023700.960,-33.691,-41.992,-38.574,-42.480,-23.926
1678023700.964,-31.250,-38.086,-37.598,-38.574,28.809
1678023700.968,-39.551,-36.621,-37.598,-36.621,-65.430
1678023700.972,-33.691,-32.715,-32.715,-30.762,-126.953
1678023700.976,-22.461,-30.273,-30.762,-26.367,1.465
1678023700.980,-25.391,-36.621,-35.156,-17.090,392.090
1678023700.983,-37.109,-34.668,-33.691,-20.020,229.980
1678023700.987,-38.086,-34.180,-32.715,-38.086,-146.973
1678023700.991,-28.320,-37.109,-32.227,-38.086,-106.445
1678023700.995,-28.809,-39.062,-26.855,-36.621,-83.008
1678023700.999,-29.785,-35.645,-24.902,-40.039,-139.160
1678023701.016,-23.438,-30.762,-25.879,-38.086,-141.602
1678023701.020,-28.320,-36.621,-26.855,-35.645,-16.602
1678023701.024,-33.691,-43.457,-28.320,-36.621,28.320
1678023701.028,-32.227,-41.016,-29.297,-39.551,-62.500
1678023701.032,-24.902,-36.621,-29.785,-39.551,-104.492
1678023701.036,-18.066,-34.180,-26.855,-15.625,104.492
1678023701.040,-23.438,-36.133,-29.297,-17.578,273.438
1678023701.043,-26.367,-34.180,-34.180,-41.504,-85.449
1678023701.047,-25.879,-27.832,-32.715,-41.504,-168.945
1678023701.051,-21.484,-33.203,-32.715,-30.762,22.949
1678023701.055,-20.996,-34.668,-32.715,-20.996,-126.953
1678023701.059,-30.762,-29.785,-32.715,-25.391,-221.680
1678023701.060,-32.715,-27.344,-33.203,-27.344,-119.629
1678023701.064,-24.414,-29.297,-33.691,-23.438,-169.434
1678023701.068,-24.414,-31.738,-39.062,-24.902,-254.883
1678023701.072,-30.762,-33.691,-41.016,-27.344,-161.621
1678023701.076,-29.785,-36.133,-36.133,-17.090,40.527
1678023701.080,-30.762,-37.598,-35.645,-22.949,161.621
1678023701.084,-38.574,-34.668,-44.922,-29.297,20.996
1678023701.087,-33.203,-32.715,-47.852,-29.297,-196.289
1678023701.091,-25.879,-40.527,-44.922,-34.668,-78.125
1678023701.095,-34.668,-48.340,-43.457,-32.227,95.215
1678023701.099,-51.758,-51.270,-47.363,-47.363,-118.164
1678023701.103,-48.340,-45.410,-46.387,-50.293,-235.840
1678023701.105,-35.645,-41.016,-40.039,-31.738,-11.719
1678023701.109,-38.086,-41.016,-34.668,-29.785,78.613
1678023701.113,-51.270,-39.062,-36.133,-43.945,-189.453
1678023701.117,-54.199,-39.062,-39.062,-44.434,-202.637
1678023701.121,-45.410,-41.992,-40.039,-42.969,-108.398
1678023701.125,-35.156,-43.945,-41.016,-42.969,24.902
1678023701.129,-36.621,-45.410,-36.621,-42.480,47.363
1678023701.132,-42.480,-47.852,-28.320,-40.527,-22.461
1678023701.136,-46.875,-42.969,-24.414,-36.621,143.555
1678023701.140,-39.551,-40.527,-14.648,-34.668,196.777
1678023701.144,-34.180,-35.645,-16.113,-43.457,-108.887
1678023701.148,-35.645,-29.297,-25.391,-41.992,-115.723
1678023701.150,-47.363,-33.691,-17.578,-46.387,-65.918
1678023701.154,-61.035,-30.273,-3.906,-59.570,-103.516
1678023701.158,-71.777,-16.113,4.395,-76.172,-224.121
1678023701.162,-104.004,-15.625,4.883,-101.562,-184.570
1678023701.166,-131.836,-28.809,14.160,-115.723,18.555
1678023701.170,-147.461,-23.926,15.625,-128.418,-70.312
1678023701.174,-176.270,12.207,18.066,-170.410,-100.098
1678023701.177,-211.914,33.203,27.832,-207.520,-14.648
1678023701.181,-235.352,28.809,22.949,-217.773,299.805
1678023701.185,-236.816,40.527,15.625,-229.492,231.445
1678023701.189,-240.723,53.711,12.695,-238.770,-81.055
1678023701.193,-260.742,45.410,11.719,-259.766,-119.629
1678023701.197,-251.465,39.551,13.184,-259.766,-105.957
1678023701.201,-226.562,48.828,13.672,-240.723,-171.387
1678023701.205,-218.262,58.105,-4.883,-230.957,-159.668
1678023701.209,-215.332,48.340,-6.348,-218.262,-13.672
1678023701.213,-210.938,38.574,-5.859,-219.727,-31.250
1678023701.217,-203.125,42.480,-19.531,-216.309,-86.426
1678023701.221,-201.172,44.434,-23.926,-208.984,-27.344
1678023701.224,-196.289,47.363,-23.926,-208.984,189.941
1678023701.228,-185.059,55.176,-30.762,-206.055,111.816
1678023701.232,-177.734,53.711,-35.156,-196.289,-145.508
1678023701.236,-171.387,44.922,-34.180,-190.430,-20.996
1678023701.240,-169.434,32.227,-34.668,-189.941,24.414
1678023701.240,-155.273,20.508,-34.668,-170.410,-91.309
1678023701.244,-127.930,26.855,-35.156,-138.672,-121.094
1678023701.248,-118.164,23.438,-37.109,-125.977,-68.359
1678023701.252,-101.074,19.043,-43.457,-113.770,79.590
1678023701.256,-79.590,18.066,-46.387,-106.934,37.109
1678023701.260,-73.730,7.812,-43.945,-104.004,-29.297
1678023701.264,-64.453,-9.766,-42.480,-77.637,57.617
1678023701.267,-59.082,-15.625,-48.828,-60.547,310.547
1678023701.271,-59.082,-11.719,-63.477,-70.312,202.148
1678023701.275,-37.109,-21.484,-63.477,-67.383,-103.027
1678023701.279,-33.203,-35.156,-60.059,-62.988,-102.051
1678023701.283,-17.090,-37.598,-59.570,-37.109,-118.164
1678023701.288,1.953,-31.250,-64.941,-7.324,-150.391
1678023701.292,2.441,-33.691,-72.754,-5.371,-61.523
1678023701.296,13.184,-43.457,-66.406,2.930,23.438
1678023701.300,22.949,-43.457,-69.824,7.324,-2.930
1678023701.304,44.922,-42.969,-75.195,18.555,-29.785
1678023701.308,41.016,-48.828,-71.289,26.367,-45.898
1678023701.312,45.898,-43.945,-70.801,38.086,195.312
1678023701.315,59.082,-47.852,-73.242,46.875,200.195
1678023701.319,52.734,-56.641,-76.660,40.039,-130.859
1678023701.323,53.711,-57.617,-74.219,45.898,-95.215
1678023701.327,57.617,-57.617,-71.777,52.734,-27.832
1678023701.331,61.523,-55.176,-71.777,57.617,-89.844
1678023701.330,64.453,-53.223,-72.266,51.758,-141.113
1678023701.334,72.266,-54.199,-70.312,53.223,-44.922
1678023701.338,80.078,-56.152,-70.312,65.430,32.715
1678023701.342,82.031,-56.152,-74.219,58.594,10.742
1678023701.346,70.312,-61.523,-71.777,49.805,-30.273
1678023701.350,60.547,-66.895,-67.383,55.664,-1.465
1678023701.354,67.383,-65.430,-66.406,69.336,334.473
1678023701.357,67.871,-60.547,-64.453,60.547,291.992
1678023701.361,63.965,-55.176,-59.570,54.688,-49.805
1678023701.365,65.918,-55.664,-56.641,63.965,-4.395
1678023701.369,71.289,-61.523,-60.547,60.059,-52.734
1678023701.373,72.266,-60.059,-62.500,56.152,-204.590
1678023701.391,72.266,-57.129,-57.617,58.594,-167.480
1678023701.395,71.777,-57.129,-54.199,60.547,-54.199
1678023701.399,67.871,-54.688,-52.734,58.105,-37.598
1678023701.403,65.430,-55.664,-53.711,50.781,-142.090
1678023701.407,62.500,-54.199,-52.734,47.852,-76.660
1678023701.411,65.918,-51.758,-53.711,49.316,46.875
1678023701.415,61.035,-53.223,-59.082,48.340,-5.371
1678023701.418,51.758,-54.688,-56.152,47.363,22.461
1678023701.422,48.340,-52.734,-52.246,40.527,-50.781
1678023701.426,44.434,-53.223,-50.293,39.551,98.633
1678023701.430,38.086,-52.246,-50.293,40.039,167.480
1678023701.434,33.203,-53.711,-52.734,29.297,-122.070
1678023701.435,31.250,-52.734,-48.828,25.391,-119.629
1678023701.439,20.020,-54.688,-48.828,17.090,-90.820
1678023701.443,17.578,-57.617,-46.875,12.695,-143.555
1678023701.447,24.414,-52.246,-45.410,12.207,-142.090
1678023701.451,23.926,-51.758,-47.852,13.672,-28.809
1678023701.455,14.160,-54.688,-47.363,14.648,39.551
1678023701.459,8.301,-47.852,-45.410,10.254,-89.844
1678023701.462,11.719,-42.969,-42.480,12.207,-149.902
1678023701.466,14.160,-45.410,-38.086,6.348,50.293
1678023701.470,6.836,-47.852,-39.551,11.719,354.004
1678023701.474,-2.441,-47.363,-41.504,12.207,205.078
1678023701.478,-1.465,-44.922,-40.527,0.977,-89.844
1678023701.480,0.488,-47.363,-39.551,-6.836,-101.074
1678023701.484,-0.488,-50.293,-41.992,-4.395,-109.375
1678023701.488,4.395,-49.316,-40.527,2.441,-143.555
1678023701.492,1.953,-48.340,-40.527,0.488,-85.938
1678023701.496,-5.859,-48.828,-43.945,-3.906,-84.473
1678023701.500,-4.395,-47.363,-41.016,-9.766,-106.445
1678023701.504,1.465,-41.504,-37.598,-14.160,-62.012
1678023701.507,5.371,-39.551,-39.062,-9.277,-95.215
1678023701.511,-1.953,-43.457,-36.621,4.395,131.836
1678023701.515,-20.020,-45.898,-38.574,-4.395,93.262
1678023701.519,-21.484,-42.969,-39.062,-19.043,-142.090
1678023701.523,-18.066,-43.457,-33.691,-17.578,-66.406
1678023701.525,-12.207,-47.852,-35.645,-15.625,9.766
1678023701.529,-13.672,-43.457,-33.691,-3.418,-41.016
1678023701.533,-19.043,-38.574,-28.320,-7.324,-194.824
1678023701.537,-11.230,-39.551,-29.297,-17.090,-53.223
1678023701.541,-10.254,-36.621,-30.273,-16.602,106.934
1678023701.545,-14.648,-32.227,-32.227,-19.043,-29.785
1678023701.549,-10.742,-31.738,-30.273,-11.719,-34.180
1678023701.552,-14.160,-34.668,-28.320,-9.277,46.875
1678023701.556,-11.719,-33.203,-31.250,-9.277,195.312
1678023701.560,-5.859,-28.320,-35.156,-12.695,-32.715
1678023701.564,-4.883,-30.762,-31.738,-16.602,-197.754
1678023701.568,-16.602,-38.086,-30.273,-19.043,-99.609
1678023701.573,-28.809,-39.062,-35.645,-17.090,-60.059
1678023701.577,-27.344,-39.551,-32.715,-15.625,-73.242
1678023701.581,-26.367,-42.969,-34.180,-18.555,-133.789
1678023701.585,-25.879,-42.480,-37.109,-16.602,-69.336
1678023701.589,-23.438,-41.992,-33.691,-9.277,-46.387
1678023701.593,-28.809,-41.992,-30.273,-14.648,-82.520
1678023701.597,-30.762,-40.527,-26.855,-14.160,-93.262
1678023701.600,-30.273,-42.969,-27.832,-4.883,97.656
1678023701.604,-28.320,-41.504,-30.762,-8.789,101.562
1678023701.608,-17.578,-32.715,-27.832,-11.230,-142.578
1678023701.612,-14.160,-34.668,-21.973,-5.859,-92.773
1678023701.616,-14.648,-40.039,-28.809,-13.184,7.812
1678023701.615,-13.672,-34.668,-30.762,-23.926,-77.637
1678023701.619,-9.766,-30.273,-24.902,-17.578,-126.465
1678023701.623,-6.836,-30.273,-23.438,-4.883,-69.824
1678023701.627,-18.066,-33.203,-27.344,-8.789,33.203
1678023701.631,-23.438,-33.203,-27.344,-16.602,-13.672
1678023701.635,-14.648,-31.738,-24.902,-16.602,-98.145
1678023701.639,-11.719,-35.156,-29.297,-17.578,-9.277
1678023701.642,-9.766,-37.598,-27.832,-6.348,277.832
1678023701.646,-19.043,-36.621,-28.809,-19.531,246.582
1678023701.650,-36.133,-40.039,-34.180,-39.551,-112.793
1678023701.654,-31.738,-44.434,-31.738,-34.180,-93.262
1678023701.658,-25.879,-43.945,-30.762,-36.621,-90.332
1678023701.661,-29.785,-41.992,-27.832,-36.621,-190.430
1678023701.665,-38.086,-41.016,-28.809,-34.180,-178.223
1678023701.669,-39.062,-39.062,-27.832,-38.086,-128.418
1678023701.673,-40.527,-36.133,-30.762,-50.293,-164.062
1678023701.677,-36.621,-36.621,-38.574,-47.852,-178.711
1678023701.681,-34.668,-40.039,-37.109,-37.598,-92.285
1678023701.685,-43.945,-41.504,-36.621,-23.926,196.777
1678023701.688,-51.758,-42.969,-33.203,-23.926,221.191
1678023701.692,-48.340,-41.504,-27.832,-39.551,-138.672
1678023701.696,-35.645,-38.574,-26.367,-39.551,-173.340
1678023701.700,-37.598,-40.527,-27.832,-33.203,14.648
1678023701.704,-38.086,-48.828,-25.391,-22.461,-63.477
1678023701.705,-23.926,-50.293,-22.949,-0.488,-195.312
1678023701.709,-19.043,-32.715,-28.809,-6.348,-97.656
1678023701.713,-22.949,-22.461,-33.691,-35.645,-79.102
1678023701.717,-18.066,-29.785,-39.062,-40.527,-22.949
1678023701.721,-15.137,-32.227,-46.875,-39.062,15.137
1678023701.725,-12.695,-31.738,-50.293,-33.691,12.695
1678023701.729,-6.836,-31.250,-54.688,-20.020,299.316
1678023701.732,2.441,-27.344,-59.570,-18.066,187.988
1678023701.736,8.301,-22.461,-64.941,-18.555,-157.715
1678023701.740,3.418,-16.113,-69.824,-14.648,-11.719
1678023701.744,4.883,-17.090,-70.801,-6.836,20.508
1678023701.748,6.836,-18.066,-74.219,-13.672,-178.711
1678023701.751,7.812,-20.508,-74.707,-18.555,-151.367
1678023701.755,8.301,-21.484,-69.336,-11.719,-98.145
1678023701.759,4.883,-19.043,-65.918,-17.578,-90.332
1678023701.763,-1.953,-18.555,-66.406,-19.531,-99.121
1678023701.767,-10.742,-19.043,-63.477,-16.602,-128.906
1678023701.771,-10.254,-23.926,-60.059,-21.484,-118.652
1678023701.775,-6.836,-25.879,-63.965,-24.414,-84.961
1678023701.778,-8.789,-26.367,-63.965,-22.461,-91.797
1678023701.782,-12.207,-23.926,-58.105,-26.855,-95.215
1678023701.786,-13.184,-22.461,-55.176,-23.438,123.047
1678023701.790,-17.090,-28.320,-57.617,-26.855,82.520
1678023701.794,-20.020,-29.297,-57.617,-30.762,-142.578
1678023701.809,-12.207,-26.367,-47.363,-19.043,-34.180
1678023701.813,-7.812,-24.414,-42.969,-6.836,75.684
1678023701.817,-14.648,-23.926,-43.457,-14.160,-90.332
1678023701.821,-14.648,-21.973,-42.480,-26.855,-200.195
1678023701.825,-8.789,-20.996,-45.898,-17.090,21.484
1678023701.829,-7.812,-23.438,-48.340,-10.254,239.746
1678023701.833,-12.695,-22.461,-48.828,-18.066,30.762
1678023701.836,-14.648,-18.066,-50.293,-27.344,-194.336
1678023701.840,-17.578,-20.508,-46.875,-30.273,-53.223
1678023701.844,-20.996,-23.438,-43.457,-24.414,112.793
1678023701.848,-23.926,-23.438,-46.387,-20.508,-101.074
1678023701.852,-31.738,-24.902,-53.223,-20.508,-171.875
1678023701.855,-33.203,-27.832,-47.852,-27.344,-32.227
1678023701.859,-31.250,-31.250,-42.480,-38.574,-85.449
1678023701.863,-29.297,-28.320,-42.969,-37.598,-210.938
1678023701.867,-23.438,-23.926,-39.062,-29.297,-181.641
1678023701.871,-22.461,-26.855,-39.062,-25.879,-121.094
1678023701.875,-32.715,-30.273,-38.086,-25.879,-10.742
1678023701.879,-40.527,-32.227,-37.598,-29.297,25.391
1678023701.882,-36.621,-29.297,-37.598,-38.574,-106.445
1678023701.886,-30.762,-28.320,-34.180,-30.762,83.008
1678023701.890,-34.180,-27.344,-30.273,-29.297,145.508
1678023701.894,-41.504,-24.902,-30.762,-39.062,-98.145
1678023701.898,-33.203,-26.855,-28.320,-34.668,-134.277
1678023701.901,-27.832,-30.273,-27.344,-33.203,-125.488
1678023701.905,-27.344,-29.785,-30.762,-32.715,-140.625
1678023701.909,-29.785,-31.738,-30.273,-31.250,-166.992
1678023701.913,-36.133,-33.203,-30.762,-27.344,-26.367
1678023701.917,-38.574,-32.715,-36.133,-27.344,241.699
1678023701.921,-34.668,-32.715,-37.598,-31.738,50.293
1678023701.925,-33.203,-31.738,-38.574,-37.109,-121.582
1678023701.928,-37.109,-29.297,-33.691,-36.133,28.809
1678023701.932,-43.945,-34.668,-33.203,-37.598,78.613
1678023701.936,-47.852,-38.086,-36.621,-46.387,-117.676
1678023701.940,-43.457,-34.668,-32.715,-53.223,-184.570
1678023701.944,-40.527,-36.133,-31.250,-47.363,-121.094
1678023701.946,-41.504,-36.133,-31.250,-37.109,-108.887
1678023701.950,-45.410,-33.203,-29.297,-35.645,-144.043
1678023701.954,-43.945,-32.715,-27.344,-40.039,-151.855
1678023701.958,-34.180,-29.297,-24.414,-30.762,-88.379
1678023701.962,-32.227,-25.391,-28.320,-22.461,-112.793
1678023701.966,-32.715,-29.297,-32.715,-33.691,-119.141
1678023701.970,-36.133,-35.645,-32.227,-40.039,-54.688
1678023701.973,-46.387,-39.062,-33.203,-35.156,125.000
1678023701.977,-44.434,-39.551,-35.645,-32.715,205.078
1678023701.981,-33.203,-32.715,-37.109,-35.156,-106.445
1678023701.985,-27.344,-28.320,-36.133,-28.320,-197.754
1678023701.989,-34.668,-31.738,-36.133,-31.250,-118.652
1678023701.990,-40.039,-34.668,-38.086,-34.668,-171.387
1678023701.994,-32.227,-35.645,-35.156,-26.855,-197.754
1678023701.998,-27.344,-37.598,-32.227,-25.391,-115.234
1678023702.002,-21.973,-36.621,-32.227,-21.484,89.844
1678023702.006,-27.832,-36.133,-29.785,-17.090,31.250
1678023702.010,-41.016,-35.156,-37.109,-24.902,-110.840
1678023702.014,-29.785,-32.227,-36.621,-29.297,32.715
1678023702.017,-18.555,-31.250,-33.691,-16.113,346.191
1678023702.021,-25.879,-29.297,-39.062,-16.602,294.922
1678023702.025,-35.156,-29.297,-35.156,-33.691,-73.242
1678023702.029,-39.551,-33.203,-29.297,-30.273,-121.582
1678023702.033,-41.992,-32.227,-29.785,-27.344,-102.539
1678023702.036,-41.016,-33.203,-33.203,-32.715,-141.602
1678023702.040,-32.227,-36.133,-32.715,-29.297,-157.715
1678023702.044,-34.180,-35.156,-36.621,-26.855,-92.285
1678023702.048,-43.945,-31.738,-41.016,-27.344,-77.148
1678023702.052,-41.016,-30.273,-40.039,-17.090,-146.973
1678023702.056,-36.133,-30.762,-41.992,-23.438,-116.211
1678023702.060,-30.273,-30.762,-39.551,-22.949,143.066
1678023702.063,-33.203,-33.691,-37.109,-12.695,168.945
1678023702.067,-44.434,-33.203,-38.574,-25.879,-115.234
1678023702.071,-42.480,-30.273,-35.645,-22.461,-114.258
1678023702.075,-34.668,-35.156,-35.645,-18.555,83.008
1678023702.079,-28.809,-33.691,-34.180,-20.508,-24.902
1678023702.080,-23.926,-27.344,-28.809,-13.184,-202.637
1678023702.084,-32.227,-31.250,-24.902,-15.137,-81.055
1678023702.088,-39.062,-31.250,-25.879,-17.578,-53.711
1678023702.092,-32.227,-31.250,-30.273,-19.531,-116.699
1678023702.096,-32.227,-31.738,-28.809,-20.508,-105.469
1678023702.100,-36.133,-32.715,-27.344,-12.207,-24.902
1678023702.104,-33.203,-33.203,-30.273,-0.977,366.211
1678023702.107,-38.086,-29.297,-33.691,-8.301,204.102
1678023702.111,-29.785,-26.855,-30.273,-20.996,-180.664
1678023702.115,-24.902,-25.879,-32.227,-18.066,-84.473
1678023702.119,-32.227,-24.902,-37.109,-20.020,-60.059
1678023702.123,-35.156,-27.344,-33.203,-23.926,-85.449
1678023702.128,-40.527,-28.809,-31.738,-22.461,-128.418
1678023702.132,-39.062,-27.344,-34.180,-14.648,-74.707
1678023702.136,-31.250,-28.320,-32.227,-11.230,-40.039
1678023702.140,-29.785,-26.855,-29.785,-13.184,-170.410
1678023702.144,-43.945,-27.344,-28.809,-17.090,-134.277
1678023702.148,-44.922,-27.832,-17.090,-17.578,-50.293
1678023702.152,-48.828,-23.438,-17.578,-23.926,-43.457
1678023702.155,-57.129,-18.555,-26.367,-36.621,-70.312
1678023702.159,-56.152,-9.277,-21.973,-34.668,-89.844
1678023702.163,-78.613,-5.859,-13.184,-41.504,103.027
1678023702.167,-95.703,-1.465,-13.672,-63.965,53.711
1678023702.171,-95.703,12.695,-22.949,-82.520,-205.566
1678023702.186,-115.234,33.691,-17.578,-98.633,-159.668
1678023702.190,-151.367,52.734,-17.090,-138.672,-77.148
1678023702.194,-191.895,53.711,-12.695,-177.246,-52.734
1678023702.198,-226.074,45.898,10.254,-209.961,-66.895
1678023702.202,-242.188,46.387,13.672,-222.168,-16.113
1678023702.206,-242.676,61.035,3.418,-220.215,375.488
1678023702.210,-251.465,68.359,-6.348,-248.535,326.172
1678023702.213,-274.902,52.734,-1.465,-266.113,-128.906
1678023702.217,-276.367,47.363,9.766,-259.766,-31.738
1678023702.221,-265.625,60.547,-6.836,-259.277,43.457
1678023702.225,-259.766,60.547,-5.859,-260.254,-156.738
1678023702.229,-247.070,55.176,-0.488,-247.559,-152.344
1678023702.230,-241.699,48.340,-16.113,-240.234,-121.582
1678023702.234,-232.910,48.828,-21.484,-220.703,-118.164
1678023702.238,-229.004,52.734,-18.555,-217.285,-106.934
1678023702.242,-222.168,49.316,-23.438,-222.168,-132.812
1678023702.246,-198.242,45.410,-30.762,-199.219,-15.137
1678023702.250,-194.824,39.062,-23.438,-186.035,137.695
1678023702.254,-196.289,28.320,-21.973,-177.246,114.746
1678023702.257,-186.523,24.902,-28.809,-178.711,-15.137
1678023702.261,-168.945,23.438,-28.809,-161.621,147.461
1678023702.265,-154.785,17.578,-34.180,-140.137,283.691
1678023702.269,-152.832,19.043,-39.551,-153.320,-22.949
1678023702.273,-143.555,21.484,-42.480,-145.020,-49.805
1678023702.275,-127.930,14.160,-41.992,-123.047,44.922
1678023702.279,-113.770,12.207,-44.922,-112.305,-49.316
1678023702.283,-100.586,14.160,-50.781,-107.422,-145.020
1678023702.287,-102.051,7.812,-53.223,-104.004,62.988
1678023702.291,-111.328,9.766,-59.082,-106.445,149.414
1678023702.295,-96.680,10.254,-58.105,-94.727,-4.883
1678023702.299,-81.543,5.371,-49.805,-83.008,-110.840
1678023702.302,-87.402,8.301,-49.805,-89.355,3.906
1678023702.306,-97.656,0.977,-58.594,-97.168,329.102
1678023702.310,-98.633,0.488,-54.199,-96.680,155.762
1678023702.314,-102.051,5.371,-35.156,-101.074,-134.277
1678023702.318,-109.863,-6.836,-30.762,-114.746,-104.980
1678023702.321,-100.098,-6.836,-25.879,-117.188,-49.805
1678023702.325,-137.695,1.465,-39.062,-156.738,-53.223
1678023702.329,-194.336,1.953,-37.109,-197.754,-132.812
1678023702.333,-176.270,2.930,-4.883,-177.734,-69.824
1678023702.337,-146.484,-21.973,-22.949,-161.621,-70.801
1678023702.341,-145.020,-33.691,-39.062,-155.762,-62.988
1678023702.345,-156.250,-13.672,-36.133,-170.898,-11.230
1678023702.348,-164.551,-20.508,-36.133,-164.551,125.977
1678023702.352,-165.039,-26.855,-34.668,-156.738,151.855
1678023702.356,-165.527,-17.578,-34.180,-180.176,-62.500
1678023702.360,-154.785,-17.578,-36.621,-174.805,-127.930
1678023702.364,-138.184,-20.996,-36.621,-162.598,-47.852
1678023702.365,-140.625,-18.066,-33.691,-157.227,-85.938
1678023702.369,-145.020,-11.719,-32.227,-161.621,-173.340
1678023702.373,-131.836,-14.648,-31.250,-148.438,-84.473
1678023702.377,-105.957,-17.578,-41.016,-121.582,79.590
1678023702.381,-72.754,-19.531,-49.805,-102.539,-1.465
1678023702.385,-55.664,-23.438,-42.480,-75.195,-10.742
1678023702.389,-53.223,-26.367,-41.992,-64.941,159.180
1678023702.392,-34.180,-32.227,-49.805,-42.480,304.688
1678023702.396,-8.789,-35.645,-50.781,-16.602,170.898
1678023702.400,14.160,-39.551,-49.316,-7.324,-111.816
1678023702.404,20.020,-49.805,-53.223,13.184,-14.160
1678023702.408,12.207,-59.082,-53.711,21.484,-22.461
1678023702.412,28.320,-66.406,-55.176,21.484,-164.551
1678023702.416,63.477,-68.848,-51.270,41.992,-198.242
1678023702.420,56.152,-75.684,-44.434,56.152,-27.344
1678023702.424,42.480,-81.543,-42.969,60.059,-6.348
1678023702.428,48.828,-84.473,-36.621,67.871,-144.043
1678023702.432,49.316,-90.332,-33.203,66.406,-71.777
1678023702.436,64.941,-96.191,-35.156,84.473,242.188
1678023702.439,76.172,-100.586,-38.574,96.191,187.500
1678023702.443,78.125,-96.191,-39.062,83.008,-150.879
1678023702.447,81.055,-91.797,-39.062,83.008,-101.074
1678023702.451,83.008,-91.309,-39.551,86.914,-40.039
1678023702.455,82.031,-95.703,-39.062,88.867,-108.887
1678023702.456,82.031,-93.262,-43.457,88.867,-125.000
1678023702.460,81.055,-91.309,-41.504,95.703,19.531
1678023702.464,65.430,-95.703,-38.086,95.215,78.125
1678023702.468,57.617,-95.703,-41.504,77.148,-48.340
1678023702.472,65.430,-89.355,-41.504,74.707,-46.875
1678023702.476,76.660,-83.984,-41.504,89.844,-27.832
1678023702.480,79.590,-83.008,-42.480,102.539,290.527
1678023702.483,65.430,-82.031,-46.875,92.773,275.879
1678023702.487,60.547,-78.125,-49.805,75.684,-126.953
1678023702.491,63.965,-79.590,-46.875,67.871,-127.441
1678023702.495,66.895,-82.520,-46.875,64.941,-87.402
1678023702.499,66.406,-81.543,-48.340,67.383,-132.324
1678023702.501,45.410,-79.102,-45.898,66.895,-118.652
1678023702.505,40.039,-77.637,-49.316,57.129,-87.891
1678023702.509,47.852,-78.125,-55.176,53.711,-105.469
1678023702.513,54.688,-75.684,-50.781,57.617,-143.555
1678023702.517,55.176,-67.383,-48.340,54.688,-125.000
1678023702.521,43.945,-67.871,-48.828,56.152,187.012
1678023702.525,33.691,-72.754,-51.270,47.852,304.688
1678023702.528,36.133,-66.406,-48.828,39.062,-26.855
1678023702.532,46.387,-64.941,-44.434,45.410,-113.770
1678023702.536,47.852,-66.895,-46.875,52.246,-47.852
1678023702.540,35.156,-62.012,-49.805,53.223,-98.145
1678023702.544,26.855,-61.523,-48.828,42.969,-130.371
1678023702.560,33.691,-64.453,-46.387,32.227,-82.031
1678023702.564,40.527,-59.082,-49.316,38.086,-88.867
1678023702.568,39.062,-51.270,-45.898,49.805,-78.125
1678023702.572,31.738,-55.176,-45.410,45.898,0.488
1678023702.576,33.691,-56.641,-42.969,46.387,111.328
1678023702.580,39.062,-51.270,-39.551,55.176,263.672
1678023702.584,34.668,-51.270,-47.852,51.270,96.191
1678023702.587,32.715,-53.223,-48.340,49.805,-75.684
1678023702.591,33.203,-51.758,-38.086,51.758,86.914
1678023702.595,30.273,-51.758,-38.574,49.316,193.848
1678023702.599,22.461,-56.152,-46.387,38.574,-65.430
1678023702.603,17.578,-54.199,-46.875,29.297,-186.035
1678023702.605,23.926,-50.781,-44.434,38.574,-65.430
1678023702.609,21.484,-48.828,-41.504,44.922,-25.391
1678023702.613,8.301,-48.340,-43.457,30.273,-92.773
1678023702.617,7.812,-50.781,-41.016,30.762,-77.148
1678023702.621,18.555,-52.734,-40.039,34.668,-56.641
1678023702.625,20.508,-53.711,-44.434,30.273,-35.645
1678023702.629,13.672,-49.316,-44.922,29.297,7.812
1678023702.632,7.324,-46.387,-42.480,24.902,-83.984
1678023702.636,7.812,-49.805,-36.133,28.809,100.098
1678023702.640,6.836,-48.828,-37.598,30.762,157.227
1678023702.644,7.812,-39.551,-43.457,21.484,-158.203
1678023702.648,8.301,-41.992,-40.527,18.066,-115.234
1678023702.650,2.930,-46.387,-40.527,16.113,-65.430
1678023702.654,0.000,-43.457,-41.992,9.766,-150.879
1678023702.658,1.465,-41.992,-41.504,3.906,-231.934
1678023702.662,-1.953,-44.922,-39.062,10.254,-117.188
1678023702.666,-8.301,-45.898,-36.133,8.301,36.621
1678023702.670,-8.789,-42.480,-38.086,-4.883,25.391
1678023702.674,-8.789,-38.574,-37.109,-3.418,-36.621
1678023702.677,-6.348,-43.945,-34.180,0.488,-34.668
1678023702.681,-5.371,-43.945,-33.203,5.859,145.508
1678023702.685,-12.695,-38.574,-35.156,-0.488,8.789
1678023702.689,-24.902,-40.527,-35.645,-11.719,-146.484
1678023702.693,-23.926,-40.039,-34.668,-9.277,-49.805
1678023702.696,-20.020,-42.969,-40.039,-19.043,2.930
1678023702.700,-21.973,-44.434,-42.969,-25.879,-77.148
1678023702.704,-25.879,-40.039,-40.039,-18.555,-68.359
1678023702.708,-33.203,-39.551,-38.086,-17.578,-43.945
1678023702.712,-32.227,-41.016,-39.551,-21.484,-149.414
1678023702.716,-29.785,-43.457,-43.945,-28.320,-139.160
1678023702.720,-28.809,-42.969,-40.527,-29.785,-65.430
1678023702.723,-30.762,-38.574,-40.039,-15.137,91.309
1678023702.727,-35.645,-35.156,-44.922,-15.625,73.730
1678023702.731,-39.551,-35.645,-42.480,-32.715,-148.438
1678023702.735,-37.109,-37.598,-40.527,-34.180,-106.934
1678023702.739,-29.297,-36.621,-42.480,-23.438,-51.270
1678023702.742,-23.926,-38.574,-36.621,-13.672,-22.461
1678023702.746,-35.156,-40.527,-40.527,-15.625,-101.074
1678023702.750,-36.621,-40.039,-41.992,-17.578,-46.875
1678023702.754,-29.297,-35.156,-38.574,-25.391,119.629
1678023702.758,-32.227,-32.715,-43.457,-31.738,-7.812
1678023702.762,-24.414,-32.227,-42.480,-25.879,-135.742
1678023702.766,-23.438,-29.297,-39.551,-22.949,75.195
1678023702.769,-29.297,-32.715,-41.016,-19.043,387.695
1678023702.773,-26.855,-35.156,-39.551,-26.855,124.512
1678023702.777,-22.461,-35.645,-41.016,-34.668,-205.078
1678023702.781,-25.391,-37.598,-40.527,-27.344,-121.094
1678023702.785,-27.832,-32.715,-41.504,-22.949,-56.152
1678023702.786,-27.832,-32.715,-45.898,-24.414,-123.535
1678023702.790,-35.645,-36.133,-44.434,-32.227,-168.457
1678023702.794,-34.668,-34.180,-42.480,-34.180,-134.766
1678023702.798,-27.832,-34.180,-41.016,-30.273,-40.039
1678023702.802,-30.273,-34.180,-39.062,-19.531,-10.254
1678023702.806,-34.180,-37.598,-39.062,-27.344,-46.875
1678023702.810,-31.738,-38.086,-40.527,-32.715,176.758
1678023702.813,-18.555,-28.809,-39.551,-18.066,265.137
1678023702.817,-10.254,-25.879,-34.180,-17.090,-88.379
1678023702.821,-12.207,-28.320,-31.738,-19.043,-205.566
1678023702.825,-23.438,-30.762,-34.668,-20.508,-4.883
1678023702.829,-29.297,-27.832,-38.086,-20.508,-95.703
1678023702.845,-20.020,-24.902,-35.156,-22.949,-200.195
1678023702.849,-6.836,-23.438,-38.574,-13.672,-136.230
1678023702.853,-6.836,-29.785,-32.715,-1.465,-111.816
1678023702.857,-30.273,-36.621,-18.066,-8.301,-99.121
1678023702.861,-38.086,-34.668,-25.391,-16.602,-136.719
1678023702.865,-19.531,-33.203,-27.344,-8.301,-97.168
1678023702.869,-20.508,-34.668,-27.832,-6.836,274.902
1678023702.872,-35.156,-36.133,-35.156,-14.648,241.211
1678023702.876,-35.645,-38.086,-34.668,-24.414,-156.250
1678023702.880,-30.762,-38.574,-32.227,-27.344,-48.828
1678023702.884,-29.785,-35.156,-35.156,-29.297,29.785
1678023702.888,-28.809,-34.180,-35.645,-34.180,-137.695
1678023702.906,-24.414,-40.039,-31.738,-27.344,-142.578
1678023702.910,-26.855,-43.945,-34.180,-29.785,-42.480
1678023702.914,-36.621,-40.527,-40.527,-33.203,-24.414
1678023702.918,-34.668,-35.156,-37.598,-30.762,-136.719
1678023702.922,-20.996,-34.180,-34.180,-28.809,-166.504
1678023702.926,-14.648,-34.180,-31.250,-20.508,29.785
1678023702.930,-23.438,-35.645,-32.227,-22.461,46.875
1678023702.933,-29.785,-35.156,-36.133,-20.020,-111.328
1678023702.937,-28.320,-34.180,-38.086,-19.043,-106.445
1678023702.941,-20.996,-35.645,-38.574,-17.578,183.105
1678023702.945,-14.648,-35.156,-38.574,-10.254,303.223
1678023702.949,-19.043,-36.621,-40.527,-18.555,-76.660
1678023702.950,-15.625,-38.574,-40.527,-21.973,-181.641
1678023702.954,-11.230,-38.574,-38.574,-17.578,-165.527
1678023702.958,-12.207,-37.598,-40.039,-17.578,-218.262
1678023702.962,-16.602,-37.598,-41.016,-18.066,-150.879
1678023702.966,-23.438,-32.715,-41.016,-14.160,-47.363
1678023702.970,-28.320,-30.762,-39.062,-17.578,-10.742
1678023702.974,-36.621,-33.691,-36.621,-26.367,-13.672
1678023702.977,-39.062,-34.668,-34.668,-27.344,-131.836
1678023702.981,-32.715,-37.598,-31.250,-16.113,9.766
1678023702.985,-31.250,-36.133,-33.203,-15.137,114.258
1678023702.989,-39.551,-38.086,-36.621,-19.043,-3.906
1678023702.993,-38.086,-37.598,-35.156,-18.555,-23.438
1678023702.980,-27.344,-38.086,-36.133,-24.902,-7.812
1678023702.984,-21.973,-38.574,-33.691,-11.719,317.383
1678023702.988,-28.320,-40.039,-34.668,-12.695,260.254
1678023702.992,-28.809,-42.969,-36.133,-29.785,-95.703
1678023702.996,-28.320,-39.062,-33.691,-39.062,-163.574
1678023703.000,-27.832,-36.133,-29.297,-41.992,-98.633
1678023703.004,-22.461,-35.645,-31.738,-38.086,-107.422
1678023703.007,-25.879,-33.691,-35.645,-39.062,-116.211
1678023703.011,-33.203,-32.715,-34.180,-32.227,-27.832
1678023703.015,-36.133,-34.668,-33.203,-28.320,-129.883
1678023703.019,-33.203,-35.156,-35.156,-33.691,-237.305
1678023703.023,-29.785,-34.668,-37.109,-39.062,-194.336
1678023703.025,-27.832,-37.109,-35.156,-27.344,113.281
1678023703.029,-37.598,-33.203,-36.621,-22.949,177.734
1678023703.033,-41.992,-28.320,-39.062,-36.621,-197.754
1678023703.037,-33.691,-31.250,-37.598,-32.715,-66.406
1678023703.041,-31.738,-31.738,-36.621,-29.785,139.160
1678023703.045,-35.156,-34.668,-36.621,-37.109,-18.555
1678023703.049,-38.086,-36.133,-37.109,-39.551,-90.820
1678023703.052,-38.574,-35.645,-34.180,-37.598,-15.137
1678023703.056,-29.297,-33.691,-29.785,-33.203,75.195
1678023703.060,-26.367,-27.344,-31.250,-38.574,-85.938
1678023703.064,-29.297,-22.949,-31.250,-44.922,-191.895
1678023703.068,-30.762,-21.484,-34.180,-46.387,-144.043
1678023703.071,-34.180,-27.344,-35.156,-47.363,-184.082
1678023703.075,-35.156,-29.785,-29.297,-46.387,-238.770
1678023703.079,-26.367,-24.414,-30.762,-47.363,-179.688
1678023703.083,-20.508,-22.949,-32.715,-38.086,-28.320
1678023703.087,-35.645,-27.832,-35.645,-35.645,-41.504
1678023703.091,-43.457,-31.250,-38.574,-41.504,-83.496
1678023703.095,-29.785,-28.320,-31.738,-37.598,-60.547
1678023703.098,-21.973,-27.832,-26.855,-25.391,98.633
1678023703.102,-27.344,-30.273,-27.832,-21.973,116.211
1678023703.106,-33.691,-29.785,-29.297,-32.227,-130.371
1678023703.110,-37.109,-29.785,-33.203,-34.180,-41.016
1678023703.114,-37.109,-33.203,-33.203,-37.109,-15.137
1678023703.115,-33.691,-36.133,-30.273,-34.180,-129.395
1678023703.119,-38.086,-35.645,-28.320,-29.785,-135.254
1678023703.123,-41.504,-31.738,-23.438,-31.250,-68.359
1678023703.127,-41.992,-36.621,-23.438,-30.762,18.555
1678023703.131,-35.156,-40.039,-27.344,-35.156,-41.504
1678023703.135,-31.738,-35.645,-32.715,-34.668,-171.387
1678023703.139,-37.109,-41.016,-37.109,-26.855,-73.730
1678023703.142,-25.879,-42.969,-30.762,-11.230,325.684
1678023703.146,-29.785,-38.574,-29.297,-16.113,269.043
1678023703.150,-40.527,-41.992,-32.227,-36.621,-126.465
1678023703.154,-41.504,-41.016,-28.809,-41.504,-179.688
1678023703.158,-42.969,-31.738,-26.855,-45.410,-138.184
1678023703.161,-44.434,-34.180,-34.180,-51.270,-112.305
1678023703.165,-72.266,-22.461,-22.461,-69.336,-132.812
1678023703.169,-79.590,-14.160,8.301,-74.707,-133.789
1678023703.173,-69.824,-14.648,-19.043,-77.637,-143.555
1678023703.177,-88.379,-23.438,0.977,-96.680,-101.562
1678023703.181,-110.352,15.625,33.691,-116.699,11.719
1678023703.185,-171.875,38.574,-22.461,-169.434,223.145
1678023703.188,-229.004,17.090,-51.758,-221.680,214.355
1678023703.192,-225.098,49.805,-7.324,-225.586,-87.891
1678023703.196,-223.145,49.805,24.414,-221.680,-180.664
1678023703.200,-238.281,34.668,6.836,-234.863,-72.754
1678023703.204,-260.254,40.039,5.859,-261.719,-122.070
1678023703.220,-285.156,50.781,14.160,-297.852,-179.688
1678023703.224,-269.531,68.359,23.926,-293.945,-37.109
1678023703.228,-258.301,50.293,29.785,-282.715,-52.246
1678023703.232,-275.391,34.180,26.367,-285.645,-111.816
1678023703.236,-276.367,41.016,29.785,-279.785,-109.863
1678023703.240,-258.789,45.410,41.504,-272.461,-24.414
1678023703.244,-241.211,35.156,60.059,-252.441,302.246
1678023703.247,-237.793,25.879,70.801,-246.094,145.020
1678023703.251,-231.934,26.855,62.988,-248.535,-158.691
1678023703.255,-218.750,21.484,62.988,-231.934,-57.617
1678023703.259,-205.566,22.949,63.965,-220.703,-8.789
1678023703.263,-186.523,24.902,58.105,-223.633,-126.953
1678023703.251,-157.227,17.578,46.387,-204.590,-154.785
1678023703.255,-132.812,3.906,42.480,-157.227,65.918
1678023703.259,-126.953,-2.441,43.945,-131.836,72.266
1678023703.263,-123.047,3.906,32.227,-136.230,-127.441
1678023703.267,-109.863,-7.324,21.973,-127.930,-129.395
1678023703.271,-84.473,-18.555,16.602,-99.609,-27.832
1678023703.275,-57.129,-14.648,12.695,-76.660,18.555
1678023703.278,-54.199,-20.020,3.906,-69.824,-106.934
1678023703.282,-50.781,-29.297,-7.324,-54.199,-203.125
1678023703.286,-25.391,-34.668,-11.719,-28.320,79.590
1678023703.290,-16.602,-43.945,-13.184,-19.531,129.883
1678023703.294,-7.812,-48.828,-19.043,-2.441,-154.785
1678023703.310,7.812,-51.758,-22.461,15.137,-41.992
1678023703.314,-1.465,-64.941,-28.320,9.766,25.879
1678023703.318,8.301,-64.941,-28.320,11.719,-83.008
1678023703.322,26.367,-60.547,-27.344,23.926,-64.941
1678023703.326,37.598,-63.477,-25.879,40.527,29.785
1678023703.330,41.992,-64.941,-28.809,50.293,225.098
1678023703.334,37.598,-63.965,-36.621,44.922,110.840
1678023703.337,40.527,-65.430,-37.109,39.062,-164.062
1678023703.341,47.852,-71.777,-39.062,47.363,-87.891
1678023703.345,50.293,-72.754,-43.945,61.035,125.488
1678023703.349,38.086,-72.266,-44.922,60.059,-72.266
1678023703.353,35.156,-73.730,-40.527,59.082,-209.473
1678023703.356,48.340,-75.195,-42.480,50.293,-158.203
1678023703.360,53.223,-66.895,-42.480,49.805,-164.062
1678023703.364,56.641,-62.500,-43.945,55.664,-127.930
1678023703.368,59.082,-69.336,-45.898,63.965,-84.473
1678023703.372,59.082,-68.848,-46.875,71.289,-5.859
1678023703.376,62.012,-64.941,-42.480,62.012,-13.672
1678023703.380,62.012,-62.012,-39.062,59.082,-37.598
1678023703.383,66.406,-57.617,-45.410,65.918,-69.336
1678023703.387,69.336,-57.129,-45.898,77.637,101.074
1678023703.391,62.500,-58.105,-46.387,72.754,127.930
1678023703.395,57.617,-56.641,-53.711,59.082,-237.305
1678023703.399,65.430,-57.617,-56.641,63.477,-214.355
1678023703.400,62.988,-60.059,-56.152,64.453,-101.074
1678023703.404,52.734,-62.988,-58.594,61.035,-116.699
1678023703.408,44.434,-65.430,-59.082,52.734,-149.414
1678023703.412,37.598,-65.918,-55.176,44.922,23.438
1678023703.416,42.969,-67.383,-53.711,50.781,184.570
1678023703.420,48.340,-67.871,-56.152,57.129,41.504
1678023703.424,42.480,-65.430,-53.223,49.805,-77.637
1678023703.427,34.668,-63.965,-49.805,49.316,-17.090
1678023703.431,33.203,-58.105,-51.758,61.035,262.207
1678023703.435,30.762,-56.152,-53.223,52.734,124.023
1678023703.439,30.273,-60.547,-53.711,36.133,-212.402
1678023703.443,30.273,-58.105,-51.758,38.574,-146.973
1678023703.446,21.484,-55.176,-51.270,41.504,-40.039
1678023703.450,12.207,-55.664,-50.293,30.762,-72.754
1678023703.454,9.766,-56.152,-47.363,29.785,-136.230
1678023703.458,9.277,-51.758,-47.363,31.738,-110.352
1678023703.462,7.812,-45.898,-45.898,24.414,-72.754
1678023703.466,5.859,-46.875,-42.480,22.461,-59.082
1678023703.470,-0.977,-46.875,-46.387,20.508,-41.992
1678023703.473,-1.465,-47.363,-47.852,20.996,139.160
1678023703.477,-3.906,-50.781,-46.875,18.066,236.328
1678023703.481,-4.883,-45.410,-47.852,16.602,-39.551
1678023703.485,-9.766,-41.992,-43.457,11.230,-90.820
1678023703.489,-20.508,-44.434,-46.875,4.395,-15.625
1678023703.490,-10.742,-40.039,-48.828,6.836,-42.480
1678023703.494,-7.324,-40.039,-42.969,-1.465,-90.820
1678023703.498,-17.578,-48.340,-45.898,-2.441,-2.441
1678023703.502,-21.973,-50.293,-51.270,5.859,103.516
1678023703.506,-27.344,-46.387,-52.246,0.977,25.391
1678023703.510,-24.902,-44.434,-46.875,-11.719,-20.996
1678023703.514,-15.625,-42.480,-42.480,-12.207,77.637
1678023703.517,-13.184,-43.945,-42.969,-3.906,404.297
1678023703.521,-18.066,-46.387,-47.363,-10.254,258.789
1678023703.525,-25.879,-45.410,-41.504,-20.020,-132.324
1678023703.529,-29.297,-41.504,-33.691,-17.578,10.742
1678023703.533,-26.855,-40.039,-35.645,-22.949,23.926
1678023703.536,-19.531,-43.457,-33.691,-28.809,-161.133
1678023703.540,-21.484,-45.898,-33.203,-21.484,-151.367
1678023703.544,-28.320,-42.969,-41.016,-19.043,-122.070
1678023703.548,-26.855,-43.945,-44.922,-24.902,-148.926
1678023703.552,-27.344,-42.969,-42.969,-27.832,-165.527
1678023703.556,-26.855,-37.109,-43.945,-23.926,-134.277
1678023703.560,-19.043,-31.738,-44.922,-15.137,159.668
1678023703.563,-23.438,-33.203,-41.504,-20.996,125.488
1678023703.567,-27.832,-35.645,-39.062,-28.809,-212.891
1678023703.571,-22.949,-37.598,-39.551,-28.320,-156.738
1678023703.575,-20.508,-40.039,-41.016,-40.039,-103.027
1678023703.579,-22.461,-41.504,-41.992,-42.480,-130.371
1678023703.581,-25.879,-42.969,-38.086,-35.156,-114.258
1678023703.585,-29.297,-45.898,-39.551,-31.738,-35.645
1678023703.589,-32.227,-45.410,-44.922,-34.668,11.719
1678023703.593,-24.902,-41.992,-44.434,-33.203,-50.293
1678023703.597,-25.879,-46.387,-44.434,-29.785,-58.594
1678023703.601,-35.645,-47.363,-41.016,-30.762,67.383
1678023703.605,-27.832,-41.016,-37.598,-23.438,425.293
1678023703.608,-17.578,-37.109,-39.062,-25.879,230.957
1678023703.612,-13.672,-34.668,-39.062,-31.738,-147.461
1678023703.616,-9.277,-36.133,-37.109,-25.391,-50.781
1678023703.620,-17.090,-36.133,-37.598,-27.832,-75.195
1678023703.624,-25.391,-40.039,-39.062,-33.691,-133.301
1678023703.628,-21.973,-41.504,-35.645,-33.203,-174.805
1678023703.632,-20.996,-35.645,-34.180,-28.320,-148.438
1678023703.636,-24.414,-35.156,-35.645,-30.762,-19.531
1678023703.640,-31.738,-37.109,-35.156,-38.574,-39.062
1678023703.644,-34.668,-36.621,-34.668,-37.109,-76.660
1678023703.648,-32.715,-36.133,-32.227,-31.250,176.758
1678023703.652,-32.715,-32.227,-33.203,-27.832,232.422
1678023703.655,-34.668,-30.762,-39.062,-32.715,-64.941
1678023703.659,-31.738,-29.785,-38.086,-35.645,-127.441
1678023703.663,-40.039,-27.344,-38.574,-37.598,-29.297
1678023703.667,-41.504,-29.297,-40.039,-47.363,-34.668
1678023703.671,-31.738,-30.762,-36.133,-46.875,-168.457
1678023703.685,-29.785,-35.156,-36.133,-38.086,-133.789
1678023703.689,-33.691,-36.621,-38.086,-32.227,-73.242
1678023703.693,-41.992,-32.227,-32.715,-31.250,-184.082
1678023703.697,-37.598,-33.203,-28.809,-40.039,-236.328
1678023703.701,-27.344,-34.668,-29.785,-44.434,-75.195
1678023703.705,-27.832,-39.551,-30.273,-26.855,200.195
1678023703.709,-35.156,-41.504,-33.203,-34.668,188.477
1678023703.712,-47.363,-37.109,-37.109,-43.945,-44.922
1678023703.716,-49.316,-37.109,-33.691,-33.203,-42.480
1678023703.720,-37.109,-32.715,-26.367,-26.855,49.805
1678023703.724,-31.738,-31.738,-28.320,-26.855,-157.227
1678023703.728,-34.180,-39.062,-33.203,-29.785,-184.570
1678023703.730,-41.992,-45.898,-27.344,-30.762,-116.699
1678023703.734,-48.828,-41.504,-23.438,-30.273,-157.715
1678023703.738,-49.805,-39.062,-24.902,-39.062,-175.781
1678023703.742,-43.945,-41.504,-23.438,-39.551,-178.223
1678023703.746,-35.645,-38.086,-25.391,-27.832,-143.066
1678023703.750,-41.992,-40.039,-27.344,-32.227,-75.684
1678023703.754,-42.480,-37.598,-29.785,-37.598,-108.887
1678023703.757,-37.598,-34.668,-32.227,-33.691,-132.812
1678023703.761,-35.645,-37.109,-29.297,-21.484,107.422
1678023703.765,-33.203,-32.227,-27.344,-16.602,190.918
1678023703.769,-41.016,-31.738,-32.227,-29.297,-146.484
1678023703.773,-46.387,-41.016,-31.738,-35.156,-155.273
1678023703.775,-45.410,-43.945,-27.832,-31.250,-32.227
1678023703.779,-40.039,-41.016,-25.391,-22.461,-125.977
1678023703.783,-38.574,-38.574,-25.391,-22.949,-213.867
1678023703.787,-35.156,-38.574,-21.973,-21.484,-4.395
1678023703.791,-38.574,-41.504,-20.996,-22.949,132.812
1678023703.795,-42.480,-40.527,-26.367,-30.273,-13.184
1678023703.799,-33.691,-36.133,-28.809,-30.762,-69.824
1678023703.802,-24.902,-34.668,-24.902,-25.879,-18.555
1678023703.806,-26.367,-33.203,-23.926,-11.230,238.770
1678023703.810,-33.691,-32.227,-23.926,-15.137,149.902
1678023703.814,-32.227,-34.180,-24.902,-28.320,-129.395
1678023703.818,-25.879,-28.809,-24.414,-22.461,-74.707
1678023703.821,-8.789,-23.438,-25.391,-0.488,-21.484
1678023703.825,-16.113,-28.809,-22.461,-0.977,-125.000
1678023703.829,-36.621,-33.691,-14.160,-16.113,-161.133
1678023703.833,-30.762,-36.133,-20.996,-14.160,-145.996
1678023703.837,-25.391,-38.086,-22.949,-8.789,-95.215
1678023703.841,-22.461,-38.086,-18.066,-7.324,-81.055
1678023703.845,-18.066,-34.180,-21.973,-6.348,-62.500
1678023703.848,-14.648,-34.668,-20.996,-2.441,165.527
1678023703.852,-16.113,-36.133,-23.926,-8.301,130.859
1678023703.856,-18.066,-35.645,-25.879,-8.789,-192.383
1678023703.860,-16.113,-36.133,-20.020,0.977,-187.988
1678023703.864,-25.879,-34.668,-21.484,-1.465,-116.699
1678023703.865,-33.203,-33.203,-26.367,-9.277,-126.953
1678023703.869,-35.156,-35.156,-26.855,-15.625,-193.359
1678023703.873,-29.785,-34.180,-29.297,-8.789,-54.199
1678023703.877,-25.391,-37.109,-35.645,-6.836,208.496
1678023703.881,-28.320,-36.133,-40.039,-9.277,61.523
1678023703.885,-33.203,-33.203,-35.645,-3.906,-18.555
1678023703.889,-39.062,-38.574,-32.715,-15.137,73.242
1678023703.892,-33.203,-38.086,-33.203,-7.812,244.629
1678023703.896,-31.250,-31.738,-32.227,-0.488,157.227
1678023703.900,-37.109,-36.133,-38.086,-16.113,-125.488
1678023703.904,-42.480,-39.062,-35.645,-17.578,-99.121
1678023703.908,-42.480,-36.621,-31.738,-25.879,-111.328
1678023703.913,-35.645,-36.133,-31.250,-25.391,-181.152
1678023703.917,-33.691,-34.668,-25.879,-18.066,-169.434
1678023703.921,-29.297,-33.203,-25.391,-5.859,19.043
1678023703.925,-33.691,-35.156,-25.879,-3.418,-17.090
1678023703.929,-40.527,-39.551,-22.461,-23.438,-173.340
1678023703.933,-37.598,-41.016,-26.855,-27.344,-117.676
1678023703.937,-31.250,-42.969,-28.320,-18.555,155.273
1678023703.940,-30.273,-39.551,-26.855,-17.578,155.762
1678023703.944,-39.062,-37.109,-27.832,-29.297,-142.578
1678023703.948,-41.504,-42.480,-27.832,-33.691,-158.203
1678023703.952,-41.016,-42.969,-29.297,-32.227,-101.074
1678023703.956,-30.273,-40.527,-28.809,-36.621,-132.324
1678023703.955,-24.902,-36.133,-26.855,-39.062,-120.117
1678023703.959,-41.992,-33.203,-27.832,-39.551,-45.410
1678023703.963,-46.387,-33.203,-25.879,-37.109,-74.707
1678023703.967,-45.410,-34.668,-27.344,-38.574,-43.945
1678023703.971,-46.875,-33.691,-26.367,-41.016,-5.371
1678023703.975,-40.527,-29.297,-22.461,-31.738,65.430
1678023703.979,-46.387,-32.715,-27.344,-24.902,455.078
1678023703.982,-53.711,-35.645,-33.691,-43.945,384.277
1678023703.986,-44.922,-33.691,-33.203,-62.012,-85.449
1678023703.990,-37.598,-34.668,-33.203,-46.387,-60.059
1678023703.994,-40.527,-34.668,-34.668,-43.457,20.020
1678023703.998,-49.316,-32.715,-33.691,-58.105,-82.520
1678023704.001,-44.922,-28.809,-31.738,-48.340,-79.102
1678023704.005,-39.062,-29.785,-33.203,-48.340,-96.680
1678023704.009,-37.109,-35.645,-33.691,-54.688,-109.863
1678023704.013,-28.809,-34.668,-32.715,-49.805,-156.738
1678023704.017,-29.785,-35.645,-32.715,-51.758,-125.488
1678023704.021,-33.203,-35.156,-33.203,-56.641,57.129
1678023704.025,-29.297,-30.273,-28.320,-44.922,44.922
1678023704.028,-26.367,-32.227,-27.832,-35.156,-13.184
1678023704.032,-21.484,-31.250,-30.762,-37.109,-58.594
1678023704.036,-20.020,-29.785,-29.785,-24.902,154.785
1678023704.040,-27.344,-27.344,-29.297,-22.949,271.973
1678023704.044,-29.297,-22.461,-29.297,-38.574,-64.453
1678023704.060,-19.531,-22.949,-28.320,-36.133,-125.000
1678023704.064,-17.578,-23.438,-29.785,-30.273,-75.195
1678023704.068,-20.996,-21.484,-30.762,-29.785,-70.312
1678023704.072,-25.879,-24.414,-29.785,-37.109,-83.984
1678023704.076,-27.832,-26.855,-33.691,-39.551,-2.930
1678023704.080,-21.484,-26.367,-35.156,-27.344,148.438
1678023704.084,-23.926,-29.297,-34.180,-34.668,55.664
1678023704.087,-24.902,-27.832,-33.203,-44.434,-172.852
1678023704.091,-32.227,-30.762,-31.250,-37.598,-57.129
1678023704.095,-43.457,-37.109,-30.273,-35.156,176.270
1678023704.099,-46.387,-38.574,-35.156,-43.945,-53.223
1678023704.103,-38.574,-39.551,-40.039,-48.340,-174.805
1678023704.120,-37.109,-41.992,-40.527,-43.945,-104.980
1678023704.124,-45.410,-40.039,-35.156,-42.480,-88.379
1678023704.128,-52.734,-40.527,-31.738,-53.711,-164.062
1678023704.132,-49.805,-41.992,-34.668,-57.617,-248.047
1678023704.136,-44.434,-40.527,-31.738,-54.199,-130.371
1678023704.140,-44.922,-40.527,-29.785,-52.734,11.719
1678023704.144,-50.781,-40.039,-30.762,-51.758,4.883
1678023704.147,-54.688,-40.527,-32.715,-54.199,-88.867
1678023704.151,-45.410,-40.039,-30.762,-47.852,56.641
1678023704.155,-38.574,-38.574,-28.320,-43.457,81.543
1678023704.159,-41.992,-35.645,-28.320,-49.316,-167.480
1678023704.163,-41.016,-30.273,-26.855,-43.945,-69.824
1678023704.150,-39.551,-30.762,-29.785,-40.039,51.270
1678023704.154,-41.504,-33.691,-30.273,-49.805,-106.445
1678023704.158,-39.551,-32.227,-31.250,-52.734,-223.633
1678023704.162,-32.715,-33.203,-32.715,-42.480,-18.066
1678023704.166,-39.062,-36.133,-34.668,-40.527,146.484
1678023704.170,-49.316,-31.738,-36.133,-46.387,-19.531
1678023704.174,-52.734,-33.691,-34.668,-55.664,-28.809
1678023704.177,-51.270,-37.598,-35.645,-56.152,62.500
1678023704.181,-44.922,-34.180,-36.133,-52.734,36.621
1678023704.185,-50.293,-33.203,-35.645,-49.805,-25.879
1678023704.189,-63.965,-34.668,-30.273,-56.641,-126.953
1678023704.193,-63.965,-41.504,-20.508,-67.383,2.930
1678023704.198,-41.504,-16.602,-5.859,-42.480,217.773
1678023704.202,-54.199,-4.395,-27.344,-55.664,58.594
1678023704.206,-79.102,-40.527,11.719,-80.078,-62.988
1678023704.210,-93.750,-0.977,47.852,-89.844,-23.438
1678023704.214,-109.375,39.551,-2.930,-109.375,-61.035
1678023704.218,-140.625,-0.977,-16.602,-140.625,-106.445
1678023704.222,-199.707,-1.465,-13.672,-206.543,-41.504
1678023704.225,-215.332,17.578,-2.930,-222.656,177.246
1678023704.229,-227.051,22.949,-0.977,-231.445,162.109
1678023704.233,-246.582,26.367,12.207,-255.859,-191.406
1678023704.237,-240.234,31.250,39.062,-254.395,-212.891
1678023704.241,-231.934,35.156,38.574,-252.441,-160.645
1678023704.240,-241.211,37.598,35.156,-258.301,-181.152
1678023704.244,-241.699,41.992,51.270,-253.418,-173.340
1678023704.248,-240.234,33.691,61.523,-251.953,-106.934
1678023704.252,-233.887,25.879,64.453,-248.535,-72.754
1678023704.256,-225.098,26.367,67.383,-234.375,-67.383
1678023704.260,-219.727,26.855,64.453,-217.773,65.918
1678023704.264,-210.938,22.461,66.406,-208.984,179.688
1678023704.267,-193.359,13.184,67.871,-193.359,397.461
1678023704.271,-176.270,3.418,58.105,-177.734,281.738
1678023704.275,-156.738,2.930,52.734,-162.109,-123.047
1678023704.279,-145.020,0.488,53.223,-144.531,-88.867
1678023704.283,-143.555,-5.371,43.457,-139.648,-36.133
1678023704.286,-136.719,-8.789,33.691,-130.371,-137.207
1678023704.290,-123.047,-10.254,31.250,-114.746,-180.176
1678023704.294,-107.422,-17.090,26.367,-104.004,-98.145
1678023704.298,-91.309,-27.344,22.949,-91.797,-56.152
1678023704.302,-68.848,-27.832,11.230,-74.707,-164.062
1678023704.306,-51.758,-26.855,0.000,-60.059,-125.977
1678023704.310,-45.898,-36.133,-8.301,-36.621,163.086
1678023704.313,-31.738,-41.016,-13.672,-24.902,194.336
1678023704.317,-10.254,-38.574,-15.625,-20.996,-137.207
1678023704.321,9.277,-41.016,-15.625,2.441,-128.906
1678023704.325,9.766,-46.875,-16.113,9.277,9.766
1678023704.329,3.906,-55.664,-21.973,10.254,-19.043
1678023704.330,17.578,-58.594,-28.809,22.949,-129.395
1678023704.334,27.344,-58.105,-36.621,26.367,-90.332
1678023704.338,38.574,-57.617,-40.527,27.344,-59.082
1678023704.342,46.875,-59.570,-41.992,30.273,-6.836
1678023704.346,40.527,-60.059,-43.457,30.762,5.859
1678023704.350,41.992,-61.523,-48.828,41.016,14.160
1678023704.354,51.758,-64.941,-50.781,62.012,338.867
1678023704.357,56.152,-59.570,-49.805,62.012,246.094
1678023704.361,49.316,-57.129,-53.711,50.293,-152.344
1678023704.365,45.410,-63.965,-54.199,52.734,-66.406
1678023704.369,52.246,-62.012,-55.176,52.734,-41.992
1678023704.373,55.664,-58.594,-56.641,46.387,-202.637
1678023704.376,55.664,-56.641,-57.129,51.758,-179.199
1678023704.380,53.223,-58.594,-59.570,50.293,-119.629
1678023704.384,47.363,-64.453,-62.988,37.598,-83.008
1678023704.388,48.340,-60.547,-60.059,37.109,-109.863
1678023704.392,45.410,-55.664,-57.129,35.156,-84.961
1678023704.396,39.062,-55.664,-57.617,41.016,45.410
1678023704.400,32.227,-58.105,-59.082,43.945,9.766
1678023704.403,34.180,-54.688,-62.500,41.504,-119.141
1678023704.407,43.945,-48.340,-61.523,47.363,-164.062
1678023704.411,46.387,-46.387,-59.082,54.199,57.617
1678023704.415,41.504,-48.340,-63.965,47.852,87.891
1678023704.419,32.227,-48.340,-65.918,37.109,-105.469
1678023704.436,27.832,-45.410,-60.547,39.062,-95.215
1678023704.440,31.250,-46.387,-58.105,39.551,14.648
1678023704.444,29.297,-51.270,-62.012,36.133,-75.195
1678023704.448,27.344,-47.852,-60.059,35.645,-23.926
1678023704.452,24.902,-45.898,-58.594,30.273,130.859
1678023704.456,21.973,-52.734,-62.500,27.832,248.047
1678023704.460,15.625,-53.223,-63.965,22.461,79.102
1678023704.463,15.625,-50.781,-62.500,16.602,-203.125
1678023704.467,22.949,-45.410,-61.523,25.391,-39.551
1678023704.471,19.531,-43.945,-60.059,30.273,64.941
1678023704.475,12.207,-42.480,-57.129,15.625,-124.512
1678023704.479,11.230,-40.039,-59.082,8.301,-176.270
1678023704.484,17.578,-39.551,-61.035,9.277,-89.844
1678023704.488,21.973,-32.227,-54.688,17.578,-0.488
1678023704.492,12.207,-28.809,-53.223,12.695,-77.148
1678023704.496,9.766,-31.250,-54.199,8.301,-128.418
1678023704.500,14.160,-35.645,-55.176,8.301,6.836
1678023704.504,10.254,-35.156,-54.688,1.465,94.727
1678023704.508,9.766,-32.227,-51.758,1.465,56.641
1678023704.511,2.930,-36.621,-55.176,-3.906,-110.840
1678023704.515,-5.859,-42.480,-54.199,2.441,3.418
1678023704.519,-2.441,-41.016,-51.270,5.371,197.266
1678023704.523,0.977,-32.227,-54.688,-2.441,-43.457
1678023704.527,7.324,-27.344,-50.781,2.930,-157.715
1678023704.540,1.465,-33.203,-45.410,-2.441,-89.355
1678023704.544,-12.207,-39.551,-48.828,-9.766,-105.469
1678023704.548,-8.789,-37.109,-47.852,-10.254,-183.594
1678023704.552,0.000,-35.156,-43.945,-10.254,-76.660
1678023704.556,-0.488,-33.203,-44.434,-2.441,65.430
1678023704.560,-15.137,-36.621,-46.875,-13.184,-47.852
1678023704.564,-21.973,-39.551,-42.480,-25.391,-92.773
1678023704.567,-14.648,-37.598,-40.039,-25.391,-55.176
1678023704.571,-12.207,-37.598,-45.410,-18.066,256.836
1678023704.575,-9.766,-35.645,-48.340,-18.555,224.609
1678023704.579,-11.230,-37.598,-48.828,-21.484,-107.422
1678023704.583,-19.043,-40.527,-49.805,-18.555,-65.430
1678023704.571,-24.902,-38.574,-46.387,-27.832,-100.586
1678023704.575,-23.926,-34.180,-42.480,-34.668,-217.773
1678023704.579,-22.949,-31.250,-43.457,-29.785,-168.945
1678023704.583,-20.020,-28.320,-42.480,-31.738,-97.656
1678023704.587,-23.438,-31.738,-36.133,-32.227,-147.461
1678023704.591,-33.691,-39.062,-39.062,-34.180,-218.262
1678023704.595,-27.344,-40.039,-44.434,-37.109,-123.047
1678023704.598,-20.508,-39.551,-46.875,-35.156,-5.371
1678023704.602,-28.809,-41.016,-45.410,-32.227,-56.152
1678023704.606,-39.062,-36.133,-40.527,-33.691,-107.422
1678023704.610,-34.180,-29.297,-42.480,-42.480,-143.555
1678023704.614,-21.973,-31.250,-43.945,-31.250,117.676
1678023704.615,-24.414,-32.715,-45.410,-22.461,184.570
1678023704.619,-29.297,-33.203,-44.922,-32.227,-149.414
1678023704.623,-31.738,-31.738,-38.574,-36.621,-107.910
1678023704.627,-37.109,-32.227,-39.551,-37.598,7.812
1678023704.631,-37.598,-35.156,-42.969,-40.039,-102.051
1678023704.635,-29.785,-33.203,-38.086,-38.574,-151.367
1678023704.639,-24.902,-30.762,-37.598,-35.645,-74.219
1678023704.642,-27.344,-30.273,-39.062,-23.438,179.688
1678023704.646,-29.297,-30.762,-40.527,-24.902,184.570
1678023704.650,-28.809,-28.809,-38.574,-32.227,-159.668
1678023704.654,-21.484,-26.855,-35.645,-25.879,-122.559
1678023704.658,-16.602,-24.414,-35.645,-22.949,-85.449
1678023704.661,-27.832,-23.926,-36.133,-27.344,-214.355
1678023704.665,-38.574,-25.879,-34.180,-33.203,-260.254
1678023704.669,-32.227,-29.297,-33.691,-34.180,-172.363
1678023704.673,-23.438,-25.879,-39.551,-36.621,-92.285
1678023704.677,-21.484,-23.438,-43.457,-31.250,-118.652
1678023704.681,-24.414,-27.832,-41.016,-32.227,-81.055
1678023704.685,-26.855,-29.785,-37.598,-23.926,201.660
1678023704.688,-22.949,-23.926,-39.062,-23.438,204.590
1678023704.692,-14.160,-15.137,-41.016,-30.273,-120.117
1678023704.696,-1.953,-24.414,-38.086,-15.625,-121.094
1678023704.700,-22.461,-34.180,-29.785,-24.414,-3.418
1678023704.704,-45.410,-32.227,-30.762,-42.480,-37.109
1678023704.704,-36.621,-34.180,-34.668,-32.227,-175.781
1678023704.708,-24.414,-30.762,-35.156,-28.320,-14.648
1678023704.712,-28.809,-29.785,-31.738,-30.273,49.316
1678023704.716,-40.039,-32.227,-34.180,-36.621,-155.273
1678023704.720,-40.039,-32.715,-33.203,-42.969,-103.516
1678023704.724,-34.668,-32.715,-34.180,-43.457,102.051
1678023704.728,-29.297,-32.227,-37.598,-34.668,375.000
1678023704.731,-30.273,-34.668,-37.598,-33.691,209.961
1678023704.735,-35.156,-36.133,-36.621,-45.410,-134.766
1678023704.739,-47.363,-36.133,-37.109,-46.387,-106.445
1678023704.743,-44.922,-30.762,-40.039,-48.340,-64.453
1678023704.747,-34.180,-27.832,-37.598,-54.199,-65.430
1678023704.753,-30.273,-27.832,-34.180,-53.711,-65.430
1678023704.757,-30.273,-25.879,-29.297,-45.898,47.363
1678023704.761,-41.016,-28.320,-28.320,-44.922,16.113
1678023704.765,-42.969,-31.250,-34.180,-50.781,-175.781
1678023704.769,-41.016,-30.273,-38.574,-54.688,-157.227
1678023704.773,-40.039,-33.691,-31.738,-47.852,26.855
1678023704.777,-35.156,-34.180,-29.785,-41.016,52.246
1678023704.780,-41.992,-31.250,-36.621,-49.316,-86.426
1678023704.784,-39.062,-29.785,-34.180,-52.246,-124.512
1678023704.788,-31.738,-32.715,-36.133,-38.086,73.730
1678023704.792,-34.668,-36.621,-41.016,-36.621,62.500
1678023704.796,-35.156,-33.691,-34.668,-41.016,-172.852
1678023704.810,-35.156,-31.250,-28.320,-41.016,-125.977
1678023704.814,-36.133,-34.668,-26.855,-48.340,-23.926
1678023704.818,-32.227,-32.227,-31.250,-48.340,-21.973
1678023704.822,-21.484,-30.762,-39.062,-40.039,-52.734
1678023704.826,-25.879,-33.203,-41.016,-37.598,7.812
1678023704.830,-38.086,-34.668,-36.621,-31.738,373.535
1678023704.834,-34.668,-34.180,-40.527,-33.203,308.105
1678023704.837,-28.320,-31.738,-45.410,-46.387,-98.633
1678023704.841,-29.297,-30.273,-43.457,-48.340,-14.648
1678023704.845,-32.715,-32.227,-42.480,-41.992,157.715
1678023704.849,-39.062,-33.203,-46.875,-46.875,-83.496
1678023704.853,-40.527,-30.762,-48.828,-49.316,-206.055
1678023704.870,-30.273,-27.832,-44.434,-39.551,-85.938
1678023704.874,-22.461,-24.414,-40.527,-34.668,-73.730
1678023704.878,-24.902,-23.438,-36.621,-43.945,-142.578
1678023704.882,-29.785,-24.902,-41.016,-42.480,-115.234
1678023704.886,-31.738,-21.973,-47.363,-44.434,-54.688
1678023704.890,-32.715,-20.996,-43.945,-46.387,-68.848
1678023704.894,-29.785,-23.926,-42.480,-46.387,16.113
1678023704.897,-29.785,-27.832,-40.527,-45.410,28.809
1678023704.901,-24.902,-29.785,-38.574,-37.109,120.605
1678023704.905,-26.367,-32.715,-33.203,-35.156,153.809
1678023704.909,-31.738,-36.621,-33.691,-41.992,-164.062
1678023704.913,-27.344,-39.551,-38.574,-46.387,-218.750
1678023704.900,-24.414,-36.133,-34.180,-33.691,-125.488
1678023704.904,-27.344,-32.715,-32.227,-26.367,-136.230
1678023704.908,-35.156,-31.250,-34.180,-34.180,-184.082
1678023704.912,-35.645,-28.809,-32.715,-32.715,-53.711
1678023704.916,-29.785,-30.762,-34.180,-28.809,76.660
1678023704.920,-30.762,-32.715,-35.645,-40.039,27.344
1678023704.924,-35.645,-30.762,-33.691,-42.480,-78.125
1678023704.927,-39.062,-28.809,-30.762,-37.109,29.785
1678023704.931,-38.574,-28.320,-31.738,-48.340,77.148
1678023704.935,-35.645,-25.391,-31.738,-49.316,-153.809
1678023704.939,-33.691,-22.461,-29.297,-41.992,-182.617
1678023704.943,-30.762,-31.738,-31.250,-41.016,31.250
1678023704.946,-35.156,-40.527,-38.086,-40.039,307.129
1678023704.950,-39.551,-32.715,-35.156,-56.641,50.781
1678023704.954,-35.156,-30.762,-29.785,-60.547,-218.262
1678023704.958,-29.785,-33.203,-35.156,-42.969,-109.863
1678023704.962,-32.715,-30.273,-38.086,-35.156,-32.715
1678023704.966,-37.598,-32.715,-35.645,-39.551,-71.777
1678023704.970,-41.992,-39.062,-35.645,-51.758,-67.871
1678023704.973,-36.133,-38.086,-36.621,-42.480,126.465
1678023704.977,-33.691,-28.809,-40.039,-35.645,160.645
1678023704.981,-34.668,-23.926,-41.992,-36.621,-72.754
1678023704.985,-39.551,-26.367,-37.598,-25.391,-63.477
1678023704.989,-50.293,-27.832,-33.203,-26.855,-46.875
1678023704.990,-41.992,-25.391,-33.691,-37.109,-140.137
1678023704.994,-32.715,-23.926,-32.715,-41.016,-187.012
1678023704.998,-35.645,-27.344,-32.227,-36.621,-72.266
1678023705.002,-37.598,-31.250,-37.598,-39.062,56.152
1678023705.006,-40.039,-30.273,-35.156,-43.945,1.953
1678023705.010,-36.621,-27.832,-34.180,-41.504,-52.734
1678023705.014,-34.180,-27.832,-39.062,-42.969,-7.324
1678023705.017,-32.715,-27.832,-37.109,-30.762,240.234
1678023705.021,-43.457,-26.855,-36.133,-31.738,123.535
1678023705.025,-52.246,-29.297,-40.527,-46.875,-153.320
1678023705.029,-39.062,-27.344,-40.039,-45.410,-125.000
1678023705.033,-37.598,-28.320,-41.504,-42.969,-160.645
1678023705.038,-42.480,-34.180,-44.434,-42.969,-145.508
1678023705.042,-42.969,-26.367,-38.574,-43.945,-165.527
1678023705.046,-39.551,-21.484,-34.668,-36.621,-70.801
1678023705.050,-36.621,-26.367,-38.086,-31.738,-2.930
1678023705.054,-30.273,-28.320,-35.645,-32.715,-159.180
1678023705.058,-23.926,-28.320,-31.738,-28.320,-124.023
1678023705.062,-22.461,-27.344,-29.785,-12.207,208.984
1678023705.065,-32.227,-29.785,-32.227,-15.625,198.242
1678023705.069,-37.598,-28.809,-33.203,-28.809,-140.625
1678023705.073,-31.250,-27.832,-33.691,-31.738,-165.527
1678023705.077,-31.738,-32.715,-36.621,-41.016,-77.637
1678023705.081,-40.039,-35.156,-35.645,-46.875,-54.199
1678023705.095,-43.457,-37.598,-35.645,-47.363,-87.891
1678023705.099,-38.574,-41.016,-36.621,-46.875,-73.242
1678023705.103,-28.320,-41.992,-37.598,-46.387,-17.090
1678023705.107,-21.484,-41.992,-37.598,-41.016,63.477
1678023705.111,-27.344,-38.086,-38.086,-39.551,-12.695
1678023705.115,-35.156,-33.691,-39.062,-38.574,5.371
1678023705.119,-34.180,-35.645,-46.875,-30.762,311.523
1678023705.122,-32.227,-35.156,-47.363,-31.250,241.211
1678023705.126,-34.180,-32.715,-40.527,-37.598,-77.148
1678023705.130,-40.039,-31.250,-42.480,-42.969,-101.074
1678023705.134,-43.457,-33.691,-45.410,-42.969,-82.031
1678023705.138,-41.504,-38.086,-44.922,-37.109,-185.059
1678023705.126,-38.086,-35.156,-42.969,-34.180,-195.801
1678023705.130,-26.855,-33.691,-41.992,-30.762,-108.887
1678023705.134,-28.320,-40.527,-41.504,-25.391,-78.125
1678023705.138,-37.598,-40.527,-39.062,-29.297,-160.156
1678023705.142,-39.551,-34.180,-36.621,-34.180,-112.793
1678023705.146,-38.086,-36.621,-31.250,-26.367,64.941
1678023705.150,-33.691,-37.109,-29.785,-22.461,40.039
1678023705.153,-33.203,-32.715,-29.297,-30.762,-8.301
1678023705.157,-41.504,-36.133,-31.250,-35.156,-104.492
1678023705.161,-44.922,-38.086,-31.250,-32.715,77.148
1678023705.165,-40.039,-36.621,-27.832,-35.156,158.203
1678023705.169,-37.598,-37.598,-28.809,-36.621,-102.051
1678023705.185,-37.109,-36.621,-26.855,-29.785,-91.797
1678023705.189,-46.387,-42.480,-26.367,-29.785,-94.727
1678023705.193,-49.805,-46.875,-29.297,-33.203,-147.461
1678023705.197,-38.574,-43.457,-26.855,-28.320,-59.570
1678023705.201,-32.227,-39.062,-28.809,-23.926,24.902
1678023705.205,-29.297,-36.621,-28.809,-23.438,315.430
1678023705.209,-35.645,-35.645,-27.832,-28.809,229.492
1678023705.212,-45.410,-33.691,-27.344,-36.133,-113.770
1678023705.216,-39.062,-31.738,-26.367,-32.715,-35.645
1678023705.220,-25.391,-33.203,-21.973,-32.715,168.457
1678023705.224,-28.809,-34.180,-24.414,-39.551,-7.812
1678023705.228,-36.133,-32.227,-27.832,-32.227,-169.434
1678023705.230,-37.109,-36.133,-21.484,-25.391,-67.871
1678023705.234,-34.668,-36.133,-20.996,-31.250,-66.895
1678023705.238,-28.320,-33.691,-27.344,-33.203,-145.996
1678023705.242,-23.438,-31.250,-25.391,-23.438,-85.449
1678023705.246,-31.250,-33.203,-23.926,-17.578,-43.457
1678023705.250,-38.574,-32.227,-25.879,-19.531,-30.273
1678023705.254,-31.738,-27.344,-24.414,-25.879,1.953
1678023705.257,-33.691,-34.180,-31.738,-40.527,-82.031
1678023705.261,-30.273,-35.645,-36.621,-32.715,114.258
1678023705.265,-31.250,-26.855,-33.203,-19.531,239.746
1678023705.269,-44.922,-32.715,-40.039,-37.109,-73.242
1678023705.273,-43.457,-30.762,-29.297,-50.781,-177.246
1678023705.273,-43.457,-30.762,-29.297,-50.781,-177.246
1678023705.275,-33.691,-15.625,-16.602,-43.457,-96.680
1678023705.279,-17.578,-20.508,-30.762,-31.250,-111.816
1678023705.283,-19.043,-25.391,-28.809,-36.133,-188.965
1678023705.287,-55.176,-15.137,-0.977,-60.059,-46.875
1678023705.291,-67.871,3.906,-14.648,-73.730,33.203
1678023705.295,-63.965,16.602,-30.762,-94.238,-58.105
1678023705.299,-75.684,22.949,-3.906,-138.184,-31.738
1678023705.302,-121.094,55.664,28.809,-145.508,0.488
1678023705.306,-180.664,52.734,2.930,-161.621,111.816
1678023705.310,-213.867,44.434,-17.090,-205.566,-30.762
1678023705.314,-230.469,44.922,-1.953,-223.145,-198.730
1678023705.318,-249.023,37.109,-4.395,-237.793,-76.660
1678023705.321,-256.836,32.227,1.953,-251.465,-28.809
1678023705.325,-257.812,28.320,13.672,-253.418,-158.203
1678023705.329,-269.531,42.969,13.184,-257.812,-187.012
1678023705.333,-270.020,46.387,11.719,-261.719,-118.652
1678023705.337,-257.812,37.109,17.578,-252.930,-74.219
1678023705.341,-256.348,28.809,24.414,-247.070,-13.672
1678023705.345,-263.184,24.414,22.949,-255.859,1.953
1678023705.348,-250.977,31.738,17.090,-253.418,187.012
1678023705.352,-227.051,38.086,5.859,-236.816,146.484
1678023705.356,-211.914,39.551,1.953,-219.727,-170.898
1678023705.360,-196.777,39.551,5.859,-206.543,-155.762
1678023705.364,-188.965,37.598,2.441,-197.266,-111.816
1678023705.366,-180.664,34.668,-2.441,-187.988,-160.156
1678023705.370,-161.621,28.809,-5.371,-174.805,-208.496
1678023705.374,-138.672,24.414,-8.301,-149.414,-24.902
1678023705.378,-121.094,17.578,-8.789,-129.883,168.457
1678023705.382,-118.652,14.160,-13.672,-125.000,9.766
1678023705.386,-105.957,9.277,-15.625,-106.445,-94.238
1678023705.390,-84.961,2.441,-14.160,-87.402,39.062
1678023705.393,-72.266,-10.742,-22.949,-69.824,259.277
1678023705.397,-62.012,-27.832,-30.762,-58.594,144.043
1678023705.401,-51.270,-34.668,-33.203,-51.270,-139.160
1678023705.405,-44.434,-37.109,-36.133,-39.551,-94.238
1678023705.409,-25.879,-45.898,-36.133,-32.227,-74.707
1678023705.411,-9.766,-55.664,-35.645,-22.949,-118.652
1678023705.415,-10.742,-60.059,-41.016,-17.578,-111.816
1678023705.419,-4.883,-57.129,-45.410,-13.672,-105.957
1678023705.423,-3.418,-58.594,-46.875,0.977,-88.867
1678023705.427,4.883,-61.035,-45.410,11.230,-42.480
1678023705.431,21.973,-58.594,-41.992,21.484,-32.227
1678023705.435,30.762,-62.500,-36.133,40.039,194.824
1678023705.438,21.973,-63.477,-37.109,41.016,304.688
1678023705.442,21.973,-58.105,-38.574,29.297,8.301
1678023705.446,35.645,-57.617,-35.156,28.320,-91.797
1678023705.450,38.086,-61.523,-39.551,31.250,-83.008
1678023705.454,42.480,-62.012,-42.480,46.387,-83.496
1678023705.455,41.992,-60.547,-37.109,61.523,-37.598
1678023705.459,40.527,-61.523,-33.691,55.664,-36.133
1678023705.463,41.016,-63.965,-35.645,46.875,-67.871
1678023705.467,44.434,-62.012,-37.109,53.711,-72.266
1678023705.471,45.898,-61.523,-35.156,57.129,-47.363
1678023705.475,41.016,-61.035,-34.668,55.176,57.617
1678023705.479,46.387,-65.430,-36.621,53.223,377.930
1678023705.482,35.645,-71.289,-47.363,38.086,295.410
1678023705.486,32.227,-64.453,-49.805,27.832,-174.316
1678023705.490,36.621,-63.477,-48.340,36.133,-74.707
1678023705.494,28.809,-62.500,-48.828,41.016,39.062
1678023705.498,29.297,-57.617,-45.898,34.668,-160.645
1678023705.501,33.203,-57.129,-46.387,35.645,-166.016
1678023705.505,40.039,-57.129,-44.434,41.992,-109.863
1678023705.509,42.480,-57.617,-41.992,46.387,-60.547
1678023705.513,41.992,-59.570,-43.457,43.945,-87.402
1678023705.517,39.062,-59.082,-44.434,37.109,-120.117
1678023705.521,34.180,-56.641,-44.434,39.551,-3.906
1678023705.525,36.621,-55.176,-44.434,47.363,2.441
1678023705.528,40.527,-57.617,-45.898,47.852,-89.844
1678023705.532,39.062,-61.035,-41.016,43.457,-142.090
1678023705.536,36.133,-59.082,-39.062,50.293,166.504
1678023705.540,28.320,-49.316,-40.039,46.875,186.035
1678023705.544,28.809,-45.898,-39.551,32.715,-183.105
1678023705.560,37.109,-48.340,-36.621,36.621,-148.438
1678023705.564,37.598,-48.340,-36.621,43.945,-65.918
1678023705.568,30.762,-48.828,-44.922,39.551,-126.953
1678023705.572,20.996,-51.270,-48.340,27.344,-92.285
1678023705.576,24.414,-49.316,-44.922,27.832,65.430
1678023705.580,32.715,-46.387,-45.410,39.062,235.840
1678023705.584,20.996,-49.316,-48.340,26.855,187.012
1678023705.587,11.230,-52.246,-50.781,12.207,-60.547
1678023705.591,15.625,-53.711,-44.434,18.555,-37.598
1678023705.595,13.672,-54.199,-32.715,18.066,102.539
1678023705.599,4.883,-58.105,-34.668,8.789,-95.215
1678023705.603,11.719,-58.105,-35.645,14.648,-135.254
1678023705.605,15.625,-57.129,-35.156,22.461,44.922
1678023705.609,8.301,-57.129,-39.062,16.113,-16.602
1678023705.613,8.301,-50.293,-40.039,6.348,-152.832
1678023705.617,5.371,-50.781,-36.133,3.418,-152.344
1678023705.621,6.348,-51.270,-36.621,7.324,-149.902
1678023705.625,3.418,-46.387,-41.016,4.395,-102.539
1678023705.629,-9.277,-45.898,-40.527,-2.441,-56.152
1678023705.632,-7.324,-47.852,-35.645,-2.441,-147.461
1678023705.636,2.441,-46.875,-32.715,6.836,-19.531
1678023705.640,2.441,-45.898,-32.227,11.230,94.238
1678023705.644,-2.930,-46.387,-35.645,4.883,-128.418
1678023705.648,0.488,-46.387,-33.691,8.301,-116.211
1678023705.651,-3.418,-47.852,-33.203,-0.488,-143.066
1678023705.655,-6.348,-47.363,-33.691,-10.742,-154.297
1678023705.659,-8.789,-44.434,-32.227,-9.766,-119.141
1678023705.663,-11.719,-43.945,-30.762,-6.836,-2.441
1678023705.667,-16.602,-46.387,-27.344,-2.930,295.410
1678023705.671,-20.020,-50.781,-26.367,-15.625,193.848
1678023705.675,-17.090,-51.758,-27.344,-26.367,-110.840
1678023705.678,-14.648,-47.363,-26.855,-20.508,-62.988
1678023705.682,-15.137,-43.945,-27.832,-8.301,115.723
1678023705.686,-15.625,-41.992,-29.297,-14.160,-40.039
1678023705.690,-16.113,-40.039,-32.715,-23.438,-197.754
1678023705.694,-20.508,-39.551,-30.273,-18.555,-156.250
1678023705.696,-19.531,-37.598,-23.926,-17.578,-75.195
1678023705.700,-18.555,-37.598,-22.949,-13.184,-114.746
1678023705.704,-22.461,-41.992,-22.461,-14.160,-166.016
1678023705.708,-20.996,-40.527,-21.973,-20.020,-123.047
1678023705.712,-15.137,-41.504,-28.320,-22.461,-99.121
1678023705.716,-12.207,-39.551,-32.227,-19.531,-96.680
1678023705.720,-19.531,-40.039,-30.762,-20.508,-97.168
1678023705.723,-25.879,-45.898,-28.809,-17.090,137.207
1678023705.727,-27.832,-45.898,-30.762,-17.578,257.812
1678023705.731,-29.785,-40.527,-30.273,-27.832,-96.191
1678023705.735,-22.949,-41.504,-23.926,-22.461,-191.895
1678023705.739,-20.508,-43.457,-21.484,-21.973,-144.043
1678023705.740,-23.926,-43.457,-22.461,-25.879,-179.688
1678023705.744,-32.715,-47.363,-28.320,-33.203,-186.035
1678023705.748,-36.133,-48.340,-26.367,-32.715,-126.953
1678023705.752,-29.297,-51.270,-25.879,-32.227,-68.848
1678023705.756,-25.391,-45.898,-26.367,-30.762,-145.020
1678023705.760,-29.785,-40.527,-21.973,-26.367,-166.504
1678023705.764,-38.086,-39.062,-23.438,-31.250,-2.930
1678023705.767,-33.691,-35.156,-20.508,-21.484,346.191
1678023705.771,-30.762,-37.109,-20.020,-20.508,263.184
1678023705.775,-25.879,-35.645,-20.508,-26.367,-108.398
1678023705.779,-29.297,-34.668,-19.043,-21.484,-165.039
1678023705.783,-40.039,-38.086,-26.855,-25.391,-89.844
1678023705.786,-44.434,-40.039,-31.250,-34.180,-141.602
1678023705.790,-34.668,-38.086,-24.902,-31.738,-180.664
1678023705.794,-27.832,-38.574,-26.855,-30.762,-108.398
1678023705.798,-39.062,-42.480,-30.273,-30.762,-110.352
1678023705.802,-44.922,-39.551,-32.715,-23.926,-113.770
1678023705.806,-40.527,-37.598,-35.156,-36.133,-81.543
1678023705.810,-30.762,-36.133,-31.250,-33.691,141.602
1678023705.813,-25.391,-32.227,-32.227,-21.973,186.035
1678023705.817,-26.367,-28.809,-27.832,-26.855,-100.098
1678023705.821,-30.273,-27.344,-23.438,-28.809,-121.582
1678023705.825,-36.621,-40.039,-30.762,-38.086,-48.828
1678023705.829,-34.180,-45.410,-35.156,-44.434,-80.566
1678023705.830,-27.344,-39.551,-34.668,-40.039,-173.340
1678023705.834,-28.320,-35.156,-32.715,-37.598,-120.605
1678023705.838,-42.480,-38.574,-31.738,-33.691,-65.918
1678023705.842,-46.875,-41.504,-33.691,-41.016,-102.539
1678023705.846,-38.086,-38.574,-33.203,-47.363,-58.105
1678023705.850,-34.668,-39.062,-30.762,-36.621,10.254
1678023705.854,-31.738,-40.039,-24.414,-17.578,348.633
1678023705.857,-35.156,-40.039,-20.996,-22.461,266.113
1678023705.861,-41.504,-42.480,-22.949,-44.434,-151.367
1678023705.865,-33.691,-42.969,-30.273,-45.898,-130.371
1678023705.869,-25.879,-40.527,-32.227,-45.410,-75.684
1678023705.873,-32.227,-43.457,-30.273,-44.922,-89.844
1678023705.878,-38.574,-41.504,-28.320,-37.109,-193.848
1678023705.882,-37.109,-39.551,-23.926,-30.273,-104.004
1678023705.886,-36.621,-41.504,-24.902,-31.738,-41.016
1678023705.890,-32.715,-39.062,-24.902,-27.832,-182.129
1678023705.894,-36.621,-39.551,-23.438,-23.438,-128.418
1678023705.898,-47.363,-44.434,-24.902,-29.785,-40.527
1678023705.902,-42.969,-41.504,-27.832,-31.250,-65.918
1678023705.905,-31.738,-36.133,-29.785,-32.227,-186.035
1678023705.909,-28.320,-35.645,-27.832,-35.156,-195.312
1678023705.913,-25.879,-33.203,-28.809,-25.879,64.941
1678023705.917,-32.227,-34.668,-33.691,-27.344,113.281
1678023705.921,-42.969,-36.621,-36.133,-33.691,-136.230
1678023705.935,-40.527,-31.738,-33.203,-30.273,-159.668
1678023705.939,-35.156,-31.250,-34.668,-28.809,-51.758
1678023705.943,-35.156,-32.715,-33.203,-29.297,-76.172
1678023705.947,-37.598,-32.715,-27.344,-32.715,-84.473
1678023705.951,-44.922,-32.715,-29.297,-35.156,33.691
1678023705.955,-41.504,-31.250,-28.809,-20.996,304.199
1678023705.959,-32.715,-29.785,-29.785,-16.113,394.531
1678023705.962,-35.645,-31.738,-40.039,-31.250,-1.953
1678023705.966,-37.109,-32.227,-37.598,-23.926,-110.840
1678023705.970,-39.062,-30.273,-32.715,-20.020,-37.109
1678023705.974,-40.527,-32.227,-37.109,-25.391,-146.484
1678023705.978,-32.715,-35.645,-37.109,-25.879,-138.672
1678023705.980,-28.320,-42.480,-35.645,-21.484,-48.828
1678023705.984,-32.227,-44.922,-32.227,-20.020,-53.223
1678023705.988,-35.156,-40.039,-29.297,-29.297,-114.746
1678023705.992,-34.668,-38.574,-28.809,-31.250,-78.125
1678023705.996,-34.668,-39.551,-28.809,-17.578,13.672
1678023706.000,-30.273,-39.551,-28.809,-6.836,0.000
1678023706.004,-28.809,-33.691,-33.691,-8.301,5.371
1678023706.007,-41.992,-23.926,-39.551,-24.902,-94.727
1678023706.011,-43.457,-21.484,-34.180,-26.855,41.016
1678023706.015,-43.457,-27.832,-28.809,-26.367,181.152
1678023706.019,-53.223,-32.715,-34.668,-36.133,-145.996
1678023706.023,-49.805,-33.691,-33.691,-31.738,-162.109
1678023706.025,-50.293,-36.621,-29.297,-31.250,-84.961
1678023706.029,-56.152,-33.203,-33.203,-36.621,-101.074
1678023706.033,-47.363,-29.297,-32.715,-37.598,-120.117
1678023706.037,-41.504,-30.762,-34.668,-28.809,58.594
1678023706.041,-40.039,-30.273,-32.715,-16.602,191.895
1678023706.045,-40.527,-27.832,-29.785,-16.113,29.785
1678023706.049,-37.109,-30.762,-31.250,-21.973,-77.637
1678023706.052,-30.273,-33.691,-30.273,-20.996,0.977
1678023706.056,-28.320,-32.715,-24.902,-4.395,269.043
1678023706.060,-31.738,-29.785,-23.926,-5.859,156.250
1678023706.064,-43.457,-34.180,-28.320,-17.578,-101.562
1678023706.068,-46.387,-35.645,-26.367,-19.043,-56.641
1678023706.071,-37.598,-34.180,-24.414,-23.926,-51.270
1678023706.075,-37.598,-34.668,-31.250,-21.484,-122.559
1678023706.079,-38.086,-34.180,-34.668,-19.043,-130.371
1678023706.083,-38.086,-38.086,-31.250,-22.461,-111.816
1678023706.087,-48.828,-38.086,-32.227,-27.344,-159.668
1678023706.091,-49.316,-38.086,-29.785,-30.762,-85.938
1678023706.095,-40.039,-38.086,-29.297,-30.762,5.371
1678023706.098,-29.297,-35.645,-32.715,-20.996,172.363
1678023706.102,-36.133,-39.551,-32.227,-16.602,197.754
1678023706.106,-47.852,-38.574,-29.785,-29.785,-123.535
1678023706.110,-41.992,-33.691,-29.297,-36.133,-155.762
1678023706.114,-37.598,-40.527,-32.227,-26.855,-8.301
1678023706.115,-31.250,-41.016,-29.785,-23.926,-26.367
1678023706.119,-34.180,-35.156,-25.879,-25.391,-129.883
1678023706.123,-45.898,-38.086,-26.855,-28.809,-126.953
1678023706.127,-49.805,-44.922,-31.250,-40.039,-76.172
1678023706.131,-48.340,-45.898,-38.086,-41.016,1.465
1678023706.135,-36.621,-40.039,-36.621,-27.344,-56.152
1678023706.139,-32.227,-35.645,-30.273,-24.902,27.344
1678023706.142,-38.086,-38.574,-32.227,-26.367,324.219
1678023706.146,-41.504,-35.645,-30.762,-31.738,112.305
1678023706.150,-38.574,-31.738,-26.855,-31.250,-224.609
1678023706.154,-36.133,-34.180,-30.273,-29.297,-79.102
1678023706.158,-35.645,-32.715,-25.879,-30.762,-3.418
1678023706.161,-34.180,-28.320,-21.973,-35.645,-164.062
1678023706.165,-44.434,-39.062,-37.598,-55.176,-222.656
1678023706.169,-49.316,-36.133,-24.902,-61.035,-139.648
1678023706.173,-31.738,-6.348,-16.602,-40.039,-102.051
1678023706.177,-40.527,-33.691,-41.992,-48.828,-164.062
1678023706.181,-55.664,-39.062,-15.625,-58.594,-98.633
1678023706.185,-61.523,-14.648,14.160,-62.988,177.734
1678023706.188,-82.520,8.789,21.484,-91.309,134.277
1678023706.192,-108.887,19.043,13.184,-118.164,-164.062
1678023706.196,-150.391,17.090,-27.344,-152.832,-140.625
1678023706.200,-190.430,11.230,-23.926,-192.383,85.449
1678023706.204,-212.402,5.371,-13.672,-229.492,22.461
1678023706.206,-217.773,36.133,21.484,-234.863,-183.105
1678023706.210,-201.660,38.086,52.246,-201.660,-79.102
1678023706.214,-222.168,28.320,14.160,-218.262,-61.035
1678023706.218,-253.906,24.902,20.996,-247.070,-86.914
1678023706.222,-262.207,24.414,43.457,-260.742,-125.977
1678023706.226,-262.695,25.879,63.477,-265.137,-103.027
1678023706.230,-246.094,33.203,94.238,-244.141,293.457
1678023706.233,-241.211,39.551,111.816,-234.863,273.438
1678023706.237,-241.211,39.551,125.488,-232.422,-97.168
1678023706.241,-230.957,33.691,148.926,-229.004,-125.000
1678023706.245,-205.566,35.156,158.691,-214.355,-116.211
1678023706.249,-167.969,40.527,161.621,-182.617,-200.195
1678023706.251,-160.156,35.156,159.180,-159.180,-191.895
1678023706.255,-166.992,20.996,152.344,-157.715,-75.195
1678023706.259,-160.645,10.254,149.902,-152.344,-33.691
1678023706.263,-139.648,6.348,136.230,-133.789,-91.309
1678023706.267,-117.676,4.395,117.188,-121.582,-148.926
1678023706.271,-110.840,-1.465,103.027,-106.934,106.445
1678023706.275,-111.816,-13.672,92.285,-104.492,230.957
1678023706.278,-99.121,-20.996,84.473,-97.656,-89.355
1678023706.282,-85.449,-27.832,72.754,-71.289,-172.363
1678023706.286,-61.523,-37.109,58.105,-53.711,-58.594
1678023706.290,-28.809,-45.410,45.898,-36.621,-44.922
1678023706.294,-19.531,-47.363,27.832,-27.344,-159.668
1678023706.310,-23.438,-49.316,11.719,-21.484,-175.293
1678023706.314,-8.301,-56.641,8.789,-1.953,-108.398
1678023706.318,15.137,-56.641,0.488,19.531,-161.133
1678023706.322,20.996,-51.758,-13.184,28.809,-85.938
1678023706.326,15.137,-53.711,-15.137,26.367,92.773
1678023706.330,15.137,-57.129,-20.020,35.645,221.191
1678023706.334,19.531,-60.059,-33.203,37.598,153.809
1678023706.337,17.090,-58.594,-43.457,24.902,-5.859
1678023706.341,27.344,-51.270,-46.875,30.762,63.965
1678023706.345,45.410,-51.270,-53.223,48.828,165.039
1678023706.349,33.691,-57.617,-65.918,41.992,-38.086
1678023706.353,20.508,-58.594,-66.895,34.180,-152.344
1678023706.355,28.809,-58.105,-63.477,35.156,-62.012
1678023706.359,45.410,-55.664,-65.430,43.457,-79.102
1678023706.363,48.828,-54.688,-66.895,54.199,-197.266
1678023706.367,42.969,-53.711,-64.941,53.711,-168.457
1678023706.371,44.922,-53.711,-67.383,50.293,-46.387
1678023706.375,51.270,-57.129,-72.754,46.875,-7.324
1678023706.379,52.734,-56.641,-75.195,45.898,-80.078
1678023706.382,54.199,-50.781,-80.566,47.363,-35.645
1678023706.386,52.734,-50.293,-84.473,50.781,223.145
1678023706.390,52.246,-52.734,-85.449,40.527,209.961
1678023706.394,48.340,-48.828,-88.379,32.227,-104.492
1678023706.398,46.875,-49.316,-84.961,37.598,-136.230
1678023706.400,48.828,-47.852,-80.566,37.598,-114.258
1678023706.404,41.016,-45.410,-85.938,39.062,-155.762
1678023706.408,26.855,-48.828,-87.891,26.367,-135.742
1678023706.412,28.809,-47.363,-80.566,18.066,-64.941
1678023706.416,37.598,-47.363,-79.102,28.809,62.500
1678023706.420,34.668,-45.410,-83.496,29.785,32.715
1678023706.424,28.320,-42.969,-88.379,22.461,2.930
1678023706.427,27.344,-43.945,-88.379,20.020,72.266
1678023706.431,29.785,-42.480,-85.938,25.391,203.613
1678023706.435,20.508,-43.457,-87.891,19.531,51.270
1678023706.439,15.137,-45.898,-90.820,18.066,-115.234
1678023706.443,18.066,-46.875,-87.402,22.461,16.113
1678023706.446,17.578,-44.434,-84.961,20.020,8.301
1678023706.450,17.090,-43.457,-85.449,14.160,-95.215
1678023706.454,21.973,-45.410,-83.984,11.719,-49.316
1678023706.458,24.414,-47.852,-85.449,12.695,-29.297
1678023706.462,18.555,-43.945,-84.473,19.043,-99.121
1678023706.466,15.625,-37.109,-81.543,14.648,-91.797
1678023706.470,20.508,-39.551,-83.984,12.695,-30.762
1678023706.473,24.902,-43.945,-85.449,21.973,142.578
1678023706.477,22.949,-41.504,-83.984,17.578,114.746
1678023706.481,16.113,-38.574,-81.055,5.859,-172.363
1678023706.485,13.184,-34.668,-76.660,2.441,-109.863
1678023706.489,11.719,-30.273,-76.660,5.371,-104.004
1678023706.491,12.207,-30.762,-73.242,4.883,-121.582
1678023706.495,11.719,-34.668,-69.824,-5.371,-105.469
1678023706.499,4.395,-37.109,-68.359,-5.371,-80.078
1678023706.503,-9.277,-38.574,-65.430,-4.395,139.160
1678023706.507,-10.254,-37.598,-67.383,-14.648,64.941
1678023706.511,-3.906,-36.621,-70.801,-15.137,-87.402
1678023706.515,-5.371,-35.156,-67.871,-11.230,-13.672
1678023706.518,-3.906,-33.203,-60.547,1.465,224.609
1678023706.522,-9.277,-33.691,-60.547,-3.418,100.098
1678023706.526,-17.578,-36.621,-65.430,-13.184,-161.133
1678023706.530,-14.648,-41.504,-63.965,-7.812,-109.375
1678023706.534,-10.254,-41.016,-64.453,-11.719,-108.398
1678023706.538,-13.184,-37.109,-65.430,-11.230,-179.688
1678023706.542,-17.090,-36.621,-65.918,-8.301,-222.656
1678023706.546,-15.625,-39.062,-70.801,-13.184,-94.727
1678023706.550,-12.695,-34.668,-65.918,-18.066,-75.684
1678023706.554,-13.184,-33.691,-63.477,-23.926,-152.344
1678023706.558,-16.113,-36.621,-65.918,-23.926,-156.250
1678023706.562,-20.508,-38.086,-61.523,-13.672,105.957
1678023706.565,-27.832,-35.156,-63.477,-17.090,202.148
1678023706.569,-33.203,-30.762,-67.871,-32.227,-141.602
1678023706.573,-27.832,-27.344,-64.453,-26.855,-231.445
1678023706.577,-25.391,-27.344,-65.430,-15.137,14.648
1678023706.581,-32.227,-33.691,-65.918,-18.555,22.949
1678023706.579,-31.738,-38.086,-62.988,-30.273,-211.426
1678023706.583,-29.785,-40.039,-62.500,-36.621,-127.441
1678023706.587,-21.973,-37.109,-61.523,-37.598,-89.844
1678023706.591,-16.113,-34.180,-57.617,-35.645,-90.820
1678023706.595,-29.785,-34.668,-55.664,-34.668,-122.559
1678023706.599,-33.203,-33.691,-60.059,-35.645,-147.461
1678023706.603,-25.879,-34.180,-57.617,-27.344,310.059
1678023706.606,-22.949,-36.133,-56.641,-25.879,358.887
1678023706.610,-27.832,-39.062,-61.523,-32.227,-111.328
1678023706.614,-34.180,-37.109,-57.617,-28.320,-91.797
1678023706.618,-39.551,-38.574,-56.152,-24.902,-78.613
1678023706.622,-35.645,-37.598,-57.129,-30.273,-226.562
1678023706.626,-23.438,-32.715,-55.664,-31.738,-218.750
1678023706.630,-20.996,-33.691,-58.594,-29.297,-89.844
1678023706.634,-28.320,-29.785,-58.105,-34.668,-50.293
1678023706.638,-34.180,-29.785,-56.641,-37.598,-159.180
1678023706.642,-30.762,-33.203,-57.129,-31.738,-215.332
1678023706.646,-26.855,-35.645,-57.129,-25.391,-3.906
1678023706.650,-26.855,-33.203,-52.734,-22.461,124.512
1678023706.653,-29.785,-33.203,-52.246,-27.344,-0.488
1678023706.657,-33.691,-35.156,-47.852,-35.156,-76.172
1678023706.661,-31.738,-37.109,-48.828,-33.691,121.582
1678023706.665,-27.832,-38.086,-56.641,-33.203,207.520
1678023706.669,-22.949,-30.762,-52.246,-34.668,-85.449
1678023706.685,-27.344,-30.762,-48.828,-36.621,-73.242
1678023706.689,-35.156,-32.227,-53.223,-38.574,-37.598
1678023706.693,-34.180,-28.320,-50.781,-43.945,-100.586
1678023706.697,-26.367,-30.762,-46.387,-47.852,-104.004
1678023706.701,-18.555,-31.738,-47.852,-40.039,60.059
1678023706.705,-17.578,-27.832,-44.922,-32.715,307.129
1678023706.709,-23.438,-28.320,-48.340,-39.062,205.078
1678023706.712,-26.367,-28.320,-51.270,-54.688,-100.586
1678023706.716,-20.508,-30.762,-46.875,-45.898,-111.816
1678023706.720,-20.020,-31.738,-46.387,-34.180,131.348
1678023706.724,-35.645,-33.691,-47.852,-40.039,-9.766
1678023706.728,-47.852,-35.156,-45.898,-41.504,-250.977
1678023706.730,-39.551,-29.297,-46.875,-33.691,-40.039
1678023706.734,-31.250,-25.391,-46.875,-31.738,53.711
1678023706.738,-18.066,-21.484,-45.410,-29.297,-161.133
1678023706.742,7.812,-22.949,-45.898,-4.883,-163.574
1678023706.746,-20.996,-30.273,-36.621,-25.391,-100.586
1678023706.750,-60.059,-30.273,-32.227,-62.500,-69.336
1678023706.754,-51.758,-26.855,-37.598,-46.387,-100.586
1678023706.757,-51.270,-28.809,-37.109,-47.363,-173.340
1678023706.761,-68.359,-39.062,-26.367,-63.965,36.133
1678023706.765,-73.242,-41.992,-24.414,-62.012,107.422
1678023706.769,-75.195,-34.668,-29.785,-77.148,-172.852
1678023706.773,-80.078,-35.156,-31.250,-87.402,-156.250
1678023706.775,-77.148,-37.598,-29.297,-74.707,-47.852
1678023706.779,-75.195,-34.180,-27.344,-70.801,-95.703
1678023706.783,-74.219,-32.227,-32.715,-80.078,-153.809
1678023706.787,-73.730,-33.691,-34.668,-77.637,-12.207
1678023706.791,-67.383,-32.227,-28.809,-64.453,161.621
1678023706.795,-55.664,-27.344,-29.785,-57.129,41.016
1678023706.799,-52.734,-29.297,-33.691,-55.664,-114.258
1678023706.802,-60.059,-33.203,-35.156,-55.664,-74.707
1678023706.806,-55.664,-37.598,-33.203,-49.316,98.145
1678023706.810,-51.758,-37.109,-31.250,-55.176,-41.992
1678023706.814,-51.758,-32.227,-32.227,-55.664,-160.156
1678023706.818,-42.480,-29.297,-36.133,-37.598,-6.836
1678023706.823,-42.969,-25.391,-31.738,-31.738,-75.684
1678023706.827,-46.875,-24.414,-24.902,-33.203,-161.621
1678023706.831,-40.527,-32.227,-27.344,-34.668,-115.234
1678023706.835,-34.668,-38.574,-32.227,-28.320,-41.992
1678023706.839,-33.203,-27.832,-32.227,-26.367,-20.508
1678023706.843,-42.969,-26.855,-31.250,-36.133,-20.508
1678023706.847,-50.293,-32.227,-32.715,-34.180,-74.219
1678023706.850,-37.109,-30.762,-32.227,-23.926,71.289
1678023706.854,-27.344,-29.297,-33.203,-21.973,164.062
1678023706.858,-28.809,-27.344,-36.133,-27.832,-133.301
1678023706.862,-27.832,-30.762,-36.621,-32.227,-164.551
1678023706.866,-26.367,-35.156,-34.180,-34.668,-84.961
1678023706.880,-22.949,-31.250,-30.762,-30.762,-109.863
1678023706.884,-20.020,-28.320,-37.598,-33.691,-140.625
1678023706.888,-23.926,-30.762,-41.992,-28.320,-67.383
1678023706.892,-31.250,-30.273,-39.551,-25.391,22.949
1678023706.896,-38.574,-26.367,-40.039,-34.180,85.449
1678023706.900,-35.156,-23.926,-45.410,-33.203,109.863
1678023706.904,-24.902,-21.973,-44.922,-34.180,111.816
1678023706.907,-12.695,-21.484,-35.156,-21.973,361.816
1678023706.911,-18.066,-24.902,-31.738,-25.391,332.031
1678023706.915,-27.344,-24.414,-33.691,-45.898,-50.293
1678023706.919,-27.832,-27.832,-34.180,-41.504,-53.711
1678023706.923,-24.414,-32.715,-35.645,-40.527,-34.180
1678023706.911,-19.043,-33.691,-35.156,-42.480,-156.250
1678023706.915,-24.414,-33.203,-32.715,-33.203,-171.387
1678023706.919,-31.250,-31.250,-29.297,-27.344,-102.051
1678023706.923,-41.504,-35.156,-31.250,-41.504,-105.469
1678023706.927,-35.156,-36.621,-31.738,-43.457,-124.023
1678023706.931,-16.113,-32.227,-30.273,-32.227,-48.828
1678023706.935,-18.066,-29.297,-33.691,-32.715,46.387
1678023706.938,-41.992,-34.180,-42.480,-39.062,5.859
1678023706.942,-46.387,-37.598,-41.504,-41.992,-188.965
1678023706.946,-34.668,-36.621,-35.645,-40.039,-251.953
1678023706.950,-20.508,-36.133,-33.691,-23.926,58.105
1678023706.954,-17.578,-31.250,-34.668,-15.137,193.359
1678023706.955,-33.691,-28.809,-41.504,-27.832,-92.773
1678023706.959,-34.668,-29.785,-42.969,-35.156,-111.816
1678023706.963,-23.438,-26.855,-41.016,-38.086,-133.301
1678023706.967,-10.742,-23.926,-41.992,-32.715,-210.449
1678023706.971,-14.648,-26.855,-38.086,-22.461,-144.043
1678023706.975,-21.484,-35.156,-37.109,-23.926,-39.551
1678023706.979,-21.484,-33.203,-41.016,-22.949,239.258
1678023706.982,-30.762,-27.832,-43.945,-25.391,148.926
1678023706.986,-32.227,-26.855,-42.969,-28.809,-179.688
1678023706.990,-24.414,-25.391,-41.504,-22.949,-10.742
1678023706.994,-16.113,-22.461,-44.922,-18.555,103.516
1678023706.998,-19.043,-22.461,-41.504,-23.438,-91.309
1678023707.045,-35.645,-25.879,-32.715,-45.898,-160.156
1678023707.049,-35.645,-31.250,-27.344,-43.457,-108.398
1678023707.053,-29.785,-32.227,-31.738,-28.320,-70.312
1678023707.057,-41.016,-33.203,-35.645,-38.574,-113.770
1678023707.061,-45.410,-35.645,-29.785,-42.969,-140.625
1678023707.065,-38.086,-34.180,-27.832,-43.945,12.207
1678023707.069,-36.621,-37.598,-29.297,-47.363,62.988
1678023707.072,-41.016,-38.086,-30.273,-40.527,-43.457
1678023707.076,-41.992,-39.062,-33.203,-29.297,-91.797
1678023707.080,-43.457,-37.598,-31.738,-25.391,52.734
1678023707.084,-50.781,-37.109,-28.809,-41.016,70.312
1678023707.088,-48.340,-41.016,-31.738,-46.875,-106.445
1678023707.050,-42.969,-41.504,-41.016,-42.480,-25.879
1678023707.054,-46.875,-43.457,-45.410,-45.898,48.340
1678023707.058,-55.664,-42.969,-41.016,-43.945,-71.777
1678023707.062,-55.664,-39.551,-36.621,-46.387,-106.445
1678023707.066,-47.363,-39.551,-36.621,-46.387,-62.500
1678023707.070,-39.062,-39.551,-37.109,-36.133,271.484
1678023707.074,-41.992,-39.062,-37.598,-41.016,208.008
1678023707.077,-48.340,-36.133,-37.598,-41.992,-156.250
1678023707.081,-43.945,-38.086,-41.992,-38.086,-29.785
1678023707.085,-41.992,-41.504,-43.945,-44.922,26.855
1678023707.089,-46.387,-35.156,-39.062,-47.852,-75.195
1678023707.093,-46.387,-35.156,-31.738,-42.480,-68.359
1678023707.121,-43.457,-37.598,-31.738,-36.621,-4.883
1678023707.125,-39.062,-34.180,-36.133,-41.016,24.902
1678023707.129,-31.250,-36.621,-38.086,-39.551,-28.809
1678023707.133,-29.785,-37.598,-37.109,-34.180,-129.395
1678023707.137,-29.785,-38.086,-37.598,-29.785,25.391
1678023707.141,-30.762,-40.527,-38.086,-20.996,426.758
1678023707.145,-34.180,-35.645,-34.668,-36.621,234.863
1678023707.148,-25.391,-31.738,-33.691,-45.898,-153.320
1678023707.152,-16.113,-28.320,-33.691,-36.133,-89.355
1678023707.156,-21.973,-25.391,-35.645,-34.668,-67.383
1678023707.160,-29.785,-22.949,-32.227,-32.227,-151.855
1678023707.164,-32.227,-25.391,-28.809,-30.762,-190.430
1678023707.150,-31.250,-31.250,-32.227,-37.109,-166.504
1678023707.154,-23.926,-29.297,-32.227,-39.551,-125.488
1678023707.158,-20.508,-26.367,-32.227,-38.086,-93.262
1678023707.162,-23.438,-27.832,-36.621,-38.574,-24.902
1678023707.166,-25.879,-27.344,-32.227,-34.180,172.363
1678023707.170,-32.227,-31.250,-31.250,-40.039,91.309
1678023707.174,-31.738,-37.109,-41.016,-50.781,-72.266
1678023707.177,-26.367,-33.691,-36.621,-35.645,-13.672
1678023707.181,-30.273,-32.227,-22.949,-24.902,124.512
1678023707.185,-39.551,-33.203,-24.902,-43.945,-1.953
1678023707.189,-40.039,-30.762,-27.832,-58.594,-218.262
1678023707.193,-41.992,-26.855,-13.184,-53.223,-112.305
1678023707.211,-43.457,-15.625,-5.859,-35.645,232.910
1678023707.215,-62.500,-21.484,-23.438,-48.828,112.793
1678023707.219,-85.449,-20.020,-28.320,-74.219,-190.430
1678023707.223,-104.492,9.766,0.977,-104.492,-201.172
1678023707.227,-132.324,17.090,16.113,-129.395,-156.738
1678023707.231,-138.184,26.367,9.277,-129.395,-60.059
1678023707.235,-183.105,40.527,-2.441,-182.129,-50.293
1678023707.238,-232.910,39.551,-3.418,-221.191,81.055
1678023707.242,-249.023,33.203,9.277,-229.492,192.871
1678023707.246,-248.535,51.270,10.254,-250.488,-41.504
1678023707.250,-259.277,48.340,-1.953,-269.043,-83.984
1678023707.254,-261.719,37.109,0.977,-256.836,-52.246
1678023707.240,-254.395,52.246,6.348,-254.395,-110.840
1678023707.244,-254.883,48.340,-0.488,-271.484,-158.691
1678023707.248,-257.812,47.852,-6.836,-275.391,-96.680
1678023707.252,-254.395,55.664,-5.371,-268.066,-24.902
1678023707.256,-247.070,63.965,-12.695,-268.555,-69.336
1678023707.260,-251.465,67.871,-22.461,-270.020,-136.719
1678023707.264,-252.441,68.848,-22.949,-261.230,-11.230
1678023707.267,-237.305,66.895,-32.227,-253.418,30.762
1678023707.271,-221.191,69.824,-39.551,-234.375,-62.988
1678023707.275,-206.055,78.613,-43.457,-208.496,-37.598
1678023707.279,-197.754,75.195,-50.781,-203.613,-3.906
1678023707.283,-187.500,73.242,-56.152,-193.848,273.926
1678023707.286,-165.039,79.102,-66.895,-183.105,245.605
1678023707.290,-151.855,78.125,-78.125,-185.547,-86.914
1678023707.294,-141.602,71.289,-85.938,-172.363,-90.332
1678023707.298,-128.418,70.312,-97.168,-163.086,-62.988
1678023707.302,-123.047,65.430,-106.445,-168.945,-123.047
1678023707.306,-109.375,57.129,-106.445,-160.156,-107.910
1678023707.310,-89.355,50.781,-108.887,-135.742,128.906
1678023707.313,-80.078,44.922,-116.699,-119.141,197.266
1678023707.317,-75.195,39.062,-116.211,-114.746,-107.422
1678023707.321,-62.988,34.180,-114.746,-111.328,-175.293
1678023707.325,-49.805,28.320,-121.094,-105.469,-134.766
1678023707.329,-42.480,17.090,-127.441,-95.703,-59.570
1678023707.330,-35.645,11.230,-125.000,-80.566,-127.441
1678023707.334,-34.668,6.348,-123.047,-73.242,-135.254
1678023707.338,-36.621,2.930,-126.465,-66.406,-80.078
1678023707.342,-22.461,5.371,-126.953,-63.965,-118.164
1678023707.346,-5.859,3.906,-123.047,-62.500,-100.098
1678023707.350,2.930,2.441,-123.535,-52.246,-3.906
1678023707.354,1.953,-2.441,-125.000,-43.457,339.844
1678023707.357,-0.977,-7.812,-125.977,-38.574,259.277
1678023707.361,10.742,-7.324,-125.488,-44.922,-113.281
1678023707.365,16.602,-10.742,-121.582,-39.551,-140.137
1678023707.369,24.902,-14.160,-119.629,-26.855,-86.426
1678023707.373,35.156,-13.672,-117.676,-16.602,-96.680
1678023707.378,24.414,-15.625,-113.281,-17.090,-156.250
1678023707.382,23.926,-20.020,-107.422,-18.066,-60.547
1678023707.386,34.668,-19.531,-103.516,-15.137,-15.625
1678023707.390,43.457,-20.996,-100.098,1.953,-116.211
1678023707.394,49.805,-26.855,-92.773,20.996,-116.699
1678023707.398,42.969,-31.738,-86.914,13.184,116.699
1678023707.402,38.086,-35.156,-87.402,1.465,150.879
1678023707.405,45.410,-36.133,-83.984,8.301,-27.344
1678023707.409,47.363,-43.457,-75.195,12.695,-116.211
1678023707.413,41.504,-48.828,-73.730,19.043,-16.113
1678023707.417,35.645,-46.875,-75.684,23.438,5.371
1678023707.421,47.363,-53.223,-69.336,19.531,-161.621
1678023707.435,63.477,-60.547,-62.012,28.809,-113.770
1678023707.439,59.570,-58.105,-61.035,35.156,-84.961
1678023707.443,49.316,-58.594,-62.988,36.133,-100.586
1678023707.447,40.039,-59.082,-58.594,40.039,-41.504
1678023707.451,36.133,-58.594,-51.270,41.992,11.719
1678023707.455,46.875,-59.570,-51.270,42.969,269.531
1678023707.459,47.852,-59.570,-51.270,44.434,261.719
1678023707.462,35.645,-61.035,-51.270,33.691,-43.457
1678023707.466,32.227,-60.059,-50.781,25.879,-16.602
1678023707.470,33.203,-57.617,-45.898,32.715,71.777
1678023707.474,36.621,-55.176,-44.922,33.691,-113.281
1678023707.478,43.457,-58.594,-46.875,35.156,-144.043
1678023707.480,39.062,-61.035,-44.922,38.086,-76.660
1678023707.484,27.832,-59.570,-41.992,31.738,-89.844
1678023707.488,29.297,-59.082,-40.527,24.414,-93.750
1678023707.492,29.785,-61.035,-38.574,21.973,-95.703
1678023707.496,22.461,-65.918,-42.480,14.160,-62.500
1678023707.500,22.949,-69.336,-43.457,11.230,-28.809
1678023707.504,16.113,-65.918,-36.621,10.742,-15.137
1678023707.507,12.207,-65.918,-35.156,7.812,-66.406
1678023707.511,25.391,-65.918,-33.691,16.602,73.242
1678023707.515,21.973,-64.453,-37.109,23.438,193.848
1678023707.519,11.230,-65.918,-41.992,16.113,-90.820
1678023707.523,8.789,-66.406,-39.551,10.742,-114.746
1678023707.525,2.930,-63.965,-39.551,7.812,4.395
1678023707.529,2.930,-63.965,-40.527,-2.930,-61.523
1678023707.533,5.371,-63.965,-38.574,-9.766,-169.922
1678023707.537,3.906,-60.547,-32.227,1.953,-46.875
1678023707.541,-4.883,-57.617,-28.809,8.301,130.371
1678023707.545,-7.324,-58.594,-28.320,-4.883,36.133
1678023707.549,-6.348,-58.594,-27.344,-10.742,-66.895
1678023707.552,0.977,-54.688,-26.367,-1.953,-26.855
1678023707.556,15.137,-56.641,-26.367,9.766,343.262
1678023707.560,6.836,-53.711,-23.926,5.859,270.996
1678023707.564,-4.883,-51.270,-25.879,-2.930,-160.156
1678023707.568,3.418,-52.734,-26.367,0.488,-130.859
1678023707.571,0.488,-50.781,-22.461,5.859,-42.480
1678023707.575,-2.930,-50.781,-19.043,8.789,-131.836
1678023707.579,1.953,-52.246,-17.578,10.742,-167.480
1678023707.583,2.930,-50.781,-14.160,11.719,-45.410
1678023707.587,4.883,-49.316,-16.113,8.789,-59.570
1678023707.591,1.953,-46.875,-20.508,-3.418,-56.152
1678023707.595,1.953,-44.434,-19.531,-13.184,-76.660
1678023707.598,11.230,-42.969,-18.555,-1.465,72.754
1678023707.602,8.301,-41.504,-24.414,1.953,139.160
1678023707.606,8.789,-42.480,-25.879,-13.184,-144.043
1678023707.610,12.207,-42.480,-22.949,-16.113,-24.902
1678023707.614,3.906,-47.852,-26.367,-6.836,119.141
1678023707.615,1.953,-48.828,-25.391,-3.418,-42.480
1678023707.619,-1.465,-45.898,-24.902,-8.301,-162.598
1678023707.623,-8.301,-54.199,-28.809,-9.766,-142.090
1678023707.627,-7.324,-59.570,-30.273,-11.719,-64.453
1678023707.631,-1.465,-55.176,-30.762,-10.254,-80.566
1678023707.635,-10.742,-58.594,-33.203,-9.766,-81.543
1678023707.639,-27.344,-62.988,-36.621,-17.578,-18.066
1678023707.642,-21.973,-59.082,-30.273,-3.418,197.266
1678023707.646,-15.137,-50.781,-28.320,2.441,179.688
1678023707.650,-13.184,-46.875,-29.297,-14.648,-100.098
1678023707.654,-10.254,-51.270,-29.297,-15.137,-72.266
1678023707.658,-20.020,-54.199,-31.738,-16.602,-82.520
1678023707.663,-27.344,-52.246,-31.738,-23.438,-166.504
1678023707.667,-25.391,-50.781,-28.320,-20.508,-130.371
1678023707.671,-22.461,-50.293,-25.391,-7.324,6.348
1678023707.675,-20.996,-50.781,-26.855,-4.395,-10.742
1678023707.679,-28.320,-51.270,-29.785,-13.184,-138.184
1678023707.683,-30.762,-50.781,-25.879,-20.996,-86.426
1678023707.687,-24.414,-48.828,-24.902,-13.184,227.539
1678023707.690,-26.367,-43.945,-28.320,-14.648,272.461
1678023707.694,-26.367,-46.875,-33.203,-26.855,-71.289
1678023707.698,-27.832,-46.875,-30.762,-27.832,-155.762
1678023707.702,-38.086,-47.363,-28.809,-29.297,-119.141
1678023707.706,-35.645,-45.898,-25.879,-23.438,-91.309
1678023707.705,-31.250,-45.410,-24.414,-23.926,-114.258
1678023707.709,-34.180,-47.852,-27.344,-29.297,-127.441
1678023707.713,-33.691,-46.387,-23.926,-21.973,-83.008
1678023707.717,-28.809,-49.316,-27.344,-25.391,-36.621
1678023707.721,-33.203,-50.781,-26.855,-27.344,-73.242
1678023707.725,-38.086,-48.828,-29.297,-20.996,-11.230
1678023707.729,-32.715,-50.293,-34.668,-11.230,388.672
1678023707.732,-43.457,-51.270,-36.621,-16.602,423.828
1678023707.736,-57.129,-50.293,-34.180,-24.414,-10.742
1678023707.740,-49.316,-49.805,-30.762,-29.785,-129.883
1678023707.744,-40.039,-47.852,-31.738,-37.598,-123.047
1678023707.748,-40.039,-47.852,-27.344,-31.250,-107.910
1678023707.751,-41.992,-48.828,-29.297,-27.344,-100.586
1678023707.755,-47.363,-48.340,-30.273,-22.949,-91.797
1678023707.759,-40.039,-42.480,-25.879,-22.949,-81.543
1678023707.763,-33.203,-38.574,-25.391,-21.484,-109.375
1678023707.767,-32.715,-40.527,-21.973,-20.020,-113.770
1678023707.771,-31.738,-39.551,-18.555,-20.508,-103.027
1678023707.775,-37.598,-36.621,-22.461,-20.996,-10.742
1678023707.778,-41.016,-35.645,-25.391,-28.320,0.000
1678023707.782,-38.086,-39.551,-23.438,-39.551,-122.070
1678023707.786,-37.598,-39.551,-20.996,-22.461,104.492
1678023707.790,-41.016,-39.062,-21.484,-11.719,195.801
1678023707.794,-52.246,-40.039,-24.414,-36.621,-101.562
1678023707.810,-42.969,-34.180,-32.715,-41.504,-83.496
1678023707.814,-15.137,-28.320,-39.062,-16.602,-103.516
1678023707.818,-20.020,-40.527,-27.832,-14.160,-109.375
1678023707.822,-39.551,-44.922,-19.043,-38.574,-79.102
1678023707.826,-42.969,-37.109,-17.578,-48.828,35.156
1678023707.830,-41.016,-41.992,-16.602,-30.762,335.938
1678023707.834,-32.715,-44.922,-17.578,-30.273,101.562
1678023707.837,-32.227,-42.480,-11.719,-42.969,-135.254
1678023707.841,-40.039,-45.410,-12.207,-40.527,73.242
1678023707.845,-45.410,-54.199,-13.672,-28.320,132.324
1678023707.849,-37.109,-51.270,-14.648,-27.344,-103.516
1678023707.853,-26.855,-46.387,-16.113,-33.691,-191.895
1678023707.856,-30.273,-49.805,-13.672,-26.855,-40.527
1678023707.860,-23.438,-48.340,-12.695,-28.809,-49.316
1678023707.864,-27.344,-51.270,-16.113,-24.902,-123.535
1678023707.868,-35.156,-51.270,-16.113,-13.184,-103.516
1678023707.872,-31.738,-45.410,-15.625,-16.113,-49.316
1678023707.876,-31.738,-47.363,-20.508,-23.438,23.438
1678023707.880,-24.414,-50.781,-19.531,-20.020,125.000
1678023707.883,-25.391,-48.340,-16.602,-19.531,23.438
1678023707.887,-29.785,-45.898,-16.113,-10.742,81.543
1678023707.891,-38.574,-48.340,-19.531,-12.695,145.020
1678023707.895,-44.922,-48.340,-23.438,-29.297,-98.145
1678023707.899,-39.551,-48.340,-23.926,-20.508,-80.078
1678023707.900,-44.434,-46.387,-20.996,-11.719,4.883
1678023707.904,-56.152,-46.387,-23.438,-24.902,-63.477
1678023707.908,-48.828,-48.828,-22.949,-34.668,-197.266
1678023707.912,-44.922,-52.246,-20.996,-31.738,-69.336
1678023707.916,-47.363,-55.664,-17.578,-25.879,51.270
1678023707.920,-41.504,-53.223,-18.555,-23.926,-4.883
1678023707.924,-42.969,-48.828,-23.926,-32.227,-61.035
1678023707.927,-47.852,-50.293,-21.973,-33.691,-145.508
1678023707.931,-45.898,-50.781,-19.531,-15.137,152.832
1678023707.935,-39.062,-47.363,-19.531,-10.254,190.918
1678023707.939,-39.062,-41.016,-16.113,-28.320,-110.352
1678023707.943,-41.992,-41.016,-19.531,-29.297,-100.098
1678023707.947,-46.387,-45.898,-29.297,-32.227,-29.785
1678023707.951,-41.016,-44.922,-24.414,-29.785,-77.148
1678023707.955,-44.434,-44.922,-21.973,-18.555,-153.320
1678023707.959,-50.293,-51.758,-28.320,-13.672,-45.898
1678023707.963,-47.363,-53.711,-25.879,-8.789,-26.367
1678023707.967,-41.504,-46.387,-24.902,-12.207,-159.180
1678023707.971,-29.785,-37.598,-28.320,-16.113,-165.039
1678023707.974,-25.879,-41.992,-30.273,-9.277,81.055
1678023707.978,-33.691,-47.852,-26.855,-15.625,119.141
1678023707.982,-37.598,-42.480,-26.855,-16.113,-135.254
1678023707.986,-33.691,-38.574,-29.785,-8.789,-168.457
1678023707.990,-34.668,-41.992,-26.367,-18.555,-141.113
1678023707.991,-32.715,-43.945,-29.297,-17.090,-162.598
1678023707.995,-32.227,-39.551,-31.250,-20.508,-202.148
1678023707.999,-37.109,-35.645,-26.855,-21.484,-86.914
1678023708.003,-41.992,-38.086,-29.297,-20.020,9.277
1678023708.007,-34.180,-41.504,-26.855,-15.137,-111.816
1678023708.011,-20.996,-38.086,-25.391,-6.348,-138.672
1678023708.015,-19.531,-37.109,-29.297,-5.859,-6.836
1678023708.018,-24.902,-37.109,-30.273,2.930,258.301
1678023708.022,-28.320,-33.203,-29.785,0.000,172.363
1678023708.026,-32.227,-31.250,-30.762,-17.090,-151.367
1678023708.030,-26.367,-35.156,-26.367,-20.996,-77.148
1678023708.034,-22.949,-35.156,-22.949,-14.160,-54.199
1678023708.036,-30.762,-32.227,-26.855,-17.578,-82.031
1678023708.040,-31.250,-32.227,-26.367,-26.855,-122.559
1678023708.044,-32.227,-35.156,-26.367,-27.832,-122.070
1678023708.048,-33.203,-36.133,-27.344,-20.508,-45.410
1678023708.052,-24.902,-36.621,-26.855,-11.719,-73.730
1678023708.056,-19.043,-35.645,-24.902,-11.230,-3.906
1678023708.060,-27.832,-39.551,-24.902,-11.230,268.555
1678023708.063,-32.715,-41.504,-22.949,-16.113,313.477
1678023708.067,-29.785,-39.062,-24.414,-21.484,-60.547
1678023708.071,-25.879,-41.504,-26.855,-14.160,-167.480
1678023708.075,-34.668,-44.434,-22.461,-13.672,-87.891
1678023708.079,-43.457,-42.969,-24.902,-24.414,-108.887
1678023708.080,-43.945,-40.527,-29.297,-32.227,-193.359
1678023708.084,-38.574,-42.969,-25.879,-28.809,-142.578
1678023708.088,-33.691,-44.434,-24.414,-21.973,-87.402
1678023708.092,-36.133,-43.457,-24.902,-16.113,-15.625
1678023708.096,-37.598,-46.387,-27.832,-15.137,-41.992
1678023708.100,-40.527,-48.340,-24.902,-15.625,-48.828
1678023708.104,-36.133,-47.363,-24.414,-7.324,303.223
1678023708.107,-31.738,-44.922,-25.391,-10.742,381.836
1678023708.111,-29.297,-41.016,-27.344,-20.996,11.230
1678023708.115,-31.250,-40.039,-29.297,-19.043,-52.246
1678023708.119,-33.691,-39.551,-28.809,-25.391,34.668
1678023708.123,-32.227,-39.551,-33.691,-40.527,-131.836
1678023708.126,-29.785,-42.969,-36.133,-36.621,-203.613
1678023708.130,-21.973,-47.852,-33.203,-30.762,-122.559
1678023708.134,-27.344,-45.410,-27.832,-32.715,-88.867
1678023708.138,-34.180,-45.898,-25.879,-28.320,-164.551
1678023708.142,-34.180,-46.875,-28.809,-31.250,-176.270
1678023708.146,-38.574,-41.016,-29.297,-25.879,-69.824
1678023708.150,-40.039,-41.992,-31.738,-16.602,-12.207
1678023708.153,-44.434,-41.016,-35.156,-21.484,-126.465
1678023708.157,-44.922,-36.133,-29.785,-26.855,-242.188
1678023708.161,-33.691,-37.598,-27.832,-23.926,34.668
1678023708.165,-29.785,-39.062,-31.738,-18.555,205.078
1678023708.169,-38.574,-40.527,-34.180,-25.391,-104.492
1678023708.185,-39.551,-43.457,-31.250,-30.762,-174.805
1678023708.189,-43.945,-39.062,-32.227,-28.320,-124.512
1678023708.193,-44.434,-36.621,-33.691,-27.832,-199.707
1678023708.197,-30.273,-33.203,-33.203,-24.902,-177.734
1678023708.201,-10.254,-23.926,-33.691,1.953,-53.223
1678023708.205,-7.812,-27.832,-20.020,18.066,154.785
1678023708.209,-45.898,-36.133,-13.184,-25.391,132.324
1678023708.212,-60.547,-40.039,-20.020,-50.781,-142.578
1678023708.216,-36.133,-44.922,-21.973,-29.785,-58.594
1678023708.220,-33.691,-48.828,-13.184,-20.020,85.449
1678023708.224,-52.246,-50.293,-12.695,-34.668,-98.633
1678023708.228,-53.223,-46.875,-16.602,-38.086,-218.262
1678023708.230,-45.898,-41.992,-16.602,-33.203,-50.293
1678023708.234,-43.457,-39.551,-18.555,-32.227,1.465
1678023708.238,-33.691,-37.598,-12.207,-29.785,-156.250
1678023708.242,-35.645,-38.574,-9.766,-29.297,-150.391
1678023708.246,-50.781,-44.434,-12.695,-28.809,-120.605
1678023708.250,-46.875,-43.945,-11.719,-25.879,-65.430
1678023708.254,-50.293,-49.805,-21.973,-39.551,5.371
1678023708.257,-55.176,-50.293,-25.391,-50.781,-110.840
1678023708.261,-42.969,-15.625,2.441,-28.320,31.250
1678023708.265,-36.133,-12.695,1.465,-11.230,210.938
1678023708.269,-46.875,-37.109,-19.531,-34.180,-69.824
1678023708.273,-63.477,-29.297,-9.277,-57.129,-113.770
1678023708.276,-69.824,-14.160,11.230,-61.035,-27.832
1678023708.280,-123.535,-1.465,-5.371,-105.469,-83.984
1678023708.284,-187.500,6.348,-20.020,-165.527,-30.273
1678023708.288,-190.918,22.461,-4.395,-181.152,-30.762
1678023708.292,-205.566,44.434,-3.418,-195.801,99.121
1678023708.296,-236.816,41.992,0.000,-218.262,110.352
1678023708.300,-247.559,35.645,5.859,-222.656,-69.824
1678023708.303,-258.789,37.598,6.836,-217.773,42.480
1678023708.307,-286.621,37.598,6.836,-239.258,176.270
1678023708.311,-279.297,38.574,6.348,-251.465,-83.496
1678023708.315,-250.488,43.945,8.789,-235.352,-214.355
1678023708.319,-248.535,48.340,11.230,-224.609,-68.359
1678023708.321,-258.301,43.945,12.695,-227.539,-77.148
1678023708.325,-260.254,39.551,17.578,-232.422,-188.965
1678023708.329,-235.840,33.203,21.484,-213.379,-206.055
1678023708.333,-214.844,28.320,22.461,-187.012,-103.027
1678023708.337,-203.613,21.484,22.949,-170.898,15.625
1678023708.341,-202.148,14.160,23.926,-169.434,32.715
1678023708.345,-202.148,12.695,20.996,-172.363,-18.555
1678023708.348,-178.223,8.301,16.602,-146.484,117.188
1678023708.352,-163.086,2.441,17.090,-126.465,205.078
1678023708.356,-162.109,-3.906,18.555,-132.324,-41.016
1678023708.360,-160.156,-8.301,16.602,-130.859,-113.770
1678023708.364,-148.926,-13.184,20.020,-122.070,-65.918
1678023708.365,-132.812,-20.020,19.531,-111.816,-110.352
1678023708.369,-121.582,-24.414,18.066,-101.562,-129.395
1678023708.373,-117.676,-27.344,19.043,-91.309,-101.074
1678023708.377,-127.441,-35.645,19.043,-93.750,55.176
1678023708.381,-136.230,-41.016,16.602,-98.633,21.973
1678023708.385,-127.441,-45.410,16.602,-95.215,-18.066
1678023708.389,-110.352,-50.293,18.555,-78.125,123.047
1678023708.392,-97.656,-54.199,20.508,-55.664,369.141
1678023708.396,-97.656,-54.688,20.508,-54.199,351.074
1678023708.400,-94.238,-59.082,23.438,-58.105,-28.320
1678023708.404,-89.844,-65.918,29.297,-63.477,-129.395
1678023708.408,-86.914,-69.336,24.414,-59.082,-73.242
1678023708.411,-71.777,-70.801,26.367,-46.387,-115.234
1678023708.415,-78.125,-73.242,28.809,-51.758,-162.109
1678023708.419,-80.566,-75.684,23.926,-54.199,-78.613
1678023708.423,-70.312,-78.613,23.438,-46.387,-17.090
1678023708.427,-64.941,-82.031,24.902,-41.504,-44.434
1678023708.431,-46.875,-81.543,28.320,-34.668,-57.617
1678023708.435,-45.410,-83.984,29.785,-20.508,135.254
1678023708.438,-45.898,-88.379,23.438,-8.301,175.781
1678023708.442,-32.715,-91.797,19.531,-9.277,-105.957
1678023708.446,-21.973,-95.215,22.949,-7.324,-123.047
1678023708.450,-8.301,-95.215,22.461,8.301,-23.438
1678023708.454,0.977,-93.262,21.973,26.367,-41.992
1678023708.455,3.906,-92.773,16.113,18.555,-105.957
1678023708.459,6.836,-96.191,13.184,14.160,-88.379
1678023708.463,18.066,-96.680,9.277,24.414,-117.188
1678023708.467,31.738,-96.680,2.930,40.039,-59.570
1678023708.471,28.809,-96.191,-1.953,44.922,-34.668
1678023708.475,27.344,-90.332,-6.348,41.016,-30.762
1678023708.479,38.574,-86.914,-9.277,64.453,257.812
1678023708.482,51.758,-85.938,-16.602,76.660,224.609
1678023708.486,50.293,-83.984,-22.461,71.289,-88.379
1678023708.490,60.547,-87.402,-21.973,79.590,-112.793
1678023708.494,60.547,-93.262,-20.996,91.309,-165.527
1678023708.498,45.898,-97.656,-22.949,84.961,-116.699
1678023708.503,50.781,-98.633,-30.762,65.918,-74.707
1678023708.507,67.871,-95.703,-28.809,83.984,-23.926
1678023708.511,67.871,-95.703,-29.785,92.285,37.109
1678023708.515,60.059,-91.309,-31.250,89.844,-123.047
1678023708.519,63.965,-83.008,-19.043,92.285,-223.145
1678023708.523,67.383,-77.637,-19.043,89.844,-119.141
1678023708.527,73.242,-78.613,-26.367,86.914,-40.039
1678023708.530,65.430,-78.125,-31.250,84.961,-112.305
1678023708.534,60.547,-72.266,-33.203,92.285,-156.250
1678023708.538,64.453,-67.871,-35.645,98.633,39.062
1678023708.542,60.059,-68.359,-40.039,91.309,68.848
1678023708.546,55.176,-69.824,-43.457,83.008,-126.953
1678023708.560,54.688,-72.266,-47.363,85.449,-125.488
1678023708.564,51.270,-71.289,-45.898,76.172,-96.680
1678023708.568,43.945,-69.336,-43.457,72.754,-92.773
1678023708.572,47.852,-64.453,-44.434,72.754,-70.801
1678023708.576,54.199,-57.129,-43.457,65.918,-90.332
1678023708.580,57.129,-55.664,-40.527,76.660,220.703
1678023708.584,50.781,-54.199,-41.992,81.055,378.906
1678023708.587,38.574,-54.199,-44.434,62.500,-68.359
1678023708.591,38.574,-51.758,-42.480,63.477,-129.395
1678023708.595,43.457,-47.852,-41.504,68.848,-67.383
1678023708.599,43.457,-46.875,-41.504,62.500,-173.828
1678023708.603,30.762,-49.316,-42.480,56.641,-241.211
1678023708.605,28.320,-51.758,-43.945,54.688,-166.504
1678023708.609,31.250,-48.828,-44.434,58.594,-122.070
1678023708.613,26.855,-47.363,-47.363,53.711,-183.594
1678023708.617,37.598,-46.387,-44.922,55.664,-109.863
1678023708.621,34.668,-44.922,-45.410,54.688,24.414
1678023708.625,25.391,-43.945,-44.434,45.898,47.852
1678023708.629,27.344,-43.457,-42.480,41.504,10.254
1678023708.632,38.574,-38.574,-43.945,33.691,-162.109
1678023708.636,42.480,-37.109,-45.898,37.109,23.438
1678023708.640,31.250,-38.086,-46.875,41.992,220.703
1678023708.644,28.320,-33.203,-46.387,31.250,-94.238
1678023708.648,25.879,-35.645,-47.363,21.484,-167.480
1678023708.650,22.949,-40.527,-43.945,25.879,-77.148
1678023708.654,18.555,-40.527,-43.457,31.738,-107.422
1678023708.658,13.672,-36.621,-44.434,25.879,-145.508
1678023708.662,6.836,-39.551,-42.969,22.461,-31.738
1678023708.666,1.465,-42.480,-41.016,21.484,52.246
1678023708.670,2.930,-39.551,-37.598,17.578,-36.621
1678023708.674,5.371,-36.621,-36.133,15.137,3.906
1678023708.677,4.883,-37.109,-37.109,10.742,125.488
1678023708.681,0.000,-36.621,-36.133,15.625,349.609
1678023708.685,-5.859,-32.715,-34.180,11.719,177.734
1678023708.689,-9.766,-35.156,-36.621,-1.465,-154.785
1678023708.693,-9.277,-34.668,-40.039,4.395,-64.453
1678023708.696,-13.672,-31.738,-39.551,5.859,-36.621
1678023708.700,-18.066,-35.645,-38.086,-3.418,-101.562
1678023708.704,-16.602,-35.645,-33.691,-6.836,-145.996
1678023708.708,-10.254,-33.691,-30.762,-9.766,-125.977
1678023708.712,-5.371,-37.109,-35.156,-16.602,-104.004
1678023708.716,-12.207,-34.180,-41.504,-17.090,-55.176
1678023708.720,-20.020,-32.715,-40.039,-19.531,-6.348
1678023708.723,-18.555,-41.504,-32.227,-15.625,129.883
1678023708.727,-14.648,-37.598,-34.180,-15.625,185.059
1678023708.731,-11.230,-32.227,-40.039,-29.297,-125.977
1678023708.735,-18.066,-34.668,-41.504,-28.320,-178.711
1678023708.739,-25.879,-33.203,-39.551,-28.809,-36.133
1678023708.740,-24.414,-30.762,-38.086,-35.645,-54.688
1678023708.744,-16.113,-28.320,-37.598,-32.715,-145.508
1678023708.748,-10.254,-28.320,-34.180,-28.809,-143.066
1678023708.752,-9.766,-28.809,-34.180,-27.832,32.227
1678023708.756,-17.090,-27.832,-40.039,-26.855,28.320
1678023708.760,-25.879,-31.738,-41.016,-23.926,-33.203
1678023708.764,-29.785,-36.621,-41.504,-29.785,34.180
1678023708.767,-21.973,-35.645,-42.480,-19.043,253.418
1678023708.771,-17.090,-34.668,-41.016,-10.742,199.219
1678023708.775,-28.320,-32.715,-38.086,-25.391,-85.938
1678023708.779,-35.156,-31.738,-36.133,-27.832,-83.008
1678023708.783,-35.156,-33.203,-39.062,-30.762,-67.383
