timestamps,TP9,AF7,AF8,TP10,Right AUX
1688814650.983,-51.270,-55.176,-56.641,43.945,184.570
1688814650.987,-32.715,-53.711,-60.059,-8.301,-12.695
1688814650.991,-9.277,-53.711,-60.059,-20.020,-174.316
1688814650.995,-17.090,-51.270,-62.012,-3.906,53.223
1688814650.999,-40.527,-55.664,-64.941,3.418,100.586
1688814651.003,-70.312,-60.547,-64.453,8.789,59.082
1688814651.007,-51.758,-59.570,-65.430,-33.203,-102.539
1688814651.010,-7.324,-55.176,-64.453,-42.480,-118.164
1688814651.014,12.695,-56.152,-64.453,-18.555,16.113
1688814651.018,1.953,-53.223,-61.523,-8.301,-108.887
1688814651.022,-41.016,-48.340,-63.965,-14.160,-72.754
1688814651.026,-39.062,-48.340,-72.266,-51.270,-24.902
1688814651.029,-36.133,-50.293,-66.895,-31.250,-8.789
1688814651.033,-1.953,-55.664,-66.406,-63.965,-138.672
1688814651.037,10.254,-52.734,-59.082,-40.527,-36.621
1688814651.040,-4.883,-52.246,-59.570,-31.738,184.082
1688814651.044,-31.250,-50.781,-60.547,-14.160,120.605
1688814651.048,-32.715,-46.387,-58.594,-40.527,-86.426
1688814651.052,-13.184,-46.875,-60.547,-71.289,-237.793
1688814651.056,2.930,-43.945,-60.059,-41.504,156.250
1688814651.059,-9.766,-43.457,-65.918,-39.062,368.164
1688814651.063,-47.852,-48.828,-68.359,-35.156,-14.648
1688814651.067,-59.570,-53.223,-68.359,-50.781,-136.719
1688814651.071,-20.996,-53.223,-70.312,-77.637,-117.188
1688814651.075,1.465,-48.828,-66.406,-57.129,-188.477
1688814651.079,-10.742,-46.875,-65.430,-43.945,-91.309
1688814651.083,-36.621,-42.969,-64.453,-14.648,122.070
1688814651.086,-53.711,-45.410,-66.406,-6.836,277.344
1688814651.090,-21.973,-50.293,-69.336,-56.641,51.758
1688814651.094,0.488,-44.922,-69.336,-50.781,-125.977
1688814651.098,-9.766,-45.898,-65.430,-26.367,-19.531
1688814651.102,-45.410,-51.758,-63.965,-1.953,1.465
1688814651.103,-68.359,-51.270,-67.871,0.488,-101.074
1688814651.107,-33.203,-50.293,-67.383,-42.969,-177.734
1688814651.111,0.488,-50.293,-65.918,-34.668,-108.398
1688814651.115,4.395,-49.316,-65.430,-10.254,-78.125
1688814651.119,-23.438,-48.828,-58.594,2.930,-140.625
1688814651.123,-57.617,-48.340,-56.641,11.230,18.555
1688814651.127,-42.480,-45.898,-63.477,-23.926,327.148
1688814651.130,-4.395,-43.945,-65.430,-26.855,219.727
1688814651.134,14.648,-41.504,-63.965,-10.254,-103.516
1688814651.138,-5.371,-45.410,-68.848,-0.977,-104.004
1688814651.142,-25.391,-45.898,-68.848,25.391,292.480
1688814651.146,6.836,-48.828,-69.824,-6.348,170.410
1688814651.163,33.691,-55.664,-73.730,-24.414,-166.992
1688814651.167,27.832,-51.758,-66.895,6.836,-183.594
1688814651.171,10.254,-46.875,-62.988,16.113,-134.766
1688814651.175,-14.160,-47.363,-66.406,40.039,-96.191
1688814651.179,8.789,-46.875,-63.965,11.230,-207.031
1688814651.183,42.480,-46.387,-67.871,-7.324,-81.543
1688814651.187,48.828,-47.363,-68.848,23.926,56.152
1688814651.190,31.250,-50.293,-66.406,30.273,-125.977
1688814651.194,-18.066,-50.293,-64.941,50.781,-161.621
1688814651.198,-12.695,-43.457,-61.523,39.551,-83.496
1688814651.202,28.809,-47.852,-59.570,17.578,-95.215
1688814651.206,39.551,-53.711,-62.012,32.715,-171.875
1688814651.195,26.367,-52.246,-62.500,37.598,-160.645
1688814651.199,-9.277,-55.664,-63.477,61.035,54.688
1688814651.203,-5.371,-55.176,-65.918,41.016,-21.484
1688814651.207,36.621,-50.781,-67.383,9.277,-175.781
1688814651.211,42.480,-45.410,-66.406,32.715,-73.730
1688814651.215,22.461,-45.898,-65.430,35.156,97.168
1688814651.219,-10.742,-54.688,-69.336,46.387,104.004
1688814651.222,-16.602,-55.664,-74.707,38.574,36.133
1688814651.226,21.484,-52.734,-76.660,5.859,-25.879
1688814651.230,37.109,-47.363,-70.312,27.344,133.789
1688814651.234,28.320,-41.992,-67.383,24.902,26.367
1688814651.238,-2.930,-42.969,-66.895,30.762,-185.547
1688814651.268,-25.391,-47.852,-67.383,21.973,-126.465
1688814651.272,4.883,-50.781,-67.871,-15.137,135.254
1688814651.276,33.691,-47.363,-68.359,-6.836,62.012
1688814651.280,28.809,-44.922,-71.777,-4.883,-222.656
1688814651.284,-1.465,-44.434,-71.777,13.184,-16.602
1688814651.288,-21.484,-45.898,-68.848,20.020,291.504
1688814651.292,5.371,-49.805,-68.848,-29.785,-20.996
1688814651.295,24.414,-53.711,-70.312,-23.926,-211.914
1688814651.299,21.484,-49.316,-70.312,-3.418,-40.527
1688814651.303,-5.371,-49.316,-67.383,8.789,-85.449
1688814651.307,-26.367,-51.758,-69.824,21.973,-188.477
1688814651.311,9.766,-46.875,-70.801,-12.695,-193.359
1688814651.298,42.480,-46.387,-69.824,-17.090,-132.324
1688814651.302,37.598,-43.457,-64.453,5.859,-119.629
1688814651.306,-3.906,-41.992,-62.500,20.020,-175.293
1688814651.310,-64.941,-44.434,-62.012,37.109,-120.117
1688814651.314,-76.172,-40.039,-64.941,4.883,41.016
1688814651.318,-69.824,-39.551,-68.848,-6.836,4.883
1688814651.322,-89.355,-43.457,-69.336,3.418,-120.117
1688814651.325,-123.535,-42.969,-72.266,7.812,-47.852
1688814651.329,-136.230,-41.992,-67.871,38.574,314.453
1688814651.333,-97.656,-42.480,-68.359,4.395,157.715
1688814651.337,-41.992,-44.922,-69.336,-14.648,-143.066
1688814651.341,-24.902,-45.410,-65.918,19.043,-118.652
1688814651.343,-37.109,-46.387,-67.383,25.391,152.344
1688814651.347,-58.594,-50.781,-69.824,47.363,363.281
1688814651.351,-48.340,-54.199,-72.754,13.672,64.941
1688814651.355,0.000,-50.781,-73.242,-21.484,-211.426
1688814651.359,20.996,-46.875,-68.848,2.441,-221.680
1688814651.363,3.418,-47.852,-69.824,18.066,-48.340
1688814651.367,-27.832,-46.875,-71.289,40.527,39.551
1688814651.370,-33.203,-46.387,-72.266,21.973,75.684
1688814651.374,-0.977,-47.852,-73.242,-2.930,281.738
1688814651.378,11.719,-47.852,-73.730,11.719,7.812
1688814651.382,-2.441,-47.852,-72.266,8.301,-239.746
1688814651.386,-36.133,-48.828,-71.777,28.809,-51.758
1688814651.388,-46.387,-49.805,-67.871,24.902,-103.027
1688814651.392,-16.113,-51.270,-66.406,-15.625,-307.129
1688814651.396,-0.488,-50.293,-66.895,-3.418,-228.516
1688814651.400,-5.859,-49.805,-68.848,16.113,-155.273
1688814651.404,-42.969,-51.270,-70.312,24.414,-68.848
1688814651.408,-61.035,-49.805,-70.312,19.043,25.391
1688814651.412,-13.184,-49.316,-67.383,-6.836,-82.520
1688814651.415,11.230,-38.574,-64.453,6.348,243.164
1688814651.419,-23.926,-37.109,-69.336,0.000,333.496
1688814651.423,-62.500,-40.527,-72.754,-3.906,-73.730
1688814651.427,-87.891,-41.504,-72.754,-6.348,-14.160
1688814651.431,-67.383,-44.922,-72.754,-60.547,-10.254
1688814651.433,-44.434,-44.922,-79.102,-68.848,-175.781
1688814651.437,-53.223,-44.434,-83.008,-55.664,-175.293
1688814651.441,-96.680,-43.945,-86.914,-45.898,-136.230
1688814651.445,-126.465,-44.922,-88.379,-33.691,-74.707
1688814651.449,-104.980,-45.898,-83.984,-84.473,-100.098
1688814651.453,-87.402,-48.828,-80.566,-89.355,-164.062
1688814651.457,-88.379,-46.875,-78.613,-57.617,-33.691
1688814651.460,-108.887,-41.504,-76.660,-37.598,200.195
1688814651.464,-145.508,-40.527,-74.219,-21.484,13.672
1688814651.468,-143.066,-44.922,-72.754,-60.547,-221.191
1688814651.472,-118.164,-51.270,-70.312,-70.312,-242.188
1688814651.476,-118.652,-47.852,-68.359,-31.250,-195.312
1688814651.479,-186.523,-46.387,-74.219,-43.945,-37.109
1688814651.483,-269.531,-48.828,-72.266,-64.941,33.691
1688814651.487,-274.902,-46.875,-69.824,-101.074,50.781
1688814651.491,-267.578,-49.805,-72.266,-137.695,-104.492
1688814651.495,-294.922,-51.758,-75.684,-154.297,-231.934
1688814651.499,-324.219,-50.781,-78.125,-173.828,-95.215
1688814651.503,-358.887,-51.758,-78.125,-163.086,214.844
1688814651.506,-372.070,-52.734,-82.031,-208.496,185.547
1688814651.510,-343.750,-49.316,-82.520,-254.883,-200.684
1688814651.514,-354.004,-47.852,-90.332,-248.535,-198.242
1688814651.518,-383.789,-45.410,-90.820,-250.000,125.000
1688814651.522,-415.039,-42.480,-84.961,-241.699,76.660
1688814651.539,-416.016,-45.410,-91.309,-270.996,-121.094
1688814651.543,-361.328,-44.922,-92.285,-307.129,-202.148
1688814651.547,-322.754,-43.457,-91.309,-280.273,-60.547
1688814651.551,-309.570,-46.387,-87.891,-254.395,-31.250
1688814651.555,-314.941,-48.340,-85.449,-219.238,-153.809
1688814651.559,-295.410,-49.316,-87.891,-207.520,56.152
1688814651.563,-231.934,-48.828,-84.473,-219.238,330.566
1688814651.566,-188.965,-52.734,-77.148,-193.848,63.965
1688814651.570,-177.734,-50.293,-74.219,-164.062,-142.090
1688814651.574,-183.105,-46.875,-71.289,-126.465,6.836
1688814651.578,-180.664,-45.898,-66.895,-123.535,-26.367
1688814651.582,-143.555,-49.316,-73.730,-158.203,-159.180
1688814651.598,-117.676,-54.199,-77.148,-131.836,-174.316
1688814651.602,-119.141,-52.734,-72.266,-99.609,-103.027
1688814651.606,-141.602,-53.223,-68.848,-70.801,-68.848
1688814651.610,-154.297,-48.828,-65.430,-53.711,-75.684
1688814651.614,-110.352,-46.387,-65.918,-91.309,-109.863
1688814651.618,-65.918,-45.898,-64.941,-84.473,81.543
1688814651.622,-64.453,-49.805,-67.871,-67.383,74.707
1688814651.625,-83.984,-51.758,-65.430,-48.340,-86.914
1688814651.629,-101.074,-45.898,-60.059,-25.391,-44.434
1688814651.633,-68.848,-43.945,-59.570,-54.199,231.445
1688814651.637,-28.320,-44.922,-61.035,-51.758,242.188
1688814651.641,-22.949,-46.387,-60.547,-39.062,-61.035
1688814651.628,-36.621,-45.410,-61.523,-26.367,-131.348
1688814651.632,-57.617,-43.945,-60.547,2.930,-53.711
1688814651.636,-46.387,-47.852,-62.012,-34.668,-108.887
1688814651.640,-10.254,-48.828,-65.430,-58.105,-215.820
1688814651.644,5.859,-45.410,-62.988,-26.367,-120.605
1688814651.648,-14.648,-45.898,-63.965,-13.184,3.906
1688814651.652,-41.504,-45.898,-63.965,6.348,52.246
1688814651.655,-28.809,-43.457,-61.035,-19.531,-10.254
1688814651.659,3.906,-40.527,-57.617,-46.387,-75.195
1688814651.663,2.930,-42.969,-58.594,-23.926,-95.703
1688814651.667,-26.855,-44.922,-54.688,-7.812,-112.305
1688814651.671,-69.824,-45.410,-55.664,18.555,-111.328
1688814651.673,-81.055,-47.363,-61.035,-6.348,48.828
1688814651.677,-48.340,-44.922,-59.570,-31.250,242.188
1688814651.681,-36.133,-37.109,-63.477,-16.113,-72.266
1688814651.685,-62.500,-39.551,-66.406,-8.301,-139.160
1688814651.689,-99.609,-44.434,-60.547,17.578,21.484
1688814651.693,-94.238,-42.480,-60.547,-0.977,-27.832
1688814651.697,-47.852,-42.969,-63.477,-34.180,-8.301
1688814651.700,-34.180,-44.434,-61.035,-11.230,10.254
1688814651.704,-52.246,-42.969,-59.570,4.395,182.129
1688814651.708,-82.031,-39.062,-56.641,20.020,295.898
1688814651.712,-86.914,-39.551,-57.129,9.277,5.859
1688814651.716,-57.617,-36.133,-59.082,-29.785,-148.926
1688814651.718,-31.738,-34.668,-54.199,-10.254,51.758
1688814651.722,-38.574,-40.039,-52.246,6.348,-29.297
1688814651.726,-90.820,-42.969,-55.176,21.484,-139.160
1688814651.730,-120.605,-43.457,-51.270,20.508,-76.660
1688814651.734,-93.262,-42.969,-49.805,-21.973,-131.348
1688814651.738,-76.660,-39.551,-47.363,-7.812,-60.059
1688814651.742,-93.750,-34.668,-40.527,15.625,-47.363
1688814651.745,-138.184,-33.691,-41.992,25.391,51.758
1688814651.749,-168.457,-35.156,-47.852,17.090,205.566
1688814651.753,-145.996,-32.227,-46.387,-27.832,-103.027
1688814651.757,-129.883,-34.668,-44.922,-19.531,-276.855
1688814651.761,-144.531,-38.086,-48.340,-0.488,-3.418
1688814651.763,-192.383,-34.668,-46.875,9.277,57.129
1688814651.767,-222.656,-33.691,-43.945,13.184,-133.789
1688814651.771,-188.477,-36.621,-49.805,-36.133,-141.602
1688814651.775,-151.855,-35.645,-52.734,-50.781,-95.215
1688814651.779,-151.367,-35.645,-49.805,-41.504,-106.445
1688814651.783,-165.527,-35.645,-54.199,-37.109,-8.789
1688814651.787,-161.133,-35.156,-60.547,-26.855,41.992
1688814651.790,-121.094,-35.156,-61.035,-64.453,211.426
1688814651.794,-83.008,-32.227,-56.152,-64.453,218.262
1688814651.798,-83.008,-33.691,-56.641,-48.340,-131.348
1688814651.802,-101.074,-40.527,-60.059,-44.434,-218.262
1688814651.806,-121.582,-41.992,-56.152,-15.137,-70.312
1688814651.809,-104.004,-40.527,-52.246,-35.156,-83.984
1688814651.813,-66.406,-38.574,-49.805,-52.734,-163.574
1688814651.817,-53.711,-36.133,-47.852,-33.203,-5.371
1688814651.821,-64.941,-35.645,-47.363,-21.484,51.270
1688814651.825,-82.520,-35.156,-47.363,3.418,-18.555
1688814651.829,-68.359,-36.621,-50.293,-20.508,-28.809
1688814651.833,-32.227,-40.527,-54.199,-53.223,-0.488
1688814651.836,-25.391,-42.480,-55.176,-29.785,129.395
1688814651.840,-35.645,-43.457,-52.734,-19.043,-48.828
1688814651.844,-57.129,-40.527,-51.758,0.000,-155.273
1688814651.848,-62.500,-39.551,-55.664,-23.926,-63.477
1688814651.852,-23.438,-39.062,-53.223,-59.082,-96.680
1688814651.853,-6.836,-34.668,-43.945,-36.133,-106.445
1688814651.857,-16.602,-39.551,-44.434,-23.438,-96.191
1688814651.861,-47.363,-44.922,-45.898,-4.883,41.016
1688814651.865,-59.570,-43.945,-40.039,-19.043,16.113
1688814651.869,-26.855,-41.016,-46.387,-61.523,-197.266
1688814651.873,-17.578,-40.527,-52.246,-45.410,-137.695
1688814651.877,-36.133,-39.551,-48.340,-15.625,124.023
1688814651.880,-66.406,-36.621,-41.504,6.348,190.430
1688814651.884,-84.473,-36.133,-39.551,-7.324,8.301
1688814651.888,-54.199,-34.668,-41.504,-59.082,-147.461
1688814651.892,-28.809,-35.156,-40.039,-39.062,117.676
1688814651.896,-46.387,-39.062,-38.574,-22.949,127.441
1688814651.898,-76.172,-40.039,-40.039,-15.137,-87.891
1688814651.902,-97.656,-42.480,-45.898,-12.695,-42.480
1688814651.906,-73.730,-43.457,-49.316,-63.477,-57.129
1688814651.910,-43.457,-39.062,-51.270,-56.641,-166.504
1688814651.914,-46.875,-39.062,-51.270,-37.109,-170.898
1688814651.918,-73.730,-39.062,-50.781,-28.809,92.285
1688814651.922,-112.305,-43.945,-48.828,-7.324,191.895
1688814651.925,-97.168,-47.852,-45.410,-45.898,-52.246
1688814651.929,-51.270,-45.898,-41.992,-55.664,-176.758
1688814651.933,-42.480,-40.527,-41.016,-36.621,-83.984
1688814651.937,-57.617,-38.574,-40.039,-21.484,-5.859
1688814651.941,-86.426,-46.387,-41.016,-12.207,7.324
1688814651.958,-70.312,-47.363,-41.992,-56.641,-104.980
1688814651.962,-31.738,-48.340,-42.480,-62.500,6.836
1688814651.966,-22.949,-49.316,-48.828,-33.691,132.812
1688814651.970,-37.598,-47.852,-53.711,-28.809,-58.594
1688814651.974,-59.082,-41.992,-52.246,-15.625,-109.863
1688814651.978,-33.691,-38.574,-49.316,-42.969,30.273
1688814651.982,18.066,-38.086,-44.434,-59.082,6.348
1688814651.985,30.273,-35.156,-40.527,-36.133,-178.223
1688814651.989,16.113,-33.203,-36.621,-26.855,-118.164
1688814651.993,-39.551,-33.691,-38.086,-15.625,342.285
1688814651.997,-76.172,-37.598,-41.016,-61.523,303.223
1688814652.001,-55.176,-39.551,-44.922,-99.609,-113.770
1688814652.003,-59.082,-38.086,-45.410,-83.008,-103.027
1688814652.007,-84.961,-34.668,-44.922,-80.566,84.473
1688814652.011,-126.465,-33.203,-50.293,-79.102,-0.977
1688814652.015,-132.812,-37.598,-52.246,-99.121,-121.582
1688814652.019,-104.004,-41.504,-56.152,-141.113,-156.738
1688814652.023,-96.191,-41.016,-58.594,-138.184,-125.000
1688814652.027,-101.562,-42.480,-56.641,-118.164,-5.371
1688814652.030,-126.465,-40.527,-55.176,-96.680,-41.016
1688814652.034,-128.906,-44.434,-52.246,-106.445,6.836
1688814652.038,-81.055,-45.898,-57.129,-137.695,214.355
1688814652.042,-49.316,-37.598,-60.547,-125.977,-72.266
1688814652.046,-52.246,-37.109,-51.270,-104.004,-213.379
1688814652.049,-75.195,-38.574,-48.828,-79.102,35.645
1688814652.053,-86.914,-38.574,-46.875,-76.660,-24.902
1688814652.057,-60.059,-42.969,-42.969,-118.164,-259.277
1688814652.061,-36.133,-40.527,-43.945,-110.840,-181.641
1688814652.065,-41.992,-39.551,-43.457,-98.145,-32.227
1688814652.069,-72.266,-39.062,-40.039,-80.078,64.941
1688814652.073,-90.820,-39.551,-41.016,-74.707,15.137
1688814652.076,-62.500,-43.945,-48.828,-130.371,-100.586
1688814652.080,-34.668,-40.039,-52.246,-115.234,163.086
1688814652.084,-41.992,-35.645,-48.828,-86.914,269.531
1688814652.088,-73.730,-37.598,-47.852,-88.867,-111.816
1688814652.092,-97.656,-37.109,-46.875,-76.172,-147.461
1688814652.094,-72.266,-38.574,-44.434,-113.770,-116.211
1688814652.098,-41.992,-41.016,-46.387,-115.234,-208.008
1688814652.102,-37.598,-43.945,-44.922,-88.867,-220.215
1688814652.106,-51.270,-40.527,-42.969,-78.125,-90.332
1688814652.110,-76.660,-40.039,-49.316,-62.988,46.875
1688814652.114,-59.082,-39.062,-52.246,-92.285,-102.539
1688814652.118,-20.996,-31.738,-39.062,-92.773,-228.027
1688814652.121,-15.137,-33.691,-41.504,-67.383,-68.359
1688814652.125,-32.715,-36.133,-46.875,-56.152,258.301
1688814652.129,-60.547,-31.738,-40.039,-30.762,64.453
1688814652.133,-53.223,-37.598,-40.527,-64.453,-188.477
1688814652.137,-14.648,-43.945,-43.457,-87.891,-102.539
1688814652.153,-5.371,-39.551,-43.457,-68.848,-95.215
1688814652.157,-16.113,-38.086,-38.086,-70.312,-154.785
1688814652.161,-38.574,-39.062,-36.133,-49.805,-33.691
1688814652.165,-31.250,-36.621,-39.551,-65.430,39.551
1688814652.169,12.207,-37.598,-38.086,-94.727,-77.637
1688814652.173,31.250,-33.203,-34.668,-66.895,-87.891
1688814652.177,17.578,-26.855,-36.133,-58.594,-58.105
1688814652.180,-23.926,-33.203,-41.504,-41.016,239.746
1688814652.184,-34.668,-37.109,-41.992,-51.270,451.172
1688814652.188,-0.977,-40.527,-37.598,-95.215,37.598
1688814652.192,4.883,-37.598,-36.133,-82.520,-202.637
1688814652.196,-9.766,-36.621,-38.574,-70.312,-115.234
1688814652.186,-34.668,-38.086,-37.598,-44.922,-101.074
1688814652.190,-47.363,-36.133,-33.203,-47.852,-119.141
1688814652.194,-14.160,-37.109,-32.715,-96.680,-167.480
1688814652.198,8.301,-40.527,-34.668,-77.148,-187.012
1688814652.202,0.977,-35.156,-31.738,-53.711,-146.484
1688814652.206,-31.738,-32.227,-26.367,-49.316,-52.246
1688814652.210,-60.547,-38.574,-30.273,-59.570,40.039
1688814652.213,-42.969,-38.086,-33.203,-96.191,-47.852
1688814652.217,-28.809,-35.645,-29.297,-84.473,-141.113
1688814652.221,-41.504,-42.969,-30.273,-66.406,-261.719
1688814652.225,-73.242,-44.922,-32.227,-58.105,-90.332
1688814652.229,-92.285,-41.504,-30.762,-49.805,161.133
1688814652.228,-62.500,-43.945,-32.227,-84.473,-144.531
1688814652.232,-34.180,-46.387,-35.156,-83.984,-254.395
1688814652.236,-35.645,-41.992,-31.738,-65.918,-12.695
1688814652.240,-59.570,-41.992,-28.809,-50.781,46.875
1688814652.244,-84.473,-37.109,-28.320,-41.992,-67.383
1688814652.248,-50.781,-33.691,-31.250,-70.312,-63.965
1688814652.252,-16.602,-36.133,-28.809,-66.406,177.246
1688814652.255,-35.645,-33.203,-22.949,-55.176,406.738
1688814652.259,-60.547,-35.156,-20.996,-47.363,235.840
1688814652.263,-85.938,-41.992,-22.461,-35.645,-2.930
1688814652.267,-58.594,-41.992,-21.484,-75.684,-50.781
1688814652.271,-14.648,-41.504,-24.902,-91.797,-203.125
1688814652.273,-10.254,-44.922,-26.855,-72.754,-231.934
1688814652.277,-26.855,-44.922,-28.809,-63.965,-110.352
1688814652.281,-56.641,-40.527,-29.297,-48.828,-75.684
1688814652.285,-53.223,-43.457,-31.250,-83.008,-133.789
1688814652.289,-19.043,-44.434,-36.133,-108.887,-160.156
1688814652.293,-9.277,-40.527,-30.762,-94.727,-34.668
1688814652.297,-24.414,-39.551,-22.461,-82.031,72.266
1688814652.300,-54.688,-41.016,-28.809,-58.594,18.555
1688814652.304,-47.852,-39.062,-28.320,-83.984,-76.172
1688814652.308,-10.742,-35.156,-26.855,-119.629,-82.031
1688814652.312,-3.906,-36.133,-28.809,-97.168,-10.254
1688814652.316,-21.484,-32.715,-26.367,-82.520,-128.906
1688814652.333,-67.871,-33.203,-25.879,-55.176,-112.793
1688814652.337,-104.492,-34.668,-30.762,-71.289,38.086
1688814652.341,-76.172,-34.668,-31.250,-107.422,-39.551
1688814652.345,-67.383,-38.086,-32.715,-82.031,-155.762
1688814652.349,-103.516,-39.062,-36.133,-62.500,-118.652
1688814652.353,-142.578,-36.621,-30.762,-41.504,38.086
1688814652.357,-160.156,-37.598,-30.273,-56.152,37.109
1688814652.360,-140.137,-41.016,-29.785,-102.539,-47.363
1688814652.364,-118.652,-39.062,-24.414,-90.820,4.883
1688814652.368,-122.559,-36.133,-19.531,-72.266,0.488
1688814652.372,-162.598,-33.203,-19.531,-55.176,-6.836
1688814652.376,-184.570,-27.344,-17.090,-57.129,-60.547
1688814652.379,-154.785,-25.879,-16.113,-102.539,-209.961
1688814652.383,-141.113,-29.297,-20.020,-86.426,120.605
1688814652.387,-162.109,-35.645,-24.414,-68.848,240.723
1688814652.391,-197.266,-38.086,-27.832,-72.266,-83.984
1688814652.395,-216.797,-37.109,-28.320,-71.777,-51.270
1688814652.399,-182.129,-40.039,-27.832,-116.699,20.508
1688814652.403,-146.484,-40.039,-26.367,-118.652,-95.215
1688814652.406,-137.207,-38.086,-23.438,-91.309,-211.426
1688814652.410,-147.461,-37.109,-22.949,-76.660,-63.477
1688814652.414,-165.039,-34.668,-21.973,-62.500,221.680
1688814652.418,-135.254,-30.762,-21.484,-103.027,-22.949
1688814652.422,-103.516,-31.250,-22.461,-113.281,-144.043
1688814652.423,-94.727,-27.344,-21.973,-84.961,-37.109
1688814652.427,-97.656,-26.367,-19.043,-76.660,-89.355
1688814652.431,-120.117,-27.832,-13.184,-59.570,-63.477
1688814652.435,-105.469,-25.391,-15.625,-83.008,-67.383
1688814652.439,-74.219,-27.344,-16.113,-96.191,-37.598
1688814652.443,-75.195,-26.855,-12.695,-72.754,-93.262
1688814652.447,-92.285,-26.855,-16.602,-60.547,-137.695
1688814652.450,-125.488,-32.227,-21.973,-48.340,-41.504
1688814652.454,-120.117,-33.203,-22.949,-69.336,199.707
1688814652.458,-85.449,-31.738,-20.508,-88.867,253.418
1688814652.462,-72.754,-31.250,-20.020,-79.590,-123.047
1688814652.466,-76.660,-32.715,-20.508,-69.824,-201.172
1688814652.468,-91.797,-31.250,-19.531,-41.992,147.949
1688814652.472,-80.566,-29.785,-20.996,-69.824,-13.184
1688814652.476,-37.109,-30.273,-21.484,-100.586,-243.164
1688814652.480,-17.578,-27.832,-20.020,-85.938,-179.688
1688814652.484,-42.480,-25.391,-29.297,-96.191,-86.426
1688814652.488,-70.801,-26.367,-27.344,-73.730,42.480
1688814652.492,-73.242,-27.832,-23.438,-81.543,40.039
1688814652.495,-41.504,-26.367,-25.391,-119.629,66.406
1688814652.499,-22.461,-23.926,-24.414,-99.121,211.914
1688814652.503,-31.250,-26.367,-24.414,-92.285,-1.465
1688814652.507,-58.105,-28.320,-23.438,-73.730,-144.531
1688814652.511,-75.684,-28.809,-28.809,-84.473,-73.242
1688814652.513,-47.363,-32.715,-26.855,-125.000,-129.395
1688814652.517,-23.926,-27.344,-23.438,-102.539,-206.543
1688814652.521,-29.297,-24.414,-25.391,-78.613,-189.941
1688814652.525,-54.199,-30.273,-27.344,-59.570,-71.777
1688814652.529,-67.383,-28.809,-21.484,-60.547,35.645
1688814652.533,-31.250,-30.762,-21.973,-105.469,-22.461
1688814652.537,-0.977,-34.668,-26.367,-95.215,-32.227
1688814652.540,0.977,-34.180,-21.973,-64.941,257.324
1688814652.544,-18.066,-32.227,-18.066,-43.457,431.641
1688814652.548,-38.086,-30.273,-19.531,-43.945,89.844
1688814652.552,-17.090,-32.715,-20.020,-84.961,-171.875
1688814652.556,14.648,-32.227,-18.066,-73.730,-37.109
1688814652.573,17.578,-25.879,-19.531,-51.758,-61.523
1688814652.577,-7.812,-24.902,-18.555,-45.410,-132.324
1688814652.581,-36.133,-25.879,-19.043,-28.809,-83.008
1688814652.585,-17.578,-27.344,-25.391,-62.500,-133.789
1688814652.589,13.184,-23.438,-28.809,-71.289,-177.734
1688814652.593,6.348,-14.648,-22.949,-51.758,-145.020
1688814652.597,-27.344,-16.113,-20.020,-36.621,-29.297
1688814652.600,-61.523,-19.043,-22.461,-14.648,296.875
1688814652.604,-40.039,-21.973,-19.043,-56.152,-21.973
1688814652.608,0.000,-27.832,-18.555,-60.547,-281.250
1688814652.612,7.324,-23.926,-17.090,-26.367,-42.480
1688814652.616,-10.254,-22.461,-15.137,-22.949,-53.223
1688814652.620,-38.574,-28.809,-13.184,-7.812,-151.367
1688814652.624,-30.273,-27.344,-15.137,-32.227,-145.020
1688814652.628,-1.953,-28.320,-19.043,-47.363,-41.504
1688814652.632,2.441,-27.832,-16.113,-44.434,-84.961
1688814652.636,-12.695,-26.367,-15.137,-46.875,-219.238
1688814652.640,-44.922,-27.344,-16.602,-24.414,55.664
1688814652.644,-45.898,-28.809,-17.090,-50.781,155.762
1688814652.647,-0.977,-26.367,-15.137,-83.496,-49.316
1688814652.651,21.973,-18.066,-14.160,-57.617,-122.559
1688814652.655,3.906,-17.090,-13.184,-48.828,-162.598
1688814652.659,-30.762,-21.484,-18.066,-36.133,190.430
1688814652.663,-30.273,-24.902,-21.484,-54.199,271.973
1688814652.650,12.695,-26.855,-23.926,-99.121,-110.840
1688814652.654,23.926,-27.832,-23.926,-83.496,-155.762
1688814652.658,1.465,-28.320,-23.926,-67.871,-24.902
1688814652.662,-36.621,-32.715,-25.391,-53.711,-62.012
1688814652.666,-53.711,-30.762,-23.926,-60.059,-133.789
1688814652.670,-24.414,-30.762,-24.414,-100.098,-48.828
1688814652.674,-4.883,-32.715,-26.855,-84.961,92.773
1688814652.677,-12.695,-32.227,-27.344,-62.500,-13.672
1688814652.681,-42.969,-34.668,-30.762,-35.156,-146.973
1688814652.685,-65.430,-30.273,-31.738,-30.762,33.691
1688814652.689,-32.715,-28.320,-24.902,-65.430,230.957
1688814652.693,-11.230,-33.691,-26.855,-65.430,-37.109
1688814652.708,-26.855,-33.691,-28.809,-55.176,-248.047
1688814652.712,-51.270,-30.273,-28.809,-29.785,-25.391
1688814652.716,-80.566,-32.715,-33.691,-28.809,102.539
1688814652.720,-62.012,-34.668,-31.738,-77.637,-7.812
1688814652.724,-41.016,-35.645,-28.809,-71.777,-155.273
1688814652.728,-49.805,-37.109,-25.879,-42.969,130.371
1688814652.732,-64.453,-39.062,-21.484,-22.949,492.676
1688814652.735,-83.496,-41.992,-22.949,-24.414,142.090
1688814652.739,-57.129,-34.668,-21.973,-67.871,-95.703
1688814652.743,-20.020,-28.809,-18.555,-62.012,-48.828
1688814652.747,-12.207,-31.250,-20.996,-40.039,-189.941
1688814652.751,-35.645,-32.227,-27.832,-42.969,-254.883
1688814652.753,-70.801,-29.785,-25.391,-26.855,-93.750
1688814652.757,-48.340,-27.832,-20.508,-52.734,34.668
1688814652.761,-12.695,-31.738,-23.438,-71.289,-166.992
1688814652.765,-10.742,-28.320,-21.973,-46.875,-169.922
1688814652.769,-29.297,-25.391,-16.113,-38.574,-69.336
1688814652.773,-69.336,-27.344,-18.555,-24.902,-40.527
1688814652.777,-63.965,-29.785,-24.414,-52.246,-33.691
1688814652.780,-27.344,-30.273,-28.809,-80.078,-168.945
1688814652.784,-20.508,-30.762,-26.367,-59.082,-92.285
1688814652.788,-34.180,-32.227,-23.438,-42.969,119.629
1688814652.792,-61.035,-26.367,-19.531,-20.996,-14.160
1688814652.796,-59.570,-25.879,-19.531,-40.527,-130.371
1688814652.798,-25.391,-29.297,-17.090,-68.848,-49.316
1688814652.802,-14.160,-29.785,-13.672,-47.852,-12.207
1688814652.806,-30.762,-26.367,-15.625,-41.016,-182.617
1688814652.810,-56.152,-23.438,-12.695,-25.879,-169.922
1688814652.814,-61.035,-33.203,-18.555,-44.922,-120.117
1688814652.818,-36.133,-35.645,-23.926,-82.520,-82.520
1688814652.822,-27.832,-33.203,-17.578,-68.848,-35.156
1688814652.825,-45.410,-33.203,-16.602,-61.523,-33.691
1688814652.829,-76.660,-29.297,-19.043,-34.668,233.398
1688814652.833,-85.938,-25.391,-13.184,-36.621,414.062
1688814652.837,-49.805,-24.902,-12.695,-94.238,-17.090
1688814652.841,-24.902,-26.367,-15.625,-92.285,-209.473
1688814652.843,-31.738,-26.367,-15.137,-79.590,-113.281
1688814652.847,-62.988,-29.297,-14.160,-68.848,-126.465
1688814652.851,-78.613,-28.809,-15.137,-61.035,-107.910
1688814652.855,-49.316,-29.297,-17.578,-101.562,-106.445
1688814652.859,-19.531,-29.785,-16.602,-107.422,-99.609
1688814652.863,-14.160,-28.809,-17.090,-82.520,-68.359
1688814652.867,-39.551,-27.832,-14.648,-59.570,-63.477
1688814652.870,-67.383,-27.344,-17.578,-55.664,83.008
1688814652.874,-35.156,-27.344,-16.113,-83.496,168.945
1688814652.878,-10.254,-26.855,-9.766,-73.730,-67.871
1688814652.882,-20.020,-24.902,-9.277,-60.059,-104.980
1688814652.886,-43.945,-28.809,-10.742,-50.781,19.531
1688814652.888,-72.754,-27.344,-12.207,-39.551,35.645
1688814652.892,-54.199,-22.949,-7.812,-72.266,-97.168
1688814652.896,-24.414,-28.320,-4.883,-72.266,-162.109
1688814652.900,-25.879,-30.273,-9.277,-63.477,-105.957
1688814652.904,-52.246,-28.320,-11.719,-58.105,-104.980
1688814652.908,-86.426,-24.414,-11.230,-38.574,-65.430
1688814652.912,-81.055,-26.855,-11.719,-74.707,-41.016
1688814652.915,-51.758,-30.273,-13.184,-84.473,162.109
1688814652.919,-44.922,-26.855,-12.695,-61.035,322.266
1688814652.923,-60.547,-28.320,-14.648,-58.105,-53.711
1688814652.927,-93.750,-29.785,-17.578,-42.480,-158.203
1688814652.931,-88.867,-33.691,-12.695,-71.289,-45.898
1688814652.934,-47.363,-35.156,-10.254,-84.473,-122.070
1688814652.938,-41.504,-33.203,-13.184,-56.641,-180.664
1688814652.942,-63.965,-33.691,-15.625,-47.363,-117.188
1688814652.946,-90.820,-31.250,-16.602,-20.996,1.465
1688814652.950,-91.797,-28.809,-18.555,-44.434,-68.359
1688814652.954,-55.176,-30.762,-14.648,-81.055,-127.930
1688814652.958,-36.133,-30.273,-9.766,-56.152,45.898
1688814652.961,-49.805,-22.461,-6.348,-42.480,245.117
1688814652.965,-83.496,-24.902,-10.742,-36.133,11.230
1688814652.969,-93.262,-26.855,-12.207,-57.617,-143.555
1688814652.973,-60.059,-23.926,-14.160,-91.797,-80.078
1688814652.977,-43.945,-29.297,-18.066,-69.824,-67.871
1688814652.980,-57.617,-36.133,-13.672,-59.082,-66.406
1688814652.984,-88.379,-43.945,-11.719,-42.969,-71.289
1688814652.988,-104.004,-44.922,-16.113,-48.340,-46.875
1688814652.992,-67.383,-34.180,-12.695,-79.102,-109.863
1688814652.996,-33.691,-31.250,-8.301,-59.570,-78.613
1688814653.000,-39.551,-32.715,-10.254,-46.387,-1.953
1688814653.004,-70.312,-31.250,-14.648,-25.391,275.391
1688814653.007,-87.402,-34.668,-15.137,-20.020,406.250
1688814653.011,-58.594,-34.668,-18.555,-78.125,-57.617
1688814653.015,-37.598,-31.250,-17.578,-79.102,-188.477
1688814653.019,-44.922,-32.227,-9.766,-52.246,119.141
1688814653.023,-78.125,-37.598,-9.766,-40.527,-10.254
1688814653.023,-107.422,-36.621,-13.184,-28.809,-175.781
1688814653.027,-85.449,-32.715,-10.254,-65.430,-163.086
1688814653.031,-63.965,-38.574,-14.648,-77.637,-194.336
1688814653.035,-63.965,-35.645,-16.113,-64.941,-123.535
1688814653.039,-79.102,-29.785,-11.719,-48.340,-143.555
1688814653.043,-102.539,-30.273,-14.648,-29.785,-25.391
1688814653.047,-83.984,-27.832,-16.113,-67.871,263.672
1688814653.050,-49.316,-27.344,-16.602,-90.820,90.820
1688814653.054,-41.504,-30.273,-17.090,-89.355,-196.289
1688814653.058,-59.082,-28.320,-12.207,-76.172,-112.793
1688814653.062,-83.984,-25.879,-13.184,-61.035,93.262
1688814653.066,-78.125,-23.926,-16.113,-105.957,-102.539
1688814653.083,-61.523,-27.832,-17.090,-111.816,-202.637
1688814653.087,-59.082,-28.320,-14.160,-71.777,-118.164
1688814653.091,-83.496,-27.832,-12.207,-59.082,-110.840
1688814653.095,-122.559,-26.855,-11.230,-32.715,-97.656
1688814653.099,-120.605,-26.855,-8.301,-39.062,-90.332
1688814653.103,-87.891,-28.320,-13.672,-51.758,23.926
1688814653.107,-80.078,-23.438,-6.836,-27.832,-44.434
1688814653.110,-102.539,-23.926,0.977,-17.578,-104.492
1688814653.114,-132.812,-28.320,-0.488,2.441,26.855
1688814653.118,-125.488,-29.297,-3.906,-17.578,39.062
1688814653.122,-98.145,-33.203,-6.348,-50.781,-124.023
1688814653.126,-92.285,-34.180,0.000,-37.109,-160.645
1688814653.128,-103.027,-28.809,-4.395,-41.016,-66.895
1688814653.132,-133.789,-31.250,-11.719,-23.438,322.754
1688814653.136,-135.742,-32.227,-12.207,-34.668,327.637
1688814653.140,-87.891,-34.180,-9.277,-75.195,-82.520
1688814653.144,-62.988,-33.203,-7.812,-56.152,-90.820
1688814653.148,-79.102,-33.203,-13.184,-46.387,-96.191
1688814653.152,-100.586,-36.133,-9.766,-29.785,-62.988
1688814653.155,-106.934,-33.691,-6.836,-31.250,-128.906
1688814653.159,-77.637,-31.738,-5.859,-68.848,-126.465
1688814653.163,-47.852,-30.273,-1.465,-48.828,144.043
1688814653.167,-46.875,-27.344,0.977,-33.691,-32.227
1688814653.171,-76.172,-29.785,-1.465,-30.762,-160.156
1688814653.174,-94.238,-31.250,-5.859,-32.227,49.805
1688814653.178,-67.871,-29.785,-5.859,-73.730,-58.105
1688814653.182,-48.828,-26.367,-8.301,-69.336,-241.699
1688814653.186,-57.617,-25.391,-13.672,-58.105,-123.535
1688814653.190,-83.496,-29.785,-14.160,-47.852,0.977
1688814653.194,-104.004,-34.180,-12.207,-36.133,53.223
1688814653.198,-80.566,-28.809,-12.695,-73.242,2.930
1688814653.201,-52.734,-26.367,-14.648,-76.172,-64.453
1688814653.205,-56.152,-29.785,-14.648,-48.828,175.293
1688814653.209,-72.266,-31.738,-14.160,-29.785,302.246
1688814653.213,-92.773,-28.809,-14.648,-24.902,11.230
1688814653.217,-75.684,-27.344,-12.695,-63.965,-123.047
1688814653.233,-45.410,-30.273,-14.160,-79.102,-116.211
1688814653.237,-35.645,-30.762,-14.160,-63.965,-177.734
1688814653.241,-57.129,-31.250,-14.648,-57.129,-170.898
1688814653.245,-95.703,-34.668,-21.484,-43.457,-86.426
1688814653.249,-75.195,-32.715,-23.926,-65.918,-82.520
1688814653.253,-32.227,-29.785,-18.066,-80.566,-51.270
1688814653.257,-35.156,-32.227,-17.578,-66.406,-102.051
1688814653.260,-50.781,-28.809,-17.090,-48.340,-11.719
1688814653.264,-78.125,-24.902,-11.719,-14.648,264.648
1688814653.268,-85.449,-29.297,-19.043,-45.410,8.789
1688814653.272,-64.941,-30.762,-20.508,-78.613,-186.035
1688814653.276,-66.406,-31.250,-17.578,-56.152,-27.344
1688814653.264,-89.844,-31.250,-16.113,-49.316,-39.062
1688814653.268,-124.023,-34.180,-18.555,-42.480,-65.430
1688814653.272,-121.582,-38.574,-20.996,-62.988,-45.410
1688814653.276,-74.707,-34.668,-14.648,-83.496,100.586
1688814653.280,-63.477,-31.250,-14.160,-61.523,208.496
1688814653.284,-75.684,-33.203,-15.625,-53.223,-110.352
1688814653.288,-95.215,-37.598,-17.578,-26.367,-41.992
1688814653.291,-98.145,-37.598,-18.555,-26.367,83.008
1688814653.295,-65.918,-42.480,-20.508,-60.059,-116.211
1688814653.299,-46.875,-44.922,-24.414,-49.805,-166.016
1688814653.303,-44.922,-41.504,-18.066,-41.992,-102.539
1688814653.307,-75.195,-43.457,-16.113,-18.555,230.469
1688814653.308,-89.844,-43.457,-23.438,-23.438,279.297
1688814653.312,-51.758,-42.480,-20.508,-66.406,-164.062
1688814653.316,-37.598,-39.062,-18.066,-56.152,-144.043
1688814653.320,-50.293,-37.109,-20.508,-40.039,36.621
1688814653.324,-66.406,-37.598,-22.461,-17.090,-44.922
1688814653.328,-78.613,-43.457,-26.367,-20.020,-76.172
1688814653.332,-53.711,-43.945,-26.855,-67.383,-17.578
1688814653.335,-25.391,-39.062,-25.391,-49.316,215.820
1688814653.339,-23.438,-41.992,-23.926,-30.273,20.020
1688814653.343,-39.062,-41.016,-23.926,-18.555,-172.363
1688814653.347,-60.547,-31.250,-25.391,-4.395,-1.953
1688814653.351,-39.551,-32.715,-28.809,-45.898,-104.980
1688814653.368,-12.207,-35.645,-29.297,-51.758,-198.730
1688814653.372,-17.090,-30.273,-24.902,-34.668,-127.930
1688814653.376,-42.480,-30.273,-27.344,-23.926,-0.488
1688814653.380,-77.637,-29.785,-34.668,-13.184,25.879
1688814653.384,-67.383,-34.668,-40.039,-59.082,-136.230
1688814653.388,-39.551,-35.645,-41.016,-72.754,-136.230
1688814653.392,-39.062,-34.180,-36.133,-45.410,233.398
1688814653.395,-64.941,-36.133,-35.156,-44.434,293.945
1688814653.399,-94.238,-35.156,-31.250,-41.504,36.133
1688814653.403,-82.520,-35.156,-26.855,-67.383,-91.797
1688814653.407,-54.688,-35.156,-32.227,-79.590,-51.758
1688814653.411,-50.781,-39.062,-33.203,-67.871,-123.535
1688814653.413,-73.730,-43.457,-32.227,-63.965,-209.473
1688814653.417,-102.051,-41.992,-31.250,-32.227,-33.691
1688814653.421,-97.168,-41.992,-27.832,-44.434,93.262
1688814653.425,-62.988,-39.551,-29.785,-70.312,-111.328
1688814653.429,-45.898,-37.598,-34.668,-45.410,-197.266
1688814653.433,-60.547,-39.062,-33.691,-27.832,-87.891
1688814653.437,-93.750,-35.645,-32.227,-20.996,18.555
1688814653.440,-96.191,-36.133,-28.809,-45.410,-67.383
1688814653.444,-61.523,-37.598,-27.832,-82.031,-243.164
1688814653.448,-47.363,-35.156,-32.715,-78.125,-67.383
1688814653.452,-57.129,-33.203,-33.203,-60.059,283.691
1688814653.456,-85.449,-36.133,-36.133,-43.457,135.254
1688814653.458,-93.750,-35.645,-34.668,-67.871,-134.277
1688814653.462,-59.570,-33.691,-29.297,-104.492,-122.070
1688814653.466,-44.922,-30.273,-28.320,-86.426,-126.465
1688814653.470,-60.059,-28.320,-26.367,-71.289,-194.824
1688814653.474,-92.285,-28.809,-27.832,-46.387,-101.562
1688814653.478,-106.934,-28.320,-24.414,-47.363,-8.789
1688814653.482,-68.848,-29.297,-20.996,-80.566,-35.645
1688814653.485,-47.852,-31.738,-24.414,-61.523,-55.664
1688814653.489,-64.941,-31.250,-21.484,-47.852,-89.844
1688814653.493,-94.238,-33.203,-18.066,-25.391,200.684
1688814653.497,-108.887,-34.180,-15.137,-17.578,351.074
1688814653.501,-78.613,-36.621,-15.625,-70.801,-12.695
1688814653.503,-52.734,-35.645,-21.484,-68.359,-85.938
1688814653.507,-61.035,-34.668,-24.414,-48.340,-25.879
1688814653.511,-91.797,-35.645,-21.973,-37.598,-83.496
1688814653.515,-112.305,-30.762,-16.602,-13.672,-65.918
1688814653.519,-83.984,-35.156,-21.484,-51.758,-62.012
1688814653.523,-54.199,-42.969,-30.273,-66.895,1.953
1688814653.527,-42.480,-41.016,-25.879,-41.992,-13.184
1688814653.530,-52.734,-36.621,-16.113,-26.855,-181.152
1688814653.534,-83.008,-36.621,-12.695,-9.277,-40.039
1688814653.538,-67.871,-35.156,-11.230,-42.969,151.367
1688814653.542,-35.156,-29.785,-10.742,-67.871,-125.977
1688814653.546,-36.133,-25.391,-10.742,-45.410,-219.727
1688814653.548,-65.918,-24.902,-11.719,-28.320,-19.531
1688814653.552,-95.703,-22.949,-14.160,-16.113,50.293
1688814653.556,-83.984,-30.762,-16.113,-41.504,-59.082
1688814653.560,-56.152,-38.086,-17.090,-57.617,-180.664
1688814653.564,-56.152,-32.227,-18.066,-42.969,0.000
1688814653.568,-80.566,-29.297,-20.020,-39.062,73.730
1688814653.572,-121.094,-31.250,-20.020,-19.531,-37.598
1688814653.575,-122.070,-30.273,-19.531,-42.969,-43.945
1688814653.579,-88.379,-28.809,-20.996,-69.336,150.391
1688814653.583,-83.984,-36.133,-20.996,-49.316,35.645
1688814653.587,-102.051,-34.180,-17.090,-38.086,-177.734
1688814653.591,-136.719,-33.203,-19.531,-21.973,-20.508
1688814653.593,-138.184,-35.645,-25.391,-39.062,135.742
1688814653.597,-93.750,-29.785,-18.066,-73.730,-120.605
1688814653.601,-64.941,-31.738,-17.578,-63.477,-271.973
1688814653.605,-65.918,-38.086,-24.414,-44.922,-107.422
1688814653.609,-103.516,-36.133,-23.438,-20.996,283.691
1688814653.613,-118.652,-33.691,-27.832,-42.969,153.809
1688814653.617,-91.797,-37.598,-31.250,-80.566,-172.852
1688814653.620,-79.590,-35.156,-24.414,-56.641,-129.395
1688814653.624,-91.309,-28.809,-23.438,-37.598,-59.570
1688814653.628,-127.930,-30.273,-26.855,-27.344,-133.789
1688814653.632,-148.438,-29.785,-29.785,-40.527,-150.391
1688814653.636,-116.211,-27.344,-25.879,-73.730,-6.836
1688814653.638,-95.215,-25.879,-21.484,-52.246,93.262
1688814653.642,-114.258,-26.367,-21.973,-43.457,-103.027
1688814653.646,-149.414,-28.320,-20.508,-26.855,-79.590
1688814653.650,-163.086,-26.855,-23.438,-16.113,-68.848
1688814653.654,-138.672,-28.809,-19.531,-53.223,-194.824
1688814653.658,-123.535,-29.785,-17.578,-53.711,-83.984
1688814653.662,-134.766,-30.762,-22.461,-42.969,-104.004
1688814653.665,-165.527,-32.227,-20.508,-22.949,153.320
1688814653.669,-189.941,-26.855,-19.531,-7.812,463.867
1688814653.673,-163.086,-30.273,-19.043,-47.852,11.719
1688814653.677,-129.883,-32.227,-20.508,-45.898,-151.367
1688814653.681,-127.930,-31.250,-24.902,-27.832,130.371
1688814653.683,-152.344,-33.691,-23.926,-27.344,-26.855
1688814653.687,-178.711,-29.785,-21.973,-17.578,-143.066
1688814653.691,-157.715,-33.691,-25.391,-63.965,-110.840
1688814653.695,-113.281,-33.203,-32.227,-83.008,-162.109
1688814653.699,-99.121,-24.414,-30.762,-57.129,-113.281
1688814653.703,-119.629,-20.996,-28.320,-41.504,-32.715
1688814653.707,-155.762,-22.949,-28.809,-21.484,122.070
1688814653.710,-148.926,-24.414,-27.344,-44.434,187.500
1688814653.714,-118.164,-24.902,-28.809,-68.848,-99.121
1688814653.718,-124.512,-29.785,-26.367,-52.734,-197.754
1688814653.722,-174.805,-31.738,-27.832,-30.273,-75.684
1688814653.726,-230.957,-33.203,-30.273,2.441,-73.242
1688814653.728,-239.258,-35.645,-30.273,-24.902,-157.715
1688814653.732,-205.566,-34.180,-28.809,-49.316,-179.688
1688814653.736,-198.242,-35.156,-22.461,-28.809,-115.723
1688814653.740,-204.590,-38.086,-18.555,-24.414,-143.066
1688814653.744,-220.215,-37.109,-18.066,-7.812,-107.910
1688814653.748,-219.727,-31.738,-20.508,-32.715,-43.457
1688814653.752,-181.641,-32.715,-24.902,-53.711,106.445
1688814653.755,-163.086,-35.645,-25.879,-37.109,165.039
1688814653.759,-187.500,-37.598,-20.020,-36.621,-55.664
1688814653.763,-256.348,-40.039,-20.020,-15.137,-47.852
1688814653.767,-340.332,-36.133,-19.531,-26.367,130.371
1688814653.771,-387.695,-37.598,-18.555,-65.918,-31.738
1688814653.788,-409.180,-38.574,-22.461,-53.223,-222.168
1688814653.792,-434.570,-32.227,-24.902,-44.922,-149.414
1688814653.796,-441.895,-30.273,-20.020,-25.879,74.219
1688814653.800,-416.016,-27.832,-17.090,-30.273,22.461
1688814653.804,-378.906,-29.297,-19.531,-72.754,-125.977
1688814653.808,-330.078,-31.250,-21.484,-56.641,-38.086
1688814653.812,-273.926,-31.738,-20.996,-43.945,78.613
1688814653.815,-248.047,-33.691,-21.484,-29.785,43.945
1688814653.819,-235.352,-30.273,-21.973,-30.273,-100.098
1688814653.823,-174.805,-24.414,-20.508,-76.172,-111.816
1688814653.827,-129.883,-22.949,-18.555,-62.500,38.574
1688814653.831,-125.000,-24.414,-15.625,-45.898,-138.184
1688814653.833,-134.766,-26.367,-16.113,-43.457,-173.828
1688814653.837,-155.762,-29.785,-25.879,-34.180,122.070
1688814653.841,-128.418,-35.645,-28.320,-72.266,-31.738
1688814653.845,-75.195,-38.086,-17.578,-78.125,-200.195
1688814653.849,-50.293,-38.086,-18.066,-62.500,-103.027
1688814653.853,-56.152,-38.086,-22.949,-51.270,87.891
1688814653.857,-73.730,-36.133,-24.414,-34.180,91.797
1688814653.860,-44.922,-32.715,-20.996,-64.453,-87.891
1688814653.864,-6.348,-32.227,-18.555,-75.684,-38.086
1688814653.868,-6.836,-35.156,-22.949,-53.711,192.871
1688814653.872,-30.273,-36.133,-22.949,-38.086,314.941
1688814653.876,-60.547,-38.086,-21.973,-19.531,50.293
1688814653.878,-50.781,-37.598,-20.020,-52.246,-168.457
1688814653.882,-10.254,-37.109,-20.508,-71.289,-171.387
1688814653.886,10.742,-40.039,-22.461,-56.152,-179.199
1688814653.890,7.812,-38.574,-21.484,-45.410,-200.195
1688814653.894,-12.207,-37.109,-19.043,-16.113,-80.566
1688814653.898,-18.555,-36.133,-19.531,-41.992,39.551
1688814653.902,24.902,-31.738,-16.602,-65.918,-107.422
1688814653.905,48.828,-31.738,-13.184,-41.504,-188.477
1688814653.909,28.320,-33.691,-19.531,-34.180,-61.523
1688814653.913,-15.625,-34.668,-20.996,-11.230,205.078
1688814653.917,-39.551,-33.203,-22.949,-40.527,20.996
1688814653.921,-13.184,-36.133,-26.367,-83.008,-162.598
1688814653.923,8.789,-38.086,-21.484,-57.617,-119.141
1688814653.927,-4.395,-41.992,-21.973,-45.898,-127.441
1688814653.931,-30.273,-43.945,-20.996,-29.297,-157.715
1688814653.935,-34.180,-37.109,-20.508,-39.551,-163.086
1688814653.939,0.000,-30.762,-26.855,-78.613,-149.902
1688814653.943,23.926,-29.297,-30.762,-67.383,-153.809
1688814653.947,17.090,-26.855,-23.438,-53.711,-81.055
1688814653.950,-17.090,-27.344,-20.020,-30.762,44.434
1688814653.954,-51.758,-28.809,-26.855,-24.414,369.629
1688814653.958,-39.062,-28.320,-29.785,-58.105,423.828
1688814653.962,-16.113,-31.250,-31.738,-58.105,-61.523
1688814653.966,-15.625,-33.691,-29.297,-44.434,-164.551
1688814653.968,-37.598,-35.156,-29.297,-26.855,125.000
1688814653.972,-52.246,-38.574,-34.180,-31.250,15.137
1688814653.976,-19.531,-36.621,-35.645,-74.707,-183.105
1688814653.980,7.812,-35.645,-32.227,-62.012,-168.945
1688814653.984,16.113,-30.273,-22.461,-35.156,-200.684
1688814653.988,-1.465,-30.762,-22.461,-19.531,-63.477
1688814653.992,-29.785,-36.621,-23.438,-16.113,-3.418
1688814653.995,-16.602,-35.645,-22.461,-59.570,-72.754
1688814653.999,7.812,-36.133,-24.902,-56.152,315.918
1688814654.003,8.301,-34.668,-23.438,-35.156,71.777
1688814654.007,-14.160,-28.320,-21.484,-23.926,-259.766
1688814654.011,-38.574,-28.809,-22.461,-5.859,-87.891
1688814654.013,-25.879,-34.180,-26.367,-44.434,-202.637
1688814654.017,-2.930,-38.574,-26.855,-59.570,-293.457
1688814654.021,-5.859,-36.621,-22.461,-40.039,-254.395
1688814654.025,-26.855,-34.180,-16.602,-25.879,-146.973
1688814654.029,-54.199,-33.691,-20.508,-4.883,-103.516
1688814654.033,-48.828,-35.156,-25.879,-39.551,-133.789
1688814654.037,-16.602,-33.203,-26.855,-60.547,-64.941
1688814654.040,-9.277,-34.668,-27.832,-38.574,187.988
1688814654.044,-26.855,-36.621,-25.391,-25.391,281.250
1688814654.048,-50.781,-30.273,-21.973,-15.137,11.719
1688814654.052,-47.852,-31.738,-23.926,-39.062,-24.902
1688814654.056,-16.113,-33.691,-27.832,-60.059,73.730
1688814654.059,0.977,-27.344,-27.344,-44.434,-110.352
1688814654.063,-12.207,-25.879,-23.926,-32.227,-198.730
1688814654.067,-47.363,-33.691,-20.996,-9.766,-103.027
1688814654.071,-54.199,-37.109,-23.438,-26.367,-89.355
1688814654.075,-15.625,-35.156,-26.855,-60.059,-161.621
1688814654.079,1.953,-34.180,-29.297,-45.898,-47.852
1688814654.083,-12.695,-34.180,-32.715,-31.250,178.223
1688814654.086,-40.039,-34.180,-31.738,-8.789,269.043
1688814654.090,-35.156,-29.785,-32.227,-24.902,51.270
1688814654.094,1.953,-29.297,-30.273,-63.477,-82.520
1688814654.098,15.625,-35.645,-27.832,-44.922,-38.574
1688814654.102,3.906,-33.203,-27.344,-27.832,-34.668
1688814654.119,-21.973,-29.785,-23.926,-7.812,-74.219
1688814654.123,-34.668,-30.273,-24.902,-12.207,-12.695
1688814654.127,-13.184,-26.855,-26.855,-56.152,21.973
1688814654.131,6.348,-25.391,-24.414,-48.828,-61.035
1688814654.135,-4.395,-28.809,-28.320,-38.574,-60.547
1688814654.139,-37.598,-30.762,-27.832,-32.715,-22.949
1688814654.143,-59.082,-27.832,-27.832,-25.391,223.633
1688814654.146,-28.809,-24.414,-27.832,-57.129,455.566
1688814654.150,3.906,-24.414,-21.973,-62.012,92.285
1688814654.154,5.371,-24.414,-21.484,-51.758,-145.996
1688814654.158,-22.461,-27.832,-26.855,-38.086,-25.391
1688814654.162,-61.035,-37.109,-33.203,-33.691,-88.867
1688814654.179,-40.527,-41.016,-33.203,-64.453,-172.363
1688814654.183,-2.441,-37.598,-27.344,-50.781,-148.926
1688814654.187,-0.977,-34.180,-23.926,-27.344,-130.859
1688814654.191,-27.344,-35.156,-26.367,-19.531,-73.242
1688814654.195,-53.223,-33.203,-30.762,-1.953,-57.129
1688814654.199,-41.992,-32.715,-31.250,-36.133,-67.871
1688814654.203,-27.344,-32.715,-32.227,-49.316,-36.133
1688814654.206,-22.949,-29.785,-32.227,-20.996,-80.078
1688814654.210,-34.668,-31.738,-30.273,-11.230,-186.035
1688814654.214,-68.359,-34.180,-26.367,8.789,5.859
1688814654.218,-60.059,-30.762,-22.461,-8.301,239.746
1688814654.222,-18.555,-31.738,-20.996,-28.809,-60.547
1688814654.208,-14.648,-33.203,-27.344,-18.555,-229.980
1688814654.212,-31.250,-27.344,-32.715,-13.672,-69.824
1688814654.216,-57.617,-28.320,-30.273,5.371,-9.766
1688814654.220,-62.012,-33.203,-32.227,-22.461,-114.258
1688814654.224,-31.250,-33.691,-34.668,-49.316,-133.301
1688814654.228,-22.949,-39.062,-33.203,-28.320,14.648
1688814654.232,-38.086,-39.062,-32.227,-22.461,23.926
1688814654.235,-71.777,-34.180,-35.645,-6.348,-31.250
1688814654.239,-73.730,-35.645,-34.668,-18.066,34.668
1688814654.243,-33.203,-37.598,-33.691,-48.340,93.750
1688814654.247,-21.484,-38.574,-34.668,-32.715,-36.133
1688814654.251,-33.203,-40.039,-36.621,-18.066,-159.180
1688814654.253,-62.500,-38.086,-35.645,-0.488,-128.418
1688814654.257,-72.266,-37.598,-37.109,-7.324,219.238
1688814654.261,-35.156,-41.992,-43.945,-39.062,327.148
1688814654.265,-4.883,-39.551,-42.480,-21.973,-21.973
1688814654.269,-3.906,-32.227,-33.203,0.000,-115.723
1688814654.273,-27.832,-36.133,-31.250,12.695,57.617
1688814654.277,-43.457,-39.551,-36.133,4.883,-18.555
1688814654.280,-11.719,-35.156,-36.621,-35.645,-204.102
1688814654.284,20.020,-33.203,-34.668,-33.691,-28.809
1688814654.288,25.391,-27.832,-35.156,-7.812,207.031
1688814654.292,-3.906,-29.785,-41.016,-1.953,-19.531
1688814654.296,-40.527,-36.133,-42.969,-18.066,-163.086
1688814654.298,-20.996,-33.203,-39.062,-61.035,-64.453
1688814654.302,4.883,-34.180,-38.086,-60.547,-96.191
1688814654.306,1.953,-40.039,-38.086,-40.527,-255.371
1688814654.310,-12.207,-36.133,-37.598,-20.020,-159.180
1688814654.314,-23.438,-34.180,-37.109,-8.301,0.977
1688814654.318,7.812,-42.969,-41.504,-51.270,-30.762
1688814654.322,48.340,-41.504,-43.945,-57.617,-98.633
1688814654.325,51.758,-39.551,-45.410,-40.527,-57.617
1688814654.329,33.203,-39.551,-44.434,-18.555,287.598
1688814654.333,7.812,-40.039,-43.457,1.465,336.426
1688814654.337,22.949,-41.016,-41.016,-48.340,-66.406
1688814654.341,62.988,-42.480,-43.945,-70.801,-198.242
1688814654.343,69.336,-45.410,-48.828,-43.945,-38.574
1688814654.347,55.664,-43.945,-46.875,-37.598,-150.391
1688814654.351,39.062,-40.039,-42.969,-10.742,-195.312
1688814654.355,55.176,-39.062,-39.062,-37.598,-142.578
1688814654.359,94.238,-34.180,-40.039,-68.848,-140.625
1688814654.363,95.703,-36.133,-46.387,-50.293,-38.574
1688814654.367,73.730,-38.086,-43.457,-41.016,5.371
1688814654.370,44.922,-38.086,-43.945,-14.648,30.273
1688814654.374,41.992,-40.039,-46.875,-29.297,236.816
1688814654.378,68.359,-41.504,-45.898,-62.500,39.062
1688814654.382,68.359,-42.969,-49.805,-43.457,-179.199
1688814654.386,41.504,-41.992,-49.316,-34.668,-80.078
1688814654.418,9.277,-40.039,-47.852,-15.625,22.461
1688814654.422,5.859,-39.551,-49.316,-32.715,-132.812
1688814654.426,44.434,-36.621,-52.246,-65.918,-176.270
1688814654.430,63.477,-35.645,-49.316,-41.992,-6.348
1688814654.434,47.852,-39.551,-54.199,-30.762,-34.180
1688814654.438,7.324,-45.898,-59.082,-17.090,29.297
1688814654.442,-20.020,-42.969,-50.781,-24.902,81.543
1688814654.445,-8.789,-36.133,-50.293,-53.223,229.004
1688814654.449,-8.789,-40.039,-55.664,-45.410,192.383
1688814654.453,-33.203,-43.945,-52.734,-42.480,-151.855
1688814654.457,-74.219,-45.898,-48.828,-26.855,-97.656
1688814654.461,-98.145,-50.293,-51.270,-20.996,170.410
1688814654.434,-71.289,-53.223,-49.805,-61.523,-29.785
1688814654.438,-44.434,-47.363,-47.852,-60.547,-194.824
1688814654.442,-49.805,-42.480,-50.781,-39.062,-96.680
1688814654.446,-81.543,-51.758,-54.688,-21.973,44.434
1688814654.450,-95.703,-51.270,-52.734,-16.113,0.977
1688814654.454,-62.500,-44.434,-52.246,-47.852,-149.902
1688814654.458,-34.180,-40.527,-56.152,-49.805,46.875
1688814654.461,-31.738,-38.086,-55.176,-33.203,242.188
1688814654.465,-54.199,-38.574,-56.641,-31.738,-18.066
1688814654.469,-77.637,-42.969,-58.105,-34.668,-96.680
1688814654.473,-59.570,-44.434,-58.105,-73.242,-60.059
1688814654.477,-29.785,-44.922,-57.129,-80.566,-60.059
1688814654.478,-31.738,-43.457,-52.734,-59.570,-157.227
1688814654.482,-52.734,-40.527,-50.781,-41.992,-211.426
1688814654.486,-76.660,-45.898,-53.223,-22.461,64.453
1688814654.490,-58.594,-49.805,-59.570,-57.617,131.836
1688814654.494,-22.949,-50.293,-62.988,-72.754,-142.090
1688814654.498,-26.367,-50.293,-55.176,-41.992,-68.359
1688814654.502,-49.805,-48.340,-56.641,-31.738,268.066
1688814654.505,-71.777,-47.363,-58.105,-20.020,240.234
1688814654.509,-56.152,-47.363,-53.711,-41.504,-89.844
1688814654.513,-24.414,-48.340,-57.617,-59.082,-145.020
1688814654.517,-20.996,-48.340,-56.641,-40.527,84.961
1688814654.521,-41.992,-50.293,-57.129,-22.949,114.258
1688814654.523,-70.312,-48.828,-58.105,-2.441,-93.750
1688814654.527,-62.012,-44.434,-53.223,-15.137,-86.426
1688814654.531,-16.602,-43.457,-51.270,-33.691,21.484
1688814654.535,0.000,-44.434,-55.176,-21.484,-33.691
1688814654.539,-18.066,-43.457,-56.641,-24.414,-156.738
1688814654.543,-55.664,-46.875,-62.500,-9.766,0.977
1688814654.547,-61.523,-52.734,-65.430,-19.531,163.574
1688814654.550,-19.531,-48.340,-57.617,-48.340,-28.320
1688814654.554,-6.836,-41.992,-51.270,-26.367,-119.629
1688814654.558,-23.438,-43.457,-51.758,-11.230,-31.738
1688814654.562,-49.805,-41.504,-53.711,15.137,119.629
1688814654.566,-57.617,-37.598,-57.129,-0.488,-43.945
1688814654.598,-27.344,-37.598,-58.594,-39.062,-258.789
1688814654.602,-20.996,-38.574,-55.176,-12.207,-155.762
1688814654.606,-43.945,-39.551,-57.129,1.953,-133.301
1688814654.610,-74.219,-44.434,-60.059,14.160,-222.656
1688814654.614,-90.820,-46.387,-60.059,11.230,-146.973
1688814654.618,-75.684,-47.363,-63.965,-31.738,20.020
1688814654.622,-65.918,-52.246,-65.430,-27.344,-48.828
1688814654.625,-63.477,-48.828,-61.523,-14.648,-102.539
1688814654.629,-79.102,-40.039,-57.129,1.465,-80.078
1688814654.633,-102.051,-41.504,-57.129,15.137,234.863
1688814654.637,-80.566,-42.969,-62.500,-27.344,354.004
1688814654.641,-53.223,-45.410,-64.941,-41.016,-120.605
1688814654.643,-59.570,-48.828,-61.523,-21.484,-219.727
1688814654.647,-91.309,-43.945,-59.082,-2.441,-78.125
1688814654.651,-121.094,-42.480,-62.500,10.742,-95.215
1688814654.655,-100.098,-41.992,-65.430,-24.414,-146.484
1688814654.659,-73.242,-41.504,-63.965,-33.203,-105.469
1688814654.663,-81.543,-43.457,-59.570,-23.438,-36.133
1688814654.667,-101.074,-44.434,-60.547,-12.695,15.625
1688814654.670,-134.277,-45.898,-64.453,-0.488,-61.523
1688814654.674,-127.441,-42.969,-62.500,-44.434,-81.055
1688814654.678,-87.891,-42.969,-61.523,-65.918,-45.410
1688814654.682,-75.684,-46.875,-65.430,-46.387,-80.078
1688814654.686,-87.402,-44.922,-67.383,-32.715,-112.305
1688814654.673,-111.816,-45.898,-68.359,-8.301,79.590
1688814654.677,-103.516,-45.410,-65.430,-28.809,265.625
1688814654.681,-71.777,-44.434,-59.570,-55.664,-22.949
1688814654.685,-74.219,-45.898,-55.176,-30.762,-165.039
1688814654.689,-104.492,-44.922,-51.758,-12.207,-102.539
1688814654.693,-135.254,-45.898,-54.199,5.371,-27.344
1688814654.697,-130.859,-42.969,-57.129,-11.719,-30.273
1688814654.700,-94.238,-38.574,-55.664,-35.645,-100.586
1688814654.704,-89.355,-41.504,-54.199,-22.461,2.930
1688814654.708,-119.141,-42.480,-56.641,-22.949,-41.992
1688814654.712,-155.762,-41.504,-58.105,0.000,-95.703
1688814654.716,-164.551,-44.434,-57.617,-15.137,-112.793
1688814654.719,-134.766,-43.945,-61.523,-52.734,146.973
1688814654.723,-116.699,-43.457,-63.965,-29.297,272.949
1688814654.727,-128.906,-43.945,-62.500,-26.367,-56.152
1688814654.731,-164.062,-36.133,-59.082,-16.113,-107.422
1688814654.735,-187.988,-37.109,-59.570,-23.926,-1.953
1688814654.739,-170.898,-40.039,-58.594,-65.430,-50.781
1688814654.743,-154.785,-38.574,-58.105,-55.176,-45.410
1688814654.746,-155.273,-40.527,-57.617,-47.852,33.691
1688814654.750,-177.246,-43.945,-54.688,-37.109,210.938
1688814654.754,-191.406,-46.387,-60.059,-42.969,18.066
1688814654.758,-158.203,-46.387,-57.617,-82.520,-169.434
1688814654.762,-125.977,-45.898,-53.223,-64.941,-139.160
1688814654.763,-128.418,-42.969,-55.176,-39.062,-189.941
1688814654.767,-147.949,-37.109,-57.129,-17.578,-175.293
1688814654.771,-153.809,-37.109,-56.641,1.465,-131.348
1688814654.775,-122.070,-38.086,-60.059,-32.715,-131.836
1688814654.779,-92.285,-37.598,-57.617,-35.645,-142.578
1688814654.783,-104.492,-37.109,-54.199,-17.090,-66.406
1688814654.787,-141.113,-40.527,-55.176,-11.230,6.348
1688814654.790,-154.297,-45.410,-56.152,5.371,278.320
1688814654.794,-118.164,-43.457,-56.152,-21.973,477.051
1688814654.798,-84.961,-42.969,-59.082,-38.574,43.945
1688814654.802,-77.637,-45.410,-60.547,-30.273,-180.664
1688814654.806,-88.867,-44.922,-63.965,-24.902,-35.156
1688814654.808,-104.492,-41.504,-62.500,-14.648,-92.773
1688814654.812,-81.543,-39.551,-56.641,-43.945,-239.258
1688814654.816,-41.016,-37.598,-59.570,-62.012,-165.527
1688814654.820,-38.086,-35.156,-60.059,-45.898,-104.492
1688814654.824,-56.641,-31.250,-56.152,-27.344,-131.348
1688814654.828,-88.379,-34.668,-62.988,-6.836,-12.207
1688814654.832,-81.055,-37.109,-61.035,-27.832,-4.395
1688814654.835,-36.133,-35.156,-55.176,-52.734,-22.461
1688814654.839,-28.320,-31.250,-59.570,-41.504,-55.176
1688814654.843,-45.410,-31.738,-53.223,-27.344,-118.652
1688814654.847,-78.613,-37.109,-53.223,-7.812,60.547
1688814654.851,-76.660,-37.598,-59.570,-28.809,254.395
1688814654.868,-34.180,-36.133,-55.176,-50.781,-80.566
1688814654.872,-21.973,-37.109,-54.199,-26.855,-229.980
1688814654.876,-35.156,-41.016,-55.664,-17.578,-105.469
1688814654.880,-62.988,-41.504,-52.734,3.418,-55.176
1688814654.884,-88.379,-37.109,-47.852,-10.742,-129.395
1688814654.888,-65.430,-37.598,-52.246,-51.758,-148.438
1688814654.892,-40.039,-35.645,-52.734,-34.668,226.562
1688814654.895,-48.828,-34.668,-51.758,-20.020,447.266
1688814654.899,-77.637,-34.180,-53.223,-8.301,101.562
1688814654.903,-93.750,-32.715,-48.340,-16.602,10.254
1688814654.907,-69.824,-41.016,-47.852,-49.805,188.477
1688814654.911,-49.316,-49.316,-51.758,-40.039,48.340
1688814654.898,-57.617,-50.293,-52.246,-32.715,-167.480
1688814654.902,-85.938,-50.781,-54.199,-17.090,-115.723
1688814654.906,-90.332,-49.316,-55.664,-13.672,-91.797
1688814654.910,-43.945,-43.945,-50.293,-54.199,-210.938
1688814654.914,-22.461,-40.527,-49.316,-46.875,-265.137
1688814654.918,-41.016,-39.551,-53.223,-28.809,-126.953
1688814654.922,-72.754,-42.480,-53.711,-13.672,92.285
1688814654.925,-98.633,-44.434,-53.223,-11.719,71.777
1688814654.929,-73.730,-42.480,-57.129,-54.688,-151.855
1688814654.933,-38.086,-41.504,-55.176,-50.781,-79.590
1688814654.937,-37.109,-50.781,-47.852,-35.645,112.793
1688814654.941,-54.688,-52.246,-44.922,-26.367,-83.008
1688814654.958,-81.055,-47.363,-45.898,-18.555,-182.617
1688814654.962,-63.965,-42.969,-41.504,-54.199,-50.781
1688814654.966,-36.133,-42.480,-44.434,-56.152,-63.965
1688814654.970,-42.969,-44.434,-49.805,-45.410,-225.098
1688814654.974,-59.082,-40.527,-45.410,-26.367,-204.590
1688814654.978,-82.520,-38.574,-40.039,7.324,18.555
1688814654.982,-66.895,-36.621,-43.457,-27.344,39.062
1688814654.985,-23.926,-36.621,-47.363,-41.992,-80.078
1688814654.989,-18.066,-34.180,-47.363,-20.508,-93.750
1688814654.993,-34.668,-26.367,-46.875,0.977,136.719
1688814654.997,-55.664,-27.344,-50.781,20.508,257.812
1688814655.001,-47.852,-34.180,-55.176,-28.809,-95.215
1688814655.004,-5.859,-33.203,-56.641,-47.852,-255.859
1688814655.008,8.789,-31.738,-60.547,-26.855,-146.484
1688814655.012,-6.348,-33.691,-60.059,-27.832,-125.488
1688814655.016,-33.203,-26.855,-51.758,-5.859,-97.656
1688814655.020,-37.109,-26.367,-46.875,-31.250,-47.852
1688814655.024,-14.648,-30.762,-49.316,-64.453,43.457
1688814655.028,-11.719,-30.273,-47.852,-39.062,-20.996
1688814655.031,-32.715,-31.250,-46.875,-25.391,-102.051
1688814655.035,-66.895,-38.086,-51.758,-9.766,61.035
1688814655.039,-78.125,-37.598,-46.387,-16.113,221.191
1688814655.043,-42.969,-27.832,-45.410,-50.293,-75.195
1688814655.047,-20.996,-25.879,-48.828,-35.156,-177.734
1688814655.048,-29.785,-35.645,-48.340,-21.973,-64.453
1688814655.052,-55.176,-41.016,-49.316,-1.465,-47.363
1688814655.056,-64.453,-36.621,-48.828,-4.883,-6.836
1688814655.060,-35.645,-35.645,-49.316,-46.875,-52.734
1688814655.064,-25.391,-36.133,-57.129,-41.016,-2.930
1688814655.068,-43.945,-31.250,-57.129,-23.438,-28.320
1688814655.072,-71.777,-27.832,-52.734,-2.930,-62.500
1688814655.075,-92.285,-29.297,-55.664,-8.301,55.664
1688814655.079,-72.266,-32.227,-55.664,-41.992,211.914
1688814655.083,-52.246,-30.762,-53.711,-28.320,320.801
1688814655.087,-62.500,-29.785,-49.805,-26.367,39.551
1688814655.091,-96.191,-30.762,-44.922,-15.625,-114.746
1688814655.093,-131.348,-34.180,-47.852,-16.602,-24.902
1688814655.097,-116.699,-35.156,-50.293,-72.754,-166.016
1688814655.101,-84.473,-33.203,-48.340,-72.754,-240.723
1688814655.105,-81.543,-35.645,-47.852,-51.758,-138.184
1688814655.109,-96.680,-33.691,-48.828,-36.621,-58.594
1688814655.113,-115.234,-30.273,-46.387,-19.043,-20.020
1688814655.117,-100.586,-25.391,-43.457,-55.176,-49.805
1688814655.120,-64.453,-23.438,-42.480,-57.129,32.227
1688814655.124,-63.965,-30.273,-47.852,-36.621,280.762
1688814655.128,-87.891,-34.180,-50.781,-43.945,47.852
1688814655.132,-113.281,-32.715,-51.270,-33.691,-163.086
1688814655.136,-102.539,-28.809,-57.129,-62.988,-132.812
1688814655.153,-66.895,-30.762,-55.176,-80.566,-152.832
1688814655.157,-64.941,-35.645,-45.898,-58.105,-157.715
1688814655.161,-96.191,-37.109,-46.875,-56.152,-161.133
1688814655.165,-124.023,-36.133,-48.340,-32.715,-77.637
1688814655.169,-124.512,-42.480,-49.805,-53.711,-64.941
1688814655.173,-110.352,-46.875,-49.316,-85.938,-35.156
1688814655.177,-117.676,-42.480,-51.758,-71.777,-16.602
1688814655.180,-139.160,-36.621,-51.758,-57.617,171.875
1688814655.184,-175.293,-35.156,-53.223,-36.133,482.422
1688814655.188,-184.082,-38.086,-56.641,-70.312,126.953
1688814655.192,-148.438,-41.992,-54.199,-103.516,-147.461
1688814655.196,-140.137,-43.457,-52.246,-82.520,1.465
1688814655.183,-158.203,-44.434,-50.781,-70.801,-133.789
1688814655.187,-206.055,-42.480,-49.316,-42.969,-164.551
1688814655.191,-228.027,-40.527,-46.875,-52.734,-89.355
1688814655.195,-196.777,-43.945,-48.828,-87.402,-154.785
1688814655.199,-182.617,-42.969,-51.758,-70.312,-203.613
1688814655.203,-198.730,-38.574,-51.270,-47.852,-42.480
1688814655.207,-229.492,-38.086,-48.340,-23.926,101.074
1688814655.210,-252.930,-41.016,-46.387,-28.809,87.402
1688814655.214,-230.957,-40.527,-48.340,-71.289,-80.078
1688814655.218,-208.008,-39.551,-51.270,-65.430,-199.707
1688814655.222,-213.867,-37.109,-56.641,-51.270,-85.938
1688814655.226,-241.211,-37.598,-55.664,-31.738,313.965
1688814655.228,-262.695,-35.645,-49.805,-35.156,105.957
1688814655.232,-244.141,-36.133,-53.711,-83.008,-192.383
1688814655.236,-226.074,-40.039,-60.059,-71.777,-93.262
1688814655.240,-236.328,-35.645,-57.617,-49.316,-123.047
1688814655.244,-267.090,-34.180,-53.711,-41.504,-184.570
1688814655.248,-293.457,-38.086,-55.176,-43.945,-95.703
1688814655.252,-263.184,-38.086,-54.199,-76.660,232.422
1688814655.255,-234.375,-37.109,-54.199,-86.426,253.906
1688814655.259,-232.910,-37.598,-56.152,-75.684,-129.395
1688814655.263,-245.605,-33.203,-45.410,-56.152,-168.945
1688814655.267,-272.949,-30.273,-39.062,-32.227,104.492
1688814655.271,-255.371,-35.156,-44.922,-69.336,-35.156
1688814655.303,-219.238,-34.668,-42.969,-77.148,-253.906
1688814655.307,-213.867,-35.645,-43.457,-48.340,-149.414
1688814655.311,-232.422,-40.527,-49.316,-40.039,-53.223
1688814655.315,-260.742,-37.598,-50.293,-24.902,-140.625
1688814655.319,-248.535,-34.668,-49.316,-56.641,-210.938
1688814655.323,-209.961,-38.086,-48.828,-72.266,-42.480
1688814655.327,-195.312,-38.574,-47.363,-50.781,104.980
1688814655.330,-197.266,-34.668,-49.316,-41.016,-68.359
1688814655.334,-202.637,-36.133,-50.781,-24.414,-129.395
1688814655.338,-177.246,-39.062,-47.852,-55.176,-62.012
1688814655.342,-124.023,-38.574,-49.316,-79.102,-92.773
1688814655.346,-100.586,-38.574,-48.340,-61.035,-153.809
1688814655.322,-105.469,-37.109,-46.387,-53.711,-117.676
1688814655.326,-130.371,-41.016,-51.758,-30.273,46.387
1688814655.330,-130.371,-41.992,-55.176,-49.805,21.484
1688814655.334,-87.402,-37.109,-53.711,-83.496,-103.516
1688814655.338,-66.406,-38.086,-51.758,-62.500,-56.152
1688814655.342,-71.777,-34.180,-45.898,-45.410,87.891
1688814655.346,-92.285,-33.691,-46.875,-30.273,137.695
1688814655.349,-82.031,-35.645,-47.852,-43.457,21.973
1688814655.353,-26.855,-32.715,-42.480,-74.219,-101.074
1688814655.357,2.441,-34.668,-40.039,-55.664,82.031
1688814655.361,-6.348,-34.668,-41.504,-47.363,8.789
1688814655.365,-33.691,-32.715,-43.457,-32.715,-148.926
1688814655.378,-45.410,-31.250,-41.016,-32.227,-97.168
1688814655.382,-14.648,-29.297,-38.574,-69.824,-34.180
1688814655.386,8.789,-29.785,-36.621,-60.059,-103.027
1688814655.390,-1.465,-34.180,-40.039,-49.316,-201.172
1688814655.394,-28.809,-34.668,-43.457,-32.715,-135.742
1688814655.398,-48.340,-34.180,-41.016,-26.855,377.441
1688814655.402,-23.926,-34.668,-39.062,-60.059,514.160
1688814655.405,5.371,-34.180,-37.598,-53.711,87.402
1688814655.409,-1.465,-31.738,-37.598,-41.016,-72.266
1688814655.413,-28.320,-32.715,-40.527,-25.879,9.277
1688814655.417,-47.363,-30.762,-37.598,-14.160,-33.203
1688814655.421,-26.855,-30.762,-37.598,-58.594,-181.641
1688814655.423,-5.371,-32.227,-35.156,-58.594,-164.062
1688814655.427,-13.672,-32.227,-31.250,-32.715,-148.926
1688814655.431,-46.875,-36.621,-37.598,-30.762,-157.227
1688814655.435,-78.125,-39.062,-44.922,-27.832,-65.918
1688814655.439,-59.570,-37.109,-45.410,-62.012,8.789
1688814655.443,-32.227,-37.109,-44.922,-67.383,-10.742
1688814655.447,-29.785,-35.156,-42.969,-55.176,-16.602
1688814655.450,-48.340,-31.738,-40.039,-47.363,-41.992
1688814655.454,-85.449,-40.527,-39.551,-20.508,239.258
1688814655.458,-69.336,-36.621,-33.691,-46.875,372.559
1688814655.462,-22.461,-32.715,-32.227,-73.730,-44.434
1688814655.466,-17.578,-35.645,-36.133,-58.105,-187.012
1688814655.468,-30.273,-33.691,-39.551,-49.316,-128.906
1688814655.472,-56.152,-33.691,-42.969,-39.551,-104.980
1688814655.476,-53.223,-34.180,-45.898,-64.941,-140.625
1688814655.480,-17.578,-34.668,-46.875,-77.637,-205.078
1688814655.484,-0.488,-32.715,-42.480,-42.969,-199.219
1688814655.488,-10.742,-36.621,-38.574,-30.762,-93.750
1688814655.492,-43.457,-36.621,-34.180,-14.648,-51.758
1688814655.495,-42.480,-28.809,-33.691,-29.785,27.832
1688814655.499,-9.766,-29.297,-35.156,-59.082,128.418
1688814655.503,-0.488,-33.203,-35.156,-48.340,-59.082
1688814655.507,-16.602,-32.227,-35.156,-47.363,-133.789
1688814655.511,-52.734,-29.785,-35.645,-28.809,-3.418
1688814655.513,-62.988,-31.738,-39.551,-39.062,9.766
1688814655.517,-31.738,-32.227,-40.527,-79.102,-108.887
1688814655.521,-18.066,-32.715,-35.156,-69.824,-195.312
1688814655.525,-36.133,-31.738,-35.156,-44.922,-3.906
1688814655.529,-74.219,-30.762,-36.133,-16.602,155.762
1688814655.533,-106.934,-37.109,-39.551,-42.969,51.270
1688814655.537,-89.355,-39.551,-42.480,-87.891,-40.527
1688814655.540,-67.871,-37.109,-34.668,-56.152,186.523
1688814655.544,-71.289,-35.156,-34.668,-37.109,262.207
1688814655.548,-89.355,-35.645,-40.039,-33.203,-93.750
1688814655.552,-104.492,-30.273,-37.598,-26.367,-70.801
1688814655.556,-83.984,-32.227,-35.156,-59.570,-20.020
1688814655.574,-68.359,-36.133,-37.109,-58.105,-121.094
1688814655.578,-76.660,-36.621,-38.086,-42.480,-103.516
1688814655.582,-97.656,-39.062,-35.645,-20.996,-76.660
1688814655.586,-118.164,-41.992,-36.133,-12.207,-12.695
1688814655.590,-89.355,-45.898,-34.180,-57.617,-140.137
1688814655.594,-57.129,-48.828,-36.133,-61.035,-236.816
1688814655.598,-64.941,-46.387,-38.086,-47.363,-71.289
1688814655.601,-89.844,-43.945,-35.645,-31.250,178.223
1688814655.605,-114.746,-41.016,-36.621,-18.555,-7.812
1688814655.609,-105.469,-39.062,-36.621,-66.406,-195.801
1688814655.613,-82.520,-37.109,-40.527,-76.172,-123.535
1688814655.617,-78.613,-34.668,-37.109,-46.387,-85.938
1688814655.618,-92.285,-39.551,-34.668,-32.227,-138.184
1688814655.622,-121.582,-43.945,-38.086,-20.020,-66.895
1688814655.626,-113.281,-40.527,-34.180,-50.781,-24.902
1688814655.630,-82.031,-37.598,-34.180,-58.594,-7.812
1688814655.634,-89.844,-34.668,-32.715,-39.062,-99.609
1688814655.638,-124.512,-36.621,-31.738,-32.227,-77.148
1688814655.642,-166.016,-38.086,-35.645,-14.160,165.039
1688814655.645,-172.363,-36.621,-34.180,-45.410,44.922
1688814655.649,-141.113,-41.992,-37.598,-78.613,-129.395
1688814655.653,-126.465,-46.875,-40.527,-62.012,-174.805
1688814655.657,-132.812,-41.504,-36.621,-40.527,110.352
1688814655.661,-155.762,-37.109,-33.691,-7.324,324.707
1688814655.648,-161.621,-36.133,-30.273,-42.480,-41.016
1688814655.652,-135.254,-34.668,-26.855,-79.102,-242.188
1688814655.656,-137.207,-36.621,-31.738,-55.664,-194.336
1688814655.660,-158.203,-34.668,-34.668,-49.805,-211.914
1688814655.664,-192.383,-30.762,-29.297,-36.621,-161.621
1688814655.668,-196.777,-35.156,-29.785,-47.852,12.695
1688814655.672,-158.691,-40.039,-28.320,-81.543,118.652
1688814655.675,-145.508,-40.039,-31.250,-77.148,-35.645
1688814655.679,-150.391,-41.504,-34.180,-59.082,-141.113
1688814655.683,-171.387,-38.086,-28.320,-33.203,-15.625
1688814655.687,-193.848,-33.203,-30.273,-43.945,274.414
1688814655.691,-169.922,-35.156,-32.227,-90.332,56.641
1688814655.708,-144.531,-39.551,-26.367,-68.359,-204.102
1688814655.712,-151.367,-40.527,-23.926,-44.922,-92.285
1688814655.716,-173.828,-38.086,-27.344,-36.133,51.758
1688814655.720,-181.152,-35.645,-28.320,-33.691,-65.430
1688814655.724,-138.184,-30.762,-24.414,-70.312,-236.328
1688814655.728,-108.398,-30.762,-28.320,-64.941,-71.289
1688814655.732,-118.164,-34.668,-33.203,-54.199,-30.762
1688814655.735,-139.648,-33.691,-29.785,-50.781,-48.340
1688814655.739,-153.809,-30.273,-29.297,-33.203,-1.953
1688814655.743,-113.770,-32.715,-25.879,-53.711,179.199
1688814655.747,-75.195,-36.133,-23.926,-52.734,305.176
1688814655.751,-74.707,-33.691,-25.879,-56.152,-3.418
1688814655.753,-94.727,-31.738,-24.414,-58.105,-189.941
1688814655.757,-116.211,-33.203,-20.508,-31.738,-110.352
1688814655.761,-94.727,-34.668,-16.113,-52.246,-157.715
1688814655.765,-56.641,-32.715,-17.090,-60.059,-214.844
1688814655.769,-51.270,-31.250,-16.602,-48.340,-147.949
1688814655.773,-75.684,-34.180,-19.531,-46.875,7.324
1688814655.777,-108.398,-34.668,-25.879,-33.203,146.973
1688814655.780,-104.492,-31.250,-25.879,-59.570,-56.152
1688814655.784,-72.266,-32.715,-21.973,-71.777,-114.258
1688814655.788,-72.266,-39.062,-26.367,-51.758,122.070
1688814655.792,-111.816,-38.086,-30.273,-49.316,-22.461
1688814655.796,-153.320,-34.668,-25.879,-26.855,-166.504
1688814655.798,-146.484,-32.715,-26.367,-55.664,-79.590
1688814655.802,-106.934,-30.762,-24.902,-85.449,10.254
1688814655.806,-98.633,-33.691,-24.902,-67.383,-159.180
1688814655.810,-108.398,-28.809,-22.949,-54.688,-183.594
1688814655.814,-133.789,-28.320,-20.020,-35.645,-21.484
1688814655.818,-140.625,-36.133,-22.461,-65.918,-27.344
1688814655.822,-104.492,-35.156,-19.043,-91.309,-77.148
1688814655.825,-88.867,-34.180,-18.555,-62.500,-25.879
1688814655.829,-104.980,-32.715,-22.949,-52.734,124.512
1688814655.833,-134.277,-30.273,-24.902,-36.133,14.160
1688814655.837,-140.625,-32.715,-23.926,-45.410,-161.621
1688814655.841,-106.934,-33.203,-25.879,-82.520,-145.996
1688814655.859,-91.797,-32.227,-27.832,-71.289,194.824
1688814655.863,-102.051,-30.762,-28.320,-67.383,138.184
1688814655.867,-122.070,-30.762,-24.414,-47.363,-150.879
1688814655.871,-125.000,-34.668,-27.832,-46.875,-113.281
1688814655.875,-81.543,-37.598,-30.273,-83.008,55.664
1688814655.879,-39.551,-37.109,-25.879,-78.125,34.180
1688814655.883,-29.297,-35.645,-22.461,-71.777,-162.598
1688814655.886,-47.363,-36.133,-19.531,-53.223,-81.055
1688814655.890,-56.152,-33.203,-20.020,-45.410,213.379
1688814655.894,-20.996,-28.809,-21.973,-85.449,-24.414
1688814655.898,8.789,-22.949,-18.066,-86.426,-216.309
1688814655.902,0.977,-21.973,-16.113,-66.895,-159.668
1688814655.904,-31.738,-26.855,-23.438,-49.316,-91.797
1688814655.908,-60.059,-32.715,-26.367,-41.992,-60.059
1688814655.912,-35.156,-31.250,-21.973,-83.008,-119.141
1688814655.916,-6.836,-27.832,-20.020,-81.055,36.621
1688814655.920,-7.812,-27.344,-20.020,-61.035,-25.391
1688814655.924,-24.902,-24.902,-15.625,-47.363,-68.848
1688814655.928,-53.711,-25.391,-19.531,-31.738,107.910
1688814655.931,-39.551,-27.344,-23.926,-74.219,132.812
1688814655.935,-6.836,-27.344,-21.973,-88.867,-59.570
1688814655.939,-4.883,-27.832,-22.461,-71.289,-187.988
1688814655.943,-23.926,-31.250,-22.461,-55.664,-176.758
1688814655.947,-53.223,-32.227,-17.090,-19.043,160.156
1688814655.963,-46.387,-29.297,-14.160,-43.457,317.383
1688814655.967,-14.160,-26.855,-16.113,-76.172,-122.559
1688814655.971,-16.602,-26.367,-21.973,-61.523,-170.898
1688814655.975,-34.668,-27.832,-20.996,-52.246,81.055
1688814655.979,-64.941,-27.832,-16.113,-39.062,39.551
1688814655.983,-66.406,-34.180,-17.578,-66.406,-37.109
1688814655.987,-26.855,-34.180,-16.602,-89.844,19.043
1688814655.990,-12.695,-30.273,-19.043,-71.289,-40.039
1688814655.994,-27.344,-29.785,-21.973,-67.383,-177.246
1688814655.998,-57.129,-32.227,-21.973,-48.340,-143.555
1688814656.002,-58.105,-33.691,-22.461,-72.754,-19.531
1688814656.006,-19.043,-29.297,-22.461,-103.027,188.965
1688814656.057,0.488,-29.297,-25.391,-84.473,-18.555
1688814656.061,-15.137,-29.785,-29.297,-79.590,-199.219
1688814656.065,-47.363,-29.785,-31.250,-63.965,0.977
1688814656.069,-60.059,-31.738,-33.691,-71.777,17.578
1688814656.073,-38.086,-33.691,-32.715,-107.422,-166.016
1688814656.077,-22.949,-30.762,-30.762,-91.309,-108.398
1688814656.081,-35.156,-27.832,-30.273,-72.266,24.902
1688814656.084,-67.871,-24.414,-28.320,-55.664,8.301
1688814656.088,-88.379,-25.391,-26.855,-64.941,32.227
1688814656.092,-58.594,-31.250,-29.785,-100.586,38.086
1688814656.096,-36.621,-34.180,-26.855,-85.938,-0.977
1688814656.100,-48.340,-32.227,-17.578,-69.824,-81.543
1688814656.100,-101.562,-28.809,-15.625,-74.707,70.801
1688814656.104,-129.395,-24.902,-13.672,-62.500,1.465
1688814656.103,-131.348,-31.250,-17.578,-56.641,-140.625
1688814656.107,-122.559,-29.297,-17.090,-79.102,91.797
1688814656.111,-83.008,-29.297,-13.184,-93.262,77.148
1688814656.114,-71.289,-27.832,-12.207,-76.172,-83.984
1688814656.118,-87.402,-29.785,-18.555,-69.336,-61.035
1688814656.122,-117.188,-34.180,-18.555,-46.387,26.855
1688814656.126,-114.746,-33.691,-16.113,-67.871,-73.730
1688814656.130,-78.125,-33.691,-15.137,-91.797,-197.754
1688814656.128,-62.988,-33.691,-15.137,-67.383,-160.156
1688814656.132,-77.148,-35.156,-12.207,-49.805,136.719
1688814656.136,-105.469,-35.156,-14.648,-28.320,435.547
1688814656.140,-105.957,-34.668,-19.531,-52.246,412.109
1688814656.144,-67.871,-37.109,-18.555,-100.586,52.734
1688814656.148,-38.086,-35.156,-17.578,-85.938,-153.809
1688814656.152,-39.551,-29.785,-16.602,-66.895,-10.254
1688814656.155,-68.359,-32.227,-16.113,-52.734,-22.461
1688814656.159,-75.684,-34.668,-19.043,-60.547,-95.215
1688814656.163,-46.387,-36.621,-17.578,-91.309,192.871
1688814656.167,-30.273,-40.527,-14.648,-81.543,237.793
1688814656.171,-34.180,-40.039,-12.695,-76.172,-87.891
1688814656.174,-59.082,-37.109,-6.348,-56.152,-65.918
1688814656.178,-67.871,-31.738,-8.301,-51.758,-68.848
1688814656.182,-38.086,-27.344,-8.301,-88.867,-180.664
1688814656.186,-21.484,-26.855,-11.230,-84.961,-137.695
1688814656.190,-33.691,-29.785,-15.625,-66.895,-33.691
1688814656.194,-70.312,-34.668,-14.648,-52.246,-23.926
1688814656.198,-91.309,-34.668,-9.277,-58.105,-137.695
1688814656.201,-63.965,-31.738,-8.789,-91.309,-132.812
1688814656.205,-36.133,-31.250,-14.160,-78.613,142.090
1688814656.209,-42.480,-33.203,-13.184,-68.359,103.027
1688814656.213,-71.289,-31.250,-9.766,-64.453,-166.504
1688814656.217,-101.074,-31.250,-16.602,-54.688,-117.188
1688814656.218,-86.914,-33.691,-23.438,-88.379,93.750
1688814656.222,-58.594,-33.203,-20.508,-100.586,-20.020
1688814656.226,-64.453,-34.668,-18.066,-100.098,-206.543
1688814656.230,-85.938,-31.250,-20.996,-85.938,-154.785
1688814656.234,-119.629,-27.832,-19.043,-72.754,-90.820
1688814656.238,-111.328,-30.273,-15.625,-120.117,-103.516
1688814656.242,-72.754,-30.762,-17.090,-119.141,-88.379
1688814656.245,-76.660,-28.320,-19.043,-86.426,-44.922
1688814656.249,-106.445,-24.902,-20.020,-64.941,137.695
1688814656.253,-142.578,-27.344,-22.461,-42.969,96.680
1688814656.257,-140.625,-29.785,-20.508,-72.266,-132.324
1688814656.261,-101.074,-23.926,-18.066,-85.938,-129.883
1688814656.263,-98.145,-24.902,-18.066,-65.918,-175.293
1688814656.267,-128.906,-29.785,-16.602,-59.082,-228.516
1688814656.271,-151.367,-27.344,-18.066,-34.180,-112.793
1688814656.275,-131.348,-29.297,-20.508,-61.035,-35.645
1688814656.279,-81.543,-32.227,-22.949,-93.262,-185.547
1688814656.283,-63.477,-25.879,-21.484,-65.918,-134.766
1688814656.287,-78.613,-23.438,-18.066,-55.176,-15.625
1688814656.290,-120.605,-29.785,-16.602,-25.879,248.535
1688814656.294,-142.090,-29.785,-14.648,-27.832,467.773
1688814656.298,-115.723,-28.320,-12.695,-64.941,-82.520
1688814656.302,-111.328,-31.250,-7.812,-44.434,-258.789
1688814656.306,-126.465,-33.691,-7.812,-31.250,-51.270
1688814656.309,-143.555,-32.227,-9.277,-18.555,-156.250
1688814656.313,-144.531,-30.273,-4.883,-31.250,-213.867
1688814656.317,-118.652,-32.715,-10.254,-70.312,-179.688
1688814656.321,-104.980,-37.598,-15.625,-45.898,-114.746
1688814656.325,-108.398,-39.551,-15.625,-34.668,-89.355
1688814656.329,-130.371,-33.691,-14.648,-21.973,-51.270
1688814656.333,-163.574,-32.715,-16.602,-17.090,111.328
1688814656.336,-144.043,-35.645,-19.531,-50.293,159.180
1688814656.340,-123.535,-34.668,-20.996,-44.922,-75.684
1688814656.344,-131.348,-33.691,-21.484,-32.227,-154.785
1688814656.348,-153.320,-36.133,-17.090,-12.207,-57.617
1688814656.352,-171.387,-34.180,-13.672,-9.277,-14.160
1688814656.353,-145.508,-31.250,-15.625,-48.340,-171.875
1688814656.357,-132.324,-32.227,-20.508,-42.480,-184.082
1688814656.361,-148.926,-27.344,-16.602,-24.902,-5.371
1688814656.365,-175.293,-26.367,-11.719,-8.301,-77.637
1688814656.369,-213.867,-29.297,-14.648,3.906,-149.902
1688814656.373,-242.676,-27.832,-16.113,-35.645,-132.324
1688814656.377,-255.371,-24.902,-13.672,-34.668,90.332
1688814656.380,-254.395,-24.902,-16.602,-5.859,320.312
1688814656.384,-268.555,-23.926,-19.531,-10.254,-25.391
1688814656.388,-304.688,-25.391,-19.043,-3.418,-64.941
1688814656.392,-298.828,-29.297,-26.367,-33.691,129.883
1688814656.396,-254.883,-28.320,-24.902,-48.828,-37.109
1688814656.399,-234.863,-25.391,-17.578,-24.902,-176.758
1688814656.403,-243.164,-22.949,-13.672,-10.742,-71.777
1688814656.407,-258.301,-26.367,-13.184,7.324,183.105
1688814656.411,-237.793,-29.297,-18.555,-19.043,-7.324
1688814656.415,-198.730,-30.273,-20.996,-34.180,-238.770
1688814656.419,-193.359,-26.367,-17.090,-16.113,-123.047
1688814656.423,-235.840,-25.879,-14.648,-16.602,40.527
1688814656.426,-306.641,-31.250,-9.277,1.465,2.930
1688814656.430,-335.938,-34.668,-12.207,-21.973,-124.023
1688814656.434,-325.195,-38.574,-19.043,-46.387,-100.586
1688814656.438,-303.223,-36.621,-14.648,-23.438,38.086
1688814656.442,-290.039,-35.645,-9.766,-22.949,-92.773
1688814656.444,-312.988,-37.109,-11.230,-6.348,-158.203
1688814656.448,-304.199,-35.645,-15.625,-19.043,-22.461
1688814656.452,-235.840,-35.156,-17.090,-48.340,-67.383
1688814656.456,-183.105,-33.203,-21.973,-30.273,-187.012
1688814656.460,-159.668,-33.203,-23.926,-18.555,-128.418
1688814656.464,-162.109,-35.156,-24.414,0.977,232.910
1688814656.468,-161.621,-33.691,-24.414,-18.555,299.805
1688814656.471,-112.305,-38.574,-20.996,-63.477,-29.785
1688814656.475,-77.148,-42.480,-22.949,-57.129,-62.500
1688814656.479,-72.754,-34.668,-26.855,-38.086,85.449
1688814656.483,-89.844,-31.738,-23.926,-11.719,122.559
1688814656.487,-101.074,-32.715,-20.996,-24.414,-47.852
1688814656.503,-57.617,-33.691,-22.949,-70.801,-146.484
1688814656.507,-23.438,-29.297,-24.414,-64.453,-164.062
1688814656.511,-44.434,-29.785,-23.438,-56.152,-185.059
1688814656.515,-88.867,-32.227,-24.414,-52.246,-147.461
1688814656.519,-115.723,-32.715,-27.832,-55.176,18.066
1688814656.523,-97.656,-39.551,-22.949,-90.332,188.965
1688814656.527,-89.355,-38.574,-25.879,-89.844,102.051
1688814656.530,-100.586,-34.668,-31.250,-75.684,-114.746
1688814656.534,-99.121,-39.062,-26.367,-60.059,-55.664
1688814656.538,-101.562,-36.133,-28.809,-42.969,254.395
1688814656.542,-69.824,-37.109,-36.621,-85.938,-20.508
1688814656.546,-37.598,-36.133,-35.156,-100.586,-224.121
1688814656.548,-42.480,-32.715,-29.785,-79.590,-111.816
1688814656.552,-66.895,-31.738,-27.344,-65.918,-96.191
1688814656.556,-95.703,-29.297,-27.832,-53.223,-47.852
1688814656.560,-76.172,-31.738,-27.344,-87.891,-93.262
1688814656.564,-51.758,-31.738,-30.762,-101.074,-99.609
1688814656.568,-70.801,-29.297,-31.738,-75.195,-8.789
1688814656.572,-105.957,-32.715,-27.344,-59.082,-9.277
1688814656.575,-136.230,-33.691,-23.926,-45.410,97.656
1688814656.579,-108.887,-32.227,-21.973,-64.941,240.234
1688814656.583,-52.734,-28.809,-17.578,-82.520,-38.574
1688814656.587,-32.715,-34.180,-21.973,-71.289,-252.930
1688814656.591,-39.062,-32.227,-23.926,-63.477,-145.020
1688814656.593,-66.406,-25.879,-26.855,-39.062,227.539
1688814656.597,-65.918,-27.344,-27.344,-58.594,321.777
1688814656.601,-24.902,-26.855,-21.484,-86.426,-93.262
1688814656.605,-4.395,-27.344,-21.973,-63.477,-231.934
1688814656.609,-11.719,-28.320,-21.973,-58.594,-133.789
1688814656.613,-43.945,-30.762,-25.391,-46.387,-20.020
1688814656.617,-48.340,-29.785,-22.461,-59.570,-39.551
1688814656.620,-9.766,-30.762,-14.648,-89.355,-80.566
1688814656.624,6.836,-30.273,-16.602,-73.242,142.578
1688814656.628,3.418,-24.902,-12.695,-68.848,-22.461
1688814656.632,-25.879,-26.855,-14.648,-48.828,-186.523
1688814656.636,-49.316,-29.785,-22.949,-55.664,-14.648
1688814656.638,-18.555,-26.367,-23.438,-87.402,-86.426
1688814656.642,5.371,-29.785,-25.391,-72.754,-204.102
1688814656.646,-2.441,-35.156,-23.438,-61.035,-188.477
1688814656.650,-35.645,-38.086,-22.949,-49.805,-44.434
1688814656.654,-62.500,-37.598,-24.902,-49.316,-41.504
1688814656.658,-39.062,-39.551,-25.391,-80.078,-156.738
1688814656.662,-16.113,-39.551,-22.461,-67.383,-127.441
1688814656.665,-23.926,-37.109,-20.508,-40.039,136.719
1688814656.669,-58.594,-36.621,-23.438,-25.391,356.445
1688814656.673,-89.844,-33.691,-24.902,-26.367,-0.977
1688814656.677,-72.266,-31.738,-24.414,-75.195,-224.121
1688814656.681,-50.293,-35.645,-21.973,-83.008,-63.477
1688814656.683,-47.852,-34.668,-17.090,-50.293,-92.285
1688814656.687,-59.570,-33.691,-16.602,-35.156,-120.605
1688814656.691,-83.984,-39.062,-19.043,-29.785,-36.621
1688814656.695,-71.289,-35.156,-17.090,-64.453,-55.664
1688814656.699,-40.527,-33.691,-15.625,-66.406,-176.758
1688814656.703,-46.875,-35.645,-13.672,-47.852,-156.738
1688814656.707,-73.730,-32.227,-11.719,-40.039,25.879
1688814656.710,-99.609,-33.691,-18.066,-25.879,287.598
1688814656.714,-85.449,-34.668,-19.531,-61.035,31.250
1688814656.718,-43.457,-27.344,-13.184,-72.754,-204.590
1688814656.722,-40.039,-21.973,-10.742,-51.758,-54.199
1688814656.726,-61.523,-23.438,-10.742,-49.316,0.977
1688814656.729,-89.844,-29.785,-15.625,-38.574,-80.566
1688814656.733,-89.355,-29.297,-19.043,-59.570,-142.090
1688814656.737,-56.641,-26.855,-19.531,-75.195,-16.602
1688814656.741,-50.781,-31.250,-22.461,-59.082,-0.488
1688814656.745,-66.406,-28.320,-16.113,-53.711,-102.539
1688814656.749,-99.609,-30.762,-12.695,-42.969,-23.926
1688814656.753,-120.117,-33.691,-16.113,-57.129,234.863
1688814656.756,-99.121,-30.762,-14.160,-83.984,300.781
1688814656.760,-92.285,-29.297,-11.719,-75.684,10.254
1688814656.764,-112.305,-26.855,-12.695,-69.336,-100.586
1688814656.768,-144.531,-30.273,-14.160,-54.199,143.555
1688814656.772,-148.438,-30.762,-15.137,-74.707,27.832
1688814656.773,-119.141,-30.762,-20.508,-112.793,-213.379
1688814656.777,-104.004,-33.203,-26.367,-98.633,-115.723
1688814656.781,-115.234,-35.156,-25.391,-76.660,-4.883
1688814656.785,-140.625,-35.645,-23.438,-49.805,-54.199
1688814656.789,-140.137,-32.227,-23.926,-51.758,-49.316
1688814656.793,-106.934,-39.062,-27.344,-87.891,-44.922
1688814656.797,-83.496,-47.363,-26.855,-73.730,247.559
1688814656.800,-81.543,-41.992,-17.090,-57.129,143.066
1688814656.804,-102.539,-39.551,-19.531,-41.504,-111.816
1688814656.808,-116.211,-38.574,-24.902,-36.621,-31.250
1688814656.812,-82.520,-34.668,-20.020,-71.777,-112.793
1688814656.816,-48.340,-34.180,-21.973,-64.453,-148.438
1688814656.833,-53.223,-34.180,-28.320,-55.176,-72.754
1688814656.837,-76.660,-28.809,-24.902,-45.410,33.203
1688814656.841,-94.238,-28.809,-21.973,-35.156,9.277
1688814656.845,-70.801,-32.715,-23.438,-73.242,-120.605
1688814656.849,-43.945,-31.738,-24.414,-71.289,-197.754
1688814656.853,-50.781,-31.738,-24.414,-52.246,-62.988
1688814656.857,-83.008,-33.691,-25.391,-53.223,-54.688
1688814656.860,-113.281,-35.645,-24.414,-44.922,-53.711
1688814656.864,-90.332,-32.715,-21.973,-67.383,-13.184
1688814656.868,-50.293,-29.297,-20.020,-65.918,133.789
1688814656.872,-49.805,-29.785,-21.484,-41.504,246.094
1688814656.876,-74.707,-29.297,-26.367,-37.598,-48.828
1688814656.878,-104.004,-31.250,-20.020,-25.391,-140.137
1688814656.882,-105.469,-35.645,-19.531,-49.805,-76.172
1688814656.886,-85.938,-36.621,-25.879,-57.617,-160.645
1688814656.890,-92.773,-36.621,-23.438,-34.668,-222.656
1688814656.894,-124.512,-40.039,-21.973,-28.809,-142.578
1688814656.898,-185.059,-45.410,-25.879,-15.137,24.902
1688814656.902,-211.426,-40.039,-21.484,-40.039,-70.801
1688814656.905,-189.453,-36.133,-18.066,-54.688,-238.281
1688814656.909,-187.988,-36.133,-20.020,-31.738,9.766
1688814656.913,-202.148,-31.250,-15.137,-20.508,136.719
1688814656.917,-233.398,-29.297,-18.555,-6.348,-64.453
1688814656.921,-231.445,-26.855,-20.996,-23.926,-186.035
1688814656.923,-179.688,-32.715,-22.461,-53.223,-82.520
1688814656.927,-145.020,-35.645,-22.461,-43.945,166.016
1688814656.931,-148.926,-34.668,-20.996,-37.109,-66.895
1688814656.935,-181.641,-30.273,-17.090,-18.066,-127.441
1688814656.939,-185.547,-29.785,-13.672,-26.367,13.184
1688814656.943,-143.066,-39.551,-19.531,-59.570,-60.547
1688814656.947,-111.328,-40.039,-18.555,-49.316,-94.727
1688814656.950,-104.980,-36.133,-19.531,-36.621,-92.773
1688814656.954,-121.582,-35.645,-23.926,-13.184,164.062
1688814656.958,-126.953,-35.645,-21.484,-17.090,375.977
1688814656.962,-86.914,-39.062,-18.555,-56.152,-48.828
1688814656.966,-59.082,-40.527,-19.043,-53.711,-173.340
1688814656.969,-66.895,-36.621,-16.113,-35.645,-1.953
1688814656.973,-93.750,-36.621,-15.625,-16.113,-55.664
1688814656.977,-110.840,-39.062,-19.043,-20.508,-111.816
1688814656.981,-85.449,-40.039,-18.555,-56.641,-197.266
1688814656.985,-59.082,-33.691,-16.113,-41.992,-153.320
1688814656.989,-61.523,-33.203,-17.578,-25.391,-29.297
1688814656.993,-85.938,-39.062,-19.531,-16.113,33.203
1688814656.996,-112.305,-39.551,-18.555,-20.996,54.688
1688814657.000,-91.797,-41.992,-20.508,-62.988,63.477
1688814657.004,-60.059,-37.598,-17.090,-56.641,-125.977
1688814657.008,-60.547,-32.715,-15.625,-41.016,-215.332
1688814657.012,-84.473,-35.645,-16.113,-35.645,-34.668
1688814657.029,-107.422,-39.062,-13.184,-23.926,91.309
1688814657.033,-90.332,-38.086,-14.648,-66.406,-39.551
1688814657.037,-60.547,-36.133,-17.578,-73.242,-96.680
1688814657.041,-58.105,-38.086,-16.602,-50.781,13.672
1688814657.045,-78.613,-37.109,-20.508,-52.246,9.277
1688814657.049,-109.863,-34.180,-21.973,-40.039,84.961
1688814657.053,-104.004,-28.320,-19.043,-71.289,59.082
1688814657.056,-73.242,-30.273,-26.855,-89.355,158.203
1688814657.060,-62.012,-30.762,-25.391,-68.848,303.711
1688814657.064,-74.707,-29.297,-18.066,-63.477,-47.363
1688814657.068,-107.910,-33.203,-20.508,-43.457,-67.383
1688814657.072,-112.793,-34.180,-20.996,-61.523,158.691
1688814657.058,-83.496,-36.133,-18.555,-84.473,-25.391
1688814657.062,-73.242,-35.645,-20.508,-67.871,-201.172
1688814657.066,-85.449,-33.203,-19.531,-45.410,-101.074
1688814657.070,-116.699,-34.668,-18.555,-25.391,-6.348
1688814657.074,-119.141,-37.109,-20.508,-48.828,-109.863
1688814657.078,-83.008,-31.250,-18.066,-64.941,-147.949
1688814657.082,-75.684,-35.156,-19.043,-51.270,10.254
1688814657.085,-98.633,-40.527,-18.555,-47.852,-4.883
1688814657.089,-127.930,-35.645,-18.555,-24.902,-79.590
1688814657.093,-134.277,-37.598,-17.090,-39.551,-150.391
1688814657.097,-92.285,-36.621,-14.160,-67.871,-139.160
1688814657.101,-72.754,-35.156,-16.602,-41.504,169.434
1688814657.103,-90.820,-37.109,-20.508,-47.852,27.344
1688814657.107,-116.211,-32.227,-20.996,-45.410,-83.984
1688814657.111,-121.582,-28.320,-19.043,-56.641,12.695
1688814657.115,-83.496,-29.785,-20.996,-100.098,-126.953
1688814657.119,-56.641,-35.645,-23.926,-81.543,-183.105
1688814657.123,-66.895,-40.527,-26.855,-57.129,-53.223
1688814657.127,-99.609,-42.969,-28.809,-41.504,238.770
1688814657.130,-114.746,-42.480,-27.344,-40.527,225.098
1688814657.134,-81.543,-40.527,-23.438,-74.219,-50.293
1688814657.138,-50.781,-42.480,-24.902,-64.453,-119.141
1688814657.142,-53.223,-42.969,-24.414,-34.180,84.961
1688814657.146,-80.566,-41.504,-23.926,-17.578,241.699
1688814657.148,-101.562,-39.551,-29.785,-21.973,-37.598
1688814657.152,-73.242,-34.180,-23.926,-57.617,-227.539
1688814657.156,-37.598,-34.668,-20.020,-49.316,-170.898
1688814657.160,-44.922,-36.133,-25.879,-41.016,-214.355
1688814657.164,-82.031,-35.645,-25.879,-40.527,-193.359
1688814657.168,-109.863,-36.133,-20.020,-22.461,74.707
1688814657.172,-100.098,-41.992,-20.508,-59.082,199.707
1688814657.175,-71.777,-42.969,-26.367,-76.660,-28.320
1688814657.179,-67.871,-41.992,-29.785,-61.523,-147.949
1688814657.183,-94.727,-41.016,-32.715,-57.129,-88.379
1688814657.187,-116.699,-36.133,-26.367,-34.668,132.324
1688814657.191,-96.680,-33.203,-20.020,-72.754,-83.008
1688814657.208,-65.918,-34.668,-21.973,-101.074,-233.398
1688814657.212,-64.453,-41.016,-24.902,-82.520,-136.230
1688814657.216,-84.961,-41.504,-23.926,-69.336,-136.719
1688814657.220,-116.211,-37.109,-25.879,-53.711,-69.824
1688814657.224,-114.258,-41.992,-27.832,-75.195,-103.516
1688814657.228,-86.426,-44.922,-26.855,-93.262,12.207
1688814657.232,-74.707,-40.527,-27.832,-76.172,-3.906
1688814657.235,-81.055,-38.086,-28.320,-69.824,-121.582
1688814657.239,-107.910,-35.645,-27.832,-53.711,-40.527
1688814657.243,-112.793,-33.203,-31.738,-63.965,159.180
1688814657.247,-81.055,-32.227,-29.785,-94.238,22.949
1688814657.251,-63.965,-35.645,-30.273,-85.449,-203.125
1688814657.253,-77.148,-37.109,-34.668,-72.754,-153.809
1688814657.257,-114.746,-36.133,-33.203,-45.410,174.805
1688814657.261,-125.488,-37.109,-34.668,-55.176,109.863
1688814657.265,-90.820,-37.598,-39.062,-90.332,-274.902
1688814657.269,-90.820,-33.691,-35.156,-69.336,-245.605
1688814657.273,-111.816,-32.715,-29.297,-55.176,-71.777
1688814657.277,-133.301,-28.809,-28.809,-42.969,13.672
1688814657.280,-176.758,-26.367,-26.855,-50.293,-95.703
1688814657.284,-175.293,-28.809,-24.902,-77.148,-152.832
1688814657.288,-155.762,-37.109,-32.715,-61.035,188.965
1688814657.292,-159.668,-39.551,-38.574,-55.664,55.176
1688814657.296,-181.641,-38.086,-33.691,-46.875,-195.312
1688814657.298,-201.172,-41.504,-25.879,-51.270,14.160
1688814657.302,-179.199,-45.898,-24.902,-103.516,-38.086
1688814657.306,-148.926,-42.480,-25.391,-105.469,-180.664
1688814657.310,-141.113,-38.086,-27.344,-87.402,-158.203
1688814657.314,-151.855,-35.156,-28.809,-74.219,-27.344
1688814657.318,-165.039,-33.691,-23.926,-71.289,48.340
1688814657.322,-133.789,-34.180,-21.973,-116.211,-92.285
1688814657.325,-95.703,-35.156,-24.902,-117.188,-126.465
1688814657.329,-95.215,-38.086,-26.855,-91.797,125.000
1688814657.333,-117.676,-38.574,-28.320,-71.777,223.633
1688814657.337,-137.207,-36.133,-23.926,-54.688,-50.293
1688814657.341,-114.258,-31.738,-21.484,-82.031,-199.219
1688814657.343,-82.031,-30.762,-26.855,-77.148,-196.289
1688814657.347,-89.355,-37.109,-29.297,-55.664,-201.660
1688814657.351,-116.211,-41.016,-29.785,-55.664,-122.559
1688814657.355,-146.484,-36.133,-27.832,-39.062,54.688
1688814657.359,-136.719,-33.691,-20.020,-65.430,71.777
1688814657.363,-102.539,-38.574,-18.555,-83.008,-63.477
1688814657.367,-98.145,-40.527,-24.902,-66.895,-98.633
1688814657.370,-112.305,-37.109,-21.484,-55.664,-31.738
1688814657.374,-144.531,-31.250,-19.043,-27.344,190.918
1688814657.378,-139.648,-27.832,-24.414,-49.805,-0.977
1688814657.382,-98.633,-28.320,-24.902,-73.242,-253.418
1688814657.386,-84.473,-31.738,-25.391,-48.340,-160.645
1688814657.388,-104.980,-33.691,-29.785,-39.551,-102.051
1688814657.392,-140.625,-33.691,-31.250,-23.926,-117.676
1688814657.396,-138.184,-38.086,-31.738,-40.527,-108.398
1688814657.400,-103.516,-40.039,-33.691,-70.801,-77.148
1688814657.404,-90.820,-41.992,-34.180,-56.641,-95.215
1688814657.408,-103.027,-37.598,-32.715,-49.316,-6.836
1688814657.412,-133.789,-38.086,-35.645,-27.344,90.332
1688814657.415,-147.949,-45.898,-39.551,-32.715,222.168
1688814657.419,-107.910,-42.969,-33.691,-66.406,288.574
1688814657.423,-80.078,-44.434,-28.809,-54.199,-106.934
1688814657.427,-84.473,-44.434,-26.367,-31.738,-237.793
1688814657.431,-110.352,-39.551,-23.926,-3.906,138.672
1688814657.433,-126.465,-41.504,-22.461,-11.230,63.477
1688814657.437,-89.844,-45.898,-27.832,-63.477,-219.727
1688814657.441,-58.105,-40.039,-30.273,-51.270,-158.203
1688814657.445,-66.406,-31.738,-23.926,-21.973,-74.219
1688814657.449,-93.750,-30.273,-20.996,-5.859,-83.496
1688814657.453,-105.957,-30.762,-22.461,-4.395,-3.906
1688814657.457,-72.754,-28.809,-24.414,-40.527,83.496
1688814657.460,-45.898,-30.762,-28.809,-34.180,315.918
1688814657.464,-41.016,-30.273,-24.902,-20.508,91.309
1688814657.468,-61.523,-28.809,-19.531,-11.719,-182.617
1688814657.472,-88.379,-32.227,-22.461,0.488,-55.664
1688814657.476,-60.059,-34.668,-22.461,-32.227,-104.980
1688814657.479,-28.809,-34.668,-24.902,-40.039,-185.059
1688814657.483,-34.180,-30.762,-29.297,-25.879,-167.480
1688814657.487,-56.641,-31.250,-27.832,-16.602,-74.219
1688814657.491,-86.914,-33.203,-30.273,-9.277,-20.996
1688814657.495,-69.824,-32.715,-28.809,-39.062,-89.355
1688814657.499,-36.133,-36.621,-29.297,-46.387,-133.301
1688814657.503,-44.922,-38.086,-31.738,-31.738,156.250
1688814657.506,-78.613,-37.109,-31.738,-23.926,270.996
1688814657.510,-113.770,-34.668,-28.809,-15.625,-21.484
1688814657.514,-106.445,-32.715,-26.367,-39.062,-117.188
1688814657.518,-80.078,-33.691,-28.320,-55.664,128.906
1688814657.522,-79.590,-35.645,-26.855,-42.969,60.547
1688814657.523,-101.562,-35.645,-28.320,-39.551,-118.164
1688814657.527,-142.578,-37.598,-30.273,-21.484,-109.375
1688814657.531,-146.484,-37.598,-33.203,-49.805,-108.398
1688814657.535,-107.422,-40.039,-37.109,-78.125,-130.859
1688814657.539,-88.867,-41.504,-34.180,-60.547,-162.598
1688814657.543,-105.469,-41.504,-33.691,-47.852,45.898
1688814657.547,-144.531,-42.969,-34.668,-31.250,258.789
1688814657.550,-147.949,-44.922,-35.645,-52.734,17.578
1688814657.554,-108.887,-44.922,-33.203,-68.848,-135.254
1688814657.558,-94.238,-41.992,-28.809,-41.504,-87.402
1688814657.562,-112.305,-43.457,-27.832,-43.457,-76.172
1688814657.566,-140.625,-45.898,-29.297,-35.645,-71.289
1688814657.584,-156.738,-45.410,-29.785,-41.992,-65.430
1688814657.588,-132.324,-42.969,-31.738,-70.312,-57.129
1688814657.592,-118.652,-41.992,-27.832,-47.363,-68.848
1688814657.596,-138.672,-40.039,-24.902,-33.203,-177.734
1688814657.600,-174.805,-40.527,-27.832,-25.879,-131.348
1688814657.604,-187.500,-42.480,-28.809,-28.320,65.918
1688814657.608,-150.879,-42.969,-29.297,-53.223,-57.129
1688814657.611,-124.512,-41.016,-27.344,-34.180,-127.441
1688814657.615,-120.117,-36.621,-26.855,-19.043,-121.582
1688814657.619,-140.625,-37.109,-30.762,-7.324,129.883
1688814657.623,-157.715,-37.598,-30.762,-6.348,299.805
1688814657.627,-117.676,-39.551,-32.227,-60.547,-131.348
1688814657.629,-75.684,-38.574,-29.297,-55.176,-283.203
1688814657.633,-81.055,-37.598,-25.391,-24.902,-108.887
1688814657.637,-101.562,-40.039,-23.438,-11.719,25.391
1688814657.641,-120.605,-39.062,-23.438,-9.766,5.859
1688814657.645,-98.145,-37.598,-23.926,-52.246,-100.098
1688814657.649,-54.688,-37.109,-20.996,-46.387,5.859
1688814657.653,-53.223,-35.156,-23.926,-35.645,-15.137
1688814657.656,-75.195,-31.738,-20.508,-34.180,-70.312
1688814657.660,-98.145,-29.785,-14.648,-15.137,31.250
1688814657.664,-84.473,-28.809,-20.020,-46.875,205.078
1688814657.668,-55.664,-31.250,-21.973,-57.129,1.953
1688814657.672,-51.758,-32.715,-22.949,-36.133,-151.367
1688814657.673,-74.707,-37.109,-27.344,-32.227,-72.266
1688814657.677,-112.793,-39.551,-28.809,-24.902,-70.312
1688814657.681,-108.887,-38.086,-25.879,-71.777,-141.602
1688814657.685,-73.730,-40.039,-22.461,-89.355,-241.211
1688814657.689,-70.801,-38.574,-25.391,-65.918,-185.059
1688814657.693,-96.191,-39.062,-27.832,-61.035,-41.016
1688814657.697,-126.465,-38.574,-24.414,-41.504,9.277
1688814657.700,-121.582,-37.109,-22.949,-73.730,-4.883
1688814657.704,-84.473,-38.086,-22.461,-94.727,207.031
1688814657.708,-71.289,-36.133,-18.066,-59.082,388.672
1688814657.712,-91.309,-39.551,-17.090,-63.477,38.574
1688814657.716,-129.395,-41.504,-22.949,-47.852,-117.676
1688814657.718,-142.090,-39.551,-25.879,-68.848,-78.613
1688814657.722,-102.539,-41.992,-23.926,-104.004,-235.840
1688814657.726,-77.148,-43.457,-22.949,-76.660,-230.957
1688814657.730,-91.797,-38.574,-23.438,-70.801,-110.352
1688814657.734,-125.000,-37.598,-24.414,-49.805,-17.578
1688814657.738,-134.277,-33.691,-25.391,-52.246,13.672
1688814657.742,-96.680,-29.785,-24.902,-86.426,-40.527
1688814657.745,-81.543,-35.645,-25.391,-75.684,7.324
1688814657.749,-103.516,-39.551,-27.344,-60.059,252.930
1688814657.753,-137.695,-39.062,-29.785,-37.109,93.262
1688814657.757,-157.227,-42.480,-30.762,-48.340,-141.602
1688814657.761,-125.000,-42.969,-26.855,-89.355,-153.320
1688814657.763,-104.980,-41.016,-26.855,-72.266,-168.457
1688814657.767,-107.910,-33.691,-25.879,-49.805,-162.109
1688814657.771,-123.047,-28.809,-24.902,-28.809,-113.770
1688814657.775,-147.461,-35.645,-23.926,-19.043,-65.918
1688814657.779,-138.672,-38.574,-23.926,-61.035,-173.340
1688814657.783,-131.836,-34.180,-25.879,-55.176,-104.004
1688814657.787,-145.020,-34.668,-24.902,-32.227,-32.715
1688814657.790,-169.922,-37.598,-27.832,-27.344,117.188
1688814657.794,-197.754,-33.691,-30.273,-21.484,103.516
1688814657.798,-174.805,-30.762,-32.715,-59.082,-121.094
1688814657.802,-134.766,-32.715,-36.133,-67.383,-131.836
1688814657.806,-131.348,-38.086,-33.691,-41.016,135.742
1688814657.808,-163.086,-40.527,-29.297,-31.738,347.168
1688814657.812,-191.895,-35.645,-29.297,-26.367,44.922
1688814657.816,-168.945,-35.156,-34.180,-59.082,-171.387
1688814657.820,-128.906,-37.109,-34.668,-64.941,-82.031
1688814657.824,-109.375,-37.598,-35.156,-52.734,-125.000
1688814657.828,-114.746,-34.668,-32.227,-50.781,-94.727
1688814657.832,-141.602,-34.668,-27.344,-36.133,122.070
1688814657.835,-127.441,-36.621,-27.832,-50.293,295.410
1688814657.839,-81.055,-35.156,-28.809,-66.895,17.090
1688814657.843,-62.988,-30.762,-26.855,-54.688,-183.105
1688814657.847,-74.707,-28.809,-26.855,-42.480,-95.703
1688814657.851,-118.652,-32.227,-27.832,-23.926,47.852
1688814657.854,-125.000,-34.180,-33.203,-48.828,47.852
1688814657.858,-84.473,-34.180,-34.668,-77.637,-128.418
1688814657.862,-77.637,-34.180,-30.762,-49.805,-30.762
1688814657.866,-96.680,-35.156,-25.879,-39.062,-5.371
1688814657.870,-122.559,-38.574,-27.832,-29.785,-54.199
1688814657.874,-121.094,-40.039,-31.738,-49.316,78.125
1688814657.878,-90.332,-40.527,-27.832,-78.613,200.195
1688814657.881,-68.359,-35.645,-23.438,-58.594,133.789
1688814657.885,-67.871,-31.738,-26.367,-45.410,-82.520
1688814657.889,-92.773,-31.250,-25.391,-29.785,-97.656
1688814657.893,-99.121,-31.738,-26.855,-39.551,122.559
1688814657.897,-52.246,-30.273,-22.949,-78.613,-63.965
1688814657.913,-19.531,-31.738,-13.184,-68.359,-233.398
1688814657.917,-29.785,-34.668,-11.719,-55.176,-138.672
1688814657.921,-62.500,-33.203,-14.160,-36.133,-4.395
1688814657.925,-71.777,-27.344,-17.090,-34.668,-11.719
1688814657.929,-45.410,-24.414,-19.531,-76.660,-153.320
1688814657.933,-38.574,-23.926,-17.090,-62.500,-22.949
1688814657.937,-58.105,-27.344,-18.066,-40.527,292.480
1688814657.940,-103.027,-29.785,-20.996,-42.969,148.438
1688814657.944,-137.207,-24.414,-20.508,-38.086,-94.238
1688814657.948,-108.398,-22.949,-16.602,-75.684,-102.539
1688814657.952,-82.031,-24.414,-18.066,-91.797,-79.590
1688814657.956,-88.379,-27.832,-26.367,-83.984,-125.977
1688814657.958,-111.328,-27.344,-23.926,-78.613,-150.879
1688814657.962,-132.324,-28.809,-21.973,-74.707,-56.152
1688814657.966,-106.445,-28.320,-22.461,-95.703,-109.863
1688814657.970,-75.684,-23.438,-23.926,-97.656,-173.340
1688814657.974,-85.938,-24.902,-23.438,-99.609,-125.000
1688814657.978,-104.004,-24.902,-23.438,-84.961,126.465
1688814657.982,-114.746,-28.809,-23.438,-68.359,223.633
1688814657.985,-90.820,-30.762,-18.555,-102.051,-36.621
1688814657.989,-46.387,-30.273,-22.461,-111.328,-201.172
1688814657.993,-33.203,-28.809,-26.855,-84.961,58.594
1688814657.997,-39.062,-26.367,-25.391,-68.848,278.809
1688814658.001,-64.453,-30.273,-28.320,-59.570,-62.500
1688814658.003,-76.660,-30.762,-21.973,-102.539,-244.629
1688814658.007,-59.570,-29.297,-14.648,-127.441,-156.738
1688814658.011,-66.895,-32.715,-14.648,-107.910,-161.621
1688814658.015,-92.773,-36.133,-16.602,-94.727,-174.316
1688814658.019,-123.535,-35.156,-20.508,-70.801,-82.520
1688814658.023,-125.000,-34.668,-23.926,-99.121,-54.688
1688814658.027,-89.844,-32.227,-24.414,-113.770,-59.082
1688814658.030,-74.707,-33.203,-26.367,-92.285,-66.406
1688814658.034,-83.008,-34.668,-27.344,-86.426,20.508
1688814658.038,-113.770,-36.133,-26.855,-55.176,313.477
1688814658.042,-119.141,-36.133,-25.391,-71.777,92.773
1688814658.046,-83.008,-35.156,-23.926,-104.004,-208.008
1688814658.048,-66.895,-34.180,-23.438,-85.938,-80.566
1688814658.052,-80.566,-35.645,-23.926,-81.543,-54.688
1688814658.056,-111.816,-38.086,-22.461,-62.988,-119.629
1688814658.060,-130.371,-33.691,-22.461,-65.430,-96.680
1688814658.064,-106.445,-32.715,-31.738,-98.633,-49.316
1688814658.068,-89.355,-34.668,-31.738,-85.938,29.297
1688814658.072,-89.355,-30.273,-27.344,-63.965,-60.547
1688814658.075,-104.980,-24.902,-21.973,-43.945,-84.473
1688814658.079,-125.488,-27.832,-20.996,-44.922,179.199
1688814658.083,-95.703,-31.250,-20.996,-82.520,81.055
1688814658.087,-66.406,-26.367,-20.020,-81.055,-214.355
1688814658.091,-69.824,-27.832,-25.879,-67.871,-215.332
1688814658.093,-90.332,-33.203,-26.367,-47.852,173.340
1688814658.097,-108.887,-39.551,-29.297,-46.387,261.719
1688814658.101,-82.520,-42.969,-32.715,-87.891,-168.945
1688814658.105,-49.805,-39.062,-27.344,-84.473,-248.535
1688814658.109,-51.270,-40.039,-24.902,-65.918,-107.910
1688814658.113,-76.172,-41.992,-28.320,-54.199,63.965
1688814658.117,-105.469,-38.574,-32.227,-45.898,91.309
1688814658.120,-94.238,-41.504,-34.180,-78.613,33.203
1688814658.124,-60.059,-43.457,-33.203,-73.730,172.363
1688814658.128,-61.035,-43.945,-29.785,-58.105,24.414
1688814658.132,-94.727,-46.387,-29.297,-54.199,-98.633
1688814658.136,-120.605,-44.434,-35.645,-42.969,38.086
1688814658.153,-90.332,-45.898,-39.062,-72.266,-81.055
1688814658.157,-45.410,-45.898,-40.039,-81.543,-210.938
1688814658.161,-25.879,-38.086,-39.062,-60.059,-161.133
1688814658.165,-24.902,-31.250,-33.203,-47.852,-49.805
1688814658.169,-39.062,-28.320,-31.738,-37.598,-37.598
1688814658.173,-21.973,-31.250,-31.250,-61.035,-84.473
1688814658.177,17.090,-34.668,-30.762,-97.168,-25.391
1688814658.180,29.297,-29.297,-31.250,-94.727,160.645
1688814658.184,16.113,-27.344,-28.320,-90.820,143.066
1688814658.188,-23.926,-31.738,-31.250,-81.543,-101.074
1688814658.192,-28.809,-34.180,-30.762,-102.051,-124.023
1688814658.196,3.418,-33.691,-26.855,-114.746,86.914
1688814658.184,0.488,-31.738,-23.438,-100.098,27.832
1688814658.188,-26.367,-34.180,-22.461,-102.539,-89.355
1688814658.192,-64.941,-39.062,-26.855,-73.242,57.129
1688814658.196,-71.289,-34.668,-23.926,-78.125,19.043
1688814658.200,-33.691,-32.227,-21.484,-118.652,-200.195
1688814658.204,-16.113,-36.133,-22.949,-103.516,-143.066
1688814658.208,-24.902,-35.645,-23.438,-86.426,-30.273
1688814658.211,-45.898,-34.180,-22.461,-67.383,-40.527
1688814658.215,-55.664,-36.621,-20.020,-75.684,-75.195
1688814658.219,-25.879,-37.109,-20.996,-117.188,-167.480
1688814658.223,-5.371,-35.645,-20.508,-96.680,-138.184
1688814658.227,-12.207,-35.156,-18.555,-77.637,80.078
1688814658.228,-38.086,-34.668,-21.484,-70.312,-38.574
1688814658.232,-60.059,-29.785,-17.578,-73.242,-147.461
1688814658.236,-39.551,-27.344,-15.625,-107.422,-84.961
1688814658.240,-21.973,-31.738,-18.066,-96.191,-42.480
1688814658.244,-35.156,-33.691,-21.973,-83.496,-87.891
1688814658.248,-68.359,-34.668,-22.461,-71.289,-44.434
1688814658.252,-101.562,-43.945,-22.461,-59.570,248.535
1688814658.255,-89.355,-50.781,-22.949,-91.797,326.172
1688814658.259,-60.547,-47.852,-20.020,-97.656,-89.355
1688814658.263,-57.617,-44.922,-21.973,-82.031,-223.145
1688814658.267,-78.613,-41.504,-18.066,-60.059,129.883
1688814658.271,-101.074,-35.156,-15.137,-51.270,99.121
1688814658.288,-78.125,-35.156,-22.949,-92.773,-172.852
1688814658.292,-40.527,-45.898,-25.879,-98.145,-156.250
1688814658.296,-34.668,-46.387,-24.902,-77.148,-173.828
1688814658.300,-50.293,-41.504,-26.855,-75.684,-176.758
1688814658.304,-77.637,-46.387,-29.297,-67.871,-72.266
1688814658.308,-64.453,-45.898,-27.832,-94.238,20.996
1688814658.312,-31.250,-41.504,-26.367,-104.492,28.320
1688814658.315,-26.855,-44.922,-28.809,-85.449,-74.707
1688814658.319,-37.598,-42.969,-31.250,-83.008,-174.805
1688814658.323,-62.012,-38.086,-28.320,-56.641,-17.090
1688814658.327,-71.289,-43.945,-26.855,-68.848,242.676
1688814658.331,-49.316,-48.828,-30.273,-102.051,-68.359
1688814658.333,-40.039,-43.945,-34.668,-92.285,-206.543
1688814658.337,-61.523,-39.062,-34.668,-73.730,-25.391
1688814658.341,-96.191,-44.434,-28.809,-44.434,5.859
1688814658.345,-89.355,-45.898,-33.203,-62.012,-102.051
1688814658.349,-54.688,-40.527,-35.156,-92.285,-185.059
1688814658.353,-48.828,-44.434,-31.250,-68.359,18.555
1688814658.357,-68.359,-44.922,-33.691,-62.012,-34.668
1688814658.360,-106.934,-41.992,-31.738,-51.270,-69.824
1688814658.364,-121.582,-42.969,-30.762,-62.988,34.180
1688814658.368,-83.008,-46.387,-35.645,-87.891,141.113
1688814658.372,-66.406,-44.434,-37.598,-58.594,275.391
1688814658.376,-71.777,-38.574,-37.598,-56.152,-2.441
1688814658.378,-93.262,-41.504,-39.551,-47.852,-161.133
1688814658.382,-106.934,-41.992,-35.156,-45.898,-67.383
1688814658.386,-78.613,-42.480,-32.715,-87.402,-173.828
1688814658.390,-54.199,-44.434,-34.180,-72.754,-208.496
1688814658.394,-58.594,-42.969,-36.133,-60.547,-122.070
1688814658.398,-88.867,-36.133,-33.203,-48.828,35.156
1688814658.402,-102.051,-31.738,-31.738,-43.457,93.750
1688814658.405,-73.242,-33.691,-30.762,-77.637,-113.770
1688814658.409,-53.711,-37.109,-27.344,-63.965,-122.559
1688814658.413,-62.500,-31.738,-26.855,-40.527,209.961
1688814658.417,-102.051,-33.203,-30.762,-35.645,81.543
1688814658.421,-134.277,-41.992,-36.621,-36.133,-62.012
1688814658.423,-114.746,-41.504,-37.598,-71.777,-90.332
1688814658.427,-76.172,-35.156,-33.691,-68.848,-122.070
1688814658.431,-72.266,-37.598,-34.180,-42.969,-98.633
1688814658.435,-100.098,-37.109,-36.621,-32.715,-109.375
1688814658.439,-114.258,-35.156,-39.062,-20.508,-62.988
1688814658.443,-86.426,-37.598,-42.969,-53.223,-65.430
1688814658.447,-51.758,-37.598,-40.527,-63.965,-76.172
1688814658.450,-45.410,-37.109,-40.039,-49.805,-43.457
1688814658.454,-75.195,-37.598,-45.410,-39.062,194.336
1688814658.458,-104.004,-39.551,-43.457,-19.043,369.141
1688814658.462,-82.031,-36.621,-40.039,-53.711,-14.648
1688814658.466,-64.453,-33.691,-41.992,-67.871,-255.371
1688814658.468,-87.891,-38.086,-46.387,-36.133,-91.309
1688814658.472,-122.559,-39.551,-47.852,-26.367,-39.062
1688814658.476,-166.504,-35.645,-42.969,-20.508,-99.121
1688814658.480,-178.223,-31.738,-39.551,-42.480,-93.750
1688814658.484,-145.508,-30.273,-39.551,-52.246,-20.508
1688814658.488,-132.324,-28.809,-37.598,-32.227,-20.020
1688814658.492,-141.602,-29.297,-38.086,-28.320,-53.223
1688814658.495,-164.551,-34.668,-35.156,-11.719,102.539
1688814658.499,-172.363,-40.527,-35.645,-26.367,313.477
1688814658.503,-136.230,-41.016,-42.969,-54.688,2.441
1688814658.507,-117.676,-38.574,-47.363,-39.551,-177.246
1688814658.511,-138.184,-40.039,-42.480,-36.133,-89.844
1688814658.513,-163.574,-46.387,-36.133,-15.625,-39.551
1688814658.517,-166.992,-49.805,-41.504,-29.297,-71.289
1688814658.521,-135.254,-47.363,-41.992,-70.801,-166.504
1688814658.525,-110.352,-42.480,-35.645,-45.410,-45.898
1688814658.529,-116.699,-41.504,-34.180,-34.668,3.418
1688814658.533,-140.625,-45.898,-33.203,-19.043,6.836
1688814658.537,-149.414,-43.945,-36.621,-15.137,44.922
1688814658.540,-133.301,-41.992,-39.551,-52.734,132.324
1688814658.544,-125.488,-39.062,-41.992,-33.691,349.121
1688814658.548,-141.602,-35.156,-41.992,-21.484,83.496
1688814658.552,-172.363,-38.574,-34.668,-19.531,-86.914
1688814658.556,-191.406,-40.527,-31.250,-20.508,17.090
1688814658.558,-158.203,-40.527,-34.668,-59.570,-141.602
1688814658.562,-126.953,-40.527,-32.227,-49.805,-249.023
1688814658.566,-128.906,-42.480,-29.785,-29.297,-126.953
1688814658.570,-147.949,-37.109,-33.691,-13.184,-46.875
1688814658.574,-171.875,-33.691,-37.598,-7.812,-14.160
1688814658.578,-138.672,-36.621,-37.598,-49.805,-73.242
1688814658.582,-101.074,-33.691,-37.109,-46.387,-5.859
1688814658.585,-110.840,-32.715,-36.133,-20.508,321.777
1688814658.589,-135.254,-35.645,-32.227,-13.672,124.023
1688814658.593,-151.367,-31.738,-29.785,-11.230,-108.887
1688814658.597,-137.695,-32.715,-32.715,-50.781,-103.516
1688814658.601,-112.305,-35.156,-33.691,-57.129,-128.418
1688814658.603,-109.863,-35.645,-34.180,-36.133,-172.852
1688814658.607,-135.742,-38.574,-39.062,-27.344,-178.223
1688814658.611,-175.293,-42.480,-41.016,-7.324,-40.039
1688814658.615,-173.828,-37.598,-38.574,-44.434,-87.402
1688814658.619,-144.043,-34.180,-36.621,-58.594,-167.969
1688814658.623,-138.672,-41.504,-39.062,-38.574,-57.617
1688814658.627,-142.578,-43.945,-40.527,-33.203,152.832
1688814658.630,-161.133,-41.992,-37.598,-13.672,179.688
1688814658.634,-160.645,-40.527,-33.203,-42.480,-57.617
1688814658.638,-119.629,-36.133,-32.227,-62.012,-160.156
1688814658.642,-107.910,-41.992,-31.738,-36.621,-16.602
1688814658.646,-138.672,-46.387,-32.715,-39.551,-38.574
1688814658.648,-177.734,-43.945,-33.691,-35.156,-198.730
1688814658.652,-177.246,-46.875,-35.156,-44.434,-172.363
1688814658.656,-136.719,-49.316,-36.621,-66.406,-176.758
1688814658.660,-122.070,-49.805,-41.504,-50.781,-214.844
1688814658.664,-136.719,-51.270,-47.852,-42.969,-181.641
1688814658.668,-171.875,-51.758,-43.945,-36.133,11.230
1688814658.672,-188.965,-48.340,-39.551,-48.828,106.934
1688814658.675,-155.762,-49.316,-40.039,-76.172,-85.938
1688814658.679,-133.789,-50.781,-38.086,-66.406,-132.812
1688814658.683,-147.461,-50.781,-39.551,-58.594,-113.770
1688814658.687,-186.035,-55.176,-45.410,-34.180,-2.441
1688814658.691,-198.242,-50.781,-43.945,-44.922,-65.430
1688814658.708,-162.109,-48.828,-41.992,-89.355,-297.852
1688814658.712,-138.672,-47.852,-41.016,-77.637,-198.730
1688814658.716,-158.203,-47.852,-41.504,-70.801,-95.703
1688814658.720,-193.359,-46.387,-43.945,-62.988,-136.719
1688814658.724,-207.520,-42.480,-38.574,-62.012,-139.160
1688814658.728,-167.480,-45.898,-42.480,-102.051,-122.559
1688814658.732,-131.836,-49.316,-47.363,-101.074,-104.980
1688814658.735,-135.254,-44.922,-41.504,-81.055,-48.828
1688814658.739,-158.203,-42.480,-41.016,-77.637,-9.766
1688814658.743,-172.363,-38.574,-44.434,-74.219,232.422
1688814658.747,-140.137,-35.156,-44.434,-95.215,252.441
1688814658.751,-105.469,-35.645,-43.945,-94.238,-107.910
1688814658.753,-104.492,-32.715,-38.086,-75.195,-70.312
1688814658.757,-122.559,-31.738,-31.738,-58.105,68.359
1688814658.761,-155.273,-34.180,-33.691,-49.316,-48.340
1688814658.765,-150.879,-39.551,-37.109,-83.496,-112.793
1688814658.769,-128.906,-43.457,-41.992,-81.543,-60.547
1688814658.773,-147.461,-44.922,-40.527,-65.918,-25.391
1688814658.777,-171.387,-47.852,-41.504,-62.012,-41.016
1688814658.780,-181.641,-44.434,-40.039,-39.062,-61.523
1688814658.784,-168.457,-39.551,-37.598,-63.965,-13.672
1688814658.788,-141.113,-41.992,-42.480,-73.242,167.969
1688814658.792,-141.113,-46.387,-41.016,-54.688,-48.340
1688814658.796,-167.480,-41.504,-36.621,-58.594,-196.777
1688814658.798,-211.914,-39.062,-34.180,-36.133,-26.367
1688814658.802,-224.121,-42.969,-34.180,-59.570,-47.852
1688814658.806,-196.777,-45.898,-40.527,-88.379,-140.625
1688814658.810,-189.453,-46.875,-46.387,-68.848,-48.828
1688814658.814,-198.242,-42.480,-44.922,-60.059,29.297
1688814658.818,-223.145,-40.039,-41.016,-38.574,74.219
1688814658.822,-228.516,-42.480,-41.992,-57.617,118.652
1688814658.825,-177.246,-40.527,-40.039,-82.031,10.742
1688814658.829,-142.090,-40.527,-42.969,-59.082,168.457
1688814658.833,-139.648,-43.945,-42.969,-49.805,353.516
1688814658.837,-158.691,-40.039,-38.086,-29.785,42.969
1688814658.841,-166.016,-40.039,-37.598,-42.969,-164.062
1688814658.843,-130.371,-44.922,-44.434,-81.055,-207.031
1688814658.847,-104.004,-47.363,-51.270,-62.012,-244.141
1688814658.851,-106.934,-47.852,-47.852,-45.898,-179.688
1688814658.855,-140.137,-51.758,-43.457,-27.344,-61.035
1688814658.859,-172.852,-49.805,-40.039,-30.762,-41.016
1688814658.863,-165.039,-45.898,-43.945,-65.918,-102.539
1688814658.867,-146.973,-45.898,-44.434,-52.734,-147.461
1688814658.870,-158.203,-47.363,-41.992,-39.062,-87.891
1688814658.874,-186.035,-46.387,-43.945,-15.625,219.727
1688814658.878,-199.219,-42.969,-39.062,-12.207,117.188
1688814658.882,-166.016,-37.598,-40.039,-54.688,-207.031
1688814658.886,-131.836,-37.598,-43.457,-48.828,-170.898
1688814658.889,-133.301,-39.062,-43.945,-46.875,-118.164
1688814658.893,-153.809,-39.062,-42.480,-36.621,-144.531
1688814658.897,-172.363,-37.109,-38.574,-15.625,-116.211
1688814658.901,-149.414,-35.645,-34.180,-54.199,-111.328
1688814658.905,-112.305,-40.039,-33.691,-60.547,-140.625
1688814658.909,-112.793,-40.039,-39.062,-48.340,-91.797
1688814658.913,-140.625,-37.598,-38.574,-36.133,-43.945
1688814658.916,-170.410,-38.574,-35.156,-12.695,195.801
1688814658.920,-148.926,-35.645,-37.598,-49.316,314.941
1688814658.924,-116.699,-36.133,-40.527,-70.801,-22.461
1688814658.928,-113.770,-39.062,-43.945,-51.270,-179.199
1688814658.932,-124.023,-34.180,-43.945,-38.086,62.988
1688814658.933,-142.090,-33.691,-41.504,-21.973,83.984
1688814658.937,-116.699,-36.133,-42.480,-55.664,-131.348
1688814658.941,-81.055,-37.109,-44.922,-80.566,-132.812
1688814658.945,-80.566,-40.039,-47.852,-63.477,-91.309
1688814658.949,-91.309,-39.062,-46.875,-47.852,-87.891
1688814658.953,-114.258,-42.480,-47.852,-31.738,-63.965
1688814658.957,-102.539,-39.062,-42.969,-48.340,-11.719
1688814658.960,-54.688,-37.109,-37.109,-51.270,164.062
1688814658.964,-38.086,-36.133,-38.086,-30.273,23.438
1688814658.968,-60.059,-31.738,-35.156,-26.855,-163.086
1688814658.972,-82.031,-32.227,-30.762,-2.930,84.961
1688814658.976,-70.801,-33.203,-34.180,-26.855,134.766
1688814658.978,-36.621,-40.039,-42.480,-75.195,-221.680
1688814658.982,-20.020,-42.480,-42.480,-54.688,-271.484
1688814658.986,-34.668,-36.133,-37.598,-33.691,-103.027
1688814658.990,-67.871,-36.621,-37.109,-19.043,-49.316
1688814658.994,-74.219,-45.898,-36.133,-31.250,-38.086
1688814658.998,-40.527,-42.480,-39.551,-62.988,-72.754
1688814659.002,-23.438,-39.062,-38.574,-43.457,79.590
1688814659.005,-29.297,-42.969,-35.645,-28.320,170.898
1688814659.009,-55.664,-41.016,-41.504,-17.090,-38.086
1688814659.013,-64.453,-41.016,-42.969,-25.879,-103.516
1688814659.017,-29.785,-39.062,-40.039,-62.500,110.352
1688814659.021,-11.719,-37.598,-37.109,-42.480,26.367
1688814659.038,-21.973,-38.574,-39.062,-24.902,-116.699
1688814659.042,-43.457,-41.504,-40.527,-14.648,60.059
1688814659.046,-57.617,-36.621,-33.691,-7.324,223.633
1688814659.050,-26.367,-36.621,-31.250,-44.922,-4.883
1688814659.054,4.395,-33.203,-31.250,-46.387,-134.766
1688814659.058,-5.859,-31.250,-35.156,-34.180,40.039
1688814659.062,-34.668,-32.715,-41.016,-25.879,196.777
1688814659.065,-60.547,-29.297,-36.621,-20.996,13.184
1688814659.069,-45.410,-32.227,-40.039,-61.523,-198.730
1688814659.073,-17.090,-31.738,-43.945,-68.359,-115.234
1688814659.077,-20.996,-32.715,-41.992,-45.410,-45.410
1688814659.081,-55.176,-38.086,-41.992,-33.691,-130.859
1688814659.083,-86.914,-38.574,-40.527,-15.137,-98.633
1688814659.087,-67.871,-41.992,-37.109,-44.434,-105.957
1688814659.091,-40.039,-45.898,-37.598,-60.059,-108.887
1688814659.095,-48.340,-43.945,-39.551,-46.875,-53.223
1688814659.099,-68.848,-39.551,-41.992,-37.598,-60.547
1688814659.103,-87.402,-37.598,-40.527,-20.996,133.789
1688814659.107,-72.266,-35.156,-39.551,-53.223,78.613
1688814659.110,-40.527,-35.156,-40.039,-75.684,-120.117
1688814659.114,-31.250,-31.738,-40.039,-58.594,-156.250
1688814659.118,-45.898,-28.809,-46.875,-39.551,85.449
1688814659.122,-77.148,-27.344,-47.363,-15.625,369.141
1688814659.126,-79.102,-29.297,-46.875,-46.875,-37.109
1688814659.128,-41.016,-29.297,-41.992,-67.871,-299.805
1688814659.132,-29.297,-25.879,-37.598,-54.199,-180.664
1688814659.136,-45.898,-25.391,-37.109,-54.199,-129.883
1688814659.140,-70.312,-28.809,-38.574,-34.668,-62.500
1688814659.144,-65.918,-35.645,-41.504,-51.758,-40.527
1688814659.148,-28.320,-35.156,-40.527,-80.566,-15.137
1688814659.152,-19.531,-31.738,-38.086,-62.500,-94.727
1688814659.155,-36.621,-30.273,-38.086,-52.246,-178.223
1688814659.159,-66.406,-33.691,-37.598,-31.250,-23.926
1688814659.163,-81.543,-43.457,-39.551,-29.297,206.543
1688814659.167,-46.875,-44.434,-37.598,-68.359,-24.902
1688814659.171,-25.391,-44.434,-36.621,-64.941,-233.887
1688814659.173,-37.598,-43.457,-40.527,-49.805,-124.023
1688814659.177,-60.547,-41.992,-36.621,-35.156,-39.551
1688814659.181,-69.824,-40.527,-34.180,-32.715,-76.660
1688814659.185,-32.227,-36.133,-35.156,-61.523,-157.227
1688814659.189,-14.648,-35.645,-30.762,-46.875,-91.797
1688814659.193,-41.504,-38.574,-33.691,-33.203,15.625
1688814659.197,-67.871,-40.527,-39.551,-24.414,10.254
1688814659.200,-82.520,-36.133,-37.109,-22.949,-24.414
1688814659.204,-61.035,-39.062,-33.691,-48.828,177.246
1688814659.208,-41.992,-40.527,-36.621,-39.062,355.469
1688814659.212,-55.176,-36.133,-35.156,-39.551,11.719
1688814659.216,-83.008,-37.109,-33.691,-42.480,-197.754
1688814659.219,-108.887,-41.016,-41.016,-40.527,-118.164
1688814659.223,-90.820,-37.598,-46.875,-76.660,-230.957
1688814659.227,-64.941,-34.180,-42.969,-74.219,-233.887
1688814659.231,-71.777,-33.691,-36.621,-53.711,-145.020
1688814659.235,-100.098,-35.156,-36.621,-48.828,-107.422
1688814659.239,-130.371,-36.621,-36.133,-30.762,31.250
1688814659.243,-111.816,-37.598,-33.691,-52.734,-27.344
1688814659.246,-72.754,-37.109,-37.598,-62.988,-75.684
1688814659.250,-60.059,-33.691,-37.598,-35.156,207.031
1688814659.254,-76.172,-31.738,-32.227,-31.738,134.277
1688814659.258,-105.469,-31.738,-28.809,-31.250,-30.762
1688814659.262,-93.750,-31.250,-27.344,-59.570,-27.832
1688814659.263,-62.988,-32.715,-31.250,-76.172,-55.664
1688814659.267,-68.359,-35.156,-33.691,-56.152,-123.535
1688814659.271,-90.820,-32.227,-31.738,-50.781,-123.535
1688814659.275,-125.488,-35.645,-31.250,-34.180,-20.020
1688814659.279,-134.277,-45.898,-37.598,-62.988,-56.152
1688814659.283,-101.074,-41.016,-36.133,-92.285,-126.953
1688814659.287,-85.449,-37.109,-33.691,-72.754,-46.875
1688814659.290,-88.379,-37.598,-34.180,-58.105,197.266
1688814659.294,-102.539,-33.691,-32.715,-31.250,359.375
1688814659.298,-104.980,-35.645,-38.086,-52.246,53.711
1688814659.302,-62.012,-41.992,-36.621,-86.426,-167.480
1688814659.306,-34.180,-42.480,-32.715,-71.289,-87.402
1688814659.312,-48.340,-37.109,-34.668,-60.547,-44.434
1688814659.316,-79.102,-34.180,-35.156,-37.109,-83.984
1688814659.320,-84.473,-33.691,-32.715,-46.387,-68.359
1688814659.324,-47.852,-32.227,-33.203,-74.707,-49.316
1688814659.328,-29.785,-33.203,-37.598,-56.641,-123.535
1688814659.332,-35.645,-35.156,-38.086,-47.852,-89.844
1688814659.336,-61.035,-36.621,-35.156,-26.855,95.215
1688814659.339,-83.984,-38.086,-38.086,-20.508,321.289
1688814659.343,-59.082,-41.504,-38.574,-61.523,24.414
1688814659.347,-24.414,-36.621,-36.621,-52.246,-169.922
1688814659.351,-36.133,-36.133,-40.039,-48.340,-136.230
1688814659.355,-70.801,-37.598,-37.109,-38.086,-84.961
1688814659.369,-89.844,-30.762,-34.180,-26.855,-46.387
1688814659.373,-62.012,-30.273,-33.691,-60.059,-151.855
1688814659.377,-34.668,-34.180,-34.668,-59.570,-24.414
1688814659.381,-38.574,-39.551,-39.551,-45.898,13.672
1688814659.385,-56.641,-39.062,-40.527,-37.598,-117.676
1688814659.389,-90.332,-35.645,-40.527,-39.062,-33.691
1688814659.393,-75.195,-37.598,-36.621,-70.312,210.938
1688814659.396,-34.668,-36.133,-35.645,-54.688,413.574
1688814659.400,-36.621,-33.203,-35.156,-45.410,83.984
1688814659.404,-63.477,-36.133,-35.156,-54.199,-134.277
1688814659.408,-92.285,-39.551,-41.016,-38.086,-34.180
1688814659.412,-68.848,-38.086,-36.621,-59.082,-127.441
1688814659.398,-30.762,-40.039,-33.203,-66.895,-145.020
1688814659.402,-32.715,-42.480,-35.156,-47.363,-129.883
1688814659.406,-55.176,-40.039,-33.203,-44.434,-9.766
1688814659.410,-83.984,-41.992,-33.691,-37.598,13.672
1688814659.414,-68.848,-44.922,-36.621,-66.895,-118.652
1688814659.418,-22.461,-39.551,-35.645,-83.008,-38.574
1688814659.422,-6.836,-36.621,-36.133,-65.918,86.914
1688814659.425,-24.902,-39.062,-35.156,-56.152,-56.641
1688814659.429,-56.152,-38.574,-36.133,-41.504,-143.555
1688814659.433,-47.363,-41.016,-39.551,-68.359,-47.363
1688814659.437,-11.230,-36.621,-39.551,-79.102,237.793
1688814659.441,-6.348,-30.762,-33.203,-56.641,76.172
1688814659.458,-13.184,-30.273,-30.273,-56.152,-186.523
1688814659.462,-38.574,-35.645,-34.180,-38.574,11.230
1688814659.466,-42.969,-38.574,-31.250,-57.617,34.180
1688814659.470,-0.488,-34.180,-30.273,-85.938,-125.488
1688814659.474,18.066,-34.668,-35.156,-69.336,-180.176
1688814659.478,-5.371,-37.109,-33.691,-58.105,-8.789
1688814659.482,-47.852,-40.527,-32.227,-32.715,102.539
1688814659.485,-55.176,-42.969,-32.227,-46.387,-31.250
1688814659.489,-18.066,-40.527,-29.297,-88.867,-107.910
1688814659.493,-0.488,-38.574,-25.879,-65.430,164.062
1688814659.497,-10.254,-39.062,-30.762,-47.363,324.219
1688814659.501,-42.480,-40.039,-34.668,-36.621,19.531
1688814659.503,-61.035,-42.480,-32.227,-42.969,-42.480
1688814659.507,-27.344,-41.016,-33.203,-84.961,-105.957
1688814659.511,-3.906,-38.574,-31.250,-78.125,-225.098
1688814659.515,-9.277,-37.598,-29.785,-60.547,-215.820
