timestamps,TP9,AF7,AF8,TP10,Right AUX
1688814764.534,-35.645,-32.715,-30.273,-41.016,-59.082
1688814764.538,-12.695,-32.227,-33.691,-87.402,-147.949
1688814764.542,18.555,-26.855,-31.250,-62.500,-90.332
1688814764.546,8.789,-24.414,-33.691,-51.758,-121.094
1688814764.550,-25.879,-32.227,-33.691,-27.832,-115.723
1688814764.554,-25.391,-27.832,-33.691,-30.273,17.090
1688814764.558,-5.859,-27.344,-32.227,-68.848,270.996
1688814764.561,11.719,-29.785,-33.203,-66.895,195.801
1688814764.565,11.230,-29.785,-37.109,-70.312,-57.617
1688814764.569,-19.043,-34.668,-35.645,-49.316,15.625
1688814764.573,-28.809,-33.203,-37.109,-31.738,125.488
1688814764.577,-1.465,-26.855,-35.156,-70.801,-34.668
1688814764.594,9.766,-30.762,-33.691,-75.195,-234.863
1688814764.598,2.930,-34.180,-37.598,-57.129,-145.020
1688814764.602,-15.137,-35.645,-32.715,-38.574,25.879
1688814764.606,-31.250,-37.109,-30.273,-35.156,-71.777
1688814764.610,-5.859,-33.203,-25.879,-78.613,-198.730
1688814764.614,21.484,-31.738,-27.344,-73.730,-62.500
1688814764.618,22.461,-29.297,-34.668,-55.664,59.570
1688814764.621,6.836,-25.879,-35.645,-37.109,-66.406
1688814764.625,-12.695,-26.367,-32.227,-21.484,-123.047
1688814764.629,1.953,-27.344,-26.855,-53.223,-14.160
1688814764.633,26.855,-20.996,-25.879,-52.734,32.715
1688814764.637,31.250,-21.484,-29.785,-41.504,-35.156
1688814764.639,19.531,-24.902,-30.273,-41.992,-0.488
1688814764.643,1.953,-25.879,-31.250,-21.484,107.910
1688814764.647,23.438,-32.227,-29.297,-47.363,-14.648
1688814764.651,69.824,-27.344,-23.438,-67.871,-179.199
1688814764.655,77.637,-25.391,-21.484,-55.176,-66.406
1688814764.659,54.688,-28.809,-26.367,-37.109,208.496
1688814764.663,35.156,-24.902,-28.809,-20.996,194.824
1688814764.666,43.945,-28.809,-29.297,-58.105,-16.113
1688814764.670,68.848,-29.785,-32.227,-78.125,-128.418
1688814764.674,73.242,-23.438,-31.738,-50.293,136.719
1688814764.678,58.594,-25.391,-30.762,-44.922,134.277
1688814764.682,40.039,-30.762,-32.715,-55.176,-75.684
1688814764.701,27.832,-27.832,-31.250,-62.500,-123.535
1688814764.705,29.297,-25.879,-30.762,-66.406,-58.105
1688814764.709,31.250,-23.926,-31.250,-59.570,51.270
1688814764.713,27.344,-21.484,-28.320,-52.246,-89.355
1688814764.717,18.066,-26.855,-27.832,-44.434,-71.289
1688814764.721,-19.043,-30.762,-29.785,-45.410,76.660
1688814764.725,-40.039,-27.344,-30.273,-51.270,-26.855
1688814764.728,-14.648,-23.926,-30.273,-38.574,-136.230
1688814764.732,-70.312,-23.926,-27.344,-30.273,-51.270
1688814764.736,-187.012,-25.879,-30.273,-33.203,64.453
1688814764.740,-238.770,-27.832,-31.738,-48.340,-104.492
1688814764.744,-278.320,-33.691,-34.180,-58.594,-209.961
1688814764.728,-263.184,-34.180,-40.039,-36.621,-12.695
1688814764.732,-373.047,-34.668,-38.574,-35.645,4.395
1688814764.736,-688.965,-40.527,-39.062,-49.805,-162.109
1688814764.740,-862.305,-42.969,-35.645,-58.594,-95.703
1688814764.744,-886.230,-39.551,-34.180,-62.500,72.754
1688814764.748,-866.699,-38.574,-33.203,-42.480,58.594
1688814764.752,-767.090,-37.598,-30.273,-43.945,-57.129
1688814764.755,-636.719,-35.156,-35.645,-52.246,-21.973
1688814764.759,-526.367,-33.691,-38.086,-50.293,31.738
1688814764.763,-411.133,-28.809,-33.203,-54.199,-149.414
1688814764.767,-329.590,-27.344,-31.738,-43.945,-173.828
1688814764.771,-338.379,-30.273,-37.109,-48.340,-101.074
1688814764.775,-374.512,-30.762,-36.133,-38.574,210.449
1688814764.779,-498.535,-35.156,-36.133,-33.203,275.879
1688814764.783,-479.980,-35.156,-36.621,-50.781,-133.789
1688814764.787,-328.125,-30.762,-32.227,-45.410,-191.895
1688814764.791,-233.398,-32.227,-30.273,-43.945,-131.836
1688814764.795,-159.668,-32.227,-29.785,-46.875,-54.688
1688814764.799,-110.352,-33.203,-31.250,-39.062,-14.160
1688814764.802,-62.500,-37.598,-32.715,-44.922,104.980
1688814764.806,-37.109,-39.062,-30.273,-35.156,284.668
1688814764.810,-17.090,-38.574,-25.879,-35.645,10.254
1688814764.814,4.883,-36.133,-27.344,-44.434,-159.668
1688814764.818,9.277,-36.621,-30.273,-52.734,-28.809
1688814764.818,17.578,-38.574,-32.227,-67.871,-67.871
1688814764.822,47.852,-35.645,-29.785,-56.641,-170.898
1688814764.826,76.660,-32.227,-21.484,-46.875,-104.004
1688814764.830,85.938,-33.691,-27.832,-60.059,-63.477
1688814764.834,88.379,-34.180,-29.785,-69.824,-85.449
1688814764.838,93.262,-34.668,-27.832,-77.637,-68.848
1688814764.842,120.605,-35.645,-28.320,-71.777,-110.352
1688814764.845,141.113,-42.480,-26.855,-36.621,256.836
1688814764.849,134.277,-41.016,-33.203,-36.133,376.465
1688814764.853,112.305,-31.250,-38.086,-70.312,-45.898
1688814764.857,114.746,-34.180,-39.062,-79.102,-163.574
1688814764.861,138.672,-35.645,-35.645,-72.266,-71.777
1688814764.865,135.254,-29.785,-32.227,-53.223,-112.793
1688814764.869,130.371,-27.832,-34.668,-41.992,-138.184
1688814764.873,116.699,-29.297,-35.645,-47.363,-152.832
1688814764.877,111.816,-33.203,-36.621,-51.758,-117.188
1688814764.881,130.371,-33.691,-36.621,-50.781,-183.594
1688814764.885,137.207,-29.785,-33.203,-43.457,-194.336
1688814764.889,115.723,-31.738,-30.273,-36.621,41.016
1688814764.892,94.238,-32.715,-30.762,-27.832,213.379
1688814764.896,100.098,-29.785,-32.227,-36.133,-75.684
1688814764.900,115.723,-30.762,-33.203,-57.617,-253.906
1688814764.904,109.863,-31.250,-37.109,-52.734,-94.238
1688814764.908,88.867,-32.715,-38.086,-46.387,1.465
1688814764.909,60.547,-32.227,-41.504,-49.805,-55.664
1688814764.913,38.574,-32.715,-42.969,-53.223,-75.195
1688814764.917,52.246,-34.668,-39.062,-56.152,74.707
1688814764.921,66.895,-40.039,-37.598,-45.410,13.672
1688814764.925,68.359,-38.574,-37.109,-38.086,-154.785
1688814764.929,61.035,-34.180,-40.039,-48.340,-66.895
1688814764.933,50.293,-37.109,-42.480,-44.434,278.809
1688814764.936,63.965,-33.691,-38.574,-42.480,293.945
1688814764.940,80.078,-29.785,-39.551,-48.340,-60.547
1688814764.944,71.289,-30.273,-37.598,-43.945,-155.273
1688814764.948,50.293,-32.227,-38.574,-41.504,-28.809
1688814764.952,30.762,-28.809,-42.969,-44.922,-95.215
1688814764.969,33.203,-29.785,-41.504,-54.199,-160.156
1688814764.973,53.711,-31.738,-42.480,-53.223,-55.664
1688814764.977,61.523,-27.832,-40.527,-44.434,-50.781
1688814764.981,47.852,-22.461,-37.109,-46.387,-163.574
1688814764.985,32.227,-21.973,-36.133,-45.898,-179.688
1688814764.989,33.203,-28.320,-40.527,-56.152,-26.855
1688814764.993,35.156,-30.273,-43.945,-51.758,62.500
1688814764.996,34.180,-30.762,-36.621,-42.480,-90.820
1688814765.000,22.461,-30.762,-33.203,-52.246,-137.695
1688814765.004,2.930,-30.273,-32.227,-50.781,23.438
1688814765.008,10.742,-29.297,-29.297,-49.805,1.953
1688814765.012,44.922,-28.809,-29.785,-51.270,-177.734
1688814765.014,62.500,-28.809,-30.273,-43.945,-196.777
1688814765.018,56.641,-28.320,-32.227,-46.875,-100.586
1688814765.022,41.992,-24.902,-33.691,-51.758,-76.660
1688814765.026,38.086,-26.367,-37.109,-63.477,-139.160
1688814765.030,46.875,-28.320,-38.086,-64.941,-83.008
1688814765.034,57.617,-28.320,-39.062,-45.410,197.266
1688814765.038,51.270,-30.762,-34.668,-42.480,234.863
1688814765.041,30.762,-30.273,-31.250,-45.898,-34.180
1688814765.045,24.902,-30.762,-33.691,-49.316,-111.328
1688814765.049,30.273,-30.273,-34.668,-58.594,24.414
1688814765.053,32.227,-27.832,-35.645,-50.781,-91.309
1688814765.057,18.555,-31.250,-34.180,-54.199,-216.309
1688814765.060,-10.254,-33.203,-31.738,-62.012,-97.168
1688814765.064,-24.414,-33.203,-28.320,-71.777,21.973
1688814765.068,-7.324,-34.668,-28.809,-87.402,-132.324
1688814765.072,0.000,-33.203,-33.203,-80.078,-187.012
1688814765.076,-18.555,-30.762,-30.273,-69.824,-75.684
1688814765.080,-42.969,-25.391,-24.902,-69.336,-33.691
1688814765.084,-58.594,-24.902,-27.832,-72.266,-54.199
1688814765.087,-49.805,-28.809,-30.273,-76.660,-41.016
1688814765.091,-30.273,-32.227,-30.762,-68.359,22.461
1688814765.095,-25.879,-36.621,-30.273,-55.176,297.363
1688814765.099,-45.898,-38.086,-31.250,-60.059,137.695
1688814765.103,-73.730,-35.156,-31.250,-65.430,-62.988
1688814765.103,-78.613,-30.273,-28.809,-73.242,7.812
1688814765.107,-68.359,-29.297,-33.691,-68.359,-21.973
1688814765.111,-87.402,-32.227,-31.738,-53.223,-56.641
1688814765.115,-147.949,-32.227,-28.320,-44.922,-66.895
1688814765.119,-191.895,-37.109,-32.227,-51.758,-34.668
1688814765.123,-193.359,-40.527,-34.180,-70.312,-1.953
1688814765.127,-235.352,-40.527,-33.691,-64.453,-34.180
1688814765.130,-302.734,-41.016,-34.180,-49.316,-10.254
1688814765.134,-348.633,-39.062,-30.762,-51.270,296.387
1688814765.138,-373.047,-39.062,-32.715,-58.105,482.910
1688814765.142,-328.125,-38.574,-34.668,-72.754,95.703
1688814765.146,-258.789,-40.039,-32.715,-70.312,-156.250
1688814765.164,-228.516,-42.969,-32.227,-44.922,-127.930
1688814765.168,-230.957,-40.039,-31.250,-41.992,-145.508
1688814765.172,-254.883,-34.668,-32.715,-54.688,-146.973
1688814765.176,-271.973,-34.180,-34.180,-60.547,-179.688
1688814765.180,-264.160,-32.227,-30.762,-52.734,-171.387
1688814765.184,-263.184,-31.250,-29.785,-36.621,-68.359
1688814765.188,-285.156,-33.203,-34.668,-38.086,-72.754
1688814765.191,-298.828,-29.297,-33.203,-41.992,15.137
1688814765.195,-281.250,-27.344,-30.273,-47.363,212.402
1688814765.199,-229.980,-28.809,-28.809,-50.293,-35.645
1688814765.203,-200.195,-23.438,-24.414,-40.527,-49.805
1688814765.207,-211.914,-24.414,-33.203,-43.945,106.445
1688814765.194,-222.656,-27.832,-40.527,-53.711,29.297
1688814765.198,-207.031,-30.273,-34.180,-62.988,-69.336
1688814765.202,-171.387,-32.715,-35.156,-68.359,-81.543
1688814765.206,-140.625,-27.832,-38.086,-60.547,-83.008
1688814765.210,-142.578,-26.855,-39.551,-54.688,-151.855
1688814765.214,-153.809,-27.832,-33.203,-55.176,-126.953
1688814765.218,-152.832,-33.691,-32.227,-62.988,-59.082
1688814765.221,-138.184,-36.621,-41.504,-65.918,134.277
1688814765.225,-143.066,-40.039,-40.039,-52.246,85.938
1688814765.229,-158.691,-45.898,-37.109,-41.992,-169.434
1688814765.233,-132.324,-40.039,-36.621,-39.062,-127.441
1688814765.237,-96.191,-36.621,-31.738,-36.133,168.945
1688814765.271,-52.246,-38.086,-30.273,-48.828,-16.602
1688814765.275,-12.207,-37.598,-32.715,-46.875,-218.262
1688814765.279,-12.695,-37.109,-31.250,-34.668,-127.930
1688814765.283,-61.035,-41.992,-37.109,-36.133,-83.496
1688814765.287,-90.332,-41.992,-41.016,-45.898,-81.055
1688814765.291,-50.293,-36.621,-35.156,-67.383,-122.070
1688814765.295,7.812,-38.086,-33.203,-62.988,1.953
1688814765.298,35.156,-38.574,-36.133,-60.059,52.734
1688814765.302,39.551,-35.645,-39.062,-57.129,-117.676
1688814765.306,28.320,-36.621,-32.715,-36.133,-138.184
1688814765.310,41.016,-41.992,-33.691,-56.152,-41.992
1688814765.314,73.242,-38.574,-38.574,-72.266,-71.289
1688814765.283,81.055,-34.180,-37.598,-56.641,-123.535
1688814765.287,71.289,-36.621,-39.551,-52.734,-95.703
1688814765.291,44.922,-35.645,-38.574,-40.527,89.355
1688814765.295,53.711,-31.738,-30.273,-52.734,124.023
1688814765.299,75.195,-36.621,-32.227,-70.801,-99.121
1688814765.303,55.176,-41.504,-38.086,-60.547,-31.250
1688814765.307,24.414,-35.156,-37.109,-55.176,235.840
1688814765.310,-11.230,-35.156,-36.133,-46.387,113.281
1688814765.314,-39.551,-33.203,-32.227,-53.711,-145.996
1688814765.318,-60.547,-29.297,-36.133,-68.848,-180.176
1688814765.322,-89.844,-27.832,-43.457,-55.176,-127.930
1688814765.326,-104.980,-24.414,-39.551,-45.410,-144.531
1688814765.345,-117.188,-26.855,-41.504,-29.785,-143.066
1688814765.349,-130.371,-33.203,-43.457,-36.133,-103.027
1688814765.353,-124.512,-31.738,-34.180,-55.176,168.457
1688814765.357,-129.395,-29.297,-32.715,-43.457,173.828
1688814765.361,-142.090,-34.180,-31.250,-40.527,-108.398
1688814765.365,-169.434,-33.691,-28.809,-33.203,70.801
1688814765.369,-174.316,-31.738,-28.809,-35.156,146.484
1688814765.372,-122.559,-38.086,-29.785,-60.547,-21.973
1688814765.376,-77.148,-37.598,-32.715,-51.270,-160.156
1688814765.380,-67.383,-29.297,-34.180,-36.621,-91.797
1688814765.384,-74.219,-34.180,-36.621,-30.762,129.395
1688814765.388,-72.266,-37.109,-36.621,-42.480,-47.363
1688814765.388,-37.598,-33.691,-28.320,-65.918,-206.543
1688814765.392,-2.441,-35.645,-27.832,-61.035,-129.883
1688814765.396,-2.930,-40.527,-32.715,-58.594,-125.977
1688814765.400,-10.742,-44.922,-28.320,-49.805,-171.875
1688814765.404,-18.066,-41.016,-29.297,-39.551,-150.879
1688814765.408,-1.465,-39.551,-36.133,-56.641,-18.555
1688814765.412,34.180,-37.598,-31.738,-56.641,-37.598
1688814765.415,40.039,-30.762,-27.344,-48.340,-100.098
1688814765.419,21.973,-34.668,-31.250,-42.480,10.742
1688814765.423,10.742,-39.062,-35.645,-28.320,247.559
1688814765.427,36.621,-39.062,-37.109,-51.758,304.688
1688814765.431,70.312,-38.574,-40.039,-71.289,-50.781
1688814765.435,72.754,-36.133,-41.016,-62.988,-143.555
1688814765.439,62.012,-32.227,-37.598,-54.688,-44.922
1688814765.443,49.805,-30.273,-33.691,-33.203,-104.492
1688814765.447,56.152,-29.297,-30.762,-39.062,-121.582
1688814765.451,67.383,-26.855,-26.367,-49.805,-103.027
1688814765.455,59.570,-28.320,-25.391,-33.691,-63.477
1688814765.459,51.270,-31.250,-27.344,-28.320,-23.926
1688814765.462,32.227,-31.250,-26.855,-31.738,-61.523
1688814765.466,39.062,-28.320,-28.320,-44.922,0.000
1688814765.470,70.312,-26.855,-29.785,-42.969,141.602
1688814765.474,69.824,-30.762,-26.855,-33.203,-14.160
1688814765.478,48.828,-32.715,-26.367,-20.996,-104.004
1688814765.479,23.926,-30.762,-22.949,0.977,26.855
1688814765.483,22.949,-33.203,-20.996,-18.066,19.531
1688814765.487,58.105,-34.180,-25.391,-37.109,-158.691
1688814765.491,64.453,-33.203,-20.508,-16.113,-138.672
1688814765.495,14.648,-39.062,-18.066,-17.090,-1.465
1688814765.499,-20.996,-36.621,-23.926,-15.137,22.461
1688814765.503,-5.371,-34.668,-26.855,-38.086,-64.453
1688814765.506,36.621,-36.621,-25.391,-55.176,-68.848
1688814765.510,41.016,-36.621,-25.879,-33.203,289.062
1688814765.514,22.461,-32.227,-26.367,-25.879,354.004
1688814765.518,3.418,-35.156,-29.297,-19.043,-77.637
1688814765.522,-10.254,-38.086,-29.297,-25.391,-131.348
1688814765.526,16.602,-33.691,-32.227,-52.734,-51.758
1688814765.530,49.805,-31.738,-39.062,-38.086,-56.641
1688814765.534,57.129,-32.227,-37.109,-29.785,-76.660
1688814765.538,50.781,-32.715,-35.645,-25.391,-83.008
1688814765.542,45.898,-36.621,-36.621,-21.973,9.766
1688814765.546,70.801,-39.551,-33.691,-46.387,-34.668
1688814765.550,53.223,-35.156,-29.785,-31.738,-88.867
1688814765.553,-21.484,-36.621,-24.902,-21.484,30.762
1688814765.557,-85.449,-42.480,-27.344,-19.531,280.762
1688814765.561,-147.461,-43.457,-30.762,-15.625,74.707
1688814765.565,-176.758,-40.527,-30.762,-49.316,-171.875
1688814765.569,-133.789,-37.109,-29.297,-57.129,-143.555
1688814765.570,-100.098,-38.086,-33.203,-50.781,-120.117
1688814765.574,-111.328,-38.086,-36.133,-49.316,-135.254
1688814765.578,-110.352,-33.691,-33.203,-42.480,-45.410
1688814765.582,-83.984,-36.621,-34.180,-62.012,81.055
1688814765.586,-45.410,-41.992,-37.109,-63.477,-12.695
1688814765.590,-29.297,-42.480,-33.203,-55.664,-65.430
1688814765.594,-43.945,-41.992,-30.762,-53.223,-13.184
1688814765.597,-51.270,-38.574,-32.715,-26.855,261.719
1688814765.601,-22.949,-37.598,-31.250,-32.715,335.449
1688814765.605,16.602,-41.504,-35.156,-55.176,-79.102
1688814765.609,30.762,-38.574,-39.551,-45.898,-121.094
1688814765.613,25.879,-33.203,-35.645,-27.344,-49.805
1688814765.630,8.301,-32.715,-33.691,-23.438,-65.430
1688814765.634,16.602,-33.691,-36.621,-45.898,-86.914
1688814765.638,45.898,-34.180,-36.133,-55.664,-169.434
1688814765.642,44.434,-34.668,-32.715,-48.828,-119.629
1688814765.646,36.621,-30.762,-29.297,-44.434,-125.000
1688814765.650,36.621,-27.832,-26.367,-45.898,-109.863
1688814765.654,44.434,-27.832,-25.391,-53.711,70.801
1688814765.657,69.824,-29.785,-29.297,-41.992,295.410
1688814765.661,72.266,-33.203,-34.668,-41.504,39.062
1688814765.665,47.363,-35.645,-34.668,-53.223,-188.477
1688814765.669,16.113,-37.109,-34.668,-55.664,-140.137
1688814765.673,1.953,-38.574,-34.668,-59.570,-149.414
1688814765.659,10.742,-36.621,-41.992,-61.035,-188.965
1688814765.663,4.883,-37.109,-44.922,-60.059,-159.668
1688814765.667,-5.859,-42.480,-42.969,-65.918,-75.195
1688814765.671,-29.297,-41.504,-44.922,-69.336,-62.500
1688814765.675,-43.945,-37.598,-47.363,-69.824,-67.871
1688814765.679,-19.531,-35.645,-42.969,-61.035,12.695
1688814765.683,-13.184,-36.621,-42.969,-53.711,97.168
1688814765.686,-32.715,-36.133,-45.410,-56.152,12.207
1688814765.690,-52.734,-33.691,-45.898,-57.617,-96.191
1688814765.694,-72.266,-34.180,-46.387,-65.430,-76.660
1688814765.698,-67.383,-32.715,-41.016,-59.570,214.844
1688814765.702,-62.500,-31.738,-38.574,-35.156,248.535
1688814765.719,-76.660,-30.273,-39.062,-38.086,-104.980
1688814765.723,-91.797,-27.832,-36.133,-54.688,-159.668
1688814765.727,-104.004,-26.367,-34.180,-56.152,-140.625
1688814765.731,-92.285,-24.902,-37.598,-62.500,-216.309
1688814765.735,-84.473,-26.367,-42.480,-53.711,-230.469
1688814765.739,-90.332,-26.855,-42.969,-43.457,-41.016
1688814765.743,-108.398,-24.414,-38.574,-44.922,192.383
1688814765.746,-132.324,-26.367,-37.598,-55.664,0.000
1688814765.750,-136.719,-26.855,-38.574,-66.406,-197.266
1688814765.754,-133.789,-23.438,-34.668,-45.898,-45.410
1688814765.758,-147.949,-23.926,-33.691,-37.109,39.062
1688814765.762,-173.828,-24.414,-35.156,-47.852,-139.648
1688814765.764,-189.941,-27.344,-37.109,-46.875,-150.391
1688814765.768,-179.688,-30.273,-38.574,-61.035,-0.488
1688814765.772,-169.434,-29.297,-38.574,-62.012,-53.711
1688814765.776,-172.363,-26.855,-40.039,-49.805,-155.273
1688814765.780,-183.105,-28.320,-41.016,-57.129,-126.465
1688814765.784,-193.359,-29.297,-39.062,-58.105,155.762
1688814765.788,-193.848,-29.297,-31.738,-63.477,52.734
1688814765.791,-180.176,-30.273,-29.785,-66.895,-159.180
1688814765.795,-166.016,-33.203,-33.691,-57.129,-80.078
1688814765.799,-155.762,-37.598,-37.109,-42.969,157.227
1688814765.803,-145.020,-33.691,-34.668,-36.133,139.648
1688814765.807,-141.113,-34.180,-32.227,-52.734,-154.297
1688814765.810,-116.699,-41.504,-28.809,-55.664,-50.781
1688814765.814,-83.008,-36.133,-27.832,-33.691,72.754
1688814765.818,-66.895,-36.133,-31.250,-36.621,-97.168
1688814765.822,-56.641,-40.039,-29.785,-45.898,-138.184
1688814765.826,-38.086,-38.086,-28.809,-52.246,-116.211
1688814765.830,-1.465,-37.109,-31.738,-49.805,-75.684
1688814765.834,21.484,-36.621,-38.086,-39.551,-39.551
1688814765.837,19.043,-36.133,-40.527,-40.527,-126.465
1688814765.841,4.883,-33.203,-38.086,-41.016,-32.227
1688814765.845,-6.348,-33.203,-35.645,-48.828,146.973
1688814765.849,3.418,-34.668,-30.273,-61.523,-44.434
1688814765.853,15.625,-33.691,-35.156,-50.781,-126.465
1688814765.855,10.742,-33.691,-38.086,-41.016,-68.359
1688814765.859,-11.230,-36.133,-33.691,-35.156,-86.426
1688814765.863,-24.902,-35.156,-32.715,-42.480,-16.113
1688814765.867,-15.137,-37.109,-37.598,-48.828,-14.160
1688814765.871,-9.277,-39.062,-37.109,-33.203,2.930
1688814765.875,-9.277,-35.156,-33.203,-41.992,-56.152
1688814765.879,-23.438,-35.645,-36.621,-57.617,-108.398
1688814765.882,-35.156,-34.668,-44.434,-62.500,-56.152
1688814765.886,-14.160,-34.668,-43.457,-60.059,205.078
1688814765.890,11.719,-29.297,-37.109,-34.180,249.023
1688814765.894,14.160,-22.949,-36.621,-30.762,-81.543
1688814765.898,-7.324,-28.320,-38.086,-47.852,-81.055
1688814765.900,-21.484,-32.715,-39.062,-59.570,-41.992
1688814765.904,-12.207,-34.668,-38.574,-75.195,-171.387
1688814765.908,6.836,-30.762,-35.156,-59.570,-182.129
1688814765.912,9.277,-27.832,-29.785,-38.086,-143.555
1688814765.916,-17.090,-29.297,-32.715,-44.922,-85.449
1688814765.920,-37.598,-28.320,-35.645,-58.105,-12.695
1688814765.924,-33.691,-29.297,-33.691,-62.988,-62.012
1688814765.927,-6.348,-29.785,-38.086,-55.664,-12.207
1688814765.931,-3.418,-30.273,-43.457,-47.852,330.078
1688814765.935,-19.043,-30.762,-41.992,-53.223,82.520
1688814765.939,-29.785,-29.297,-42.480,-61.523,-191.895
1688814765.943,-32.227,-28.809,-40.527,-65.430,-55.176
1688814765.943,-14.648,-33.203,-38.086,-55.176,-115.723
1688814765.947,-8.301,-30.273,-37.109,-54.688,-173.340
1688814765.951,-26.855,-25.391,-35.645,-62.988,-88.867
1688814765.955,-47.363,-28.809,-36.133,-52.734,-23.926
1688814765.959,-36.621,-32.715,-39.062,-67.871,-95.215
1688814765.963,-19.043,-37.109,-39.062,-78.125,-127.930
1688814765.967,-17.578,-38.086,-35.645,-53.223,-81.055
1688814765.970,-29.297,-33.203,-35.156,-34.180,218.750
1688814765.974,-49.316,-31.250,-37.109,-26.855,423.828
1688814765.978,-54.688,-34.668,-32.227,-38.086,18.555
1688814765.982,-40.039,-39.062,-31.250,-45.410,-234.863
1688814765.986,-27.344,-42.969,-34.180,-35.645,-97.656
1688814766.004,-43.457,-41.992,-31.250,-43.457,-121.094
1688814766.008,-67.871,-39.551,-32.227,-60.059,-193.848
1688814766.012,-81.055,-41.504,-34.180,-67.871,-138.184
1688814766.016,-70.312,-41.504,-31.738,-66.406,-115.723
1688814766.020,-65.918,-39.551,-30.762,-47.852,-184.082
1688814766.024,-74.707,-40.527,-31.738,-36.133,-133.789
1688814766.028,-82.520,-40.039,-34.668,-43.945,-23.438
1688814766.031,-85.938,-39.062,-31.738,-42.480,145.508
1688814766.035,-65.430,-37.598,-31.250,-56.152,-8.301
1688814766.039,-30.762,-36.133,-34.180,-64.453,-140.137
1688814766.043,-20.020,-37.109,-33.691,-53.711,-77.637
1688814766.047,-40.039,-41.992,-31.738,-32.715,-67.871
1688814766.033,-56.641,-41.504,-32.715,-27.344,-71.289
1688814766.037,-39.062,-39.551,-36.621,-59.082,-98.145
1688814766.041,-30.273,-39.062,-34.668,-59.082,-67.871
1688814766.045,-55.664,-39.062,-31.250,-36.621,-91.797
1688814766.049,-81.055,-38.574,-29.297,-24.414,-93.262
1688814766.053,-102.539,-35.645,-27.344,-11.719,-41.504
1688814766.057,-96.191,-39.062,-31.738,-35.645,171.387
1688814766.060,-68.848,-40.039,-32.715,-45.898,156.738
1688814766.064,-56.152,-33.691,-28.809,-29.297,-98.145
1688814766.068,-69.824,-30.762,-28.320,-18.066,-131.348
1688814766.072,-101.074,-34.180,-31.738,-2.930,131.836
1688814766.076,-97.656,-35.156,-31.738,-27.832,61.523
1688814766.093,-61.523,-28.809,-25.391,-49.805,-111.816
1688814766.097,-56.641,-26.855,-24.414,-32.715,-90.332
1688814766.101,-83.008,-33.691,-26.855,-24.902,-47.852
1688814766.105,-115.723,-31.738,-30.762,-15.625,-125.000
1688814766.109,-125.000,-26.855,-34.180,-38.574,-209.473
1688814766.113,-99.609,-29.785,-34.668,-55.176,-76.172
1688814766.117,-67.383,-33.691,-33.203,-38.574,-47.363
1688814766.120,-68.359,-34.668,-33.691,-34.180,-157.227
1688814766.124,-87.402,-34.180,-30.273,-14.160,-102.539
1688814766.128,-77.148,-29.297,-22.461,-22.461,33.691
1688814766.132,-40.527,-30.762,-26.367,-53.711,57.617
1688814766.136,-36.133,-41.504,-35.156,-53.711,-41.504
1688814766.138,-61.035,-40.039,-28.809,-43.945,-102.051
1688814766.142,-87.891,-36.133,-21.484,-19.531,0.977
1688814766.146,-95.215,-33.203,-19.531,-30.762,91.797
1688814766.150,-78.613,-32.715,-22.949,-59.570,-123.047
1688814766.154,-82.031,-37.109,-25.879,-44.922,-150.391
1688814766.158,-105.957,-36.133,-24.414,-30.273,197.754
1688814766.162,-135.254,-35.156,-25.391,-13.184,195.801
1688814766.165,-156.738,-37.598,-28.320,-24.902,-9.766
1688814766.169,-128.906,-41.016,-31.738,-59.082,-106.445
1688814766.173,-84.961,-41.992,-28.809,-41.016,117.676
1688814766.177,-67.383,-36.133,-27.344,-30.762,132.812
1688814766.181,-65.918,-31.250,-28.809,-16.113,-104.004
1688814766.186,-64.941,-31.250,-33.203,-12.695,-90.820
1688814766.190,-30.273,-32.715,-36.133,-57.617,-161.621
1688814766.194,2.930,-36.621,-35.156,-59.082,-191.895
1688814766.198,0.000,-37.109,-33.203,-37.109,-216.309
1688814766.202,-25.879,-40.527,-32.227,-23.926,-100.098
1688814766.206,-45.410,-44.434,-35.156,-21.484,93.262
1688814766.210,-24.902,-41.504,-37.109,-61.523,-22.461
1688814766.213,-0.977,-38.086,-35.645,-63.965,-158.203
1688814766.217,-7.324,-37.109,-39.551,-46.387,-8.301
1688814766.221,-23.438,-38.086,-37.598,-27.344,296.387
1688814766.225,-30.273,-35.645,-40.039,-14.648,59.082
1688814766.229,-17.578,-28.320,-42.969,-52.246,-160.156
1688814766.229,-7.812,-27.832,-41.992,-60.547,-96.191
1688814766.233,-12.207,-30.273,-43.945,-36.621,-165.039
1688814766.237,-37.109,-38.574,-50.293,-36.621,-167.480
1688814766.241,-62.012,-41.504,-48.828,-27.344,-32.715
1688814766.245,-45.898,-34.668,-39.551,-43.457,-10.742
1688814766.249,-13.184,-36.133,-36.621,-61.523,-46.875
1688814766.253,4.883,-37.598,-35.156,-54.199,-24.414
1688814766.256,3.906,-35.156,-36.133,-44.922,37.109
1688814766.260,-16.602,-32.227,-35.156,-5.371,393.066
1688814766.264,-13.184,-32.227,-36.621,-19.043,479.980
1688814766.268,22.949,-32.715,-41.504,-57.617,67.383
1688814766.272,30.762,-32.715,-39.062,-48.828,-108.398
1688814766.276,6.348,-30.273,-37.598,-39.062,-98.145
1688814766.280,-19.531,-30.273,-38.086,-17.090,-103.516
1688814766.284,-32.227,-37.109,-42.969,-38.086,-158.203
1688814766.288,-20.996,-38.086,-41.504,-66.895,-199.707
1688814766.292,-20.996,-30.273,-37.109,-40.039,-167.480
1688814766.296,-35.156,-29.297,-36.133,-21.484,-88.379
1688814766.300,-64.453,-31.250,-37.598,-14.648,-40.039
1688814766.303,-66.406,-27.344,-39.551,-34.180,-65.430
1688814766.307,-29.785,-28.809,-39.551,-66.406,-31.250
1688814766.311,-16.602,-31.250,-42.480,-53.711,-106.934
1688814766.315,-28.320,-29.785,-42.969,-45.410,-187.988
1688814766.319,-54.199,-31.250,-39.062,-28.809,-32.715
1688814766.320,-74.219,-28.809,-40.039,-32.715,166.016
1688814766.324,-51.758,-25.879,-39.551,-69.336,-121.582
1688814766.328,-30.762,-28.320,-40.527,-52.734,-231.445
1688814766.332,-42.969,-27.344,-43.457,-37.109,-98.145
1688814766.336,-71.777,-22.461,-41.016,-17.090,-37.109
1688814766.340,-82.031,-28.320,-40.039,-21.973,-12.695
1688814766.344,-56.152,-37.109,-42.969,-62.988,-39.551
1688814766.347,-23.438,-33.203,-38.086,-54.199,216.309
1688814766.351,-22.461,-31.738,-33.203,-30.273,307.617
1688814766.355,-43.457,-33.203,-38.086,-22.949,-48.828
1688814766.359,-53.711,-32.227,-33.691,-19.531,-59.570
1688814766.363,-40.527,-32.227,-27.832,-42.480,-4.395
1688814766.365,-24.902,-32.227,-34.668,-40.527,-189.941
1688814766.369,-19.531,-28.809,-41.016,-26.855,-239.258
1688814766.373,-31.250,-25.391,-44.922,-20.020,-136.230
1688814766.377,-49.805,-29.297,-45.410,-16.602,1.465
1688814766.381,-35.156,-33.203,-46.387,-46.875,-88.379
1688814766.385,-12.207,-34.668,-49.805,-53.711,-136.719
1688814766.389,-20.508,-34.180,-42.969,-38.086,-3.906
1688814766.392,-50.781,-33.691,-37.109,-29.785,289.062
1688814766.396,-82.520,-35.156,-40.039,-19.043,106.445
1688814766.400,-75.684,-36.133,-40.039,-48.828,-190.918
1688814766.404,-41.016,-34.180,-37.598,-65.430,-166.504
1688814766.408,-35.645,-34.180,-38.086,-55.664,-136.719
1688814766.410,-59.570,-35.645,-40.039,-56.641,-152.344
1688814766.414,-82.031,-31.738,-36.621,-35.156,-46.387
1688814766.418,-71.777,-29.297,-34.668,-52.734,63.477
1688814766.422,-46.875,-34.180,-34.180,-74.707,-81.055
1688814766.426,-44.922,-34.180,-32.715,-61.523,-176.270
1688814766.430,-54.199,-30.273,-31.738,-53.711,-93.262
1688814766.434,-70.801,-31.738,-33.203,-17.578,241.211
1688814766.437,-73.730,-31.250,-32.227,-31.738,253.906
1688814766.441,-42.480,-32.715,-28.809,-66.895,-149.414
1688814766.445,-18.555,-35.156,-31.738,-47.852,-149.414
1688814766.449,-20.020,-36.133,-33.691,-33.203,81.055
1688814766.453,-38.086,-33.691,-32.227,-24.414,-2.930
1688814766.469,-34.180,-28.320,-31.250,-41.992,-135.742
1688814766.473,0.488,-29.297,-32.227,-69.336,-157.715
1688814766.477,13.184,-35.645,-37.109,-62.500,-183.594
1688814766.481,3.906,-34.668,-38.086,-52.734,-179.199
1688814766.485,-20.020,-37.109,-36.621,-33.203,-181.152
1688814766.489,-29.297,-37.598,-36.133,-39.551,32.227
1688814766.493,4.395,-37.109,-40.039,-64.453,322.266
1688814766.496,23.926,-34.180,-40.039,-44.434,-57.617
1688814766.500,18.555,-26.367,-38.574,-32.227,-221.680
1688814766.504,2.930,-25.879,-37.109,-14.160,-5.859
1688814766.508,-12.695,-28.320,-32.715,-16.602,1.465
1688814766.512,7.812,-29.297,-32.715,-59.570,-145.996
1688814766.514,33.203,-27.344,-33.203,-49.316,-136.230
1688814766.518,31.738,-26.855,-28.809,-29.785,-87.891
1688814766.522,5.859,-27.832,-25.879,-20.020,-96.191
1688814766.526,-17.578,-28.809,-28.320,-10.742,-99.609
1688814766.530,-2.930,-29.297,-31.738,-41.992,-148.926
1688814766.534,14.648,-34.180,-31.738,-41.016,68.848
1688814766.538,13.184,-32.227,-32.715,-30.273,123.047
1688814766.541,-11.230,-30.762,-34.180,-25.879,-15.137
1688814766.545,-38.086,-36.621,-34.180,-14.160,39.551
1688814766.549,-25.879,-36.621,-33.691,-41.992,258.789
1688814766.553,-2.930,-37.598,-34.668,-45.410,271.484
1688814766.557,-0.488,-31.250,-32.715,-30.273,-32.227
1688814766.561,-18.066,-27.832,-31.250,-25.879,-97.656
1688814766.565,-42.480,-32.715,-35.645,-13.672,-21.973
1688814766.569,-45.410,-37.109,-38.574,-46.387,-78.125
1688814766.573,-36.133,-38.574,-35.156,-63.477,-171.875
1688814766.577,-35.156,-31.250,-37.109,-40.039,-99.609
1688814766.581,-56.152,-25.879,-35.156,-34.180,54.688
1688814766.585,-80.566,-29.785,-33.691,-18.066,-14.648
1688814766.588,-61.523,-34.668,-34.180,-41.504,-183.594
1688814766.592,-17.090,-38.086,-33.203,-66.895,-21.973
1688814766.596,2.930,-34.668,-34.180,-41.016,267.578
1688814766.600,-4.395,-32.227,-35.156,-36.621,13.184
1688814766.604,-19.043,-29.785,-31.250,-23.438,-90.332
1688814766.603,-14.160,-30.762,-35.156,-35.156,-14.648
1688814766.607,13.672,-33.691,-36.621,-64.941,-128.418
1688814766.611,26.367,-28.809,-29.297,-40.527,-141.602
1688814766.615,4.883,-29.297,-31.738,-20.996,-116.699
1688814766.619,-30.273,-32.715,-32.227,-7.324,3.418
1688814766.623,-36.133,-29.785,-34.668,-30.273,26.855
1688814766.627,-14.160,-27.344,-34.180,-61.523,-104.004
1688814766.630,-7.324,-26.855,-31.250,-40.039,-41.992
1688814766.634,-31.738,-26.367,-37.109,-32.715,247.070
1688814766.638,-79.590,-27.832,-33.691,-20.020,308.105
1688814766.642,-114.746,-31.738,-31.738,-41.016,36.133
1688814766.646,-106.445,-33.691,-36.133,-78.125,-62.988
1688814766.650,-87.402,-38.086,-34.668,-49.316,-85.449
1688814766.654,-83.008,-38.086,-26.855,-28.809,-193.359
1688814766.658,-98.633,-33.203,-20.996,-14.648,-211.426
1688814766.662,-125.977,-34.668,-23.926,-14.160,-159.668
1688814766.666,-104.004,-35.645,-27.344,-49.316,-131.836
1688814766.670,-69.824,-36.133,-32.227,-51.758,-100.586
1688814766.674,-77.637,-38.574,-36.621,-52.734,-62.988
1688814766.677,-108.887,-33.691,-28.809,-31.250,57.129
1688814766.681,-139.648,-30.273,-26.855,-16.602,222.656
1688814766.685,-130.371,-34.180,-30.273,-59.570,-100.098
1688814766.689,-115.234,-35.645,-29.785,-59.570,-239.258
1688814766.693,-133.301,-34.180,-25.879,-33.203,-95.703
1688814766.695,-169.922,-34.668,-25.391,-23.438,-75.195
1688814766.699,-195.312,-34.180,-29.785,-18.555,-21.484
1688814766.703,-177.246,-38.086,-34.180,-52.246,-81.055
1688814766.707,-145.020,-37.109,-32.227,-53.711,-20.020
1688814766.711,-137.207,-35.156,-29.297,-38.086,-8.789
1688814766.715,-147.461,-40.039,-36.621,-41.504,-34.668
1688814766.719,-159.180,-42.969,-37.109,-26.367,98.145
1688814766.722,-141.602,-44.922,-32.715,-43.945,313.965
1688814766.726,-121.582,-38.086,-37.109,-59.570,269.043
1688814766.730,-118.652,-32.715,-35.156,-45.898,-104.492
1688814766.734,-134.766,-33.203,-33.203,-39.062,-171.875
1688814766.738,-162.598,-32.715,-34.668,-26.855,-45.410
1688814766.740,-159.668,-38.574,-32.227,-45.898,-58.594
1688814766.744,-115.723,-41.504,-36.133,-67.871,-164.551
1688814766.748,-83.984,-36.133,-37.109,-54.199,-130.371
1688814766.752,-87.891,-32.715,-40.039,-45.410,-52.734
1688814766.756,-108.887,-32.715,-40.527,-29.785,-57.617
1688814766.760,-141.113,-32.227,-36.621,-53.223,-38.574
1688814766.764,-148.926,-32.715,-35.156,-77.637,50.293
1688814766.767,-143.555,-33.203,-31.738,-49.316,247.559
1688814766.771,-137.207,-33.203,-31.250,-39.062,33.203
1688814766.775,-133.789,-35.645,-32.715,-22.461,-153.809
1688814766.779,-120.117,-36.621,-32.227,-31.250,-96.191
1688814766.783,-73.730,-38.086,-32.227,-57.129,-159.668
1688814766.783,-61.035,-37.109,-39.062,-47.363,-182.617
1688814766.787,-76.660,-37.598,-40.039,-46.387,-145.020
1688814766.791,-87.402,-37.598,-43.457,-25.391,-0.977
1688814766.795,-101.074,-32.227,-43.945,-32.227,-29.297
1688814766.799,-90.820,-34.180,-37.109,-74.219,-145.996
1688814766.803,-71.777,-37.109,-36.133,-65.430,-77.637
1688814766.807,-72.266,-36.133,-37.598,-60.547,190.918
1688814766.810,-89.355,-35.156,-38.574,-43.945,230.469
1688814766.814,-91.797,-30.762,-36.621,-40.527,42.969
1688814766.818,-58.105,-29.297,-37.109,-76.172,-54.688
1688814766.822,-38.574,-33.691,-41.504,-61.523,51.758
1688814766.826,-54.199,-36.133,-46.387,-53.711,-34.180
1688814766.845,-79.102,-37.109,-39.551,-40.039,-156.738
1688814766.849,-102.539,-39.062,-37.109,-24.902,-114.746
1688814766.853,-99.121,-40.039,-37.598,-68.359,-153.809
1688814766.857,-94.727,-40.039,-36.133,-74.707,-179.688
1688814766.861,-110.352,-36.621,-39.551,-57.617,-258.789
1688814766.865,-128.418,-36.133,-37.109,-45.410,7.812
1688814766.869,-146.973,-33.203,-33.203,-34.668,208.984
1688814766.872,-141.113,-37.109,-41.504,-76.172,-87.891
1688814766.876,-110.840,-41.016,-44.922,-90.820,-146.973
1688814766.880,-95.215,-32.715,-40.039,-69.336,-20.508
1688814766.884,-102.539,-32.715,-42.969,-56.641,35.645
1688814766.888,-116.699,-37.598,-39.551,-41.992,-97.656
1688814766.890,-99.121,-35.645,-36.133,-62.988,-134.766
1688814766.894,-61.035,-38.086,-38.086,-72.266,-95.215
1688814766.898,-57.129,-40.527,-39.551,-57.129,-127.930
1688814766.902,-74.707,-35.156,-33.203,-43.945,-137.207
1688814766.906,-91.309,-33.691,-28.320,-25.391,-32.715
1688814766.910,-69.336,-34.668,-33.203,-48.340,20.508
1688814766.914,-30.762,-34.180,-37.598,-70.312,-30.273
1688814766.917,-23.926,-33.203,-38.086,-61.523,-40.039
1688814766.921,-31.738,-33.203,-42.480,-62.500,-40.527
1688814766.925,-52.246,-29.297,-43.945,-34.668,235.352
1688814766.929,-55.664,-28.320,-46.875,-45.898,348.633
1688814766.933,-21.973,-33.203,-48.340,-87.891,-101.074
1688814766.935,-13.672,-33.691,-44.434,-71.289,-171.387
1688814766.939,-32.227,-32.715,-43.457,-58.105,-10.254
1688814766.943,-84.473,-37.598,-45.410,-41.016,-3.906
1688814766.947,-124.023,-43.457,-46.387,-53.711,-64.453
1688814766.951,-83.008,-41.016,-41.992,-86.426,-156.738
1688814766.955,-38.086,-32.715,-42.480,-71.777,-48.828
1688814766.959,-29.785,-28.320,-41.016,-58.594,51.758
1688814766.962,-48.828,-29.297,-37.598,-40.527,-10.742
1688814766.966,-54.199,-31.738,-35.645,-35.156,35.645
1688814766.970,-18.066,-34.668,-36.133,-63.477,204.102
1688814766.974,1.465,-38.574,-41.016,-64.941,12.695
1688814766.978,-3.418,-35.156,-39.551,-47.852,-150.879
1688814766.978,-17.578,-32.227,-34.180,-29.785,43.457
1688814766.982,-33.203,-31.738,-35.156,-31.738,39.062
1688814766.986,-10.742,-33.691,-29.785,-54.199,-147.461
1688814766.990,8.789,-34.668,-27.344,-38.574,-115.723
1688814766.994,-27.344,-33.203,-29.297,-29.297,-15.625
1688814766.998,-90.820,-34.180,-30.273,-23.438,20.996
1688814767.002,-143.066,-36.133,-29.785,-17.090,53.223
1688814767.005,-140.137,-30.273,-29.785,-55.176,33.203
1688814767.009,-127.441,-33.203,-28.320,-49.316,181.641
1688814767.013,-138.184,-39.551,-26.367,-29.297,258.301
1688814767.017,-148.438,-34.180,-24.902,-32.227,-28.809
1688814767.021,-152.832,-28.809,-23.438,-22.461,-92.773
1688814767.025,-116.211,-28.320,-26.855,-56.152,-101.562
1688814767.029,-62.500,-33.203,-23.438,-62.500,-162.598
1688814767.033,-42.969,-30.762,-23.926,-44.922,-180.664
1688814767.037,-50.781,-25.391,-31.738,-44.922,-91.797
1688814767.041,-65.430,-28.809,-28.320,-29.785,87.891
1688814767.045,-53.223,-31.250,-25.391,-51.270,12.207
1688814767.049,-14.160,-35.645,-31.738,-68.848,-121.582
1688814767.052,10.742,-37.109,-32.227,-50.293,-106.445
1688814767.056,9.766,-37.109,-28.320,-27.344,75.195
1688814767.060,-7.324,-36.621,-31.250,-11.719,-48.340
1688814767.064,3.418,-34.180,-27.344,-41.016,-151.855
1688814767.068,42.969,-34.668,-23.438,-59.082,-140.625
1688814767.069,52.734,-31.250,-25.391,-35.645,-161.621
1688814767.073,35.156,-31.250,-24.902,-31.738,-152.344
1688814767.077,11.230,-35.156,-24.414,-18.066,-71.289
1688814767.081,3.906,-36.133,-28.809,-38.086,-59.570
1688814767.085,25.391,-34.180,-36.621,-68.848,-68.359
1688814767.089,35.156,-33.203,-34.668,-47.852,34.180
1688814767.093,21.484,-33.203,-31.250,-38.086,12.207
1688814767.096,-14.648,-33.691,-31.250,-11.230,278.320
1688814767.100,-28.809,-33.691,-30.273,-19.531,456.543
1688814767.104,5.859,-29.785,-34.668,-61.523,-75.195
1688814767.108,24.902,-29.785,-36.621,-45.410,-258.301
1688814767.112,10.254,-28.809,-34.180,-36.621,85.938
1688814767.130,-15.625,-29.785,-33.203,-22.461,26.367
1688814767.134,-22.949,-31.250,-36.621,-30.273,-198.242
1688814767.138,10.254,-30.273,-34.668,-66.406,-187.500
1688814767.142,39.062,-28.809,-30.762,-56.641,-166.504
1688814767.146,39.551,-29.297,-35.645,-37.598,-172.852
1688814767.150,18.066,-32.227,-37.598,-18.555,-91.309
1688814767.154,-0.488,-35.156,-35.156,-16.602,65.918
1688814767.157,21.973,-33.691,-38.574,-43.945,233.398
1688814767.161,48.340,-27.832,-35.645,-48.828,-84.473
1688814767.165,37.598,-31.738,-35.645,-51.270,-257.812
1688814767.169,10.254,-32.715,-38.574,-39.062,-99.609
1688814767.173,-13.672,-34.180,-35.156,-29.785,-50.293
1688814767.158,1.465,-35.156,-32.715,-66.895,-198.730
1688814767.162,29.297,-31.250,-34.180,-65.430,-263.184
1688814767.166,24.414,-33.203,-34.668,-49.316,-117.676
1688814767.170,-2.930,-32.715,-33.203,-38.086,-92.773
1688814767.174,-39.062,-30.762,-33.203,-20.020,-77.148
1688814767.178,-37.598,-29.785,-36.133,-58.105,-19.043
1688814767.182,-18.066,-33.203,-41.016,-72.754,-12.695
1688814767.185,-20.020,-33.691,-35.645,-55.176,-47.852
1688814767.189,-35.156,-35.645,-37.109,-51.758,-62.500
1688814767.193,-68.848,-39.062,-42.969,-38.086,-10.742
1688814767.197,-57.617,-30.762,-41.992,-52.246,255.371
1688814767.201,-3.418,-26.855,-37.109,-56.152,344.238
1688814767.220,20.996,-25.879,-33.203,-42.969,-4.883
1688814767.224,1.953,-30.273,-36.133,-37.109,-84.473
1688814767.228,-28.809,-37.109,-35.156,-10.254,-0.977
1688814767.232,-29.297,-41.504,-33.203,-30.762,-110.840
1688814767.236,-6.348,-41.992,-36.133,-63.965,-230.957
1688814767.240,3.418,-41.992,-39.551,-45.898,-39.062
1688814767.244,0.977,-38.574,-39.062,-36.133,195.801
1688814767.247,-6.836,-35.156,-37.109,-24.902,22.949
1688814767.251,-6.348,-38.574,-38.086,-45.410,-163.086
1688814767.255,26.855,-38.086,-34.180,-68.359,-75.684
1688814767.259,47.852,-32.227,-34.180,-48.340,-7.812
1688814767.263,40.039,-28.809,-31.738,-41.992,-131.836
1688814767.264,14.648,-31.738,-25.391,-25.879,-18.555
1688814767.268,5.371,-33.203,-24.414,-31.250,120.605
1688814767.272,29.297,-34.180,-23.438,-63.965,-99.609
1688814767.276,41.504,-37.598,-24.902,-57.129,-280.762
1688814767.280,30.273,-34.668,-25.391,-48.340,-175.781
1688814767.284,1.953,-33.691,-24.414,-30.762,-7.812
1688814767.288,-13.184,-35.156,-26.855,-35.156,-1.953
1688814767.291,10.742,-38.574,-30.762,-76.172,-32.227
1688814767.295,30.273,-40.039,-29.297,-68.359,-73.730
1688814767.299,20.508,-38.574,-30.762,-41.992,175.293
1688814767.303,-9.277,-40.039,-31.250,-28.320,370.605
1688814767.307,-24.902,-45.410,-29.785,-33.691,30.273
1688814767.312,-1.953,-43.945,-29.297,-66.406,-171.387
1688814767.316,23.438,-36.621,-26.855,-55.176,-79.102
1688814767.320,18.066,-34.180,-25.879,-32.227,-44.922
1688814767.324,-5.371,-35.645,-30.273,-15.625,-110.352
1688814767.328,-29.297,-33.691,-25.879,-1.953,-74.707
1688814767.332,-18.066,-34.180,-26.367,-39.062,29.785
1688814767.336,13.672,-32.227,-31.250,-46.875,14.648
1688814767.339,17.090,-30.762,-28.809,-31.738,-75.195
1688814767.343,-4.883,-36.133,-27.344,-32.227,11.719
1688814767.347,-24.414,-29.785,-27.832,-17.090,228.027
1688814767.351,-6.348,-22.461,-25.879,-46.387,-49.805
1688814767.355,18.066,-25.391,-28.320,-58.594,-192.871
1688814767.353,17.578,-29.785,-31.738,-47.363,-92.773
1688814767.357,3.418,-32.227,-34.668,-37.109,-122.559
1688814767.361,-18.555,-28.809,-35.156,-17.578,-106.934
1688814767.365,-8.789,-29.297,-31.250,-43.945,-154.297
1688814767.369,20.020,-28.320,-29.785,-58.105,-96.191
1688814767.373,25.879,-30.273,-29.297,-35.645,30.762
1688814767.377,6.836,-31.250,-31.250,-23.926,-62.988
1688814767.380,-28.320,-32.227,-31.738,-4.395,-27.344
1688814767.384,-30.273,-32.227,-32.227,-20.996,281.250
1688814767.388,-11.230,-27.344,-29.785,-39.551,348.633
1688814767.392,-15.137,-27.832,-23.926,-25.391,11.719
1688814767.396,-39.551,-34.180,-25.391,-28.809,-156.738
1688814767.400,-80.078,-42.480,-33.203,-19.043,-80.566
1688814767.404,-84.473,-38.574,-30.762,-36.621,-135.254
1688814767.408,-52.246,-30.762,-24.414,-63.965,-195.312
1688814767.412,-42.969,-33.203,-26.855,-50.781,-188.965
1688814767.416,-45.898,-34.180,-29.297,-45.898,-158.691
1688814767.420,-57.129,-33.691,-29.785,-25.391,-21.973
1688814767.424,-51.758,-35.645,-30.273,-30.762,43.945
1688814767.427,-9.277,-37.109,-33.203,-60.059,42.480
1688814767.431,7.324,-39.062,-34.180,-44.922,232.422
1688814767.435,0.977,-38.574,-29.785,-40.527,46.875
1688814767.439,-8.789,-38.574,-27.344,-19.043,-150.879
1688814767.443,-18.555,-34.180,-30.273,-17.090,-80.566
1688814767.443,10.254,-26.855,-24.902,-59.082,-146.973
1688814767.447,33.691,-28.809,-26.367,-50.293,-192.383
1688814767.451,13.184,-31.250,-33.203,-36.621,-103.516
1688814767.455,-21.484,-32.227,-31.738,-24.902,-49.805
1688814767.459,-36.133,-36.621,-30.762,-17.578,-42.969
1688814767.463,-15.625,-38.574,-29.297,-50.781,-90.332
1688814767.467,0.977,-36.621,-33.691,-47.363,-85.449
1688814767.470,-5.371,-30.762,-40.039,-31.250,236.328
1688814767.474,-27.344,-30.273,-37.598,-24.414,346.680
1688814767.478,-50.781,-34.668,-34.668,-27.832,5.371
1688814767.482,-37.598,-37.109,-39.551,-67.383,-121.582
1688814767.486,-17.090,-35.156,-38.086,-64.453,-81.055
1688814767.505,-27.344,-37.598,-32.227,-48.828,-146.973
1688814767.509,-51.758,-40.527,-35.156,-49.805,-109.375
1688814767.513,-72.266,-37.109,-30.762,-39.551,-83.984
1688814767.517,-56.641,-35.645,-25.391,-73.730,-118.652
1688814767.521,-29.785,-33.203,-29.297,-79.102,-85.449
1688814767.525,-29.297,-32.715,-34.180,-60.547,-43.945
1688814767.529,-54.688,-29.785,-31.738,-51.758,65.430
1688814767.532,-88.867,-31.738,-33.691,-29.297,331.543
1688814767.536,-65.430,-36.133,-36.133,-55.664,78.125
1688814767.540,-20.508,-32.715,-30.762,-68.359,-183.105
1688814767.544,-13.672,-30.762,-29.785,-40.527,-60.547
1688814767.548,-24.414,-34.668,-33.203,-26.855,1.465
1688814767.535,-49.805,-36.621,-32.715,-18.066,6.836
1688814767.539,-43.945,-30.762,-29.297,-35.645,-66.406
1688814767.543,-10.254,-29.297,-29.785,-47.852,5.371
1688814767.547,-9.277,-26.855,-25.879,-35.645,23.438
1688814767.551,-28.809,-25.391,-23.926,-35.156,-141.113
1688814767.555,-64.453,-31.738,-31.250,-26.367,-51.758
1688814767.559,-75.195,-34.180,-36.621,-41.992,177.734
1688814767.562,-45.410,-32.715,-41.016,-62.988,32.715
1688814767.566,-38.086,-33.691,-43.945,-54.199,-174.805
1688814767.570,-55.176,-27.832,-39.551,-48.340,-198.242
1688814767.574,-80.078,-21.484,-31.250,-14.160,144.043
1688814767.578,-86.426,-26.367,-33.691,-21.973,283.203
1688814767.595,-55.176,-34.668,-40.039,-65.918,-117.188
1688814767.599,-26.855,-32.227,-34.180,-50.781,-152.832
1688814767.603,-32.227,-30.762,-35.156,-45.410,-0.488
1688814767.607,-60.547,-35.645,-41.016,-40.527,-69.336
1688814767.611,-69.824,-36.133,-38.086,-41.016,-114.746
1688814767.615,-54.688,-35.645,-40.527,-77.637,-56.152
1688814767.619,-57.617,-34.180,-44.922,-73.242,224.121
1688814767.622,-73.730,-33.691,-39.551,-64.453,-3.418
1688814767.626,-101.074,-31.250,-35.645,-43.945,-181.641
1688814767.630,-125.000,-29.297,-35.156,-28.320,-65.430
1688814767.634,-110.840,-28.320,-31.250,-56.641,-178.223
1688814767.638,-102.051,-32.227,-30.273,-48.828,-160.156
1688814767.640,-114.746,-34.668,-30.762,-29.785,-117.188
1688814767.644,-127.930,-29.297,-30.273,-20.020,-83.496
1688814767.648,-143.066,-27.344,-29.785,-12.207,-21.484
1688814767.652,-132.812,-29.297,-31.250,-48.828,-130.371
1688814767.656,-108.398,-29.297,-32.715,-55.176,-132.812
1688814767.660,-104.004,-25.879,-33.691,-41.016,128.906
1688814767.664,-120.605,-24.414,-37.109,-38.086,99.609
1688814767.667,-141.113,-25.391,-33.691,-26.367,-24.414
1688814767.671,-134.766,-28.809,-33.691,-58.594,-118.164
1688814767.675,-111.816,-27.832,-36.621,-62.500,98.145
1688814767.679,-106.934,-25.879,-35.156,-48.828,205.078
1688814767.683,-131.348,-28.320,-36.133,-55.664,-122.070
1688814767.686,-166.016,-31.738,-38.574,-40.527,-123.535
1688814767.690,-167.969,-33.691,-38.086,-66.895,-68.359
1688814767.694,-153.320,-35.645,-38.086,-93.750,-130.859
1688814767.698,-152.832,-35.645,-37.109,-74.219,-186.035
1688814767.702,-172.363,-34.180,-34.180,-51.758,-177.734
1688814767.706,-213.867,-30.762,-34.180,-33.691,-75.684
1688814767.710,-219.727,-33.691,-36.133,-56.641,-117.676
1688814767.713,-168.457,-38.086,-36.621,-73.730,-225.586
1688814767.717,-118.164,-37.598,-37.109,-55.664,-133.301
1688814767.721,-82.031,-40.039,-36.621,-41.992,219.238
1688814767.725,-61.035,-38.086,-34.180,-24.414,112.793
1688814767.729,-32.227,-33.691,-35.156,-49.316,-130.859
1688814767.728,11.719,-36.133,-41.504,-73.730,-96.191
1688814767.732,42.969,-31.250,-34.180,-39.551,-92.285
1688814767.736,49.805,-20.996,-28.809,-24.902,-122.070
1688814767.740,26.367,-24.902,-33.691,-11.230,-75.684
1688814767.744,25.879,-25.879,-29.785,-17.578,-5.371
1688814767.748,62.012,-26.367,-24.414,-52.734,-112.793
1688814767.752,83.984,-34.668,-24.414,-41.504,-97.168
1688814767.755,88.867,-28.809,-22.949,-23.438,-59.570
1688814767.759,63.965,-28.809,-25.391,-6.836,206.543
1688814767.763,39.551,-36.133,-26.367,-18.555,520.996
1688814767.767,60.547,-39.062,-28.320,-75.684,64.453
1688814767.771,82.031,-39.062,-29.785,-76.660,-179.688
1688814767.777,83.984,-33.203,-24.414,-55.664,-110.840
1688814767.781,63.965,-30.273,-27.832,-43.945,-123.535
1688814767.785,39.551,-35.645,-31.738,-49.316,-38.574
1688814767.789,68.359,-34.180,-32.715,-79.590,-107.422
1688814767.793,101.074,-26.855,-30.273,-70.312,-152.832
1688814767.797,86.426,-26.855,-31.250,-55.664,-55.664
1688814767.801,59.570,-29.785,-33.691,-40.527,-123.535
1688814767.804,42.969,-34.668,-35.156,-23.926,-26.367
1688814767.808,65.918,-34.180,-33.203,-43.945,168.457
1688814767.812,94.727,-30.762,-33.691,-43.945,-119.629
1688814767.816,88.867,-34.668,-37.598,-27.344,-226.074
1688814767.820,44.434,-34.668,-35.645,-20.508,-44.922
1688814767.819,2.930,-35.645,-33.691,-8.301,-6.348
1688814767.823,11.230,-40.039,-31.250,-39.062,-80.566
1688814767.827,20.508,-40.039,-32.227,-49.805,-143.066
1688814767.831,10.742,-39.062,-35.645,-30.762,-43.945
1688814767.835,0.977,-37.598,-33.691,-26.367,-27.832
1688814767.839,-20.020,-34.180,-31.250,-16.602,5.371
1688814767.843,-22.949,-35.156,-29.785,-51.270,5.859
1688814767.846,-11.230,-41.504,-35.156,-69.824,230.469
1688814767.850,-15.625,-40.039,-35.156,-48.340,371.094
1688814767.854,-35.645,-38.086,-34.180,-48.340,10.254
1688814767.858,-77.148,-41.504,-35.156,-38.086,-128.418
1688814767.862,-80.566,-38.086,-30.273,-55.664,-105.957
1688814767.867,-34.668,-38.086,-34.668,-77.637,-208.984
1688814767.871,-9.766,-42.480,-37.109,-72.266,-181.152
1688814767.875,-10.254,-39.551,-31.250,-59.570,-88.379
1688814767.879,-21.973,-33.203,-30.762,-26.367,60.547
1688814767.883,-7.324,-31.250,-28.809,-48.340,0.000
1688814767.887,32.227,-31.738,-31.250,-87.891,-115.234
1688814767.891,42.969,-29.785,-32.715,-60.059,79.102
1688814767.894,36.133,-28.320,-32.227,-40.039,263.672
1688814767.898,12.695,-33.691,-36.133,-30.273,40.039
1688814767.902,-1.465,-35.645,-34.180,-42.480,-107.910
1688814767.906,18.555,-33.691,-33.203,-70.801,-142.090
1688814767.910,29.297,-35.156,-35.645,-59.082,-147.949
1688814767.909,14.648,-31.738,-28.809,-46.875,-182.129
1688814767.913,-21.484,-28.809,-23.926,-19.043,-118.164
1688814767.917,-54.199,-30.762,-26.855,-19.531,-48.828
1688814767.921,-54.688,-33.203,-31.738,-56.641,-85.449
1688814767.925,-55.664,-32.715,-34.180,-45.410,-33.691
1688814767.929,-86.426,-36.621,-37.109,-28.809,20.020
1688814767.933,-125.977,-40.527,-39.062,-10.742,334.961
1688814767.936,-149.414,-35.156,-39.551,0.000,537.109
1688814767.940,-130.371,-31.738,-41.992,-41.992,78.613
1688814767.944,-104.980,-31.250,-37.598,-47.852,-246.094
1688814767.948,-104.980,-27.832,-29.297,-30.273,-174.316
1688814767.952,-120.117,-31.250,-29.785,-29.297,-111.816
1688814767.969,-137.207,-35.156,-31.250,-28.320,-115.234
1688814767.973,-125.488,-36.621,-36.133,-55.664,-215.332
1688814767.977,-100.098,-38.086,-33.691,-53.223,-223.633
1688814767.981,-95.703,-38.574,-31.738,-38.086,-204.102
1688814767.985,-107.422,-33.203,-34.668,-28.320,-209.961
1688814767.989,-109.375,-25.879,-31.738,-2.441,-11.719
1688814767.993,-81.055,-24.902,-33.691,-29.785,58.594
1688814767.996,-47.852,-30.273,-38.574,-44.922,-46.875
1688814768.000,-45.410,-34.668,-42.480,-33.203,-152.344
1688814768.004,-58.105,-37.109,-37.598,-25.391,-39.062
1688814768.008,-77.148,-42.480,-34.180,-4.883,287.109
1688814768.012,-81.055,-47.363,-38.086,-43.457,25.879
1688814768.013,-57.617,-45.410,-36.621,-61.035,-160.156
1688814768.017,-53.711,-41.016,-31.250,-35.645,-21.973
1688814768.021,-79.102,-38.574,-27.344,-25.879,-47.363
1688814768.025,-122.559,-39.062,-29.785,-4.883,-63.965
1688814768.029,-134.277,-38.574,-33.691,-20.020,-78.125
1688814768.033,-105.469,-38.086,-31.250,-35.156,95.703
1688814768.037,-95.703,-39.551,-29.297,-21.484,125.488
1688814768.040,-106.445,-39.062,-28.320,-13.672,0.488
1688814768.044,-128.418,-38.086,-24.414,9.277,19.043
1688814768.048,-137.695,-38.574,-23.438,-4.883,212.402
1688814768.052,-108.398,-38.086,-23.438,-41.504,210.449
1688814768.056,-81.543,-34.668,-26.367,-39.551,-96.680
1688814768.075,-83.984,-37.598,-27.832,-34.180,-146.484
1688814768.079,-102.539,-40.039,-25.879,-15.137,-84.473
1688814768.083,-108.398,-40.527,-24.902,-28.809,-120.605
1688814768.087,-74.219,-41.992,-23.926,-56.641,-168.457
1688814768.091,-43.457,-35.645,-20.996,-35.156,-161.133
1688814768.095,-48.828,-34.180,-27.344,-23.438,-76.660
1688814768.099,-81.543,-37.598,-31.250,-3.906,48.340
1688814768.102,-99.609,-32.715,-27.832,-10.254,-96.680
1688814768.106,-80.566,-28.320,-30.273,-49.316,-116.699
1688814768.110,-82.520,-30.273,-36.621,-37.109,80.078
1688814768.114,-106.934,-34.180,-37.598,-29.785,-72.754
1688814768.118,-119.629,-36.621,-34.668,-16.602,-157.715
1688814768.104,-127.930,-35.156,-34.668,-13.672,-76.172
1688814768.108,-113.770,-34.668,-34.668,-53.711,-123.535
1688814768.112,-81.055,-32.715,-35.156,-46.387,-225.586
1688814768.116,-72.266,-32.227,-40.527,-40.039,-206.055
1688814768.120,-88.867,-36.133,-39.551,-40.527,-85.449
1688814768.124,-104.980,-34.180,-39.062,-23.926,53.711
1688814768.128,-80.566,-29.297,-41.504,-54.199,13.672
1688814768.131,-52.246,-26.855,-35.645,-54.688,37.598
1688814768.135,-57.129,-26.855,-36.133,-39.062,120.117
1688814768.139,-80.566,-28.320,-35.645,-36.133,-55.664
1688814768.143,-103.027,-29.297,-35.645,-23.438,-102.051
1688814768.147,-86.914,-31.250,-36.133,-62.500,-112.305
1688814768.151,-44.922,-31.738,-38.086,-71.289,113.281
1688814768.155,-28.320,-32.715,-43.945,-51.270,256.836
1688814768.159,-36.621,-33.691,-40.527,-43.945,-141.113
1688814768.163,-46.875,-31.738,-34.668,-26.367,-152.832
1688814768.167,-29.785,-35.645,-39.062,-50.781,-79.590
1688814768.171,5.859,-34.668,-37.598,-53.223,-129.883
1688814768.175,19.531,-34.180,-35.156,-32.715,-103.516
1688814768.178,11.719,-36.621,-37.598,-23.438,-21.484
1688814768.182,-7.812,-35.156,-32.227,2.930,272.949
1688814768.186,-5.859,-34.668,-30.273,-24.414,74.219
1688814768.190,18.555,-36.621,-31.738,-62.012,-195.312
1688814768.194,19.531,-37.598,-33.691,-49.805,-83.496
1688814768.193,-10.742,-35.645,-35.156,-29.297,-113.281
1688814768.197,-70.801,-35.645,-30.273,-7.324,-155.273
1688814768.201,-94.727,-33.203,-30.762,-31.250,-83.496
1688814768.205,-66.406,-34.668,-37.598,-59.570,2.441
1688814768.209,-65.918,-37.598,-34.180,-43.457,-82.031
1688814768.213,-99.121,-37.109,-35.645,-43.945,-149.902
1688814768.217,-145.996,-42.480,-35.645,-29.297,6.836
1688814768.220,-169.434,-44.434,-33.203,-25.879,378.418
1688814768.224,-149.902,-37.598,-36.621,-54.199,406.250
1688814768.228,-132.812,-28.809,-36.133,-49.316,-92.773
1688814768.232,-142.090,-28.809,-31.738,-38.574,-177.246
1688814768.236,-170.898,-34.180,-34.668,-20.508,59.570
1688814768.241,-178.223,-38.086,-38.086,-33.691,-57.617
1688814768.245,-146.484,-39.062,-37.598,-77.148,-196.289
1688814768.249,-120.117,-35.645,-35.645,-64.941,-122.559
1688814768.253,-117.188,-31.250,-33.203,-44.434,-63.965
1688814768.257,-121.094,-29.785,-31.250,-34.180,-69.336
1688814768.261,-118.164,-26.855,-32.227,-37.598,-102.539
1688814768.265,-79.102,-31.250,-33.691,-65.430,-69.336
1688814768.268,-41.016,-35.645,-30.762,-52.734,320.801
1688814768.272,-36.133,-35.156,-30.762,-43.945,170.410
1688814768.276,-51.758,-36.133,-29.297,-33.203,-160.156
1688814768.280,-66.406,-37.598,-30.273,-22.949,-59.570
1688814768.284,-37.109,-35.645,-33.203,-60.547,-94.727
1688814768.284,3.906,-35.156,-33.203,-74.707,-173.828
1688814768.288,13.672,-32.715,-35.156,-56.641,-153.320
1688814768.292,-7.324,-28.809,-28.809,-39.062,15.625
1688814768.296,-29.785,-23.926,-24.902,-17.090,-39.551
1688814768.300,-6.836,-25.879,-27.344,-43.945,-151.367
1688814768.304,27.832,-31.738,-28.320,-66.406,-138.184
1688814768.308,27.832,-34.180,-31.738,-49.805,105.957
1688814768.311,-3.418,-29.297,-30.762,-38.574,275.879
1688814768.315,-41.016,-28.320,-30.273,-31.738,81.055
1688814768.319,-32.227,-29.297,-32.227,-68.359,-84.473
1688814768.323,-4.395,-30.273,-29.785,-85.449,73.730
1688814768.327,-3.418,-33.203,-30.273,-71.289,35.156
1688814768.374,-13.184,-31.250,-29.785,-54.688,-101.562
1688814768.378,-52.734,-30.762,-31.738,-34.668,-63.477
1688814768.382,-59.082,-40.527,-37.598,-61.035,-66.406
1688814768.386,-2.441,-41.992,-34.668,-71.289,-78.125
1688814768.390,29.297,-38.574,-28.809,-56.152,-143.555
1688814768.394,29.785,-37.598,-29.297,-48.828,-32.715
1688814768.398,18.555,-39.551,-38.086,-14.160,157.227
1688814768.401,15.137,-39.062,-40.039,-32.715,-38.574
1688814768.405,43.457,-37.598,-32.227,-65.430,-241.211
1688814768.409,57.617,-35.645,-32.227,-47.363,-87.402
1688814768.413,41.992,-36.133,-36.621,-38.086,70.801
1688814768.417,13.672,-42.969,-36.133,-21.484,-64.941
1688814768.392,3.418,-39.062,-32.715,-24.902,-133.789
1688814768.396,22.949,-34.180,-32.227,-55.176,-60.059
1688814768.400,36.133,-33.691,-38.086,-41.504,-32.227
1688814768.404,28.320,-29.297,-38.574,-27.344,-197.266
1688814768.408,-4.883,-28.809,-31.250,-18.066,-119.629
1688814768.412,-24.414,-32.715,-30.762,-20.020,74.707
1688814768.416,3.418,-30.273,-32.715,-62.012,-51.270
1688814768.419,26.367,-23.926,-32.227,-62.012,-166.504
1688814768.423,19.043,-28.809,-32.715,-43.945,-125.488
1688814768.427,-8.301,-34.180,-32.715,-35.156,20.508
1688814768.431,-27.832,-32.227,-32.715,-28.320,44.922
1688814768.435,-11.230,-29.297,-31.738,-53.711,-95.215
1688814768.436,10.254,-31.250,-31.250,-50.293,20.508
1688814768.440,3.906,-34.180,-34.180,-21.973,256.348
1688814768.444,-22.949,-35.645,-35.645,-9.766,51.758
1688814768.448,-45.410,-36.621,-37.109,-7.324,-126.465
1688814768.452,-30.273,-39.062,-35.156,-38.086,-1.953
1688814768.456,-13.184,-43.457,-31.738,-39.062,243.164
1688814768.460,-18.066,-40.039,-29.785,-22.949,114.746
1688814768.463,-41.016,-38.086,-26.367,-21.973,-113.281
1688814768.467,-62.500,-38.086,-22.461,-13.184,-8.789
1688814768.471,-40.039,-35.156,-22.461,-25.391,232.422
1688814768.475,-11.230,-38.574,-29.297,-35.156,4.883
1688814768.479,-12.695,-42.969,-35.156,-27.832,-236.816
1688814768.493,-32.227,-40.039,-33.691,-19.043,-16.602
1688814768.497,-61.035,-37.109,-28.809,-2.441,160.645
1688814768.501,-60.059,-39.551,-27.832,-37.109,-13.184
1688814768.505,-40.039,-37.598,-31.738,-58.594,-95.703
1688814768.509,-37.598,-33.203,-26.855,-34.180,3.418
1688814768.513,-54.688,-31.738,-21.973,-27.344,56.641
1688814768.517,-85.449,-30.762,-32.227,-14.160,39.551
1688814768.520,-84.961,-31.738,-30.762,-41.016,-71.777
1688814768.524,-62.500,-36.133,-25.391,-61.523,65.918
1688814768.528,-67.871,-41.992,-31.250,-36.621,216.309
1688814768.532,-92.285,-40.039,-30.273,-34.180,-52.246
1688814768.536,-120.117,-41.992,-30.273,-25.391,-178.711
1688814768.525,-122.070,-42.969,-33.691,-39.551,-130.859
1688814768.529,-85.449,-39.551,-31.250,-62.500,-209.473
1688814768.533,-74.219,-42.480,-33.203,-50.781,-235.352
1688814768.537,-101.074,-43.457,-35.156,-43.945,-213.379
1688814768.541,-136.230,-37.598,-28.809,-24.414,-85.938
1688814768.545,-151.855,-33.203,-25.879,-33.203,-44.922
1688814768.549,-130.371,-35.645,-30.273,-71.777,-127.441
1688814768.552,-99.121,-35.645,-31.738,-57.129,-68.848
1688814768.556,-91.309,-31.250,-30.273,-40.527,-107.422
1688814768.560,-108.887,-25.391,-34.180,-23.438,-123.535
1688814768.564,-113.770,-20.996,-35.156,-28.320,-117.188
1688814768.568,-84.473,-26.367,-33.203,-67.871,-63.965
1688814768.570,-52.734,-27.344,-32.227,-51.270,162.598
1688814768.574,-49.316,-24.902,-32.715,-33.691,-47.852
1688814768.578,-75.684,-32.227,-31.250,-13.184,-159.180
1688814768.582,-98.633,-34.180,-31.250,-3.418,-70.801
1688814768.586,-84.473,-29.785,-33.691,-47.363,-155.762
1688814768.590,-70.801,-29.785,-36.133,-43.945,-159.668
1688814768.594,-81.543,-31.738,-38.086,-32.227,-134.277
1688814768.597,-106.445,-33.691,-38.086,-27.344,212.402
1688814768.601,-125.977,-32.715,-32.715,-9.277,433.105
1688814768.605,-100.098,-29.785,-36.133,-55.176,20.508
1688814768.609,-63.965,-32.715,-38.086,-69.336,-163.574
1688814768.613,-62.012,-35.645,-35.645,-48.828,-51.758
1688814768.630,-74.219,-35.156,-40.039,-47.852,-94.238
1688814768.634,-82.520,-35.156,-33.203,-30.762,-156.250
1688814768.638,-58.594,-33.203,-28.809,-54.199,-134.277
1688814768.642,-20.508,-33.691,-35.156,-63.965,77.148
1688814768.646,-3.418,-32.227,-34.180,-53.223,-60.547
1688814768.650,-2.441,-25.879,-32.715,-42.480,-131.348
1688814768.654,-15.137,-26.367,-32.715,-25.879,126.953
1688814768.657,0.000,-30.762,-33.691,-55.664,290.039
1688814768.661,43.945,-31.738,-38.086,-62.988,57.617
1688814768.665,64.941,-28.809,-36.133,-47.363,-105.957
1688814768.669,50.781,-31.738,-35.156,-45.410,28.320
1688814768.673,24.902,-34.180,-35.156,-17.090,89.355
1688814768.658,25.879,-31.250,-34.668,-38.086,-63.477
1688814768.662,53.223,-31.738,-35.645,-67.871,-183.105
1688814768.666,63.965,-32.227,-33.691,-43.457,-91.797
1688814768.670,54.688,-32.227,-33.203,-34.668,-149.902
1688814768.674,32.227,-32.715,-32.227,-23.926,-163.574
1688814768.678,24.902,-31.250,-34.668,-34.180,-23.926
1688814768.682,52.734,-31.250,-40.527,-70.801,13.184
1688814768.685,74.219,-28.320,-39.062,-68.359,-37.598
1688814768.689,72.754,-26.367,-34.668,-45.898,-145.996
1688814768.693,51.270,-28.809,-32.715,-21.973,-142.578
1688814768.697,41.504,-28.809,-34.668,-29.297,178.223
1688814768.701,71.289,-26.367,-33.203,-52.734,345.215
1688814768.718,91.797,-26.855,-32.715,-51.758,5.371
1688814768.722,82.520,-28.320,-36.621,-52.246,-149.414
1688814768.726,52.246,-26.367,-35.156,-34.668,-11.719
1688814768.730,37.109,-21.973,-29.785,-33.203,-20.996
1688814768.734,55.664,-23.438,-28.809,-67.383,-133.301
1688814768.738,73.730,-24.902,-26.367,-62.988,-29.297
1688814768.742,63.477,-23.926,-22.949,-42.969,221.191
1688814768.745,33.691,-28.809,-20.996,-24.902,0.488
1688814768.749,4.395,-33.691,-20.508,-26.855,-161.621
1688814768.753,13.184,-30.762,-26.367,-65.918,-108.398
1688814768.757,40.527,-26.367,-27.832,-56.152,-151.855
1688814768.761,24.414,-25.879,-23.926,-35.156,-195.312
1688814768.764,-26.367,-27.344,-26.855,-23.926,-107.910
1688814768.768,-77.637,-29.785,-30.762,-20.508,-25.391
1688814768.772,-83.008,-26.855,-27.832,-47.852,-75.195
1688814768.776,-64.453,-25.391,-25.391,-41.992,-120.117
1688814768.780,-76.660,-31.738,-29.297,-30.762,-134.277
1688814768.784,-109.375,-31.738,-31.250,-18.555,215.820
1688814768.788,-145.508,-28.809,-32.715,0.977,359.375
1688814768.791,-145.996,-29.785,-31.738,-32.227,-36.133
1688814768.795,-116.211,-29.785,-25.879,-49.805,-222.656
1688814768.799,-114.746,-30.762,-25.391,-34.180,73.242
1688814768.803,-128.906,-33.203,-28.809,-30.273,72.754
1688814768.807,-137.207,-37.598,-33.203,-24.414,-112.793
1688814768.810,-116.211,-35.645,-32.715,-50.293,-143.066
1688814768.814,-75.195,-32.227,-30.273,-73.730,-171.875
1688814768.818,-62.500,-31.738,-33.691,-59.570,-187.012
1688814768.822,-78.125,-27.344,-34.668,-50.781,-158.203
1688814768.826,-103.027,-24.414,-32.227,-31.250,13.184
1688814768.830,-90.820,-24.414,-31.250,-42.969,78.125
1688814768.834,-58.594,-25.879,-31.250,-64.453,13.672
1688814768.837,-53.223,-26.367,-31.250,-49.316,-20.996
1688814768.841,-60.059,-22.949,-29.785,-37.598,-26.367
1688814768.845,-80.566,-23.438,-26.855,-17.578,181.641
1688814768.849,-86.426,-29.785,-31.738,-43.457,0.977
1688814768.853,-56.641,-34.668,-33.203,-78.613,-203.613
1688814768.853,-41.504,-38.574,-30.273,-54.199,-86.914
1688814768.857,-50.293,-33.691,-27.832,-29.297,-81.543
1688814768.861,-72.754,-29.785,-28.809,-11.719,-142.090
1688814768.865,-81.055,-33.203,-28.320,-30.273,-104.980
1688814768.869,-38.086,-34.180,-25.391,-57.129,-67.871
1688814768.873,-2.441,-33.203,-22.949,-45.410,-51.270
1688814768.877,-9.277,-30.762,-23.438,-41.016,-103.516
1688814768.880,-36.133,-31.738,-28.320,-23.438,-22.949
1688814768.884,-53.711,-32.715,-31.738,-20.508,343.750
1688814768.888,-26.855,-31.738,-37.598,-55.664,340.332
1688814768.892,-4.883,-33.203,-37.598,-56.152,-128.418
1688814768.896,-24.902,-37.109,-34.668,-57.129,-267.578
1688814768.900,-55.176,-39.062,-39.551,-46.875,-92.773
1688814768.904,-64.453,-33.203,-36.621,-39.062,-94.238
1688814768.908,-41.016,-33.203,-35.645,-86.426,-181.152
1688814768.912,-20.996,-41.016,-35.645,-92.773,-174.805
1688814768.916,-21.484,-35.156,-30.762,-75.684,-147.949
1688814768.920,-44.434,-32.227,-35.645,-66.895,-4.395
1688814768.924,-69.336,-35.645,-39.062,-55.176,-0.977
1688814768.927,-49.805,-30.762,-37.109,-84.961,-50.781
1688814768.931,-21.484,-32.227,-40.039,-93.750,107.422
1688814768.935,-14.160,-35.156,-44.922,-86.914,-39.062
1688814768.939,-31.738,-34.668,-45.898,-89.844,-197.754
1688814768.943,-53.223,-37.109,-45.410,-80.078,-62.012
1688814768.944,-32.227,-39.062,-42.480,-116.211,-124.512
1688814768.948,12.207,-37.109,-36.621,-132.812,-274.414
1688814768.952,30.273,-35.645,-36.133,-107.422,-172.363
1688814768.956,18.555,-39.551,-38.086,-95.703,-107.422
1688814768.960,-3.906,-40.527,-36.133,-82.031,-83.008
1688814768.964,15.625,-31.738,-32.227,-110.352,-94.238
1688814768.968,62.988,-23.438,-27.344,-117.188,-135.254
1688814768.971,72.754,-21.973,-24.902,-88.379,214.355
1688814768.975,65.430,-25.879,-23.926,-78.613,359.375
1688814768.979,47.852,-29.785,-25.391,-67.871,2.441
1688814768.983,39.062,-30.762,-27.344,-101.562,-139.648
1688814768.987,67.383,-25.879,-26.855,-116.211,-77.148
1688814768.991,70.312,-29.785,-30.273,-98.145,-100.098
1688814768.995,50.781,-33.203,-31.250,-100.098,-236.328
1688814768.999,28.809,-29.297,-25.391,-79.102,-91.797
1688814769.003,22.949,-34.668,-23.438,-100.098,41.504
1688814769.007,57.617,-39.062,-20.508,-133.789,-150.879
1688814769.011,77.148,-34.180,-19.531,-109.863,-127.441
1688814769.015,62.012,-34.180,-23.438,-89.355,45.898
1688814769.018,41.016,-35.645,-22.949,-59.570,194.824
1688814769.022,31.738,-30.762,-26.367,-77.637,-6.836
1688814769.026,51.270,-29.785,-31.250,-121.094,-220.703
1688814769.030,60.547,-34.668,-35.156,-104.492,-100.586
1688814769.034,41.016,-34.180,-37.109,-88.379,4.395
1688814769.035,6.836,-31.738,-36.133,-82.520,-71.777
1688814769.039,-20.020,-25.879,-32.715,-86.914,-99.121
1688814769.043,-4.395,-25.391,-31.250,-110.840,47.363
1688814769.047,7.812,-28.320,-29.785,-99.609,-41.016
1688814769.051,-5.371,-28.320,-28.809,-81.055,-129.883
1688814769.055,-21.973,-32.715,-26.855,-61.035,23.926
1688814769.059,-42.480,-34.668,-32.227,-39.551,290.039
1688814769.062,-21.973,-31.250,-34.668,-57.617,407.715
1688814769.066,14.648,-29.785,-29.785,-53.223,-18.066
1688814769.070,11.230,-28.320,-28.809,-30.273,-136.719
1688814769.074,-32.715,-27.344,-27.832,-15.137,78.125
1688814769.078,-73.242,-29.297,-27.832,-12.695,-1.953
1688814769.094,-60.547,-27.344,-26.367,-40.039,-190.918
1688814769.098,-36.133,-26.367,-20.020,-41.016,-143.066
1688814769.102,-39.551,-28.320,-23.438,-27.344,-95.215
1688814769.106,-61.035,-25.879,-32.227,-16.113,-111.328
1688814769.110,-98.145,-22.461,-36.621,-0.488,-23.926
1688814769.114,-99.609,-27.344,-34.668,-26.367,108.887
1688814769.118,-76.660,-31.738,-30.273,-31.250,354.980
1688814769.121,-78.613,-31.250,-31.250,-15.137,82.520
1688814769.125,-97.656,-34.668,-31.738,-11.719,-156.738
1688814769.129,-120.605,-31.250,-29.297,2.441,31.738
1688814769.133,-110.352,-23.438,-29.297,-21.973,41.992
1688814769.137,-70.801,-27.344,-34.180,-43.457,-137.695
1688814769.138,-52.734,-27.344,-34.180,-24.902,-166.504
1688814769.142,-60.547,-28.809,-30.762,-12.695,-106.445
1688814769.146,-82.031,-36.133,-35.156,6.836,-55.664
1688814769.150,-76.172,-35.156,-39.062,-16.602,-109.375
1688814769.154,-44.922,-37.598,-34.668,-35.645,-132.324
1688814769.158,-34.668,-37.598,-33.203,-5.371,49.316
1688814769.162,-50.293,-34.668,-32.715,6.836,18.066
1688814769.165,-75.195,-37.109,-32.715,23.438,-5.371
1688814769.169,-89.844,-36.621,-33.203,5.859,-19.043
1688814769.173,-72.754,-34.668,-29.785,-13.184,178.711
1688814769.177,-65.430,-35.645,-32.715,2.441,377.441
1688814769.181,-85.938,-37.109,-33.203,-3.418,20.508
1688814769.186,-111.816,-36.621,-26.367,13.672,-138.672
1688814769.190,-105.957,-32.715,-23.438,8.301,-81.543
1688814769.194,-70.312,-28.320,-23.438,-29.297,-160.645
1688814769.198,-57.617,-24.902,-22.461,-17.578,-199.707
1688814769.202,-72.754,-23.438,-21.973,-0.977,-178.711
1688814769.206,-103.516,-25.879,-21.484,10.742,-60.059
1688814769.210,-120.117,-26.855,-24.414,6.836,-19.043
1688814769.213,-91.309,-29.297,-32.227,-26.855,-189.941
1688814769.217,-64.453,-27.832,-30.762,-18.555,-124.512
1688814769.221,-71.777,-27.344,-33.691,-7.324,289.062
1688814769.225,-89.844,-33.203,-36.621,-1.465,240.723
1688814769.229,-99.121,-39.062,-37.598,-12.207,-21.484
1688814769.229,-66.406,-38.574,-40.527,-45.898,-88.867
1688814769.233,-31.250,-40.527,-39.551,-47.363,-98.633
1688814769.237,-24.902,-37.109,-34.180,-40.039,-115.723
1688814769.241,-32.715,-30.762,-26.367,-20.996,-153.320
1688814769.245,-66.895,-39.062,-27.832,-5.859,18.555
1688814769.249,-87.402,-45.898,-31.250,-35.156,23.438
1688814769.253,-70.312,-45.898,-27.344,-38.086,-98.145
1688814769.256,-68.359,-44.922,-30.273,-25.391,70.801
1688814769.260,-92.773,-43.457,-29.297,-16.113,296.387
1688814769.264,-125.488,-46.387,-25.391,7.324,386.719
1688814769.268,-135.742,-46.875,-30.273,-27.832,3.906
1688814769.272,-118.164,-43.945,-35.645,-44.922,-136.719
1688814769.276,-100.098,-39.062,-35.156,-20.996,65.430
1688814769.280,-94.238,-34.668,-33.691,-10.254,-23.438
1688814769.284,-100.586,-35.156,-35.645,-0.977,-67.871
1688814769.288,-83.496,-39.551,-37.598,-27.832,-28.809
1688814769.292,-46.875,-36.621,-37.109,-46.875,-112.793
1688814769.296,-36.621,-32.227,-28.320,-27.832,-17.090
1688814769.300,-49.316,-37.109,-27.344,-26.367,5.371
1688814769.303,-67.383,-39.062,-27.832,-9.277,59.570
1688814769.307,-62.988,-37.109,-31.250,-22.949,192.871
1688814769.311,-33.691,-37.109,-31.250,-44.922,-113.770
1688814769.315,-22.461,-31.738,-25.879,-20.020,-255.859
1688814769.319,-46.387,-33.691,-29.785,-25.391,-111.328
1688814769.320,-89.355,-40.039,-31.250,-22.461,-60.059
1688814769.324,-100.098,-40.039,-34.668,-36.621,-88.379
1688814769.328,-64.453,-39.551,-35.156,-57.617,-102.539
1688814769.332,-45.898,-38.086,-35.645,-38.086,-35.156
1688814769.336,-51.758,-39.062,-40.527,-30.273,62.012
1688814769.340,-66.895,-40.039,-41.504,-13.672,88.379
1688814769.344,-70.801,-37.598,-41.016,-23.438,10.742
1688814769.347,-36.133,-36.621,-39.551,-54.199,250.000
1688814769.351,-14.160,-40.039,-37.598,-41.016,423.828
1688814769.355,-26.367,-41.992,-40.039,-38.574,9.766
1688814769.359,-58.105,-41.016,-39.551,-21.484,-61.523
1688814769.363,-71.777,-41.992,-34.180,-18.555,14.648
1688814769.380,-39.551,-41.992,-35.156,-55.176,-149.902
1688814769.384,-14.648,-41.016,-41.016,-46.387,-165.039
1688814769.388,-11.719,-38.086,-38.086,-24.902,-144.531
1688814769.392,-17.578,-37.109,-33.691,-6.836,-61.035
1688814769.396,-23.926,-36.133,-33.203,-8.789,-35.156
1688814769.400,-0.488,-33.691,-32.715,-49.805,-107.910
1688814769.404,25.391,-34.668,-35.156,-44.434,30.273
1688814769.407,30.273,-39.062,-36.621,-21.973,289.062
1688814769.411,20.508,-44.434,-40.527,-17.578,143.066
1688814769.415,13.184,-41.504,-43.945,-11.230,-47.363
1688814769.419,34.668,-40.039,-42.969,-51.270,-86.914
1688814769.423,59.570,-38.574,-43.945,-59.082,-171.387
1688814769.409,62.012,-37.598,-41.504,-36.621,-187.012
1688814769.413,45.898,-38.574,-39.062,-27.832,-172.363
1688814769.417,19.043,-37.598,-41.504,-10.254,-37.598
1688814769.421,22.949,-40.527,-44.434,-45.898,-37.109
1688814769.425,55.176,-40.527,-44.922,-60.059,-159.180
1688814769.429,61.523,-40.039,-42.969,-31.738,-72.266
1688814769.433,38.086,-36.621,-39.551,-15.625,141.113
1688814769.436,3.906,-32.227,-36.621,1.953,159.180
1688814769.440,-7.812,-41.504,-41.016,-27.344,-28.320
1688814769.444,1.465,-40.039,-44.434,-48.828,-189.453
1688814769.448,-15.137,-35.156,-37.109,-16.602,40.527
1688814769.452,-55.664,-38.574,-31.250,-1.465,310.059
1688814769.470,-97.656,-41.504,-36.133,4.395,93.262
1688814769.474,-105.469,-48.828,-42.480,-14.648,-105.469
1688814769.478,-73.730,-52.734,-39.062,-35.645,-75.195
1688814769.482,-54.688,-46.387,-33.691,-27.344,-85.449
1688814769.486,-50.293,-41.016,-35.645,-18.066,-177.734
1688814769.490,-56.641,-39.062,-37.598,7.324,-29.785
1688814769.494,-33.691,-35.645,-41.504,-7.324,217.285
1688814769.497,21.484,-33.203,-44.434,-41.992,-28.809
1688814769.501,55.664,-35.645,-38.086,-25.879,-236.816
1688814769.505,44.434,-40.039,-38.574,-26.855,-11.719
1688814769.509,-5.859,-40.527,-40.039,-10.742,171.875
1688814769.513,-41.016,-41.992,-39.551,-18.066,-77.637
1688814769.513,-36.621,-39.062,-42.480,-62.500,-252.441
1688814769.517,-39.551,-36.133,-43.457,-57.617,-204.590
1688814769.521,-65.918,-35.645,-42.480,-37.109,-144.043
1688814769.525,-97.168,-30.762,-38.574,-19.043,-128.418
1688814769.529,-122.559,-25.879,-37.598,-17.578,-47.852
1688814769.533,-104.980,-27.344,-44.434,-49.805,42.480
1688814769.537,-63.965,-30.273,-49.316,-45.410,20.996
1688814769.540,-45.410,-32.715,-45.898,-33.691,-74.219
1688814769.544,-51.270,-38.086,-47.852,-20.020,-85.938
1688814769.548,-56.152,-39.062,-48.828,-9.766,216.797
1688814769.552,-27.832,-35.156,-44.922,-43.457,253.418
1688814769.556,-1.953,-31.738,-42.480,-49.316,-96.191
1688814769.560,-7.812,-33.691,-41.504,-36.621,-172.852
1688814769.564,-30.273,-39.551,-38.574,-14.648,16.113
1688814769.568,-49.805,-44.922,-41.016,-4.395,3.418
1688814769.572,-40.039,-42.480,-43.945,-48.828,-143.555
1688814769.576,-24.902,-38.574,-40.527,-52.734,-122.070
1688814769.580,-24.414,-40.039,-40.527,-26.855,37.598
1688814769.584,-33.203,-41.992,-43.945,-20.508,58.594
1688814769.587,-44.922,-44.434,-44.434,-9.766,10.254
1688814769.591,-22.949,-44.434,-41.504,-29.297,16.113
1688814769.595,11.719,-41.992,-44.434,-35.645,115.723
1688814769.599,16.113,-37.109,-44.434,-26.855,-75.195
1688814769.603,-16.113,-33.691,-40.527,-23.438,-181.641
1688814769.603,-58.594,-36.621,-41.016,-9.277,-38.086
1688814769.607,-66.895,-34.668,-39.551,-37.109,-21.973
1688814769.611,-61.035,-31.738,-42.480,-56.152,-181.641
1688814769.615,-64.941,-33.203,-44.434,-34.180,-179.199
1688814769.619,-90.820,-33.691,-40.039,-13.184,50.781
1688814769.623,-133.789,-37.109,-39.062,1.465,154.297
1688814769.627,-141.113,-33.691,-33.691,-28.809,17.578
1688814769.630,-114.258,-28.320,-28.809,-56.152,-34.668
1688814769.634,-99.609,-32.715,-36.133,-38.574,181.641
1688814769.638,-99.121,-33.691,-39.551,-33.691,304.199
1688814769.642,-111.816,-38.086,-37.598,-24.414,-8.301
1688814769.646,-102.051,-41.992,-35.645,-25.391,-100.586
1688814769.650,-53.223,-41.504,-35.645,-52.734,-103.027
1688814769.654,-19.043,-39.062,-39.062,-36.133,-163.086
1688814769.658,-12.207,-36.133,-36.621,-19.531,-157.715
1688814769.662,-25.879,-38.086,-32.715,-14.648,-31.738
1688814769.666,-22.461,-36.621,-34.668,-17.090,71.289
1688814769.670,17.578,-36.133,-34.668,-48.340,-78.613
1688814769.674,48.340,-39.062,-36.621,-34.668,-118.164
1688814769.677,47.852,-36.133,-31.250,-19.043,-79.102
1688814769.681,16.602,-33.691,-32.227,0.977,130.371
1688814769.685,5.371,-35.645,-33.691,5.859,29.785
1688814769.689,38.574,-42.969,-29.785,-33.203,-167.969
1688814769.693,51.270,-44.434,-37.109,-30.762,-155.762
1688814769.693,44.922,-41.016,-39.062,-29.297,-124.512
1688814769.697,28.809,-44.922,-41.504,-27.344,-106.934
1688814769.701,14.160,-42.969,-46.387,-22.949,-51.270
1688814769.705,39.551,-41.016,-43.457,-55.176,-79.102
1688814769.709,62.988,-41.016,-36.621,-55.664,-175.781
1688814769.713,45.410,-43.457,-39.062,-43.945,-153.320
1688814769.717,10.742,-45.898,-40.039,-41.016,22.461
1688814769.720,-14.160,-45.898,-41.016,-22.461,375.977
1688814769.724,-1.465,-42.969,-43.945,-40.527,517.578
1688814769.728,33.691,-39.551,-41.504,-49.805,102.051
1688814769.732,49.316,-41.016,-43.457,-32.715,-184.570
1688814769.736,36.621,-45.898,-47.852,-22.461,-106.934
1688814769.741,12.695,-49.316,-46.875,-14.160,-93.262
1688814769.745,20.508,-48.340,-43.457,-48.340,-187.988
1688814769.749,45.410,-45.898,-41.504,-59.082,-234.375
1688814769.753,43.945,-45.898,-41.504,-46.875,-166.016
1688814769.757,23.438,-40.039,-37.598,-43.457,-124.512
1688814769.761,-7.812,-38.086,-37.109,-25.879,-75.684
1688814769.765,-7.324,-41.504,-42.480,-47.363,34.180
1688814769.768,24.414,-33.691,-43.457,-57.129,239.258
1688814769.772,39.062,-29.297,-38.086,-38.574,116.211
1688814769.776,30.762,-29.297,-37.109,-32.715,-125.488
1688814769.780,0.000,-31.250,-41.504,-16.113,-51.270
1688814769.784,-19.043,-39.551,-46.387,-38.574,-71.777
1688814769.785,-3.906,-43.457,-48.340,-62.012,-186.523
1688814769.789,4.395,-41.016,-45.410,-38.574,-185.059
1688814769.793,-10.254,-39.551,-41.016,-32.715,-101.074
1688814769.797,-34.668,-40.039,-41.992,-21.973,-15.625
1688814769.801,-41.992,-47.852,-45.898,-36.133,-101.074
1688814769.805,-15.625,-49.316,-49.805,-79.102,-124.512
1688814769.809,1.953,-50.293,-50.781,-63.965,249.512
1688814769.812,-0.488,-51.270,-46.875,-38.086,481.934
1688814769.816,-10.254,-41.504,-43.945,-15.625,34.180
1688814769.820,-19.043,-41.992,-43.945,-22.461,-114.746
1688814769.824,5.371,-44.434,-45.410,-60.059,-29.785
1688814769.828,22.461,-41.016,-43.945,-52.734,-129.883
1688814769.844,3.418,-41.504,-42.969,-47.363,-200.684
1688814769.848,-23.926,-49.805,-47.852,-32.715,-125.488
1688814769.852,-40.039,-49.805,-46.387,-31.738,-56.641
1688814769.856,-19.043,-41.016,-46.875,-62.012,-164.062
1688814769.860,-3.906,-40.527,-45.898,-57.129,-259.766
1688814769.864,-20.996,-42.969,-44.922,-44.434,-110.840
1688814769.868,-43.945,-42.969,-46.387,-20.996,290.527
1688814769.871,-57.617,-38.574,-41.504,-13.184,165.039
1688814769.875,-45.898,-44.922,-43.457,-54.199,-240.234
1688814769.879,-33.203,-50.781,-43.457,-46.875,-164.551
1688814769.883,-51.758,-49.316,-38.086,-32.227,31.738
1688814769.887,-84.473,-44.434,-38.574,-22.461,-90.332
1688814769.890,-108.398,-38.086,-39.551,-13.672,-70.801
1688814769.894,-95.703,-40.527,-43.457,-54.199,8.789
1688814769.898,-75.684,-41.504,-43.945,-56.641,-86.426
1688814769.902,-68.848,-37.109,-41.016,-38.574,-141.602
1688814769.906,-73.242,-38.086,-41.504,-28.809,-85.938
1688814769.910,-86.914,-41.016,-42.969,-17.578,189.941
1688814769.914,-68.359,-47.363,-43.945,-43.457,145.508
1688814769.917,-26.367,-46.875,-46.875,-50.293,-25.879
1688814769.921,-0.977,-41.504,-47.363,-35.156,-8.789
1688814769.925,-9.766,-37.109,-47.363,-30.273,129.883
1688814769.929,-31.738,-36.621,-44.922,-36.621,100.098
1688814769.933,-23.926,-43.945,-41.016,-50.293,-192.383
1688814769.935,-8.789,-46.875,-34.668,-41.992,-175.293
1688814769.939,-12.207,-46.387,-35.156,-30.273,-152.832
1688814769.943,-18.066,-40.039,-31.250,-18.555,-162.598
1688814769.947,-37.109,-39.551,-24.902,-13.184,-18.555
1688814769.951,-48.340,-42.969,-29.297,-30.762,-8.789
1688814769.955,-34.668,-42.480,-31.738,-36.621,23.438
1688814769.959,-37.109,-41.504,-30.273,-28.809,46.875
1688814769.962,-59.082,-37.598,-30.273,-28.809,-69.824
1688814769.966,-75.684,-34.180,-27.832,-27.832,-29.297
1688814769.970,-88.379,-40.039,-30.762,-35.156,232.910
1688814769.974,-86.914,-45.410,-31.250,-39.062,34.180
1688814769.978,-86.426,-41.504,-33.203,-21.973,-201.172
1688814769.981,-109.863,-38.086,-36.621,-15.137,-105.469
1688814769.985,-115.234,-38.086,-38.086,-19.531,-77.637
1688814769.989,-83.008,-37.598,-36.133,-23.438,-104.004
1688814769.993,-41.992,-36.133,-34.668,-28.320,-137.207
1688814769.997,-21.484,-35.156,-33.691,-24.414,-86.426
1688814770.001,-35.156,-41.504,-35.645,-29.785,-66.406
1688814770.005,-63.965,-43.457,-37.598,-32.715,-9.766
1688814770.008,-78.613,-40.527,-35.645,-36.133,59.082
1688814770.012,-67.871,-41.992,-36.133,-46.875,187.012
1688814770.016,-52.246,-43.945,-39.551,-36.133,119.141
1688814770.020,-50.781,-42.480,-37.598,-28.320,-162.109
1688814770.024,-67.383,-37.598,-33.691,-33.691,-121.582
1688814770.025,-82.520,-41.016,-37.109,-45.898,-18.066
1688814770.029,-64.453,-40.039,-38.574,-45.898,-129.883
1688814770.033,-41.504,-36.621,-38.574,-27.832,-200.684
1688814770.037,-41.016,-37.598,-38.086,-20.508,-116.211
1688814770.041,-52.734,-41.016,-37.598,-22.461,204.102
1688814770.045,-59.570,-41.016,-38.574,-22.461,188.965
1688814770.049,-46.387,-42.969,-38.574,-28.320,-24.414
1688814770.052,-24.902,-41.992,-33.691,-23.438,-11.230
1688814770.056,-24.902,-42.480,-35.645,-17.578,215.332
1688814770.060,-30.762,-41.992,-34.180,-16.602,180.664
1688814770.064,-30.273,-36.621,-29.785,-18.066,-149.414
1688814770.068,-22.461,-39.551,-36.133,-31.250,-220.215
1688814770.069,2.441,-40.039,-40.039,-29.297,-197.266
1688814770.073,11.230,-39.551,-40.039,-29.785,-196.289
1688814770.077,0.000,-41.016,-38.086,-33.691,-201.660
1688814770.081,-5.859,-39.062,-34.180,-32.227,-137.207
1688814770.085,3.906,-34.180,-34.668,-38.086,-84.473
1688814770.089,32.227,-34.668,-39.551,-37.598,-42.969
1688814770.093,43.457,-36.621,-42.969,-27.344,-131.836
1688814770.096,31.738,-34.180,-44.434,-15.625,188.477
1688814770.100,18.066,-34.180,-37.598,-15.137,365.723
1688814770.104,24.414,-38.086,-37.598,-31.738,-48.828
1688814770.108,38.574,-39.551,-41.016,-36.133,-44.434
1688814770.112,42.969,-37.109,-37.109,-28.320,9.766
1688814770.130,32.227,-37.598,-38.086,-27.832,-115.723
1688814770.134,7.812,-38.086,-40.527,-33.691,-136.719
1688814770.138,-4.395,-40.527,-44.922,-45.410,-119.629
1688814770.142,20.020,-37.598,-46.387,-41.504,-39.062
1688814770.146,28.809,-34.180,-46.387,-29.297,-127.441
1688814770.150,17.578,-36.133,-44.922,-31.738,-205.078
1688814770.154,7.812,-35.156,-39.551,-29.785,-32.227
1688814770.157,-3.906,-35.645,-38.086,-31.738,177.246
1688814770.161,13.672,-37.598,-38.574,-36.621,-86.914
1688814770.165,26.855,-33.691,-36.133,-26.855,-189.453
1688814770.169,10.742,-38.086,-38.574,-22.461,-104.980
1688814770.173,-8.301,-35.156,-33.691,-21.973,-48.340
1688814770.160,-19.531,-28.320,-30.273,-26.855,-16.602
1688814770.164,-12.207,-34.180,-36.621,-34.180,-106.445
1688814770.168,-14.160,-32.715,-41.992,-28.320,-36.133
1688814770.172,-41.016,-38.086,-45.410,-33.691,-65.430
1688814770.176,-57.129,-43.945,-45.898,-42.969,-78.125
1688814770.180,-67.383,-39.062,-43.945,-49.316,44.434
1688814770.184,-59.570,-39.062,-41.504,-55.176,124.023
1688814770.187,-59.082,-41.016,-39.062,-40.527,81.543
1688814770.191,-81.543,-36.621,-38.574,-33.203,-88.867
1688814770.195,-96.680,-35.156,-41.016,-37.598,-187.012
1688814770.199,-112.305,-35.156,-41.992,-36.133,148.926
1688814770.203,-112.305,-37.109,-39.062,-48.828,289.551
1688814770.220,-86.914,-39.062,-37.598,-55.664,-12.695
1688814770.224,-72.266,-35.645,-42.969,-43.945,-80.078
1688814770.228,-88.379,-32.227,-41.992,-39.062,19.531
1688814770.232,-99.609,-33.203,-40.527,-33.203,-15.625
1688814770.236,-84.961,-36.133,-39.551,-45.410,-198.730
1688814770.240,-69.824,-35.645,-37.598,-41.992,-93.262
1688814770.244,-75.195,-32.227,-41.504,-20.996,262.695
1688814770.247,-93.750,-32.227,-42.969,-26.855,22.461
1688814770.251,-99.121,-33.203,-39.551,-38.574,-272.949
1688814770.255,-73.730,-38.086,-38.574,-53.711,-114.258
1688814770.259,-50.293,-41.992,-45.410,-47.852,28.320
1688814770.263,-55.176,-35.645,-42.969,-32.715,-152.344
1688814770.263,-70.801,-32.715,-38.086,-34.668,-199.707
1688814770.267,-79.590,-38.574,-32.227,-30.762,-106.934
1688814770.271,-72.266,-38.086,-33.691,-40.039,-144.531
1688814770.275,-44.434,-37.598,-38.086,-48.340,-239.746
1688814770.279,-21.484,-40.039,-35.645,-41.016,-127.930
1688814770.283,-18.066,-36.133,-38.574,-37.109,185.059
1688814770.287,-19.531,-37.109,-38.574,-36.133,89.844
1688814770.290,-10.742,-36.621,-34.180,-43.945,-56.152
1688814770.294,15.137,-33.691,-34.180,-44.922,26.367
1688814770.298,26.855,-35.645,-35.645,-30.762,186.035
1688814770.302,16.113,-34.668,-33.203,-29.297,123.047
1688814770.306,0.000,-36.133,-32.715,-39.062,-162.109
1688814770.325,-6.348,-41.016,-37.598,-49.805,-118.164
1688814770.329,9.277,-40.527,-41.016,-54.688,110.840
1688814770.333,13.184,-37.109,-40.039,-56.152,2.930
1688814770.337,0.488,-40.527,-39.551,-50.781,-122.559
1688814770.341,-11.230,-46.387,-43.945,-50.781,-95.703
1688814770.345,-9.277,-37.598,-39.062,-61.035,-68.359
1688814770.349,8.301,-35.156,-38.086,-62.500,-91.797
1688814770.352,24.414,-40.527,-43.457,-52.246,-172.852
1688814770.356,18.555,-36.133,-40.039,-42.969,-64.941
1688814770.360,0.977,-36.621,-36.621,-30.762,295.898
1688814770.364,-9.277,-37.109,-33.203,-31.738,104.492
1688814770.368,-1.953,-35.645,-35.645,-47.363,-169.922
1688814770.354,12.695,-39.062,-40.527,-43.457,-60.547
1688814770.358,10.742,-41.504,-35.645,-35.645,-104.004
1688814770.362,-3.418,-39.062,-35.156,-36.621,-174.316
1688814770.366,-11.719,-30.273,-30.762,-33.691,-125.000
1688814770.370,-0.488,-27.344,-27.832,-36.621,-87.891
1688814770.374,12.207,-29.785,-34.180,-38.086,-70.312
1688814770.378,12.207,-27.832,-34.180,-41.016,-7.812
1688814770.381,5.371,-26.367,-32.227,-41.016,40.527
1688814770.385,-2.930,-29.297,-31.250,-37.598,47.363
1688814770.389,9.766,-31.250,-33.691,-52.734,-19.043
1688814770.393,35.156,-29.297,-34.180,-51.270,-103.027
1688814770.397,46.875,-30.762,-32.227,-33.691,-91.797
1688814770.400,33.203,-34.180,-30.762,-35.156,162.598
1688814770.404,16.113,-32.715,-29.297,-42.480,65.918
1688814770.408,21.484,-33.203,-30.273,-58.594,-182.617
1688814770.412,43.945,-40.039,-34.180,-58.594,-153.320
1688814770.416,47.852,-37.598,-34.180,-43.457,138.672
1688814770.420,28.809,-36.133,-33.691,-52.246,148.926
1688814770.424,10.254,-33.203,-35.645,-54.688,-83.984
1688814770.427,13.184,-32.227,-29.785,-50.293,-50.781
1688814770.431,35.645,-35.156,-28.320,-42.480,186.523
1688814770.435,42.969,-35.156,-33.691,-33.691,-50.293
1688814770.439,27.344,-33.203,-28.320,-34.180,-234.863
1688814770.443,8.789,-32.227,-29.785,-36.133,-32.227
1688814770.444,0.977,-40.039,-36.133,-49.805,20.508
1688814770.448,3.418,-39.551,-32.227,-62.012,-104.492
1688814770.452,9.766,-34.180,-28.320,-59.570,-139.160
1688814770.456,0.488,-29.785,-32.227,-55.664,-6.348
1688814770.460,-23.926,-31.738,-34.668,-57.617,21.484
1688814770.464,-27.344,-36.133,-32.227,-72.754,-113.281
1688814770.468,-6.348,-38.086,-31.738,-75.684,-140.625
1688814770.471,6.836,-35.645,-32.227,-51.270,186.523
1688814770.475,-5.859,-36.133,-36.621,-40.039,328.125
1688814770.479,-32.227,-44.922,-41.016,-51.270,-37.598
1688814770.483,-43.945,-43.457,-43.457,-61.035,-128.418
1688814770.487,-28.809,-39.551,-46.387,-72.754,-95.215
1688814770.492,-9.277,-39.551,-45.410,-58.105,-164.062
1688814770.496,-18.066,-42.480,-42.969,-50.781,-168.457
1688814770.500,-38.574,-43.457,-42.480,-50.293,-41.992
1688814770.504,-40.527,-42.480,-41.992,-48.340,61.523
1688814770.508,-15.625,-36.621,-38.574,-53.223,-66.895
1688814770.512,7.324,-32.715,-35.156,-38.086,-52.734
1688814770.516,4.395,-33.691,-35.645,-26.855,145.508
1688814770.519,-15.137,-37.598,-34.668,-24.902,281.250
1688814770.523,-25.391,-39.062,-35.645,-38.086,25.879
1688814770.527,-14.160,-34.180,-35.645,-55.176,-175.781
1688814770.531,0.000,-34.668,-34.668,-43.945,-97.656
1688814770.535,-17.578,-36.621,-34.668,-31.738,-81.543
1688814770.534,-55.664,-35.645,-33.691,-32.715,-152.832
1688814770.538,-93.750,-36.621,-30.762,-39.062,-135.742
1688814770.542,-95.215,-38.574,-35.645,-49.805,-118.164
1688814770.546,-57.129,-33.203,-36.133,-38.574,-83.496
1688814770.550,-47.852,-29.785,-32.227,-29.785,12.695
1688814770.554,-87.402,-33.691,-34.668,-34.180,-22.461
1688814770.558,-122.559,-36.621,-38.574,-26.855,175.781
1688814770.561,-103.516,-34.668,-38.574,-31.250,457.520
1688814770.565,-57.617,-31.738,-32.715,-40.039,92.285
1688814770.569,-36.621,-30.273,-34.668,-32.227,-88.379
1688814770.573,-31.738,-29.297,-37.598,-28.809,11.719
1688814770.577,-36.133,-30.762,-36.133,-38.574,-81.055
1688814770.594,-41.504,-34.668,-33.203,-54.688,-125.000
1688814770.598,-34.668,-32.715,-31.250,-51.270,-106.445
1688814770.602,-39.062,-29.297,-30.273,-25.391,-53.711
1688814770.606,-68.359,-34.180,-33.691,-26.855,-97.168
1688814770.610,-110.840,-37.109,-36.621,-44.922,-156.250
1688814770.614,-125.977,-33.203,-36.621,-56.152,-74.707
1688814770.618,-105.957,-31.250,-31.250,-53.223,253.906
1688814770.621,-94.727,-33.691,-29.785,-39.062,104.004
1688814770.625,-104.980,-32.715,-27.344,-33.203,-194.336
1688814770.629,-119.141,-30.273,-23.926,-32.227,-88.379
1688814770.633,-121.094,-31.738,-30.762,-37.109,-19.531
1688814770.637,-99.121,-28.809,-35.645,-41.016,-171.387
1688814770.639,-91.797,-31.250,-29.785,-24.414,-182.617
1688814770.643,-110.840,-34.668,-26.855,-16.113,-74.707
1688814770.647,-136.719,-35.645,-32.227,-17.578,-114.746
1688814770.651,-150.879,-34.668,-33.203,-35.645,-179.688
1688814770.655,-142.578,-36.133,-33.203,-54.688,-139.160
1688814770.659,-137.695,-35.156,-36.133,-33.203,73.730
1688814770.663,-145.996,-31.738,-31.738,-15.625,58.105
1688814770.666,-157.227,-34.180,-28.809,-21.973,2.930
1688814770.670,-177.734,-33.203,-32.715,-37.109,1.465
1688814770.674,-177.246,-29.297,-29.297,-43.945,195.801
1688814770.678,-151.855,-26.367,-26.855,-28.809,286.621
1688814770.682,-146.973,-24.414,-32.227,-29.297,-21.484
1688814770.686,-162.598,-25.391,-31.250,-37.598,-140.137
1688814770.690,-169.922,-25.879,-28.809,-42.969,-115.723
1688814770.694,-153.320,-30.273,-32.715,-52.734,-140.137
1688814770.698,-135.742,-32.715,-33.691,-44.922,-166.016
1688814770.702,-131.836,-35.156,-32.227,-37.598,-134.766
1688814770.706,-133.301,-38.086,-33.203,-42.969,-68.848
1688814770.710,-141.113,-39.062,-32.227,-42.480,-27.344
1688814770.713,-130.859,-38.086,-30.273,-57.617,-141.113
1688814770.717,-106.445,-36.621,-31.250,-50.781,-119.141
1688814770.721,-101.562,-35.645,-32.227,-23.438,162.598
1688814770.725,-115.723,-36.133,-31.738,-26.855,-38.086
1688814770.729,-129.883,-33.691,-33.691,-30.273,-76.660
1688814770.729,-125.977,-31.250,-34.668,-37.109,90.820
1688814770.733,-106.934,-32.227,-29.297,-38.574,-72.754
1688814770.737,-98.633,-34.180,-23.926,-29.297,-191.895
1688814770.741,-109.375,-35.645,-22.949,-30.273,-174.805
1688814770.745,-129.395,-35.645,-23.438,-29.297,-14.160
1688814770.749,-120.605,-35.645,-23.438,-34.668,104.004
1688814770.753,-89.355,-36.621,-25.391,-39.551,-2.441
1688814770.756,-79.590,-39.062,-29.297,-36.133,-55.664
1688814770.760,-90.820,-39.062,-29.297,-29.297,126.465
1688814770.764,-106.934,-33.203,-21.484,-14.160,281.738
1688814770.768,-114.746,-33.203,-22.461,-34.180,-95.703
1688814770.772,-99.121,-37.598,-26.367,-48.828,-280.762
1688814770.777,-90.332,-34.180,-25.879,-33.203,-151.855
1688814770.781,-110.840,-33.203,-27.344,-29.785,-25.391
1688814770.785,-139.160,-38.574,-27.344,-28.809,-3.418
1688814770.789,-151.855,-41.504,-29.785,-39.551,-77.148
1688814770.793,-134.766,-33.691,-27.832,-45.410,-62.988
1688814770.797,-118.652,-33.203,-23.926,-35.156,-90.820
1688814770.801,-120.117,-37.109,-26.367,-36.133,-69.336
1688814770.804,-125.488,-36.621,-24.414,-30.273,-34.668
1688814770.808,-121.094,-32.227,-21.484,-21.973,156.250
1688814770.812,-94.727,-29.785,-22.949,-29.785,19.043
1688814770.816,-81.055,-32.715,-22.949,-26.367,-171.875
1688814770.820,-91.797,-32.715,-24.902,-21.973,-111.816
1688814770.833,-103.027,-29.785,-27.832,-22.949,-72.266
1688814770.837,-98.633,-27.832,-25.879,-22.949,-103.027
1688814770.841,-73.730,-28.320,-24.414,-41.504,-72.266
1688814770.845,-55.176,-29.297,-26.367,-41.992,-6.836
1688814770.849,-45.898,-28.320,-24.902,-24.902,-20.508
1688814770.853,-41.016,-35.156,-27.344,-33.691,-17.090
1688814770.857,-35.156,-36.133,-25.879,-51.758,14.160
1688814770.860,-9.277,-30.762,-22.949,-49.805,213.379
1688814770.864,14.648,-32.227,-26.367,-28.809,412.109
1688814770.868,1.953,-34.180,-26.855,-32.227,83.008
1688814770.872,-18.555,-34.668,-28.320,-45.410,-126.953
1688814770.876,-18.066,-33.691,-35.645,-55.664,-36.133
1688814770.866,-5.859,-35.645,-34.180,-66.406,-116.699
1688814770.870,-2.930,-38.574,-28.320,-53.711,-192.383
1688814770.874,-12.695,-37.598,-27.344,-38.574,-130.371
1688814770.878,-31.738,-37.598,-26.855,-36.621,-64.941
1688814770.882,-37.109,-40.039,-30.273,-41.504,-145.508
1688814770.886,-13.184,-37.598,-36.621,-47.363,-128.418
1688814770.890,3.418,-32.227,-34.668,-47.852,-29.297
1688814770.893,-1.953,-31.250,-29.785,-38.574,-27.832
1688814770.897,-14.160,-29.785,-29.297,-29.785,-49.316
1688814770.901,-31.250,-28.809,-31.738,-34.180,-98.633
1688814770.905,-33.691,-29.297,-33.203,-41.016,-91.309
1688814770.909,-20.996,-31.738,-34.668,-31.250,173.828
1688814770.909,-20.020,-34.180,-33.691,-17.578,17.578
1688814770.913,-29.785,-31.250,-27.832,-15.625,-181.152
1688814770.917,-45.410,-33.691,-20.996,-12.695,-48.828
1688814770.921,-48.828,-36.133,-20.508,-17.090,-41.504
1688814770.925,-22.949,-33.203,-22.949,-30.273,-195.312
1688814770.929,0.488,-33.691,-23.926,-24.902,-219.238
1688814770.933,-2.930,-38.086,-24.902,-17.090,97.656
1688814770.936,-27.832,-38.086,-27.344,-20.508,200.195
1688814770.940,-27.832,-36.133,-27.344,-36.133,-141.113
1688814770.944,4.395,-34.180,-27.832,-44.922,-166.504
1688814770.948,17.090,-31.738,-29.297,-33.691,115.234
1688814770.952,24.902,-27.344,-30.762,-37.109,93.750
1688814770.969,23.438,-24.414,-26.855,-48.340,-118.164
1688814770.973,-10.742,-28.809,-30.273,-57.617,-63.477
1688814770.977,-13.672,-30.273,-30.273,-72.266,-104.004
1688814770.981,7.812,-31.250,-29.297,-66.406,-190.430
1688814770.985,16.602,-36.621,-33.691,-56.152,-191.406
1688814770.989,8.301,-38.086,-23.926,-49.805,-46.875
1688814770.993,-7.324,-37.598,-23.926,-48.828,164.062
1688814770.996,6.836,-34.668,-27.832,-56.152,-22.949
1688814771.000,21.973,-32.227,-20.996,-43.945,-243.164
1688814771.004,4.883,-32.715,-23.926,-33.203,-127.930
1688814771.008,-28.809,-35.645,-30.273,-38.086,-0.488
1688814771.012,-51.758,-38.086,-31.250,-41.016,-117.676
1688814771.014,-44.922,-39.551,-24.414,-51.270,-215.820
1688814771.018,-29.297,-35.156,-23.438,-44.922,-67.383
1688814771.022,-37.109,-32.715,-27.344,-34.668,40.527
1688814771.026,-60.547,-36.621,-26.367,-36.133,-85.938
1688814771.030,-82.520,-35.645,-24.414,-38.574,-66.895
1688814771.034,-81.055,-32.227,-25.391,-50.781,182.617
1688814771.038,-55.664,-33.203,-27.832,-51.270,88.867
1688814771.041,-51.270,-34.180,-25.879,-48.828,-69.336
1688814771.045,-64.453,-31.738,-25.391,-50.293,-47.363
1688814771.049,-74.707,-32.227,-27.832,-45.410,162.109
1688814771.053,-78.125,-32.227,-30.762,-64.453,200.684
1688814771.057,-52.246,-33.203,-36.621,-68.848,-61.523
1688814771.077,-38.086,-34.668,-36.133,-51.270,-110.352
1688814771.081,-49.316,-34.668,-30.762,-52.734,-20.020
1688814771.085,-50.781,-34.180,-28.809,-56.641,-19.531
1688814771.089,-50.781,-36.133,-31.250,-66.406,-177.734
1688814771.093,-39.062,-31.738,-27.832,-55.664,-111.328
1688814771.097,-41.016,-31.250,-30.273,-35.156,110.352
1688814771.101,-56.152,-34.668,-34.668,-35.645,39.062
1688814771.104,-64.941,-31.250,-30.273,-35.156,-138.672
1688814771.108,-68.848,-32.227,-31.738,-42.969,-40.527
1688814771.112,-50.293,-31.738,-34.180,-41.992,233.398
1688814771.116,-24.902,-32.715,-40.039,-34.180,-19.531
1688814771.120,-15.137,-29.785,-34.668,-31.738,-213.867
1688814771.105,-22.949,-28.809,-28.320,-35.156,-91.797
1688814771.109,-33.203,-33.691,-28.320,-51.758,-119.141
1688814771.113,-13.672,-30.273,-24.414,-45.410,-138.184
1688814771.117,-6.836,-28.809,-20.996,-32.715,-87.402
1688814771.121,-31.738,-34.180,-24.902,-32.227,75.195
1688814771.125,-43.945,-31.250,-28.809,-29.785,47.363
1688814771.129,-36.621,-30.762,-26.367,-44.434,-19.043
1688814771.132,-7.324,-37.598,-26.855,-48.828,61.035
1688814771.136,21.484,-34.668,-32.227,-25.879,52.246
1688814771.140,20.508,-30.273,-33.691,-19.531,-54.199
1688814771.144,11.230,-31.250,-26.855,-27.344,-42.480
1688814771.148,9.766,-31.250,-23.438,-29.297,-100.586
1688814771.151,21.973,-28.320,-25.879,-22.461,59.570
1688814771.155,33.691,-28.320,-22.949,-11.230,326.172
1688814771.159,15.625,-27.832,-25.391,-21.484,-17.578
1688814771.163,-28.809,-28.809,-31.250,-32.227,-178.711
1688814771.167,-48.340,-32.715,-32.227,-40.527,-66.895
1688814771.171,-13.672,-31.250,-31.250,-45.410,-143.066
1688814771.175,14.648,-31.738,-33.691,-36.621,-169.922
1688814771.178,15.137,-29.785,-34.668,-30.273,71.777
1688814771.182,-0.977,-26.855,-34.668,-34.180,217.773
1688814771.186,-29.297,-32.227,-36.621,-46.387,-68.848
1688814771.190,-25.391,-35.156,-36.133,-56.641,-252.930
1688814771.194,1.465,-32.715,-35.156,-50.293,-101.562
1688814771.193,13.672,-28.809,-37.109,-47.852,214.844
1688814771.197,8.301,-25.391,-31.738,-67.383,-42.969
1688814771.201,-12.207,-29.297,-28.320,-79.102,-183.105
1688814771.205,-11.230,-33.203,-32.715,-83.008,-60.059
1688814771.209,11.719,-30.762,-31.250,-71.289,-164.551
1688814771.213,6.836,-28.320,-28.809,-44.922,-104.492
1688814771.217,-20.020,-31.250,-31.738,-46.875,-28.320
1688814771.220,-51.270,-31.738,-31.738,-58.594,209.473
1688814771.224,-59.082,-27.832,-28.809,-58.105,416.992
1688814771.228,-41.992,-27.344,-28.320,-56.641,35.156
1688814771.232,-37.109,-28.809,-27.344,-53.711,-145.996
1688814771.236,-49.316,-29.785,-28.809,-56.641,-102.051
1688814771.240,-66.895,-31.738,-30.762,-52.734,-137.695
1688814771.244,-71.777,-35.645,-29.785,-59.570,-182.129
1688814771.248,-50.293,-33.691,-31.250,-66.406,-153.809
1688814771.252,-39.551,-29.297,-28.320,-47.852,-71.777
1688814771.256,-52.734,-29.785,-27.832,-42.480,-96.680
1688814771.260,-72.754,-30.762,-27.832,-54.199,-79.102
1688814771.264,-84.961,-33.203,-29.785,-64.453,97.656
1688814771.267,-74.219,-41.992,-34.668,-80.566,272.461
1688814771.271,-65.430,-40.039,-32.715,-90.820,18.066
1688814771.275,-75.195,-34.668,-26.855,-95.703,-181.152
1688814771.279,-97.656,-35.156,-26.855,-98.633,-28.320
1688814771.283,-113.770,-36.133,-28.809,-113.281,-28.809
1688814771.284,-91.309,-35.156,-30.273,-121.582,-189.941
1688814771.288,-60.059,-33.203,-26.367,-104.004,-181.641
1688814771.292,-58.105,-36.621,-24.902,-94.727,-15.137
1688814771.296,-71.289,-39.062,-24.414,-92.773,-62.988
1688814771.300,-76.660,-38.574,-24.902,-92.285,-112.305
1688814771.304,-52.734,-33.203,-26.367,-104.980,-76.660
1688814771.308,-20.508,-27.832,-26.855,-94.727,113.281
1688814771.311,-14.160,-29.785,-22.461,-79.102,243.652
1688814771.315,-27.832,-35.645,-19.531,-73.730,-121.094
1688814771.319,-54.688,-39.062,-19.531,-62.988,-212.402
1688814771.323,-53.223,-37.598,-23.438,-85.449,31.250
1688814771.327,-25.879,-37.598,-24.902,-103.516,-120.117
1688814771.346,-18.066,-41.992,-25.391,-85.449,-224.609
1688814771.350,-32.715,-37.598,-25.879,-68.848,-54.199
1688814771.354,-62.988,-39.062,-30.273,-52.246,54.688
1688814771.358,-56.152,-37.109,-30.762,-65.918,-68.359
1688814771.362,-24.902,-27.344,-25.879,-79.590,-228.027
1688814771.366,-20.508,-26.855,-29.785,-64.941,-101.562
1688814771.370,-35.645,-30.762,-30.273,-52.246,119.141
1688814771.373,-62.988,-32.227,-27.832,-36.621,20.996
1688814771.377,-76.172,-27.832,-27.832,-65.918,-141.113
1688814771.381,-62.012,-31.738,-30.273,-85.938,-159.180
1688814771.385,-68.359,-37.109,-33.691,-58.594,-24.902
1688814771.389,-98.145,-38.574,-37.598,-61.035,-110.352
1688814771.389,-126.953,-38.086,-36.133,-55.664,-98.633
1688814771.393,-136.230,-33.203,-33.203,-67.383,-12.695
1688814771.397,-119.141,-32.715,-32.715,-84.961,-83.008
1688814771.401,-112.793,-32.227,-34.180,-61.523,-68.848
1688814771.405,-132.812,-33.203,-31.738,-46.875,-83.008
1688814771.409,-167.969,-32.715,-27.832,-21.484,182.129
1688814771.413,-172.852,-30.762,-29.785,-26.855,360.840
1688814771.416,-134.277,-31.738,-27.832,-59.570,26.855
1688814771.420,-116.211,-36.133,-26.855,-44.434,-126.953
1688814771.424,-122.559,-41.016,-31.250,-27.832,102.051
1688814771.428,-136.719,-36.621,-27.832,-7.324,87.402
1688814771.432,-143.066,-29.297,-23.926,-15.625,-227.539
1688814771.435,-116.699,-30.762,-24.902,-53.223,-227.051
1688814771.439,-99.609,-35.156,-22.461,-36.133,108.398
1688814771.443,-110.840,-35.156,-21.973,-27.344,96.680
1688814771.447,-138.184,-36.621,-29.785,-20.508,-25.879
1688814771.451,-159.668,-34.180,-33.691,-18.066,-81.055
1688814771.455,-144.043,-31.250,-27.344,-54.688,-90.820
1688814771.459,-126.465,-29.297,-28.320,-54.688,-41.504
1688814771.462,-127.930,-32.715,-34.668,-49.316,-131.836
1688814771.466,-149.414,-31.738,-35.156,-38.574,-49.316
1688814771.470,-172.363,-34.668,-33.203,-20.508,293.945
1688814771.474,-144.043,-40.039,-33.691,-56.152,71.289
1688814771.478,-104.004,-39.551,-30.273,-63.965,-199.707
1688814771.479,-94.727,-37.109,-26.855,-37.598,-111.328
1688814771.483,-103.516,-34.668,-26.855,-28.320,-95.703
1688814771.487,-127.930,-39.551,-28.320,-18.066,-96.680
1688814771.491,-114.258,-42.969,-30.762,-51.758,-146.973
1688814771.495,-80.078,-40.039,-32.715,-65.430,-47.852
1688814771.499,-83.008,-39.551,-35.156,-49.805,8.301
1688814771.503,-103.027,-42.969,-34.180,-36.133,-20.020
1688814771.506,-123.535,-42.480,-30.273,-11.230,84.473
1688814771.510,-112.793,-39.551,-29.297,-34.668,242.676
1688814771.514,-83.984,-37.598,-25.391,-45.898,190.918
1688814771.518,-91.309,-37.598,-24.414,-31.738,-105.957
1688814771.522,-121.582,-33.691,-22.949,-22.949,-173.340
1688814771.539,-161.133,-38.086,-23.438,2.930,99.609
1688814771.543,-176.758,-40.039,-30.762,-24.414,45.898
1688814771.547,-161.133,-39.062,-32.227,-65.918,-274.902
1688814771.551,-154.297,-41.504,-30.273,-47.852,-282.227
1688814771.555,-173.340,-38.574,-27.832,-36.621,-124.023
1688814771.559,-213.867,-37.598,-34.180,-21.973,5.859
1688814771.563,-221.680,-34.668,-38.086,-37.598,-14.160
1688814771.566,-194.336,-33.691,-34.668,-61.523,-31.250
1688814771.570,-189.453,-36.621,-37.598,-40.527,121.582
1688814771.574,-203.125,-32.227,-35.156,-34.668,-1.953
1688814771.578,-227.051,-33.691,-33.691,-20.508,-52.246
1688814771.582,-235.352,-33.691,-35.645,-29.297,20.508
1688814771.572,-209.473,-32.227,-36.621,-72.266,-73.730
1688814771.576,-199.707,-33.691,-36.133,-66.895,-201.172
1688814771.580,-208.496,-30.762,-34.668,-50.293,-255.371
1688814771.584,-232.422,-34.668,-38.574,-30.273,-117.188
1688814771.588,-245.117,-36.133,-37.598,-31.738,-42.969
1688814771.592,-216.797,-34.668,-33.691,-62.012,-147.949
1688814771.596,-197.266,-35.156,-31.738,-48.340,-132.812
1688814771.599,-206.543,-32.715,-32.227,-29.297,153.320
1688814771.603,-223.145,-33.203,-32.715,-8.301,137.695
1688814771.607,-248.047,-36.621,-34.668,-7.812,-108.398
1688814771.611,-234.375,-38.574,-33.691,-46.875,-155.273
1688814771.615,-204.590,-33.203,-28.320,-35.645,54.688
1688814771.646,-206.055,-31.738,-25.391,-16.602,60.059
1688814771.650,-231.934,-36.133,-29.297,-11.230,-148.438
1688814771.654,-252.930,-37.598,-31.250,-6.836,-123.047
1688814771.658,-225.586,-35.645,-30.273,-44.434,-125.977
1688814771.662,-207.031,-32.715,-30.273,-42.480,-152.832
1688814771.666,-227.539,-34.180,-35.645,-24.902,-84.961
1688814771.670,-238.770,-36.133,-32.715,-14.160,-54.688
1688814771.673,-249.512,-38.574,-28.809,7.812,297.363
1688814771.677,-241.211,-38.086,-29.297,-22.949,240.234
1688814771.681,-208.496,-34.180,-28.320,-46.875,-167.969
1688814771.685,-193.359,-33.691,-32.715,-37.598,-130.859
1688814771.689,-201.660,-29.785,-37.109,-22.461,-100.098
1688814771.660,-220.215,-31.250,-40.527,-12.207,-105.469
1688814771.664,-206.055,-36.133,-40.039,-50.293,-145.508
1688814771.668,-172.363,-32.227,-39.551,-72.266,-50.293
1688814771.672,-159.180,-31.250,-39.062,-48.828,-24.414
1688814771.676,-168.945,-33.691,-37.598,-37.109,-132.812
1688814771.680,-179.199,-32.227,-36.133,-20.508,-38.574
1688814771.684,-153.809,-30.762,-36.133,-42.480,72.754
1688814771.687,-125.000,-29.785,-39.062,-62.012,31.250
1688814771.691,-120.117,-29.785,-38.086,-41.016,-109.863
1688814771.695,-128.418,-32.227,-37.598,-33.691,-156.738
1688814771.699,-147.949,-33.691,-36.133,-8.301,98.633
1688814771.703,-154.785,-35.645,-35.645,-20.508,34.668
1688814771.735,-148.438,-34.180,-32.715,-55.176,-223.633
1688814771.739,-153.809,-33.203,-36.133,-50.781,-206.055
1688814771.743,-187.012,-35.156,-41.504,-29.785,114.746
1688814771.747,-228.027,-36.133,-35.645,-8.789,286.133
1688814771.751,-234.863,-35.156,-34.180,-37.109,-62.012
1688814771.755,-214.355,-36.621,-35.645,-71.777,-137.207
1688814771.759,-202.637,-38.086,-35.156,-53.711,119.141
1688814771.762,-205.566,-38.574,-38.574,-43.945,15.137
1688814771.766,-219.238,-36.621,-37.109,-22.461,-86.426
1688814771.770,-223.633,-37.109,-34.668,-19.531,27.344
1688814771.774,-193.848,-37.598,-36.133,-47.852,42.969
1688814771.778,-160.156,-32.715,-34.180,-51.270,-112.793
1688814771.753,-153.320,-34.668,-33.203,-42.480,-138.672
1688814771.757,-171.875,-38.086,-34.180,-19.531,-28.320
1688814771.761,-182.617,-35.156,-32.227,-20.508,-29.297
1688814771.765,-144.043,-39.551,-30.762,-55.176,-212.402
1688814771.769,-107.910,-38.086,-29.297,-51.270,-243.164
1688814771.773,-115.723,-31.250,-31.250,-34.180,-11.719
1688814771.777,-145.020,-33.203,-36.621,-17.090,92.773
1688814771.780,-164.551,-35.645,-38.574,-13.184,46.875
1688814771.784,-143.555,-37.109,-38.086,-45.898,13.184
1688814771.788,-115.234,-38.086,-39.062,-44.922,59.570
1688814771.792,-114.746,-37.598,-34.180,-29.297,-75.684
1688814771.796,-138.672,-39.551,-24.414,-13.672,-176.758
1688814771.825,-169.922,-44.434,-22.461,-1.953,-76.660
1688814771.829,-157.715,-43.945,-26.855,-33.203,125.977
1688814771.833,-119.629,-43.945,-29.785,-45.410,28.320
1688814771.837,-107.910,-41.992,-29.785,-31.250,-121.582
1688814771.841,-122.559,-36.133,-29.785,-20.020,-101.074
1688814771.845,-144.531,-36.621,-28.320,-1.953,283.691
1688814771.849,-123.535,-36.621,-28.320,-28.320,432.617
1688814771.852,-82.031,-36.133,-30.273,-56.641,-82.031
1688814771.856,-83.984,-34.668,-29.297,-39.062,-242.676
1688814771.860,-102.539,-33.203,-31.738,-24.414,-78.125
1688814771.864,-106.934,-34.180,-30.762,-11.230,-26.855
1688814771.868,-86.914,-36.133,-34.668,-36.621,-131.348
1688814771.854,-54.199,-37.109,-41.016,-65.430,-106.934
1688814771.858,-39.062,-34.180,-41.992,-55.176,-120.117
1688814771.862,-39.062,-34.668,-44.922,-44.434,-141.113
1688814771.866,-64.453,-36.133,-49.805,-28.809,-73.242
1688814771.870,-83.008,-38.574,-50.293,-42.480,-127.441
1688814771.874,-74.219,-41.504,-43.945,-62.988,-112.793
1688814771.878,-57.617,-34.668,-41.504,-52.734,-47.852
1688814771.881,-45.898,-35.156,-45.898,-49.805,-116.699
1688814771.885,-37.109,-37.598,-45.898,-23.438,36.621
1688814771.889,-5.371,-38.086,-45.410,-27.832,-9.277
1688814771.893,54.199,-35.645,-41.016,-53.711,-231.934
1688814771.897,83.984,-33.691,-36.133,-35.156,-190.918
1688814771.915,61.523,-35.156,-35.156,-16.602,145.508
1688814771.919,21.973,-36.621,-38.574,0.488,415.527
1688814771.923,16.113,-37.109,-39.551,-20.996,149.414
1688814771.927,66.895,-35.156,-37.109,-65.918,-191.406
1688814771.931,106.445,-28.320,-33.203,-54.199,-161.133
1688814771.935,102.539,-30.762,-34.180,-44.434,-64.941
1688814771.939,75.195,-36.133,-34.180,-30.762,-28.320
1688814771.942,54.199,-34.180,-34.668,-15.137,35.645
1688814771.946,75.684,-31.250,-38.086,-42.480,120.117
1688814771.950,103.027,-31.250,-39.551,-48.828,-6.836
1688814771.954,91.797,-34.668,-38.086,-38.574,-123.047
1688814771.958,52.734,-35.645,-30.273,-30.762,30.273
1688814771.945,22.949,-36.133,-26.367,-20.996,126.953
1688814771.949,42.480,-34.668,-26.367,-52.734,-113.770
1688814771.953,69.824,-31.250,-26.855,-53.711,-72.266
1688814771.957,61.035,-29.785,-28.809,-25.879,83.008
1688814771.961,35.645,-31.250,-27.832,-16.113,61.035
1688814771.965,20.020,-34.180,-30.273,-12.207,48.340
1688814771.969,36.133,-34.180,-35.645,-45.410,15.137
1688814771.972,65.430,-34.668,-34.668,-49.805,152.344
1688814771.976,75.684,-30.273,-32.715,-27.344,66.895
1688814771.980,53.223,-30.762,-32.715,-27.344,-137.695
1688814771.984,13.672,-36.621,-32.227,-21.973,-82.520
1688814771.988,10.254,-33.691,-32.715,-41.504,119.141
1688814771.990,41.504,-33.203,-31.738,-51.270,158.691
1688814771.994,52.734,-32.715,-33.691,-39.062,-118.652
1688814771.998,33.691,-33.691,-37.598,-34.668,-173.828
1688814772.002,23.926,-32.715,-30.762,-14.648,-59.082
1688814772.006,42.480,-28.320,-30.273,-34.668,-57.129
1688814772.010,72.754,-32.227,-33.203,-65.918,-110.352
1688814772.014,83.008,-40.527,-32.715,-38.086,30.273
1688814772.017,64.453,-38.574,-28.809,-8.301,234.375
1688814772.021,34.668,-32.715,-22.949,8.789,95.703
1688814772.025,33.691,-29.785,-27.344,-19.043,-170.898
1688814772.029,68.359,-27.832,-28.320,-53.223,-235.352
1688814772.033,77.637,-29.297,-27.832,-35.645,-209.961
1688814772.049,50.781,-32.227,-34.180,-22.949,-237.793
1688814772.053,26.855,-30.273,-34.668,-2.930,-183.105
1688814772.057,27.832,-28.320,-31.738,-13.184,-78.125
1688814772.061,48.828,-33.691,-32.227,-50.293,-144.043
1688814772.065,61.035,-36.133,-27.344,-42.480,-157.227
1688814772.069,49.316,-37.598,-26.855,-38.574,-26.855
1688814772.073,19.043,-36.621,-29.297,-17.578,311.035
1688814772.076,2.930,-34.180,-28.320,-3.418,504.395
1688814772.080,25.391,-32.715,-28.320,-49.316,62.012
1688814772.084,51.758,-30.762,-32.715,-47.852,-130.371
1688814772.088,50.293,-33.203,-35.156,-32.227,92.773
1688814772.092,23.926,-30.273,-34.180,-25.879,20.508
1688814772.096,8.301,-28.320,-35.645,-26.367,-120.117
1688814772.100,28.809,-32.715,-39.062,-63.965,-150.879
1688814772.104,45.898,-32.227,-38.574,-54.199,-136.719
1688814772.108,37.109,-32.715,-33.691,-41.504,-153.320
1688814772.112,20.508,-29.297,-31.738,-31.250,-131.836
1688814772.116,-1.465,-32.715,-33.203,-15.625,-16.113
1688814772.120,18.555,-32.227,-33.691,-44.922,-41.016
1688814772.123,57.129,-26.855,-34.668,-46.875,-119.629
1688814772.127,67.383,-25.879,-38.086,-31.250,-209.961
1688814772.131,54.688,-26.855,-35.645,-24.414,-88.379
1688814772.135,23.926,-34.668,-34.668,-10.742,279.297
1688814772.139,41.992,-40.039,-34.180,-45.410,69.336
1688814772.139,83.496,-35.645,-28.809,-61.035,-183.594
1688814772.143,85.938,-32.227,-31.250,-39.062,-116.699
1688814772.147,69.336,-32.227,-34.180,-33.691,-123.535
1688814772.151,41.992,-29.297,-35.156,-23.926,-133.789
1688814772.155,37.598,-27.832,-38.086,-42.969,-107.910
1688814772.159,68.848,-27.832,-34.668,-53.711,-9.277
1688814772.163,73.730,-32.227,-35.156,-42.480,-49.316
1688814772.166,48.340,-35.156,-40.039,-42.480,-106.934
1688814772.170,25.391,-36.133,-35.645,-19.531,-42.480
1688814772.174,22.461,-38.574,-33.203,-30.762,159.668
1688814772.178,40.527,-40.039,-35.156,-51.270,136.719
1688814772.182,46.875,-40.039,-33.691,-41.992,-74.707
1688814772.185,37.598,-35.156,-36.133,-37.109,-75.195
1688814772.189,9.277,-34.668,-42.969,-14.648,169.922
1688814772.193,2.930,-41.992,-43.945,-34.668,29.785
1688814772.197,41.504,-36.621,-38.574,-66.406,-229.492
1688814772.201,59.082,-30.762,-39.551,-47.852,-152.832
1688814772.205,50.293,-38.086,-39.551,-43.945,-86.914
1688814772.209,23.438,-41.504,-40.039,-32.715,-36.621
1688814772.212,7.812,-36.621,-47.852,-44.922,-88.379
1688814772.216,38.574,-36.621,-47.363,-78.613,-82.031
1688814772.220,65.918,-40.039,-42.969,-49.316,145.508
1688814772.224,55.664,-36.133,-40.039,-35.645,-49.805
1688814772.228,26.367,-37.109,-40.039,-23.926,-171.387
1688814772.230,8.301,-39.062,-33.691,-17.578,-20.020
1688814772.234,19.531,-37.109,-30.762,-50.781,-91.797
1688814772.238,30.762,-36.133,-29.785,-39.551,-168.457
1688814772.242,25.879,-32.715,-30.762,-15.625,-163.574
1688814772.246,-8.301,-32.715,-32.715,-6.836,78.613
1688814772.250,-54.688,-36.621,-34.180,-11.230,167.480
1688814772.254,-53.223,-35.645,-36.621,-48.340,-82.031
1688814772.257,-26.855,-33.691,-33.203,-47.363,-145.020
1688814772.261,-33.203,-31.738,-35.156,-21.973,96.680
1688814772.265,-60.059,-31.738,-37.598,-0.488,316.406
1688814772.269,-84.473,-32.715,-34.180,0.977,69.824
1688814772.273,-78.613,-32.715,-36.133,-46.875,-199.707
1688814772.305,-48.340,-33.203,-37.109,-58.105,-177.734
1688814772.309,-46.875,-33.203,-37.109,-46.875,-120.605
1688814772.313,-66.406,-30.273,-37.109,-41.992,-135.254
1688814772.317,-78.613,-28.320,-34.180,-30.273,-81.055
1688814772.321,-54.199,-29.785,-37.598,-61.035,-93.750
1688814772.325,-20.020,-32.227,-43.457,-77.637,-155.762
1688814772.329,-20.020,-29.297,-40.527,-57.617,-68.359
1688814772.332,-35.645,-29.785,-38.574,-44.922,-67.383
1688814772.336,-57.617,-34.180,-41.504,-20.996,216.309
1688814772.340,-53.223,-35.645,-42.969,-52.246,170.410
1688814772.344,-30.273,-37.598,-43.457,-83.008,-99.121
1688814772.348,-24.414,-39.062,-45.898,-71.289,-79.102
1688814772.319,-29.297,-35.645,-42.480,-59.570,-69.824
1688814772.323,-41.504,-31.250,-41.016,-39.062,-74.707
1688814772.327,-43.457,-28.320,-37.598,-57.617,-136.719
1688814772.331,-30.273,-25.391,-33.691,-83.984,-118.164
1688814772.335,-31.738,-31.738,-34.668,-70.801,-29.297
1688814772.339,-50.781,-34.668,-34.180,-59.082,-28.320
1688814772.343,-83.008,-33.691,-33.203,-35.156,13.184
1688814772.346,-98.145,-35.156,-30.273,-39.062,157.715
1688814772.350,-69.824,-40.527,-27.344,-75.684,63.477
1688814772.354,-52.734,-39.551,-31.250,-62.012,-102.051
1688814772.358,-65.918,-34.180,-34.668,-47.852,-113.770
1688814772.362,-92.773,-30.273,-31.738,-28.809,21.484
1688814772.365,-102.539,-26.855,-28.809,-33.691,-30.762
1688814772.369,-76.172,-28.809,-29.785,-60.547,-150.879
1688814772.373,-50.293,-26.855,-27.832,-43.945,-140.137
1688814772.377,-56.641,-24.414,-27.344,-25.391,136.719
1688814772.381,-92.773,-30.273,-31.250,-14.648,261.719
1688814772.385,-99.121,-34.668,-33.691,-34.180,81.543
1688814772.389,-74.707,-31.250,-38.574,-71.777,-11.230
1688814772.392,-55.664,-30.762,-36.133,-56.152,232.910
1688814772.396,-41.016,-32.227,-28.320,-49.805,125.488
1688814772.400,-55.176,-36.133,-30.762,-45.410,-91.797
1688814772.404,-67.383,-31.250,-37.598,-35.156,-42.480
1688814772.408,-27.344,-28.809,-38.574,-64.453,-130.371
1688814772.424,21.973,-33.203,-34.668,-63.477,-234.863
1688814772.428,28.809,-33.203,-34.180,-41.992,-206.543
1688814772.432,-0.977,-30.273,-34.668,-22.949,-79.102
1688814772.436,-24.414,-31.738,-31.250,-18.066,-63.965
1688814772.440,-4.883,-35.645,-32.227,-59.570,-171.875
1688814772.444,17.578,-35.156,-32.227,-62.988,-118.652
1688814772.448,13.672,-32.715,-25.879,-28.809,214.844
1688814772.451,-6.836,-29.785,-26.855,-20.508,328.613
1688814772.455,-31.738,-27.832,-29.785,-20.508,-67.383
1688814772.459,-25.391,-29.785,-30.762,-53.711,-198.730
1688814772.463,0.000,-28.320,-23.926,-61.035,-33.691
1688814772.467,8.789,-32.227,-25.391,-49.316,-78.613
1688814772.457,-5.859,-34.180,-31.250,-47.363,-176.270
1688814772.461,-22.461,-30.273,-32.227,-19.043,-85.449
1688814772.465,-12.695,-34.668,-35.156,-35.156,44.922
1688814772.469,8.789,-35.156,-35.156,-58.105,-111.816
1688814772.473,2.441,-36.621,-37.598,-49.316,-203.125
1688814772.477,-7.324,-37.109,-39.551,-45.898,-37.109
1688814772.481,-20.996,-33.203,-39.551,-34.668,73.242
1688814772.484,-26.367,-32.227,-41.504,-60.059,-26.367
1688814772.488,2.441,-30.762,-36.133,-84.473,-180.664
1688814772.492,18.555,-29.785,-32.227,-61.035,-137.207
1688814772.496,3.906,-34.180,-35.645,-47.852,88.379
1688814772.500,-24.902,-39.551,-34.180,-35.645,2.930
1688814772.515,-21.484,-36.133,-30.762,-48.340,-117.188
1688814772.519,14.648,-29.785,-29.785,-77.637,-77.148
1688814772.523,33.691,-30.762,-29.297,-67.871,-31.250
1688814772.527,25.879,-37.598,-30.762,-62.988,-110.352
1688814772.531,0.000,-37.598,-33.691,-44.434,-145.996
1688814772.535,-2.930,-33.203,-33.691,-37.598,206.055
1688814772.539,28.809,-32.227,-29.785,-57.129,291.992
1688814772.542,47.852,-33.691,-28.809,-53.223,-39.551
1688814772.546,44.434,-33.203,-33.691,-42.969,-142.578
1688814772.550,29.297,-29.297,-30.762,-22.461,83.984
1688814772.554,21.973,-31.250,-30.762,-29.785,120.605
1688814772.558,49.805,-34.180,-34.668,-66.895,-160.645
1688814772.561,62.012,-36.621,-34.180,-54.688,-208.984
1688814772.565,48.340,-37.598,-35.156,-38.086,-124.512
1688814772.569,23.926,-35.645,-35.156,-21.484,-99.609
1688814772.573,0.977,-33.691,-31.738,-19.043,-13.184
1688814772.577,15.137,-30.762,-28.320,-60.059,39.551
1688814772.581,35.645,-30.762,-29.785,-63.477,15.137
1688814772.585,33.203,-34.180,-36.621,-44.922,-41.016
1688814772.588,8.301,-34.668,-38.086,-38.086,-87.891
1688814772.592,-16.602,-33.691,-34.668,-30.762,-58.105
1688814772.596,1.465,-31.250,-31.250,-49.316,167.969
1688814772.600,31.738,-23.926,-27.832,-53.223,-23.926
1688814772.604,41.504,-26.367,-31.250,-46.387,-234.863
1688814772.604,38.574,-25.879,-29.785,-38.086,-78.613
1688814772.608,20.508,-24.414,-29.785,-25.879,-6.348
1688814772.612,35.156,-23.438,-34.668,-51.270,-137.695
1688814772.616,75.195,-23.926,-34.180,-62.012,-166.504
1688814772.620,85.449,-27.832,-35.645,-48.340,-90.820
1688814772.624,65.918,-28.320,-33.691,-35.156,-50.293
1688814772.628,32.227,-28.809,-28.809,-12.695,32.227
1688814772.631,40.527,-24.414,-24.414,-24.414,52.734
1688814772.635,66.406,-25.391,-24.902,-38.574,268.066
1688814772.639,62.012,-30.762,-29.297,-27.832,299.805
1688814772.643,39.062,-27.344,-28.809,-31.250,-89.844
1688814772.647,4.883,-24.902,-30.762,-19.043,-103.027
1688814772.650,-5.371,-30.762,-31.738,-35.156,148.438
1688814772.654,14.160,-30.273,-27.832,-54.199,10.742
1688814772.658,20.020,-24.902,-30.762,-43.945,-188.965
1688814772.662,-7.324,-27.344,-32.715,-37.109,-166.992
1688814772.666,-37.598,-29.297,-28.809,-16.113,-149.414
1688814772.670,-34.668,-27.832,-27.344,-37.598,-14.648
1688814772.674,-0.977,-28.809,-27.832,-71.289,-64.453
1688814772.677,14.648,-36.621,-29.785,-50.293,-104.980
1688814772.681,-9.766,-40.039,-26.367,-34.668,249.023
1688814772.685,-46.875,-39.551,-25.391,-24.414,78.613
1688814772.689,-41.992,-35.645,-26.367,-31.738,-160.156
1688814772.693,-10.254,-26.855,-24.902,-58.594,-154.785
1688814772.694,-8.789,-27.344,-23.438,-49.805,-190.918
1688814772.698,-13.672,-30.273,-22.461,-36.621,-173.340
1688814772.702,-27.344,-29.785,-25.879,-21.484,-91.309
1688814772.706,-40.039,-31.738,-27.832,-28.809,-49.805
1688814772.710,-23.926,-33.203,-26.367,-63.965,-138.184
1688814772.714,-16.602,-33.691,-26.367,-54.199,-119.141
1688814772.718,-39.551,-32.227,-29.785,-44.922,-103.027
1688814772.721,-72.754,-30.762,-29.297,-35.645,260.254
1688814772.725,-92.285,-32.227,-29.297,-29.297,411.621
1688814772.729,-77.148,-33.691,-31.250,-69.336,-106.445
1688814772.733,-45.898,-30.762,-28.809,-58.105,-165.527
1688814772.737,-38.086,-29.785,-28.320,-28.320,-12.207
1688814772.741,-60.059,-30.762,-24.902,-21.484,-61.523
1688814772.745,-85.449,-32.715,-25.391,-16.602,-121.582
1688814772.749,-62.988,-27.832,-27.832,-50.781,-108.398
1688814772.753,-23.438,-25.391,-25.879,-48.828,27.344
1688814772.757,-17.090,-26.855,-24.414,-25.391,-90.332
1688814772.761,-29.297,-27.344,-26.367,-16.113,-126.465
1688814772.765,-49.805,-32.227,-26.855,-4.395,120.605
1688814772.768,-47.852,-37.598,-24.902,-34.180,288.086
1688814772.772,-12.207,-32.715,-25.391,-38.086,-22.461
1688814772.776,-9.277,-32.227,-26.367,-31.250,-243.164
1688814772.780,-43.945,-36.133,-29.297,-41.992,-133.301
1688814772.784,-81.543,-36.621,-29.785,-21.484,-45.410
1688814772.785,-76.660,-36.621,-30.762,-41.992,-73.730
1688814772.789,-34.180,-36.133,-30.273,-57.617,-98.633
1688814772.793,-15.625,-36.133,-27.832,-37.598,-37.109
1688814772.797,-25.391,-39.551,-30.762,-31.738,-70.312
1688814772.801,-53.223,-40.039,-32.715,-15.625,-104.980
1688814772.805,-52.734,-41.992,-34.668,-30.762,-90.820
1688814772.809,-20.020,-41.992,-37.598,-54.688,132.324
1688814772.812,-1.953,-36.621,-36.621,-35.156,439.453
1688814772.816,-7.324,-31.738,-33.691,-28.809,106.445
1688814772.820,-29.785,-32.715,-36.133,-9.277,-127.930
1688814772.824,-35.645,-30.762,-37.598,-22.949,-31.738
1688814772.828,-11.719,-31.738,-38.086,-60.059,-167.969
1688814772.844,-0.977,-34.180,-36.621,-44.922,-229.004
1688814772.848,-27.344,-32.715,-41.016,-31.738,-149.902
1688814772.852,-70.312,-29.297,-38.086,-14.648,-41.992
1688814772.856,-93.750,-24.902,-29.785,-17.090,31.250
1688814772.860,-77.148,-22.949,-28.809,-50.781,-151.367
1688814772.864,-51.270,-30.762,-33.691,-41.504,-128.906
1688814772.868,-32.715,-39.551,-35.156,-18.555,303.223
1688814772.871,-39.062,-35.156,-33.691,-16.113,201.660
1688814772.875,-44.434,-31.738,-34.668,-25.391,-72.754
1688814772.879,-2.930,-29.785,-35.645,-56.641,-114.746
1688814772.883,30.273,-27.832,-32.227,-51.270,-152.344
1688814772.887,22.461,-33.691,-33.691,-37.598,-149.414
1688814772.889,-1.953,-35.645,-37.109,-26.855,-120.605
1688814772.893,-28.320,-34.180,-36.133,-19.531,-17.090
1688814772.897,-15.137,-32.227,-32.227,-51.758,-39.062
1688814772.901,2.441,-30.273,-30.762,-51.270,-192.871
1688814772.905,-27.832,-28.320,-32.227,-59.082,-161.133
1688814772.909,-43.457,-34.668,-28.809,-49.316,168.945
1688814772.913,-43.457,-40.527,-24.414,-32.227,200.684
1688814772.916,-25.879,-35.645,-29.297,-71.289,1.953
1688814772.920,5.859,-32.715,-31.250,-80.078,-82.520
1688814772.924,12.695,-32.227,-33.203,-63.477,46.875
1688814772.928,-17.090,-33.203,-41.016,-50.293,244.629
1688814772.932,-51.270,-35.645,-43.945,-32.227,-27.344
1688814772.949,-43.457,-35.156,-38.086,-57.617,-208.496
1688814772.953,-20.020,-39.062,-37.109,-66.406,-132.324
1688814772.957,-21.973,-34.180,-35.156,-42.480,-164.062
1688814772.961,-38.574,-27.344,-28.320,-35.156,-186.523
1688814772.965,-66.895,-35.156,-26.855,-30.273,-158.691
1688814772.969,-76.172,-36.621,-31.738,-58.594,-55.664
1688814772.973,-52.734,-32.227,-34.180,-74.219,-42.969
1688814772.976,-60.547,-32.227,-34.180,-60.059,-160.156
1688814772.980,-90.332,-33.203,-35.645,-52.246,-38.574
1688814772.984,-107.422,-33.203,-32.715,-24.414,272.949
1688814772.988,-107.422,-35.156,-31.250,-41.992,116.211
1688814772.992,-82.031,-33.691,-31.738,-67.383,-172.363
1688814772.979,-68.848,-32.227,-31.738,-49.805,-62.500
1688814772.983,-86.426,-29.297,-30.762,-39.062,-19.531
1688814772.987,-123.047,-31.250,-35.156,-21.484,-95.703
1688814772.991,-131.836,-31.738,-36.621,-39.551,-79.102
1688814772.995,-91.309,-31.738,-33.691,-62.012,-50.781
1688814772.999,-69.336,-29.785,-30.273,-41.504,-8.301
1688814773.003,-77.148,-28.320,-35.645,-38.574,3.418
1688814773.006,-103.027,-32.227,-39.551,-23.438,40.527
1688814773.010,-117.188,-34.180,-34.668,-18.066,201.660
1688814773.014,-96.191,-31.738,-35.645,-60.547,11.719
1688814773.018,-83.984,-37.109,-35.645,-54.199,-95.215
1688814773.022,-87.891,-41.016,-34.180,-30.273,-60.059
1688814773.025,-105.957,-41.016,-34.180,-13.672,194.336
1688814773.029,-119.629,-44.434,-32.227,-12.207,370.605
1688814773.033,-94.727,-42.480,-31.250,-52.246,-63.965
1688814773.037,-85.938,-41.992,-32.227,-51.270,-224.609
1688814773.041,-99.609,-41.992,-30.273,-37.109,-95.703
1688814773.045,-121.582,-39.551,-33.203,-19.531,-2.441
1688814773.049,-147.949,-39.551,-35.645,-16.602,2.441
1688814773.052,-127.930,-41.016,-33.691,-47.852,-83.008
1688814773.056,-96.191,-38.574,-30.762,-39.062,145.508
1688814773.060,-88.867,-36.133,-24.414,-29.785,58.105
1688814773.064,-97.656,-37.109,-20.996,-28.809,-182.617
1688814773.068,-128.418,-34.668,-22.949,-14.160,-84.961
