timestamps,TP9,AF7,AF8,TP10,Right AUX
1688814818.491,-3.418,-37.598,-58.594,-52.734,-199.219
1688814818.495,8.789,-40.039,-59.570,-47.363,-211.914
1688814818.499,0.000,-39.551,-51.758,-31.250,-130.371
1688814818.503,-26.367,-38.574,-53.711,-18.555,-102.051
1688814818.507,-48.828,-41.504,-50.781,-18.555,-138.184
1688814818.511,-26.855,-44.922,-44.922,-46.875,12.695
1688814818.515,-6.348,-42.969,-45.898,-35.156,185.547
1688814818.518,-15.625,-37.109,-46.875,-24.414,41.504
1688814818.522,-36.621,-40.039,-51.758,-24.902,-95.215
1688814818.526,-56.641,-48.340,-55.176,-18.555,1.465
1688814818.530,-35.645,-48.828,-53.711,-40.039,147.949
1688814818.534,-6.348,-46.387,-56.152,-46.387,-52.734
1688814818.534,-7.324,-45.410,-62.012,-40.039,-151.367
1688814818.538,-34.668,-43.945,-57.617,-32.715,-75.195
1688814818.542,-64.941,-40.039,-51.758,-16.602,24.902
1688814818.546,-59.570,-40.527,-57.129,-52.734,21.973
1688814818.550,-30.762,-39.062,-54.688,-71.289,-118.164
1688814818.554,-14.160,-39.062,-54.688,-47.363,134.766
1688814818.558,-26.367,-40.527,-58.105,-25.879,426.270
1688814818.561,-41.016,-40.039,-50.293,0.488,37.109
1688814818.565,-31.738,-35.645,-47.363,-26.367,-155.273
1688814818.569,-7.812,-39.062,-50.781,-46.387,60.547
1688814818.573,0.977,-40.039,-46.387,-32.715,-56.152
1688814818.577,-19.531,-31.738,-39.062,-27.344,-218.262
1688814818.594,-49.805,-28.320,-39.551,-4.395,-95.703
1688814818.598,-46.875,-34.668,-45.410,-26.367,-85.938
1688814818.602,-20.020,-36.133,-48.828,-62.012,-167.969
1688814818.606,-14.160,-36.133,-53.711,-45.410,-212.891
1688814818.610,-24.414,-36.133,-52.246,-26.367,-174.805
1688814818.614,-45.410,-33.203,-41.992,2.930,-7.812
1688814818.618,-54.688,-37.109,-42.480,-6.348,24.414
1688814818.621,-23.438,-39.062,-42.480,-32.227,-160.645
1688814818.625,-4.883,-37.109,-40.039,-16.602,-126.953
1688814818.629,-17.090,-41.016,-44.434,-0.977,174.316
1688814818.633,-42.969,-44.434,-44.434,10.254,85.938
1688814818.637,-50.293,-44.922,-47.852,-7.324,-18.555
1688814818.639,-24.414,-49.805,-50.781,-45.898,7.812
1688814818.643,-11.719,-48.828,-47.363,-30.273,-14.160
1688814818.647,-24.902,-41.504,-42.480,-13.184,-76.172
1688814818.651,-53.711,-40.039,-42.969,1.465,-39.551
1688814818.655,-61.523,-43.945,-42.480,1.465,79.102
1688814818.659,-33.203,-46.387,-45.410,-35.645,71.289
1688814818.663,-9.277,-49.805,-56.152,-34.180,-97.656
1688814818.666,-3.906,-47.852,-53.711,-15.137,-169.434
1688814818.670,-25.391,-43.945,-49.316,4.883,47.852
1688814818.674,-45.410,-45.410,-53.711,8.789,151.855
1688814818.678,-29.785,-46.387,-58.105,-40.039,-179.199
1688814818.682,-11.719,-42.480,-55.176,-44.922,-283.203
1688814818.685,-17.090,-45.898,-55.176,-32.715,-115.723
1688814818.689,-33.691,-43.457,-57.617,-20.020,-14.160
1688814818.693,-48.828,-36.133,-55.176,-9.766,-42.480
1688814818.697,-35.645,-34.668,-59.082,-43.457,-135.254
1688814818.701,-13.672,-31.250,-57.129,-36.133,-58.105
1688814818.705,-20.996,-30.273,-50.781,-11.719,-30.762
1688814818.709,-36.133,-30.762,-49.805,4.883,-100.586
1688814818.712,-54.688,-30.273,-55.664,22.461,-85.449
1688814818.716,-46.875,-35.156,-57.617,-12.207,136.719
1688814818.720,-14.648,-39.551,-60.059,-29.785,47.852
1688814818.724,-7.812,-34.180,-59.082,-17.578,-187.500
1688814818.728,-26.367,-39.062,-56.152,-9.766,-168.457
1688814818.729,-48.828,-44.434,-54.199,6.348,-47.852
1688814818.733,-36.133,-40.527,-50.293,-16.602,-107.910
1688814818.737,-7.812,-41.016,-52.246,-36.133,-143.555
1688814818.741,-1.465,-40.527,-51.758,-19.043,-7.324
1688814818.745,-14.648,-38.086,-49.316,-4.395,-6.348
1688814818.749,-43.945,-40.527,-52.734,11.230,24.902
1688814818.753,-49.316,-38.574,-56.641,-13.672,-49.316
1688814818.756,-21.973,-35.156,-59.082,-30.762,-3.418
1688814818.760,-5.371,-34.668,-57.129,-3.906,201.172
1688814818.764,-16.113,-38.574,-56.152,0.000,-70.312
1688814818.768,-34.668,-36.621,-52.734,20.996,-83.496
1688814818.772,-34.668,-34.180,-49.805,6.348,25.391
1688814818.775,-5.859,-36.133,-51.758,-30.762,-133.301
1688814818.779,9.766,-33.203,-50.781,-20.996,-158.691
1688814818.783,-4.395,-32.227,-44.434,-11.230,-42.969
1688814818.787,-28.320,-34.180,-45.410,15.137,-20.020
1688814818.791,-34.180,-35.645,-44.922,9.766,-21.484
1688814818.795,-4.883,-31.738,-43.457,-21.973,-51.758
1688814818.799,8.301,-28.320,-45.898,-13.184,-74.707
1688814818.802,-7.812,-32.715,-43.945,-4.883,273.926
1688814818.806,-34.180,-34.668,-41.504,8.301,290.039
1688814818.810,-47.363,-33.203,-40.039,-1.465,-71.777
1688814818.814,-26.367,-40.039,-40.039,-41.992,-150.879
1688814818.818,-2.930,-40.039,-37.109,-30.762,-81.543
1688814818.819,-5.859,-33.203,-36.133,-15.137,-156.738
1688814818.823,-31.250,-33.691,-45.410,-0.977,-207.031
1688814818.827,-48.828,-32.715,-47.363,3.906,-12.207
1688814818.831,-34.668,-30.762,-49.316,-38.086,-14.648
1688814818.835,-13.184,-30.273,-56.641,-41.504,-131.836
1688814818.839,-20.996,-33.691,-57.129,-33.203,-63.965
1688814818.843,-38.574,-34.668,-53.223,-10.742,98.633
1688814818.846,-49.316,-35.645,-46.875,16.602,348.633
1688814818.850,-26.367,-38.086,-46.387,-20.508,86.426
1688814818.854,6.348,-33.691,-44.922,-26.855,-161.133
1688814818.858,4.395,-31.250,-42.480,-11.719,-34.180
1688814818.862,-14.160,-32.715,-41.504,-11.230,-4.883
1688814818.866,-32.227,-32.715,-41.992,4.883,-56.152
1688814818.870,-23.438,-32.715,-45.898,-32.227,-104.492
1688814818.874,9.277,-34.180,-45.410,-54.688,-143.066
1688814818.878,14.160,-33.203,-43.457,-39.062,-128.418
1688814818.882,-5.859,-34.668,-45.410,-40.527,-101.562
1688814818.886,-24.902,-41.504,-47.363,-25.879,147.461
1688814818.890,-20.508,-44.922,-51.758,-48.340,370.117
1688814818.893,3.906,-40.527,-53.711,-82.520,-7.812
1688814818.897,10.742,-35.645,-47.363,-67.871,-230.469
1688814818.901,-7.324,-34.180,-42.969,-49.316,-64.941
1688814818.905,-36.621,-37.109,-49.316,-22.949,164.062
1688814818.909,-32.715,-37.109,-43.945,-36.133,21.973
1688814818.909,-3.906,-34.668,-42.480,-67.871,-187.988
1688814818.913,0.488,-35.156,-50.293,-50.781,-180.664
1688814818.917,-20.020,-37.598,-49.805,-30.273,-113.770
1688814818.921,-42.969,-39.062,-43.457,-11.230,16.602
1688814818.925,-42.480,-34.668,-38.574,-29.297,-84.473
1688814818.929,-16.113,-36.133,-37.598,-56.641,-98.145
1688814818.933,-7.812,-37.109,-40.039,-34.180,273.438
1688814818.936,-19.531,-37.109,-47.363,-28.809,50.293
1688814818.940,-44.434,-36.621,-49.316,-4.395,-156.738
1688814818.944,-57.617,-33.691,-43.945,-12.207,-4.883
1688814818.948,-31.738,-34.668,-47.852,-51.270,-136.230
1688814818.952,-13.184,-34.668,-49.805,-33.691,-237.305
1688814818.970,-24.414,-33.203,-46.875,-20.996,-184.570
1688814818.974,-50.781,-30.762,-45.898,-5.859,-9.277
1688814818.978,-67.383,-27.832,-46.387,-8.789,-70.312
1688814818.982,-39.551,-29.297,-43.457,-43.945,-223.145
1688814818.986,-14.648,-33.203,-43.457,-41.504,-159.668
1688814818.990,-26.855,-32.227,-51.758,-42.480,87.891
1688814818.994,-47.852,-30.762,-49.805,-29.785,82.520
1688814818.997,-61.523,-31.250,-41.504,-18.555,-105.957
1688814819.001,-53.223,-33.691,-40.527,-53.711,-118.164
1688814819.005,-41.016,-38.086,-45.898,-49.805,118.164
1688814819.009,-46.387,-42.480,-48.828,-43.457,32.715
1688814819.013,-61.523,-41.016,-50.293,-34.668,-87.402
1688814819.029,-76.172,-37.109,-54.688,-20.996,18.555
1688814819.033,-54.199,-35.156,-54.199,-65.430,-23.438
1688814819.037,-16.113,-36.133,-51.758,-71.777,-157.715
1688814819.041,-10.742,-36.133,-49.805,-52.246,-194.824
1688814819.045,-23.926,-37.598,-48.828,-37.598,78.613
1688814819.049,-38.574,-38.574,-49.316,-12.695,357.910
1688814819.053,-27.344,-38.574,-50.781,-40.527,50.781
1688814819.056,-5.371,-40.039,-46.875,-55.664,-198.242
1688814819.060,-6.836,-41.504,-43.945,-27.832,-31.738
1688814819.064,-28.320,-43.945,-47.852,-9.766,226.562
1688814819.068,-59.570,-41.992,-47.852,3.906,64.453
1688814819.072,-57.129,-44.922,-41.992,-28.320,-70.312
1688814819.059,-32.227,-42.969,-40.527,-54.199,-61.523
1688814819.063,-25.391,-40.039,-40.039,-35.645,-174.805
1688814819.067,-36.621,-40.039,-41.992,-23.926,-232.910
1688814819.071,-60.547,-38.086,-37.598,6.348,-87.402
1688814819.075,-59.082,-41.016,-38.086,-1.465,-67.871
1688814819.079,-28.809,-39.062,-40.527,-30.273,-121.582
1688814819.083,-20.020,-33.691,-36.621,-24.902,-20.508
1688814819.086,-33.203,-33.203,-32.715,-9.766,17.578
1688814819.090,-58.594,-36.621,-28.320,11.230,20.508
1688814819.094,-66.895,-32.715,-29.297,-10.742,-14.648
1688814819.098,-38.574,-28.809,-33.691,-42.480,-157.715
1688814819.102,-18.066,-31.250,-34.180,-20.020,-100.098
1688814819.104,-23.926,-33.203,-32.227,-0.488,261.230
1688814819.108,-41.504,-30.762,-33.203,10.742,137.207
1688814819.112,-44.922,-20.508,-31.738,-1.953,-96.191
1688814819.116,-23.438,-24.902,-36.133,-36.133,-31.250
1688814819.120,-18.555,-32.715,-38.574,-21.484,7.812
1688814819.124,-27.832,-34.180,-37.598,-8.301,3.418
1688814819.128,-41.016,-36.621,-40.527,0.977,-78.613
1688814819.131,-51.758,-32.715,-39.062,-6.348,27.344
1688814819.135,-28.320,-31.738,-41.016,-38.574,302.734
1688814819.139,-8.301,-36.621,-42.969,-42.480,-16.113
1688814819.143,-19.043,-37.598,-37.109,-37.109,-214.355
1688814819.147,-45.898,-34.180,-36.133,-14.648,-47.363
1688814819.151,-68.848,-38.574,-41.504,-11.230,-52.246
1688814819.155,-55.664,-46.875,-46.875,-57.129,-165.039
1688814819.159,-32.227,-45.898,-42.969,-60.547,-170.898
1688814819.163,-30.762,-44.434,-38.574,-48.828,-156.250
1688814819.167,-44.434,-40.527,-42.969,-29.297,-146.484
1688814819.171,-60.547,-38.086,-41.504,-16.113,-89.355
1688814819.175,-41.504,-40.039,-33.691,-55.664,-5.859
1688814819.178,-13.672,-37.109,-34.668,-47.852,204.590
1688814819.182,-20.020,-39.062,-40.039,-29.785,-5.371
1688814819.186,-42.969,-42.480,-37.598,-27.344,-154.785
1688814819.190,-65.430,-45.410,-34.668,-18.555,78.613
1688814819.194,-55.176,-46.387,-35.156,-70.312,6.836
1688814819.194,-22.461,-43.945,-33.691,-87.402,-199.707
1688814819.198,-13.672,-41.504,-36.133,-61.523,-173.340
1688814819.202,-30.762,-42.480,-40.527,-60.059,-125.977
1688814819.206,-47.852,-39.062,-40.527,-34.180,64.941
1688814819.210,-35.645,-35.156,-38.086,-51.270,14.160
1688814819.214,0.977,-37.109,-31.738,-74.707,-127.930
1688814819.218,13.184,-39.551,-28.809,-57.129,135.254
1688814819.221,-6.348,-39.551,-30.273,-47.852,302.734
1688814819.225,-27.832,-40.527,-31.250,-31.250,77.637
1688814819.229,-20.508,-39.551,-33.691,-50.293,-94.727
1688814819.233,12.207,-38.086,-32.227,-73.242,-143.066
1688814819.237,24.902,-41.992,-36.133,-56.641,-129.395
1688814819.242,15.625,-40.527,-39.062,-47.852,-64.941
1688814819.246,-9.766,-35.156,-33.203,-17.578,-13.184
1688814819.250,-17.578,-35.645,-28.320,-20.508,73.730
1688814819.254,3.418,-39.551,-34.180,-65.430,-26.367
1688814819.258,4.883,-41.016,-35.645,-55.664,-101.074
1688814819.262,-8.301,-36.133,-36.133,-38.574,-50.781
1688814819.266,-33.691,-34.668,-44.434,-16.113,277.344
1688814819.269,-42.969,-38.086,-43.457,-30.762,129.395
1688814819.273,-19.043,-40.039,-42.480,-67.383,-204.590
1688814819.277,-4.883,-41.504,-41.016,-56.152,-114.258
1688814819.281,-10.254,-39.062,-38.086,-42.480,-89.355
1688814819.285,-39.062,-39.062,-45.898,-26.855,-66.895
1688814819.299,-52.734,-41.504,-47.852,-27.832,-25.391
1688814819.303,-21.973,-42.969,-46.875,-57.617,-108.887
1688814819.307,1.953,-44.434,-48.340,-53.223,-65.430
1688814819.311,-2.930,-41.992,-48.340,-41.992,-33.203
1688814819.315,-23.926,-42.480,-47.852,-27.344,-36.621
1688814819.319,-34.668,-41.016,-48.340,-15.137,141.602
1688814819.323,-14.160,-41.992,-45.898,-38.086,369.629
1688814819.326,3.906,-43.945,-43.945,-39.551,124.023
1688814819.330,1.953,-41.504,-47.852,-35.645,-172.363
1688814819.334,-12.695,-39.062,-44.922,-20.508,-91.797
1688814819.338,-30.762,-35.645,-38.574,2.441,-43.457
1688814819.342,-21.973,-37.109,-44.922,-33.203,-71.777
1688814819.344,0.000,-38.574,-44.922,-40.039,-75.684
1688814819.348,5.371,-37.109,-41.992,-20.996,-41.016
1688814819.352,-8.789,-34.668,-43.457,-15.137,-71.289
1688814819.356,-33.203,-31.738,-39.551,0.000,-69.824
1688814819.360,-24.902,-32.715,-40.527,-30.762,-94.727
1688814819.364,4.395,-31.738,-38.574,-48.828,-78.125
1688814819.368,4.883,-30.273,-37.109,-32.715,-79.102
1688814819.371,-19.043,-33.203,-39.551,-32.227,-116.211
1688814819.375,-50.293,-36.621,-40.039,-24.902,-50.781
1688814819.379,-49.805,-34.180,-41.992,-42.480,285.645
1688814819.383,-20.996,-35.156,-41.504,-63.965,252.441
1688814819.387,-9.277,-34.668,-35.156,-50.293,-130.859
1688814819.389,-18.066,-27.832,-36.133,-31.738,-123.535
1688814819.393,-45.410,-27.832,-45.410,-10.254,-39.062
1688814819.397,-49.316,-33.691,-41.504,-30.273,-67.871
1688814819.401,-26.367,-31.738,-36.621,-58.105,-125.000
1688814819.405,-27.832,-31.738,-40.039,-42.969,-35.156
1688814819.409,-47.852,-38.574,-43.457,-37.109,104.980
1688814819.413,-76.172,-41.992,-43.945,-19.043,89.355
1688814819.416,-83.984,-44.434,-43.945,-28.320,-61.523
1688814819.420,-52.246,-43.945,-44.434,-56.641,13.672
1688814819.424,-33.691,-39.551,-43.457,-42.480,234.375
1688814819.428,-42.480,-39.062,-41.016,-39.062,-65.430
1688814819.432,-66.406,-39.062,-39.062,-23.438,-206.543
1688814819.434,-78.125,-40.527,-40.039,-34.668,-88.379
1688814819.438,-50.293,-42.969,-45.410,-78.125,-195.801
1688814819.442,-25.879,-41.016,-48.340,-64.941,-200.684
1688814819.446,-30.273,-41.992,-43.457,-48.828,-160.645
1688814819.450,-55.664,-43.457,-43.945,-25.391,-83.984
1688814819.454,-66.895,-42.480,-44.922,-17.090,-38.086
1688814819.458,-43.945,-38.086,-44.434,-57.617,-76.660
1688814819.461,-26.367,-34.180,-44.434,-58.105,-25.879
1688814819.465,-31.738,-35.645,-41.992,-37.598,134.277
1688814819.469,-57.129,-41.504,-41.016,-20.996,85.449
1688814819.473,-77.637,-44.434,-43.457,-21.484,27.344
1688814819.477,-62.012,-42.969,-46.875,-56.641,-38.574
1688814819.479,-40.527,-42.969,-46.387,-64.453,-14.648
1688814819.483,-42.969,-41.504,-43.945,-54.688,-116.699
1688814819.487,-64.453,-39.062,-46.875,-47.363,-194.824
1688814819.491,-79.102,-35.645,-46.875,-33.203,28.809
1688814819.495,-57.617,-37.109,-45.898,-48.340,-9.277
1688814819.499,-35.645,-38.086,-49.805,-57.617,-145.996
1688814819.503,-27.832,-35.645,-47.363,-42.480,-109.863
1688814819.506,-33.691,-38.086,-43.945,-19.043,28.320
1688814819.510,-56.641,-41.992,-42.480,1.465,155.273
1688814819.514,-48.340,-40.527,-43.457,-32.227,-105.469
1688814819.518,-20.020,-37.598,-43.457,-45.898,-243.164
1688814819.522,-16.113,-39.551,-41.992,-27.344,-114.746
1688814819.527,-34.668,-39.551,-45.898,-19.043,-49.805
1688814819.531,-52.246,-36.621,-45.898,-1.953,-41.504
1688814819.535,-43.457,-34.668,-43.945,-27.344,-73.242
1688814819.539,-15.625,-33.203,-45.898,-46.875,-13.184
1688814819.543,0.000,-28.320,-44.434,-25.391,-86.914
1688814819.547,-17.578,-24.902,-42.969,-12.207,-130.371
1688814819.551,-49.805,-21.484,-41.504,8.789,137.207
1688814819.554,-44.434,-19.043,-38.574,-0.977,301.270
1688814819.558,-12.695,-21.484,-40.039,-38.574,-19.531
1688814819.562,-1.953,-20.508,-41.504,-36.621,-201.660
1688814819.566,-11.230,-18.555,-42.969,-21.973,-83.984
1688814819.570,-32.715,-12.695,-41.992,0.977,-43.457
1688814819.570,-34.668,-10.742,-42.969,-10.742,-74.707
1688814819.574,-7.324,-15.137,-42.969,-43.945,-210.938
1688814819.578,0.488,-14.648,-41.016,-32.715,-127.930
1688814819.582,-9.277,-11.230,-40.527,-25.879,77.148
1688814819.586,-28.809,-13.184,-37.109,-11.719,76.172
1688814819.590,-46.875,-20.508,-39.062,-18.066,-39.551
1688814819.594,-34.668,-24.414,-37.598,-52.246,35.645
1688814819.597,-22.461,-24.414,-35.156,-38.574,299.805
1688814819.601,-40.039,-29.297,-38.574,-29.297,43.945
1688814819.605,-69.336,-29.785,-33.203,-20.508,-167.969
1688814819.609,-86.426,-32.227,-34.180,-29.785,-7.812
1688814819.613,-65.918,-34.668,-39.551,-75.195,-142.578
1688814819.616,-43.457,-33.203,-36.621,-67.871,-237.305
1688814819.620,-58.105,-32.715,-34.668,-49.805,-110.840
1688814819.624,-78.613,-31.250,-32.715,-40.527,-81.543
1688814819.628,-85.449,-31.738,-31.250,-43.457,-136.719
1688814819.632,-68.359,-33.691,-31.738,-58.594,-109.863
1688814819.636,-44.922,-35.645,-32.715,-45.898,62.988
1688814819.640,-41.016,-33.203,-31.738,-28.320,355.469
1688814819.643,-48.828,-24.902,-29.297,-35.156,220.215
1688814819.647,-54.199,-22.461,-25.879,-39.551,-121.094
1688814819.651,-41.016,-27.344,-33.203,-45.410,-119.141
1688814819.655,-23.926,-25.879,-38.574,-40.527,-98.633
1688814819.659,-27.832,-27.344,-33.203,-31.250,-121.094
1688814819.659,-42.969,-32.227,-29.785,-41.016,-88.379
1688814819.663,-59.570,-28.809,-32.227,-57.129,-98.145
1688814819.667,-60.547,-26.367,-32.715,-73.242,-105.469
1688814819.671,-58.105,-32.715,-30.273,-62.988,-105.469
1688814819.675,-83.984,-34.180,-26.367,-48.340,-144.531
1688814819.679,-116.699,-36.621,-25.391,-54.199,-5.371
1688814819.683,-131.836,-35.645,-31.250,-39.062,292.969
1688814819.686,-124.512,-29.297,-40.039,-51.758,44.922
1688814819.690,-100.098,-32.715,-39.551,-61.523,-234.863
1688814819.694,-80.078,-35.156,-37.109,-41.016,-19.531
1688814819.698,-79.102,-33.203,-40.527,-44.434,12.207
1688814819.702,-81.543,-33.691,-35.156,-43.945,-144.531
1688814819.721,-61.523,-40.527,-24.902,-47.363,-121.094
1688814819.725,-31.738,-42.480,-26.367,-61.523,-92.773
1688814819.729,-21.973,-41.992,-27.832,-52.734,-123.535
1688814819.733,-31.738,-43.457,-22.461,-54.688,-175.781
1688814819.737,-48.828,-39.062,-18.066,-47.852,-128.906
1688814819.741,-58.594,-41.016,-19.531,-41.016,53.223
1688814819.745,-47.363,-44.922,-26.855,-62.500,29.785
1688814819.748,-43.945,-42.480,-34.180,-57.129,-159.180
1688814819.752,-61.523,-40.039,-29.297,-57.129,-167.969
1688814819.756,-88.867,-39.551,-19.531,-34.668,287.109
1688814819.760,-92.285,-39.551,-20.996,-28.320,239.746
1688814819.764,-67.383,-41.992,-27.832,-73.730,-197.754
1688814819.764,-50.781,-41.504,-26.855,-64.453,-128.418
1688814819.768,-48.340,-41.016,-26.367,-37.109,-41.504
1688814819.772,-67.383,-41.992,-27.832,-16.113,-47.363
1688814819.776,-76.172,-37.109,-23.438,-12.695,24.414
1688814819.780,-49.316,-33.691,-20.508,-55.176,2.441
1688814819.784,-31.250,-35.645,-26.367,-49.805,41.016
1688814819.788,-33.691,-33.691,-23.926,-33.203,-12.207
1688814819.791,-57.617,-37.109,-20.996,-25.879,-142.090
1688814819.795,-81.055,-40.039,-24.902,-20.020,3.906
1688814819.799,-59.082,-41.992,-26.367,-53.223,234.863
1688814819.803,-38.086,-44.922,-27.344,-66.895,-86.426
1688814819.807,-48.828,-46.875,-27.832,-56.152,-229.492
1688814819.809,-77.637,-47.852,-26.367,-41.016,66.406
1688814819.813,-104.004,-49.316,-24.414,-37.109,-9.766
1688814819.817,-91.797,-47.852,-26.855,-83.008,-180.664
1688814819.821,-68.359,-49.316,-31.738,-98.145,-154.297
1688814819.825,-59.570,-46.387,-29.297,-73.730,-68.848
1688814819.829,-71.777,-39.551,-31.738,-61.035,-4.395
1688814819.833,-93.262,-36.133,-36.133,-38.574,-78.613
1688814819.836,-70.312,-33.203,-32.715,-60.547,-73.730
1688814819.840,-30.762,-35.645,-32.715,-68.359,145.508
1688814819.844,-17.090,-33.203,-24.902,-43.945,1.953
1688814819.848,-27.344,-26.855,-20.996,-32.227,-192.383
1688814819.852,-54.199,-28.809,-26.855,-9.766,-106.934
1688814819.869,-50.293,-30.762,-29.785,-33.203,-93.750
1688814819.873,-13.184,-28.809,-31.250,-51.758,-117.676
1688814819.877,-6.836,-30.762,-32.227,-38.086,-55.176
1688814819.881,-28.320,-35.156,-34.180,-31.250,84.961
1688814819.885,-51.758,-38.086,-33.203,-3.418,320.312
1688814819.889,-50.781,-35.645,-28.320,-29.785,140.137
1688814819.893,-24.414,-38.086,-31.738,-63.477,-49.316
1688814819.896,-13.672,-39.551,-29.785,-38.086,111.816
1688814819.900,-21.973,-41.992,-30.762,-28.809,146.973
1688814819.904,-44.434,-41.504,-36.133,-24.902,-77.637
1688814819.908,-44.434,-34.180,-28.320,-37.598,-157.227
1688814819.912,-6.348,-38.086,-25.391,-66.895,-119.629
1688814819.901,12.695,-35.156,-28.320,-53.223,-158.691
1688814819.905,7.324,-33.203,-30.762,-41.504,-238.281
1688814819.909,-10.742,-35.156,-28.809,-24.902,-124.512
1688814819.913,-25.879,-31.738,-26.367,-28.320,-25.391
1688814819.917,2.441,-31.738,-31.738,-69.824,1.465
1688814819.921,23.926,-32.715,-34.180,-61.035,-44.434
1688814819.925,20.020,-35.156,-31.250,-31.738,-23.926
1688814819.928,4.395,-34.668,-30.762,-3.906,223.633
1688814819.932,-8.789,-28.320,-30.273,-2.930,81.055
1688814819.936,14.648,-26.367,-27.344,-44.922,-243.652
1688814819.940,33.203,-27.344,-30.273,-43.945,-202.148
1688814819.944,20.508,-28.320,-37.109,-21.973,112.305
1688814819.944,-11.230,-29.297,-32.715,-11.230,17.090
1688814819.948,-37.598,-25.879,-26.367,-8.789,-180.176
1688814819.952,-23.438,-26.855,-27.832,-48.828,-113.281
1688814819.956,-5.371,-32.227,-28.809,-51.758,-64.453
1688814819.960,-12.695,-34.180,-27.832,-31.738,-124.023
1688814819.964,-40.527,-38.574,-26.855,-23.926,-115.234
1688814819.968,-69.336,-40.527,-26.367,-8.301,4.883
1688814819.971,-51.270,-41.504,-25.879,-31.250,321.289
1688814819.975,-22.461,-39.551,-26.367,-53.223,199.219
1688814819.979,-16.602,-37.109,-28.809,-46.875,-130.371
1688814819.983,-32.715,-34.668,-32.227,-40.039,-85.449
1688814819.987,-62.500,-35.645,-34.668,-26.367,-104.492
1688814819.991,-52.734,-33.691,-33.691,-59.570,-250.488
1688814819.995,-24.414,-30.273,-29.297,-80.566,-228.516
1688814819.999,-20.996,-30.273,-30.273,-61.523,-115.723
1688814820.003,-30.762,-32.227,-32.227,-46.387,-81.543
1688814820.007,-54.199,-34.668,-29.297,-19.531,-120.605
1688814820.011,-52.246,-32.715,-28.320,-53.223,-48.828
1688814820.015,-30.273,-34.668,-32.715,-75.684,190.430
1688814820.018,-30.762,-34.668,-33.203,-53.223,29.785
1688814820.022,-52.734,-32.715,-30.762,-50.293,-180.176
1688814820.026,-79.102,-33.203,-32.227,-30.762,-39.551
1688814820.030,-79.102,-32.227,-31.738,-43.457,71.777
1688814820.034,-51.270,-34.180,-30.273,-79.102,-123.535
1688814820.034,-36.133,-38.574,-30.762,-59.570,-191.895
1688814820.038,-44.922,-37.598,-27.832,-49.316,-102.539
1688814820.042,-79.590,-41.992,-30.762,-40.039,5.859
1688814820.046,-91.797,-43.945,-36.621,-54.688,38.086
1688814820.050,-57.617,-36.621,-36.133,-86.914,-164.062
1688814820.054,-40.039,-34.180,-35.645,-65.430,-60.059
1688814820.058,-50.781,-34.180,-34.668,-51.758,348.145
1688814820.061,-75.195,-28.809,-32.715,-33.203,177.246
1688814820.065,-80.078,-29.297,-33.203,-42.969,-99.609
1688814820.069,-47.363,-32.715,-39.551,-85.449,-90.332
1688814820.073,-30.273,-36.621,-44.434,-79.102,-151.855
1688814820.077,-35.156,-38.574,-38.574,-66.895,-200.195
1688814820.082,-52.246,-38.086,-33.691,-49.805,-27.832
1688814820.086,-63.965,-43.945,-33.203,-46.875,132.812
1688814820.090,-49.805,-46.875,-38.086,-94.727,-49.316
1688814820.094,-35.156,-47.363,-40.527,-96.191,-194.336
1688814820.098,-44.434,-44.434,-42.480,-79.102,-102.539
1688814820.102,-68.359,-45.410,-43.457,-63.965,103.027
1688814820.106,-81.055,-43.457,-41.016,-53.711,86.426
1688814820.109,-58.105,-38.574,-39.551,-87.891,-65.918
1688814820.113,-35.645,-43.945,-41.016,-79.102,-90.820
1688814820.117,-45.898,-43.945,-41.016,-52.734,45.410
1688814820.121,-65.918,-36.621,-42.480,-45.410,-40.039
1688814820.125,-84.473,-35.156,-42.969,-27.832,-99.609
1688814820.140,-69.824,-38.086,-42.480,-60.059,-119.141
1688814820.144,-38.086,-38.086,-41.992,-76.660,-137.695
1688814820.148,-35.645,-40.527,-39.551,-67.383,-63.965
1688814820.152,-61.523,-44.434,-35.645,-59.082,-51.270
1688814820.156,-89.355,-45.410,-33.203,-31.738,86.426
1688814820.160,-72.266,-42.480,-31.738,-55.664,321.289
1688814820.164,-43.457,-41.504,-32.227,-80.078,52.734
1688814820.167,-43.457,-41.016,-38.086,-67.383,-175.293
1688814820.171,-57.129,-42.480,-39.551,-50.293,20.996
1688814820.175,-74.707,-43.457,-39.062,-26.367,118.164
1688814820.179,-63.965,-42.480,-41.992,-69.336,-107.422
1688814820.183,-28.809,-41.016,-41.016,-102.539,-237.305
1688814820.184,-25.391,-41.016,-39.551,-84.961,-125.488
1688814820.188,-43.457,-42.969,-38.086,-78.613,-57.129
1688814820.192,-63.965,-37.109,-37.598,-49.805,-76.172
1688814820.196,-60.547,-34.668,-35.645,-51.758,-67.871
1688814820.200,-31.250,-40.039,-32.227,-69.336,-1.953
1688814820.204,-19.531,-35.645,-30.762,-60.059,1.465
1688814820.208,-34.180,-32.715,-35.156,-58.105,-94.238
1688814820.211,-58.105,-37.109,-35.645,-31.250,-48.828
1688814820.215,-61.035,-37.598,-35.156,-34.180,241.699
1688814820.219,-34.180,-33.203,-38.086,-74.707,94.727
1688814820.223,-19.043,-27.832,-37.598,-66.406,-202.637
1688814820.227,-30.762,-30.273,-39.062,-49.316,-214.355
1688814820.229,-58.105,-34.180,-43.945,-34.180,-115.723
1688814820.233,-70.801,-35.645,-42.480,-31.738,-124.023
1688814820.237,-45.898,-35.156,-46.387,-65.430,-164.551
1688814820.241,-27.344,-39.551,-47.852,-63.965,-4.883
1688814820.245,-30.762,-45.410,-38.574,-43.457,62.500
1688814820.249,-59.570,-48.340,-36.621,-38.574,49.805
1688814820.253,-72.754,-46.387,-37.109,-41.016,123.047
1688814820.256,-48.828,-41.016,-39.062,-77.637,158.691
1688814820.260,-27.344,-41.992,-41.992,-76.172,226.562
1688814820.264,-20.020,-41.504,-38.086,-65.430,-28.809
1688814820.268,-39.062,-39.062,-37.109,-59.570,-132.324
1688814820.272,-51.758,-35.645,-41.016,-34.668,-7.324
1688814820.274,-28.809,-30.762,-43.457,-66.895,-149.414
1688814820.278,0.977,-31.738,-41.016,-76.172,-185.547
1688814820.282,1.953,-32.227,-37.598,-63.965,-55.176
1688814820.286,-16.602,-35.645,-33.203,-48.828,-54.199
1688814820.290,-34.668,-39.551,-31.738,-23.926,-35.645
1688814820.294,-28.809,-38.574,-29.785,-57.617,-70.801
1688814820.298,-13.184,-40.039,-29.297,-69.824,-31.738
1688814820.301,-15.137,-42.969,-29.785,-43.945,210.938
1688814820.305,-27.832,-40.527,-31.738,-33.203,136.719
1688814820.309,-59.570,-41.504,-39.062,-27.832,-14.648
1688814820.313,-57.617,-44.922,-40.039,-57.129,-89.844
1688814820.317,-31.738,-42.969,-34.668,-75.195,-67.871
1688814820.319,-35.156,-38.086,-40.527,-64.941,-94.238
1688814820.323,-52.246,-35.156,-40.527,-58.105,-229.004
1688814820.327,-67.383,-36.621,-38.086,-32.715,-31.250
1688814820.331,-61.523,-39.551,-42.480,-53.711,207.520
1688814820.335,-38.086,-41.504,-45.410,-82.031,-85.449
1688814820.339,-29.297,-42.969,-44.922,-73.242,-184.570
1688814820.343,-47.852,-44.434,-42.480,-73.730,75.684
1688814820.346,-72.754,-47.363,-41.016,-37.109,246.094
1688814820.350,-61.523,-42.969,-35.645,-43.945,-56.152
1688814820.354,-30.762,-41.504,-34.180,-75.195,-248.047
1688814820.358,-22.461,-39.551,-39.062,-52.734,-149.414
1688814820.362,-35.645,-36.621,-45.898,-42.480,-85.938
1688814820.366,-53.711,-36.621,-46.875,-21.973,-105.957
1688814820.370,-49.805,-36.133,-41.504,-34.180,-104.980
1688814820.374,-22.949,-32.715,-38.086,-71.289,-8.789
1688814820.378,-11.230,-32.227,-45.410,-68.359,-66.406
1688814820.382,-18.555,-36.621,-47.363,-66.895,-211.426
1688814820.386,-38.086,-38.574,-40.527,-44.922,-70.312
1688814820.390,-48.340,-38.574,-41.992,-40.039,290.527
1688814820.393,-20.996,-35.156,-42.480,-83.496,101.074
1688814820.397,-1.953,-32.715,-43.457,-83.984,-139.160
1688814820.401,-12.695,-37.109,-41.016,-73.730,-135.742
1688814820.405,-36.133,-34.180,-36.621,-47.852,-51.270
1688814820.409,-63.477,-33.203,-31.738,-35.645,-69.824
1688814820.410,-55.664,-40.039,-30.762,-66.895,-216.797
1688814820.414,-43.457,-41.016,-33.203,-66.895,-98.145
1688814820.418,-53.223,-41.992,-35.645,-65.430,24.902
1688814820.422,-72.266,-41.016,-35.156,-51.758,18.066
1688814820.426,-97.168,-39.062,-32.227,-34.180,-34.180
1688814820.430,-94.727,-42.480,-32.227,-66.406,53.711
1688814820.434,-70.801,-40.039,-29.297,-59.082,304.688
1688814820.437,-59.570,-36.621,-31.250,-45.410,27.344
1688814820.441,-75.195,-37.598,-35.645,-38.574,-229.980
1688814820.445,-93.750,-41.992,-39.062,-22.461,-93.262
1688814820.449,-73.730,-39.062,-39.062,-56.641,-118.652
1688814820.453,-43.945,-39.551,-39.551,-63.965,-157.715
1688814820.469,-32.715,-39.062,-39.551,-49.316,-129.395
1688814820.473,-45.898,-34.668,-36.133,-42.480,-3.906
1688814820.477,-64.941,-39.551,-37.598,-20.508,47.363
1688814820.481,-56.152,-44.922,-38.574,-51.270,-76.172
1688814820.485,-21.973,-44.434,-35.156,-70.312,-87.891
1688814820.489,-18.555,-36.621,-35.645,-49.805,245.605
1688814820.493,-41.992,-35.156,-37.109,-44.922,242.188
1688814820.496,-65.918,-40.039,-32.715,-32.227,-15.137
1688814820.500,-59.082,-36.621,-35.156,-46.387,-46.875
1688814820.504,-23.926,-34.668,-33.203,-63.965,65.430
1688814820.508,-12.695,-31.738,-27.832,-54.199,-109.863
1688814820.512,-33.203,-33.203,-27.832,-42.969,-211.914
1688814820.514,-60.547,-35.645,-23.926,-18.066,-85.449
1688814820.518,-57.129,-26.367,-20.020,-36.133,-83.008
1688814820.522,-25.391,-24.902,-24.902,-66.895,-124.512
1688814820.526,-15.625,-33.203,-31.250,-48.340,-67.383
1688814820.530,-26.367,-31.738,-32.715,-30.273,-7.324
1688814820.534,-49.316,-31.250,-32.227,-8.301,109.375
1688814820.538,-53.223,-37.109,-37.598,-24.414,56.152
1688814820.541,-27.832,-36.621,-39.551,-68.848,-105.957
1688814820.545,-18.066,-32.227,-34.668,-52.246,33.203
1688814820.549,-28.809,-31.250,-35.156,-39.551,287.109
1688814820.553,-46.875,-31.738,-38.574,-23.926,53.223
1688814820.557,-55.176,-37.598,-39.551,-22.949,-126.953
1688814820.559,-32.227,-42.969,-42.969,-66.895,-100.098
1688814820.563,-12.207,-41.016,-42.480,-60.059,-174.805
1688814820.567,-24.902,-41.992,-36.133,-49.805,-210.449
1688814820.571,-51.270,-42.480,-39.062,-43.945,-115.723
1688814820.575,-63.477,-37.598,-44.434,-38.574,-63.965
1688814820.579,-41.504,-34.668,-37.109,-69.336,-33.203
1688814820.583,-22.949,-34.668,-38.086,-62.012,-99.609
1688814820.586,-26.367,-32.715,-39.551,-45.410,-129.395
1688814820.590,-46.387,-33.203,-33.203,-30.273,272.949
1688814820.594,-62.988,-33.691,-35.645,-22.949,236.328
1688814820.598,-46.387,-34.180,-36.133,-62.500,-165.527
1688814820.602,-20.508,-41.016,-36.133,-71.289,-151.367
1688814820.604,-18.066,-41.016,-36.133,-62.988,-150.879
1688814820.608,-33.203,-34.180,-33.203,-44.922,-131.836
1688814820.612,-50.293,-31.738,-37.109,-20.996,-61.035
1688814820.616,-40.527,-34.668,-39.551,-50.293,11.719
1688814820.620,-18.066,-37.109,-36.621,-58.594,20.508
1688814820.624,-16.113,-37.598,-40.527,-45.410,-121.094
1688814820.628,-31.738,-36.133,-40.527,-32.715,-152.344
1688814820.631,-59.570,-36.621,-34.668,-9.277,89.355
1688814820.635,-55.176,-38.574,-34.180,-36.621,225.586
1688814820.639,-21.484,-37.109,-34.668,-59.570,-111.328
1688814820.643,-18.066,-37.598,-36.621,-49.316,-120.117
1688814820.647,-39.062,-39.062,-39.062,-47.363,131.348
1688814820.650,-59.570,-38.086,-34.668,-26.855,161.621
1688814820.654,-45.898,-37.109,-31.250,-43.945,-110.352
1688814820.658,-15.625,-42.480,-35.156,-63.965,-214.355
1688814820.662,-4.395,-46.875,-34.180,-43.457,-105.957
1688814820.666,-13.184,-46.875,-31.250,-30.762,-66.895
1688814820.670,-36.133,-44.434,-31.738,-6.348,-37.598
1688814820.674,-41.016,-41.504,-33.203,-22.461,43.945
1688814820.677,-11.719,-39.062,-32.715,-48.828,231.445
1688814820.681,0.000,-35.645,-39.551,-37.109,22.461
1688814820.685,-15.625,-31.738,-42.969,-30.273,-232.910
1688814820.689,-40.527,-30.762,-36.621,-12.207,-129.395
1688814820.693,-44.434,-35.156,-35.156,-23.926,-90.820
1688814820.710,-17.090,-34.180,-34.668,-57.617,-160.645
1688814820.714,-5.371,-31.738,-34.180,-48.828,-185.059
1688814820.718,-16.113,-34.668,-36.621,-36.621,-57.617
1688814820.722,-42.969,-41.016,-38.574,-25.391,161.621
1688814820.726,-59.082,-39.551,-38.574,-38.574,21.973
1688814820.730,-33.203,-34.180,-38.574,-70.312,-112.305
1688814820.734,-14.648,-39.062,-40.527,-55.664,32.715
1688814820.737,-23.926,-42.480,-41.992,-40.527,238.770
1688814820.741,-44.922,-45.410,-41.992,-31.738,15.137
1688814820.745,-60.547,-47.852,-43.457,-34.180,-162.598
1688814820.749,-34.668,-44.434,-41.992,-62.988,-164.062
1688814820.753,-9.766,-42.969,-40.527,-55.664,-202.148
1688814820.741,-16.602,-41.016,-40.039,-45.410,-223.633
1688814820.745,-41.992,-36.621,-35.645,-27.832,-141.113
1688814820.749,-65.430,-35.645,-32.715,-19.043,17.090
1688814820.753,-47.363,-35.156,-36.621,-56.152,43.945
1688814820.757,-18.066,-34.180,-33.203,-53.223,-95.215
1688814820.761,-21.484,-38.574,-30.762,-49.316,-39.062
1688814820.765,-43.457,-38.086,-33.691,-40.039,199.707
1688814820.768,-56.152,-39.062,-32.715,-22.461,139.160
1688814820.772,-37.598,-41.504,-31.738,-49.805,-97.168
1688814820.776,-9.277,-40.039,-31.250,-54.688,-169.922
1688814820.780,-4.395,-41.016,-31.738,-34.668,107.910
1688814820.784,-14.160,-34.668,-30.273,-23.926,53.223
1688814820.784,-32.715,-27.832,-29.297,-17.090,-108.887
1688814820.788,-25.879,-29.785,-35.156,-52.734,-124.512
1688814820.792,-2.930,-29.785,-37.598,-67.383,-150.391
1688814820.796,-3.418,-31.250,-37.109,-52.246,-119.629
1688814820.800,-17.578,-35.156,-36.133,-51.758,-105.957
1688814820.804,-47.852,-34.668,-33.203,-32.227,83.008
1688814820.808,-45.410,-32.715,-33.203,-38.086,464.355
1688814820.811,-11.719,-34.668,-32.715,-50.293,155.762
1688814820.815,-4.395,-34.180,-31.738,-42.969,-223.633
1688814820.819,-21.484,-31.738,-29.785,-40.039,-121.094
1688814820.823,-49.805,-33.203,-25.391,-19.531,-47.363
1688814820.827,-56.152,-30.762,-20.020,-38.574,-156.250
1688814820.844,-37.109,-32.227,-25.391,-73.242,-173.340
1688814820.848,-22.949,-35.645,-28.320,-54.199,-144.043
1688814820.852,-27.832,-36.133,-24.414,-34.180,-136.719
1688814820.856,-57.617,-33.691,-29.785,-22.461,-90.820
1688814820.860,-65.430,-28.809,-34.180,-38.574,-91.309
1688814820.864,-38.086,-35.156,-35.645,-66.895,-3.906
1688814820.868,-21.484,-40.039,-36.621,-55.176,-23.926
1688814820.871,-25.391,-35.645,-33.691,-43.945,-106.934
1688814820.875,-45.898,-32.715,-30.762,-23.926,-43.457
1688814820.879,-56.152,-32.715,-32.715,-23.438,157.715
1688814820.883,-26.367,-37.109,-32.227,-50.293,49.316
1688814820.887,-4.883,-31.738,-26.367,-37.598,-94.727
1688814820.889,-17.090,-24.414,-26.367,-30.273,-103.027
1688814820.893,-49.805,-26.855,-29.785,-25.391,-92.773
1688814820.897,-70.801,-29.297,-29.785,-26.855,46.387
1688814820.901,-48.828,-31.250,-25.391,-59.570,-6.348
1688814820.905,-20.996,-30.762,-23.926,-55.176,-13.672
1688814820.909,-21.484,-29.297,-23.438,-38.574,174.805
1688814820.913,-38.086,-31.250,-25.879,-25.391,156.250
1688814820.916,-59.082,-34.180,-24.414,-16.602,136.230
1688814820.920,-41.504,-32.715,-26.367,-37.598,122.070
1688814820.924,-14.648,-32.715,-27.832,-38.574,157.227
1688814820.928,-23.926,-34.668,-25.391,-41.992,64.453
1688814820.932,-42.969,-34.668,-28.809,-44.434,-54.199
1688814820.934,-61.523,-34.180,-29.297,-26.367,75.684
1688814820.938,-45.898,-33.691,-28.320,-60.059,-4.395
1688814820.942,-13.672,-31.738,-29.297,-76.660,-197.266
1688814820.946,-7.324,-36.621,-27.832,-57.617,-179.199
1688814820.950,-20.508,-39.062,-32.227,-41.504,-84.473
1688814820.954,-43.457,-39.551,-36.133,-21.973,12.695
1688814820.958,-39.551,-39.062,-36.133,-51.758,-7.812
1688814820.961,-8.301,-35.645,-29.785,-62.988,-72.266
1688814820.965,-2.441,-37.109,-27.344,-38.086,145.508
1688814820.969,-23.438,-32.227,-32.715,-40.527,37.109
1688814820.973,-49.316,-29.785,-32.715,-29.297,-163.086
1688814820.977,-43.457,-31.738,-28.809,-42.969,-61.035
1688814820.979,-17.578,-28.320,-25.391,-69.336,16.113
1688814820.983,-14.648,-27.832,-26.367,-58.105,-110.352
1688814820.987,-24.902,-26.367,-27.832,-46.875,-170.410
1688814820.991,-44.434,-22.461,-20.020,-14.648,67.383
1688814820.995,-48.828,-23.438,-18.555,-23.926,216.309
1688814820.999,-21.973,-30.762,-30.762,-67.871,90.820
1688814821.003,-19.043,-32.715,-33.203,-70.312,53.711
1688814821.006,-43.945,-34.668,-33.203,-62.012,85.449
1688814821.010,-68.848,-34.668,-36.133,-32.227,210.449
1688814821.014,-73.242,-30.762,-34.180,-46.875,-33.691
1688814821.018,-48.828,-33.691,-29.297,-77.148,-199.707
1688814821.022,-29.785,-39.551,-27.832,-65.430,-97.656
1688814821.027,-38.086,-33.691,-30.762,-61.035,-67.383
1688814821.031,-62.500,-27.832,-31.250,-41.016,-115.234
1688814821.035,-73.242,-32.227,-29.297,-38.574,-20.508
1688814821.039,-45.898,-38.086,-32.715,-72.266,101.562
1688814821.043,-25.879,-34.180,-36.621,-64.941,-30.762
1688814821.047,-33.203,-29.785,-34.668,-55.664,-38.574
1688814821.051,-53.711,-29.785,-30.762,-43.457,80.078
1688814821.054,-67.383,-31.738,-32.715,-29.297,248.535
1688814821.058,-36.133,-30.762,-34.668,-69.336,27.832
1688814821.062,-7.812,-30.273,-32.227,-70.312,-218.262
1688814821.066,-7.812,-28.809,-31.250,-48.828,-121.582
1688814821.070,-28.320,-25.391,-27.832,-41.016,-91.309
1688814821.069,-52.734,-27.344,-24.414,-22.949,-80.078
1688814821.073,-41.016,-28.809,-23.926,-43.457,-165.039
1688814821.077,-21.973,-26.855,-23.926,-46.875,-200.195
1688814821.081,-28.809,-26.855,-29.297,-30.273,-59.570
1688814821.085,-56.641,-26.855,-29.785,-29.297,-65.918
1688814821.089,-78.613,-26.367,-31.738,-30.762,-154.785
1688814821.093,-63.965,-30.273,-32.227,-56.152,47.363
1688814821.096,-36.133,-32.227,-27.832,-49.316,416.016
1688814821.100,-32.715,-30.762,-32.715,-37.598,276.367
1688814821.104,-50.781,-25.391,-35.156,-34.180,-110.840
1688814821.108,-72.266,-22.461,-35.156,-20.508,-104.492
1688814821.112,-61.523,-25.391,-38.086,-54.688,-132.324
1688814821.116,-31.738,-27.832,-37.109,-67.383,-236.328
1688814821.120,-28.809,-31.250,-37.598,-46.387,-147.461
1688814821.124,-46.387,-39.551,-35.156,-40.527,-100.586
1688814821.128,-65.430,-37.109,-29.785,-18.066,-61.523
1688814821.132,-54.688,-33.203,-28.320,-36.621,-31.250
1688814821.136,-25.391,-34.668,-30.273,-62.500,-37.598
1688814821.140,-15.137,-32.227,-30.273,-33.691,182.617
1688814821.143,-24.902,-30.273,-31.250,-26.367,73.242
1688814821.147,-47.852,-31.250,-29.785,-17.578,-106.445
1688814821.151,-64.941,-30.762,-32.227,-34.180,-59.570
1688814821.155,-40.527,-30.762,-32.227,-60.059,-21.484
1688814821.159,-14.648,-30.762,-27.344,-45.410,-159.668
1688814821.159,-26.367,-31.738,-27.344,-42.969,-192.871
1688814821.163,-53.711,-33.203,-30.762,-29.785,-187.012
1688814821.167,-56.641,-35.645,-33.691,-38.086,-212.402
1688814821.171,-23.438,-32.227,-31.738,-67.871,-133.301
1688814821.175,-4.395,-29.785,-26.855,-52.246,-132.324
1688814821.179,-13.184,-34.668,-25.879,-34.180,-8.789
1688814821.183,-45.410,-37.598,-30.762,-14.160,391.113
1688814821.186,-50.293,-31.250,-30.762,-17.578,100.098
1688814821.190,-21.484,-34.180,-30.273,-60.547,-246.582
1688814821.194,-7.812,-41.504,-32.715,-60.547,-67.871
1688814821.198,-13.672,-42.480,-33.691,-48.340,-108.398
1688814821.202,-38.086,-36.621,-35.156,-35.645,-179.199
1688814821.219,-50.781,-30.762,-28.809,-31.250,-144.531
1688814821.223,-21.484,-29.297,-21.973,-57.129,-119.629
1688814821.227,-6.836,-31.250,-27.344,-57.617,-120.117
1688814821.231,-21.973,-34.668,-32.227,-52.246,-253.906
1688814821.235,-42.969,-35.645,-28.320,-30.273,-211.426
1688814821.239,-63.477,-40.527,-27.832,-18.066,70.801
1688814821.243,-48.828,-41.992,-30.273,-61.523,-22.949
1688814821.246,-25.879,-39.062,-33.691,-60.059,-260.254
1688814821.250,-30.762,-41.016,-39.062,-41.992,-161.133
1688814821.254,-51.270,-41.016,-38.574,-34.180,131.348
1688814821.258,-68.848,-37.109,-31.738,-22.461,12.695
1688814821.262,-42.969,-36.133,-31.738,-54.688,-169.922
1688814821.264,-29.297,-34.180,-36.133,-59.570,-32.227
1688814821.268,-111.816,-32.227,-34.668,-33.691,4.395
1688814821.272,-186.523,-28.320,-29.785,-20.020,-100.098
1688814821.276,-210.938,-31.250,-30.273,-7.812,-42.480
1688814821.280,-198.730,-36.133,-32.227,-33.691,13.672
1688814821.284,-155.762,-33.203,-28.809,-45.410,56.152
1688814821.288,-134.277,-30.273,-31.738,-31.250,-70.801
1688814821.291,-139.648,-33.203,-32.715,-31.250,-215.332
1688814821.295,-158.203,-42.480,-33.203,-17.090,8.789
1688814821.299,-137.695,-39.551,-34.180,-37.598,152.832
1688814821.303,-94.238,-38.086,-32.715,-67.383,-151.367
1688814821.307,-82.520,-40.039,-34.668,-52.734,-205.566
1688814821.310,-91.309,-40.527,-37.598,-42.480,-45.410
1688814821.314,-109.863,-45.898,-40.039,-26.367,-12.207
1688814821.318,-109.863,-45.410,-40.527,-40.039,-93.262
1688814821.322,-74.219,-41.504,-36.133,-59.570,-138.184
1688814821.326,-56.152,-38.574,-36.133,-31.250,-39.551
1688814821.330,-62.012,-37.598,-40.039,-21.973,-7.812
1688814821.334,-83.984,-39.062,-38.086,-13.184,32.227
1688814821.337,-88.379,-38.574,-37.109,-20.508,78.125
1688814821.341,-57.617,-34.668,-39.062,-43.945,185.547
1688814821.345,-37.598,-31.250,-38.574,-29.785,52.734
1688814821.349,-35.645,-25.879,-32.227,-20.508,-159.180
1688814821.353,-55.664,-29.785,-29.297,-5.371,-96.680
1688814821.354,-65.918,-26.855,-29.785,-12.695,-83.496
1688814821.358,-37.109,-23.438,-32.715,-48.340,-151.855
1688814821.362,-10.254,-23.438,-35.156,-36.133,-170.898
1688814821.366,-15.625,-26.855,-34.180,-27.832,-49.316
1688814821.370,-45.410,-27.344,-32.227,-13.184,140.137
1688814821.374,-62.500,-28.809,-32.227,-9.766,69.824
1688814821.378,-30.762,-28.320,-33.203,-48.828,-89.844
1688814821.381,-8.789,-21.973,-37.109,-40.527,0.977
1688814821.385,-16.602,-22.461,-37.598,-20.020,195.801
1688814821.389,-33.691,-22.461,-33.691,-12.695,-41.992
1688814821.393,-51.758,-23.926,-40.039,-7.812,-173.828
1688814821.397,-31.738,-24.902,-41.504,-42.480,-65.430
1688814821.400,-2.930,-21.973,-40.527,-47.852,-174.316
1688814821.404,-8.789,-23.926,-42.480,-31.738,-240.723
1688814821.408,-36.133,-28.320,-41.016,-28.809,-167.969
1688814821.412,-58.594,-27.344,-38.574,-19.531,-124.512
1688814821.416,-44.922,-25.879,-33.691,-44.922,-194.824
1688814821.420,-13.184,-28.809,-31.250,-51.758,-118.164
1688814821.424,-9.766,-33.691,-35.645,-32.227,-9.277
1688814821.427,-41.992,-30.273,-35.645,-5.859,254.395
1688814821.431,-67.383,-26.367,-30.273,9.277,308.594
1688814821.435,-51.270,-29.297,-30.273,-28.320,-64.941
1688814821.439,-22.949,-31.738,-29.785,-39.551,-162.109
1688814821.443,-11.719,-27.344,-29.297,-23.438,-145.020
1688814821.444,-23.926,-28.320,-27.344,-25.391,-115.234
1688814821.448,-59.082,-32.715,-28.809,-8.301,-83.496
1688814821.452,-58.594,-33.203,-27.832,-19.043,-61.523
1688814821.456,-26.367,-37.109,-27.832,-42.969,-31.250
1688814821.460,-14.160,-33.203,-32.715,-38.574,-110.840
1688814821.464,-24.414,-24.902,-29.785,-23.926,-175.781
1688814821.468,-51.758,-24.414,-28.320,-2.441,60.547
1688814821.471,-64.453,-28.809,-32.227,-21.973,321.289
1688814821.475,-40.527,-29.297,-32.227,-61.035,8.301
1688814821.479,-31.250,-26.855,-29.785,-47.852,-124.512
1688814821.483,-46.875,-28.320,-31.250,-26.855,33.691
1688814821.487,-73.730,-30.273,-29.297,-6.348,-11.719
1688814821.491,-88.867,-33.203,-31.250,-22.461,-108.398
1688814821.495,-66.895,-32.227,-35.156,-62.012,-100.586
1688814821.499,-52.246,-28.320,-32.715,-49.805,-83.496
1688814821.503,-64.941,-25.879,-33.691,-38.574,-86.914
1688814821.507,-92.773,-20.508,-35.645,-26.855,-78.613
1688814821.511,-106.934,-18.066,-34.180,-20.996,80.078
1688814821.515,-90.820,-23.926,-34.668,-51.758,237.305
1688814821.518,-79.102,-27.832,-32.715,-55.664,-31.738
1688814821.522,-84.961,-26.367,-29.785,-41.016,-185.059
1688814821.526,-104.980,-28.809,-29.297,-25.391,-104.980
1688814821.530,-121.582,-31.250,-32.227,-35.156,-61.523
1688814821.534,-101.562,-28.320,-34.668,-67.383,-59.570
1688814821.535,-73.730,-23.926,-34.668,-58.594,-130.371
1688814821.539,-76.172,-20.508,-33.691,-39.551,-142.090
1688814821.543,-103.516,-27.832,-34.180,-28.809,-16.602
1688814821.547,-123.047,-33.203,-37.598,-28.809,36.133
1688814821.551,-105.469,-33.691,-40.039,-67.871,-153.809
1688814821.555,-75.684,-31.250,-40.039,-58.594,-24.902
1688814821.559,-75.195,-30.762,-37.109,-22.949,360.352
1688814821.562,-91.797,-31.250,-30.273,-19.531,9.277
1688814821.566,-112.305,-27.344,-32.715,-11.719,-150.391
1688814821.570,-98.633,-26.367,-40.039,-32.715,-36.133
1688814821.574,-66.406,-28.809,-42.480,-54.199,-133.301
1688814821.578,-59.570,-28.809,-40.527,-47.852,-190.430
1688814821.582,-62.988,-27.832,-38.086,-33.691,-113.281
1688814821.586,-84.961,-23.926,-40.039,-18.555,31.738
1688814821.590,-84.961,-26.855,-42.480,-52.246,10.742
1688814821.594,-54.199,-31.250,-42.969,-74.219,-92.285
1688814821.598,-40.527,-29.297,-37.598,-53.223,-49.805
1688814821.602,-52.734,-33.691,-42.480,-37.109,262.695
1688814821.606,-72.266,-34.668,-44.922,-18.066,311.035
1688814821.609,-64.941,-29.297,-38.086,-28.809,-55.664
1688814821.613,-30.273,-30.762,-37.598,-56.641,-125.977
1688814821.617,-20.020,-35.156,-39.062,-51.270,118.652
1688814821.621,-34.180,-35.645,-36.133,-41.016,12.207
1688814821.625,-55.176,-38.574,-38.574,-25.879,-68.359
1688814821.639,-55.664,-39.551,-34.180,-37.109,-51.270
1688814821.643,-26.367,-33.203,-22.949,-59.570,-116.699
1688814821.647,-14.648,-33.691,-29.297,-48.340,-95.215
1688814821.651,-25.879,-35.645,-33.203,-45.410,-103.027
1688814821.655,-48.828,-31.738,-29.785,-25.879,12.207
1688814821.659,-56.641,-30.762,-35.156,-20.508,420.898
1688814821.663,-23.438,-34.668,-29.785,-49.805,216.309
1688814821.666,-1.465,-36.133,-29.297,-45.898,-171.387
1688814821.670,-11.230,-35.645,-34.668,-30.273,-58.105
1688814821.674,-25.879,-31.250,-26.855,-11.719,37.598
1688814821.678,-29.297,-32.715,-23.438,-20.996,-82.031
1688814821.682,-3.418,-33.691,-24.414,-52.246,-112.793
1688814821.684,17.090,-30.762,-24.414,-45.410,-66.895
1688814821.688,10.742,-28.809,-29.785,-35.156,-130.371
1688814821.692,-10.254,-25.391,-28.809,-26.855,-107.422
1688814821.696,-25.879,-28.320,-24.902,-20.508,-37.598
1688814821.700,0.488,-30.762,-27.832,-55.176,-122.070
1688814821.704,23.438,-31.738,-33.203,-60.059,-60.059
1688814821.708,16.113,-31.738,-31.738,-46.875,18.555
1688814821.711,-12.207,-28.809,-28.320,-37.598,-12.695
1688814821.715,-39.551,-31.250,-31.738,-20.020,242.188
1688814821.719,-32.715,-39.062,-35.645,-50.781,162.598
1688814821.723,-25.879,-39.062,-33.691,-61.035,-129.883
1688814821.727,-38.086,-36.133,-26.855,-41.992,-141.113
1688814821.729,-63.965,-39.062,-24.414,-33.691,-152.344
1688814821.733,-89.355,-36.133,-22.461,-27.832,-133.789
1688814821.737,-69.336,-40.039,-23.438,-54.199,-185.059
1688814821.741,-33.203,-42.969,-27.344,-65.918,-118.652
1688814821.745,-34.180,-39.062,-24.902,-51.270,19.043
1688814821.749,-52.734,-42.480,-26.367,-43.457,4.395
1688814821.753,-80.078,-41.992,-23.438,-21.484,41.992
1688814821.756,-77.637,-35.645,-17.090,-33.691,155.273
1688814821.760,-42.480,-33.691,-11.230,-54.199,175.781
1688814821.764,-34.668,-38.086,-4.883,-43.457,-97.168
1688814821.768,-46.387,-38.574,-8.301,-35.156,-250.977
1688814821.772,-68.359,-41.016,-17.090,-25.391,-31.250
1688814821.775,-71.289,-41.016,-18.555,-49.805,-85.449
1688814821.779,-45.410,-35.156,-20.996,-72.754,-276.855
1688814821.783,-42.480,-38.574,-28.809,-56.641,-172.852
1688814821.787,-56.152,-34.668,-25.879,-49.805,-65.430
1688814821.791,-74.219,-30.762,-20.996,-26.855,-81.055
1688814821.795,-90.332,-30.762,-25.391,-33.691,-84.961
1688814821.799,-76.660,-29.297,-28.320,-60.547,-33.691
1688814821.802,-70.312,-32.715,-26.367,-39.062,192.871
1688814821.806,-82.520,-33.691,-29.297,-34.180,42.969
1688814821.810,-109.863,-33.203,-29.785,-30.762,-144.043
1688814821.814,-123.535,-32.715,-28.320,-39.551,30.762
1688814821.818,-98.145,-33.691,-30.762,-79.102,-6.348
1688814821.819,-83.984,-33.203,-33.203,-76.660,-138.672
1688814821.823,-97.168,-31.250,-36.133,-62.012,-216.309
1688814821.827,-125.000,-30.273,-36.133,-40.527,-96.191
1688814821.831,-141.602,-31.738,-37.598,-38.086,154.785
1688814821.835,-116.699,-32.715,-37.109,-70.312,-46.387
1688814821.839,-94.727,-35.156,-36.621,-62.988,-139.160
1688814821.843,-99.609,-34.180,-40.039,-50.293,170.410
1688814821.846,-120.117,-33.691,-34.668,-34.668,405.762
1688814821.850,-129.883,-34.180,-28.809,-37.598,92.285
1688814821.854,-102.051,-33.203,-30.273,-71.289,-202.148
1688814821.858,-71.289,-32.227,-34.180,-70.801,-85.449
1688814821.862,-60.059,-30.762,-30.273,-56.641,-51.270
1688814821.867,-70.801,-29.785,-25.879,-37.109,-100.098
1688814821.871,-86.426,-28.320,-29.785,-22.461,-22.949
1688814821.875,-68.848,-29.785,-36.133,-47.852,52.246
1688814821.879,-35.645,-26.855,-30.273,-55.176,-69.336
1688814821.883,-32.227,-23.926,-24.902,-48.828,-167.480
1688814821.887,-51.270,-26.855,-27.832,-38.574,-66.895
1688814821.891,-68.848,-26.367,-27.832,-14.648,274.902
1688814821.894,-60.059,-23.926,-27.344,-51.758,54.688
1688814821.898,-32.715,-21.973,-26.855,-64.453,-208.984
1688814821.902,-36.133,-25.391,-26.367,-39.551,-72.266
1688814821.906,-71.289,-34.668,-27.832,-38.086,-42.480
1688814821.910,-100.586,-38.086,-29.297,-26.855,-108.398
1688814821.909,-92.285,-29.785,-29.297,-52.246,-126.465
1688814821.913,-65.918,-32.227,-31.738,-72.266,-128.906
1688814821.917,-61.035,-35.156,-33.203,-57.617,-124.512
1688814821.921,-69.824,-27.344,-30.762,-40.527,-77.148
1688814821.925,-86.914,-27.832,-30.273,-19.043,35.645
1688814821.929,-81.055,-29.297,-31.250,-39.551,141.602
1688814821.933,-53.223,-24.902,-30.762,-58.105,286.621
1688814821.936,-42.480,-24.414,-28.809,-48.828,113.770
1688814821.940,-54.199,-24.414,-25.391,-48.828,-147.949
1688814821.944,-86.426,-24.414,-23.438,-22.949,-44.434
1688814821.948,-90.332,-27.832,-24.902,-21.973,30.762
1688814821.952,-72.754,-24.414,-28.809,-68.848,-130.859
1688814821.969,-66.895,-18.555,-29.297,-63.477,-205.078
1688814821.973,-65.918,-18.555,-24.902,-44.434,-131.348
1688814821.977,-82.031,-20.996,-22.461,-38.574,-63.477
1688814821.981,-79.102,-21.484,-23.438,-52.246,-165.527
1688814821.985,-50.293,-21.484,-24.902,-83.008,-176.758
1688814821.989,-48.340,-25.879,-29.297,-62.012,93.262
1688814821.993,-62.012,-28.320,-32.715,-40.527,52.734
1688814821.996,-87.402,-31.738,-33.203,-32.715,17.578
1688814822.000,-105.957,-35.645,-32.227,-36.621,59.082
1688814822.004,-90.820,-37.598,-32.227,-58.105,155.273
1688814822.008,-70.801,-32.227,-34.180,-52.246,98.633
1688814822.012,-64.453,-24.902,-30.762,-41.992,-97.168
1688814822.014,-80.566,-24.414,-27.832,-26.367,-72.754
1688814822.018,-96.191,-24.414,-29.785,-30.273,-31.738
1688814822.022,-68.359,-26.855,-34.180,-74.707,-120.117
1688814822.026,-44.434,-31.250,-32.715,-69.824,-100.098
1688814822.030,-43.945,-36.621,-26.855,-49.316,-15.137
1688814822.034,-55.664,-42.969,-28.809,-37.598,81.055
1688814822.038,-62.500,-41.504,-33.203,-30.762,87.891
1688814822.041,-37.109,-39.551,-34.180,-62.012,-122.559
1688814822.045,-5.371,-32.715,-32.715,-58.594,-37.598
1688814822.049,5.859,-30.273,-32.227,-35.645,230.469
1688814822.053,-16.113,-33.203,-32.227,-37.109,-32.227
1688814822.057,-43.945,-31.250,-30.273,-25.879,-168.945
1688814822.059,-23.926,-29.297,-30.273,-51.270,-127.441
1688814822.063,11.230,-30.762,-28.320,-60.547,-217.773
1688814822.067,18.555,-32.715,-34.180,-46.875,-220.215
1688814822.071,8.789,-27.832,-38.086,-43.945,-159.668
1688814822.075,-7.324,-28.809,-33.691,-26.367,-65.430
1688814822.079,2.441,-32.227,-33.691,-49.316,-20.020
1688814822.083,38.086,-29.785,-33.203,-60.059,-134.277
1688814822.086,50.781,-27.832,-30.762,-36.621,-158.203
1688814822.090,36.133,-32.227,-34.180,-25.879,136.230
1688814822.094,17.578,-35.156,-34.668,-8.301,154.297
1688814822.098,22.461,-32.227,-36.133,-40.039,-54.199
1688814822.102,53.711,-30.762,-41.504,-70.312,-116.699
1688814822.104,65.430,-30.273,-37.598,-45.898,-86.426
1688814822.108,58.594,-29.785,-31.738,-37.598,-127.930
1688814822.112,34.668,-33.203,-31.250,-19.043,-106.445
1688814822.116,25.879,-32.715,-32.715,-24.414,81.543
1688814822.120,56.641,-29.297,-34.668,-57.129,64.453
1688814822.124,74.707,-27.832,-31.738,-50.781,-76.172
1688814822.128,63.965,-28.320,-33.691,-45.410,-96.191
1688814822.131,34.668,-27.344,-37.598,-25.879,20.508
1688814822.135,25.879,-24.902,-34.668,-31.738,165.039
1688814822.139,55.176,-22.949,-29.785,-74.219,-159.180
1688814822.143,75.195,-30.273,-30.273,-62.988,-307.129
1688814822.147,65.918,-30.273,-31.250,-48.340,-164.551
1688814822.167,42.969,-25.879,-32.715,-31.738,-91.309
1688814822.171,25.391,-30.273,-31.738,-30.762,-83.008
1688814822.175,41.504,-28.320,-27.344,-64.941,-144.043
1688814822.179,57.617,-26.855,-29.785,-50.293,-18.066
1688814822.183,46.875,-28.809,-34.180,-38.574,-17.578
1688814822.187,26.855,-25.879,-36.621,-27.832,-35.645
1688814822.191,5.371,-26.367,-37.109,-20.508,43.945
1688814822.194,21.973,-27.344,-38.574,-52.246,224.121
1688814822.198,40.527,-28.809,-41.992,-53.711,37.598
1688814822.202,29.785,-34.668,-41.992,-43.457,-179.688
1688814822.206,12.695,-33.691,-40.527,-28.809,-67.383
1688814822.210,-6.348,-31.738,-39.062,-11.230,1.953
1688814822.195,1.953,-31.738,-37.109,-47.852,-69.824
1688814822.199,27.344,-29.785,-33.691,-53.711,-122.559
1688814822.203,24.414,-31.250,-33.691,-44.922,-87.891
1688814822.207,-0.488,-31.250,-38.086,-41.504,-32.715
1688814822.211,-23.438,-33.203,-38.574,-21.484,57.617
1688814822.215,-9.277,-37.598,-37.598,-48.828,-1.953
1688814822.219,20.508,-38.086,-35.645,-63.477,-1.465
1688814822.222,25.391,-36.133,-35.645,-46.875,-0.977
1688814822.226,12.207,-34.668,-37.598,-38.086,-130.371
1688814822.230,-10.254,-32.227,-34.668,-17.578,-149.414
1688814822.234,-9.277,-33.203,-36.133,-38.086,30.273
1688814822.238,13.184,-35.645,-37.109,-49.316,291.504
1688814822.241,23.438,-33.203,-29.785,-37.598,46.387
1688814822.245,14.648,-31.738,-23.926,-35.645,-103.027
1688814822.249,-11.719,-36.621,-24.902,-9.766,54.688
1688814822.253,-20.020,-36.133,-30.273,-31.250,-62.500
1688814822.257,0.977,-36.621,-35.156,-66.895,-213.867
1688814822.261,11.719,-35.645,-30.273,-53.711,-159.668
1688814822.265,7.812,-30.762,-27.344,-35.156,142.090
1688814822.268,-17.578,-29.785,-35.156,-10.742,93.262
1688814822.272,-29.297,-29.785,-36.621,-27.832,-129.883
1688814822.276,-3.418,-29.785,-34.180,-57.617,-133.789
1688814822.280,4.883,-32.227,-36.621,-44.922,23.926
1688814822.284,-8.301,-41.016,-39.062,-39.062,-142.090
1688814822.284,-23.438,-39.551,-36.621,-17.578,-213.379
1688814822.288,-21.973,-29.297,-32.715,-23.438,-58.105
1688814822.292,4.883,-28.320,-29.785,-59.082,-91.309
1688814822.296,18.555,-30.273,-30.273,-45.898,-87.891
1688814822.300,11.719,-28.320,-32.715,-27.832,-155.762
1688814822.304,-18.066,-30.762,-34.180,-5.859,23.438
1688814822.308,-33.203,-31.250,-30.762,-5.371,437.500
1688814822.311,-7.324,-31.250,-26.367,-59.082,135.254
1688814822.315,10.254,-30.273,-31.738,-52.246,-110.352
1688814822.319,-4.395,-31.738,-38.086,-30.762,-25.391
1688814822.323,-33.203,-35.645,-39.551,-24.414,-14.160
1688814822.327,-42.480,-38.574,-39.062,-19.531,-74.219
1688814822.344,-21.484,-36.133,-36.621,-52.734,-187.500
1688814822.348,1.465,-31.738,-36.133,-54.199,-151.855
1688814822.352,2.930,-30.762,-35.645,-38.574,-76.172
1688814822.356,-13.184,-28.320,-39.062,-30.273,-76.660
1688814822.360,-26.367,-30.273,-41.016,-32.227,-38.086
1688814822.364,-10.742,-33.691,-40.039,-70.801,-11.230
1688814822.368,15.137,-29.785,-41.016,-76.172,-56.641
1688814822.371,9.277,-31.738,-46.387,-63.965,-123.535
1688814822.375,-11.719,-32.715,-41.504,-58.594,-112.793
1688814822.379,-35.645,-32.227,-33.203,-35.156,48.828
1688814822.383,-32.227,-32.715,-34.180,-56.152,24.414
1688814822.387,-2.930,-32.227,-33.691,-74.707,-114.746
1688814822.389,7.324,-33.203,-34.180,-53.711,-67.383
1688814822.393,-10.742,-28.320,-32.227,-28.809,232.422
1688814822.397,-35.156,-29.785,-33.691,-14.160,143.555
1688814822.401,-34.668,-38.086,-40.039,-50.293,-145.020
1688814822.405,-0.488,-33.203,-35.645,-60.547,-124.023
1688814822.409,19.531,-20.508,-21.484,-22.949,97.656
1688814822.413,14.648,-11.719,-11.230,-9.277,35.645
1688814822.416,-8.301,-12.207,-10.742,7.324,-31.738
1688814822.420,-13.184,-12.695,-13.672,-17.578,52.246
1688814822.424,16.602,-14.160,-12.695,-44.922,45.898
1688814822.428,22.461,-16.602,-12.695,-32.715,-185.059
1688814822.432,0.000,-20.996,-12.695,-26.855,-213.867
1688814822.434,-28.809,-29.785,-17.578,-8.789,-18.066
1688814822.438,-33.691,-32.715,-20.020,-25.879,-62.500
1688814822.442,-0.977,-26.367,-20.508,-59.082,-181.152
1688814822.446,18.555,-20.996,-22.461,-46.875,-125.488
1688814822.450,0.000,-17.090,-20.508,-38.574,-50.781
1688814822.454,-28.320,-18.555,-20.020,-24.902,-25.879
1688814822.458,-33.203,-21.973,-19.043,-34.180,-48.340
1688814822.461,-5.371,-20.020,-17.090,-67.871,-153.809
1688814822.465,7.324,-27.832,-25.391,-57.617,36.621
1688814822.469,-5.859,-30.762,-29.785,-51.758,3.906
1688814822.473,-31.250,-26.367,-23.438,-37.598,-112.793
1688814822.477,-47.363,-25.391,-20.508,-33.691,-76.660
1688814822.480,-22.461,-28.809,-24.902,-66.406,-122.070
1688814822.484,0.977,-28.809,-23.926,-63.965,-151.855
1688814822.488,-2.930,-25.391,-21.973,-58.594,-150.391
1688814822.492,-23.926,-25.879,-22.461,-40.039,28.320
1688814822.496,-43.945,-23.926,-22.461,-21.484,269.531
1688814822.500,-23.926,-22.461,-24.902,-59.570,49.316
1688814822.504,1.465,-22.949,-25.391,-61.523,-116.211
1688814822.507,-5.859,-22.949,-23.438,-38.086,21.484
1688814822.511,-32.715,-24.414,-26.855,-20.996,216.309
1688814822.515,-55.664,-30.273,-32.715,-22.461,-5.859
1688814822.519,-40.039,-29.297,-32.715,-62.988,-191.895
1688814822.523,-9.766,-30.762,-27.832,-60.059,-66.895
1688814822.540,-8.301,-35.645,-29.297,-46.875,-78.125
1688814822.544,-22.949,-38.086,-32.715,-44.434,-179.199
1688814822.548,-41.992,-36.621,-31.250,-17.090,-124.512
1688814822.552,-37.598,-31.250,-34.180,-39.062,-69.336
1688814822.556,-10.742,-29.297,-32.227,-55.664,-180.176
1688814822.560,-5.859,-32.227,-32.715,-34.180,-186.035
1688814822.564,-24.902,-35.156,-40.039,-24.414,-35.645
1688814822.567,-46.875,-33.691,-34.668,-3.906,358.398
1688814822.571,-40.039,-32.227,-31.738,-31.250,226.562
1688814822.575,-14.648,-35.645,-31.738,-66.406,-196.777
1688814822.579,-12.207,-31.250,-32.227,-52.734,-166.504
1688814822.583,-24.902,-28.809,-33.203,-45.898,-75.684
1688814822.569,-40.527,-28.320,-33.203,-24.902,-30.273
1688814822.573,-35.645,-27.832,-32.715,-33.691,-103.027
1688814822.577,-7.324,-29.785,-33.203,-52.246,-108.398
1688814822.581,7.324,-32.227,-32.715,-25.879,18.555
1688814822.585,-2.930,-36.133,-34.668,-22.949,-64.941
1688814822.589,-24.902,-34.668,-32.227,-11.719,-44.922
1688814822.593,-33.691,-33.691,-33.203,-9.766,156.250
1688814822.596,-2.930,-29.785,-39.551,-42.480,88.867
1688814822.600,24.414,-26.855,-34.180,-31.738,-62.988
1688814822.604,6.836,-29.785,-33.691,-25.391,-134.766
1688814822.608,-25.879,-36.621,-40.527,-8.789,65.918
1688814822.612,-32.227,-37.109,-36.133,-4.883,371.094
1688814822.616,-4.883,-34.180,-29.785,-51.270,46.387
1688814822.620,13.672,-35.156,-29.785,-40.527,-155.273
1688814822.624,-2.441,-33.203,-32.227,-30.762,-62.988
1688814822.628,-48.828,-41.992,-35.156,-35.156,-108.887
1688814822.632,-66.406,-42.480,-33.203,-35.645,-172.363
1688814822.636,-39.062,-35.156,-31.250,-63.965,-147.949
1688814822.640,-20.508,-31.738,-31.738,-57.129,63.477
1688814822.643,-20.508,-32.715,-32.227,-40.039,-17.090
1688814822.647,-38.086,-33.203,-33.691,-29.785,-160.156
1688814822.651,-63.477,-31.250,-35.645,-29.785,-12.207
1688814822.655,-42.480,-32.715,-37.109,-61.035,168.945
1688814822.659,-9.766,-27.832,-33.691,-56.152,-62.988
1688814822.659,-12.695,-25.879,-32.715,-35.156,-236.328
1688814822.663,-30.273,-28.320,-34.668,-24.902,-165.039
1688814822.667,-46.875,-26.855,-33.203,-15.625,-72.266
1688814822.671,-27.832,-30.273,-35.156,-46.387,-135.742
1688814822.675,3.418,-26.367,-36.133,-49.805,-203.613
1688814822.679,-1.465,-19.531,-37.109,-33.691,62.500
1688814822.683,-20.996,-18.066,-36.133,-22.461,426.270
1688814822.686,-40.527,-21.484,-34.668,-9.277,203.125
1688814822.690,-36.133,-26.367,-35.156,-40.039,-109.375
1688814822.694,-9.766,-24.902,-37.598,-55.664,-80.078
1688814822.698,-13.184,-31.738,-38.574,-41.504,-104.004
1688814822.702,-35.645,-35.156,-36.133,-31.738,-94.727
1688814822.707,-59.082,-33.691,-36.621,-19.043,103.516
1688814822.711,-52.734,-35.156,-35.156,-41.016,151.855
1688814822.715,-15.137,-32.715,-34.180,-51.758,-96.680
1688814822.719,-1.953,-37.109,-35.156,-40.039,-146.973
1688814822.723,-20.508,-41.504,-33.691,-39.551,-33.691
1688814822.727,-45.898,-36.133,-34.180,-18.066,121.582
1688814822.731,-41.504,-26.367,-28.809,-40.527,10.742
1688814822.734,-9.277,-25.391,-32.227,-71.777,-202.637
1688814822.738,-0.977,-25.391,-37.109,-45.410,-195.312
1688814822.742,-13.672,-23.926,-34.668,-27.344,94.727
1688814822.746,-38.086,-29.785,-33.203,-15.625,73.242
1688814822.750,-43.945,-34.180,-31.250,-26.367,-79.102
1688814822.765,-16.602,-34.668,-32.715,-65.918,-130.371
1688814822.769,-6.348,-31.250,-31.738,-63.477,-115.234
1688814822.773,-15.625,-27.832,-29.297,-45.410,-90.820
1688814822.777,-39.551,-31.250,-34.668,-28.809,0.000
1688814822.781,-45.410,-26.367,-37.598,-27.344,65.430
1688814822.785,-16.602,-21.973,-36.133,-44.434,279.785
1688814822.789,0.488,-30.273,-35.645,-42.969,171.875
1688814822.792,-3.906,-31.250,-36.133,-41.504,-136.230
1688814822.796,-24.414,-29.297,-38.574,-20.996,18.555
1688814822.800,-40.039,-31.250,-34.668,-20.996,100.586
1688814822.804,-19.531,-31.250,-29.297,-65.918,-139.648
1688814822.808,4.395,-32.715,-33.203,-64.453,-166.504
1688814822.809,2.930,-31.738,-31.738,-48.340,-98.145
1688814822.813,-19.043,-27.832,-30.762,-32.715,-125.000
1688814822.817,-43.457,-25.879,-38.086,-30.762,-131.348
1688814822.821,-25.391,-27.832,-35.156,-66.406,-130.371
1688814822.825,2.441,-32.715,-35.645,-67.871,-92.773
1688814822.829,-6.348,-36.133,-43.945,-55.176,-28.320
1688814822.833,-29.297,-33.203,-41.504,-43.457,12.207
1688814822.836,-45.410,-37.598,-42.969,-32.715,5.859
1688814822.840,-30.273,-36.621,-38.086,-52.246,196.289
1688814822.844,0.977,-27.832,-28.320,-57.617,141.602
1688814822.848,6.836,-23.438,-25.391,-44.434,-157.715
1688814822.852,-15.625,-22.949,-31.738,-29.785,-129.395
1688814822.854,-42.480,-23.438,-36.621,-12.695,-66.406
1688814822.858,-31.738,-22.461,-36.133,-30.273,-152.832
1688814822.862,2.441,-20.508,-30.273,-39.551,-182.129
1688814822.866,5.859,-22.461,-31.250,-39.551,37.109
1688814822.870,-17.578,-27.832,-35.156,-38.086,162.109
1688814822.874,-45.410,-27.344,-36.621,-17.578,105.957
1688814822.878,-38.574,-26.367,-40.527,-41.016,15.137
1688814822.881,-10.742,-28.320,-37.598,-58.105,44.922
1688814822.885,-7.324,-28.809,-38.574,-32.227,253.418
1688814822.889,-24.902,-31.738,-43.457,-32.227,-47.852
1688814822.893,-54.199,-34.180,-42.480,-22.949,-188.477
1688814822.897,-60.547,-33.203,-41.992,-32.227,-90.820
1688814822.900,-40.039,-37.109,-42.480,-55.664,-166.016
1688814822.904,-26.367,-36.621,-38.086,-46.387,-197.266
1688814822.908,-31.250,-33.203,-34.668,-33.691,-120.117
1688814822.912,-55.664,-36.133,-35.645,-12.207,-70.801
1688814822.916,-53.711,-34.180,-37.109,-19.531,-97.168
1688814822.920,-26.367,-32.227,-35.645,-54.688,-141.602
1688814822.924,-17.090,-32.715,-33.203,-42.969,-74.219
1688814822.927,-31.250,-28.320,-36.133,-29.297,113.281
1688814822.931,-60.059,-28.809,-37.598,-14.648,56.152
1688814822.935,-71.777,-35.645,-35.156,-27.344,-34.180
1688814822.939,-44.434,-39.062,-37.598,-64.453,-42.969
1688814822.943,-29.297,-38.086,-41.992,-54.199,-26.855
1688814822.944,-38.086,-36.621,-41.504,-41.016,-94.727
1688814822.948,-51.758,-36.621,-38.574,-19.043,-83.496
1688814822.952,-64.453,-33.691,-37.109,-10.254,32.715
1688814822.956,-41.992,-33.691,-36.621,-49.316,46.875
1688814822.960,-19.531,-34.180,-39.551,-41.016,-89.355
1688814822.964,-29.297,-35.156,-45.898,-25.391,-150.391
1688814822.968,-50.293,-37.109,-46.875,-14.648,39.062
1688814822.971,-75.684,-35.645,-41.992,-1.953,387.207
1688814822.975,-63.965,-35.156,-38.574,-47.852,114.746
1688814822.979,-37.109,-40.039,-35.645,-45.410,-194.824
1688814822.983,-35.156,-38.086,-34.668,-23.438,-91.309
1688814822.987,-52.734,-32.227,-34.180,-20.020,30.762
1688814822.992,-71.777,-32.715,-32.227,-3.418,8.301
1688814822.996,-62.500,-39.062,-35.645,-46.387,-145.508
1688814823.000,-44.922,-40.527,-36.621,-50.781,-25.879
1688814823.004,-40.527,-35.645,-36.133,-28.809,-58.105
1688814823.008,-51.758,-30.273,-38.574,-30.273,-152.344
1688814823.012,-74.707,-31.738,-43.457,-15.137,81.543
1688814823.016,-67.871,-31.250,-46.875,-33.203,306.641
1688814823.019,-36.133,-26.367,-43.457,-62.988,92.773
1688814823.023,-23.926,-23.438,-38.574,-58.594,-157.227
1688814823.027,-44.922,-29.297,-39.551,-48.828,-175.293
1688814823.031,-75.684,-30.273,-43.457,-26.855,-103.516
1688814823.035,-71.289,-28.809,-45.898,-45.898,-87.891
1688814823.035,-44.434,-29.297,-34.668,-62.500,-165.527
1688814823.039,-42.480,-32.715,-28.320,-39.062,-120.117
1688814823.043,-73.242,-34.668,-32.227,-22.949,-31.250
1688814823.047,-113.281,-34.180,-34.668,-7.324,-10.254
1688814823.051,-122.559,-31.250,-32.227,-33.691,-76.172
1688814823.055,-106.445,-27.344,-28.809,-55.176,-31.250
1688814823.059,-107.910,-30.762,-28.320,-19.531,307.129
1688814823.062,-125.488,-34.668,-31.250,-7.812,186.523
1688814823.066,-153.809,-33.203,-34.180,0.000,-85.938
1688814823.070,-159.668,-34.180,-32.715,-9.766,-29.297
1688814823.074,-126.953,-36.133,-34.180,-43.945,-108.887
1688814823.078,-109.863,-32.715,-32.715,-41.016,-172.363
1688814823.081,-112.305,-25.879,-29.785,-20.508,-120.605
1688814823.085,-137.207,-27.344,-31.738,-1.465,-36.133
1688814823.089,-155.762,-31.738,-29.785,-14.648,-87.402
1688814823.093,-127.930,-33.203,-29.785,-56.641,-232.422
1688814823.097,-111.328,-34.668,-32.715,-43.457,-114.746
1688814823.101,-111.816,-32.227,-30.762,-23.438,260.742
1688814823.105,-128.418,-29.785,-27.832,-20.508,280.273
1688814823.108,-151.367,-30.762,-29.297,-25.879,-47.852
1688814823.112,-130.371,-31.250,-31.738,-51.758,-105.957
1688814823.116,-102.539,-31.738,-30.273,-39.551,2.930
1688814823.120,-104.492,-29.297,-29.297,-31.738,-156.738
1688814823.124,-125.977,-31.250,-30.273,-21.973,-250.488
1688814823.139,-141.602,-32.227,-25.879,2.930,-152.344
1688814823.143,-120.117,-28.809,-29.297,-33.203,-128.418
1688814823.147,-88.867,-22.949,-30.273,-47.363,-133.789
1688814823.151,-88.867,-26.367,-26.855,-23.926,-77.148
1688814823.155,-112.305,-36.133,-32.715,-15.625,20.020
1688814823.159,-125.977,-31.738,-32.715,-6.836,225.586
1688814823.163,-111.328,-31.250,-33.691,-41.504,40.039
1688814823.166,-82.031,-35.156,-32.227,-56.152,-147.461
1688814823.170,-70.312,-31.738,-26.367,-32.715,-27.344
1688814823.174,-88.867,-30.762,-29.785,-16.602,208.008
1688814823.178,-116.211,-33.203,-29.785,-10.742,36.621
1688814823.182,-107.422,-31.250,-28.320,-37.598,-145.508
1688814823.184,-83.008,-32.715,-30.273,-51.270,-123.047
1688814823.188,-81.543,-36.133,-33.203,-38.574,-93.262
1688814823.192,-96.680,-31.250,-33.691,-27.832,-145.508
1688814823.196,-126.953,-26.855,-32.227,-10.254,-97.168
1688814823.200,-126.465,-30.762,-32.227,-33.691,-50.781
1688814823.204,-90.332,-31.738,-32.715,-43.945,-128.906
1688814823.208,-74.219,-28.809,-32.227,-25.391,-126.465
1688814823.211,-79.590,-23.438,-25.879,-19.531,-112.305
1688814823.215,-102.051,-26.367,-26.855,10.254,204.102
1688814823.219,-107.910,-29.297,-31.738,-7.324,280.273
1688814823.223,-77.148,-31.738,-32.715,-44.922,-87.402
1688814823.227,-64.453,-36.133,-30.762,-23.926,-109.863
1688814823.229,-79.590,-33.203,-28.320,-21.484,-65.918
1688814823.233,-104.492,-32.227,-30.273,-15.137,-76.172
1688814823.237,-109.375,-32.715,-28.320,-22.461,-104.492
1688814823.241,-73.730,-30.273,-28.809,-44.922,-85.449
1688814823.245,-64.941,-34.180,-33.691,-35.645,30.762
1688814823.249,-78.613,-36.621,-34.668,-33.691,9.766
1688814823.253,-84.473,-30.273,-29.297,-12.207,0.000
1688814823.256,-84.473,-31.250,-31.738,-10.254,137.695
1688814823.260,-57.129,-30.762,-32.227,-47.363,168.945
1688814823.264,-34.668,-27.344,-31.250,-45.898,-85.938
1688814823.268,-39.551,-27.344,-30.273,-33.691,-143.066
1688814823.272,-62.012,-24.902,-29.785,-19.531,4.395
1688814823.277,-84.473,-29.297,-30.762,-18.066,1.953
1688814823.281,-62.988,-35.645,-32.227,-53.711,-170.410
1688814823.285,-39.062,-39.062,-34.180,-47.852,-181.152
1688814823.289,-50.293,-40.527,-33.203,-30.762,-97.168
1688814823.293,-71.777,-38.086,-33.691,-13.672,-137.207
1688814823.297,-93.262,-29.785,-33.691,-11.230,-40.039
1688814823.301,-75.684,-25.879,-32.227,-43.457,28.809
1688814823.304,-53.711,-32.715,-35.645,-43.945,177.246
1688814823.308,-57.617,-33.203,-38.574,-36.133,16.113
1688814823.312,-77.148,-32.227,-39.062,-29.297,-194.336
1688814823.316,-100.098,-37.109,-38.086,-13.184,-83.496
1688814823.320,-80.078,-39.551,-39.062,-41.016,-81.055
1688814823.320,-46.387,-38.574,-37.109,-54.199,-165.039
1688814823.324,-48.828,-38.574,-38.086,-43.457,-84.473
1688814823.328,-73.242,-37.109,-38.574,-32.715,49.316
1688814823.332,-98.633,-35.645,-36.133,-19.531,80.566
1688814823.336,-89.844,-36.133,-38.086,-46.875,-108.398
1688814823.340,-62.012,-33.203,-41.016,-60.059,-182.617
1688814823.344,-55.664,-33.691,-43.945,-44.922,31.250
1688814823.347,-62.988,-33.691,-40.039,-33.203,344.238
1688814823.351,-80.566,-30.273,-34.180,-10.254,242.188
1688814823.355,-70.801,-28.809,-38.574,-36.621,-130.371
1688814823.359,-31.738,-32.227,-41.992,-66.406,-209.473
1688814823.363,-11.230,-31.250,-33.691,-44.922,-143.555
1688814823.366,-21.484,-27.832,-27.344,-30.273,-142.578
1688814823.370,-45.898,-29.785,-28.320,-7.812,-95.703
1688814823.374,-48.340,-35.156,-33.691,-38.086,18.066
1688814823.378,-19.043,-38.574,-37.109,-78.613,-45.410
1688814823.382,5.859,-34.180,-33.691,-60.059,-115.723
1688814823.386,4.395,-32.227,-29.297,-45.410,-5.859
1688814823.390,-21.484,-32.227,-29.297,-18.555,312.988
1688814823.393,-17.090,-29.785,-31.738,-26.367,271.973
1688814823.397,20.508,-30.762,-35.645,-73.730,-152.832
1688814823.401,39.062,-31.250,-31.738,-68.359,-175.781
1688814823.405,33.691,-33.203,-32.227,-53.711,-63.477
1688814823.409,16.113,-31.738,-32.227,-35.156,-87.891
1688814823.409,5.371,-28.809,-26.855,-55.176,-71.289
1688814823.413,24.902,-27.832,-31.250,-103.027,-140.625
1688814823.417,47.852,-24.414,-33.691,-91.309,-183.594
1688814823.421,37.598,-28.809,-33.691,-78.125,-132.324
1688814823.425,9.766,-33.691,-33.203,-59.570,-113.281
1688814823.429,1.465,-29.785,-30.762,-41.504,36.621
1688814823.433,26.855,-31.250,-35.156,-65.918,320.312
1688814823.436,54.199,-35.645,-35.156,-60.547,148.438
1688814823.440,63.965,-31.738,-30.762,-38.086,-120.605
1688814823.444,44.922,-28.809,-34.180,-14.648,-1.465
1688814823.448,18.066,-26.855,-33.203,-8.789,64.941
1688814823.452,32.715,-26.367,-34.180,-52.734,-99.609
1688814823.456,53.223,-28.809,-36.621,-61.523,-145.996
1688814823.460,53.711,-29.785,-35.645,-41.992,-87.402
1688814823.464,37.109,-30.762,-36.133,-26.367,-33.203
1688814823.468,8.789,-30.273,-33.203,-22.461,-27.344
1688814823.472,10.742,-36.621,-31.250,-55.176,-115.234
1688814823.476,33.691,-41.504,-33.203,-57.617,-80.078
1688814823.480,34.668,-32.227,-31.250,-37.109,-25.391
1688814823.483,25.879,-29.785,-26.367,-23.438,-120.117
1688814823.487,2.441,-29.785,-23.926,-9.766,-10.742
1688814823.491,1.465,-24.414,-25.879,-31.250,230.469
1688814823.495,23.926,-26.367,-24.902,-43.457,84.961
1688814823.499,24.414,-26.367,-21.484,-36.133,-154.297
1688814823.514,1.465,-25.879,-29.297,-36.133,-87.891
1688814823.518,-37.598,-32.227,-32.227,-20.020,-59.570
1688814823.522,-46.875,-34.180,-26.367,-33.203,-126.953
1688814823.526,-23.926,-34.668,-22.461,-51.758,-86.914
1688814823.530,-22.949,-34.668,-25.879,-38.574,-41.016
1688814823.534,-44.922,-36.133,-29.297,-22.461,92.285
1688814823.538,-69.824,-38.086,-28.809,-7.812,6.836
1688814823.541,-67.871,-35.645,-28.320,-32.715,-162.598
1688814823.545,-35.645,-31.250,-24.902,-56.152,-80.078
1688814823.549,-26.855,-33.691,-27.344,-36.621,18.066
1688814823.553,-43.945,-33.203,-31.738,-35.645,-133.301
1688814823.557,-76.660,-30.273,-32.715,-21.484,-68.359
1688814823.559,-84.473,-30.762,-34.180,-26.367,93.262
1688814823.563,-49.316,-29.297,-33.203,-58.594,-92.773
1688814823.567,-27.344,-34.668,-29.297,-40.527,-250.000
1688814823.571,-37.598,-36.621,-28.320,-26.855,-216.797
1688814823.575,-80.078,-33.203,-37.598,-30.273,-120.117
1688814823.579,-94.727,-35.156,-41.504,-44.434,26.367
1688814823.583,-63.477,-34.668,-37.598,-78.613,-68.848
1688814823.586,-50.293,-35.645,-42.480,-74.219,-121.582
1688814823.590,-60.059,-36.133,-43.457,-50.293,137.695
1688814823.594,-82.031,-34.180,-34.180,-23.438,135.254
1688814823.598,-100.098,-39.062,-35.645,-21.484,-23.438
1688814823.602,-76.660,-39.062,-40.039,-67.871,-74.707
1688814823.619,-54.688,-39.062,-41.504,-69.824,-57.617
1688814823.623,-62.500,-39.062,-41.504,-58.105,-35.645
1688814823.627,-84.473,-34.180,-38.574,-48.828,-59.570
1688814823.631,-102.051,-29.785,-35.645,-27.344,143.066
1688814823.635,-85.449,-30.273,-35.156,-51.270,340.820
1688814823.639,-52.246,-33.691,-33.691,-50.293,130.371
1688814823.643,-44.434,-29.785,-31.738,-34.180,-85.938
1688814823.646,-63.477,-21.484,-34.668,-26.855,13.672
1688814823.650,-88.867,-26.855,-36.621,-9.277,162.109
1688814823.654,-77.637,-31.250,-35.156,-47.852,-88.867
1688814823.658,-54.688,-31.738,-36.621,-63.965,-175.293
1688814823.662,-60.547,-36.133,-43.457,-50.293,-76.172
1688814823.651,-82.031,-34.180,-41.992,-41.504,-107.422
1688814823.655,-108.398,-31.250,-40.527,-22.461,-105.469
1688814823.659,-100.098,-32.715,-41.504,-41.992,-144.043
1688814823.663,-74.707,-29.785,-37.598,-60.547,-83.984
1688814823.667,-65.918,-23.438,-37.598,-57.617,-124.512
1688814823.671,-68.359,-26.367,-39.551,-49.805,-130.371
1688814823.675,-83.496,-34.180,-42.969,-31.738,-16.113
1688814823.678,-67.871,-37.109,-44.922,-59.570,43.457
1688814823.682,-26.367,-35.645,-39.062,-83.496,-84.961
1688814823.686,-15.137,-38.574,-35.156,-67.871,-168.945
1688814823.690,-22.461,-38.086,-34.668,-55.176,-75.684
1688814823.694,-36.133,-30.762,-32.715,-26.855,184.082
1688814823.709,-31.738,-32.715,-37.109,-54.199,44.922
1688814823.713,9.277,-34.180,-36.621,-91.797,-256.836
1688814823.717,22.461,-28.809,-35.156,-79.590,-160.156
1688814823.721,17.578,-27.832,-37.109,-73.242,-51.758
1688814823.725,-4.883,-27.344,-38.574,-52.246,-54.199
1688814823.729,-25.879,-27.832,-44.434,-62.012,2.930
1688814823.733,0.488,-32.227,-42.969,-92.285,58.594
1688814823.736,18.066,-31.738,-38.574,-69.824,348.145
1688814823.740,-3.906,-31.250,-39.551,-64.453,246.094
1688814823.744,-37.109,-33.203,-40.039,-68.848,-77.637
1688814823.748,-44.922,-27.832,-37.598,-81.543,-73.242
1688814823.752,-20.508,-31.738,-37.109,-109.863,-166.504
1688814823.743,-5.371,-31.250,-34.668,-94.238,-229.492
1688814823.747,-17.090,-30.762,-31.250,-76.172,-116.211
1688814823.751,-45.898,-34.180,-36.133,-59.570,-27.832
1688814823.755,-58.594,-30.762,-34.180,-57.617,-30.273
1688814823.759,-42.480,-30.273,-28.809,-101.074,-143.555
1688814823.763,-33.691,-28.809,-35.645,-103.027,-88.379
1688814823.767,-41.504,-33.691,-39.062,-84.961,125.488
1688814823.770,-61.523,-28.809,-34.668,-69.336,35.645
1688814823.774,-82.520,-25.879,-31.250,-50.781,-23.438
1688814823.778,-68.848,-27.344,-30.273,-70.312,-74.707
1688814823.782,-42.480,-25.879,-27.344,-63.477,89.355
1688814823.786,-31.738,-27.344,-26.855,-43.457,-5.371
1688814823.784,-38.086,-24.414,-20.020,-21.973,-242.676
1688814823.788,-54.688,-26.367,-21.484,-2.441,-69.824
1688814823.792,-38.086,-28.809,-28.320,-26.855,244.141
1688814823.796,-13.184,-27.344,-28.320,-29.297,40.039
1688814823.800,-5.859,-21.484,-27.344,-18.555,-181.152
1688814823.804,-11.719,-20.020,-25.879,-14.160,137.207
1688814823.808,-32.227,-20.508,-27.832,12.207,492.676
1688814823.811,-28.320,-18.555,-28.320,-20.508,90.820
1688814823.815,-5.371,-21.973,-25.879,-41.504,-249.512
1688814823.819,-11.230,-28.809,-30.762,-19.043,-78.613
1688814823.823,-30.273,-27.344,-28.320,-18.066,-29.297
1688814823.827,-45.898,-23.438,-29.785,-7.812,-90.332
1688814823.844,-36.621,-23.926,-37.598,-23.438,-97.656
1688814823.848,-1.465,-22.461,-36.133,-47.363,-50.293
1688814823.852,0.000,-20.508,-30.273,-45.410,-66.406
1688814823.856,-27.344,-23.438,-26.367,-41.992,-113.281
1688814823.860,-68.359,-25.879,-28.320,-24.414,-66.895
1688814823.864,-70.801,-27.344,-33.691,-48.828,-6.836
1688814823.868,-33.691,-27.344,-33.203,-78.125,-98.633
1688814823.871,-26.367,-26.367,-31.250,-60.547,-154.297
1688814823.875,-33.691,-27.832,-35.645,-41.504,-140.137
1688814823.879,-54.199,-31.738,-40.039,-14.648,154.785
1688814823.883,-53.711,-31.738,-37.109,-15.625,-8.301
1688814823.887,-24.414,-28.809,-35.156,-41.016,-287.598
1688814823.889,-13.184,-33.203,-36.621,-31.250,-153.320
1688814823.893,-13.672,-33.691,-32.715,-22.949,-53.223
1688814823.897,-29.785,-27.832,-29.297,-3.906,-77.148
1688814823.901,-31.250,-27.344,-25.391,-0.977,-116.211
1688814823.905,5.371,-30.273,-26.367,-38.574,-119.629
1688814823.909,32.227,-23.926,-30.273,-39.551,-20.020
1688814823.913,31.738,-19.043,-31.250,-36.133,-27.344
1688814823.916,13.184,-22.461,-31.250,-33.203,-125.488
1688814823.920,-2.930,-23.438,-30.273,-24.902,-37.598
1688814823.924,22.461,-21.973,-28.320,-55.176,75.684
1688814823.928,49.316,-26.855,-27.832,-58.594,-124.512
1688814823.932,49.316,-28.809,-26.367,-41.016,-145.996
1688814823.935,26.855,-23.926,-26.855,-31.738,-14.648
1688814823.939,8.789,-22.461,-29.297,-23.438,-47.852
1688814823.943,24.414,-21.973,-33.203,-61.035,-202.148
1688814823.947,53.223,-20.996,-30.762,-66.406,-178.711
1688814823.951,58.594,-21.973,-27.344,-42.969,0.000
1688814823.955,37.598,-21.484,-30.762,-37.598,6.836
1688814823.959,17.578,-18.555,-30.273,-21.973,30.762
1688814823.962,32.227,-20.020,-27.344,-47.852,-19.043
1688814823.966,49.805,-20.020,-25.879,-51.758,69.824
1688814823.970,43.457,-18.555,-23.926,-34.180,-10.254
1688814823.974,24.414,-22.949,-26.855,-34.180,-125.977
1688814823.978,-2.930,-21.973,-26.855,-21.973,-19.043
1688814823.979,-0.488,-16.113,-26.855,-50.293,-39.551
1688814823.983,30.762,-19.531,-29.785,-64.941,-125.488
1688814823.987,39.551,-21.484,-27.832,-38.086,-155.762
1688814823.991,15.137,-21.973,-26.367,-29.297,70.801
1688814823.995,-9.766,-24.902,-30.762,-9.766,211.426
1688814823.999,0.000,-19.531,-32.715,-22.949,-18.555
1688814824.003,28.320,-19.043,-33.691,-52.246,-125.488
1688814824.006,32.227,-25.391,-35.645,-41.504,78.613
1688814824.010,21.484,-28.320,-38.086,-15.137,289.062
1688814824.014,-8.789,-26.367,-35.645,2.441,74.219
1688814824.018,-18.066,-28.809,-37.598,-17.578,-124.512
1688814824.022,20.508,-30.762,-39.551,-44.922,-114.258
1688814824.025,38.086,-25.879,-35.645,-34.180,-158.203
1688814824.029,12.695,-31.738,-39.551,-25.879,-197.754
1688814824.033,-17.578,-35.645,-41.016,-7.324,-67.871
1688814824.037,-19.043,-29.785,-33.203,-20.020,-21.484
1688814824.041,8.301,-32.227,-29.297,-54.688,-145.020
1688814824.045,23.926,-30.273,-28.809,-34.180,-79.590
1688814824.049,13.184,-19.531,-27.344,-20.020,14.160
1688814824.052,-19.043,-21.973,-26.855,1.953,263.672
1688814824.056,-42.969,-25.879,-25.879,2.930,262.695
1688814824.060,-25.879,-22.949,-28.320,-41.504,-77.637
1688814824.064,-5.859,-24.902,-35.645,-42.969,-110.840
1688814824.068,-17.090,-29.785,-33.203,-31.250,-155.762
1688814824.069,-38.574,-31.250,-33.691,-20.996,-131.348
1688814824.073,-53.711,-32.715,-41.016,-32.227,-99.609
1688814824.077,-27.832,-30.762,-41.016,-60.059,-118.164
1688814824.081,-0.977,-26.855,-43.945,-47.852,-23.438
1688814824.085,-3.906,-31.738,-42.969,-33.203,-77.148
1688814824.089,-21.484,-34.180,-37.109,-24.414,-109.375
1688814824.093,-44.922,-32.227,-39.062,-16.602,96.680
1688814824.096,-24.414,-28.809,-42.969,-51.270,355.957
1688814824.100,0.488,-31.250,-44.434,-66.406,41.992
1688814824.104,-2.930,-34.180,-40.039,-45.410,-145.508
1688814824.108,-19.043,-30.762,-34.180,-29.297,37.109
1688814824.112,-43.945,-29.297,-35.645,-23.926,66.406
1688814824.116,-29.297,-30.273,-35.156,-58.594,-119.141
1688814824.120,0.977,-32.715,-30.762,-70.801,-167.969
1688814824.124,-2.441,-30.762,-26.855,-54.199,-11.230
1688814824.128,-25.879,-27.344,-29.297,-50.293,-116.699
1688814824.132,-54.199,-25.391,-32.715,-33.691,-126.953
1688814824.136,-49.316,-30.273,-34.668,-50.781,15.625
1688814824.140,-21.484,-30.762,-36.621,-59.082,173.828
1688814824.143,-14.648,-24.902,-34.180,-39.551,74.219
1688814824.147,-28.320,-30.273,-27.832,-41.504,-155.762
1688814824.151,-51.270,-28.320,-24.414,-23.438,-49.805
1688814824.155,-49.316,-27.344,-24.902,-48.340,-69.824
1688814824.159,-18.555,-33.203,-26.367,-77.637,-194.824
1688814824.160,-10.254,-32.715,-23.926,-62.988,-178.223
1688814824.164,-22.461,-25.391,-23.438,-60.059,-127.930
1688814824.168,-48.828,-25.879,-26.855,-27.832,32.227
1688814824.172,-55.176,-31.738,-31.250,-40.039,5.859
1688814824.176,-28.320,-27.832,-31.250,-84.473,-208.496
1688814824.180,-19.043,-22.461,-28.320,-70.312,-107.910
1688814824.184,-34.668,-20.020,-28.809,-51.758,323.730
1688814824.187,-62.012,-23.926,-30.762,-39.062,234.863
1688814824.191,-72.754,-26.855,-29.785,-51.270,-76.172
1688814824.195,-52.734,-30.273,-35.156,-78.125,-112.305
1688814824.199,-42.969,-37.598,-38.086,-67.871,-144.043
1688814824.203,-49.805,-37.109,-32.715,-52.734,-160.645
1688814824.219,-75.684,-34.668,-30.762,-34.668,-92.773
1688814824.223,-96.680,-34.180,-32.227,-40.039,22.949
1688814824.227,-77.148,-34.180,-36.621,-76.172,35.645
1688814824.231,-62.500,-38.086,-36.133,-65.918,-59.082
1688814824.235,-70.801,-40.039,-33.203,-52.734,-112.793
1688814824.239,-87.402,-34.668,-32.715,-26.367,191.406
1688814824.243,-106.934,-32.227,-36.133,-18.066,204.590
1688814824.246,-89.844,-37.109,-41.016,-57.617,-101.562
1688814824.250,-62.500,-37.109,-36.133,-50.781,-121.582
1688814824.254,-62.500,-37.109,-36.621,-25.391,-16.113
1688814824.258,-94.238,-38.086,-38.574,-21.484,-24.414
1688814824.262,-116.699,-35.645,-32.227,-19.531,-5.371
1688814824.264,-87.402,-37.109,-30.273,-52.246,-56.641
1688814824.268,-60.059,-38.574,-34.668,-63.965,-133.301
1688814824.272,-68.359,-41.504,-34.180,-51.758,-112.305
1688814824.276,-86.914,-39.551,-35.156,-54.688,-95.215
1688814824.280,-96.680,-32.227,-33.203,-39.551,89.355
1688814824.284,-78.125,-31.250,-31.738,-56.641,366.699
1688814824.288,-47.363,-32.715,-36.133,-69.336,169.922
1688814824.291,-42.969,-31.250,-38.574,-50.293,-106.445
1688814824.295,-58.105,-29.297,-37.598,-34.180,-14.648
1688814824.299,-84.961,-27.832,-31.738,-9.766,183.105
1688814824.303,-82.520,-28.320,-30.273,-37.598,-80.078
1688814824.307,-45.898,-31.250,-32.227,-59.082,-200.684
1688814824.309,-45.410,-38.086,-31.738,-40.527,-63.477
1688814824.313,-63.965,-36.621,-31.250,-23.926,-109.375
1688814824.317,-79.102,-35.156,-32.715,-4.395,-124.023
1688814824.321,-75.684,-39.062,-37.598,-31.738,-131.836
1688814824.325,-40.039,-36.621,-40.527,-55.664,-93.750
1688814824.329,-29.785,-35.645,-44.922,-41.016,-32.715
1688814824.333,-46.875,-42.480,-44.434,-37.598,-68.359
1688814824.336,-65.918,-45.898,-34.180,-25.391,78.125
1688814824.340,-62.988,-38.574,-33.203,-35.156,282.227
1688814824.344,-26.367,-32.715,-36.621,-58.594,114.746
1688814824.348,-10.254,-34.668,-33.203,-51.270,-155.762
1688814824.352,-26.367,-35.645,-31.250,-47.852,-177.734
1688814824.354,-56.152,-35.156,-31.738,-26.367,-142.090
1688814824.358,-63.965,-33.691,-30.273,-30.273,-164.551
1688814824.362,-28.320,-31.738,-30.273,-68.359,-243.164
1688814824.366,-4.883,-34.180,-31.250,-60.059,-144.043
1688814824.370,-10.742,-39.062,-34.668,-45.410,-23.438
1688814824.374,-35.645,-38.574,-32.227,-28.320,-13.184
1688814824.378,-51.270,-36.621,-33.203,-33.203,-51.270
1688814824.381,-22.949,-33.691,-36.133,-71.777,-79.102
1688814824.385,-1.953,-32.227,-36.621,-62.012,60.059
1688814824.389,-8.789,-36.133,-36.133,-60.059,-52.246
1688814824.393,-25.879,-35.156,-37.109,-60.547,-119.141
1688814824.397,-38.574,-33.203,-42.969,-57.617,12.207
1688814824.414,-10.742,-28.320,-38.086,-85.449,-81.055
1688814824.418,19.531,-19.531,-35.645,-74.707,-247.070
1688814824.422,7.324,-25.391,-43.945,-66.895,-184.570
1688814824.426,-24.414,-32.227,-40.039,-52.734,-67.383
1688814824.430,-53.711,-28.809,-37.598,-30.273,-89.355
1688814824.434,-46.875,-34.668,-36.133,-62.012,-140.137
1688814824.438,-23.926,-30.762,-28.809,-63.965,-50.293
1688814824.441,-30.273,-25.879,-30.273,-31.738,173.828
1688814824.445,-54.688,-30.273,-35.156,-15.137,105.469
1688814824.449,-75.684,-33.691,-36.133,-9.277,2.930
1688814824.453,-67.871,-39.551,-38.574,-41.016,-72.754
1688814824.457,-44.434,-37.598,-35.645,-53.223,-183.594
1688814824.444,-38.086,-34.668,-25.391,-29.297,-130.371
1688814824.448,-53.711,-35.156,-26.855,-16.602,-204.102
1688814824.452,-79.590,-37.598,-29.785,-4.395,-6.836
1688814824.456,-72.266,-40.039,-27.344,-24.902,285.156
1688814824.460,-44.434,-38.086,-28.320,-56.641,-94.238
1688814824.464,-37.109,-37.109,-33.691,-51.758,-164.062
1688814824.468,-47.852,-38.086,-38.086,-34.180,84.961
1688814824.471,-59.570,-33.203,-37.109,-8.789,83.496
1688814824.475,-46.875,-29.297,-32.227,-33.203,-18.555
1688814824.479,-16.602,-30.762,-31.250,-72.754,-132.812
1688814824.483,-13.184,-32.715,-32.715,-70.312,-3.906
1688814824.487,-28.320,-30.273,-31.738,-59.082,198.730
1688814824.492,-44.434,-29.297,-32.227,-35.645,-29.297
1688814824.496,-43.945,-29.785,-35.156,-47.363,-130.371
1688814824.500,-19.043,-27.832,-35.156,-70.801,41.016
1688814824.504,-3.906,-27.832,-34.180,-51.270,-69.824
1688814824.508,-15.137,-31.250,-37.598,-38.574,-201.660
1688814824.512,-43.457,-28.809,-41.504,-20.020,6.836
1688814824.516,-52.734,-27.344,-40.039,-19.043,227.051
1688814824.519,-16.602,-33.691,-39.062,-47.363,-1.953
1688814824.523,2.441,-33.203,-37.598,-40.039,-213.867
1688814824.527,-8.301,-29.297,-33.691,-31.250,-102.539
1688814824.531,-31.250,-31.738,-34.180,-11.230,42.969
1688814824.535,-39.551,-31.250,-33.691,-6.348,23.438
1688814824.534,-12.207,-30.273,-31.738,-43.945,-129.883
1688814824.538,-1.465,-34.668,-37.598,-40.039,-170.410
1688814824.542,-16.602,-36.621,-38.574,-24.414,-117.676
1688814824.546,-48.828,-34.180,-31.738,-17.578,-22.461
1688814824.550,-74.707,-30.762,-23.926,-15.137,-52.734
1688814824.554,-53.223,-33.203,-24.414,-56.641,-2.930
1688814824.558,-28.809,-32.715,-24.902,-59.570,348.145
1688814824.561,-25.879,-30.273,-22.461,-41.016,251.953
1688814824.565,-45.898,-34.180,-23.438,-33.203,-41.992
1688814824.569,-65.918,-33.691,-27.344,-17.090,-1.953
1688814824.573,-45.898,-32.227,-26.855,-51.270,-114.258
1688814824.577,-14.160,-34.668,-25.879,-61.035,-211.914
1688814824.581,-6.836,-35.645,-28.320,-42.480,-158.691
1688814824.585,-24.414,-35.156,-27.832,-35.645,-67.383
1688814824.589,-43.457,-33.203,-27.832,-14.648,-69.824
1688814824.593,-20.020,-26.855,-26.855,-34.668,-169.434
1688814824.597,18.555,-22.461,-28.320,-46.875,-94.238
1688814824.601,23.926,-25.391,-32.227,-34.180,87.891
1688814824.605,5.859,-31.738,-37.598,-23.438,43.457
1688814824.608,-18.555,-29.785,-40.039,-4.395,60.059
1688814824.612,-9.277,-21.973,-35.645,-30.273,18.555
1688814824.616,27.344,-20.996,-33.203,-31.738,155.762
1688814824.620,35.156,-23.926,-37.598,-11.719,80.078
1688814824.624,20.508,-23.926,-38.574,-7.324,-160.156
1688814824.639,-21.484,-25.879,-36.133,1.953,-88.379
1688814824.643,-42.969,-26.367,-34.668,-27.832,-86.426
1688814824.647,-24.902,-25.879,-35.156,-56.152,-143.066
1688814824.651,-15.137,-22.461,-32.227,-36.621,-159.180
1688814824.655,-23.926,-20.996,-31.250,-17.090,-72.754
1688814824.659,-53.711,-20.020,-30.273,5.371,270.020
1688814824.663,-56.641,-18.555,-27.832,-12.695,107.910
1688814824.666,-18.066,-22.461,-27.832,-52.246,-248.047
1688814824.670,-8.301,-26.855,-26.855,-32.715,-125.488
1688814824.674,-17.578,-27.344,-25.391,-7.812,122.070
1688814824.678,-38.086,-30.273,-20.996,1.465,-64.941
1688814824.682,-52.734,-28.809,-21.973,-7.324,-175.293
1688814824.699,-26.367,-30.273,-23.926,-37.598,-121.582
1688814824.703,-18.066,-36.133,-28.320,-39.551,-148.438
1688814824.707,-36.621,-34.668,-31.250,-35.156,-172.852
1688814824.711,-54.688,-34.180,-33.203,-19.043,-93.750
1688814824.715,-59.082,-30.762,-29.785,-17.090,74.707
1688814824.719,-23.926,-29.297,-25.391,-48.828,94.238
1688814824.723,6.836,-26.855,-24.902,-35.645,-1.953
1688814824.726,0.000,-23.926,-25.879,-11.719,-49.316
1688814824.730,-22.949,-26.367,-30.273,3.418,191.895
1688814824.734,-40.527,-27.344,-32.227,-6.836,148.438
1688814824.738,-21.973,-25.879,-29.785,-56.152,-222.168
1688814824.742,4.883,-25.879,-28.809,-50.293,-166.016
1688814824.729,1.953,-26.855,-27.832,-25.879,41.992
1688814824.733,-23.926,-25.391,-27.832,-13.672,-18.555
1688814824.737,-46.387,-27.344,-30.762,-3.418,-59.570
1688814824.741,-29.785,-29.785,-30.762,-33.691,-4.395
1688814824.745,-7.324,-25.879,-31.250,-36.133,54.199
1688814824.749,-21.973,-25.879,-38.574,-27.344,5.371
1688814824.753,-57.129,-27.832,-34.668,-20.996,19.043
1688814824.756,-86.914,-27.344,-34.180,-8.301,42.969
1688814824.760,-76.660,-31.250,-42.969,-32.715,-52.734
1688814824.764,-43.945,-32.227,-38.086,-35.645,-145.508
1688814824.768,-42.480,-28.320,-31.250,-18.555,-160.645
1688814824.772,-69.824,-29.297,-31.738,-15.625,47.363
1688814824.789,-104.492,-32.227,-33.203,-5.371,226.074
1688814824.793,-104.492,-29.297,-30.273,-33.203,-89.355
1688814824.797,-76.660,-28.809,-28.320,-58.105,-252.441
1688814824.801,-69.824,-29.785,-33.691,-43.945,-71.289
1688814824.805,-83.984,-29.297,-37.598,-38.086,-75.684
1688814824.809,-102.539,-30.762,-37.598,-17.578,-86.914
1688814824.813,-90.332,-30.273,-37.109,-37.598,-9.277
1688814824.816,-45.410,-32.227,-34.180,-51.758,89.355
1688814824.820,-19.043,-31.738,-34.180,-24.414,-58.105
1688814824.824,-32.227,-27.832,-33.691,-20.508,-207.031
1688814824.828,-68.848,-23.926,-30.762,-9.277,-93.262
1688814824.832,-79.590,-27.344,-33.203,-27.344,-105.469
1688814824.819,-60.059,-31.738,-35.156,-60.059,-215.820
1688814824.823,-53.711,-30.762,-34.668,-58.105,-201.660
1688814824.827,-77.637,-27.344,-39.551,-57.617,-43.945
1688814824.831,-119.629,-27.832,-44.434,-50.293,104.492
1688814824.835,-134.277,-26.855,-44.922,-75.195,26.367
1688814824.839,-109.863,-23.438,-42.480,-114.258,-143.066
1688814824.843,-88.867,-16.602,-35.645,-100.098,-18.555
1688814824.846,-104.492,-19.531,-28.809,-86.426,192.383
1688814824.850,-153.320,-21.484,-27.832,-92.285,2.930
1688814824.854,-173.828,-18.066,-32.227,-104.004,-189.453
1688814824.858,-158.691,-20.020,-33.203,-126.953,-125.000
1688814824.862,-156.250,-20.020,-35.645,-117.676,103.027
1688814824.866,-158.203,-22.461,-34.668,-104.004,-58.594
1688814824.870,-175.781,-24.414,-32.715,-82.520,-125.000
1688814824.874,-197.266,-24.414,-34.180,-76.660,10.742
1688814824.878,-175.781,-27.344,-33.691,-102.051,-113.281
1688814824.882,-140.625,-30.273,-36.133,-95.215,-161.621
1688814824.886,-138.184,-31.738,-38.086,-83.496,-37.598
1688814824.890,-154.785,-30.273,-34.668,-62.012,293.945
1688814824.893,-153.320,-28.809,-34.668,-47.852,266.602
1688814824.897,-121.094,-29.785,-40.039,-86.914,-156.250
1688814824.901,-91.309,-28.809,-37.109,-89.844,-199.707
1688814824.905,-85.449,-32.715,-36.133,-64.453,144.531
1688814824.909,-95.215,-33.691,-42.969,-59.570,60.547
1688814824.909,-115.723,-30.273,-43.945,-43.945,-141.113
1688814824.913,-99.609,-29.785,-42.969,-66.406,-108.398
1688814824.917,-61.523,-27.344,-39.551,-73.242,-127.930
1688814824.921,-48.340,-29.297,-37.598,-55.664,-125.488
1688814824.925,-49.805,-29.785,-32.715,-47.363,-164.551
1688814824.929,-60.547,-31.738,-31.738,-19.531,75.684
1688814824.933,-50.293,-36.621,-35.645,-37.598,418.945
1688814824.936,-1.465,-30.273,-34.668,-56.152,82.520
1688814824.940,20.020,-27.344,-35.645,-43.457,-155.273
1688814824.944,1.953,-29.785,-35.156,-33.203,22.949
1688814824.948,-22.949,-25.879,-39.551,-8.789,-27.832
1688814824.952,-12.695,-22.949,-41.992,-24.902,-193.359
1688814824.969,28.809,-25.391,-39.551,-52.246,-206.543
1688814824.973,48.340,-24.902,-40.039,-36.133,-111.328
1688814824.977,38.574,-25.391,-38.086,-25.879,-83.008
1688814824.981,1.953,-33.203,-40.039,-24.902,-116.211
1688814824.985,-6.348,-34.668,-41.504,-55.664,-104.004
1688814824.989,29.297,-29.785,-39.062,-78.613,-21.484
1688814824.993,46.875,-27.832,-38.574,-55.664,18.555
1688814824.996,41.016,-29.785,-41.016,-41.992,-74.707
1688814825.000,24.902,-29.785,-39.551,-18.066,-104.492
1688814825.004,27.832,-23.926,-34.668,-12.695,107.910
1688814825.008,56.641,-23.926,-34.180,-47.363,-15.137
1688814825.012,61.523,-30.762,-37.109,-41.992,-142.578
1688814825.014,46.875,-33.691,-36.621,-20.996,-94.727
1688814825.018,19.531,-31.738,-34.668,-3.906,-38.086
1688814825.022,11.719,-36.133,-33.691,-17.090,-90.820
1688814825.026,37.109,-36.133,-32.227,-54.688,-127.930
1688814825.030,52.734,-34.180,-33.691,-39.551,-47.363
1688814825.034,51.270,-34.180,-31.738,-17.578,46.387
1688814825.038,34.180,-34.668,-27.832,-6.836,49.316
1688814825.041,14.160,-36.621,-26.855,-5.371,-77.637
1688814825.045,27.832,-39.551,-29.297,-28.809,-77.148
1688814825.049,45.410,-44.434,-38.574,-21.484,94.727
1688814825.053,42.480,-37.598,-37.109,-10.254,-166.992
1688814825.057,18.066,-36.621,-32.715,-9.766,-201.172
1688814825.059,-4.883,-40.039,-38.086,-8.789,-2.441
1688814825.063,12.695,-33.691,-33.691,-39.551,-87.891
1688814825.067,41.016,-32.227,-31.250,-52.734,-175.781
1688814825.071,45.410,-34.180,-35.645,-44.922,-118.164
1688814825.075,32.227,-28.809,-33.203,-27.832,85.449
1688814825.079,12.207,-31.738,-36.621,-21.973,171.387
1688814825.083,22.949,-33.691,-37.598,-49.316,41.992
1688814825.086,54.688,-31.250,-34.180,-57.617,-108.887
1688814825.090,58.105,-34.180,-32.227,-37.109,40.527
1688814825.094,44.434,-36.133,-30.273,-24.902,33.691
1688814825.098,21.973,-31.738,-29.785,-8.789,-59.082
1688814825.102,21.484,-33.691,-30.273,-26.855,-55.176
1688814825.104,42.480,-38.574,-30.762,-49.316,-112.793
1688814825.108,53.223,-36.133,-28.809,-36.133,-117.676
1688814825.112,39.062,-34.668,-28.320,-25.391,-147.461
1688814825.116,7.812,-34.668,-29.297,0.977,43.457
1688814825.120,8.789,-32.227,-33.203,-11.719,251.953
1688814825.124,35.645,-26.367,-34.180,-51.758,78.613
1688814825.128,47.363,-24.414,-31.738,-43.457,-79.102
1688814825.131,31.250,-28.809,-31.250,-41.016,-11.719
1688814825.135,4.395,-24.902,-32.715,-18.555,286.133
1688814825.139,3.418,-23.438,-34.180,-22.949,83.496
1688814825.143,21.973,-27.344,-31.738,-60.059,-184.570
1688814825.147,28.320,-29.785,-31.250,-47.852,-143.555
1688814825.150,14.648,-32.227,-33.203,-36.621,-126.953
1688814825.154,-11.719,-32.227,-37.109,-18.066,-66.895
1688814825.158,-21.973,-31.738,-41.504,-20.996,-74.707
1688814825.162,2.441,-33.691,-32.715,-55.664,-119.141
1688814825.166,11.719,-29.297,-29.297,-47.363,-87.402
1688814825.170,-5.859,-29.785,-38.086,-38.574,-87.402
1688814825.174,-26.855,-31.250,-34.180,-11.719,-26.367
1688814825.177,-35.156,-33.203,-28.809,13.184,298.340
1688814825.181,-13.184,-30.762,-31.738,-28.320,239.746
1688814825.185,-6.348,-30.273,-31.250,-45.410,-179.688
1688814825.189,-15.625,-33.691,-30.762,-33.203,-223.633
1688814825.193,-20.996,-32.715,-27.344,-19.043,-83.984
1688814825.194,-27.344,-27.832,-23.926,-6.836,63.477
1688814825.198,-10.742,-28.809,-23.438,-41.504,-79.590
1688814825.202,10.254,-28.320,-22.949,-43.945,-96.191
1688814825.206,2.441,-27.344,-26.855,-25.879,20.020
1688814825.210,-13.672,-34.668,-26.855,-12.695,-53.223
1688814825.214,-14.648,-31.250,-27.344,11.230,9.277
1688814825.218,-3.418,-29.785,-32.715,-24.414,131.836
1688814825.221,7.324,-32.715,-27.344,-38.574,270.508
1688814825.225,4.883,-30.273,-20.996,-22.461,7.812
1688814825.229,-19.043,-28.809,-26.367,-22.461,-221.680
1688814825.233,-45.410,-29.297,-21.973,-3.906,5.371
1688814825.237,-31.250,-30.273,-25.391,-32.227,-45.898
1688814825.241,3.906,-28.320,-26.855,-55.176,-252.441
1688814825.245,3.906,-28.809,-19.531,-40.039,-228.516
1688814825.249,-13.672,-33.691,-21.973,-26.367,-145.508
1688814825.253,-27.832,-32.715,-25.391,11.230,-93.750
1688814825.257,-20.020,-32.715,-26.367,-10.742,-161.621
1688814825.261,4.883,-33.691,-25.391,-42.480,-230.957
1688814825.265,11.230,-27.832,-16.602,-11.719,36.621
1688814825.268,1.953,-25.879,-12.695,-2.930,68.848
1688814825.272,-21.484,-28.809,-18.555,12.695,-4.883
1688814825.276,-19.531,-26.855,-20.020,0.488,-41.016
1688814825.280,12.207,-26.855,-18.066,-38.574,-69.824
1688814825.284,20.020,-27.832,-22.461,-37.109,-92.773
1688814825.284,5.371,-26.367,-28.809,-30.762,-158.203
1688814825.288,-19.043,-30.273,-29.297,-16.602,-19.531
1688814825.292,-20.508,-28.320,-26.367,-28.320,60.547
1688814825.296,0.977,-26.367,-24.414,-57.617,-16.113
1688814825.300,4.395,-27.832,-28.809,-48.828,-104.492
1688814825.304,-8.301,-27.344,-34.668,-42.480,-26.367
1688814825.308,-38.086,-30.273,-32.715,-20.020,450.684
1688814825.311,-51.270,-31.250,-27.832,-29.785,270.020
1688814825.315,-24.902,-29.297,-30.762,-68.359,-139.160
1688814825.319,-1.953,-23.438,-30.762,-51.758,-101.562
1688814825.323,-3.906,-23.926,-32.227,-39.551,-108.398
1688814825.327,-28.809,-30.762,-33.691,-29.297,-139.648
1688814825.333,-45.410,-29.297,-29.785,-24.414,-83.008
1688814825.337,-24.414,-33.203,-31.738,-51.758,-16.602
1688814825.341,-10.742,-37.109,-34.668,-51.270,-49.805
1688814825.345,-14.648,-35.645,-37.598,-35.645,-137.207
1688814825.349,-29.297,-34.668,-38.086,-15.137,-67.871
1688814825.353,-43.945,-35.156,-39.551,-11.230,125.977
1688814825.357,-24.902,-32.227,-39.551,-47.852,42.480
1688814825.360,-0.488,-28.320,-34.180,-49.805,-202.637
1688814825.364,-4.883,-31.250,-40.527,-41.504,-176.758
1688814825.368,-28.809,-33.691,-42.480,-31.250,139.648
1688814825.372,-46.875,-31.250,-37.598,-18.066,40.527
1688814825.376,-31.738,-29.785,-38.086,-54.688,-175.781
1688814825.390,-7.324,-35.156,-36.621,-66.895,-128.906
1688814825.394,-7.812,-37.598,-36.621,-46.875,-86.914
1688814825.398,-33.203,-31.250,-37.109,-31.738,-62.012
1688814825.402,-58.594,-33.691,-32.227,-16.602,48.340
1688814825.406,-56.152,-39.062,-34.180,-59.570,13.672
1688814825.410,-39.551,-33.203,-36.133,-68.359,312.500
1688814825.414,-34.180,-29.297,-34.180,-40.039,456.543
1688814825.417,-54.688,-32.715,-36.133,-47.363,-2.930
1688814825.421,-78.613,-34.668,-38.574,-30.273,-94.727
1688814825.425,-71.289,-36.133,-39.551,-46.387,-65.918
1688814825.429,-44.922,-36.621,-37.109,-68.848,-184.082
1688814825.433,-34.668,-36.133,-37.109,-50.293,-201.660
1688814825.434,-46.387,-35.156,-35.156,-38.086,-99.121
1688814825.438,-73.730,-28.809,-33.203,-19.531,-12.695
1688814825.442,-69.824,-29.297,-35.645,-39.062,-57.129
1688814825.446,-36.133,-29.785,-39.062,-68.848,-136.719
1688814825.450,-28.320,-29.785,-39.062,-50.293,-78.613
1688814825.454,-43.945,-33.203,-39.551,-32.715,10.254
1688814825.458,-76.172,-34.668,-41.992,-15.625,73.242
1688814825.461,-83.008,-39.062,-39.551,-34.180,120.605
1688814825.465,-50.781,-36.621,-37.598,-59.082,273.926
1688814825.469,-42.480,-27.832,-33.691,-39.551,274.902
1688814825.473,-54.688,-25.879,-30.273,-35.645,-60.547
1688814825.477,-89.844,-32.715,-30.762,-21.973,-118.652
1688814825.479,-104.004,-29.297,-28.809,-29.785,-72.754
1688814825.483,-64.453,-19.531,-27.832,-65.918,-139.160
1688814825.487,-45.410,-24.902,-33.691,-51.758,-123.047
1688814825.491,-52.246,-30.273,-40.039,-34.180,10.742
1688814825.495,-73.730,-32.715,-43.945,-14.160,126.953
1688814825.499,-91.797,-36.621,-45.410,-13.672,141.602
1688814825.503,-60.059,-32.227,-40.039,-48.340,1.953
1688814825.506,-28.320,-29.785,-32.227,-42.969,-99.609
1688814825.510,-36.621,-30.273,-29.785,-11.719,166.992
1688814825.514,-59.082,-28.320,-33.203,0.977,22.461
1688814825.518,-79.102,-31.738,-35.645,-1.953,-188.477
1688814825.522,-62.988,-31.738,-35.645,-35.156,-92.773
1688814825.526,-39.551,-33.691,-39.062,-33.203,-171.387
1688814825.530,-37.598,-33.691,-40.039,-23.438,-216.797
1688814825.534,-59.082,-31.250,-40.039,-15.625,-166.016
1688814825.538,-84.473,-31.738,-39.551,-6.348,-45.898
1688814825.542,-68.359,-32.715,-36.133,-49.805,-89.844
1688814825.546,-38.086,-34.668,-34.180,-61.523,-145.020
1688814825.550,-37.109,-31.250,-31.738,-41.504,0.488
1688814825.553,-58.594,-26.855,-27.832,-28.809,193.848
1688814825.557,-83.496,-27.832,-28.320,-14.160,152.832
1688814825.561,-69.336,-28.809,-28.809,-54.199,-151.367
1688814825.565,-31.250,-29.297,-30.273,-60.547,-144.043
1688814825.569,-23.926,-28.320,-32.715,-34.668,-52.734
1688814825.570,-31.738,-30.273,-27.832,-27.832,-143.555
1688814825.574,-47.363,-34.668,-27.344,-6.348,-104.004
1688814825.578,-48.340,-32.715,-30.762,-26.855,-88.379
1688814825.582,-17.090,-32.715,-29.785,-45.898,-83.496
1688814825.586,-2.441,-29.785,-32.715,-31.738,-104.004
1688814825.590,-18.555,-29.297,-30.762,-36.621,-82.520
1688814825.594,-42.969,-30.762,-28.809,-14.160,29.297
1688814825.597,-41.016,-24.414,-31.738,-11.719,230.957
1688814825.601,-10.742,-26.855,-30.762,-44.922,-4.883
1688814825.605,7.812,-21.973,-28.809,-37.109,-193.848
1688814825.609,-3.906,-18.555,-25.391,-21.484,-72.754
1688814825.613,-38.086,-29.297,-26.855,-5.859,-92.773
1688814825.617,-49.805,-30.273,-29.297,-20.996,-144.043
1688814825.621,-27.832,-29.297,-29.785,-55.664,-173.828
1688814825.625,-12.207,-30.762,-30.273,-43.945,-42.969
1688814825.629,-16.113,-28.809,-28.809,-27.344,-82.031
1688814825.633,-48.828,-30.762,-31.250,-7.324,-162.109
1688814825.637,-63.477,-35.645,-36.133,-16.602,0.977
1688814825.641,-35.156,-32.227,-37.598,-48.828,180.664
1688814825.644,-25.391,-28.809,-37.598,-45.410,83.008
1688814825.648,-42.480,-36.133,-39.551,-48.828,-135.742
1688814825.652,-80.566,-35.645,-36.621,-32.227,-96.680
1688814825.656,-105.469,-33.691,-28.809,-31.738,-41.504
1688814825.660,-66.406,-32.227,-25.391,-71.289,-188.965
1688814825.674,-37.598,-34.668,-27.344,-69.824,-283.203
1688814825.678,-43.457,-37.109,-29.785,-57.617,-196.777
1688814825.682,-62.012,-34.180,-30.273,-38.086,-91.309
1688814825.686,-76.660,-28.809,-27.344,-24.902,-37.109
1688814825.690,-52.734,-22.461,-27.344,-57.617,-59.570
1688814825.694,-26.367,-23.926,-28.320,-64.941,-68.848
1688814825.698,-21.973,-19.531,-22.949,-38.086,292.969
1688814825.701,-43.457,-20.020,-21.973,-17.578,365.723
1688814825.705,-68.359,-20.020,-22.461,-10.742,2.441
1688814825.709,-47.852,-16.602,-20.508,-43.945,-133.301
1688814825.713,-22.461,-23.438,-22.461,-53.711,-192.383
1688814825.717,-22.949,-26.367,-29.785,-37.598,-195.312
1688814825.706,-45.410,-23.438,-32.227,-33.203,-122.559
1688814825.710,-68.848,-21.973,-24.902,-17.090,21.484
1688814825.714,-61.523,-23.926,-25.879,-44.922,-37.109
1688814825.718,-39.062,-25.879,-32.227,-69.824,-252.441
1688814825.722,-39.062,-28.320,-35.156,-62.500,-200.684
1688814825.726,-62.012,-31.250,-28.809,-50.293,118.164
1688814825.730,-82.520,-30.273,-26.367,-35.156,158.691
1688814825.733,-70.312,-30.762,-37.109,-60.059,-74.707
1688814825.737,-34.668,-34.180,-42.969,-75.195,-105.957
1688814825.741,-25.879,-31.738,-42.480,-50.781,82.031
1688814825.745,-38.086,-32.715,-42.480,-47.363,17.578
1688814825.749,-49.805,-30.762,-35.645,-20.996,-50.781
1688814825.764,-43.457,-20.020,-30.273,-24.902,-81.543
1688814825.768,-12.695,-19.043,-31.738,-60.547,-145.020
1688814825.772,0.488,-24.414,-32.227,-46.387,-56.152
1688814825.776,-24.902,-30.273,-35.156,-36.133,-71.777
1688814825.780,-62.988,-33.203,-34.180,-10.254,63.965
1688814825.784,-72.754,-29.297,-38.574,-13.184,380.859
1688814825.788,-44.922,-28.320,-38.574,-45.410,127.441
1688814825.791,-35.645,-33.691,-32.715,-35.645,-157.715
1688814825.795,-61.035,-36.621,-34.668,-29.297,-56.152
1688814825.799,-92.285,-36.133,-31.738,-6.836,249.023
1688814825.803,-109.375,-34.668,-30.762,-19.531,54.199
1688814825.807,-81.055,-35.156,-35.156,-62.012,-177.734
1688814825.809,-54.199,-37.598,-41.016,-46.875,-135.254
1688814825.813,-58.594,-30.273,-42.969,-35.645,-204.590
1688814825.817,-74.219,-29.785,-38.086,-15.137,-181.152
1688814825.821,-83.008,-36.133,-34.180,-5.371,-75.195
1688814825.825,-55.664,-29.297,-35.156,-41.504,-17.090
1688814825.829,-32.227,-26.855,-35.156,-37.598,-25.879
1688814825.833,-32.227,-26.367,-30.273,-16.602,-75.195
1688814825.836,-51.758,-25.391,-27.344,-2.930,-10.742
1688814825.840,-71.289,-27.832,-30.762,3.418,264.160
1688814825.844,-57.617,-32.227,-37.109,-41.504,141.602
1688814825.848,-31.250,-37.598,-34.180,-47.363,-125.488
1688814825.852,-28.320,-34.668,-35.156,-24.902,-101.562
1688814825.855,-53.223,-34.180,-35.645,-16.602,29.297
1688814825.859,-72.754,-40.039,-34.668,-4.883,-18.066
1688814825.863,-55.176,-41.504,-39.551,-43.457,-98.633
1688814825.867,-25.879,-42.969,-41.992,-52.246,80.566
1688814825.871,-14.160,-39.062,-41.992,-25.879,70.801
1688814825.875,-24.414,-34.668,-38.574,-15.625,-23.926
1688814825.879,-50.293,-38.574,-34.668,-1.465,49.316
1688814825.882,-44.922,-35.645,-35.645,-27.832,-14.160
1688814825.886,-14.160,-27.832,-36.621,-39.062,122.070
1688814825.890,-4.395,-26.855,-34.668,-26.855,28.320
1688814825.894,-8.789,-23.438,-36.621,-21.973,-137.695
1688814825.898,-29.785,-22.461,-36.621,-4.883,65.918
1688814825.915,-31.250,-21.973,-38.574,-31.738,75.195
1688814825.919,0.977,-22.461,-40.527,-61.035,-219.727
1688814825.923,5.371,-26.855,-42.969,-45.898,-228.027
1688814825.927,-16.602,-29.785,-41.992,-30.762,-0.977
1688814825.931,-45.410,-29.785,-35.156,-20.020,-33.203
1688814825.935,-54.688,-31.250,-35.156,-44.434,-83.496
1688814825.939,-24.902,-34.180,-40.039,-74.219,-27.832
1688814825.942,-6.836,-38.086,-43.945,-53.711,140.137
1688814825.946,-13.672,-35.156,-40.039,-36.621,66.406
1688814825.950,-34.668,-34.180,-35.156,-13.184,-119.141
1688814825.954,-48.828,-35.645,-37.598,-26.855,-46.387
1688814825.958,-19.043,-37.109,-38.574,-63.965,71.289
1688814825.945,5.371,-40.039,-38.574,-51.270,-65.918
1688814825.949,-2.930,-36.621,-39.062,-38.574,-148.438
1688814825.953,-29.785,-36.133,-39.062,-18.066,111.328
1688814825.957,-37.598,-36.133,-35.645,-19.043,233.887
1688814825.961,-12.207,-37.598,-33.691,-63.965,-116.211
1688814825.965,0.488,-34.668,-37.598,-54.688,-123.047
1688814825.969,-8.301,-28.320,-37.109,-33.691,-20.020
1688814825.972,-39.062,-30.273,-35.645,-14.648,-67.871
1688814825.976,-54.199,-33.691,-31.738,-7.324,-51.270
1688814825.980,-26.855,-29.785,-26.855,-42.480,-181.152
1688814825.984,-16.602,-33.203,-31.738,-48.340,-177.246
1688814825.988,-27.344,-38.086,-34.668,-28.320,152.832
1688814825.991,-40.039,-30.762,-29.785,-5.371,-5.859
1688814825.995,-54.688,-29.297,-30.273,0.488,-110.352
1688814825.999,-38.086,-32.715,-34.180,-40.039,-67.871
1688814826.003,-17.090,-34.668,-37.109,-46.875,-136.230
1688814826.007,-27.344,-35.156,-33.203,-28.809,-80.078
1688814826.011,-46.387,-30.273,-30.762,-19.043,-91.797
1688814826.015,-70.801,-32.227,-35.645,-13.184,220.215
1688814826.018,-63.965,-39.062,-38.086,-56.152,306.152
1688814826.022,-37.109,-37.598,-37.598,-72.266,-142.090
1688814826.026,-34.668,-36.621,-40.527,-41.992,-225.098
1688814826.030,-52.246,-36.133,-40.527,-25.391,-107.910
1688814826.034,-76.172,-39.551,-39.062,-10.254,-126.953
1688814826.034,-69.336,-41.992,-38.086,-36.133,-174.316
1688814826.038,-40.527,-41.016,-38.574,-53.711,-254.395
1688814826.042,-40.039,-41.504,-41.016,-41.992,-193.848
1688814826.046,-65.430,-41.992,-41.016,-38.574,-74.707
1688814826.050,-84.961,-37.598,-38.574,-26.855,-72.266
1688814826.054,-76.172,-32.227,-42.969,-50.293,80.078
1688814826.058,-42.969,-30.762,-43.945,-62.500,310.547
1688814826.061,-28.320,-29.785,-41.992,-45.898,100.098
1688814826.065,-41.992,-29.297,-44.434,-42.969,-206.055
1688814826.069,-64.453,-29.297,-43.457,-15.625,-72.754
1688814826.073,-69.824,-31.250,-47.363,-31.738,32.227
1688814826.077,-50.293,-29.785,-48.340,-72.266,-194.824
1688814826.094,-45.898,-31.250,-44.434,-49.316,-203.125
1688814826.098,-70.801,-33.691,-43.945,-36.621,-113.281
1688814826.102,-96.680,-30.273,-41.504,-26.367,-94.727
1688814826.106,-99.121,-28.809,-42.480,-37.109,-101.562
1688814826.110,-70.801,-33.691,-47.852,-68.359,-85.938
1688814826.114,-48.828,-31.250,-45.898,-51.270,79.590
1688814826.118,-52.246,-26.367,-41.992,-39.551,64.453
1688814826.121,-73.242,-23.926,-37.598,-24.414,-83.984
1688814826.125,-87.402,-28.320,-35.156,-24.414,-64.941
1688814826.129,-72.266,-31.250,-37.109,-54.199,191.406
1688814826.133,-61.035,-27.832,-34.180,-44.434,76.660
1688814826.137,-69.824,-30.762,-32.227,-36.133,-169.434
1688814826.139,-94.727,-35.156,-34.180,-22.461,-84.473
1688814826.143,-103.027,-31.250,-31.738,-17.090,-48.340
1688814826.147,-74.219,-30.762,-28.320,-50.781,-134.277
1688814826.151,-51.758,-35.645,-28.320,-48.828,-146.973
1688814826.155,-51.758,-40.527,-37.109,-32.715,-87.402
1688814826.159,-70.801,-34.668,-41.016,-16.602,188.965
1688814826.163,-87.402,-35.645,-41.504,-13.672,174.316
1688814826.166,-61.035,-36.133,-39.062,-57.617,-169.922
1688814826.170,-29.297,-28.320,-30.273,-62.988,-83.984
1688814826.174,-25.391,-27.344,-31.738,-37.109,253.418
1688814826.178,-42.969,-30.273,-37.598,-14.648,16.113
1688814826.182,-66.406,-31.250,-39.062,-2.930,-87.402
1688814826.185,-44.434,-28.320,-40.039,-36.133,36.133
1688814826.189,-14.648,-29.297,-35.645,-45.898,-61.035
1688814826.193,-23.438,-32.227,-35.156,-34.668,-151.855
1688814826.197,-44.434,-31.250,-34.668,-28.320,-124.512
1688814826.201,-66.895,-26.855,-31.250,-13.184,-38.574
1688814826.205,-56.152,-28.320,-29.297,-43.457,-56.641
1688814826.209,-25.391,-30.273,-29.785,-54.199,-145.020
1688814826.212,-24.414,-29.785,-31.250,-36.621,-171.387
1688814826.216,-45.410,-27.344,-32.715,-35.645,73.730
1688814826.220,-71.777,-25.879,-36.621,-21.484,121.094
1688814826.224,-67.383,-30.273,-37.109,-46.387,-96.191
1688814826.228,-41.016,-31.250,-35.156,-71.777,-177.246
1688814826.230,-30.273,-33.691,-35.156,-51.758,-123.535
1688814826.234,-41.992,-33.691,-28.320,-34.180,-112.305
1688814826.238,-70.801,-32.715,-31.738,-12.207,-116.211
1688814826.242,-67.871,-33.691,-32.715,-26.367,39.551
1688814826.246,-32.715,-33.203,-22.461,-57.129,168.457
1688814826.250,-25.879,-34.668,-25.391,-51.758,-21.484
1688814826.254,-34.180,-28.809,-27.344,-44.434,-177.246
1688814826.257,-47.363,-31.250,-31.250,-15.137,2.441
1688814826.261,-54.199,-36.133,-32.715,-14.648,172.852
1688814826.265,-26.367,-37.598,-33.203,-60.547,-110.840
1688814826.269,-6.836,-41.504,-34.668,-52.734,-171.387
1688814826.273,-18.066,-37.598,-34.180,-39.062,-49.805
1688814826.275,-41.992,-38.086,-32.227,-25.879,-99.121
1688814826.279,-47.852,-42.969,-34.668,-31.250,-143.555
1688814826.283,-24.902,-41.992,-35.156,-63.965,-229.492
1688814826.287,-13.672,-41.016,-37.109,-53.711,-131.836
1688814826.291,-25.391,-43.457,-36.621,-37.109,-122.070
1688814826.295,-44.922,-37.109,-33.203,-15.625,-119.629
1688814826.299,-62.012,-37.598,-35.156,-14.160,-15.137
1688814826.302,-46.387,-41.992,-31.250,-41.504,121.094
1688814826.306,-23.926,-36.621,-27.832,-39.551,171.875
1688814826.310,-27.344,-29.785,-28.809,-43.945,-145.508
1688814826.314,-49.316,-30.762,-26.855,-28.809,-179.199
1688814826.318,-67.383,-31.738,-26.367,-15.137,-61.523
1688814826.319,-47.363,-34.180,-29.785,-60.059,-114.746
1688814826.323,-23.926,-39.551,-24.414,-65.430,-147.949
1688814826.327,-26.855,-39.551,-22.461,-51.270,-90.820
1688814826.331,-40.039,-35.156,-26.855,-35.645,-4.883
1688814826.335,-51.758,-32.715,-25.391,-6.836,-8.789
1688814826.339,-35.645,-32.715,-27.832,-37.598,-32.715
1688814826.343,-3.906,-28.809,-26.855,-47.852,0.488
1688814826.346,-0.488,-26.367,-23.438,-22.461,291.992
1688814826.350,-23.926,-27.832,-27.832,-23.438,198.730
1688814826.354,-45.898,-30.762,-33.203,-15.625,-97.168
1688814826.358,-38.086,-29.297,-31.738,-36.621,-124.023
1688814826.362,-14.160,-29.785,-28.320,-62.012,-184.570
1688814826.366,-16.113,-37.598,-33.691,-51.758,-231.445
1688814826.370,-31.250,-37.598,-35.156,-34.180,-140.625
1688814826.374,-47.852,-32.715,-23.926,-3.906,-44.922
1688814826.378,-41.504,-30.273,-27.832,-31.250,-92.773
1688814826.382,-16.602,-33.691,-37.109,-64.453,-168.945
1688814826.386,-10.254,-36.133,-36.133,-53.223,-86.426
1688814826.390,-21.973,-31.738,-33.691,-41.992,203.613
1688814826.393,-41.016,-32.227,-35.645,-20.508,152.832
1688814826.397,-40.527,-33.691,-33.691,-33.691,-126.953
1688814826.401,-20.020,-31.738,-31.250,-67.871,-144.531
1688814826.405,-16.602,-36.133,-36.133,-54.199,-23.926
1688814826.409,-28.809,-35.645,-35.645,-39.062,-161.133
1688814826.409,-48.340,-35.645,-31.250,-15.137,-136.230
1688814826.413,-58.594,-34.180,-32.227,-20.508,-41.016
1688814826.417,-27.344,-30.273,-25.879,-49.805,-145.996
1688814826.421,-2.930,-29.785,-24.414,-41.504,-70.312
1688814826.425,-8.301,-32.715,-30.762,-37.109,-159.668
1688814826.429,-21.484,-33.691,-33.203,-15.137,10.742
1688814826.433,-22.949,-32.715,-35.645,-9.277,501.953
1688814826.436,10.254,-27.832,-36.621,-50.781,203.613
1688814826.440,33.203,-23.438,-36.133,-57.129,-155.762
1688814826.444,24.414,-23.926,-34.668,-46.387,-116.699
1688814826.448,-5.371,-30.762,-28.809,-17.578,-32.227
1688814826.452,-30.762,-37.109,-28.809,-6.836,30.273
1688814826.457,-23.438,-35.645,-29.297,-56.641,-34.668
1688814826.461,-2.441,-31.738,-27.344,-58.594,41.016
1688814826.465,-4.883,-28.809,-33.691,-40.527,24.902
1688814826.469,-33.691,-30.273,-37.598,-33.691,-97.168
1688814826.473,-54.199,-31.738,-37.109,-21.484,-37.109
1688814826.477,-32.227,-28.320,-31.738,-47.363,76.660
1688814826.481,-9.766,-30.273,-34.180,-55.664,-76.660
1688814826.484,-9.766,-34.180,-42.480,-33.203,-182.617
1688814826.488,-29.785,-32.715,-42.969,-17.578,-44.922
1688814826.492,-58.594,-32.715,-37.598,0.000,186.523
1688814826.496,-51.270,-36.621,-31.250,-23.926,4.395
1688814826.500,-25.391,-33.203,-29.297,-33.203,-264.648
1688814826.514,-36.621,-29.785,-32.715,-21.973,-152.832
1688814826.518,-66.406,-33.203,-34.668,-11.719,31.250
1688814826.522,-77.148,-33.691,-32.227,10.254,89.355
1688814826.526,-65.430,-32.227,-33.691,-32.227,-51.270
1688814826.530,-47.363,-29.785,-34.180,-60.059,-102.051
1688814826.534,-48.340,-24.414,-30.762,-31.250,215.332
1688814826.538,-73.730,-22.949,-35.156,-31.250,137.207
1688814826.541,-103.027,-30.273,-34.180,-23.926,-34.668
1688814826.545,-105.957,-34.668,-31.738,-41.016,11.719
1688814826.549,-85.449,-32.715,-32.715,-64.941,-6.836
1688814826.553,-81.543,-35.645,-32.227,-60.059,-134.766
1688814826.557,-93.750,-35.156,-33.203,-53.711,-108.398
1688814826.559,-112.305,-31.250,-31.738,-24.902,52.246
1688814826.563,-104.980,-30.762,-29.785,-31.250,1.465
1688814826.567,-64.453,-36.133,-28.809,-57.129,-189.453
1688814826.571,-43.945,-36.621,-31.738,-44.922,-143.066
1688814826.575,-56.641,-35.645,-33.203,-40.527,41.992
1688814826.579,-75.195,-39.062,-40.039,-18.555,59.082
1688814826.583,-68.848,-36.133,-41.504,-17.090,-60.059
1688814826.586,-39.062,-36.621,-38.086,-53.223,-148.438
1688814826.590,-18.066,-36.133,-37.598,-36.133,61.035
1688814826.594,-19.531,-32.715,-34.180,-20.996,-19.043
1688814826.598,-36.621,-29.785,-29.785,0.000,-153.809
1688814826.602,-41.992,-33.203,-28.320,-3.906,-90.332
1688814826.604,-16.602,-38.574,-32.715,-43.945,-155.762
1688814826.608,-0.488,-34.668,-35.156,-41.992,-179.688
1688814826.612,-5.859,-39.551,-31.738,-39.551,-200.684
1688814826.616,-18.555,-40.527,-33.691,-23.438,-15.625
1688814826.620,-34.668,-31.738,-30.273,-19.531,183.105
1688814826.624,-18.555,-37.109,-27.344,-68.848,-66.895
1688814826.628,5.371,-40.039,-32.227,-73.730,-163.574
1688814826.631,6.348,-35.645,-30.762,-46.387,80.566
1688814826.635,-6.348,-33.691,-31.250,-24.414,367.676
1688814826.639,-20.020,-32.715,-34.180,-25.391,203.613
1688814826.643,-1.465,-29.297,-30.273,-62.500,-75.684
1688814826.647,30.273,-25.879,-34.180,-60.059,-60.547
1688814826.650,41.504,-22.461,-33.691,-38.086,-92.773
1688814826.654,23.926,-26.367,-33.691,-20.020,-155.762
1688814826.658,4.395,-26.855,-35.645,-9.766,-7.812
1688814826.662,15.137,-26.367,-38.086,-45.898,3.418
1688814826.666,34.668,-28.320,-41.992,-51.758,-137.695
1688814826.670,38.086,-25.391,-36.621,-22.949,-45.410
1688814826.674,13.184,-19.531,-34.668,-24.902,67.383
1688814826.677,-27.344,-17.090,-41.992,-24.902,216.797
1688814826.681,-30.273,-19.043,-45.410,-51.270,96.680
1688814826.685,-2.930,-24.414,-43.945,-65.430,-193.848
1688814826.689,3.418,-25.391,-37.598,-47.363,-165.527
1688814826.693,-13.184,-21.484,-29.785,-35.156,-12.695
1688814826.694,-30.273,-17.090,-30.273,-14.160,-14.160
1688814826.698,-18.066,-16.602,-38.086,-35.645,-112.305
1688814826.702,8.789,-17.090,-39.062,-61.035,-83.008
1688814826.706,17.090,-15.625,-37.109,-45.410,9.766
1688814826.710,1.465,-16.602,-37.109,-40.527,-83.496
1688814826.714,-26.855,-18.066,-37.109,-13.184,-15.137
1688814826.718,-28.320,-18.066,-34.668,-23.926,106.934
1688814826.721,0.977,-15.625,-32.227,-51.758,225.586
1688814826.725,13.672,-12.695,-31.738,-36.133,49.316
1688814826.729,-5.371,-14.648,-34.668,-27.832,-211.426
1688814826.733,-34.668,-19.531,-33.691,-4.395,-97.168
1688814826.737,-50.293,-25.879,-30.762,-14.648,-40.039
1688814826.742,-28.320,-27.832,-30.762,-59.082,-173.340
1688814826.746,-4.395,-29.297,-34.668,-56.152,-136.230
1688814826.750,-9.766,-27.832,-38.574,-49.316,-25.391
1688814826.754,-32.227,-26.367,-41.016,-35.645,0.000
1688814826.758,-35.645,-24.902,-38.086,-29.785,-118.652
1688814826.762,-11.719,-25.879,-37.598,-66.895,-106.934
1688814826.766,1.953,-28.320,-38.086,-62.988,215.332
1688814826.769,-3.418,-27.344,-32.715,-41.016,151.367
1688814826.773,-30.273,-22.461,-34.180,-20.996,-51.758
1688814826.777,-50.781,-18.066,-35.645,-8.789,5.371
1688814826.781,-33.203,-20.996,-33.203,-43.945,-26.855
1688814826.785,-17.090,-24.414,-33.691,-54.688,-151.855
1688814826.785,-24.414,-29.297,-31.250,-47.363,-131.348
1688814826.789,-47.363,-31.250,-28.320,-30.762,1.953
1688814826.793,-69.824,-30.762,-31.250,-18.066,87.402
1688814826.797,-46.387,-31.738,-28.809,-60.059,-69.336
1688814826.801,-17.578,-32.227,-27.832,-65.430,-250.488
1688814826.805,-17.090,-31.250,-33.203,-40.527,-89.355
1688814826.809,-26.855,-25.391,-28.809,-18.066,351.562
1688814826.812,-40.527,-28.809,-25.879,-12.207,306.641
1688814826.816,-21.973,-33.203,-29.297,-52.734,-87.402
1688814826.820,7.812,-28.809,-35.645,-66.406,-149.902
1688814826.824,2.441,-28.809,-41.992,-62.500,-135.254
1688814826.828,-15.625,-29.785,-40.039,-51.758,-187.988
1688814826.831,-38.086,-33.691,-39.551,-25.391,-121.582
1688814826.835,-27.344,-32.715,-40.527,-52.246,-36.621
1688814826.839,8.789,-27.344,-37.598,-75.684,-130.859
1688814826.843,20.020,-23.926,-35.645,-62.988,-136.230
1688814826.847,0.000,-25.391,-36.621,-50.293,-116.699
1688814826.851,-29.297,-27.832,-34.180,-18.066,176.270
1688814826.855,-25.391,-26.367,-33.691,-37.109,242.188
1688814826.858,-3.418,-30.762,-38.574,-71.289,-135.254
1688814826.862,0.000,-32.715,-35.645,-50.293,-180.664
1688814826.866,-10.742,-24.902,-34.180,-33.203,-7.812
1688814826.870,-30.273,-23.926,-32.227,-15.137,-32.715
1688814826.874,-30.762,-23.438,-23.926,-30.273,-130.371
1688814826.889,-6.348,-23.926,-26.855,-71.777,-106.445
1688814826.893,2.930,-28.809,-35.156,-60.547,-108.887
1688814826.897,-2.930,-29.297,-32.227,-49.805,-202.637
1688814826.901,-24.414,-32.227,-30.273,-38.574,-113.281
1688814826.905,-31.738,-28.320,-34.180,-40.039,54.688
1688814826.909,-11.230,-24.902,-37.109,-68.359,154.297
1688814826.913,0.977,-24.902,-40.039,-69.824,54.688
1688814826.916,-1.953,-24.414,-36.133,-55.176,-94.238
1688814826.920,-27.832,-22.949,-28.320,-17.578,-14.160
1688814826.924,-45.410,-18.555,-29.785,-12.695,243.652
1688814826.928,-24.414,-17.090,-30.273,-66.406,-80.078
1688814826.932,-12.695,-23.926,-34.668,-63.477,-291.504
1688814826.934,-26.855,-31.250,-38.086,-49.805,-132.324
1688814826.938,-46.875,-31.738,-34.668,-34.668,-162.109
1688814826.942,-49.805,-25.391,-33.691,-12.207,-171.387
1688814826.946,-28.320,-23.438,-33.203,-42.480,-174.805
1688814826.950,-9.277,-25.391,-26.855,-44.922,-119.629
1688814826.954,-16.113,-24.414,-20.996,-35.156,-27.832
1688814826.958,-34.180,-24.414,-24.414,-26.855,17.578
1688814826.961,-44.434,-22.949,-23.438,-11.719,15.137
1688814826.965,-25.879,-20.020,-19.043,-36.621,296.387
1688814826.969,-2.930,-21.484,-23.438,-40.039,237.305
1688814826.973,-3.906,-20.996,-27.832,-29.785,-206.543
1688814826.977,-22.949,-21.973,-24.414,-14.648,-177.734
1688814826.979,-41.992,-28.320,-27.832,7.324,-60.059
1688814826.983,-22.949,-28.809,-37.598,-28.809,-117.188
1688814826.987,4.883,-21.973,-37.109,-62.988,-186.035
1688814826.991,0.488,-21.973,-34.668,-52.246,-24.902
1688814826.995,-15.625,-23.926,-40.527,-36.133,121.582
1688814826.999,-35.645,-23.438,-40.039,-9.277,-20.020
1688814827.003,-25.879,-29.297,-35.156,-37.109,-56.152
1688814827.006,4.395,-28.320,-33.691,-63.477,-14.648
1688814827.010,-1.465,-24.414,-39.062,-46.387,113.281
1688814827.014,-21.484,-26.855,-39.551,-43.945,-48.828
1688814827.018,-36.621,-28.809,-36.133,-20.508,-86.426
1688814827.022,-35.156,-30.273,-34.180,-41.016,29.785
1688814827.025,-4.395,-29.297,-28.809,-63.965,-102.051
1688814827.029,-3.418,-29.785,-26.367,-38.086,-210.938
1688814827.033,-22.949,-34.668,-28.320,-35.645,-148.926
1688814827.037,-42.969,-38.086,-28.809,-16.113,-31.738
