timestamps,TP9,AF7,AF8,TP10,Right AUX
1688815130.597,-56.641,-30.762,-44.434,-67.383,-97.168
1688815130.601,-59.082,-36.621,-45.898,-54.199,-171.387
1688815130.605,-86.426,-28.809,-39.551,-48.340,-193.359
1688815130.609,-120.117,-30.273,-34.180,-31.250,-116.699
1688815130.613,-112.305,-33.691,-38.086,-52.246,-139.160
1688815130.617,-78.613,-32.227,-41.992,-76.172,-158.203
1688815130.621,-63.477,-31.250,-40.527,-60.059,-152.344
1688815130.624,-65.918,-32.715,-40.527,-45.898,-104.980
1688815130.628,-93.262,-33.203,-41.992,-31.738,176.270
1688815130.632,-95.703,-30.273,-44.434,-54.688,78.125
1688815130.636,-70.801,-34.180,-44.434,-77.637,-165.039
1688815130.640,-65.430,-30.762,-42.969,-58.594,6.348
1688815130.641,-77.148,-28.320,-41.504,-46.875,81.055
1688815130.645,-110.352,-34.180,-42.969,-42.969,-62.500
1688815130.649,-113.281,-35.156,-39.551,-57.617,-129.883
1688815130.653,-79.590,-38.574,-38.574,-75.684,-11.230
1688815130.657,-64.941,-41.992,-41.992,-58.105,-22.949
1688815130.661,-71.289,-39.551,-39.062,-44.434,-168.945
1688815130.665,-96.191,-36.133,-35.645,-28.320,-18.066
1688815130.668,-107.422,-35.156,-37.109,-31.250,148.438
1688815130.672,-76.660,-36.133,-38.086,-44.922,164.062
1688815130.676,-56.152,-35.645,-37.598,-40.039,-64.453
1688815130.680,-65.430,-32.227,-40.039,-32.227,-118.652
1688815130.684,-91.309,-33.203,-42.480,-20.996,-61.523
1688815130.689,-107.422,-29.785,-43.945,-29.785,-103.516
1688815130.693,-78.125,-29.785,-41.504,-58.105,-122.559
1688815130.697,-57.617,-37.598,-41.992,-46.875,-43.945
1688815130.701,-66.895,-36.621,-43.457,-30.273,12.695
1688815130.705,-83.984,-30.762,-46.387,-33.203,-48.340
1688815130.709,-101.562,-34.668,-54.688,-42.969,-30.762
1688815130.713,-68.848,-32.715,-49.805,-61.035,31.738
1688815130.716,-29.785,-32.227,-42.969,-44.922,190.430
1688815130.720,-31.250,-36.621,-45.410,-40.527,67.871
1688815130.724,-59.082,-33.203,-43.457,-36.621,-125.488
1688815130.728,-90.332,-31.738,-43.457,-30.273,-20.508
1688815130.732,-62.988,-33.203,-46.387,-57.617,-50.781
1688815130.731,-22.949,-35.156,-47.852,-50.781,-167.480
1688815130.735,-23.438,-36.133,-38.086,-29.785,-179.199
1688815130.739,-48.340,-40.039,-35.156,-20.020,-135.742
1688815130.743,-70.801,-38.086,-40.527,-14.648,49.316
1688815130.747,-51.758,-35.645,-36.621,-41.504,56.152
1688815130.751,-20.508,-39.062,-37.598,-47.363,-46.387
1688815130.755,-18.066,-38.086,-41.992,-28.809,204.102
1688815130.758,-31.738,-33.203,-40.527,-19.531,477.539
1688815130.762,-51.758,-41.504,-38.574,-21.484,232.422
1688815130.766,-30.762,-41.504,-39.551,-49.805,-130.371
1688815130.770,12.695,-32.227,-38.574,-53.711,-148.438
1688815130.774,22.461,-31.738,-38.086,-29.785,-103.027
1688815130.778,5.371,-37.598,-44.434,-19.531,-111.328
1688815130.782,-24.902,-36.621,-44.434,-9.766,-41.992
1688815130.786,-16.113,-31.738,-44.434,-24.902,-30.762
1688815130.790,20.996,-28.809,-48.340,-35.645,-133.301
1688815130.794,23.926,-27.344,-48.340,-24.902,-171.875
1688815130.798,9.277,-26.367,-49.805,-16.602,-29.297
1688815130.802,-18.555,-27.832,-50.781,-2.930,258.301
1688815130.805,-25.391,-29.297,-47.363,-24.902,98.145
1688815130.809,9.766,-25.391,-42.969,-39.062,-173.828
1688815130.813,15.137,-25.391,-47.852,-23.926,-98.633
1688815130.817,-17.090,-34.668,-49.805,-25.879,132.812
1688815130.821,-62.988,-34.180,-46.875,-32.227,9.766
1688815130.836,-72.266,-33.203,-43.945,-58.105,-158.691
1688815130.840,-41.016,-34.668,-39.062,-85.449,-114.258
1688815130.844,-31.250,-32.715,-35.645,-65.918,-132.812
1688815130.848,-39.551,-35.645,-36.133,-48.828,-111.328
1688815130.852,-71.777,-36.621,-43.945,-38.086,-62.988
1688815130.856,-85.938,-34.180,-50.781,-41.504,139.160
1688815130.860,-53.223,-32.227,-46.875,-67.383,267.578
1688815130.863,-33.691,-33.203,-42.480,-67.383,23.926
1688815130.867,-45.410,-34.180,-46.875,-62.988,-107.910
1688815130.871,-82.031,-34.180,-53.223,-52.246,89.355
1688815130.875,-100.098,-36.133,-55.176,-54.199,155.762
1688815130.879,-65.430,-35.645,-53.223,-85.938,-202.637
1688815130.881,-38.574,-37.598,-54.688,-78.125,-249.023
1688815130.885,-44.434,-34.668,-57.129,-62.988,-96.680
1688815130.889,-65.430,-29.297,-49.316,-43.945,-41.016
1688815130.893,-84.473,-26.367,-45.410,-38.574,-143.555
1688815130.897,-62.012,-26.367,-47.363,-70.801,-145.020
1688815130.901,-34.668,-32.227,-53.223,-64.941,-79.590
1688815130.905,-38.086,-37.109,-56.152,-55.176,-33.691
1688815130.908,-55.176,-36.133,-53.711,-53.711,-106.445
1688815130.912,-73.730,-31.250,-48.828,-42.969,-65.918
1688815130.916,-45.410,-32.715,-42.969,-62.988,156.250
1688815130.920,-8.301,-32.715,-43.457,-62.500,23.438
1688815130.924,-4.883,-32.227,-51.270,-51.270,-163.086
1688815130.926,-18.066,-34.180,-55.176,-38.574,-103.027
1688815130.930,-36.621,-31.250,-48.340,-22.949,10.254
1688815130.934,-20.020,-34.668,-47.852,-46.387,-98.633
1688815130.938,7.324,-37.598,-50.293,-49.805,-119.141
1688815130.942,7.324,-32.715,-46.387,-29.297,108.887
1688815130.946,-17.578,-32.715,-46.387,-33.691,174.805
1688815130.950,-55.664,-33.691,-43.945,-42.969,-25.879
1688815130.953,-55.664,-36.133,-48.828,-60.547,-172.363
1688815130.957,-23.926,-38.086,-52.734,-55.664,-28.809
1688815130.961,-11.719,-38.086,-47.363,-33.203,78.613
1688815130.965,-26.855,-36.621,-48.828,-37.109,-135.254
1688815130.969,-60.547,-34.668,-53.223,-29.785,-128.906
1688815130.973,-55.664,-34.180,-52.734,-51.758,-50.781
1688815130.977,-16.113,-34.668,-46.387,-57.617,-41.992
1688815130.981,-8.301,-35.645,-47.363,-38.574,-133.789
1688815130.985,-29.297,-40.039,-48.340,-37.598,-85.449
1688815130.989,-45.410,-44.434,-41.992,-4.395,100.586
1688815130.993,-32.715,-36.621,-46.387,-0.977,0.000
1688815130.997,-4.395,-27.832,-54.199,-35.156,-108.398
1688815131.000,4.395,-22.461,-54.199,-39.062,12.207
1688815131.004,-5.371,-16.602,-61.035,-27.344,143.066
1688815131.008,-31.250,-11.230,-67.871,-16.113,37.598
1688815131.012,-36.133,-7.812,-73.730,-37.109,-145.996
1688815131.016,-5.859,-1.953,-77.148,-71.777,-180.664
1688815131.017,8.789,1.953,-79.590,-64.453,-137.695
1688815131.021,-1.953,1.953,-90.332,-55.176,-116.699
1688815131.025,-28.320,8.301,-96.680,-46.875,-60.059
1688815131.029,-31.250,15.625,-100.098,-44.434,147.461
1688815131.033,1.465,19.531,-104.980,-64.453,88.867
1688815131.037,24.414,21.484,-106.445,-61.035,-48.828
1688815131.041,21.484,24.902,-116.699,-60.547,-74.707
1688815131.044,-9.277,24.902,-121.582,-45.898,51.270
1688815131.048,-28.320,27.832,-123.047,-40.039,317.871
1688815131.052,11.719,35.156,-126.465,-77.637,26.855
1688815131.056,47.852,35.645,-126.953,-75.195,-210.938
1688815131.060,47.852,34.180,-128.906,-59.570,-111.816
1688815131.064,25.879,37.598,-127.930,-53.223,-56.641
1688815131.068,6.348,41.016,-127.441,-48.340,-116.699
1688815131.072,38.574,43.945,-126.465,-56.641,-166.016
1688815131.076,66.406,43.457,-125.000,-56.152,-193.848
1688815131.080,53.711,39.551,-126.465,-58.105,-138.672
1688815131.084,24.902,39.062,-121.094,-45.898,-129.395
1688815131.088,-6.836,40.039,-121.094,-41.016,-63.477
1688815131.091,13.672,36.133,-124.512,-59.082,345.703
1688815131.095,48.828,32.715,-123.047,-51.758,242.676
1688815131.099,38.086,27.832,-118.652,-41.504,-121.582
1688815131.103,5.371,20.996,-115.234,-35.645,-48.340
1688815131.107,-22.461,21.484,-112.793,-28.320,-55.664
1688815131.106,0.488,21.484,-108.887,-54.688,-181.641
1688815131.110,33.203,15.137,-106.934,-67.871,-170.410
1688815131.114,28.809,11.230,-102.051,-51.270,-132.324
1688815131.118,11.230,8.301,-97.168,-44.922,-32.715
1688815131.122,-13.184,7.324,-92.285,-36.133,74.219
1688815131.126,-4.883,7.812,-85.938,-58.105,-64.453
1688815131.130,29.785,4.395,-83.008,-62.988,66.406
1688815131.133,29.297,5.859,-82.520,-39.062,328.613
1688815131.137,5.371,2.441,-84.961,-43.945,9.277
1688815131.141,-27.832,-5.371,-83.984,-39.551,-185.547
1688815131.145,-27.832,-7.812,-79.590,-49.805,129.395
1688815131.149,6.348,-8.301,-76.660,-61.523,140.625
1688815131.153,20.020,-6.348,-72.754,-44.922,-104.492
1688815131.157,7.324,-6.348,-67.871,-34.668,-70.312
1688815131.161,-26.367,-9.277,-70.801,-25.879,-45.410
1688815131.165,-37.598,-12.695,-73.242,-44.922,-74.219
1688815131.169,-5.371,-10.254,-67.871,-62.012,-187.988
1688815131.173,7.812,-8.789,-65.918,-40.039,-50.293
1688815131.177,-11.719,-12.695,-64.453,-32.227,177.246
1688815131.180,-44.434,-18.555,-66.895,-30.273,-5.371
1688815131.184,-54.688,-21.484,-68.359,-47.852,-198.242
1688815131.188,-26.855,-21.484,-59.570,-60.059,-127.930
1688815131.192,-2.441,-25.391,-55.664,-47.363,-35.645
1688815131.196,-7.324,-25.879,-58.594,-42.480,-190.430
1688815131.211,-36.133,-19.531,-55.176,-24.902,-124.512
1688815131.215,-50.781,-22.461,-50.293,-33.203,69.336
1688815131.219,-22.461,-28.809,-54.688,-62.988,-1.953
1688815131.223,-2.930,-30.273,-56.152,-49.316,-81.543
1688815131.227,-19.043,-27.344,-52.734,-39.062,-100.098
1688815131.231,-49.805,-25.391,-49.316,-35.645,229.980
1688815131.235,-71.289,-26.855,-49.805,-27.344,495.605
1688815131.238,-44.434,-29.297,-52.246,-48.340,9.766
1688815131.242,-16.113,-28.809,-51.270,-42.969,-210.938
1688815131.246,-20.508,-30.273,-54.688,-28.809,-155.762
1688815131.250,-43.945,-28.320,-54.199,-28.320,-179.199
1688815131.254,-66.895,-25.391,-47.852,-29.785,-183.105
1688815131.244,-50.293,-29.785,-48.828,-54.688,-158.691
1688815131.248,-24.902,-36.133,-50.293,-60.059,-53.711
1688815131.252,-29.297,-42.969,-53.711,-59.570,-132.324
1688815131.256,-45.410,-43.457,-51.270,-50.781,-254.395
1688815131.260,-69.336,-37.598,-48.340,-40.039,-128.906
1688815131.264,-59.082,-37.598,-50.781,-74.219,-21.484
1688815131.268,-21.973,-39.062,-51.270,-72.754,-10.254
1688815131.271,-29.785,-41.992,-52.734,-65.430,-129.395
1688815131.275,-66.406,-46.387,-54.199,-66.895,-48.828
1688815131.279,-87.891,-42.969,-54.199,-48.340,217.285
1688815131.283,-60.547,-34.668,-46.387,-74.707,-73.242
1688815131.287,-31.250,-39.062,-46.387,-92.773,-252.441
1688815131.302,-32.227,-43.457,-48.828,-73.730,-116.699
1688815131.306,-35.645,-35.156,-46.387,-58.105,-80.566
1688815131.310,-68.359,-34.668,-47.852,-49.316,-65.918
1688815131.314,-66.406,-39.062,-48.340,-70.312,-62.012
1688815131.318,-26.367,-40.039,-46.387,-72.754,91.309
1688815131.322,-25.391,-39.551,-43.457,-47.363,276.367
1688815131.326,-34.180,-33.691,-41.504,-36.621,82.031
1688815131.329,-52.246,-29.297,-41.992,-24.414,-53.711
1688815131.333,-52.734,-28.809,-44.434,-41.016,40.039
1688815131.337,-12.207,-32.227,-44.434,-55.664,22.949
1688815131.341,8.301,-33.203,-45.410,-38.574,-114.746
1688815131.345,-8.301,-31.738,-41.016,-35.645,-155.273
1688815131.362,-41.992,-32.227,-39.062,-26.855,-41.504
1688815131.366,-43.457,-31.250,-42.480,-36.133,-77.637
1688815131.370,-4.883,-35.156,-42.480,-50.781,-192.871
1688815131.374,13.184,-36.133,-38.086,-29.297,-116.211
1688815131.378,1.953,-35.156,-37.598,-18.555,-98.145
1688815131.382,-28.320,-35.156,-41.016,-11.719,-32.227
1688815131.386,-35.645,-35.645,-40.039,-12.695,7.324
1688815131.389,4.395,-35.645,-38.086,-31.738,-35.645
1688815131.393,21.484,-28.809,-35.156,-10.742,193.848
1688815131.397,3.418,-30.273,-35.645,3.418,88.867
1688815131.401,-21.973,-35.156,-34.668,-0.488,-154.785
1688815131.405,-31.250,-36.621,-32.227,-10.254,-23.438
1688815131.406,-2.930,-41.992,-33.203,-35.645,-50.293
1688815131.410,19.531,-41.504,-34.180,-27.344,-174.316
1688815131.414,12.695,-37.109,-33.203,-11.719,-164.062
1688815131.418,-23.438,-37.598,-31.738,0.000,41.992
1688815131.422,-46.387,-35.645,-30.273,-13.184,87.402
1688815131.426,-27.832,-33.203,-32.715,-49.316,-95.703
1688815131.430,-7.812,-36.621,-37.109,-37.109,-74.707
1688815131.433,-9.766,-41.504,-37.598,-21.973,108.398
1688815131.437,-30.762,-36.621,-38.086,-16.113,60.547
1688815131.441,-49.316,-27.344,-35.645,-9.766,-85.938
1688815131.445,-25.391,-29.785,-36.133,-43.945,-229.980
1688815131.449,-1.953,-31.738,-40.039,-34.180,-17.578
1688815131.453,-6.836,-27.832,-42.969,-17.578,263.184
1688815131.457,-25.391,-30.762,-48.340,-28.809,-7.324
1688815131.461,-46.875,-31.250,-47.363,-20.020,-93.262
1688815131.465,-29.785,-28.809,-39.551,-46.875,-59.082
1688815131.469,7.812,-25.391,-39.551,-40.527,-118.652
1688815131.473,6.836,-23.438,-39.062,-7.324,-168.945
1688815131.477,-23.438,-27.832,-39.551,0.000,13.672
1688815131.480,-46.387,-29.785,-46.387,-8.301,108.398
1688815131.484,-30.273,-34.180,-44.922,-34.668,-83.496
1688815131.488,5.371,-33.691,-46.875,-43.945,-177.246
1688815131.492,17.578,-24.902,-52.246,-35.156,-29.297
1688815131.496,10.742,-18.066,-49.805,-0.488,259.766
1688815131.483,-31.738,-27.344,-34.180,15.625,91.797
1688815131.487,-54.199,-45.898,-26.367,-31.250,-173.340
1688815131.491,-31.738,-49.316,-26.855,-55.664,-125.000
1688815131.495,-34.180,-51.758,-15.137,-43.945,7.324
1688815131.499,-70.801,-59.570,-6.348,-51.758,67.871
1688815131.503,-122.559,-69.336,-4.883,-56.152,108.398
1688815131.507,-134.277,-75.684,4.395,-79.102,122.070
1688815131.510,-114.746,-79.590,17.090,-107.422,-7.812
1688815131.514,-122.070,-86.914,19.531,-106.445,-111.816
1688815131.518,-138.672,-94.238,20.996,-105.469,-182.617
1688815131.522,-171.387,-98.633,30.273,-96.191,86.914
1688815131.526,-187.012,-101.074,38.086,-103.027,321.289
1688815131.529,-152.344,-108.887,41.504,-125.488,-37.109
1688815131.533,-142.578,-114.258,48.828,-115.723,-174.316
1688815131.537,-163.086,-114.258,51.270,-108.887,-83.984
1688815131.541,-191.406,-112.305,49.316,-98.633,-61.035
1688815131.545,-193.359,-110.840,49.316,-99.609,-126.465
1688815131.549,-153.809,-109.863,48.340,-121.582,-104.004
1688815131.553,-131.348,-106.934,48.828,-95.215,270.996
1688815131.556,-125.977,-102.539,45.410,-72.266,152.344
1688815131.560,-140.137,-99.121,40.039,-62.988,-209.473
1688815131.564,-158.203,-98.145,37.598,-64.453,-85.938
1688815131.568,-122.559,-93.750,34.668,-87.891,-81.055
1688815131.572,-82.031,-89.355,32.715,-67.383,-201.660
1688815131.587,-77.637,-86.426,27.344,-57.617,-208.496
1688815131.591,-98.633,-84.961,20.508,-48.340,-60.059
1688815131.595,-105.469,-83.008,14.160,-40.527,47.852
1688815131.599,-62.500,-76.172,14.160,-66.895,4.883
1688815131.603,-33.203,-70.801,16.113,-57.129,-21.484
1688815131.607,-44.922,-72.266,15.625,-38.574,48.340
1688815131.611,-73.242,-68.848,16.113,-20.996,448.242
1688815131.614,-94.727,-64.453,13.184,-16.602,250.000
1688815131.618,-76.660,-66.895,11.230,-54.199,-226.562
1688815131.622,-32.227,-65.918,7.324,-63.477,-209.961
1688815131.626,-22.949,-61.523,1.465,-51.270,-189.941
1688815131.630,-54.688,-57.617,2.930,-44.434,-150.391
1688815131.631,-76.660,-60.059,4.883,-34.668,-66.895
1688815131.635,-57.129,-60.059,2.441,-55.664,-113.281
1688815131.639,-25.391,-59.082,4.883,-56.152,-179.199
1688815131.643,-22.949,-58.594,3.906,-39.551,-217.285
1688815131.647,-51.758,-55.176,0.977,-31.250,-59.570
1688815131.651,-81.055,-57.129,0.977,-17.578,140.625
1688815131.655,-70.801,-57.617,-0.488,-51.270,14.648
1688815131.658,-41.504,-57.617,2.930,-62.500,-178.711
1688815131.662,-39.551,-61.523,0.000,-37.598,-151.855
1688815131.666,-51.758,-58.594,-3.418,-23.926,139.648
1688815131.670,-70.312,-52.246,-3.906,-17.090,55.664
1688815131.674,-69.824,-52.246,-12.207,-44.434,-124.512
1688815131.676,-37.598,-54.199,-15.625,-59.082,-103.027
1688815131.680,-21.973,-48.340,-12.207,-41.992,-163.574
1688815131.684,-39.551,-47.852,-16.602,-41.504,-211.914
1688815131.688,-74.219,-53.223,-20.020,-32.227,-83.984
1688815131.692,-69.824,-47.852,-18.066,-41.504,174.805
1688815131.696,-25.879,-41.504,-19.531,-50.781,238.770
1688815131.700,-16.602,-43.945,-19.043,-35.156,65.430
1688815131.703,-60.059,-52.734,-15.625,-47.852,-22.949
1688815131.707,-108.398,-59.082,-16.113,-49.316,151.855
1688815131.711,-98.145,-56.152,-15.137,-50.293,329.102
1688815131.715,-64.453,-59.082,-14.160,-78.125,-42.969
1688815131.719,-62.500,-63.965,-12.207,-74.707,-171.875
1688815131.722,-67.871,-60.547,-9.766,-57.617,-117.188
1688815131.726,-82.031,-58.594,-6.836,-50.293,-135.742
1688815131.730,-86.426,-62.012,-9.277,-62.988,-152.344
1688815131.734,-49.316,-60.059,-13.672,-75.684,-159.668
1688815131.738,-21.484,-50.781,-10.254,-54.688,-84.961
1688815131.742,-22.949,-48.340,-9.277,-35.645,-1.953
1688815131.746,-50.781,-54.688,-13.184,-27.344,8.789
1688815131.749,-61.035,-54.688,-13.184,-25.879,-2.930
1688815131.753,-26.367,-52.734,-12.695,-35.645,148.926
1688815131.757,-6.348,-56.641,-17.578,-33.203,58.594
1688815131.761,-11.719,-56.152,-24.414,-30.273,-157.715
1688815131.765,-32.227,-55.664,-23.926,-18.555,8.789
1688815131.766,-50.293,-55.176,-22.949,-11.719,143.555
1688815131.770,-27.832,-50.781,-26.855,-39.062,-99.121
1688815131.774,3.418,-46.875,-22.949,-34.668,-217.773
1688815131.778,9.277,-42.480,-20.996,-15.625,94.238
1688815131.782,-16.113,-46.387,-23.926,-5.859,242.676
1688815131.786,-41.016,-53.711,-27.344,-7.812,20.020
1688815131.790,-18.555,-54.199,-29.785,-47.852,-117.188
1688815131.793,12.207,-48.340,-27.832,-46.875,-63.477
1688815131.797,11.719,-44.434,-22.949,-23.926,34.180
1688815131.801,-8.301,-42.480,-22.949,-21.973,-149.902
1688815131.805,-35.156,-37.109,-28.809,-21.973,-204.102
1688815131.809,-13.672,-38.574,-25.391,-47.363,-107.910
1688815131.813,16.113,-46.387,-27.832,-42.480,-85.449
1688815131.817,12.207,-51.270,-36.133,-26.367,-226.074
1688815131.821,1.465,-47.852,-33.691,-13.672,-164.062
1688815131.825,-18.066,-48.828,-31.738,6.836,10.254
1688815131.829,-8.301,-54.199,-40.039,-18.066,-45.410
1688815131.833,25.879,-49.805,-33.691,-20.508,-126.953
1688815131.837,27.344,-45.898,-24.414,2.441,-30.273
1688815131.840,1.465,-44.922,-23.438,7.324,214.844
1688815131.844,-18.555,-40.039,-20.508,16.602,73.242
1688815131.848,-9.766,-37.109,-21.484,-12.695,-198.242
1688815131.852,22.461,-34.180,-24.414,-37.109,-216.797
1688815131.856,31.738,-38.086,-27.344,-15.625,-88.379
1688815131.857,10.742,-35.156,-30.762,-12.695,-171.387
1688815131.861,-27.832,-31.250,-33.691,-10.254,-142.578
1688815131.865,-29.785,-35.645,-34.180,-26.367,68.359
1688815131.869,9.766,-39.062,-38.086,-41.992,53.711
1688815131.873,23.926,-39.062,-44.922,-30.273,-38.086
1688815131.877,13.184,-32.715,-44.922,-30.273,-72.266
1688815131.881,-20.020,-29.297,-41.992,-18.555,196.777
1688815131.884,-38.574,-33.203,-42.480,-31.250,416.992
1688815131.888,-7.812,-35.645,-41.016,-56.641,47.852
1688815131.892,4.395,-40.527,-41.016,-49.316,-195.312
1688815131.896,-14.648,-43.457,-44.434,-49.316,-123.047
1688815131.900,-42.969,-42.969,-46.387,-39.551,-112.305
1688815131.903,-48.828,-39.062,-43.457,-50.781,-104.492
1688815131.907,-19.043,-40.527,-43.945,-76.660,-108.887
1688815131.911,5.371,-48.340,-45.410,-61.035,-135.742
1688815131.915,1.465,-46.387,-41.992,-52.734,-173.828
1688815131.919,-25.391,-43.945,-41.016,-44.434,-77.148
1688815131.923,-41.504,-44.922,-39.551,-49.316,39.551
1688815131.927,-12.695,-41.992,-40.039,-70.801,255.859
1688815131.930,12.695,-36.621,-41.504,-48.340,167.969
1688815131.934,2.930,-41.504,-44.434,-43.945,-214.355
1688815131.938,-19.043,-41.016,-51.758,-44.434,-141.113
1688815131.942,-38.574,-42.480,-53.223,-43.945,-17.578
1688815131.946,-9.277,-43.457,-49.316,-68.848,-179.199
1688815131.946,21.973,-38.086,-43.945,-60.059,-187.988
1688815131.950,13.184,-40.039,-39.551,-50.781,-111.328
1688815131.954,-13.184,-41.016,-40.039,-37.598,-130.859
1688815131.958,-36.133,-39.062,-42.969,-26.367,-44.922
1688815131.962,-13.672,-45.410,-46.387,-52.734,-74.707
1688815131.966,18.555,-45.410,-43.457,-44.922,138.184
1688815131.970,9.277,-41.504,-39.062,-22.949,407.227
1688815131.973,-20.508,-37.109,-39.062,-39.551,88.867
1688815131.977,-51.270,-37.109,-42.480,-45.898,-167.480
1688815131.981,-32.715,-43.457,-45.410,-68.848,-123.047
1688815131.985,2.441,-46.875,-44.922,-77.637,-95.703
1688815131.989,-1.953,-44.434,-46.387,-58.594,-143.066
1688815132.007,-24.414,-43.945,-54.688,-50.781,-106.934
1688815132.011,-44.922,-35.645,-50.293,-34.180,12.695
1688815132.015,-34.668,-28.320,-44.922,-56.152,-47.852
1688815132.019,-9.766,-31.738,-50.781,-66.895,-230.469
1688815132.023,-16.602,-33.691,-55.176,-45.410,-154.297
1688815132.027,-38.574,-38.086,-59.082,-40.527,-2.441
1688815132.031,-63.965,-42.480,-57.617,-38.086,79.590
1688815132.034,-63.965,-37.109,-51.758,-61.523,-71.777
1688815132.038,-41.992,-35.645,-50.293,-70.312,-35.645
1688815132.042,-49.316,-41.992,-54.199,-46.387,272.461
1688815132.046,-65.918,-42.969,-52.734,-40.039,78.125
1688815132.050,-80.078,-41.016,-44.434,-32.715,-101.074
1688815132.052,-74.707,-38.086,-46.875,-43.945,-49.805
1688815132.056,-38.574,-39.062,-48.340,-60.059,-76.660
1688815132.060,-19.043,-38.574,-49.316,-44.434,-102.051
1688815132.064,-26.855,-32.715,-52.246,-39.551,-69.336
1688815132.068,-54.199,-34.668,-49.805,-32.227,166.992
1688815132.072,-65.430,-38.086,-52.246,-44.922,199.219
1688815132.076,-38.574,-38.574,-52.246,-69.336,-62.988
1688815132.079,-27.832,-41.504,-49.805,-62.500,-147.461
1688815132.083,-42.480,-43.945,-52.734,-57.617,37.109
1688815132.087,-62.988,-39.062,-53.223,-39.062,152.832
1688815132.091,-65.430,-35.156,-49.316,-42.480,-85.938
1688815132.095,-37.598,-38.086,-47.852,-70.312,-170.898
1688815132.097,-23.926,-37.598,-51.270,-60.547,-109.863
1688815132.101,-33.203,-39.062,-52.734,-54.688,-139.648
1688815132.105,-53.223,-37.598,-54.688,-47.852,-187.012
1688815132.109,-64.453,-35.156,-58.105,-51.270,-94.727
1688815132.113,-28.320,-34.668,-58.594,-72.754,-125.488
1688815132.117,8.789,-31.738,-56.152,-48.340,-121.094
1688815132.121,3.906,-32.715,-57.129,-33.691,-106.445
1688815132.124,-26.855,-32.715,-60.059,-37.109,-115.234
1688815132.128,-46.387,-31.738,-61.523,-35.156,83.496
1688815132.132,-13.184,-32.715,-62.500,-68.848,-84.473
1688815132.136,14.648,-30.273,-61.523,-73.730,-224.121
1688815132.140,-0.488,-32.715,-54.199,-59.082,-117.676
1688815132.143,-30.273,-36.133,-48.828,-42.969,-74.219
1688815132.147,-57.129,-37.109,-48.828,-39.551,-16.113
1688815132.151,-33.691,-41.016,-44.922,-63.965,-77.637
1688815132.155,-0.977,-40.527,-45.898,-56.641,19.531
1688815132.159,-7.324,-38.086,-51.270,-36.133,113.770
1688815132.163,-27.832,-35.645,-51.758,-26.855,27.344
1688815132.167,-48.828,-30.762,-52.734,-30.273,73.242
1688815132.170,-24.414,-25.391,-50.293,-38.574,185.547
1688815132.174,10.254,-25.391,-48.340,-34.180,175.781
1688815132.178,6.348,-26.367,-50.293,-31.250,-90.820
1688815132.182,-14.160,-27.344,-48.340,-25.879,-112.305
1688815132.186,-48.828,-29.785,-46.387,-16.113,-14.648
1688815132.188,-42.969,-26.367,-45.410,-37.598,-109.863
1688815132.192,-12.207,-24.414,-49.805,-54.688,-185.059
1688815132.196,-15.625,-30.273,-51.758,-45.898,-161.621
1688815132.200,-26.367,-31.738,-45.410,-32.227,-74.707
1688815132.204,-54.688,-32.227,-47.363,-22.461,16.113
1688815132.208,-49.316,-30.762,-47.852,-42.480,0.977
1688815132.212,-12.207,-34.180,-45.410,-52.734,-24.902
1688815132.215,-11.230,-30.762,-49.805,-30.762,176.758
1688815132.219,-27.832,-22.949,-52.246,-24.902,151.367
1688815132.223,-55.176,-29.297,-52.734,-20.996,-117.188
1688815132.227,-50.781,-33.203,-55.176,-39.062,-85.449
1688815132.231,-13.184,-34.180,-53.711,-60.059,-103.027
1688815132.231,-12.207,-34.668,-52.246,-44.434,-151.367
1688815132.235,-30.273,-32.715,-53.223,-39.551,-157.715
1688815132.239,-47.363,-28.809,-44.922,-32.227,-74.707
1688815132.243,-61.035,-32.227,-42.969,-42.969,-25.879
1688815132.247,-42.969,-35.645,-46.875,-66.406,-44.922
1688815132.251,-20.020,-35.645,-43.457,-51.270,42.480
1688815132.255,-36.621,-38.086,-45.898,-33.691,244.141
1688815132.258,-76.172,-39.551,-50.781,-17.090,531.738
1688815132.262,-86.914,-43.457,-52.734,-27.832,295.410
1688815132.266,-57.617,-40.527,-50.781,-58.105,-151.367
1688815132.270,-37.109,-30.273,-49.805,-60.547,-157.227
1688815132.274,-45.410,-25.879,-49.805,-58.105,-88.379
1688815132.279,-68.848,-26.367,-49.316,-41.992,-126.465
1688815132.283,-85.938,-25.391,-51.270,-49.805,-109.375
1688815132.287,-55.176,-25.391,-46.875,-76.660,-105.957
1688815132.291,-26.367,-27.344,-41.992,-63.477,-99.121
1688815132.295,-31.738,-31.250,-47.363,-50.293,-188.477
1688815132.299,-56.152,-30.762,-48.828,-40.527,-27.344
1688815132.303,-82.520,-32.227,-50.293,-32.227,306.641
1688815132.306,-57.617,-36.621,-51.758,-60.547,32.227
1688815132.310,-19.531,-37.598,-43.457,-67.383,-197.266
1688815132.314,-22.949,-37.109,-46.875,-54.199,-17.578
1688815132.318,-48.340,-34.668,-48.340,-31.738,82.031
1688815132.322,-70.801,-34.668,-46.875,-21.484,-78.613
1688815132.321,-62.988,-33.691,-46.875,-57.617,-221.191
1688815132.325,-50.781,-37.598,-44.434,-61.523,-187.012
1688815132.329,-73.242,-34.668,-45.410,-39.062,-165.527
1688815132.333,-107.910,-35.156,-45.898,-35.156,-90.820
1688815132.337,-127.441,-39.062,-45.410,-34.180,-4.883
1688815132.341,-117.676,-34.668,-43.945,-54.688,140.137
1688815132.345,-84.961,-34.180,-42.480,-49.805,415.527
1688815132.348,-70.312,-37.598,-41.016,-36.133,144.043
1688815132.352,-94.238,-42.480,-42.969,-42.480,-160.156
1688815132.356,-131.836,-40.527,-42.480,-31.250,-21.973
1688815132.360,-126.953,-34.180,-41.992,-50.781,49.805
1688815132.364,-92.773,-33.203,-41.992,-64.941,-125.488
1688815132.396,-86.426,-41.016,-41.016,-48.340,-208.008
1688815132.400,-104.004,-44.434,-40.039,-34.668,-83.984
1688815132.404,-133.301,-39.062,-42.480,-21.973,-94.727
1688815132.408,-128.906,-39.062,-43.457,-41.992,-182.617
1688815132.412,-95.703,-39.551,-41.504,-54.688,-130.859
1688815132.416,-84.961,-39.062,-44.922,-41.016,-80.078
1688815132.420,-93.262,-41.504,-48.828,-35.156,-94.727
1688815132.423,-127.441,-43.945,-51.758,-25.879,-46.387
1688815132.427,-134.766,-42.969,-51.758,-41.016,1.465
1688815132.431,-94.727,-40.039,-53.223,-55.176,82.031
1688815132.435,-65.918,-33.691,-52.734,-40.527,-85.449
1688815132.439,-66.895,-30.762,-49.805,-27.344,-199.707
1688815132.426,-96.191,-35.645,-50.293,-20.020,44.922
1688815132.430,-95.215,-28.809,-49.316,-33.691,62.012
1688815132.434,-53.711,-22.949,-46.875,-45.898,-191.406
1688815132.438,-35.156,-25.879,-47.363,-33.203,-151.367
1688815132.442,-43.945,-23.926,-48.340,-23.438,27.344
1688815132.446,-66.895,-22.461,-48.340,-10.742,105.957
1688815132.450,-85.449,-27.832,-55.176,-30.762,40.527
1688815132.453,-56.152,-28.320,-54.199,-62.012,-120.605
1688815132.457,-33.203,-27.344,-51.270,-45.410,-168.945
1688815132.461,-41.992,-31.250,-53.223,-36.133,-110.352
1688815132.465,-67.383,-33.691,-49.805,-35.156,-87.402
1688815132.469,-82.520,-38.574,-55.176,-42.969,-116.699
1688815132.472,-49.316,-43.945,-54.199,-53.711,11.719
1688815132.476,-24.902,-41.016,-48.828,-28.809,111.816
1688815132.480,-28.809,-32.227,-46.875,-18.066,-166.504
1688815132.484,-55.176,-31.738,-43.457,-9.766,-93.262
1688815132.488,-84.473,-38.574,-45.898,-9.766,101.074
1688815132.492,-65.430,-40.527,-48.340,-41.992,17.578
1688815132.496,-35.156,-40.039,-46.387,-45.410,-25.391
1688815132.499,-37.598,-41.992,-49.316,-33.691,-40.527
1688815132.503,-63.965,-37.598,-51.270,-23.926,41.016
1688815132.507,-82.520,-32.715,-46.387,-15.137,7.324
1688815132.511,-51.270,-32.227,-44.434,-46.387,-189.453
1688815132.515,-16.113,-31.738,-44.922,-57.617,-95.215
1688815132.516,-23.438,-35.156,-48.828,-45.410,135.742
1688815132.520,-52.246,-36.621,-49.805,-43.945,-45.898
1688815132.524,-83.008,-33.691,-47.363,-39.062,-122.559
1688815132.528,-72.754,-30.762,-47.363,-72.266,6.836
1688815132.532,-44.922,-30.762,-50.293,-87.402,-27.344
1688815132.536,-49.805,-34.668,-51.270,-72.754,-96.680
1688815132.540,-72.266,-39.551,-49.805,-62.500,-1.465
1688815132.543,-105.469,-40.039,-47.363,-49.316,172.852
1688815132.547,-102.539,-35.156,-51.270,-66.406,320.312
1688815132.551,-73.730,-35.156,-53.711,-82.520,89.355
1688815132.555,-66.895,-32.715,-52.246,-64.453,-116.211
1688815132.559,-76.172,-29.785,-52.734,-52.734,-80.566
1688815132.563,-111.816,-33.203,-52.246,-45.898,-104.980
1688815132.567,-116.699,-33.203,-47.852,-60.059,-176.270
1688815132.571,-76.172,-33.203,-45.898,-71.777,-123.047
1688815132.575,-66.406,-37.109,-49.316,-53.711,-10.742
1688815132.579,-75.195,-36.621,-49.316,-41.016,-35.156
1688815132.583,-98.633,-35.156,-46.875,-25.879,-7.812
1688815132.587,-99.121,-35.645,-45.410,-35.156,73.730
1688815132.590,-57.129,-33.203,-44.922,-53.223,251.465
1688815132.594,-41.992,-29.297,-43.457,-36.133,76.172
1688815132.598,-56.641,-26.855,-40.039,-21.973,-176.270
1688815132.602,-92.285,-25.391,-39.062,-12.207,14.160
1688815132.606,-99.609,-28.809,-40.039,-25.391,70.801
1688815132.606,-60.547,-37.598,-42.480,-47.852,-155.273
1688815132.610,-39.551,-38.574,-46.387,-35.645,-167.969
1688815132.614,-46.387,-36.621,-49.316,-36.133,-30.762
1688815132.618,-83.008,-33.203,-47.363,-26.367,90.332
1688815132.622,-104.492,-29.297,-45.898,-37.109,-16.602
1688815132.626,-65.918,-33.691,-46.387,-69.336,-240.234
1688815132.630,-34.180,-35.156,-42.480,-41.992,102.539
1688815132.633,-37.109,-32.715,-43.457,-26.855,253.418
1688815132.637,-58.594,-29.785,-49.805,-34.668,-122.070
1688815132.641,-75.195,-29.297,-52.734,-44.434,-151.855
1688815132.645,-56.152,-35.156,-52.246,-67.871,134.766
1688815132.649,-36.621,-39.062,-52.246,-61.523,230.957
1688815132.655,-42.480,-31.250,-48.828,-55.176,-122.559
1688815132.659,-71.289,-30.273,-44.434,-41.016,-196.777
1688815132.663,-88.867,-30.762,-45.410,-33.691,-123.535
1688815132.667,-58.105,-25.879,-43.945,-60.547,-186.035
1688815132.671,-33.203,-32.715,-44.434,-62.500,-253.418
1688815132.675,-41.504,-39.062,-50.293,-52.246,-67.871
1688815132.679,-75.684,-39.062,-47.363,-38.086,222.168
1688815132.682,-105.469,-42.480,-44.434,-42.969,59.082
1688815132.686,-77.637,-39.551,-47.363,-79.102,-230.469
1688815132.690,-34.668,-30.762,-44.922,-74.219,-149.902
1688815132.694,-36.133,-32.715,-44.922,-56.152,24.902
1688815132.698,-58.594,-33.691,-45.410,-61.035,-71.777
1688815132.698,-86.914,-33.203,-45.898,-63.477,-52.246
1688815132.702,-76.172,-34.180,-48.828,-83.008,-1.465
1688815132.706,-30.762,-35.645,-49.805,-83.984,-99.609
1688815132.710,-20.996,-34.668,-53.223,-69.336,-91.309
1688815132.714,-35.156,-34.180,-53.223,-66.406,-28.320
1688815132.718,-59.082,-35.156,-49.805,-45.898,133.789
1688815132.722,-45.898,-31.738,-51.758,-45.410,456.055
1688815132.725,-8.789,-30.273,-53.711,-59.570,210.938
1688815132.729,-4.883,-26.367,-47.363,-52.246,-172.852
1688815132.733,-19.531,-29.297,-44.434,-40.527,-165.039
1688815132.737,-48.828,-33.203,-48.828,-25.391,-122.559
1688815132.741,-53.711,-33.203,-49.805,-38.574,-151.367
1688815132.757,-13.672,-35.156,-48.340,-46.875,-160.156
1688815132.761,8.301,-31.738,-46.875,-21.484,-120.605
1688815132.765,-6.836,-28.320,-43.945,-15.137,-63.477
1688815132.769,-41.504,-35.156,-45.898,-13.184,-48.828
1688815132.773,-41.992,-35.645,-45.410,-23.438,-82.520
1688815132.777,-3.418,-33.203,-46.387,-37.598,127.930
1688815132.781,18.555,-35.156,-41.992,-14.160,57.617
1688815132.784,8.301,-31.738,-33.203,-3.418,-162.598
1688815132.788,-26.855,-28.320,-32.715,-0.977,-35.645
1688815132.792,-40.039,-27.344,-30.762,-12.207,101.074
1688815132.796,-9.277,-24.902,-33.691,-27.344,-76.660
1688815132.800,9.277,-23.926,-35.645,-12.695,-158.203
1688815132.802,-5.371,-25.391,-34.180,-15.137,-52.246
1688815132.806,-41.504,-32.715,-40.039,-8.301,-7.324
1688815132.810,-60.547,-38.574,-46.387,-23.926,-107.422
1688815132.814,-25.879,-35.645,-49.316,-50.781,-36.621
1688815132.818,-5.371,-30.273,-48.340,-36.133,154.297
1688815132.822,-17.090,-34.180,-50.293,-25.879,100.098
1688815132.826,-39.551,-31.738,-46.387,-19.531,22.461
1688815132.829,-63.477,-32.715,-41.992,-25.391,18.555
1688815132.833,-36.621,-36.133,-43.945,-43.945,70.801
1688815132.837,-4.395,-39.062,-49.805,-28.320,210.449
1688815132.841,-10.254,-40.039,-55.176,-26.367,-34.180
1688815132.845,-32.715,-36.133,-54.199,-31.738,-113.770
1688815132.847,-58.105,-39.062,-55.664,-36.621,-75.195
1688815132.851,-29.297,-39.062,-55.176,-61.035,-149.902
1688815132.855,7.812,-35.645,-53.711,-57.129,-184.570
1688815132.859,9.766,-39.062,-56.152,-35.645,-146.484
1688815132.863,-12.207,-42.969,-56.152,-30.762,-105.469
1688815132.867,-41.992,-38.574,-51.270,-38.086,22.949
1688815132.871,-16.602,-33.203,-52.246,-62.012,-5.371
1688815132.874,16.113,-30.273,-48.828,-60.547,-100.098
1688815132.878,5.371,-31.738,-40.039,-45.410,133.789
1688815132.882,-11.230,-35.645,-41.504,-27.344,52.246
1688815132.886,-31.738,-35.156,-40.039,-17.090,-187.988
1688815132.890,-14.160,-27.344,-34.180,-42.480,-79.102
1688815132.891,31.738,-24.902,-38.086,-41.992,1.465
1688815132.895,40.527,-27.344,-41.016,-36.621,-175.293
1688815132.899,27.344,-26.367,-38.574,-40.039,-268.555
1688815132.903,-5.371,-26.367,-35.645,-31.738,-99.121
1688815132.907,-4.883,-28.320,-36.133,-53.223,-83.008
1688815132.911,27.832,-21.484,-33.691,-62.012,-97.168
1688815132.915,24.414,-23.438,-31.250,-46.387,-83.008
1688815132.918,3.418,-30.762,-34.668,-35.156,44.434
1688815132.922,-31.250,-27.344,-36.133,-17.090,262.207
1688815132.926,-35.156,-26.855,-34.180,-40.039,-54.688
1688815132.930,1.953,-26.855,-34.180,-55.176,-208.496
1688815132.934,8.789,-28.320,-34.668,-34.180,7.812
1688815132.938,-7.324,-31.250,-39.551,-33.203,5.859
1688815132.942,-38.086,-31.250,-37.109,-20.508,-126.465
1688815132.946,-45.410,-28.320,-37.109,-32.715,-89.844
1688815132.950,-14.160,-24.414,-40.039,-57.617,-106.445
1688815132.954,-5.371,-23.438,-38.086,-41.016,-166.992
1688815132.958,-10.742,-23.926,-36.621,-15.625,-132.812
1688815132.962,-44.922,-27.832,-37.109,-7.812,25.879
1688815132.965,-68.848,-29.785,-38.086,-24.902,92.773
1688815132.969,-32.715,-29.297,-37.598,-39.062,-127.930
1688815132.973,-11.719,-30.273,-36.133,-29.785,-168.945
1688815132.977,-22.949,-28.809,-32.715,-24.902,-34.668
1688815132.981,-55.176,-30.762,-37.109,-17.090,175.781
1688815132.982,-75.195,-32.227,-42.969,-20.996,106.934
1688815132.986,-46.387,-33.691,-43.945,-44.922,-148.438
1688815132.990,-26.367,-37.598,-50.781,-33.203,-72.754
1688815132.994,-39.062,-37.109,-46.875,-29.785,16.602
1688815132.998,-67.383,-35.645,-42.480,-27.832,-48.340
1688815133.002,-76.172,-31.738,-42.480,-13.184,-1.953
1688815133.006,-49.316,-36.133,-41.504,-38.574,133.789
1688815133.009,-20.996,-39.062,-42.969,-36.133,222.168
1688815133.013,-12.207,-34.180,-39.062,-23.438,-32.715
1688815133.017,-37.598,-31.250,-38.574,-26.855,-140.137
1688815133.021,-74.707,-39.062,-41.992,-25.879,-57.617
1688815133.025,-54.688,-40.527,-41.504,-43.457,-135.742
1688815133.029,-17.090,-35.156,-39.062,-44.434,-213.867
1688815133.033,-24.414,-36.621,-41.504,-35.645,-148.926
1688815133.037,-46.875,-37.598,-44.922,-23.438,-11.230
1688815133.041,-66.406,-37.598,-39.551,-18.555,-13.672
1688815133.045,-54.688,-35.645,-33.691,-51.270,-140.625
1688815133.049,-24.414,-34.668,-35.156,-47.363,-57.617
1688815133.053,-21.484,-37.598,-36.621,-14.160,259.766
1688815133.056,-38.574,-38.086,-33.203,-2.441,113.281
1688815133.060,-62.500,-39.551,-32.227,4.883,-138.672
1688815133.064,-49.316,-36.621,-35.156,-20.508,-105.469
1688815133.068,-15.137,-34.180,-37.598,-31.738,-116.211
1688815133.072,-9.277,-37.109,-37.598,-17.090,-99.121
1688815133.087,-33.203,-37.109,-41.992,-13.184,-140.137
1688815133.091,-69.336,-34.180,-46.875,-3.418,-88.379
1688815133.095,-55.664,-33.203,-48.828,-28.320,-116.211
1688815133.099,-19.531,-34.668,-48.828,-43.457,-158.691
1688815133.103,-16.602,-25.879,-41.016,-15.625,-117.188
1688815133.107,-34.180,-20.996,-36.133,-0.488,108.398
1688815133.111,-74.219,-29.785,-36.621,5.371,488.281
1688815133.114,-75.684,-34.180,-41.992,-23.438,188.477
1688815133.118,-38.086,-31.250,-41.016,-44.434,-243.652
1688815133.122,-33.203,-31.250,-35.645,-23.926,-200.684
1688815133.126,-56.152,-33.691,-40.527,-6.348,-187.988
1688815133.130,-88.379,-39.062,-44.922,-5.859,-147.461
1688815133.131,-92.285,-39.551,-45.898,-32.715,-129.395
1688815133.135,-57.129,-39.551,-48.340,-57.617,-141.602
1688815133.139,-46.387,-41.016,-46.387,-43.945,-86.426
1688815133.143,-56.152,-41.016,-43.457,-30.273,-110.840
1688815133.147,-74.707,-38.086,-48.828,-23.438,-32.227
1688815133.151,-83.008,-36.621,-56.152,-38.574,85.449
1688815133.155,-47.852,-40.039,-57.129,-62.988,-12.695
1688815133.158,-27.832,-40.039,-59.082,-47.852,-70.312
1688815133.162,-43.457,-35.156,-58.105,-30.762,-22.949
1688815133.166,-63.965,-32.715,-52.246,-17.578,336.426
1688815133.170,-76.172,-34.180,-53.223,-31.738,242.188
1688815133.174,-49.316,-33.691,-51.758,-60.547,-198.730
1688815133.176,-24.414,-33.203,-46.387,-52.734,-98.633
1688815133.180,-26.855,-34.180,-47.852,-53.223,-56.152
1688815133.184,-46.387,-29.297,-50.293,-51.270,-110.352
1688815133.188,-70.312,-25.879,-48.340,-43.945,-105.957
1688815133.192,-44.434,-22.461,-47.363,-63.965,34.180
1688815133.196,-17.578,-25.391,-46.387,-70.312,104.004
1688815133.200,-28.809,-31.250,-46.387,-66.895,-2.441
1688815133.203,-53.711,-32.227,-46.875,-58.594,-90.332
1688815133.207,-82.031,-34.180,-44.434,-44.434,95.703
1688815133.211,-68.359,-32.715,-47.363,-67.383,155.273
1688815133.215,-38.574,-29.785,-49.805,-79.590,-90.820
1688815133.219,-41.504,-28.809,-43.457,-66.406,-91.797
1688815133.222,-66.895,-28.809,-44.922,-64.941,5.859
1688815133.226,-92.773,-31.250,-48.828,-64.453,22.949
1688815133.230,-83.984,-31.738,-43.945,-99.121,-123.535
1688815133.234,-42.480,-29.785,-42.480,-102.051,-116.211
1688815133.238,-35.645,-31.738,-40.039,-75.195,-62.988
1688815133.242,-62.500,-33.203,-41.016,-71.289,-32.715
1688815133.246,-78.125,-30.273,-39.062,-62.012,62.988
1688815133.249,-57.617,-33.691,-33.691,-85.938,20.020
1688815133.253,-25.879,-39.062,-33.691,-96.680,113.281
1688815133.257,-16.602,-39.551,-34.668,-80.566,11.230
1688815133.261,-32.227,-39.062,-34.180,-76.660,-196.777
1688815133.265,-68.848,-40.527,-36.621,-60.547,-47.363
1688815133.266,-65.918,-44.922,-31.738,-82.031,-20.996
1688815133.270,-25.391,-46.875,-30.273,-93.262,-163.086
1688815133.274,-9.766,-41.504,-30.273,-61.523,-222.656
1688815133.278,-27.832,-35.156,-30.273,-50.781,35.156
1688815133.282,-59.570,-36.621,-32.715,-41.504,201.660
1688815133.286,-60.547,-38.086,-33.203,-64.453,11.230
1688815133.290,-30.273,-33.691,-36.621,-81.055,-68.359
1688815133.293,-19.531,-34.668,-40.527,-49.805,21.973
1688815133.297,-40.039,-39.551,-43.945,-42.969,156.250
1688815133.301,-79.590,-36.621,-41.504,-45.410,-21.973
1688815133.305,-90.332,-33.203,-37.598,-56.152,-86.914
1688815133.309,-54.199,-36.621,-39.062,-69.824,-117.188
1688815133.314,-36.133,-40.527,-46.387,-51.758,-168.457
1688815133.318,-49.805,-45.898,-45.898,-40.527,-142.578
1688815133.322,-78.125,-41.016,-36.621,-25.879,-62.012
1688815133.326,-87.402,-39.551,-36.621,-34.180,54.688
1688815133.330,-50.781,-41.504,-38.086,-56.152,-21.973
1688815133.334,-33.203,-36.133,-35.645,-40.527,-83.984
1688815133.338,-44.922,-35.156,-33.691,-33.203,33.691
1688815133.341,-76.172,-39.062,-32.715,-30.273,101.562
1688815133.345,-93.750,-40.527,-34.668,-33.691,-8.301
1688815133.349,-67.383,-41.016,-31.738,-55.664,-148.926
1688815133.353,-51.758,-44.922,-30.762,-45.410,-52.246
1688815133.357,-51.270,-43.945,-29.785,-31.738,50.781
1688815133.356,-73.242,-41.016,-34.668,-28.809,-128.906
1688815133.360,-95.703,-38.086,-37.109,-31.250,-185.547
1688815133.364,-62.500,-37.109,-32.715,-51.758,11.230
1688815133.368,-36.133,-36.133,-39.062,-48.828,131.348
1688815133.372,-45.898,-41.992,-45.410,-43.945,-28.320
1688815133.376,-67.383,-49.316,-45.898,-40.527,-19.043
1688815133.380,-94.238,-52.734,-45.410,-36.133,182.129
1688815133.383,-76.660,-50.781,-46.387,-48.828,352.539
1688815133.387,-46.875,-43.945,-45.410,-47.852,190.918
1688815133.391,-47.852,-39.062,-43.457,-41.504,-134.277
1688815133.395,-68.848,-38.574,-41.992,-27.832,-165.527
1688815133.399,-101.074,-41.504,-43.945,-22.949,-15.137
1688815133.403,-93.750,-43.945,-47.852,-60.059,-145.996
1688815133.407,-58.594,-45.410,-49.805,-61.035,-211.426
1688815133.411,-54.688,-47.852,-49.316,-41.504,-80.078
1688815133.415,-75.195,-48.828,-47.363,-37.598,-115.234
1688815133.419,-107.422,-46.875,-48.828,-28.320,-86.426
1688815133.423,-120.605,-43.945,-43.945,-55.176,-8.301
1688815133.427,-133.789,-45.410,-41.504,-63.965,160.645
1688815133.430,-168.945,-47.852,-38.574,-47.852,68.359
1688815133.434,-208.496,-48.828,-38.574,-44.434,-178.223
1688815133.438,-253.418,-45.898,-41.504,-28.320,-26.855
1688815133.442,-238.281,-39.551,-37.598,-43.945,83.008
1688815133.446,-189.453,-35.645,-35.156,-59.570,-233.398
1688815133.462,-182.129,-36.133,-40.527,-36.133,-310.059
1688815133.466,-191.406,-41.992,-43.457,-28.809,-151.855
1688815133.470,-204.102,-40.039,-39.551,-21.484,-142.578
1688815133.474,-206.055,-37.109,-41.992,-40.039,-83.008
1688815133.478,-172.363,-40.039,-44.922,-66.895,-97.168
1688815133.482,-145.508,-36.133,-43.457,-39.551,70.801
1688815133.486,-144.043,-33.203,-39.551,-25.879,394.043
1688815133.489,-162.109,-34.180,-39.062,-32.227,145.508
1688815133.493,-156.738,-31.738,-41.016,-50.781,-137.207
1688815133.497,-115.234,-37.109,-41.504,-64.453,34.180
1688815133.501,-96.191,-35.156,-41.504,-45.898,80.566
1688815133.505,-99.609,-28.809,-34.668,-39.551,-110.840
1688815133.506,-111.816,-31.250,-34.668,-39.062,-79.102
1688815133.510,-98.633,-30.762,-38.574,-40.039,-39.551
1688815133.514,-53.711,-32.227,-35.156,-53.223,-128.906
1688815133.518,-30.762,-32.227,-37.598,-40.527,-216.797
1688815133.522,-45.410,-31.738,-40.039,-40.527,-170.898
1688815133.526,-76.172,-35.156,-38.574,-49.805,23.926
1688815133.530,-82.520,-35.156,-38.574,-44.922,91.309
1688815133.533,-47.363,-31.738,-35.156,-60.059,-49.805
1688815133.537,-12.695,-35.156,-32.715,-52.734,-16.602
1688815133.541,4.883,-35.645,-35.645,-23.438,163.086
1688815133.545,-2.441,-24.902,-39.062,-7.812,9.277
1688815133.549,-36.133,-17.090,-42.480,-27.344,-123.047
1688815133.551,-9.277,-16.602,-46.875,-59.082,-53.223
1688815133.555,28.809,-17.578,-53.711,-56.641,-108.887
1688815133.559,19.043,-14.648,-61.523,-53.223,-218.750
1688815133.563,-2.441,-5.371,-73.242,-53.711,-181.641
1688815133.567,-33.203,-1.465,-82.031,-50.781,32.715
1688815133.571,-21.484,-2.441,-83.496,-74.219,128.418
1688815133.575,16.113,2.441,-85.449,-78.125,-111.816
1688815133.578,18.066,12.207,-86.426,-70.801,-224.609
1688815133.582,-7.812,15.625,-91.309,-57.129,73.730
1688815133.586,-39.551,16.602,-95.215,-42.480,180.664
1688815133.590,-30.762,21.484,-94.727,-71.777,-141.113
1688815133.594,9.766,24.414,-101.074,-74.707,-154.785
1688815133.599,19.043,26.367,-106.934,-53.711,-68.848
1688815133.603,-3.906,31.738,-113.770,-59.570,13.184
1688815133.607,-27.832,29.785,-120.117,-62.500,-14.160
1688815133.611,-10.742,26.367,-121.582,-76.660,-112.793
1688815133.615,24.414,31.250,-120.605,-77.148,-55.176
1688815133.619,26.855,34.668,-118.164,-62.500,17.090
1688815133.623,17.578,40.039,-115.234,-55.176,26.855
1688815133.626,-2.930,41.992,-113.281,-41.992,92.285
1688815133.630,-1.953,40.527,-110.352,-57.617,210.938
1688815133.634,35.156,38.086,-109.375,-71.289,48.340
1688815133.638,46.875,41.992,-110.352,-60.059,-176.758
1688815133.642,23.438,44.434,-108.887,-46.875,-86.914
1688815133.642,-15.625,33.691,-107.910,-25.879,-37.109
1688815133.646,-3.906,32.715,-103.516,-29.785,-214.355
1688815133.650,34.668,30.273,-96.680,-46.387,-237.793
1688815133.654,36.621,23.926,-93.262,-32.227,-35.156
1688815133.658,22.949,19.531,-90.332,-19.043,68.359
1688815133.662,-13.184,16.113,-89.844,-16.602,-8.301
1688815133.666,-27.344,13.184,-87.891,-29.785,-68.359
1688815133.669,0.000,11.230,-87.891,-48.828,22.949
1688815133.673,22.461,13.184,-86.914,-42.480,208.008
1688815133.677,22.949,13.184,-84.473,-47.363,69.824
1688815133.681,-10.742,6.836,-85.449,-53.223,-128.906
1688815133.685,-32.227,-0.977,-83.496,-59.570,-106.445
1688815133.688,-14.648,-0.488,-75.195,-69.336,-183.105
1688815133.692,0.488,1.953,-67.871,-47.852,-180.176
1688815133.696,-3.906,0.977,-66.895,-44.434,-113.281
1688815133.700,-30.762,-3.906,-67.383,-33.691,-60.547
1688815133.704,-50.781,-4.883,-67.383,-31.250,-26.367
1688815133.708,-28.320,-2.441,-63.477,-54.199,-105.469
1688815133.712,-10.742,-5.371,-62.988,-50.781,-113.281
1688815133.715,-10.742,-6.836,-61.035,-36.133,228.516
1688815133.719,-33.203,-3.906,-58.105,-26.855,302.734
1688815133.723,-65.430,-5.371,-60.059,-36.133,-12.207
1688815133.727,-40.039,-12.695,-58.594,-58.105,-76.660
1688815133.731,-13.184,-17.578,-55.176,-51.758,-87.402
1688815133.731,-15.137,-13.184,-55.664,-41.016,-143.066
1688815133.735,-23.926,-10.742,-49.805,-31.738,-120.117
1688815133.739,-48.828,-12.695,-43.945,-22.461,-23.438
1688815133.743,-37.109,-7.324,-43.457,-48.340,-33.203
1688815133.747,-3.418,-8.789,-47.363,-53.223,-89.355
1688815133.751,-6.836,-14.160,-47.363,-36.133,-112.793
1688815133.755,-26.367,-13.672,-44.922,-26.855,125.000
1688815133.758,-43.457,-13.184,-44.434,-9.277,407.227
1688815133.762,-33.203,-15.137,-45.898,-36.621,154.297
1688815133.766,6.836,-18.066,-47.852,-46.387,-128.418
1688815133.770,12.207,-20.508,-51.758,-15.137,-24.902
1688815133.774,-17.090,-20.020,-46.387,-20.996,-15.137
1688815133.778,-40.039,-17.578,-35.645,-21.973,-142.090
1688815133.782,-35.156,-19.043,-32.715,-33.691,-145.508
1688815133.786,-19.531,-18.066,-35.645,-39.551,-113.770
1688815133.790,-24.414,-18.555,-39.551,-26.367,-128.418
1688815133.794,-45.410,-24.902,-41.504,-17.090,-141.113
1688815133.798,-76.660,-25.391,-42.969,-3.906,43.457
1688815133.802,-71.289,-23.926,-46.875,-21.973,251.465
1688815133.805,-31.250,-27.344,-44.922,-37.109,43.945
1688815133.809,-19.531,-23.926,-35.156,-22.949,-218.262
1688815133.813,-36.133,-19.043,-28.809,-10.742,-168.457
1688815133.817,-62.500,-23.438,-32.227,-5.371,-4.395
1688815133.821,-70.801,-21.484,-35.645,-35.156,-6.836
1688815133.836,-35.156,-20.020,-35.156,-52.246,-193.359
1688815133.840,-21.484,-24.414,-36.621,-28.320,-75.684
1688815133.844,-48.340,-27.344,-41.504,-25.391,63.965
1688815133.848,-88.867,-31.738,-44.434,-18.555,-99.121
1688815133.852,-91.797,-28.809,-40.039,-23.438,-88.867
1688815133.856,-55.664,-26.367,-34.668,-43.945,113.281
1688815133.860,-40.527,-30.762,-39.551,-29.297,342.285
1688815133.863,-58.594,-33.203,-41.016,-21.484,81.055
1688815133.867,-81.055,-36.133,-40.527,-16.113,-152.832
1688815133.871,-82.031,-38.574,-39.551,-21.484,-119.141
1688815133.875,-48.340,-35.156,-38.086,-50.293,-185.547
1688815133.879,-23.438,-33.203,-42.969,-39.062,-195.801
1688815133.869,-38.086,-37.109,-40.039,-28.809,-79.102
1688815133.873,-69.824,-36.133,-38.574,-36.133,31.250
1688815133.877,-89.355,-30.762,-36.621,-45.898,-77.637
1688815133.881,-59.570,-29.785,-33.203,-65.430,-215.820
1688815133.885,-39.062,-29.785,-32.715,-66.895,-140.625
1688815133.889,-49.805,-28.809,-30.273,-54.688,-28.320
1688815133.893,-70.312,-28.320,-31.250,-41.504,-22.461
1688815133.896,-91.309,-31.250,-31.738,-44.434,-36.133
1688815133.900,-76.172,-33.203,-31.250,-71.289,-65.918
1688815133.904,-55.176,-35.645,-31.738,-65.430,130.371
1688815133.908,-50.293,-35.645,-31.738,-40.527,-15.137
1688815133.912,-68.848,-36.133,-35.645,-26.855,-169.922
1688815133.926,-94.727,-35.645,-38.086,-30.273,-24.902
1688815133.930,-85.449,-35.156,-35.645,-70.312,-64.453
1688815133.934,-59.082,-35.645,-36.133,-72.754,-150.879
1688815133.938,-58.105,-41.016,-40.039,-51.758,-108.398
1688815133.942,-81.055,-44.922,-40.527,-36.133,129.395
1688815133.946,-104.492,-43.945,-38.574,-28.809,364.746
1688815133.950,-82.031,-41.016,-35.645,-64.941,94.238
1688815133.953,-46.387,-40.527,-36.133,-72.754,-225.586
1688815133.957,-36.133,-36.621,-36.133,-42.480,-36.621
1688815133.961,-51.270,-30.762,-37.109,-32.715,89.844
1688815133.965,-80.566,-32.227,-41.504,-37.109,-67.383
1688815133.969,-69.336,-31.250,-42.969,-52.734,-183.105
1688815133.973,-39.551,-36.133,-41.504,-68.359,-211.914
1688815133.977,-34.668,-40.527,-41.504,-48.828,-194.824
1688815133.981,-51.270,-36.621,-40.039,-29.785,-169.922
1688815133.985,-78.125,-37.109,-34.668,-24.902,-87.402
1688815133.989,-78.125,-39.551,-35.156,-45.898,-90.820
1688815133.993,-45.898,-37.109,-41.016,-64.941,-133.301
1688815133.997,-30.273,-36.133,-43.945,-51.270,-81.543
1688815134.000,-40.039,-39.551,-42.969,-47.852,-7.812
1688815134.004,-75.684,-39.062,-42.969,-26.855,236.816
1688815134.008,-90.332,-33.203,-40.039,-34.180,168.945
1688815134.012,-55.176,-34.180,-38.574,-63.477,-140.137
1688815134.016,-43.457,-35.156,-37.598,-50.781,-105.469
1688815134.017,-54.688,-27.344,-33.691,-28.809,-98.633
1688815134.021,-86.914,-24.902,-29.297,-13.184,-101.074
1688815134.025,-101.074,-28.809,-32.227,-34.180,-63.477
1688815134.029,-61.523,-29.297,-37.598,-62.012,0.488
1688815134.033,-49.805,-28.320,-34.180,-46.875,5.371
1688815134.037,-70.312,-26.367,-32.715,-36.621,9.277
1688815134.041,-91.797,-21.484,-32.227,-25.879,-1.953
1688815134.044,-100.586,-23.438,-30.762,-26.367,82.031
1688815134.048,-64.453,-26.367,-31.738,-48.340,352.539
1688815134.052,-38.574,-27.344,-31.738,-48.340,163.086
1688815134.056,-54.199,-28.320,-32.715,-37.109,-149.902
1688815134.060,-78.613,-26.855,-35.156,-24.414,-91.309
1688815134.063,-90.820,-22.461,-35.156,-30.273,-21.973
1688815134.067,-68.848,-22.461,-29.785,-58.594,-162.598
1688815134.071,-45.898,-27.344,-28.320,-51.758,-193.848
1688815134.075,-45.410,-30.273,-34.668,-40.039,-112.793
1688815134.079,-80.566,-29.297,-33.203,-37.598,-104.004
1688815134.083,-103.516,-27.832,-31.738,-34.180,-74.707
1688815134.087,-72.754,-25.391,-34.180,-54.199,-40.039
1688815134.090,-48.340,-26.367,-34.668,-55.664,84.961
1688815134.094,-47.363,-31.250,-33.203,-41.016,17.090
1688815134.098,-60.547,-26.367,-30.762,-39.062,-89.844
1688815134.102,-83.008,-25.879,-33.203,-37.109,74.707
1688815134.106,-61.523,-23.926,-31.250,-49.316,106.934
1688815134.106,-19.043,-15.137,-26.855,-51.270,-111.816
1688815134.110,-21.973,-16.602,-28.320,-34.180,-188.965
1688815134.114,-47.363,-22.461,-34.668,-35.156,-162.109
1688815134.118,-60.059,-20.508,-44.922,-30.273,-52.734
1688815134.122,-22.949,-15.625,-44.434,-31.250,-40.527
1688815134.126,-7.812,-29.785,-34.180,-51.758,-152.344
1688815134.130,-36.133,-41.016,-25.391,-55.664,58.594
1688815134.133,-65.918,-40.527,-20.020,-41.504,322.266
1688815134.137,-118.652,-48.340,-15.625,-40.039,44.922
1688815134.141,-135.254,-56.152,-2.930,-77.148,-253.418
1688815134.145,-103.516,-61.523,6.348,-108.887,-208.008
1688815134.149,-113.281,-67.383,11.719,-97.168,-121.094
1688815134.154,-153.320,-77.148,15.625,-94.727,-130.859
1688815134.158,-196.289,-87.891,23.438,-102.051,-87.402
1688815134.162,-213.379,-92.773,33.691,-119.141,-41.016
1688815134.166,-188.477,-98.633,38.086,-139.160,-142.578
1688815134.170,-185.547,-112.793,41.992,-125.488,-215.332
1688815134.174,-210.449,-121.094,48.340,-116.211,-128.418
1688815134.178,-247.070,-121.094,54.199,-115.234,99.609
1688815134.181,-255.371,-125.488,57.129,-141.113,-2.930
1688815134.185,-212.402,-128.906,65.430,-153.320,-215.820
1688815134.189,-194.336,-130.859,71.777,-125.977,-146.973
1688815134.193,-210.938,-129.883,70.801,-119.141,-74.219
1688815134.197,-230.957,-125.000,65.918,-106.934,-91.797
1688815134.211,-216.797,-124.512,60.059,-111.816,-107.910
1688815134.215,-163.086,-120.605,55.664,-127.441,-126.953
1688815134.219,-129.883,-112.305,43.945,-104.004,-95.703
1688815134.223,-120.605,-104.492,41.016,-80.078,-114.746
1688815134.227,-133.301,-93.750,44.434,-63.965,-62.500
1688815134.231,-144.531,-94.727,40.039,-65.430,187.500
1688815134.235,-110.840,-100.098,35.645,-82.520,421.875
1688815134.238,-87.891,-96.680,33.691,-64.941,234.375
1688815134.242,-87.891,-90.332,31.738,-48.828,-87.891
1688815134.246,-110.352,-79.590,32.227,-30.762,-20.508
1688815134.250,-134.277,-80.078,30.273,-30.762,-17.578
1688815134.254,-107.422,-83.984,17.578,-66.406,-150.391
1688815134.257,-75.195,-79.102,12.207,-55.664,-134.766
1688815134.261,-79.102,-75.684,14.160,-39.551,-83.496
1688815134.265,-107.422,-71.777,11.719,-23.438,-72.754
1688815134.269,-126.953,-65.918,7.324,-10.742,-105.469
1688815134.273,-102.539,-61.035,6.348,-33.691,-97.656
1688815134.277,-68.848,-60.547,10.254,-37.109,-37.598
1688815134.281,-67.383,-57.617,7.812,-25.391,-45.410
1688815134.284,-87.402,-58.594,2.441,-23.926,-33.691
1688815134.288,-105.469,-60.059,1.465,-17.578,-25.391
1688815134.292,-84.473,-55.664,0.977,-28.320,177.246
1688815134.296,-43.457,-53.711,-0.977,-25.879,74.219
1688815134.300,-34.668,-51.270,0.977,-10.742,-176.270
1688815134.301,-51.270,-51.270,-1.465,-9.277,-135.254
1688815134.305,-71.777,-51.758,-9.277,-5.859,-36.133
1688815134.309,-46.387,-46.387,-12.695,-32.715,-80.078
1688815134.313,-7.324,-46.875,-11.719,-42.480,-180.664
1688815134.317,-2.930,-49.805,-14.648,-17.090,107.422
1688815134.321,-13.184,-50.781,-17.090,-2.930,239.746
1688815134.325,-32.715,-44.922,-12.695,0.488,63.965
1688815134.328,-24.414,-45.410,-14.160,-23.438,2.441
1688815134.332,12.207,-50.781,-19.531,-33.203,126.465
1688815134.336,20.020,-48.340,-23.926,-32.715,165.039
1688815134.340,8.789,-39.062,-20.508,-48.828,-94.238
1688815134.344,-18.066,-35.645,-20.020,-60.547,-140.137
1688815134.362,-19.043,-37.598,-20.996,-88.867,46.387
1688815134.366,15.137,-32.227,-15.625,-110.840,-11.230
1688815134.370,26.367,-39.062,-19.043,-102.539,-225.098
1688815134.374,17.578,-41.992,-18.555,-111.816,-179.199
1688815134.378,-7.812,-39.551,-22.949,-118.164,-91.797
1688815134.382,-9.766,-42.969,-27.344,-113.770,-60.059
1688815134.386,25.391,-41.016,-28.320,-110.840,-22.461
1688815134.389,46.875,-38.574,-30.273,-88.379,-25.391
1688815134.393,23.926,-40.527,-25.879,-77.637,86.914
1688815134.397,-17.090,-38.086,-20.020,-97.168,112.793
1688815134.401,-24.414,-35.156,-26.367,-119.141,-35.156
1688815134.405,-3.418,-35.156,-30.273,-116.699,-43.945
1688815134.391,26.855,-34.668,-24.414,-78.613,-1.953
1688815134.395,23.926,-30.273,-24.902,-60.547,-78.613
1688815134.399,-15.137,-34.668,-28.809,-54.688,-75.195
1688815134.403,-27.832,-40.039,-26.855,-40.039,99.609
1688815134.407,4.395,-41.016,-25.391,-58.105,86.914
1688815134.411,26.367,-39.062,-21.484,-48.340,-98.633
1688815134.415,19.043,-38.574,-19.531,-29.785,-77.637
1688815134.418,-13.184,-40.039,-26.855,-17.578,64.453
1688815134.422,-43.457,-38.086,-30.273,-21.973,63.965
1688815134.426,-16.602,-30.762,-34.180,-61.523,-153.320
1688815134.430,9.277,-25.391,-37.598,-85.938,-217.773
1688815134.434,-6.836,-22.949,-34.180,-104.980,33.691
1688815134.454,-33.691,-18.555,-34.180,-117.676,240.723
1688815134.458,-57.129,-25.391,-40.039,-139.160,-35.645
1688815134.462,-39.551,-30.762,-38.574,-178.711,-176.758
1688815134.466,-11.719,-33.691,-34.668,-158.203,-82.031
1688815134.470,-14.160,-31.738,-35.156,-107.910,-71.289
1688815134.474,-31.738,-29.785,-33.691,-80.566,-65.918
1688815134.478,-60.547,-34.180,-32.715,-93.262,12.695
1688815134.481,-58.594,-35.156,-32.715,-130.859,181.641
1688815134.485,-31.738,-34.668,-35.645,-143.066,-42.480
1688815134.489,-35.645,-33.203,-37.598,-149.902,-294.434
1688815134.493,-57.617,-30.762,-34.668,-122.070,-113.281
1688815134.497,-83.984,-31.738,-40.039,-84.473,0.000
1688815134.483,-74.707,-32.715,-39.551,-86.426,-73.730
1688815134.487,-41.504,-32.227,-30.762,-81.543,-132.812
1688815134.491,-31.250,-31.250,-24.414,-42.969,-30.273
1688815134.495,-49.805,-30.273,-21.973,-22.949,79.102
1688815134.499,-81.543,-32.227,-26.855,-20.508,88.379
1688815134.503,-67.871,-34.180,-32.227,-35.645,-24.902
1688815134.507,-36.133,-34.180,-31.738,-41.504,42.480
1688815134.510,-28.809,-32.715,-32.227,-20.996,76.172
1688815134.514,-40.527,-38.086,-34.180,-8.789,-153.809
1688815134.518,-72.266,-38.086,-33.203,8.789,-111.816
1688815134.522,-71.289,-31.738,-26.367,5.371,68.848
1688815134.526,-33.691,-33.691,-22.949,-1.953,186.523
1688815134.557,-24.414,-32.227,-28.320,8.301,-22.461
1688815134.561,-39.062,-29.785,-26.855,10.254,-199.219
1688815134.565,-65.918,-29.297,-27.344,23.926,-130.859
1688815134.569,-74.219,-27.832,-29.785,6.348,-119.629
1688815134.573,-45.410,-28.320,-27.344,-15.625,-158.691
1688815134.577,-33.691,-35.156,-33.203,-1.953,-51.270
1688815134.581,-51.758,-37.598,-36.621,3.418,345.215
1688815134.584,-78.613,-38.574,-35.645,19.043,296.875
1688815134.588,-83.496,-39.551,-32.227,16.602,-139.160
1688815134.592,-51.758,-38.086,-26.855,-11.230,-167.480
1688815134.596,-32.227,-36.133,-26.367,0.488,-96.680
1688815134.600,-53.711,-39.551,-33.203,4.883,-196.289
1688815134.574,-86.914,-39.551,-34.668,9.766,-183.105
1688815134.578,-100.098,-31.738,-36.621,16.113,-40.039
1688815134.582,-68.848,-34.180,-41.016,-2.930,-47.852
1688815134.586,-37.109,-34.180,-39.062,2.441,-101.562
1688815134.590,-37.109,-26.367,-37.598,0.977,-14.160
1688815134.594,-66.406,-30.273,-41.992,2.930,81.055
1688815134.598,-92.773,-35.645,-52.246,0.000,76.172
1688815134.601,-55.176,-38.574,-52.734,-31.250,25.391
1688815134.605,-23.926,-37.109,-43.945,-16.602,-47.363
1688815134.609,-32.715,-29.785,-41.016,7.324,-10.254
1688815134.613,-52.734,-29.785,-41.992,7.812,49.316
1688815134.617,-79.102,-27.344,-40.527,3.418,-63.477
1688815134.631,-67.383,-26.855,-36.621,-20.020,-191.406
1688815134.635,-38.574,-31.738,-35.156,-11.719,15.625
1688815134.639,-43.457,-32.715,-39.551,2.441,150.879
1688815134.643,-73.242,-33.691,-42.480,7.324,-70.801
1688815134.647,-103.516,-34.668,-41.504,9.766,-40.527
1688815134.651,-91.797,-35.645,-39.551,-13.184,226.562
1688815134.655,-58.594,-35.156,-37.598,-9.277,183.594
1688815134.658,-54.199,-38.086,-40.527,-6.348,-148.438
1688815134.662,-73.242,-43.457,-44.434,-10.742,-101.562
1688815134.666,-98.633,-38.086,-46.875,-0.977,71.289
1688815134.670,-91.309,-31.250,-46.387,-24.414,-71.289
1688815134.674,-57.617,-29.785,-43.457,-37.109,-210.938
1688815134.692,-47.363,-30.273,-40.039,-11.719,-17.090
1688815134.696,-64.941,-35.156,-40.527,-0.488,-8.301
1688815134.700,-96.680,-33.691,-41.016,-2.441,-67.383
1688815134.704,-82.031,-29.785,-41.504,-20.020,-71.289
1688815134.708,-36.133,-32.227,-41.504,-25.879,-30.273
1688815134.712,-31.738,-36.133,-44.922,-16.113,109.863
1688815134.716,-46.875,-39.062,-49.805,-12.695,-21.973
1688815134.719,-68.848,-32.227,-46.875,-4.883,-151.367
1688815134.723,-73.242,-28.320,-43.945,-17.578,-5.371
1688815134.727,-38.086,-32.227,-43.945,-38.574,125.488
1688815134.731,-13.184,-31.250,-39.551,-25.879,-88.867
1688815134.735,-27.344,-36.133,-41.504,-18.555,-86.426
1688815134.721,-62.012,-42.480,-45.410,-7.324,68.848
1688815134.725,-70.801,-39.062,-41.992,-16.113,-62.012
1688815134.729,-35.645,-35.156,-41.016,-54.688,-274.414
1688815134.733,-14.648,-35.156,-40.527,-29.785,-204.102
1688815134.737,-26.855,-34.180,-40.039,-19.531,-111.816
1688815134.741,-53.711,-34.668,-41.992,-21.484,-65.430
1688815134.745,-64.453,-34.668,-40.039,-16.113,-42.969
1688815134.748,-32.715,-33.203,-39.551,-36.133,-102.051
1688815134.752,-3.906,-32.715,-40.527,-27.832,-69.336
1688815134.756,-2.930,-36.133,-38.086,-19.531,-75.684
1688815134.760,-27.832,-41.992,-38.574,-16.113,-171.875
1688815134.764,-46.875,-38.086,-38.086,-18.555,-30.762
1688815134.767,-19.043,-36.621,-35.645,-43.945,165.039
1688815134.771,5.859,-37.109,-40.039,-40.039,20.020
1688815134.775,4.395,-34.668,-40.527,-35.156,0.488
1688815134.779,-13.184,-29.297,-40.039,-30.762,214.355
1688815134.783,-25.879,-25.879,-38.574,-18.555,284.668
1688815134.787,0.488,-26.855,-34.668,-45.898,-20.508
1688815134.791,26.855,-28.320,-37.109,-47.852,-138.672
1688815134.794,19.531,-32.715,-39.551,-26.855,83.008
1688815134.798,0.977,-30.273,-38.086,-17.578,169.922
1688815134.802,-25.879,-30.273,-40.039,-22.461,-25.391
1688815134.806,-15.137,-34.180,-44.434,-47.363,-155.273
1688815134.810,21.484,-34.180,-43.945,-35.156,-102.051
1688815134.813,12.695,-37.598,-41.992,-26.855,-39.062
1688815134.817,-24.414,-43.457,-44.922,-34.668,-110.840
1688815134.821,-59.082,-41.016,-41.504,-25.879,-106.934
1688815134.825,-50.781,-36.133,-37.598,-56.641,-146.484
1688815134.829,-14.160,-30.273,-37.109,-58.594,-164.062
1688815134.833,-5.371,-27.832,-34.668,-27.344,-90.332
1688815134.837,-26.855,-34.180,-36.133,-20.996,-61.035
1688815134.840,-60.059,-36.133,-38.574,-8.789,231.445
1688815134.844,-56.152,-33.203,-40.039,-33.691,163.574
1688815134.848,-16.602,-31.738,-41.992,-50.781,-189.453
1688815134.852,-10.254,-35.156,-42.969,-31.250,-129.395
1688815134.856,-31.250,-34.180,-38.086,-23.438,-69.824
1688815134.857,-62.988,-33.691,-37.598,-22.461,-29.785
1688815134.861,-61.035,-33.691,-41.016,-44.434,0.977
1688815134.865,-11.719,-32.227,-41.504,-53.223,-21.973
1688815134.869,12.207,-31.738,-35.645,-35.645,-25.391
1688815134.873,0.000,-32.715,-31.250,-22.949,-46.875
1688815134.877,-27.832,-29.785,-34.668,-16.602,-45.410
1688815134.881,-34.180,-33.203,-39.551,-46.875,116.699
1688815134.884,2.441,-36.133,-44.922,-65.430,353.027
1688815134.888,14.160,-31.738,-41.016,-45.410,201.660
1688815134.892,-15.137,-34.180,-40.527,-41.504,-122.559
1688815134.896,-59.570,-37.109,-41.992,-31.250,-106.934
1688815134.900,-78.613,-36.133,-41.504,-44.434,-98.633
1688815134.917,-51.270,-37.598,-43.945,-67.383,-150.879
1688815134.921,-41.016,-37.598,-43.457,-46.875,-135.254
1688815134.925,-57.129,-32.715,-44.922,-36.621,-179.199
1688815134.929,-85.938,-34.668,-43.945,-33.203,-141.113
1688815134.933,-88.379,-34.668,-38.086,-34.180,-129.395
1688815134.937,-47.852,-30.273,-32.715,-45.898,-115.234
1688815134.941,-28.809,-29.785,-33.203,-27.344,131.348
1688815134.944,-39.551,-29.785,-34.668,-17.578,25.879
1688815134.948,-69.336,-34.180,-36.621,-19.531,-120.117
1688815134.952,-83.008,-33.691,-41.016,-29.785,83.008
1688815134.956,-52.246,-35.645,-39.551,-55.664,128.906
1688815134.960,-26.367,-38.574,-33.691,-48.828,-75.684
1688815134.976,-36.621,-37.598,-36.621,-40.039,-202.148
1688815134.980,-64.941,-40.527,-39.551,-37.109,-71.289
1688815134.984,-83.008,-38.574,-35.156,-33.203,-41.992
1688815134.988,-55.176,-31.738,-34.180,-64.941,-124.512
1688815134.992,-25.391,-28.809,-43.945,-67.871,-159.668
1688815134.996,-35.156,-33.203,-46.387,-51.270,26.855
1688815135.000,-55.176,-34.668,-37.598,-42.480,218.262
1688815135.003,-73.242,-33.203,-36.133,-42.969,-61.035
1688815135.007,-66.406,-33.691,-41.504,-80.566,-255.859
1688815135.011,-41.504,-32.715,-44.922,-78.125,-81.055
1688815135.015,-43.457,-31.250,-45.410,-48.340,-47.852
1688815135.019,-65.918,-32.715,-41.992,-39.551,-137.207
1688815135.021,-87.891,-35.156,-45.410,-45.410,-127.930
1688815135.025,-73.242,-34.668,-47.852,-77.637,70.801
1688815135.029,-34.668,-33.203,-40.039,-83.984,234.863
1688815135.033,-23.438,-35.156,-36.621,-70.312,-88.379
1688815135.037,-41.504,-36.621,-39.551,-74.219,-158.691
1688815135.041,-67.871,-31.738,-41.016,-61.523,43.457
1688815135.045,-57.129,-26.855,-39.551,-65.918,58.594
1688815135.048,-19.043,-22.461,-41.992,-66.895,-134.766
1688815135.052,-13.184,-22.949,-42.969,-47.363,-138.184
1688815135.056,-33.691,-26.367,-39.551,-40.039,-1.465
1688815135.060,-64.941,-26.855,-43.457,-34.668,-29.785
1688815135.064,-66.406,-28.809,-44.434,-52.734,-145.508
1688815135.052,-32.715,-28.320,-41.504,-63.965,-110.352
1688815135.056,-25.879,-28.320,-44.922,-45.898,191.406
1688815135.060,-50.293,-30.762,-46.387,-39.062,24.902
1688815135.064,-89.355,-36.621,-45.410,-37.598,-208.008
1688815135.068,-101.074,-41.016,-48.828,-58.594,51.758
1688815135.072,-69.824,-38.086,-48.340,-83.008,214.355
1688815135.076,-56.152,-34.668,-45.898,-65.430,-13.672
1688815135.079,-70.801,-31.250,-47.852,-58.594,-218.750
1688815135.083,-101.074,-32.227,-56.641,-44.922,-9.766
1688815135.087,-109.863,-30.273,-57.617,-54.199,156.250
1688815135.091,-74.707,-26.855,-52.246,-84.473,-143.066
1688815135.095,-54.688,-27.344,-49.805,-68.359,-276.367
1688815135.097,-61.035,-23.926,-44.922,-45.410,11.719
1688815135.101,-88.379,-21.973,-42.480,-30.762,137.207
1688815135.105,-103.516,-28.320,-41.504,-42.969,-166.504
1688815135.109,-70.801,-31.738,-37.598,-61.523,-175.781
1688815135.113,-47.363,-28.320,-36.133,-45.898,-71.777
1688815135.117,-47.363,-29.297,-35.156,-30.273,-35.156
1688815135.121,-60.547,-31.738,-40.039,-21.484,-15.137
1688815135.124,-65.430,-26.367,-41.016,-29.785,-64.453
1688815135.128,-26.855,-20.508,-37.109,-52.246,155.273
1688815135.132,9.766,-17.578,-37.109,-50.293,65.918
1688815135.136,1.953,-19.043,-41.992,-48.828,-244.629
1688815135.140,-20.996,-27.344,-48.828,-42.480,-115.234
1688815135.141,-38.086,-36.133,-48.340,-44.434,-10.254
1688815135.145,-18.066,-32.227,-44.434,-68.359,-125.488
1688815135.149,10.254,-25.879,-43.945,-56.641,-187.988
1688815135.153,12.207,-23.926,-44.922,-39.062,-10.254
1688815135.157,-0.488,-23.926,-43.945,-35.156,100.586
1688815135.161,-20.508,-23.438,-41.504,-32.715,59.570
1688815135.165,1.465,-21.973,-42.480,-60.547,-37.598
1688815135.168,33.691,-23.438,-40.039,-61.035,85.938
1688815135.172,26.855,-27.832,-40.527,-38.574,405.762
1688815135.176,1.953,-26.855,-42.480,-39.551,222.168
1688815135.180,-29.785,-23.926,-42.480,-45.410,-68.848
1688815135.184,-12.695,-21.973,-43.457,-64.941,-145.508
1688815135.216,20.020,-22.461,-37.598,-63.477,-162.598
1688815135.220,6.836,-29.785,-36.133,-51.270,-156.738
1688815135.224,-24.414,-30.273,-35.156,-52.734,-132.812
1688815135.228,-61.035,-26.367,-38.574,-40.527,-36.621
1688815135.232,-62.012,-27.832,-43.945,-49.316,-91.797
1688815135.236,-38.574,-26.367,-44.434,-55.176,-143.066
1688815135.240,-35.156,-28.809,-44.434,-37.109,-5.859
1688815135.243,-53.223,-34.180,-41.016,-14.160,196.777
1688815135.247,-75.195,-29.297,-38.574,10.742,140.625
1688815135.251,-67.383,-28.809,-39.551,-15.625,-85.449
1688815135.255,-35.645,-33.203,-41.504,-35.645,-83.496
1688815135.259,-20.508,-27.832,-41.504,-22.949,-54.199
1688815135.246,-38.574,-25.879,-44.922,-19.043,-177.734
1688815135.250,-73.242,-28.320,-47.363,-3.906,-153.320
1688815135.254,-81.543,-27.832,-51.758,-13.184,-29.785
1688815135.258,-44.922,-26.367,-49.805,-30.273,-85.449
1688815135.262,-26.367,-25.391,-41.992,-21.484,-150.879
1688815135.266,-41.992,-28.320,-39.551,-16.113,-83.008
1688815135.270,-74.219,-31.738,-42.969,-7.324,79.102
1688815135.273,-80.078,-29.297,-43.457,-17.578,63.477
1688815135.277,-42.969,-32.227,-36.621,-44.434,-145.020
1688815135.281,-22.949,-34.668,-37.598,-37.109,-198.242
1688815135.285,-41.016,-32.715,-42.480,-33.203,76.172
1688815135.289,-71.777,-32.227,-44.434,-28.320,191.895
1688815135.291,-86.914,-31.738,-48.828,-37.109,-68.359
1688815135.295,-63.965,-29.297,-45.898,-67.383,-225.586
1688815135.299,-42.480,-30.273,-42.480,-53.711,-3.906
1688815135.303,-51.758,-28.809,-43.457,-26.367,223.145
1688815135.307,-74.219,-31.738,-43.457,-20.996,-46.875
1688815135.311,-85.449,-33.203,-40.527,-24.902,23.926
1688815135.315,-49.316,-28.809,-42.480,-49.805,82.031
1688815135.318,-17.578,-33.691,-44.922,-53.223,-131.348
1688815135.322,-21.973,-33.691,-41.016,-45.410,-176.270
1688815135.326,-54.199,-31.738,-40.039,-42.969,-102.051
1688815135.330,-83.008,-34.668,-44.434,-38.086,99.121
1688815135.334,-54.688,-36.133,-43.945,-54.199,-29.785
1688815135.322,-11.230,-34.668,-41.016,-53.711,-196.289
1688815135.326,-4.395,-31.250,-39.551,-39.551,2.441
1688815135.330,-20.020,-30.273,-41.016,-25.879,-16.602
1688815135.334,-44.434,-33.691,-42.480,-23.926,-120.117
1688815135.338,-37.598,-35.156,-48.340,-48.828,-58.105
1688815135.342,-27.832,-36.621,-49.316,-48.340,73.242
1688815135.346,-47.852,-39.062,-43.945,-39.062,204.590
1688815135.349,-80.566,-38.574,-45.898,-44.922,-20.020
1688815135.353,-115.723,-35.645,-48.340,-39.062,-129.395
1688815135.357,-101.074,-37.109,-45.898,-42.969,136.230
1688815135.361,-58.594,-37.598,-44.922,-38.574,154.785
1688815135.365,-54.199,-34.180,-47.363,-32.715,-155.273
1688815135.381,-85.449,-33.691,-47.363,-41.016,-161.133
1688815135.385,-119.141,-27.832,-48.340,-24.414,-89.355
1688815135.389,-104.004,-25.391,-47.363,-32.715,-137.695
1688815135.393,-63.477,-30.273,-48.340,-56.641,-205.566
1688815135.397,-63.965,-33.203,-48.828,-47.852,-134.766
1688815135.401,-83.008,-24.414,-41.992,-27.832,122.070
1688815135.405,-112.793,-21.973,-40.039,-11.719,71.777
1688815135.408,-122.559,-26.855,-40.527,-32.227,-241.211
1688815135.412,-87.402,-29.785,-38.574,-47.852,-199.707
1688815135.416,-69.824,-36.133,-39.551,-25.879,-9.277
1688815135.420,-82.031,-36.621,-41.504,-25.391,-128.906
1688815135.424,-113.770,-37.109,-44.434,-27.832,-133.789
1688815135.427,-116.211,-37.598,-46.875,-38.574,-41.992
1688815135.431,-66.895,-34.180,-42.480,-56.152,-143.066
1688815135.435,-43.457,-33.203,-38.574,-49.316,-194.336
1688815135.439,-57.617,-29.785,-38.086,-34.180,-159.180
1688815135.443,-89.355,-27.344,-37.109,-12.207,87.891
1688815135.447,-103.027,-32.715,-46.387,-29.785,255.859
1688815135.451,-73.242,-35.156,-51.270,-69.336,-33.691
1688815135.454,-51.758,-34.180,-49.316,-58.594,-82.031
1688815135.458,-52.734,-34.180,-49.805,-41.016,78.613
1688815135.462,-83.496,-35.645,-51.758,-38.086,54.199
1688815135.466,-99.121,-35.645,-50.293,-48.828,-26.855
1688815135.470,-67.871,-34.668,-49.316,-72.754,-180.176
1688815135.472,-42.969,-35.156,-49.805,-56.641,41.504
1688815135.476,-44.434,-37.109,-51.270,-42.480,203.125
1688815135.480,-76.172,-37.109,-51.270,-40.527,-62.500
1688815135.484,-104.492,-30.273,-54.688,-37.598,-105.957
1688815135.488,-73.730,-31.250,-57.129,-66.406,-110.840
1688815135.492,-40.527,-32.227,-52.734,-62.500,-36.133
1688815135.496,-46.387,-30.273,-52.734,-58.105,32.715
1688815135.499,-62.988,-34.668,-54.688,-55.176,8.789
1688815135.503,-81.543,-37.598,-54.199,-34.180,273.926
1688815135.507,-55.664,-33.203,-55.176,-50.293,162.109
1688815135.511,-19.531,-32.227,-54.199,-56.641,-214.355
1688815135.515,-28.809,-39.551,-54.199,-52.734,-123.047
1688815135.516,-48.828,-40.527,-57.129,-51.270,-50.293
1688815135.520,-58.105,-33.691,-53.711,-44.434,-69.336
1688815135.524,-37.598,-36.133,-46.387,-72.754,-146.484
1688815135.528,6.348,-38.086,-45.898,-68.359,-23.926
1688815135.532,21.973,-33.691,-50.293,-44.922,39.551
1688815135.536,-4.883,-37.109,-50.293,-43.945,-25.879
1688815135.540,-36.621,-37.598,-49.805,-44.434,40.527
1688815135.543,-11.230,-34.668,-51.758,-78.125,108.398
1688815135.547,44.434,-30.273,-53.223,-82.520,141.602
1688815135.551,50.781,-28.320,-55.176,-67.871,-119.629
1688815135.555,36.133,-30.762,-53.223,-61.523,-123.535
1688815135.559,20.996,-26.855,-50.293,-42.969,72.754
1688815135.564,30.273,-30.273,-50.781,-67.383,-53.223
1688815135.568,68.359,-34.180,-50.293,-75.684,-238.281
1688815135.572,66.406,-34.180,-50.781,-60.059,-179.688
1688815135.576,34.668,-32.715,-51.270,-48.340,-92.773
1688815135.580,-7.324,-28.809,-44.922,-35.156,-119.629
1688815135.584,-17.090,-30.762,-41.992,-60.547,-70.312
1688815135.588,13.672,-29.297,-41.504,-75.195,15.137
1688815135.591,23.438,-27.344,-43.457,-52.246,163.086
1688815135.595,2.441,-31.738,-47.363,-45.410,36.133
1688815135.599,-35.156,-35.645,-46.875,-39.551,-139.648
1688815135.603,-42.969,-36.133,-43.457,-50.293,-52.246
1688815135.607,-11.230,-34.180,-42.480,-73.730,-99.121
1688815135.608,1.953,-32.227,-41.016,-44.922,-109.375
1688815135.612,-9.277,-32.715,-41.992,-25.879,-50.781
1688815135.616,-45.410,-32.715,-43.457,-18.555,62.988
1688815135.620,-67.383,-34.180,-41.016,-24.414,124.512
1688815135.624,-41.992,-38.086,-37.109,-49.316,-88.379
1688815135.628,-30.273,-36.133,-41.016,-44.922,-75.684
1688815135.632,-40.039,-37.109,-39.551,-38.086,159.668
1688815135.635,-70.312,-37.109,-35.645,-26.367,406.250
1688815135.639,-84.473,-33.691,-40.039,-40.039,218.262
1688815135.643,-50.293,-30.273,-43.945,-73.242,-181.152
1688815135.647,-24.902,-28.809,-46.387,-71.289,-246.094
1688815135.651,-30.273,-28.809,-46.387,-69.336,-247.070
1688815135.653,-58.594,-25.879,-45.410,-62.988,-217.773
1688815135.657,-72.754,-24.902,-46.875,-63.477,-111.328
1688815135.661,-45.898,-24.902,-50.781,-86.426,-57.617
1688815135.665,-22.949,-27.344,-53.223,-86.426,-83.008
1688815135.669,-33.203,-31.738,-55.664,-79.102,-85.938
1688815135.673,-59.570,-33.203,-50.781,-71.289,-18.066
1688815135.677,-81.055,-28.809,-44.434,-52.734,332.520
1688815135.680,-62.988,-28.320,-39.062,-64.453,272.461
1688815135.684,-37.109,-33.203,-43.457,-72.754,-108.398
1688815135.688,-33.203,-33.691,-49.316,-57.129,-72.266
1688815135.692,-49.805,-33.203,-43.945,-47.363,-60.547
1688815135.696,-89.355,-29.297,-41.504,-42.969,-74.219
1688815135.696,-76.660,-25.879,-41.992,-62.988,-160.156
1688815135.700,-44.434,-32.715,-41.992,-57.617,-134.277
1688815135.704,-63.477,-34.668,-39.062,-40.039,-33.691
1688815135.708,-83.984,-33.691,-39.062,-45.410,-29.785
1688815135.712,-117.188,-32.227,-43.945,-55.664,-53.223
1688815135.716,-107.910,-35.645,-40.039,-83.496,74.707
1688815135.720,-63.965,-38.574,-40.039,-80.566,431.641
1688815135.723,-62.500,-38.574,-39.551,-62.012,182.617
1688815135.727,-62.012,-41.504,-32.227,-47.363,-165.039
1688815135.731,-73.730,-32.715,-42.480,-29.297,21.484
1688815135.735,-75.195,-24.414,-50.781,-72.754,4.395
1688815135.739,-45.410,-23.926,-50.781,-92.285,-241.211
1688815135.756,-24.902,-20.996,-58.594,-66.895,-195.801
1688815135.760,-25.879,-11.230,-62.500,-55.176,-100.098
1688815135.764,-48.340,1.465,-63.965,-35.645,-78.613
1688815135.768,-38.086,1.465,-69.824,-51.758,-102.051
1688815135.772,13.672,6.836,-75.195,-62.988,-93.750
1688815135.776,35.156,13.184,-82.520,-43.945,80.566
1688815135.780,21.973,15.625,-90.820,-38.574,-6.836
1688815135.783,2.930,25.391,-97.656,-29.785,-100.098
1688815135.787,6.836,32.227,-102.051,-47.852,72.266
1688815135.791,44.434,36.133,-108.398,-59.570,189.453
1688815135.795,66.895,36.133,-111.328,-40.039,42.969
1688815135.799,55.176,40.039,-114.258,-44.922,-194.336
1688815135.801,26.367,42.480,-119.141,-34.180,32.715
1688815135.805,17.578,40.039,-125.000,-49.805,142.090
1688815135.809,61.035,41.992,-128.418,-97.656,-137.207
1688815135.813,89.844,41.016,-127.441,-95.215,-112.793
1688815135.817,78.613,42.969,-128.906,-71.777,111.328
1688815135.821,52.734,47.363,-126.465,-47.852,172.363
1688815135.825,39.551,50.781,-125.000,-51.758,-37.598
1688815135.828,68.359,52.246,-126.465,-73.730,-267.578
1688815135.832,85.449,51.758,-125.488,-57.129,-35.156
1688815135.836,74.219,57.129,-121.582,-45.898,112.305
1688815135.840,41.504,55.664,-116.699,-50.781,-186.035
1688815135.844,18.555,48.828,-111.328,-42.480,-205.078
1688815135.847,45.898,50.781,-105.469,-51.758,-79.590
1688815135.851,82.520,48.828,-99.121,-35.156,-78.613
1688815135.855,76.172,41.992,-96.191,-25.879,-111.816
1688815135.859,36.133,35.156,-95.215,-28.320,-42.969
1688815135.863,10.742,25.879,-93.750,-20.996,-27.344
1688815135.867,34.180,21.973,-89.355,-45.898,-75.684
1688815135.871,65.430,15.625,-86.426,-43.945,-90.820
1688815135.874,62.012,11.719,-89.355,-26.367,-85.449
1688815135.878,36.133,14.160,-86.426,-18.066,-35.645
1688815135.882,9.766,12.207,-82.520,-10.254,-18.555
1688815135.886,20.508,4.883,-83.984,-37.598,-182.129
1688815135.890,46.387,-0.977,-81.543,-40.039,-94.238
1688815135.891,36.621,-2.441,-73.242,-18.066,239.258
1688815135.895,5.859,-8.301,-71.289,-15.137,71.777
1688815135.899,-9.277,-9.277,-72.266,-9.277,-144.043
1688815135.903,-5.371,-4.395,-69.824,-34.668,-7.812
1688815135.907,18.066,-9.277,-64.941,-40.527,58.105
1688815135.911,37.109,-11.230,-60.059,-21.973,-53.223
1688815135.915,15.625,-12.695,-61.523,-34.180,-28.320
1688815135.918,-20.020,-14.648,-56.641,-21.973,146.973
1688815135.922,-13.184,-15.137,-56.641,-24.414,110.352
1688815135.926,14.648,-20.996,-61.523,-44.922,-110.840
1688815135.930,19.531,-21.484,-58.105,-38.086,-127.441
1688815135.934,-2.441,-20.508,-54.688,-27.832,51.758
1688815135.940,-43.945,-28.320,-56.641,-10.742,120.117
1688815135.944,-52.246,-26.855,-59.570,-32.227,-127.930
1688815135.948,-16.113,-27.832,-54.688,-61.035,-127.441
1688815135.952,-2.930,-31.250,-54.688,-51.270,0.977
1688815135.956,-13.672,-20.996,-54.688,-42.969,-70.312
1688815135.960,-38.086,-17.090,-51.758,-37.598,-48.340
1688815135.964,-40.527,-21.484,-51.758,-47.852,-1.953
1688815135.967,-9.766,-23.926,-50.781,-58.105,10.742
1688815135.971,2.441,-25.391,-47.363,-40.527,-78.125
1688815135.975,-4.883,-25.879,-43.945,-33.203,-241.211
1688815135.979,-20.508,-29.297,-42.969,-17.090,-111.328
1688815135.983,-26.855,-23.926,-48.828,-18.555,-75.195
1688815135.997,8.301,-15.625,-48.828,-50.781,-219.727
1688815136.001,32.227,-13.184,-45.898,-55.176,-236.816
1688815136.005,26.367,-17.090,-47.363,-33.691,-144.043
1688815136.009,-1.953,-19.531,-48.828,-22.461,-29.297
1688815136.013,-23.926,-20.508,-51.758,-41.992,-36.133
1688815136.017,9.766,-19.043,-50.293,-72.266,-113.281
1688815136.021,46.387,-19.043,-50.293,-54.688,70.312
1688815136.024,33.691,-24.414,-51.270,-35.645,494.629
1688815136.028,1.953,-25.879,-49.316,-29.297,356.445
1688815136.032,-14.648,-23.438,-47.852,-27.344,-23.438
1688815136.036,5.859,-24.902,-50.781,-50.781,3.906
1688815136.040,34.180,-22.949,-47.363,-41.016,-37.598
1688815136.028,28.809,-20.508,-40.039,-27.344,-136.719
1688815136.032,8.789,-21.973,-45.410,-28.320,-65.918
1688815136.036,-20.508,-21.973,-49.316,-31.738,5.859
1688815136.040,-1.465,-23.438,-45.898,-55.176,-73.242
1688815136.044,34.668,-27.344,-46.875,-58.105,-136.230
1688815136.048,37.109,-21.484,-46.387,-45.410,-55.664
1688815136.052,17.090,-21.484,-43.945,-37.598,69.824
1688815136.055,-16.113,-26.367,-47.363,-38.574,50.293
1688815136.059,-10.254,-29.785,-47.363,-59.570,-137.207
1688815136.063,26.855,-30.762,-46.387,-68.359,-184.570
1688815136.067,30.762,-28.809,-43.457,-53.223,154.297
1688815136.071,5.859,-30.273,-41.016,-44.922,103.516
1688815136.071,-22.949,-27.344,-43.945,-46.875,-155.762
1688815136.075,-16.602,-26.367,-45.898,-69.824,-112.793
1688815136.079,20.020,-29.785,-47.363,-64.453,-111.816
1688815136.083,11.230,-32.227,-47.363,-45.898,-90.332
1688815136.087,-11.230,-33.203,-45.898,-44.434,-82.520
1688815136.091,-32.227,-33.203,-44.434,-33.691,74.219
1688815136.095,-31.250,-30.273,-42.969,-44.922,256.836
1688815136.098,5.859,-25.879,-40.039,-53.711,-57.617
1688815136.102,9.766,-28.320,-42.480,-46.875,-261.230
1688815136.106,-9.277,-29.297,-48.828,-35.645,13.672
1688815136.110,-43.945,-31.250,-53.711,-27.344,188.965
1688815136.114,-56.152,-32.227,-51.270,-48.340,-112.305
1688815136.132,-17.090,-25.879,-44.922,-58.105,-211.426
1688815136.136,0.488,-24.902,-46.875,-45.410,-123.535
1688815136.140,-6.348,-26.855,-48.340,-34.668,-117.188
1688815136.144,-34.180,-28.320,-43.945,-28.809,-71.777
1688815136.148,-41.992,-29.785,-42.480,-30.273,-30.762
1688815136.152,-1.465,-31.250,-45.410,-42.969,74.707
1688815136.156,19.531,-32.227,-43.457,-41.992,16.602
1688815136.159,8.789,-34.668,-45.410,-34.180,-162.598
1688815136.163,-14.160,-33.691,-42.969,-14.160,-31.738
1688815136.167,-14.648,-25.391,-37.598,-14.160,140.137
1688815136.171,20.508,-25.391,-41.504,-47.363,-19.043
1688815136.175,42.969,-29.785,-45.410,-44.922,-121.094
1688815136.176,35.645,-29.785,-43.945,-26.367,61.523
1688815136.180,9.766,-27.832,-39.062,-14.648,207.520
1688815136.184,-0.488,-28.320,-40.039,-26.367,75.195
1688815136.188,29.297,-28.809,-42.969,-49.316,-85.938
1688815136.192,57.617,-30.762,-41.504,-34.668,11.719
1688815136.196,52.246,-31.250,-39.551,-24.902,119.629
1688815136.200,17.090,-28.809,-41.016,-35.156,0.000
1688815136.203,1.465,-28.809,-39.551,-31.738,-153.320
1688815136.207,29.785,-27.344,-39.062,-53.711,-17.578
1688815136.211,62.012,-29.785,-41.992,-52.246,124.512
1688815136.215,54.199,-35.156,-45.898,-41.016,-101.562
1688815136.219,16.602,-36.621,-49.805,-38.574,-96.680
1688815136.224,-11.230,-34.668,-46.387,-24.902,-6.348
1688815136.228,1.953,-38.086,-44.434,-39.551,-61.523
1688815136.232,34.668,-43.457,-43.945,-39.551,-126.953
1688815136.236,37.598,-38.574,-37.109,-25.879,-155.762
1688815136.240,16.113,-35.156,-35.156,-25.879,-51.758
1688815136.244,-5.859,-38.086,-41.504,-29.785,74.707
1688815136.248,15.137,-40.039,-43.457,-56.641,-46.387
1688815136.251,49.316,-38.574,-43.457,-52.246,-144.531
1688815136.255,50.781,-32.227,-41.992,-28.320,77.637
1688815136.259,29.297,-34.180,-42.480,-26.367,58.105
1688815136.263,3.906,-36.621,-44.922,-23.926,-108.398
1688815136.267,23.926,-30.273,-42.480,-48.828,-94.238
1688815136.266,56.641,-33.203,-41.016,-60.547,-96.680
1688815136.270,60.547,-37.109,-39.062,-30.762,-88.867
1688815136.274,34.668,-34.668,-38.086,-24.902,-73.730
1688815136.278,-9.766,-31.250,-37.109,-25.879,110.840
1688815136.282,-12.207,-33.203,-37.109,-49.805,87.891
1688815136.286,7.324,-36.621,-45.410,-72.754,-147.461
1688815136.290,3.418,-38.086,-49.316,-51.270,-98.145
1688815136.293,-11.230,-39.062,-42.969,-45.410,70.801
1688815136.297,-45.410,-41.992,-45.410,-37.109,364.258
1688815136.301,-47.363,-41.992,-48.340,-50.293,191.895
1688815136.305,-3.418,-35.645,-48.828,-73.242,-115.723
1688815136.309,21.973,-29.785,-49.805,-43.457,-128.418
1688815136.327,16.602,-36.621,-43.945,-9.766,-155.762
1688815136.331,-46.387,-53.223,-36.133,-15.625,-64.941
1688815136.335,-88.867,-62.988,-36.133,-43.945,-52.734
1688815136.339,-75.684,-63.477,-35.156,-71.289,-152.832
1688815136.343,-98.633,-70.312,-29.297,-67.383,-186.035
1688815136.347,-153.320,-83.008,-23.438,-73.730,-90.820
1688815136.351,-210.938,-88.867,-10.254,-80.078,37.109
1688815136.354,-256.348,-90.820,0.488,-86.426,290.039
1688815136.358,-266.113,-100.586,2.930,-131.836,134.766
1688815136.362,-258.789,-112.305,7.812,-131.348,-189.941
1688815136.366,-281.738,-119.141,19.043,-117.188,-106.934
1688815136.370,-331.543,-123.047,26.367,-122.559,-88.379
1688815136.356,-365.723,-129.883,31.738,-128.906,-164.062
1688815136.360,-337.891,-138.672,35.645,-147.949,-270.020
1688815136.364,-319.824,-144.531,43.945,-146.484,-165.527
1688815136.368,-337.402,-142.090,47.852,-144.043,-90.332
1688815136.372,-356.445,-137.695,43.457,-119.629,-166.504
1688815136.376,-391.113,-141.602,45.898,-122.559,-126.953
1688815136.380,-370.117,-145.508,50.781,-147.949,68.359
1688815136.383,-339.844,-145.020,43.945,-137.207,137.207
1688815136.387,-347.656,-139.160,35.645,-125.488,-128.906
1688815136.391,-346.680,-136.719,37.109,-102.051,-136.230
1688815136.395,-347.656,-127.930,36.621,-76.172,72.266
1688815136.399,-315.918,-119.141,32.227,-87.402,123.047
1688815136.417,-269.043,-116.699,26.367,-91.309,-204.102
1688815136.421,-249.512,-114.258,20.996,-74.707,-234.375
1688815136.425,-257.812,-108.398,19.531,-65.430,-119.629
1688815136.429,-277.344,-103.027,18.066,-52.246,-37.598
1688815136.433,-265.625,-101.562,12.695,-77.148,-58.594
1688815136.437,-232.910,-98.145,10.742,-83.984,-101.562
1688815136.441,-212.891,-92.773,9.766,-56.641,93.750
1688815136.444,-218.750,-89.355,2.930,-50.293,-1.953
1688815136.448,-241.699,-83.984,-2.930,-36.133,-159.668
1688815136.452,-228.027,-80.078,-2.441,-56.641,-55.176
1688815136.456,-188.477,-75.195,-5.371,-69.824,-68.848
1688815136.460,-178.711,-74.707,-10.742,-52.734,-108.887
1688815136.447,-182.617,-73.730,-8.789,-41.504,-121.582
1688815136.451,-193.848,-71.777,-6.348,-19.531,3.418
1688815136.455,-188.965,-73.242,-7.324,-39.062,37.109
1688815136.459,-145.020,-69.336,-9.766,-52.734,-135.254
1688815136.463,-120.117,-68.848,-16.602,-30.273,-151.855
1688815136.467,-135.254,-61.035,-17.090,-9.277,36.133
1688815136.471,-161.133,-54.688,-14.160,15.625,204.102
1688815136.474,-152.832,-54.199,-16.113,-6.836,-55.176
1688815136.478,-107.910,-53.223,-17.090,-27.344,-225.586
1688815136.482,-88.867,-53.223,-17.578,-6.836,18.555
1688815136.486,-100.586,-53.711,-16.113,-2.930,234.375
1688815136.490,-130.859,-55.176,-13.672,-1.953,1.953
1688815136.494,-138.672,-58.105,-21.484,-10.742,-93.750
1688815136.498,-99.121,-60.547,-27.832,-24.902,-95.215
1688815136.502,-74.707,-55.176,-21.973,-13.672,-73.730
1688815136.506,-83.984,-54.688,-22.949,-12.207,-163.086
1688815136.510,-114.258,-55.176,-25.391,-2.930,-130.859
1688815136.514,-131.836,-49.805,-24.414,-9.277,95.215
1688815136.518,-94.727,-48.340,-31.250,-39.062,-17.578
1688815136.521,-63.965,-47.852,-29.785,-41.992,-196.777
1688815136.525,-72.266,-47.852,-25.391,-43.457,-131.836
1688815136.529,-98.145,-42.969,-24.414,-26.855,104.492
1688815136.533,-121.094,-43.945,-25.391,-20.996,52.246
1688815136.537,-87.402,-46.875,-24.414,-47.852,-119.629
1688815136.551,-44.922,-42.480,-21.973,-35.645,-76.172
1688815136.555,-53.223,-37.598,-21.973,-19.531,-23.926
1688815136.559,-83.008,-34.668,-20.996,-7.324,-8.789
1688815136.563,-101.562,-34.180,-25.879,-11.719,-0.488
1688815136.567,-76.172,-31.250,-27.344,-46.387,86.426
1688815136.571,-41.992,-29.297,-21.973,-34.180,254.883
1688815136.575,-41.504,-27.344,-25.879,-15.137,100.098
1688815136.578,-65.430,-29.297,-25.879,-18.066,-100.098
1688815136.582,-104.980,-32.227,-24.414,-7.324,62.988
1688815136.586,-76.172,-36.133,-34.668,-27.344,93.262
1688815136.590,-15.625,-37.598,-32.715,-33.691,-169.434
1688815136.594,7.324,-34.668,-26.367,-9.277,-175.781
1688815136.597,0.977,-35.645,-29.297,-11.719,-113.281
1688815136.601,-12.207,-37.598,-33.691,-4.395,-36.621
1688815136.605,19.531,-37.109,-36.621,-26.367,-77.637
1688815136.609,69.824,-34.668,-36.133,-42.480,-157.227
1688815136.613,89.355,-35.156,-35.645,-18.555,-136.230
1688815136.617,80.078,-35.645,-34.668,-16.602,-39.062
1688815136.621,61.035,-31.738,-36.621,-11.230,13.184
1688815136.624,75.195,-28.320,-35.156,-24.902,-1.953
1688815136.628,111.328,-28.809,-31.250,-28.809,176.758
1688815136.632,122.070,-33.203,-36.133,-7.812,120.117
1688815136.636,106.445,-35.645,-36.133,-9.766,-172.852
1688815136.640,69.824,-33.203,-36.133,-0.977,-39.062
1688815136.641,59.570,-31.738,-36.133,-17.578,14.160
1688815136.645,88.379,-33.203,-33.691,-33.691,-147.461
1688815136.649,98.145,-39.551,-34.668,-16.602,-134.766
1688815136.653,80.566,-40.527,-34.668,-19.043,-35.156
1688815136.657,51.758,-34.668,-32.227,-1.953,18.555
1688815136.661,45.410,-30.273,-35.156,-6.348,52.734
1688815136.665,73.242,-28.320,-36.133,-34.668,-10.742
1688815136.668,86.914,-31.738,-34.180,-18.066,-1.953
1688815136.672,75.684,-33.203,-36.621,-5.859,269.043
1688815136.676,42.480,-28.809,-37.598,-6.348,138.184
1688815136.680,29.297,-27.832,-37.109,-20.996,-92.285
1688815136.684,60.547,-30.273,-41.504,-35.156,-70.312
1688815136.688,77.148,-31.738,-44.922,-21.973,-100.586
1688815136.692,72.266,-29.297,-40.527,-18.066,-160.645
1688815136.696,48.340,-27.832,-38.574,-5.371,-61.035
1688815136.700,31.250,-29.297,-40.039,-6.348,11.230
1688815136.704,69.336,-30.762,-36.133,-32.715,-116.699
1688815136.708,100.098,-34.668,-33.203,-18.555,-166.992
1688815136.712,84.961,-36.621,-35.156,-5.371,-102.539
1688815136.715,53.711,-37.598,-34.180,0.000,123.535
1688815136.719,37.109,-37.109,-31.738,0.000,116.699
1688815136.723,68.359,-33.203,-31.250,-27.832,-190.430
1688815136.727,98.145,-31.250,-34.668,-34.668,-52.246
1688815136.731,92.773,-32.715,-38.574,-23.438,68.848
1688815136.731,68.359,-34.668,-36.621,-10.254,-114.258
1688815136.735,43.457,-33.203,-32.227,-10.254,-139.648
1688815136.739,63.965,-30.273,-27.832,-36.133,-82.031
1688815136.743,95.703,-34.180,-29.297,-36.133,-57.129
1688815136.747,85.938,-37.109,-36.133,-21.973,-102.051
1688815136.751,53.223,-35.645,-37.109,-11.719,-59.082
1688815136.755,20.508,-38.086,-38.574,-6.348,209.473
1688815136.758,31.738,-41.016,-38.574,-30.762,375.488
1688815136.762,58.105,-41.992,-40.039,-44.434,98.633
1688815136.766,57.617,-39.062,-40.039,-31.250,-80.078
1688815136.770,39.551,-38.574,-38.574,-22.461,-29.297
1688815136.774,14.648,-35.156,-41.016,-16.602,-37.109
1688815136.779,25.391,-33.203,-40.039,-40.527,-142.578
1688815136.783,58.105,-36.133,-42.480,-46.875,-81.543
1688815136.787,61.035,-38.086,-45.898,-22.949,35.645
1688815136.791,40.039,-36.133,-44.434,-19.531,-72.266
1688815136.795,-2.441,-37.598,-45.898,-22.949,-137.207
1688815136.799,-0.977,-40.527,-49.316,-47.852,-104.492
1688815136.803,28.809,-36.133,-42.969,-51.270,51.270
1688815136.806,17.578,-33.203,-40.527,-32.227,-6.836
1688815136.810,-9.277,-38.574,-44.434,-28.320,-182.129
1688815136.814,-39.551,-41.016,-41.504,-15.625,-12.207
1688815136.818,-26.855,-34.668,-40.527,-28.320,-0.977
1688815136.822,22.949,-31.738,-38.574,-44.434,-185.059
1688815136.821,29.297,-36.621,-40.039,-37.598,-165.039
1688815136.825,1.465,-39.062,-47.363,-38.574,-93.262
1688815136.829,-29.297,-32.715,-41.016,-27.344,-19.043
1688815136.833,-32.227,-28.320,-34.180,-26.367,-53.711
1688815136.837,-6.836,-35.156,-40.039,-45.410,-89.844
1688815136.841,3.906,-39.062,-42.969,-36.133,55.664
1688815136.845,-7.324,-37.109,-38.574,-26.367,389.648
1688815136.848,-35.156,-34.180,-40.527,-16.113,259.277
1688815136.852,-48.340,-30.762,-50.293,-20.508,-94.238
1688815136.856,-15.137,-34.668,-54.199,-47.363,-72.266
1688815136.860,16.602,-36.621,-52.734,-36.133,-46.387
1688815136.864,12.207,-31.738,-50.781,-32.227,-196.777
1688815136.883,-14.648,-31.250,-49.316,-37.109,-151.367
1688815136.887,-32.227,-39.062,-48.340,-51.270,-16.113
1688815136.891,-5.371,-43.945,-44.434,-77.637,-99.121
1688815136.895,24.902,-37.598,-40.039,-62.988,-112.305
1688815136.899,18.555,-33.691,-39.551,-46.875,-80.566
1688815136.903,-15.137,-41.016,-43.945,-38.086,-18.555
1688815136.907,-39.062,-40.039,-47.363,-39.062,82.031
1688815136.910,-6.348,-31.738,-42.969,-54.688,15.625
1688815136.914,26.367,-30.762,-40.527,-50.293,-49.805
1688815136.918,15.625,-32.715,-42.480,-31.738,128.418
1688815136.922,-13.184,-33.203,-42.480,-28.809,110.352
1688815136.926,-39.551,-33.203,-39.551,-40.527,-125.977
1688815136.927,-18.555,-32.227,-40.527,-62.500,-117.188
1688815136.931,18.066,-33.203,-47.363,-58.594,-130.859
1688815136.935,26.855,-34.180,-46.387,-47.852,-252.930
1688815136.939,14.648,-35.156,-40.039,-39.551,-177.246
1688815136.943,-5.859,-35.645,-42.969,-32.227,89.355
1688815136.947,8.789,-33.203,-45.410,-62.988,109.863
1688815136.951,43.457,-32.715,-44.922,-60.059,-62.012
1688815136.954,45.898,-36.133,-45.898,-33.691,-158.203
1688815136.958,26.855,-35.156,-47.363,-32.227,48.828
1688815136.962,-2.441,-34.180,-51.270,-26.367,378.418
1688815136.966,6.836,-34.668,-51.758,-47.852,134.277
1688815136.970,36.621,-36.133,-48.828,-57.617,-211.914
1688815136.972,34.180,-32.227,-46.875,-33.203,-143.555
1688815136.976,4.883,-33.691,-52.734,-30.762,-101.074
1688815136.980,-32.227,-36.621,-58.594,-25.879,-95.215
1688815136.984,-41.992,-32.227,-54.199,-49.805,-23.926
1688815136.988,-20.020,-30.273,-48.828,-58.594,-83.008
1688815136.992,-24.414,-34.668,-45.410,-39.062,-108.398
1688815136.996,-41.016,-40.039,-43.945,-33.203,-67.383
1688815136.999,-64.941,-34.668,-40.039,-15.137,-50.781
1688815137.003,-70.801,-32.227,-41.016,-28.809,48.340
1688815137.007,-27.344,-35.156,-39.062,-44.434,-74.219
1688815137.011,-12.695,-35.645,-32.715,-30.273,-138.672
1688815137.015,-23.926,-33.691,-34.668,-27.344,-16.602
1688815137.016,-50.293,-32.227,-33.691,-11.230,158.203
1688815137.020,-56.641,-30.273,-31.738,-26.367,12.207
1688815137.024,-24.902,-27.344,-31.250,-51.758,-218.262
1688815137.028,-15.137,-26.855,-35.645,-33.691,13.184
1688815137.032,-29.297,-28.809,-38.086,-30.273,23.438
1688815137.036,-66.895,-30.762,-38.574,-31.738,-26.367
1688815137.040,-77.637,-31.250,-38.574,-38.574,36.133
1688815137.043,-31.250,-28.809,-34.180,-49.316,65.430
1688815137.047,-9.277,-30.762,-33.691,-41.016,181.641
1688815137.051,-15.137,-31.738,-40.527,-36.621,-83.984
1688815137.055,-36.133,-30.273,-39.062,-15.137,-137.695
1688815137.059,-52.246,-31.250,-38.086,-11.230,-78.125
1688815137.064,-14.160,-31.250,-40.527,-36.133,-133.789
1688815137.068,16.602,-34.668,-41.992,-23.926,-141.113
1688815137.072,8.301,-34.668,-47.363,-15.137,-168.945
1688815137.076,-22.949,-31.738,-44.922,-8.301,-91.309
1688815137.080,-51.758,-33.691,-41.504,-1.465,7.324
1688815137.084,-39.062,-36.133,-41.016,-38.086,-82.520
1688815137.088,-16.602,-36.621,-41.992,-35.156,-123.535
1688815137.091,-24.902,-35.645,-44.434,-12.207,142.090
1688815137.095,-50.293,-34.180,-42.969,-16.113,132.324
1688815137.099,-76.660,-33.203,-42.480,-17.090,-96.680
1688815137.103,-58.105,-36.621,-45.898,-49.805,-86.426
1688815137.107,-17.090,-33.203,-43.945,-53.711,-38.086
1688815137.122,-14.648,-30.762,-44.434,-33.691,-142.578
1688815137.126,-36.621,-30.762,-42.480,-21.973,-176.758
1688815137.130,-57.617,-32.227,-36.621,-2.441,-16.602
1688815137.134,-34.180,-32.227,-39.062,-25.879,-5.859
1688815137.138,7.324,-31.738,-44.922,-41.504,-53.711
1688815137.142,5.859,-35.156,-43.945,-32.227,-96.680
1688815137.146,-16.113,-35.156,-41.504,-18.066,67.871
1688815137.149,-43.457,-32.715,-42.969,7.812,405.273
1688815137.153,-31.738,-32.227,-43.945,-16.113,192.871
1688815137.157,15.625,-31.250,-46.875,-36.621,-160.156
1688815137.161,16.602,-30.762,-47.852,-15.625,-101.074
1688815137.165,-16.602,-41.016,-48.828,-12.695,-129.395
1688815137.153,-52.734,-46.387,-47.852,-11.719,-180.664
1688815137.157,-45.410,-41.016,-45.898,-28.320,-142.578
1688815137.161,-4.395,-38.086,-42.969,-52.734,-161.133
1688815137.165,8.301,-37.598,-41.016,-33.203,-137.207
1688815137.169,-7.324,-37.598,-41.016,-20.996,-115.723
1688815137.173,-37.598,-37.598,-41.504,-16.602,-46.875
1688815137.177,-42.969,-37.109,-44.434,-31.250,113.770
1688815137.180,-10.742,-32.227,-43.457,-45.410,76.172
1688815137.184,-2.441,-32.715,-41.504,-26.367,-25.879
1688815137.188,-20.020,-39.062,-42.480,-21.973,-44.434
1688815137.192,-45.410,-37.109,-40.039,1.465,281.250
1688815137.196,-41.016,-31.738,-35.156,-3.418,286.621
1688815137.196,-1.465,-33.203,-40.039,-43.457,-142.090
1688815137.200,8.301,-28.320,-41.992,-34.180,-107.422
1688815137.204,-7.812,-24.902,-35.645,-20.020,-41.992
1688815137.208,-44.434,-28.320,-35.645,-10.742,3.906
1688815137.212,-68.359,-26.855,-38.086,-11.719,-59.570
1688815137.216,-33.203,-31.250,-37.109,-22.461,-34.668
1688815137.220,-22.949,-38.086,-36.133,-6.348,194.336
1688815137.223,-46.387,-38.086,-37.109,-15.625,57.129
1688815137.227,-73.242,-39.551,-36.621,-18.555,-66.895
1688815137.231,-98.145,-38.086,-36.621,-11.719,97.168
1688815137.235,-73.730,-32.715,-35.645,-29.785,125.977
1688815137.239,-44.922,-32.227,-37.598,-30.762,-154.785
1688815137.259,-56.152,-31.250,-38.574,-23.438,-185.547
1688815137.263,-90.332,-30.762,-36.133,-24.902,-114.258
1688815137.267,-111.328,-29.785,-36.133,-30.762,-84.961
1688815137.271,-79.590,-28.320,-39.551,-45.410,-156.738
1688815137.275,-49.316,-30.273,-40.527,-50.781,-179.199
1688815137.279,-42.969,-25.391,-38.086,-36.133,-59.082
1688815137.283,-58.594,-21.484,-36.621,-19.531,21.973
1688815137.286,-91.309,-30.273,-34.180,-24.414,-11.719
1688815137.290,-72.754,-33.203,-34.180,-51.270,-68.359
1688815137.294,-36.621,-33.203,-37.109,-47.852,139.648
1688815137.298,-35.156,-28.809,-36.621,-40.527,76.660
1688815137.302,-53.711,-21.484,-34.180,-36.133,-145.508
1688815137.301,-83.496,-24.902,-38.086,-28.809,-56.641
1688815137.305,-67.871,-28.809,-41.504,-43.457,-42.480
1688815137.309,-36.621,-31.738,-40.039,-49.316,-164.551
1688815137.313,-44.922,-33.691,-39.062,-42.969,-116.211
1688815137.317,-68.359,-36.621,-46.875,-33.691,67.383
1688815137.321,-94.238,-31.250,-49.805,-18.066,106.445
1688815137.325,-83.008,-25.391,-41.504,-31.250,17.090
1688815137.328,-50.293,-29.785,-43.945,-48.340,-99.121
1688815137.332,-45.410,-33.691,-48.340,-37.598,-10.742
1688815137.336,-62.500,-31.250,-41.992,-21.973,366.211
1688815137.340,-94.727,-26.855,-38.086,-20.020,246.094
1688815137.344,-88.867,-28.809,-34.180,-43.457,-125.977
1688815137.349,-52.246,-27.832,-34.668,-51.270,-96.680
1688815137.353,-33.691,-23.438,-40.039,-35.156,-43.457
1688815137.357,-50.781,-26.855,-47.852,-34.668,-117.188
1688815137.361,-84.961,-29.297,-48.340,-26.367,-138.184
1688815137.365,-82.520,-31.250,-46.875,-41.992,-64.453
1688815137.369,-47.363,-30.762,-52.734,-56.152,-52.246
1688815137.373,-36.621,-33.203,-54.199,-27.832,-78.125
1688815137.376,-50.781,-39.551,-52.734,-24.902,-114.746
1688815137.380,-76.660,-39.551,-47.852,-12.207,107.910
1688815137.384,-79.590,-37.109,-42.969,-20.020,85.449
1688815137.388,-52.246,-32.715,-35.645,-45.898,-227.051
1688815137.392,-49.805,-31.738,-34.180,-30.762,-110.352
1688815137.393,-66.406,-30.273,-39.551,-29.785,-79.102
1688815137.397,-96.680,-30.273,-41.504,-25.879,-149.902
1688815137.401,-117.188,-31.738,-42.480,-33.691,-41.504
1688815137.405,-81.543,-30.273,-43.457,-58.594,9.277
1688815137.409,-50.781,-25.879,-38.574,-40.527,-34.180
1688815137.413,-49.805,-19.043,-34.668,-18.555,-54.199
1688815137.417,-68.848,-24.414,-35.156,-10.742,-67.383
1688815137.420,-82.520,-33.203,-37.109,-16.113,53.223
1688815137.424,-51.758,-35.156,-35.645,-33.691,308.105
1688815137.428,-17.090,-30.762,-33.691,-23.438,144.531
1688815137.432,-22.461,-27.832,-37.598,-21.484,-172.852
1688815137.436,-67.383,-30.762,-40.527,-22.949,-125.000
1688815137.452,-93.750,-31.738,-44.434,-22.461,-91.797
1688815137.456,-62.500,-29.785,-47.363,-41.504,-170.410
1688815137.460,-23.438,-30.273,-43.457,-37.598,-178.711
1688815137.464,-25.879,-30.762,-42.969,-21.484,-66.895
1688815137.468,-48.828,-31.250,-44.922,-15.625,21.484
1688815137.472,-76.660,-33.203,-47.852,-10.742,41.504
1688815137.476,-67.383,-36.621,-51.758,-35.156,-21.484
1688815137.479,-37.598,-36.621,-54.199,-46.387,153.809
1688815137.483,-38.086,-35.645,-51.270,-35.156,150.391
1688815137.487,-55.664,-32.227,-47.852,-31.250,-130.859
1688815137.491,-86.426,-28.809,-48.340,-26.367,15.137
1688815137.495,-81.543,-32.227,-55.664,-53.223,-5.859
1688815137.482,-43.945,-35.645,-62.988,-66.406,-179.688
1688815137.486,-43.945,-36.621,-59.570,-44.922,-169.922
1688815137.490,-73.242,-34.668,-57.129,-24.902,-92.285
1688815137.494,-94.238,-36.621,-59.570,-18.555,-13.672
1688815137.498,-73.730,-36.133,-56.641,-41.504,-86.426
1688815137.502,-36.133,-38.086,-51.270,-46.875,-47.363
1688815137.506,-37.109,-40.039,-47.852,-26.855,155.762
1688815137.509,-56.152,-37.598,-50.293,-18.066,172.852
1688815137.513,-82.520,-40.527,-53.223,-11.230,-45.410
1688815137.517,-80.566,-39.551,-48.828,-25.879,-180.176
1688815137.521,-37.598,-34.180,-46.387,-38.574,-20.996
1688815137.525,-20.508,-36.621,-48.340,-21.484,164.062
1688815137.528,-29.297,-37.598,-45.410,-18.066,-131.348
1688815137.532,-51.270,-38.086,-43.945,-22.949,-250.488
1688815137.536,-63.477,-38.086,-42.480,-41.504,-29.297
1688815137.540,-39.551,-33.691,-41.992,-57.617,-26.367
1688815137.544,-25.391,-33.203,-48.340,-51.270,-212.891
1688815137.548,-30.273,-29.785,-46.387,-45.898,-70.312
1688815137.552,-60.059,-31.738,-44.434,-26.855,243.652
1688815137.555,-80.078,-34.668,-45.898,-36.621,95.703
1688815137.559,-52.246,-37.598,-45.898,-62.500,-224.121
1688815137.563,-34.668,-38.574,-46.387,-37.109,-135.742
1688815137.567,-48.828,-32.227,-44.434,-18.555,46.387
1688815137.571,-83.008,-29.297,-45.410,-24.902,-55.664
1688815137.571,-99.609,-36.133,-46.387,-39.062,-151.367
1688815137.575,-64.453,-35.645,-46.875,-53.223,-153.320
1688815137.579,-42.969,-34.180,-48.340,-37.109,-129.883
1688815137.583,-62.012,-38.574,-47.363,-28.809,-141.113
1688815137.587,-85.938,-38.574,-46.875,-25.391,-71.289
1688815137.591,-97.656,-39.062,-43.457,-23.926,182.129
1688815137.595,-67.871,-35.156,-41.504,-35.645,364.746
1688815137.598,-34.180,-34.668,-44.922,-33.203,115.234
1688815137.602,-35.156,-35.156,-48.340,-28.809,-152.832
1688815137.606,-71.777,-32.227,-47.363,-21.484,-63.965
1688815137.610,-99.121,-32.715,-48.340,-24.902,-52.246
1688815137.614,-72.754,-33.691,-47.363,-55.176,-122.559
1688815137.619,-40.039,-30.762,-43.457,-54.199,-62.988
1688815137.623,-37.598,-30.273,-38.574,-36.133,-20.020
1688815137.627,-63.477,-28.809,-41.016,-30.273,-124.512
1688815137.631,-96.191,-30.273,-41.504,-18.555,-136.230
1688815137.635,-84.961,-35.156,-41.504,-46.387,-81.055
1688815137.639,-54.199,-33.203,-43.457,-51.758,-34.180
1688815137.643,-50.781,-25.879,-39.062,-27.832,42.969
1688815137.646,-76.172,-29.785,-38.574,-26.855,-40.039
1688815137.650,-103.516,-33.203,-42.480,-33.691,-130.859
1688815137.654,-71.777,-28.809,-41.016,-53.711,-67.871
1688815137.658,-20.508,-29.297,-43.945,-61.035,-90.820
1688815137.662,-6.836,-31.738,-43.457,-52.734,-170.410
1688815137.678,-9.277,-35.156,-39.551,-40.527,-29.297
1688815137.682,-23.926,-33.691,-39.551,-23.438,73.242
1688815137.686,-21.973,-36.133,-41.016,-50.781,-57.129
1688815137.690,3.418,-39.062,-40.039,-57.129,-100.586
1688815137.694,7.324,-36.133,-35.645,-29.785,-53.223
1688815137.698,-12.207,-32.227,-38.574,-28.809,258.301
1688815137.702,-53.223,-37.109,-43.457,-28.320,197.754
1688815137.705,-57.617,-43.945,-44.434,-54.688,-157.715
1688815137.709,-15.625,-40.527,-42.969,-64.453,-62.500
1688815137.713,-2.930,-37.109,-42.480,-28.320,-59.082
1688815137.717,-19.043,-40.527,-46.387,-31.250,-232.422
1688815137.721,-48.828,-44.434,-47.852,-25.879,-121.582
1688815137.722,-56.152,-41.504,-49.805,-29.785,-38.574
1688815137.726,-18.555,-36.621,-50.781,-55.664,-91.309
1688815137.730,-0.977,-35.645,-53.711,-46.387,-85.449
1688815137.734,-17.090,-34.180,-55.176,-41.992,-61.523
1688815137.738,-42.480,-33.691,-52.246,-30.273,-12.695
1688815137.742,-53.223,-38.574,-51.758,-43.945,-0.488
1688815137.746,-20.020,-41.992,-49.805,-62.988,-56.152
1688815137.749,2.930,-39.062,-47.363,-49.805,-72.754
1688815137.753,-17.090,-39.551,-46.387,-38.574,126.953
1688815137.757,-51.758,-40.039,-47.852,-22.461,178.711
1688815137.761,-67.871,-33.203,-45.410,-37.109,-141.113
1688815137.765,-35.156,-28.809,-40.039,-55.664,-191.895
1688815137.766,-11.719,-26.855,-36.621,-43.457,-163.086
1688815137.770,-36.133,-29.785,-38.574,-43.945,-204.590
1688815137.774,-75.195,-34.668,-43.457,-36.621,-204.590
1688815137.778,-100.098,-35.645,-41.016,-28.809,83.496
1688815137.782,-70.801,-30.762,-39.062,-52.734,138.672
1688815137.786,-42.480,-33.691,-44.434,-50.293,-49.316
1688815137.790,-41.992,-31.250,-42.969,-39.551,1.465
1688815137.793,-64.453,-28.320,-39.551,-32.227,143.555
1688815137.797,-99.609,-34.180,-39.551,-20.508,356.445
1688815137.801,-79.102,-34.668,-38.574,-48.340,29.297
1688815137.805,-47.363,-36.621,-42.480,-56.641,-272.949
1688815137.809,-51.270,-41.992,-45.898,-45.898,-126.953
1688815137.813,-72.754,-39.551,-43.457,-38.574,-139.648
1688815137.817,-99.121,-34.180,-40.039,-31.250,-200.195
1688815137.821,-95.215,-36.621,-41.992,-62.500,-83.496
1688815137.825,-64.453,-35.156,-38.086,-59.570,-66.895
1688815137.829,-47.852,-32.227,-31.738,-35.156,-172.363
1688815137.833,-63.965,-32.715,-32.715,-28.320,-129.883
1688815137.837,-94.238,-34.180,-36.621,-28.320,75.684
1688815137.840,-74.707,-31.738,-39.062,-42.480,229.980
1688815137.844,-31.738,-25.391,-43.457,-41.504,55.176
1688815137.848,-36.133,-24.902,-39.551,-29.297,-136.719
1688815137.852,-55.664,-22.461,-37.598,-19.531,-17.090
1688815137.856,-83.984,-22.461,-41.992,-16.113,109.863
1688815137.856,-83.008,-26.855,-39.062,-40.527,-28.320
1688815137.860,-37.109,-23.926,-37.109,-56.641,-129.395
1688815137.864,-20.020,-23.438,-38.086,-43.945,-20.508
1688815137.868,-37.598,-27.832,-40.527,-38.574,29.297
1688815137.872,-61.035,-28.809,-43.945,-27.344,-7.324
1688815137.876,-51.758,-28.809,-42.480,-44.922,-94.727
1688815137.880,-9.766,-31.738,-41.016,-56.152,-13.184
1688815137.883,7.812,-33.203,-42.480,-33.203,263.184
1688815137.887,-9.277,-32.715,-43.945,-30.762,67.871
1688815137.891,-36.133,-34.668,-47.363,-25.879,-91.309
1688815137.895,-39.551,-33.203,-49.805,-39.551,-92.285
1688815137.899,-20.020,-35.645,-48.828,-69.336,-162.109
1688815137.904,-2.930,-35.645,-47.363,-64.941,-118.164
1688815137.908,-5.371,-34.180,-46.387,-56.152,-134.766
1688815137.912,-36.133,-33.203,-47.363,-32.715,-16.113
1688815137.916,-50.293,-33.691,-48.828,-42.969,-27.344
1688815137.920,-17.578,-40.039,-49.805,-73.730,-260.742
1688815137.924,3.418,-44.434,-52.734,-52.734,-127.441
1688815137.928,-1.953,-42.969,-54.688,-22.949,172.852
1688815137.931,-23.438,-38.086,-49.805,-10.742,79.590
1688815137.935,-37.598,-37.598,-48.828,-27.832,-136.719
1688815137.939,-6.836,-39.062,-54.199,-54.199,-150.391
1688815137.943,10.742,-41.992,-50.293,-48.340,-73.242
1688815137.947,-6.348,-44.434,-47.363,-40.039,-115.723
1688815137.947,-32.715,-46.387,-46.387,-25.391,-152.832
1688815137.951,-55.664,-47.363,-48.340,-24.902,-5.859
1688815137.955,-36.621,-46.387,-50.293,-49.805,-27.832
1688815137.959,-9.277,-46.387,-43.457,-43.457,-188.477
1688815137.963,-2.930,-44.922,-38.574,-17.578,-129.395
1688815137.967,-21.484,-39.062,-42.480,4.395,111.328
1688815137.971,-54.199,-32.715,-46.875,-7.812,525.879
1688815137.974,-40.039,-22.949,-51.270,-54.199,231.934
1688815137.978,-3.418,-17.578,-57.129,-49.805,-236.816
1688815137.982,-11.230,-20.020,-69.336,-48.828,-158.203
1688815137.986,-31.738,-13.184,-78.613,-48.340,-160.645
1688815137.990,-57.129,-8.789,-86.426,-42.480,-211.426
1688815138.006,-35.645,-11.719,-93.262,-72.754,-198.242
1688815138.010,17.090,1.465,-90.820,-66.895,-186.035
1688815138.014,16.602,8.301,-94.727,-55.176,-164.551
1688815138.018,1.953,8.789,-102.539,-46.387,-152.344
1688815138.022,-9.766,16.113,-104.004,-45.898,-111.816
1688815138.026,9.277,18.555,-104.492,-72.266,214.844
1688815138.030,34.668,20.020,-108.887,-79.102,229.980
1688815138.033,43.457,24.902,-111.816,-65.918,-98.633
1688815138.037,43.945,35.156,-116.211,-60.547,-87.402
1688815138.041,9.766,41.504,-119.141,-47.852,57.129
1688815138.045,19.531,44.922,-119.141,-66.406,-43.945
1688815138.049,70.801,53.223,-113.770,-78.125,-186.035
1688815138.052,67.871,57.617,-114.258,-64.453,-93.750
1688815138.056,28.809,50.781,-114.258,-61.523,-92.773
1688815138.060,-7.324,48.828,-113.770,-48.828,-131.348
1688815138.064,-12.207,51.270,-118.652,-67.871,-68.848
1688815138.068,13.672,53.223,-117.676,-81.543,81.055
1688815138.072,14.160,51.758,-114.746,-65.918,201.660
1688815138.076,-1.465,45.410,-116.699,-63.965,29.785
1688815138.079,-24.902,45.410,-115.234,-53.711,-75.195
1688815138.083,-31.250,42.480,-111.328,-60.547,70.312
1688815138.087,-1.953,36.133,-109.375,-83.008,198.242
1688815138.091,12.207,33.203,-101.562,-73.242,-56.641
1688815138.095,-9.277,32.227,-95.215,-53.711,-146.484
1688815138.098,-50.293,31.250,-94.238,-44.434,-62.500
1688815138.102,-64.453,26.855,-93.262,-52.734,-94.238
1688815138.106,-33.203,22.949,-95.215,-69.336,-170.898
1688815138.110,-25.879,16.602,-96.191,-62.012,-164.062
1688815138.114,-41.992,9.277,-91.309,-60.547,-93.262
1688815138.118,-62.988,6.836,-82.031,-55.664,28.320
1688815138.122,-82.031,7.324,-79.102,-54.199,77.637
1688815138.125,-51.758,10.742,-76.172,-70.801,-118.652
1688815138.129,-10.254,9.766,-70.801,-44.434,150.391
1688815138.133,-14.648,9.766,-73.242,-40.039,264.648
1688815138.137,-47.363,8.301,-75.684,-47.852,-79.102
1688815138.141,-71.777,5.859,-68.359,-41.504,-46.875
1688815138.141,-50.781,2.930,-69.336,-68.848,-28.320
1688815138.145,-18.066,-1.953,-71.777,-67.383,-112.305
1688815138.149,-16.602,-4.395,-66.895,-56.152,-129.395
1688815138.153,-36.621,-6.348,-65.430,-45.898,7.324
1688815138.157,-72.754,-7.812,-67.383,-37.109,112.305
1688815138.161,-47.852,-3.906,-66.895,-68.359,-24.414
1688815138.165,-5.371,-2.930,-63.477,-63.477,-150.879
1688815138.168,-7.812,-6.348,-59.082,-41.016,-28.809
1688815138.172,-28.320,-11.230,-57.617,-34.180,237.793
1688815138.176,-48.828,-14.648,-60.547,-30.273,53.711
1688815138.180,-29.785,-17.578,-57.617,-65.430,-201.172
1688815138.184,4.395,-17.578,-54.688,-72.266,-148.926
1688815138.188,0.977,-20.020,-56.641,-53.223,-158.203
1688815138.192,-13.672,-18.066,-54.199,-44.922,-130.859
1688815138.196,-35.156,-13.672,-49.805,-33.691,-59.570
1688815138.200,-33.691,-15.137,-49.805,-53.223,-110.840
1688815138.204,-7.324,-19.043,-50.781,-55.664,-185.547
1688815138.208,-7.324,-21.484,-49.805,-33.203,-168.945
1688815138.212,-33.203,-19.531,-54.199,-42.969,20.996
1688815138.215,-72.266,-20.508,-52.246,-35.156,291.504
1688815138.219,-60.059,-21.484,-44.434,-46.387,140.625
1688815138.223,-14.648,-21.484,-48.340,-64.453,-146.973
1688815138.227,-15.137,-21.973,-49.805,-55.664,-61.035
1688815138.231,-28.320,-23.926,-48.828,-55.664,-21.484
1688815138.262,-59.082,-21.973,-46.387,-41.992,-41.992
1688815138.266,-84.473,-26.367,-45.898,-53.223,-15.625
1688815138.270,-58.105,-28.809,-43.945,-63.477,6.836
1688815138.274,-35.156,-21.484,-39.551,-45.898,89.844
1688815138.278,-54.688,-22.461,-41.504,-41.992,11.230
1688815138.282,-87.402,-28.320,-44.434,-29.785,-79.590
1688815138.286,-84.961,-26.367,-44.434,-34.668,131.348
1688815138.289,-51.758,-25.879,-40.039,-48.828,316.406
1688815138.293,-36.133,-28.809,-39.062,-44.434,43.945
1688815138.297,-44.434,-29.785,-38.574,-48.340,-151.855
1688815138.301,-66.406,-28.320,-37.598,-38.086,-37.598
1688815138.305,-82.520,-22.949,-36.621,-43.457,32.227
1688815138.281,-53.711,-23.438,-35.156,-62.988,-79.102
1688815138.285,-25.391,-24.902,-35.645,-45.410,-154.785
1688815138.289,-34.668,-23.438,-40.039,-34.180,-89.355
1688815138.293,-63.477,-26.367,-43.457,-37.598,-63.965
1688815138.297,-85.449,-31.250,-44.922,-51.758,-79.102
1688815138.301,-62.988,-30.762,-47.852,-69.824,-43.945
1688815138.305,-43.457,-27.832,-49.316,-61.035,65.430
1688815138.308,-52.734,-26.367,-50.781,-56.641,-57.617
1688815138.312,-71.777,-28.809,-48.828,-41.504,-133.301
1688815138.316,-90.332,-26.855,-43.457,-42.480,-17.090
1688815138.320,-69.336,-27.344,-45.410,-75.684,2.930
1688815138.324,-40.039,-33.691,-47.363,-65.918,-90.820
1688815138.321,-50.293,-31.738,-45.410,-51.758,-208.008
1688815138.325,-80.078,-32.715,-45.410,-42.480,-79.102
1688815138.329,-98.145,-32.227,-46.387,-32.715,99.121
1688815138.333,-83.496,-35.156,-48.340,-75.195,-93.750
1688815138.337,-56.641,-38.086,-44.434,-77.148,-169.434
1688815138.341,-47.852,-32.227,-38.574,-49.805,75.684
1688815138.345,-53.223,-31.250,-41.016,-42.480,383.301
1688815138.348,-73.730,-29.297,-42.480,-38.086,549.316
1688815138.352,-56.641,-24.902,-38.574,-75.195,203.125
1688815138.356,-23.438,-29.297,-39.551,-83.496,-197.266
1688815138.360,-15.137,-28.320,-39.062,-62.988,-176.758
1688815138.364,-40.527,-23.926,-40.527,-61.523,-181.152
1688815138.368,-73.730,-27.344,-40.039,-45.898,-106.934
1688815138.372,-47.852,-32.227,-35.645,-57.617,-132.324
1688815138.376,0.977,-31.250,-40.039,-63.477,-216.309
1688815138.380,21.484,-23.438,-38.086,-39.062,-240.234
1688815138.384,-0.488,-22.949,-39.062,-39.551,-174.316
1688815138.388,-44.922,-32.227,-49.805,-37.109,76.172
1688815138.392,-44.922,-41.016,-49.316,-46.387,126.953
1688815138.395,-6.836,-39.062,-46.875,-56.152,-58.594
1688815138.399,10.742,-39.062,-48.340,-43.945,-53.711
1688815138.403,-0.977,-37.598,-46.875,-28.320,169.922
1688815138.407,-37.598,-31.738,-48.340,-10.254,150.879
1688815138.411,-53.711,-35.645,-50.293,-32.715,-80.078
1688815138.442,-19.531,-40.527,-46.387,-58.594,-106.934
1688815138.446,-1.465,-37.109,-43.457,-35.156,-97.168
1688815138.450,-12.695,-37.598,-45.410,-27.832,-204.590
1688815138.454,-37.598,-37.598,-43.945,-34.180,-123.047
1688815138.458,-45.410,-39.062,-40.527,-41.016,185.059
1688815138.462,-15.625,-43.457,-38.086,-55.664,224.609
1688815138.466,-0.488,-41.016,-41.992,-52.734,-21.484
1688815138.469,-12.695,-40.527,-39.062,-43.945,-235.352
1688815138.473,-41.992,-44.434,-40.527,-29.785,-37.109
1688815138.477,-57.129,-47.852,-40.527,-38.086,93.262
1688815138.481,-16.602,-43.945,-34.668,-61.035,-143.066
1688815138.485,10.742,-41.992,-31.250,-47.852,-152.344
1688815138.472,1.465,-45.898,-34.180,-36.133,-75.195
1688815138.476,-23.926,-44.434,-37.598,-26.855,-19.531
1688815138.480,-43.457,-43.457,-36.133,-25.391,-82.031
1688815138.484,-20.508,-47.363,-36.133,-54.688,-149.414
1688815138.488,-0.977,-43.457,-36.133,-57.617,-151.367
1688815138.492,-17.090,-39.551,-35.645,-41.992,-128.906
1688815138.496,-58.105,-37.109,-34.668,-35.156,-101.074
1688815138.499,-87.891,-37.598,-39.551,-40.039,-46.875
1688815138.503,-54.688,-37.598,-39.551,-57.129,-42.480
1688815138.507,-28.809,-36.133,-41.504,-55.176,-119.629
1688815138.511,-39.551,-39.062,-44.434,-38.574,-142.578
1688815138.515,-65.918,-46.875,-39.551,-21.484,-13.672
1688815138.517,-86.914,-45.898,-41.992,-9.766,237.305
1688815138.521,-62.988,-41.016,-42.969,-35.156,62.012
1688815138.525,-22.461,-45.410,-37.109,-38.574,-234.863
1688815138.529,-17.090,-41.992,-39.551,-15.625,-29.785
1688815138.533,-39.551,-37.598,-48.340,-1.953,194.336
1688815138.537,-67.383,-39.551,-48.828,-7.812,64.453
1688815138.541,-44.922,-39.551,-46.875,-40.527,-153.320
1688815138.544,-7.324,-40.527,-46.875,-35.645,-40.527
1688815138.548,0.977,-39.062,-46.387,-13.672,152.832
1688815138.552,-2.930,-37.109,-43.457,-9.277,-135.254
1688815138.556,-30.762,-34.180,-38.574,-10.742,-143.555
1688815138.560,-23.926,-32.715,-35.645,-41.992,-24.902
1688815138.563,13.184,-38.086,-39.062,-53.223,-117.188
1688815138.567,26.855,-40.039,-42.480,-27.344,-137.695
1688815138.571,2.441,-41.504,-41.992,-17.090,-86.426
1688815138.575,-33.203,-40.527,-42.480,-11.719,3.906
1688815138.579,-17.090,-37.598,-41.504,-26.855,-12.207
1688815138.583,20.020,-41.016,-39.062,-41.016,-86.426
1688815138.587,28.320,-39.062,-37.109,-17.578,35.156
1688815138.590,16.113,-30.273,-40.039,-5.371,135.254
1688815138.594,-19.531,-28.320,-40.039,2.930,45.410
1688815138.598,-30.762,-28.809,-38.574,-15.137,-151.367
1688815138.602,1.953,-30.762,-49.805,-39.062,-113.770
1688815138.606,31.738,-28.320,-57.129,-10.742,42.969
1688815138.607,31.250,-31.738,-45.410,4.883,-65.430
1688815138.611,-25.391,-47.852,-33.691,-6.836,-119.141
1688815138.615,-65.918,-53.223,-34.180,-31.738,29.785
1688815138.619,-46.387,-56.152,-26.855,-55.176,83.984
1688815138.623,-44.922,-63.965,-11.230,-48.340,-47.363
1688815138.627,-79.590,-69.336,-2.930,-51.758,-81.543
1688815138.631,-132.812,-75.684,1.465,-48.828,90.332
1688815138.634,-158.203,-74.707,12.207,-52.246,451.660
1688815138.638,-141.113,-78.125,16.602,-90.332,267.090
1688815138.642,-126.953,-87.891,20.020,-87.402,-131.836
1688815138.646,-149.902,-100.586,28.809,-94.727,-144.043
1688815138.650,-192.871,-107.910,30.273,-100.586,-123.535
1688815138.653,-222.656,-114.258,35.156,-95.703,-101.562
1688815138.657,-208.984,-118.652,37.109,-126.953,-123.047
1688815138.661,-188.965,-119.141,41.504,-122.559,-124.512
1688815138.665,-199.219,-124.512,42.969,-102.539,-166.504
1688815138.669,-218.262,-126.465,43.457,-84.961,-135.742
1688815138.673,-238.770,-131.348,50.293,-82.520,-13.184
1688815138.677,-210.449,-125.977,52.246,-99.609,180.176
1688815138.680,-181.152,-127.441,52.246,-106.934,84.961
1688815138.684,-176.758,-131.836,47.363,-106.934,-148.438
1688815138.688,-178.223,-125.977,46.387,-87.891,-97.168
1688815138.692,-194.824,-118.164,43.457,-78.613,37.109
1688815138.696,-167.480,-114.746,36.133,-104.004,-56.152
1688815138.696,-124.512,-115.723,29.785,-103.027,-160.156
1688815138.700,-115.723,-104.004,24.414,-75.684,-57.617
1688815138.704,-124.512,-94.727,22.949,-63.965,-30.762
1688815138.708,-142.090,-95.215,20.020,-53.711,-39.062
1688815138.712,-104.492,-87.891,14.648,-68.359,-127.441
1688815138.716,-49.316,-80.566,10.254,-67.383,44.434
1688815138.720,-39.551,-81.543,1.465,-41.016,325.684
1688815138.723,-48.828,-81.055,-0.488,-31.250,35.156
1688815138.727,-83.496,-78.613,-6.348,-23.438,-154.297
1688815138.731,-74.219,-77.637,-10.742,-44.922,56.152
1688815138.735,-35.156,-72.266,-7.324,-51.270,167.480
1688815138.739,-33.203,-69.824,-8.789,-38.574,-85.938
1688815138.744,-55.176,-71.777,-13.184,-30.273,-188.965
1688815138.748,-79.590,-68.359,-15.137,-10.742,-14.160
1688815138.752,-63.477,-60.059,-14.160,-30.762,20.508
1688815138.756,-18.555,-53.223,-15.137,-45.410,-204.102
1688815138.760,-6.348,-52.734,-17.090,-23.926,-145.020
1688815138.764,-15.625,-54.199,-22.949,-25.391,8.301
1688815138.768,-36.133,-53.223,-29.297,-17.578,-7.812
1688815138.771,-40.039,-50.293,-27.344,-23.926,-82.520
1688815138.775,0.977,-48.340,-30.273,-45.410,-170.410
1688815138.779,16.113,-47.852,-35.645,-25.879,9.277
1688815138.783,0.977,-47.363,-31.250,-20.020,0.000
1688815138.787,-30.762,-50.293,-30.762,-18.555,-97.168
1688815138.801,-60.059,-54.199,-33.203,-24.414,45.898
1688815138.805,-32.227,-50.781,-31.250,-49.316,35.645
1688815138.809,-10.254,-49.805,-30.762,-49.805,-117.188
1688815138.813,-33.691,-51.758,-35.156,-54.199,-151.367
1688815138.817,-68.848,-50.781,-38.086,-42.480,-15.137
1688815138.821,-88.379,-53.223,-37.109,-23.926,370.117
1688815138.825,-57.129,-54.199,-36.133,-49.805,219.727
1688815138.828,-24.414,-51.270,-33.203,-46.875,-168.945
1688815138.832,-21.973,-49.805,-31.250,-20.508,-70.801
1688815138.836,-50.293,-45.410,-35.645,-19.531,19.531
1688815138.840,-65.430,-38.574,-36.133,-26.367,-128.418
1688815138.844,-38.086,-36.621,-31.738,-45.898,-173.828
1688815138.861,-17.578,-41.016,-30.273,-41.016,-191.406
1688815138.865,-18.555,-44.434,-29.297,-26.855,-248.047
1688815138.869,-42.480,-44.434,-31.250,-21.484,-119.141
1688815138.873,-74.707,-46.387,-29.297,-14.648,16.113
1688815138.877,-48.828,-46.387,-30.762,-38.574,-66.406
1688815138.881,-12.695,-41.016,-32.715,-35.645,-30.273
1688815138.885,-18.555,-39.551,-31.738,-20.508,-58.594
1688815138.888,-46.387,-37.598,-32.715,-20.020,-170.410
1688815138.892,-83.496,-38.086,-30.762,-3.418,147.949
1688815138.896,-71.289,-38.086,-30.273,-26.855,162.598
1688815138.900,-28.809,-35.156,-32.227,-39.062,-171.875
1688815138.904,-15.625,-35.645,-28.320,-14.648,-125.977
1688815138.891,-40.039,-39.062,-31.250,-21.973,-109.863
1688815138.895,-76.660,-42.969,-37.598,-31.250,-132.812
1688815138.899,-60.547,-42.969,-36.133,-54.199,-165.527
1688815138.903,-21.484,-48.828,-42.969,-66.406,-19.043
1688815138.907,-18.555,-47.852,-50.781,-55.176,48.340
1688815138.911,-41.504,-41.504,-44.434,-53.711,-52.734
1688815138.915,-73.730,-40.039,-39.551,-42.480,-50.781
1688815138.918,-64.453,-33.203,-40.527,-61.523,94.238
1688815138.922,-34.180,-33.691,-45.410,-73.242,172.852
1688815138.926,-33.203,-39.551,-46.875,-51.758,-62.012
1688815138.930,-50.293,-37.598,-43.457,-41.016,-190.430
1688815138.934,-84.961,-39.062,-41.016,-29.785,107.422
1688815138.938,-82.031,-44.434,-41.504,-45.898,169.922
1688815138.942,-38.086,-44.922,-40.039,-61.035,-179.688
1688815138.946,-20.996,-42.480,-39.551,-50.293,-170.410
1688815138.950,-25.879,-40.039,-40.039,-42.969,-176.758
1688815138.954,-50.293,-41.016,-38.574,-31.250,-151.855
1688815138.958,-56.641,-44.434,-39.062,-59.570,21.973
1688815138.962,-17.090,-46.387,-41.016,-90.820,-60.059
1688815138.965,8.301,-46.875,-39.551,-59.570,164.551
1688815138.969,-1.465,-41.992,-38.086,-41.992,278.320
1688815138.973,-33.691,-37.109,-41.504,-38.086,-65.918
1688815138.977,-44.922,-37.109,-47.363,-44.434,-81.055
1688815138.981,-7.812,-35.645,-43.457,-59.570,-65.918
1688815138.981,18.066,-38.086,-41.504,-36.133,-127.930
1688815138.985,7.812,-40.527,-41.992,-22.461,-92.285
1688815138.989,-21.973,-41.504,-40.527,-9.277,-27.832
1688815138.993,-37.109,-39.551,-40.039,-12.207,-3.418
1688815138.997,-11.719,-36.133,-39.551,-38.086,-69.336
1688815139.001,7.812,-32.227,-42.480,-29.297,-145.508
1688815139.005,5.371,-31.250,-41.016,-18.066,26.367
1688815139.008,-20.996,-31.250,-38.574,-4.395,326.660
1688815139.012,-50.293,-30.273,-43.457,-14.160,137.695
1688815139.016,-22.949,-28.809,-43.945,-51.758,-172.363
1688815139.020,9.766,-28.809,-41.992,-41.016,-44.434
1688815139.024,3.906,-27.344,-42.480,-28.809,-78.613
1688815139.028,-20.508,-27.832,-41.992,-34.180,-177.246
1688815139.032,-51.758,-29.785,-42.969,-35.156,-99.609
1688815139.036,-34.668,-24.414,-43.945,-55.664,-79.102
1688815139.040,-17.578,-25.391,-39.551,-57.129,-122.070
1688815139.044,-32.227,-30.762,-38.574,-33.203,-135.254
1688815139.048,-58.594,-27.832,-36.621,-19.043,30.762
1688815139.052,-96.680,-32.715,-36.621,-11.230,303.711
1688815139.055,-87.402,-34.668,-45.410,-33.691,182.617
1688815139.059,-56.152,-32.227,-47.852,-44.922,-151.855
1688815139.063,-54.688,-35.156,-45.898,-33.691,-141.602
1688815139.067,-73.730,-33.691,-45.898,-24.902,-90.820
1688815139.071,-111.328,-36.133,-51.758,-17.578,-49.805
1688815139.087,-95.703,-36.621,-52.246,-42.480,-93.262
1688815139.091,-50.781,-39.551,-48.828,-54.199,-91.309
1688815139.095,-52.734,-40.527,-48.828,-36.133,-20.996
1688815139.099,-73.242,-35.156,-48.340,-28.320,-83.984
1688815139.103,-104.492,-33.691,-51.270,-20.020,-93.262
1688815139.107,-101.562,-33.203,-53.223,-37.598,33.691
1688815139.111,-62.988,-29.785,-49.316,-46.875,314.453
1688815139.114,-54.688,-25.879,-51.758,-39.551,105.469
1688815139.118,-68.359,-28.809,-49.316,-41.016,-162.109
1688815139.122,-98.145,-35.645,-41.992,-30.762,-100.586
1688815139.126,-101.074,-38.574,-43.457,-51.270,-127.441
1688815139.130,-62.012,-37.598,-43.457,-62.988,-168.457
1688815139.119,-42.969,-35.645,-43.945,-41.504,-214.844
1688815139.123,-50.781,-34.180,-49.805,-37.598,-181.152
1688815139.127,-77.637,-31.738,-48.340,-25.879,-35.156
1688815139.131,-86.914,-34.180,-47.852,-35.156,-91.309
1688815139.135,-42.480,-33.691,-47.363,-57.129,-181.152
