timestamps,TP9,AF7,AF8,TP10,Right AUX
1688815021.862,-108.887,-29.785,-20.508,-86.426,162.598
1688815021.866,-97.656,-28.809,-21.484,-67.383,100.098
1688815021.870,-110.840,-29.785,-23.438,-70.312,-108.398
1688815021.874,-150.391,-32.715,-25.879,-73.242,-32.227
1688815021.878,-138.184,-28.320,-22.949,-91.797,-65.430
1688815021.882,-81.055,-29.297,-19.531,-95.215,-73.730
1688815021.886,-70.312,-29.785,-19.531,-81.543,-40.039
1688815021.889,-90.820,-31.738,-19.043,-71.777,81.543
1688815021.893,-123.047,-37.598,-22.461,-62.988,140.625
1688815021.897,-116.699,-39.551,-23.438,-82.520,-107.910
1688815021.901,-66.406,-39.062,-22.949,-95.215,-204.590
1688815021.905,-45.410,-36.621,-24.414,-75.195,-113.770
1688815021.908,83.496,-30.762,-23.926,-84.473,-19.043
1688815021.912,118.652,-33.691,-20.996,-72.754,-206.543
1688815021.916,115.723,-35.156,-24.414,-58.594,-74.707
1688815021.920,105.469,-33.691,-25.391,-39.551,22.949
1688815021.909,92.773,-29.297,-24.902,-43.945,-37.109
1688815021.913,121.582,-29.297,-27.832,-74.707,-152.344
1688815021.917,159.180,-30.273,-27.344,-58.594,-52.734
1688815021.921,156.738,-29.297,-24.902,-45.410,152.832
1688815021.925,124.512,-29.785,-21.973,-51.758,-23.438
1688815021.929,92.285,-29.785,-19.043,-49.805,-45.410
1688815021.933,112.305,-30.762,-20.508,-63.477,113.770
1688815021.936,147.461,-28.320,-16.113,-58.105,105.957
1688815021.940,142.578,-25.879,-16.113,-41.992,-20.508
1688815021.944,113.281,-24.902,-20.020,-39.551,-132.812
1688815021.948,78.613,-25.879,-21.484,-35.156,-39.551
1688815021.952,95.215,-22.949,-23.926,-45.410,219.238
1688815021.938,127.441,-22.461,-21.973,-45.410,21.484
1688815021.942,123.047,-23.438,-21.484,-29.785,-208.984
1688815021.946,98.145,-28.320,-22.461,-27.832,55.176
1688815021.950,62.500,-29.297,-21.973,-19.531,236.328
1688815021.954,75.684,-28.809,-23.438,-43.945,-138.672
1688815021.958,108.398,-36.133,-28.809,-54.688,-97.168
1688815021.962,105.469,-35.156,-30.273,-36.133,229.980
1688815021.965,77.637,-33.203,-32.715,-41.016,51.270
1688815021.969,31.738,-34.180,-33.203,-47.363,-142.090
1688815021.973,31.738,-33.691,-24.902,-60.059,-154.297
1688815021.977,63.477,-35.156,-24.902,-58.594,107.422
1688815021.981,70.312,-36.621,-26.367,-37.598,346.680
1688815021.980,57.129,-32.715,-25.391,-41.504,45.898
1688815021.984,7.812,-28.320,-32.227,-41.504,-64.453
1688815021.988,-4.395,-31.738,-34.668,-46.875,-54.199
1688815021.992,32.715,-38.086,-34.668,-57.617,-265.625
1688815021.996,46.875,-33.203,-32.715,-37.598,-283.691
1688815022.000,38.086,-31.738,-31.738,-25.391,-44.434
1688815022.004,14.160,-32.715,-27.344,-21.973,199.219
1688815022.007,9.766,-30.273,-23.438,-45.410,-0.977
1688815022.011,44.922,-33.691,-29.297,-64.453,-162.598
1688815022.015,67.871,-37.598,-28.320,-50.781,-52.246
1688815022.019,63.477,-35.156,-26.367,-46.387,-107.422
1688815022.023,30.762,-30.762,-29.785,-43.945,-171.875
1688815022.040,14.648,-34.180,-26.367,-51.758,-209.961
1688815022.044,54.688,-35.156,-29.297,-60.059,-84.473
1688815022.048,78.613,-30.273,-34.668,-41.992,95.703
1688815022.052,65.430,-30.273,-29.297,-37.109,-145.020
1688815022.056,33.203,-33.691,-24.902,-43.945,-223.145
1688815022.060,12.207,-38.086,-24.414,-56.152,-41.504
1688815022.064,44.434,-34.180,-24.902,-69.824,-68.848
1688815022.067,64.941,-31.738,-28.320,-62.500,-149.414
1688815022.071,55.176,-31.250,-26.367,-59.082,-77.637
1688815022.075,25.391,-29.785,-26.367,-58.594,-63.965
1688815022.079,-0.977,-28.809,-28.809,-70.801,-88.867
1688815022.083,26.367,-32.227,-27.832,-105.469,-163.574
1688815022.086,55.176,-37.109,-32.715,-114.258,-69.336
1688815022.090,51.758,-37.109,-32.715,-109.375,268.555
1688815022.094,30.273,-31.738,-28.320,-114.746,107.910
1688815022.098,0.000,-29.785,-29.297,-134.277,-152.344
1688815022.102,22.949,-30.273,-28.320,-156.738,-113.770
1688815022.106,60.059,-26.855,-20.996,-139.648,-72.754
1688815022.110,54.199,-27.832,-20.996,-118.652,-47.852
1688815022.113,29.785,-27.344,-25.391,-114.746,-45.410
1688815022.117,-2.930,-28.809,-22.461,-114.746,109.863
1688815022.121,5.859,-35.156,-20.996,-139.160,292.480
1688815022.125,45.410,-34.180,-22.949,-149.414,3.906
1688815022.129,49.316,-31.250,-24.414,-147.949,-239.258
1688815022.131,20.996,-35.645,-29.785,-152.344,-53.711
1688815022.135,-18.066,-40.527,-33.203,-146.973,-33.691
1688815022.139,-13.184,-41.504,-30.762,-168.945,-174.805
1688815022.143,26.855,-38.574,-30.762,-172.852,-128.906
1688815022.147,33.691,-39.062,-34.668,-149.414,23.926
1688815022.151,19.531,-36.133,-33.203,-142.578,35.645
1688815022.155,-11.719,-35.156,-28.320,-134.766,-23.926
1688815022.158,-9.766,-35.156,-31.250,-148.926,-48.828
1688815022.162,31.250,-31.738,-32.715,-145.996,108.887
1688815022.166,41.504,-27.344,-31.250,-124.023,56.641
1688815022.170,20.020,-28.809,-32.227,-130.859,-187.988
1688815022.174,-20.020,-32.227,-29.785,-127.930,-104.004
1688815022.175,-27.832,-30.762,-29.297,-137.695,-54.688
1688815022.179,15.137,-28.809,-29.297,-139.160,-135.254
1688815022.183,29.297,-24.414,-27.344,-120.117,-72.754
1688815022.187,11.719,-23.438,-25.391,-115.234,108.398
1688815022.191,-26.367,-28.809,-24.902,-114.258,25.879
1688815022.195,-42.480,-33.203,-30.762,-125.488,-89.844
1688815022.199,-3.418,-33.691,-34.180,-129.395,-46.387
1688815022.202,12.207,-31.738,-31.250,-104.004,148.926
1688815022.206,-6.836,-32.715,-24.414,-93.262,217.285
1688815022.210,-47.852,-36.621,-21.973,-98.145,-118.164
1688815022.214,-81.055,-35.156,-23.438,-111.816,-194.824
1688815022.218,-55.664,-32.715,-20.996,-119.629,28.320
1688815022.220,-39.062,-35.645,-25.391,-94.727,33.203
1688815022.224,-51.270,-38.086,-25.391,-97.656,-189.941
1688815022.228,-85.449,-37.109,-23.926,-100.586,-139.160
1688815022.232,-122.559,-35.156,-27.344,-100.098,-84.961
1688815022.236,-104.492,-35.156,-25.391,-121.094,-145.020
1688815022.240,-90.332,-37.109,-24.902,-119.629,-115.723
1688815022.244,-111.816,-40.039,-29.297,-114.258,-64.453
1688815022.247,-136.719,-40.527,-30.273,-113.281,275.391
1688815022.251,-148.926,-37.109,-26.367,-119.629,303.223
1688815022.255,-117.676,-32.715,-25.391,-136.230,-163.086
1688815022.259,-90.820,-29.297,-27.344,-123.535,-112.305
1688815022.263,-97.656,-29.785,-25.391,-117.188,-56.152
1688815022.265,-120.117,-29.785,-20.508,-107.910,-69.336
1688815022.269,-155.273,-28.320,-20.508,-100.586,-73.730
1688815022.273,-128.418,-25.391,-18.555,-117.676,-130.371
1688815022.277,-84.473,-28.320,-16.602,-104.980,-94.238
1688815022.281,-83.008,-30.273,-14.160,-86.426,-100.586
1688815022.285,-96.191,-27.344,-13.672,-89.355,-99.609
1688815022.289,-129.883,-30.762,-20.020,-88.867,162.598
1688815022.292,-114.258,-34.668,-25.391,-105.957,349.609
1688815022.296,-71.289,-33.691,-23.438,-111.328,92.773
1688815022.300,-75.684,-33.203,-18.555,-98.145,-63.477
1688815022.304,-105.469,-34.180,-21.973,-99.609,75.195
1688815022.308,-145.508,-35.645,-24.902,-97.656,89.844
1688815022.310,-138.672,-38.574,-21.484,-110.840,-174.316
1688815022.314,-87.891,-33.203,-18.555,-110.840,-227.051
1688815022.318,-66.895,-29.785,-20.508,-84.961,-132.812
1688815022.322,-73.242,-30.273,-20.508,-71.777,-97.168
1688815022.326,-104.004,-28.320,-18.066,-62.500,-138.184
1688815022.330,-106.445,-26.855,-22.461,-79.590,-103.516
1688815022.334,-52.734,-24.414,-28.320,-73.242,162.598
1688815022.337,-26.855,-23.438,-22.461,-48.340,152.832
1688815022.341,-48.828,-24.414,-20.020,-51.758,-201.660
1688815022.345,-95.215,-28.809,-27.344,-41.504,-88.867
1688815022.349,-105.957,-34.180,-25.879,-45.898,88.867
1688815022.353,-67.871,-36.621,-23.926,-60.059,-161.621
1688815022.355,-53.223,-38.574,-23.926,-50.293,-209.961
1688815022.359,-63.965,-39.062,-23.438,-41.504,-36.621
1688815022.363,-92.285,-33.691,-20.508,-35.156,-31.738
1688815022.367,-103.027,-34.668,-20.508,-54.688,-125.000
1688815022.371,-58.594,-38.574,-20.020,-76.172,-200.195
1688815022.375,-20.996,-33.691,-14.160,-60.059,61.523
1688815022.379,-23.926,-32.715,-15.625,-56.641,249.023
1688815022.382,-46.387,-37.109,-13.184,-53.711,-36.621
1688815022.386,-73.242,-32.715,-16.113,-59.570,-152.832
1688815022.390,-51.270,-29.297,-22.461,-78.125,22.949
1688815022.394,-13.672,-33.691,-20.996,-55.664,138.672
1688815022.398,-9.766,-37.598,-22.461,-55.664,-90.332
1688815022.416,-39.551,-39.062,-24.902,-70.312,-112.793
1688815022.420,-62.500,-35.645,-21.484,-72.266,20.996
1688815022.424,-29.785,-40.527,-20.508,-88.379,-81.543
1688815022.428,0.977,-43.457,-19.531,-82.031,-197.266
1688815022.432,-0.977,-38.574,-17.578,-68.848,-132.812
1688815022.436,-21.484,-40.527,-18.555,-69.824,-26.367
1688815022.440,-52.734,-39.062,-19.043,-67.383,67.383
1688815022.443,-29.785,-37.109,-16.113,-81.543,-59.082
1688815022.447,8.301,-36.621,-19.531,-77.637,-109.375
1688815022.451,5.371,-35.156,-27.344,-58.105,100.098
1688815022.455,-15.137,-32.715,-24.414,-50.293,0.488
1688815022.459,-43.945,-32.227,-20.508,-56.152,-107.422
1688815022.462,-24.902,-32.227,-20.996,-78.125,-76.172
1688815022.466,16.602,-34.180,-20.020,-70.312,-93.750
1688815022.470,20.508,-40.527,-19.043,-47.852,-5.859
1688815022.474,-3.906,-41.504,-20.020,-44.434,18.555
1688815022.478,-47.363,-40.527,-22.949,-43.945,54.199
1688815022.482,-37.109,-37.109,-22.461,-59.570,84.961
1688815022.486,9.277,-31.738,-20.020,-57.617,-84.961
1688815022.489,15.625,-30.762,-19.043,-25.391,-89.844
1688815022.493,-5.859,-32.227,-17.090,-17.578,83.008
1688815022.497,-40.039,-32.227,-17.578,-7.812,339.355
1688815022.501,-31.738,-26.367,-12.207,-18.066,95.703
1688815022.505,12.207,-25.391,-10.742,-28.320,-201.660
1688815022.506,22.949,-29.297,-16.602,3.418,-121.582
1688815022.510,0.977,-33.203,-17.578,0.000,-130.371
1688815022.514,-39.062,-33.691,-21.973,-8.301,-145.508
1688815022.518,-55.176,-32.227,-20.508,-17.578,-83.984
1688815022.522,-35.645,-31.738,-16.113,-35.645,-83.984
1688815022.526,-41.992,-36.621,-20.508,-34.668,-81.055
1688815022.530,-74.707,-38.086,-22.461,-47.363,-41.016
1688815022.533,-134.766,-40.039,-23.438,-66.895,-16.602
1688815022.537,-186.035,-43.457,-25.879,-79.102,204.590
1688815022.541,-167.480,-38.574,-21.973,-85.938,171.875
1688815022.545,-155.762,-35.156,-18.066,-78.613,-138.184
1688815022.549,-182.129,-41.016,-21.484,-80.078,-118.164
1688815022.550,-227.539,-46.387,-26.855,-79.590,-51.270
1688815022.554,-253.906,-43.457,-24.902,-84.473,-86.426
1688815022.558,-209.473,-37.598,-24.902,-94.727,-141.113
1688815022.562,-158.203,-39.551,-28.320,-80.078,-125.977
1688815022.566,-152.344,-38.574,-21.973,-68.359,-121.094
1688815022.570,-175.781,-36.133,-17.578,-70.801,-85.938
1688815022.574,-190.918,-37.598,-22.461,-88.379,-77.148
1688815022.577,-154.297,-40.527,-25.879,-109.375,30.273
1688815022.581,-122.070,-42.969,-27.344,-85.449,413.086
1688815022.585,-133.789,-39.062,-27.832,-76.660,270.508
1688815022.589,-164.551,-37.109,-28.320,-88.379,-147.949
1688815022.593,-187.012,-36.621,-26.367,-90.820,-145.020
1688815022.595,-145.508,-34.180,-26.855,-108.398,-170.410
1688815022.599,-91.797,-34.180,-29.297,-101.074,-208.496
1688815022.603,-73.730,-33.691,-31.250,-89.844,-132.324
1688815022.607,-70.801,-31.250,-31.738,-85.449,-38.086
1688815022.611,-89.844,-33.203,-29.785,-86.426,-61.523
1688815022.615,-67.871,-34.668,-30.273,-119.141,-138.184
1688815022.619,-25.879,-31.250,-33.691,-122.070,-41.016
1688815022.622,-24.902,-29.785,-36.621,-101.562,166.992
1688815022.626,-40.527,-26.367,-39.551,-98.633,-13.672
1688815022.630,-72.266,-23.926,-40.527,-96.191,-168.945
1688815022.634,-66.895,-26.855,-36.133,-109.375,-80.078
1688815022.638,-33.203,-28.809,-35.645,-106.934,-70.312
1688815022.640,-25.391,-28.320,-39.551,-99.121,-146.973
1688815022.644,-33.203,-30.762,-35.645,-97.168,-176.270
1688815022.648,-67.383,-33.691,-36.621,-86.914,-69.824
1688815022.652,-62.988,-30.762,-34.180,-96.191,-122.559
1688815022.656,-17.578,-25.879,-25.391,-87.402,-155.273
1688815022.660,-19.043,-26.367,-29.297,-65.430,-65.918
1688815022.664,-42.969,-27.344,-30.762,-60.547,136.719
1688815022.667,-71.777,-29.785,-26.855,-36.621,385.254
1688815022.671,-76.660,-30.273,-24.902,-48.340,125.000
1688815022.675,-35.645,-31.738,-27.832,-65.918,-107.422
1688815022.679,-2.441,-32.227,-29.297,-42.480,-6.348
1688815022.683,-4.883,-33.203,-31.250,-31.738,-37.109
1688815022.687,-34.668,-36.133,-30.762,-32.227,-109.863
1688815022.691,-33.203,-32.715,-24.902,-41.992,-110.352
1688815022.695,14.160,-31.738,-23.926,-49.805,-45.410
1688815022.699,40.527,-32.715,-22.461,-34.180,-43.945
1688815022.703,30.762,-31.250,-23.926,-34.180,-163.086
1688815022.707,-9.277,-30.273,-28.320,-38.086,-51.270
1688815022.711,-33.691,-28.809,-28.809,-35.645,145.996
1688815022.714,1.953,-32.227,-28.320,-47.363,-39.062
1688815022.718,34.668,-32.715,-28.320,-38.086,-228.516
1688815022.722,21.484,-38.574,-27.344,-34.180,-94.727
1688815022.726,-15.137,-37.109,-24.414,-32.715,-32.227
1688815022.730,-48.828,-30.762,-29.785,-49.316,-119.141
1688815022.747,-41.016,-27.344,-31.738,-72.266,-181.152
1688815022.751,-15.625,-23.926,-29.297,-55.176,-53.223
1688815022.755,-15.137,-24.902,-30.762,-50.293,15.625
1688815022.759,-38.086,-26.367,-32.227,-52.246,-79.102
1688815022.763,-62.988,-29.785,-33.203,-56.641,-148.438
1688815022.767,-29.785,-31.250,-34.180,-71.777,85.449
1688815022.771,3.418,-33.691,-31.738,-64.453,330.078
1688815022.774,-3.418,-32.715,-31.250,-56.152,113.281
1688815022.778,-27.832,-34.180,-30.762,-49.805,31.250
1688815022.782,-52.246,-36.621,-25.391,-45.898,174.316
1688815022.786,-21.484,-32.227,-22.949,-55.664,242.676
1688815022.790,14.648,-33.203,-26.367,-50.293,11.719
1688815022.790,14.160,-37.109,-27.832,-39.062,-86.426
1688815022.794,-11.230,-39.551,-27.344,-36.133,7.812
1688815022.798,-52.246,-43.945,-29.785,-31.250,-22.949
1688815022.802,-41.016,-44.922,-32.715,-51.758,-193.359
1688815022.806,5.859,-43.945,-32.715,-49.316,-133.301
1688815022.810,20.508,-44.434,-26.855,-30.273,67.383
1688815022.814,6.836,-43.457,-24.902,-22.461,24.902
1688815022.817,-26.855,-41.016,-25.391,-22.949,-88.379
1688815022.821,-28.320,-45.410,-22.461,-46.387,-107.910
1688815022.825,6.836,-47.852,-19.531,-40.039,73.242
1688815022.829,11.719,-42.969,-22.949,-26.367,21.973
1688815022.833,-7.812,-43.945,-26.855,-31.250,-192.871
1688815022.851,-48.828,-45.410,-25.879,-34.668,-62.500
1688815022.855,-61.523,-41.504,-29.785,-51.758,100.098
1688815022.859,-26.367,-41.504,-33.203,-63.965,-62.012
1688815022.863,-17.090,-38.086,-26.855,-45.898,-155.273
1688815022.867,-37.598,-40.039,-24.414,-41.992,-68.359
1688815022.871,-66.895,-36.133,-22.461,-49.316,-57.617
1688815022.875,-70.312,-29.785,-19.531,-57.617,-116.211
1688815022.878,-31.738,-31.250,-21.484,-65.918,-125.000
1688815022.882,-18.555,-30.762,-25.879,-47.852,121.582
1688815022.886,-52.246,-33.691,-28.809,-33.691,390.625
1688815022.890,-107.910,-34.668,-30.273,-41.504,149.414
1688815022.894,-144.531,-33.203,-30.762,-65.918,-144.531
1688815022.881,-124.023,-31.250,-29.785,-81.055,-167.969
1688815022.885,-84.961,-27.344,-28.320,-61.523,-141.602
1688815022.889,-85.449,-25.391,-23.438,-49.805,-157.715
1688815022.893,-129.395,-32.227,-20.020,-59.570,-139.160
1688815022.897,-142.090,-39.062,-23.438,-73.242,-57.617
1688815022.901,-86.914,-42.480,-22.949,-87.402,-52.246
1688815022.905,-37.598,-42.969,-18.555,-74.219,-61.035
1688815022.908,-31.738,-40.527,-18.555,-62.988,-56.152
1688815022.912,-49.316,-41.992,-21.484,-66.406,-0.488
1688815022.916,-62.988,-38.574,-24.902,-75.684,-62.988
1688815022.920,-24.414,-35.156,-23.438,-88.867,-189.453
1688815022.924,-1.953,-30.762,-19.043,-76.172,-119.141
1688815022.925,-26.367,-19.531,-18.555,-59.082,218.262
1688815022.929,-75.684,-23.926,-26.367,-60.059,187.988
1688815022.933,-131.348,-32.227,-31.250,-77.637,-102.051
1688815022.937,-125.977,-31.738,-28.809,-97.656,-22.461
1688815022.941,-98.145,-36.621,-29.785,-99.121,-21.484
1688815022.945,-80.566,-33.203,-23.926,-87.891,-85.449
1688815022.949,-82.031,-26.855,-20.996,-86.426,-7.812
1688815022.952,-111.816,-33.203,-25.879,-81.055,128.418
1688815022.956,-88.867,-31.738,-25.879,-96.191,188.965
1688815022.960,-51.758,-28.320,-26.855,-107.422,-101.562
1688815022.964,-65.430,-30.762,-27.832,-89.844,-255.371
1688815022.968,-101.562,-26.367,-25.391,-83.984,69.824
1688815022.970,-141.113,-26.855,-23.438,-85.938,122.559
1688815022.974,-131.348,-29.297,-25.391,-108.887,-223.633
1688815022.978,-104.980,-26.855,-28.320,-121.094,-276.367
1688815022.982,-91.797,-27.344,-28.809,-100.098,18.555
1688815022.986,-89.355,-29.785,-28.320,-95.215,85.449
1688815022.990,-117.188,-24.902,-26.855,-102.051,-121.582
1688815022.994,-102.539,-21.973,-24.902,-114.258,-89.355
1688815022.997,-66.895,-25.879,-25.879,-113.281,135.742
1688815023.001,-82.520,-30.273,-28.320,-88.379,71.777
1688815023.005,-88.379,-33.691,-28.320,-94.238,-213.379
1688815023.009,-86.426,-30.762,-27.832,-99.121,-135.742
1688815023.013,-71.289,-32.227,-27.344,-118.652,-84.961
1688815023.017,-19.043,-33.203,-26.367,-131.836,-167.969
1688815023.021,8.301,-30.273,-23.926,-125.000,-135.742
1688815023.025,6.348,-32.227,-27.344,-131.348,13.672
1688815023.029,-19.531,-31.250,-32.715,-132.812,77.148
1688815023.033,-39.551,-30.273,-33.203,-145.508,-58.594
1688815023.037,-16.602,-30.273,-29.785,-150.879,-115.723
1688815023.041,-9.766,-35.156,-30.273,-132.812,68.848
1688815023.044,-33.691,-39.062,-31.738,-121.094,208.008
1688815023.048,-52.734,-34.180,-28.320,-103.027,65.918
1688815023.052,-50.781,-30.762,-28.320,-111.816,-92.285
1688815023.056,1.465,-29.785,-23.438,-123.535,-19.531
1688815023.060,32.715,-28.320,-13.184,-99.609,29.785
1688815023.061,-7.324,-30.273,-12.695,-91.797,-158.203
1688815023.065,-85.938,-34.180,-15.137,-93.750,-73.730
1688815023.069,-142.090,-36.621,-12.695,-79.102,-37.598
1688815023.073,-122.070,-33.203,-13.672,-77.637,-112.793
1688815023.077,-123.047,-35.645,-16.602,-77.637,-48.828
1688815023.081,-175.781,-46.875,-19.531,-84.961,-25.391
1688815023.085,-216.309,-44.922,-21.484,-82.520,261.719
1688815023.088,-242.188,-40.039,-20.508,-83.984,313.965
1688815023.092,-218.262,-46.875,-24.902,-114.258,-102.539
1688815023.096,-173.828,-45.898,-22.949,-96.680,-186.035
1688815023.100,-167.969,-42.480,-24.414,-83.984,-139.648
1688815023.104,-196.777,-41.504,-28.809,-88.867,-141.602
1688815023.105,-241.211,-39.551,-26.367,-89.355,-148.926
1688815023.109,-239.258,-42.969,-25.391,-109.375,-105.469
1688815023.113,-220.215,-44.922,-23.438,-102.539,-82.520
1688815023.117,-240.234,-43.945,-28.320,-88.379,-137.695
1688815023.121,-282.227,-42.480,-31.250,-97.168,-171.875
1688815023.125,-312.500,-40.527,-26.855,-99.121,51.758
1688815023.129,-275.391,-38.574,-22.949,-114.746,108.398
1688815023.132,-217.285,-40.039,-20.508,-111.328,-90.820
1688815023.136,-182.617,-40.527,-24.414,-96.680,-127.441
1688815023.140,-162.598,-40.527,-26.855,-98.633,101.562
1688815023.144,-161.621,-39.551,-23.926,-89.844,391.113
1688815023.148,-128.906,-36.133,-25.391,-110.840,58.594
1688815023.166,-62.012,-35.156,-27.832,-121.094,-223.145
1688815023.170,-30.762,-34.668,-23.926,-100.098,-123.047
1688815023.174,-41.992,-32.715,-20.020,-94.238,-147.949
1688815023.178,-78.125,-37.109,-18.066,-90.332,-193.359
1688815023.182,-81.543,-41.016,-12.695,-101.074,-76.172
1688815023.186,-31.250,-38.574,-14.160,-99.609,-9.277
1688815023.190,-21.484,-35.645,-15.625,-78.125,-69.336
1688815023.193,-48.828,-38.574,-15.137,-75.195,-166.016
1688815023.197,-78.125,-38.086,-19.043,-71.289,-27.344
1688815023.201,-73.242,-34.180,-25.391,-81.055,19.043
1688815023.205,-12.695,-35.156,-31.738,-86.914,-191.406
1688815023.209,15.137,-35.156,-28.809,-55.664,-194.336
1688815023.210,-13.184,-31.738,-21.484,-45.898,-134.277
1688815023.214,-72.266,-36.133,-19.043,-38.086,242.188
1688815023.218,-105.469,-40.527,-21.484,-48.828,185.059
1688815023.222,-81.543,-31.250,-18.555,-60.059,-135.254
1688815023.226,-89.844,-27.832,-20.020,-38.574,-84.473
1688815023.230,-137.207,-31.250,-22.949,-41.504,11.719
1688815023.234,-187.500,-29.297,-23.926,-37.598,-18.555
1688815023.237,-210.449,-25.391,-22.949,-41.992,-21.484
1688815023.241,-171.387,-22.949,-12.207,-50.781,116.699
1688815023.245,-125.000,-19.043,-7.812,-21.484,277.832
1688815023.249,-107.422,-20.020,-10.254,-7.812,124.512
1688815023.253,-139.648,-23.926,-9.766,-3.418,-24.902
1688815023.255,-182.129,-20.020,-9.766,-4.395,43.457
1688815023.259,-143.066,-19.531,-9.766,-20.508,-17.578
1688815023.263,-101.562,-26.367,-11.719,-18.066,-120.605
1688815023.267,-99.121,-30.762,-17.578,-8.789,-159.668
1688815023.271,-111.816,-28.320,-16.113,-2.930,-79.590
1688815023.275,-160.156,-30.762,-16.113,-9.277,64.453
1688815023.279,-145.020,-28.809,-15.137,-21.973,46.875
1688815023.282,-78.613,-29.785,-16.602,-21.973,-43.945
1688815023.286,-52.734,-34.668,-20.020,-15.625,66.406
1688815023.290,-53.711,-31.250,-18.066,-11.230,48.340
1688815023.294,-91.309,-27.344,-19.043,-18.555,-98.633
1688815023.298,-84.961,-29.297,-21.973,-47.363,-102.051
1688815023.317,-52.246,-32.227,-20.020,-47.363,-135.254
1688815023.321,-72.754,-33.203,-17.578,-28.320,-121.094
1688815023.325,-105.469,-36.621,-18.066,-34.180,-174.316
1688815023.329,-142.578,-33.203,-22.461,-34.180,-24.414
1688815023.333,-120.117,-29.297,-26.855,-39.062,58.105
1688815023.337,-74.219,-31.738,-28.809,-40.527,-54.688
1688815023.341,-66.895,-26.855,-29.297,-35.645,-69.824
1688815023.344,-87.402,-24.414,-30.762,-31.738,57.617
1688815023.348,-119.141,-26.367,-32.227,-23.438,179.688
1688815023.352,-80.566,-26.855,-31.738,-44.434,-82.031
1688815023.356,-23.438,-27.344,-29.785,-46.875,-244.629
1688815023.360,-8.789,-27.344,-26.367,-12.695,45.410
1688815023.345,-11.719,-25.879,-23.438,-6.836,108.398
1688815023.349,-31.250,-24.414,-26.367,-8.301,-154.785
1688815023.353,-41.992,-25.879,-28.809,-21.973,-181.641
1688815023.357,-11.719,-28.320,-29.297,-41.504,-115.234
1688815023.361,-13.184,-29.297,-29.297,-25.391,-118.652
1688815023.365,-39.551,-27.832,-28.809,-31.250,-145.020
1688815023.369,-78.125,-29.785,-33.203,-41.016,2.930
1688815023.372,-103.027,-35.156,-35.156,-48.828,28.320
1688815023.376,-68.359,-35.645,-31.250,-57.617,-108.887
1688815023.380,-59.082,-32.715,-30.273,-38.574,-197.266
1688815023.384,-77.148,-32.227,-30.762,-35.645,-157.227
1688815023.388,-91.309,-35.156,-34.180,-35.156,151.855
1688815023.405,-92.773,-33.691,-36.133,-53.223,157.227
1688815023.409,-45.898,-25.879,-33.203,-85.449,-123.535
1688815023.413,-19.531,-25.391,-37.109,-85.449,-55.176
1688815023.417,-41.016,-31.250,-37.109,-81.543,-36.133
1688815023.421,-90.332,-32.227,-30.273,-81.543,-95.703
1688815023.425,-116.699,-31.250,-30.273,-99.121,-78.125
1688815023.429,-64.453,-33.691,-31.738,-116.211,117.188
1688815023.432,-0.488,-34.668,-32.227,-93.262,309.082
1688815023.436,-12.695,-34.180,-28.809,-83.984,61.523
1688815023.440,-79.102,-36.133,-31.738,-91.309,-162.109
1688815023.444,-130.371,-40.039,-34.180,-88.379,32.715
1688815023.448,-128.418,-41.016,-31.250,-99.121,136.719
1688815023.435,-119.629,-40.527,-31.738,-92.773,-113.770
1688815023.439,-131.836,-40.527,-30.273,-72.266,-165.039
1688815023.443,-146.484,-37.598,-28.320,-68.848,-115.723
1688815023.447,-154.785,-33.691,-25.391,-62.012,-110.840
1688815023.451,-105.957,-29.785,-22.949,-78.125,-156.738
1688815023.455,-29.785,-29.785,-20.020,-74.707,-29.785
1688815023.459,-3.906,-33.203,-19.043,-47.852,80.566
1688815023.462,-15.625,-33.691,-22.949,-45.410,-31.738
1688815023.466,-30.762,-36.621,-21.484,-40.527,15.625
1688815023.470,-4.883,-42.480,-23.438,-63.477,-45.898
1688815023.474,41.504,-37.598,-20.508,-62.500,133.301
1688815023.478,61.523,-35.645,-16.602,-42.480,229.980
1688815023.481,48.828,-37.109,-23.926,-53.711,-88.379
1688815023.485,15.625,-33.203,-28.809,-54.199,-19.043
1688815023.489,31.250,-32.715,-26.855,-64.941,57.617
1688815023.493,83.496,-35.156,-29.785,-66.895,-160.645
1688815023.497,95.215,-33.691,-28.809,-46.875,-183.594
1688815023.501,76.172,-32.715,-25.391,-47.852,25.879
1688815023.505,34.180,-39.062,-25.391,-48.340,120.605
1688815023.508,32.715,-42.480,-24.414,-50.293,-60.547
1688815023.512,70.312,-34.180,-27.832,-61.035,-187.500
1688815023.516,49.316,-26.367,-35.156,-57.129,-1.953
1688815023.520,6.348,-21.973,-41.016,-57.617,292.480
1688815023.524,-28.809,-15.625,-46.875,-58.594,59.570
1688815023.541,-39.062,-9.277,-51.758,-75.684,-146.484
1688815023.545,-7.324,-1.953,-54.199,-94.238,-106.934
1688815023.549,5.371,4.395,-58.105,-84.473,-172.363
1688815023.553,-20.996,11.230,-63.965,-77.148,-139.160
1688815023.557,-73.730,15.625,-75.195,-85.449,-51.758
1688815023.561,-104.980,17.578,-84.961,-101.074,-33.691
1688815023.565,-80.078,19.043,-85.938,-113.281,-51.270
1688815023.568,-67.383,19.043,-88.379,-104.004,-123.535
1688815023.572,-94.238,23.926,-93.750,-101.074,-146.484
1688815023.576,-147.461,20.508,-98.145,-106.445,75.195
1688815023.580,-180.664,18.066,-104.980,-122.559,29.785
1688815023.584,-158.203,25.391,-107.422,-135.254,-259.277
1688815023.576,-138.672,28.320,-104.980,-109.863,-146.484
1688815023.580,-154.785,30.273,-112.793,-110.840,-45.410
1688815023.584,-195.801,30.762,-116.699,-129.395,-166.016
1688815023.588,-220.215,30.762,-115.723,-138.672,-159.180
1688815023.592,-176.270,39.062,-118.652,-150.879,-33.203
1688815023.596,-142.090,37.598,-118.164,-137.695,36.621
1688815023.600,-155.762,32.715,-116.699,-133.301,-27.832
1688815023.603,-155.762,34.668,-116.211,-130.371,-85.449
1688815023.607,-159.668,35.645,-117.676,-124.512,67.383
1688815023.611,-130.859,32.227,-113.281,-141.113,180.176
1688815023.615,-80.078,30.762,-109.375,-125.488,-136.230
1688815023.619,-65.918,29.785,-107.910,-98.145,-170.898
1688815023.646,-89.355,25.391,-101.074,-83.984,-18.066
1688815023.650,-110.840,21.973,-101.562,-75.195,-94.727
1688815023.654,-70.801,21.973,-88.867,-94.727,-186.035
1688815023.658,-18.066,20.020,-81.055,-99.121,-138.184
1688815023.662,2.441,18.066,-80.078,-72.266,78.613
1688815023.666,6.348,13.672,-76.172,-55.664,470.215
1688815023.670,1.465,12.207,-77.148,-63.965,290.527
1688815023.673,41.016,10.742,-70.801,-82.520,-97.168
1688815023.677,94.238,0.977,-66.406,-77.637,-75.684
1688815023.681,103.516,-3.906,-64.453,-64.941,-89.355
1688815023.685,98.145,-5.859,-62.012,-62.500,-213.867
1688815023.689,74.219,-5.859,-61.035,-54.199,-162.109
1688815023.676,87.402,-6.836,-62.500,-69.336,-25.879
1688815023.680,136.230,-7.812,-62.500,-80.078,-152.832
1688815023.684,152.344,-11.719,-58.594,-56.641,-192.383
1688815023.688,147.949,-15.137,-58.105,-52.734,-49.805
1688815023.692,124.023,-13.672,-58.594,-60.059,-4.883
1688815023.696,124.023,-13.672,-54.199,-78.125,0.977
1688815023.700,170.410,-15.137,-53.223,-77.148,-35.156
1688815023.703,189.453,-20.996,-54.199,-53.711,51.270
1688815023.707,172.363,-22.461,-49.805,-53.711,152.344
1688815023.711,136.719,-20.020,-48.340,-58.594,12.695
1688815023.715,107.422,-24.414,-48.828,-80.566,-85.938
1688815023.719,129.883,-24.902,-46.875,-98.145,-21.484
1688815023.720,140.137,-18.555,-45.898,-72.266,304.199
1688815023.724,107.422,-20.508,-42.969,-68.848,246.582
1688815023.728,68.848,-22.461,-43.457,-80.566,-63.477
1688815023.732,53.223,-18.555,-44.922,-91.797,-76.172
1688815023.736,84.473,-16.602,-43.457,-105.469,-131.348
1688815023.740,107.422,-16.602,-43.945,-92.773,-125.977
1688815023.744,103.027,-15.625,-41.992,-76.660,-92.773
1688815023.747,79.590,-18.066,-41.992,-64.941,179.199
1688815023.751,65.918,-17.090,-41.504,-69.336,296.875
1688815023.755,98.633,-17.090,-41.992,-88.379,-86.426
1688815023.759,116.211,-19.043,-36.621,-71.289,-145.020
1688815023.763,71.777,-17.090,-33.203,-56.641,-61.035
1688815023.765,20.996,-20.508,-35.645,-54.688,-63.965
1688815023.769,-7.324,-20.020,-31.250,-45.898,-84.961
1688815023.773,-19.531,-21.973,-26.367,-55.664,-91.797
1688815023.777,-29.297,-24.902,-21.973,-40.527,-87.891
1688815023.781,-57.617,-20.508,-21.484,-14.160,-85.938
1688815023.785,-94.238,-15.625,-26.367,-17.090,-127.930
1688815023.789,-112.793,-13.184,-32.715,-26.367,88.867
1688815023.792,-53.711,-12.695,-34.668,-38.574,314.453
1688815023.796,24.902,-11.230,-32.715,-38.086,-19.531
1688815023.800,44.922,-9.277,-32.227,-29.785,-231.445
1688815023.804,30.273,-11.230,-35.156,-27.832,8.789
1688815023.808,5.859,-11.719,-34.668,-28.320,106.934
1688815023.810,19.531,-13.184,-29.785,-48.828,-178.711
1688815023.814,62.012,-16.113,-29.785,-43.945,-269.043
1688815023.818,36.621,-15.625,-25.879,-17.090,-190.918
1688815023.822,-62.988,-16.602,-27.832,-22.461,-208.496
1688815023.826,-179.688,-21.973,-30.762,-29.297,-121.094
1688815023.830,-229.004,-22.461,-30.273,-44.922,-19.043
1688815023.834,-212.402,-24.414,-29.785,-48.828,129.883
1688815023.837,-250.488,-26.367,-25.879,-23.438,54.688
1688815023.841,-305.664,-27.344,-24.902,-15.625,-211.914
1688815023.845,-362.305,-28.809,-25.391,-22.461,-126.465
1688815023.849,-358.398,-26.367,-31.250,-41.504,-110.352
1688815023.853,-283.203,-28.809,-33.691,-44.434,-204.590
1688815023.857,-228.027,-30.273,-31.738,-20.508,-98.633
1688815023.861,-188.477,-24.414,-27.832,-6.836,45.410
1688815023.865,-172.852,-25.391,-24.414,1.465,98.145
1688815023.869,-151.855,-30.762,-26.367,-16.113,-60.547
1688815023.873,-83.984,-28.809,-26.367,-37.109,-205.566
1688815023.877,-36.133,-30.273,-29.297,-20.020,87.891
1688815023.881,-24.414,-31.738,-32.227,-6.348,260.742
1688815023.884,-40.039,-27.344,-32.227,-15.625,53.223
1688815023.888,-43.457,-25.391,-33.203,-35.645,-105.957
1688815023.892,3.418,-25.879,-33.691,-40.527,-13.672
1688815023.896,45.898,-25.879,-32.715,-15.137,175.293
1688815023.900,54.199,-26.367,-26.855,-10.742,-61.523
1688815023.917,27.832,-24.902,-25.391,-19.043,-184.570
1688815023.921,8.789,-19.531,-28.320,-35.645,-62.012
1688815023.925,43.457,-21.973,-27.832,-49.316,-42.480
1688815023.929,67.383,-29.785,-26.855,-34.668,-135.742
1688815023.933,59.082,-34.180,-30.762,-33.691,-198.242
1688815023.937,37.109,-32.715,-29.297,-33.203,171.875
1688815023.941,-16.602,-35.156,-29.297,-40.527,243.164
1688815023.944,-11.230,-36.621,-30.273,-66.406,-104.980
1688815023.948,33.203,-35.645,-25.391,-47.852,-82.031
1688815023.952,34.668,-40.039,-23.438,-22.461,110.352
1688815023.956,18.066,-40.039,-23.438,-20.508,44.434
1688815023.960,-4.883,-39.551,-21.484,-20.508,-143.555
1688815023.960,21.484,-36.621,-18.555,-32.715,-138.672
1688815023.964,65.430,-34.180,-20.508,-33.203,-72.754
1688815023.968,36.621,-37.598,-20.996,-26.367,-111.328
1688815023.972,-23.926,-36.621,-17.578,-15.137,-97.656
1688815023.976,-46.387,-36.621,-14.648,-0.488,23.926
1688815023.980,-20.996,-36.621,-15.625,-16.113,-7.812
1688815023.984,25.391,-36.133,-21.484,-17.090,-111.328
1688815023.987,35.156,-36.133,-23.926,-0.488,-133.301
1688815023.991,16.602,-37.109,-26.855,2.441,24.414
1688815023.995,-37.598,-33.203,-24.902,14.160,354.492
1688815023.999,-77.637,-28.320,-20.020,1.465,183.594
1688815024.003,-73.730,-26.367,-17.578,-8.301,-149.414
1688815024.006,-81.055,-20.508,-17.090,9.766,-138.672
1688815024.010,-95.215,-20.508,-20.508,4.883,-137.207
1688815024.014,-103.027,-30.273,-24.902,3.906,-125.488
1688815024.018,-66.406,-32.227,-24.902,0.000,-143.066
1688815024.022,-1.953,-28.809,-17.090,-1.465,-116.699
1688815024.026,18.066,-34.668,-20.996,4.395,-39.551
1688815024.030,6.348,-35.645,-26.367,4.395,-56.641
1688815024.033,-18.555,-28.320,-20.996,15.137,-57.617
1688815024.037,-20.020,-25.879,-24.414,8.789,193.359
1688815024.041,18.066,-29.297,-32.715,-3.906,173.340
1688815024.045,36.133,-34.180,-31.738,2.441,-146.484
1688815024.049,20.020,-37.598,-32.227,3.906,-113.770
1688815024.051,-24.902,-34.668,-28.809,12.207,4.883
1688815024.055,-55.664,-31.738,-23.926,3.418,-60.059
1688815024.059,-14.648,-31.250,-22.461,-20.996,-191.406
1688815024.063,20.508,-31.738,-24.414,-20.996,-140.625
1688815024.067,13.672,-30.273,-25.391,-24.902,-29.785
1688815024.071,-17.090,-33.203,-24.414,-16.113,-61.523
1688815024.075,-39.551,-33.691,-25.391,-22.461,-22.949
1688815024.078,-9.766,-30.762,-24.414,-29.785,60.059
1688815024.082,7.812,-33.691,-23.926,8.301,312.012
1688815024.086,-5.371,-33.691,-23.926,19.531,227.539
1688815024.090,-40.527,-31.250,-21.973,14.160,-91.309
1688815024.094,-65.430,-35.156,-24.902,26.367,-6.836
1688815024.096,-25.879,-36.133,-27.832,20.508,-68.848
1688815024.100,10.742,-31.250,-21.484,32.715,-205.078
1688815024.104,0.977,-32.715,-20.020,51.270,-132.812
1688815024.108,-26.367,-32.715,-22.461,57.617,-101.562
1688815024.112,-55.664,-31.738,-23.438,62.012,-83.984
1688815024.116,-34.180,-33.203,-21.484,54.199,-113.281
1688815024.120,4.883,-31.738,-18.066,61.035,-154.785
1688815024.123,3.906,-30.762,-18.066,67.871,101.562
1688815024.127,-30.762,-28.320,-22.949,60.547,70.801
1688815024.131,-67.383,-24.902,-22.461,52.246,-168.945
1688815024.135,-41.016,-26.855,-22.949,34.668,-64.453
1688815024.139,-3.906,-30.273,-24.414,37.109,24.414
1688815024.141,-5.371,-25.879,-25.391,44.434,5.371
1688815024.145,-16.113,-21.973,-25.391,41.504,-131.348
1688815024.149,-44.434,-22.949,-20.996,47.852,-30.273
1688815024.153,-40.527,-27.344,-18.555,28.320,50.781
1688815024.157,-10.742,-24.902,-19.531,17.090,-82.031
1688815024.161,-34.668,-24.902,-20.020,28.320,-110.840
1688815024.165,-77.148,-32.715,-28.809,20.996,21.484
1688815024.168,-124.512,-34.668,-34.668,10.254,349.121
1688815024.172,-137.695,-31.250,-30.762,-13.672,140.625
1688815024.176,-96.680,-28.320,-26.367,-17.578,-175.293
1688815024.180,-81.543,-31.250,-22.461,4.395,-104.492
1688815024.184,-110.840,-34.668,-23.926,3.418,-55.176
1688815024.187,-168.457,-38.574,-29.297,-3.418,-122.070
1688815024.191,-220.703,-41.016,-34.180,-16.113,-160.156
1688815024.195,-243.164,-37.598,-30.762,-9.277,-67.383
1688815024.199,-255.859,-36.621,-23.926,16.113,-90.332
1688815024.203,-289.551,-37.598,-23.926,11.719,-165.527
1688815024.207,-364.746,-42.480,-30.273,10.742,-41.504
1688815024.211,-410.645,-44.922,-30.762,2.441,272.461
1688815024.214,-383.301,-38.574,-26.367,-1.465,156.738
1688815024.218,-375.977,-40.039,-24.414,2.441,-221.191
1688815024.222,-403.809,-42.969,-23.926,-4.395,-183.105
1688815024.226,-428.223,-34.668,-20.020,1.465,-131.836
1688815024.230,-427.246,-29.785,-21.484,-2.930,-145.508
1688815024.246,-375.488,-30.273,-31.250,-6.348,-197.754
1688815024.250,-337.891,-29.785,-33.203,7.812,-104.004
1688815024.254,-331.055,-36.621,-26.855,8.789,-51.758
1688815024.258,-357.422,-41.016,-28.320,8.789,-112.793
1688815024.262,-382.812,-35.156,-34.180,1.953,-150.879
1688815024.266,-340.332,-32.227,-36.133,-16.113,-25.391
1688815024.270,-279.297,-30.273,-39.551,12.695,205.078
1688815024.273,-260.254,-30.762,-31.250,40.039,95.703
1688815024.277,-284.668,-44.922,-20.996,36.621,-74.219
1688815024.281,-287.109,-54.199,-20.996,34.180,65.430
1688815024.285,-238.281,-53.223,-17.578,26.367,162.598
1688815024.289,-200.195,-57.129,-7.324,42.480,-113.281
1688815024.282,-193.848,-66.406,-1.465,75.195,-193.848
1688815024.286,-191.406,-70.801,5.371,88.379,-137.695
1688815024.290,-209.473,-72.754,18.066,106.445,-74.707
1688815024.294,-195.312,-83.008,26.367,104.492,-143.066
1688815024.298,-128.418,-89.355,30.762,116.211,-185.059
1688815024.302,-66.895,-88.379,39.551,139.648,-39.551
1688815024.306,-20.020,-90.332,49.316,143.066,1.465
1688815024.309,10.742,-95.703,59.570,146.973,-41.016
1688815024.313,77.637,-100.586,62.012,125.488,-60.547
1688815024.317,153.320,-108.887,62.500,131.836,32.715
1688815024.321,184.570,-112.305,77.637,161.133,-26.367
1688815024.325,181.152,-108.887,88.867,167.969,-113.281
1688815024.335,149.902,-109.375,88.867,172.363,46.387
1688815024.339,163.574,-112.793,91.797,161.621,65.918
1688815024.343,217.773,-120.605,94.238,167.969,-45.410
1688815024.347,242.188,-125.977,92.285,193.848,-106.445
1688815024.351,229.492,-129.395,89.355,194.824,-40.527
1688815024.355,190.918,-131.836,92.285,196.777,364.258
1688815024.359,203.613,-133.301,94.727,177.246,251.953
1688815024.362,258.789,-139.160,85.449,158.691,-124.023
1688815024.366,285.645,-139.160,83.984,176.270,57.617
1688815024.370,276.367,-132.812,84.961,178.223,418.945
1688815024.374,246.094,-122.070,73.242,169.434,163.574
1688815024.378,245.117,-117.188,62.012,143.555,-126.953
1688815024.380,283.203,-119.141,58.105,121.094,-106.445
1688815024.384,297.363,-112.305,59.570,140.137,-97.168
1688815024.388,278.809,-102.051,59.082,138.184,-149.902
1688815024.392,232.910,-97.656,53.711,127.930,-96.680
1688815024.396,210.938,-90.820,50.781,115.234,-4.883
1688815024.400,247.559,-80.078,48.828,98.633,-40.527
1688815024.404,258.789,-81.055,39.551,106.934,-106.934
1688815024.407,227.539,-76.660,39.551,104.492,-170.410
1688815024.411,173.340,-75.684,36.133,103.516,88.379
1688815024.415,136.719,-81.543,30.762,87.891,122.070
1688815024.419,152.344,-79.590,27.344,65.430,-235.840
1688815024.423,156.250,-79.102,20.020,77.637,-103.516
1688815024.426,131.836,-76.172,16.113,87.402,-25.391
1688815024.430,102.539,-71.777,15.625,78.613,-153.320
1688815024.434,79.102,-68.848,17.090,62.500,-92.285
1688815024.438,97.168,-64.453,17.578,44.434,-0.977
1688815024.442,112.305,-58.594,12.695,49.316,62.988
1688815024.446,92.285,-49.805,6.836,52.246,67.383
1688815024.450,51.758,-48.340,11.230,47.852,-42.969
1688815024.453,11.719,-52.734,6.836,42.969,63.477
1688815024.457,26.855,-59.570,0.000,19.531,70.801
1688815024.461,47.363,-60.547,1.953,26.367,-199.219
1688815024.465,28.320,-59.082,3.906,36.133,-201.172
1688815024.469,-5.859,-59.082,3.906,31.738,-90.332
1688815024.486,-45.898,-57.129,3.418,29.785,-75.195
1688815024.490,-33.691,-50.293,6.348,15.137,-119.629
1688815024.494,0.977,-46.387,2.930,21.973,-141.602
1688815024.498,-10.254,-46.875,-3.418,35.156,47.852
1688815024.502,-45.410,-46.875,-6.836,33.203,373.047
1688815024.506,-86.914,-43.457,-6.836,20.996,187.012
1688815024.510,-87.402,-42.969,-6.348,-1.465,35.645
1688815024.513,-51.758,-46.387,-8.301,13.672,214.355
1688815024.517,-44.434,-49.316,-7.324,41.504,102.051
1688815024.521,-54.199,-45.410,1.953,57.129,-157.227
1688815024.525,-97.168,-35.645,-2.441,51.270,-133.789
1688815024.529,-106.445,-31.738,-8.301,10.742,-104.004
1688815024.516,-61.523,-27.344,-6.836,9.277,-180.176
1688815024.520,-41.992,-30.762,-8.789,30.273,-186.523
1688815024.524,-45.410,-34.668,-10.254,40.527,-71.777
1688815024.528,-76.172,-34.668,-12.695,35.645,-6.836
1688815024.532,-76.660,-38.574,-15.625,9.277,-50.293
1688815024.536,-31.738,-34.668,-18.555,2.930,-54.688
1688815024.540,-14.648,-36.621,-15.625,30.273,139.160
1688815024.543,-30.273,-38.574,-16.602,36.621,199.707
1688815024.547,-55.664,-24.414,-15.137,29.785,-4.883
1688815024.551,-71.777,-26.855,-10.742,20.020,-123.535
1688815024.555,-50.293,-33.691,-10.742,11.719,-22.461
1688815024.559,-39.062,-28.809,-12.695,23.926,26.367
1688815024.561,-53.223,-27.832,-13.672,25.391,-108.887
1688815024.565,-82.031,-29.785,-13.184,27.344,-118.652
1688815024.569,-91.309,-31.250,-13.184,25.391,65.430
1688815024.573,-39.062,-35.645,-15.625,8.789,167.969
1688815024.577,-2.930,-35.645,-15.625,20.508,-154.785
1688815024.581,-20.020,-35.156,-15.137,25.879,-174.805
1688815024.585,-62.012,-36.133,-16.602,20.508,53.711
1688815024.588,-88.379,-35.645,-19.043,5.859,-7.324
1688815024.592,-45.410,-36.133,-21.973,-21.484,-249.023
1688815024.596,-2.930,-34.180,-21.973,-11.719,-223.145
1688815024.600,1.465,-38.574,-21.973,0.977,-15.137
1688815024.604,-19.043,-40.527,-21.484,13.184,-37.598
1688815024.610,-49.805,-33.691,-16.113,5.371,-151.855
1688815024.614,-23.438,-30.273,-9.766,-20.508,-83.008
1688815024.618,5.859,-34.668,-12.695,-3.906,197.266
1688815024.622,3.418,-32.227,-15.137,6.348,119.629
1688815024.626,-16.602,-26.855,-9.766,8.301,-83.984
1688815024.630,-49.805,-31.738,-9.277,8.301,144.531
1688815024.634,-33.203,-32.715,-11.230,-14.648,223.145
1688815024.637,-0.977,-27.832,-16.602,-14.160,-8.789
1688815024.641,-12.207,-28.809,-20.020,-5.371,-45.898
1688815024.645,-32.715,-26.367,-17.578,0.000,153.809
1688815024.649,-62.988,-25.391,-17.090,-1.465,136.230
1688815024.653,-57.129,-29.297,-18.066,-26.367,-131.836
1688815024.681,-34.668,-30.762,-20.508,-28.320,-131.836
1688815024.685,-47.363,-32.715,-19.531,-21.484,-88.867
1688815024.689,-87.891,-31.250,-21.484,-22.461,-136.230
1688815024.693,-151.855,-31.738,-15.137,-18.066,-106.934
1688815024.697,-184.570,-32.715,-8.301,-38.086,-123.535
1688815024.701,-187.988,-35.156,-15.625,-37.598,141.602
1688815024.705,-215.820,-32.227,-16.602,-2.930,464.844
1688815024.708,-256.836,-28.320,-12.695,-3.906,171.387
1688815024.712,-303.711,-29.297,-14.648,-14.648,-93.750
1688815024.716,-293.457,-30.762,-18.555,-31.738,-131.836
1688815024.720,-236.816,-35.156,-22.461,-46.387,-154.297
1688815024.724,-222.656,-31.738,-21.484,-28.809,-103.516
1688815024.728,-246.094,-28.809,-20.508,-13.672,-122.559
1688815024.732,-296.387,-31.738,-23.438,-10.254,-72.754
1688815024.736,-287.598,-28.320,-20.996,-32.715,-164.551
1688815024.740,-208.984,-26.855,-18.555,-45.898,-266.113
1688815024.744,-182.129,-35.645,-20.996,-27.832,-92.773
1688815024.748,-208.984,-37.598,-21.484,-20.020,-24.902
1688815024.752,-230.469,-35.645,-20.508,-10.742,-79.590
1688815024.755,-221.680,-36.621,-21.484,-15.137,-22.949
1688815024.759,-163.086,-31.738,-20.996,-21.484,-48.340
1688815024.763,-121.582,-34.668,-17.090,-9.277,-148.926
1688815024.767,-116.699,-33.203,-16.602,-10.742,-126.953
1688815024.771,-139.648,-28.809,-18.555,-10.254,-114.258
1688815024.802,-139.648,-36.621,-21.484,-12.207,59.570
1688815024.806,-42.969,-36.621,-21.484,-23.438,144.531
1688815024.810,6.348,-34.180,-20.508,-19.531,-120.117
1688815024.814,-40.039,-38.086,-21.973,-19.043,-168.945
1688815024.818,-100.586,-35.156,-25.391,-18.066,92.285
1688815024.822,-126.953,-30.762,-28.320,-24.414,111.328
1688815024.826,-75.684,-34.668,-26.855,-48.340,-112.793
1688815024.829,-93.750,-37.109,-26.855,-42.969,-75.684
1688815024.833,-154.297,-40.039,-32.715,-26.367,128.418
1688815024.837,-174.805,-43.945,-33.691,-29.297,72.754
1688815024.841,-253.906,-42.969,-29.785,-42.480,-129.883
1688815024.845,-318.359,-36.621,-27.832,-58.105,-150.391
1688815024.819,-355.469,-30.762,-26.367,-37.598,200.195
1688815024.823,-426.270,-30.762,-28.320,-28.809,203.613
1688815024.827,-528.809,-34.180,-29.297,-40.039,-151.367
1688815024.831,-616.211,-33.203,-24.902,-35.156,42.480
1688815024.835,-644.531,-36.133,-27.344,-50.781,179.199
1688815024.839,-669.434,-36.621,-28.809,-45.410,20.508
1688815024.843,-725.098,-30.273,-26.367,-28.320,-86.426
1688815024.846,-773.438,-29.297,-23.438,-20.020,41.504
1688815024.850,-828.125,-34.180,-25.391,-21.484,60.059
1688815024.854,-833.008,-40.527,-27.832,-42.969,-143.066
1688815024.858,-791.992,-44.434,-28.320,-44.434,-189.941
1688815024.862,-783.203,-46.387,-31.250,-26.855,-142.578
1688815024.848,-766.602,-43.457,-35.156,-28.809,-110.352
1688815024.852,-770.020,-35.156,-32.227,-30.762,-189.453
1688815024.856,-765.625,-32.715,-24.902,-42.480,-183.105
1688815024.860,-722.656,-34.180,-24.414,-51.270,-100.586
1688815024.864,-696.777,-31.738,-26.367,-39.551,-100.586
1688815024.868,-687.500,-26.367,-27.344,-33.691,-84.473
1688815024.872,-707.520,-34.668,-27.344,-36.133,-16.602
1688815024.875,-681.641,-37.109,-22.949,-50.781,232.910
1688815024.879,-601.562,-34.668,-22.461,-59.570,179.199
1688815024.883,-516.602,-36.621,-17.578,-30.762,-200.195
1688815024.887,-445.312,-31.738,-15.137,-23.926,-175.781
1688815024.891,-499.023,-31.250,-23.926,-71.777,194.336
1688815024.890,-582.031,-31.738,-29.785,-127.441,250.488
1688815024.894,-577.148,-36.133,-31.738,-167.969,-196.289
1688815024.898,-581.543,-38.574,-37.109,-176.270,-182.129
1688815024.902,-623.047,-34.180,-43.945,-217.773,-44.922
1688815024.906,-655.273,-35.645,-44.434,-261.719,-99.609
1688815024.910,-580.078,-38.574,-51.758,-305.176,-83.008
1688815024.914,-417.480,-43.457,-58.594,-343.262,-27.832
1688815024.917,-303.711,-45.898,-54.688,-332.520,278.320
1688815024.921,-256.836,-41.504,-52.734,-352.051,305.664
1688815024.925,-243.652,-38.086,-53.223,-381.348,-13.184
1688815024.929,-225.098,-36.133,-56.152,-393.066,-98.145
1688815024.933,-156.250,-36.621,-59.082,-412.598,-140.137
1688815024.935,-98.145,-37.109,-60.059,-404.785,-218.262
1688815024.939,-77.148,-32.227,-66.406,-395.996,-253.906
1688815024.943,-77.148,-24.902,-68.359,-385.254,23.438
1688815024.947,-84.961,-25.391,-65.918,-380.371,126.465
1688815024.951,-33.691,-25.879,-64.453,-373.047,-129.395
1688815024.955,28.809,-22.461,-63.965,-333.008,-128.906
1688815024.959,45.898,-23.438,-61.035,-296.875,83.008
1688815024.962,49.805,-24.414,-60.059,-268.555,60.547
1688815024.966,55.664,-22.949,-57.129,-241.211,-166.016
1688815024.970,106.445,-23.438,-54.688,-238.281,-139.160
1688815024.974,169.922,-26.855,-55.664,-209.473,-48.828
1688815024.978,189.941,-26.367,-48.340,-179.199,-98.145
1688815024.982,191.406,-23.438,-43.457,-172.852,-214.844
1688815024.986,182.129,-20.996,-41.992,-159.668,-111.816
1688815024.990,212.891,-24.414,-35.645,-167.480,14.648
1688815024.994,271.484,-25.391,-35.156,-158.203,-124.512
1688815024.998,278.809,-26.367,-33.203,-134.766,-223.145
1688815025.002,251.465,-27.344,-34.668,-131.836,54.688
1688815025.006,219.727,-24.902,-34.180,-129.395,234.863
1688815025.009,220.215,-26.367,-30.273,-138.184,-30.762
1688815025.013,260.742,-31.738,-33.691,-136.230,-192.871
1688815025.017,275.879,-28.809,-33.203,-107.910,17.578
1688815025.021,257.812,-29.785,-30.273,-88.379,211.426
1688815025.025,229.004,-28.809,-28.809,-88.379,-74.219
1688815025.056,238.281,-23.926,-26.855,-102.051,-133.789
1688815025.060,285.156,-28.320,-26.367,-100.586,-50.293
1688815025.064,302.734,-29.297,-28.809,-81.543,-115.723
1688815025.068,290.039,-23.438,-25.879,-80.078,-141.113
1688815025.072,250.000,-24.414,-21.484,-72.754,-132.324
1688815025.076,226.074,-25.879,-22.461,-77.637,97.168
1688815025.080,264.160,-22.461,-21.484,-81.543,167.969
1688815025.083,282.715,-22.949,-21.973,-65.430,-135.742
1688815025.087,268.066,-30.762,-23.926,-55.664,-181.152
1688815025.091,246.582,-29.297,-20.020,-28.809,7.324
1688815025.095,215.820,-19.043,-20.996,-53.711,-51.758
1688815025.099,223.145,-19.531,-25.391,-102.051,-222.656
1688815025.119,240.234,-15.137,-25.879,-72.266,-113.770
1688815025.123,205.078,-13.184,-24.902,-61.035,47.852
1688815025.127,159.180,-15.137,-23.926,-75.195,-30.762
1688815025.131,121.582,-15.137,-27.344,-91.309,-75.195
1688815025.135,123.047,-15.625,-28.320,-104.980,22.461
1688815025.139,142.090,-22.461,-30.762,-94.238,141.602
1688815025.143,129.395,-24.414,-31.738,-89.355,-19.043
1688815025.146,110.352,-17.578,-26.855,-81.543,-72.266
1688815025.150,91.797,-19.531,-20.020,-76.172,72.754
1688815025.154,116.699,-27.832,-24.414,-86.914,16.602
1688815025.158,146.973,-27.344,-27.344,-71.777,-161.133
1688815025.162,138.184,-23.926,-22.949,-53.223,-175.293
1688815025.161,101.562,-24.902,-21.973,-43.945,80.566
1688815025.165,66.895,-21.484,-22.461,-37.598,149.902
1688815025.169,95.703,-18.555,-17.578,-57.617,-133.301
1688815025.173,128.906,-26.367,-20.020,-59.082,-183.594
1688815025.177,127.441,-29.785,-19.043,-36.133,36.133
1688815025.181,102.539,-33.691,-18.066,-29.297,119.141
1688815025.185,55.176,-36.133,-18.555,-33.203,93.750
1688815025.188,67.871,-32.715,-12.207,-49.805,-0.977
1688815025.192,101.074,-33.691,-15.137,-47.852,-12.695
1688815025.196,85.938,-31.738,-19.043,-35.156,28.809
1688815025.200,48.828,-30.762,-18.555,-41.504,-91.797
1688815025.204,-3.906,-32.227,-17.090,-43.945,-7.812
1688815025.176,-26.367,-31.738,-16.602,-67.383,10.254
1688815025.180,-4.395,-28.320,-17.578,-70.801,-171.875
1688815025.184,10.742,-21.484,-17.090,-40.527,-157.227
1688815025.188,-13.672,-20.508,-15.137,-33.203,-92.773
1688815025.192,-60.059,-24.414,-11.719,-31.738,286.133
1688815025.196,-56.641,-21.484,-14.160,-48.828,406.738
1688815025.200,-29.785,-22.461,-21.484,-63.965,-62.012
1688815025.203,-48.340,-29.297,-21.973,-46.875,-47.363
1688815025.207,-87.891,-29.297,-19.043,-34.180,136.719
1688815025.211,-139.160,-24.902,-17.090,-36.133,-80.566
1688815025.215,-152.344,-27.832,-15.137,-49.316,-205.078
1688815025.219,-104.492,-31.250,-14.648,-52.246,-137.695
1688815025.220,-80.078,-28.809,-16.113,-36.133,-101.562
1688815025.224,-87.402,-34.180,-12.695,-24.902,-134.766
1688815025.228,-110.352,-38.086,-11.230,-20.020,-141.113
1688815025.232,-117.676,-32.715,-12.207,-18.066,18.555
1688815025.236,-92.285,-29.297,-9.766,-13.184,307.129
1688815025.240,-70.801,-31.250,-9.766,-3.906,200.195
1688815025.244,-71.289,-34.180,-9.277,-3.418,-78.613
1688815025.247,-128.418,-33.203,-12.207,5.371,101.562
1688815025.251,-164.551,-31.250,-8.789,4.395,89.844
1688815025.255,-123.535,-31.738,-3.418,-12.207,-185.059
1688815025.259,-96.680,-31.738,-1.953,10.742,-64.453
1688815025.263,-102.051,-28.809,0.488,33.203,-29.297
1688815025.265,-153.809,-25.879,-3.906,42.969,-133.789
1688815025.269,-207.031,-29.785,-7.324,30.273,-101.562
1688815025.273,-190.918,-36.621,-3.418,0.977,-137.207
1688815025.277,-165.039,-41.016,-5.371,3.906,-177.734
1688815025.281,-176.758,-44.922,-7.812,10.254,-184.082
1688815025.285,-208.008,-41.992,-4.395,13.672,-112.305
1688815025.289,-232.422,-39.551,-4.883,2.441,89.355
1688815025.292,-188.965,-43.457,-3.906,-20.020,274.902
1688815025.296,-120.117,-42.480,-6.348,-14.160,73.730
1688815025.300,-90.332,-38.574,-11.230,-11.230,-158.691
1688815025.304,-91.309,-45.410,-12.695,-7.324,-62.500
1688815025.308,-97.168,-45.410,-13.184,-1.465,-30.762
1688815025.341,-63.477,-37.109,-15.625,-23.926,-91.309
1688815025.345,-19.043,-40.039,-11.719,-13.672,-125.488
1688815025.349,-2.441,-39.551,-4.883,14.648,-69.824
1688815025.353,-2.930,-35.156,-3.906,14.648,-8.301
1688815025.357,-58.594,-31.738,-2.930,12.695,-77.148
1688815025.361,-78.613,-28.809,-3.418,1.953,-71.289
1688815025.365,-15.137,-29.297,-4.395,11.719,204.102
1688815025.368,-1.953,-28.320,-11.719,23.438,149.414
1688815025.372,-24.902,-23.926,-8.301,12.695,-169.922
1688815025.376,-34.180,-23.926,-3.906,19.531,-92.285
1688815025.380,1.465,-28.320,-6.836,4.395,41.992
1688815025.384,51.270,-25.391,-5.859,-6.348,-56.641
1688815025.415,67.383,-20.508,-6.348,17.578,-137.695
1688815025.419,48.828,-26.367,-7.812,13.672,-56.641
1688815025.423,11.719,-30.273,-6.348,6.348,42.480
1688815025.427,31.738,-30.762,-6.348,-7.812,-18.555
1688815025.431,71.289,-31.250,-7.324,-8.301,-188.965
1688815025.435,39.551,-27.832,-3.418,20.508,14.160
1688815025.439,-25.391,-27.344,-4.395,29.297,178.223
1688815025.442,-105.469,-29.785,-10.254,28.809,32.715
1688815025.446,-147.461,-25.879,-12.207,11.230,-48.340
1688815025.450,-103.516,-19.531,-12.207,1.465,-19.531
1688815025.454,-77.637,-20.996,-8.789,14.648,10.742
1688815025.458,-109.375,-20.996,-9.277,15.137,-89.844
1688815025.430,-158.203,-25.391,-12.695,17.578,-122.559
1688815025.434,-185.059,-26.855,-16.113,5.371,60.547
1688815025.438,-169.922,-20.996,-20.020,-21.484,80.078
1688815025.442,-159.180,-21.484,-20.020,-20.020,-173.340
1688815025.446,-188.965,-30.273,-19.531,-14.160,-94.238
1688815025.450,-264.160,-32.715,-21.484,-13.672,75.684
1688815025.454,-326.660,-24.902,-22.461,-19.531,55.664
1688815025.457,-326.172,-24.902,-15.625,-32.715,-86.914
1688815025.461,-301.758,-26.855,-9.766,-15.137,-166.016
1688815025.465,-272.461,-23.926,-11.719,0.977,109.375
1688815025.469,-264.648,-26.855,-13.672,0.977,366.699
1688815025.473,-250.977,-28.809,-12.695,-23.438,-23.926
1688815025.460,-185.547,-32.227,-18.066,-51.758,-165.527
1688815025.464,-129.395,-34.668,-22.461,-39.551,-1.953
1688815025.468,-121.582,-31.738,-16.602,-39.062,-134.277
1688815025.472,-125.000,-28.320,-9.766,-35.645,-113.770
1688815025.476,-145.996,-31.738,-12.207,-28.320,46.387
1688815025.480,-122.070,-35.156,-19.531,-55.176,18.066
1688815025.484,-72.754,-33.203,-13.184,-56.641,-45.898
1688815025.487,-65.918,-29.297,-13.184,-45.410,-56.641
1688815025.491,-81.543,-31.738,-19.531,-41.992,64.941
1688815025.495,-107.910,-37.598,-13.672,-41.504,239.746
1688815025.499,-91.309,-33.203,-12.207,-79.590,-43.457
1688815025.503,-54.199,-30.762,-18.066,-88.379,-266.602
1688815025.506,-51.270,-30.273,-20.508,-58.105,-40.039
1688815025.510,-80.566,-26.367,-20.996,-53.223,220.215
1688815025.514,-118.164,-27.344,-19.531,-52.734,-16.113
1688815025.518,-94.238,-26.367,-14.648,-62.012,-236.816
1688815025.522,-41.992,-25.879,-18.555,-62.500,-35.645
1688815025.526,-23.438,-32.715,-21.484,-47.363,113.770
1688815025.530,9.277,-29.297,-17.090,-47.852,-63.477
1688815025.533,18.555,-25.391,-19.043,-53.711,-91.309
1688815025.537,41.992,-26.367,-21.973,-63.965,-73.730
1688815025.541,107.910,-31.250,-24.414,-61.523,-141.602
1688815025.545,131.836,-29.785,-22.949,-48.828,-155.762
1688815025.549,122.559,-28.320,-19.043,-40.039,-178.223
1688815025.550,94.238,-33.203,-19.531,-26.855,134.766
1688815025.554,94.727,-35.645,-21.484,-49.316,159.668
1688815025.558,134.277,-35.645,-24.902,-68.848,-163.086
1688815025.562,149.902,-31.738,-27.344,-45.410,-140.625
1688815025.566,142.578,-32.227,-28.320,-43.457,-114.746
1688815025.570,115.723,-35.156,-26.367,-39.062,-41.992
1688815025.574,94.238,-35.645,-24.414,-49.316,2.441
1688815025.577,124.512,-36.133,-22.949,-60.059,67.383
1688815025.581,151.367,-34.180,-17.578,-36.621,88.379
1688815025.585,139.648,-30.273,-12.695,-20.996,-120.605
1688815025.589,88.867,-30.273,-8.301,-23.438,-166.992
1688815025.593,43.945,-37.598,-9.277,-41.504,30.762
1688815025.595,64.453,-45.898,-13.672,-50.293,321.289
1688815025.599,83.496,-43.457,-16.602,-47.852,89.844
1688815025.603,64.941,-39.551,-19.043,-43.945,-174.316
1688815025.607,21.973,-42.969,-20.508,-38.574,-141.602
1688815025.611,-5.371,-40.527,-20.020,-36.621,-155.273
1688815025.615,22.949,-39.062,-19.531,-42.480,-188.965
1688815025.619,49.805,-38.574,-17.090,-27.832,-47.852
1688815025.622,38.086,-37.109,-13.672,-17.578,116.211
1688815025.626,5.371,-40.527,-16.113,-19.531,-28.809
1688815025.630,-20.508,-43.457,-13.672,-23.438,-161.621
1688815025.634,0.977,-45.898,-11.230,-44.434,-111.816
1688815025.638,34.180,-43.457,-14.160,-30.762,-66.895
1688815025.655,33.203,-40.527,-17.090,-25.879,-104.492
1688815025.659,11.719,-39.551,-17.578,-32.227,-164.062
1688815025.663,-19.531,-38.086,-22.461,-29.297,-24.414
1688815025.667,-4.883,-38.574,-20.996,-45.410,187.500
1688815025.671,36.621,-36.133,-12.695,-44.922,-30.762
1688815025.675,40.039,-35.156,-16.602,-29.297,-138.184
1688815025.679,-29.785,-38.086,-15.137,-21.973,140.625
1688815025.682,-105.469,-37.598,-10.742,-17.578,320.312
1688815025.686,-89.355,-40.039,-17.578,-41.504,-16.113
1688815025.690,-38.086,-40.039,-16.113,-50.781,-201.660
1688815025.694,0.000,-36.621,-15.625,-34.180,-67.383
1688815025.698,10.742,-34.668,-12.207,-27.344,-68.359
1688815025.688,-10.742,-36.621,-12.695,-22.949,-166.504
1688815025.692,6.348,-37.598,-20.508,-37.598,-220.215
1688815025.696,60.547,-35.156,-18.555,-30.273,-17.578
1688815025.700,73.242,-36.621,-14.648,-11.230,17.578
1688815025.704,57.617,-39.062,-18.066,-18.066,-184.082
1688815025.708,16.113,-38.086,-19.531,-20.508,-73.242
1688815025.712,-1.953,-38.086,-18.066,-42.969,125.000
1688815025.715,35.645,-40.527,-16.113,-45.898,0.488
1688815025.719,37.598,-42.969,-14.160,-21.484,-192.383
1688815025.723,-1.953,-42.969,-13.184,-13.184,-124.023
1688815025.727,-54.199,-38.086,-16.602,-6.348,11.719
1688815025.731,-80.566,-40.039,-22.949,-23.438,-39.551
1688815025.730,-62.988,-45.410,-21.973,-44.434,-158.203
1688815025.734,-53.711,-39.062,-20.508,-23.438,-71.777
1688815025.738,-39.551,-35.645,-20.020,-14.648,33.691
1688815025.742,-49.316,-36.133,-20.996,-22.461,-28.809
1688815025.746,-62.500,-35.156,-19.043,-36.133,-112.793
1688815025.750,-17.090,-33.203,-15.625,-46.387,4.883
1688815025.754,17.578,-29.785,-18.066,-17.578,388.184
1688815025.757,14.648,-32.227,-19.531,-5.371,296.387
1688815025.761,-42.969,-32.227,-19.531,-21.973,-23.438
1688815025.765,-102.051,-35.156,-20.996,-34.180,106.934
1688815025.769,-83.496,-39.551,-19.531,-46.387,116.699
1688815025.773,-59.570,-33.691,-19.531,-33.691,-125.000
1688815025.777,-98.633,-36.621,-20.508,-28.809,-157.227
1688815025.781,-157.227,-38.086,-17.578,-27.344,-128.906
1688815025.785,-157.227,-31.250,-18.555,-26.367,-100.586
1688815025.789,-91.797,-31.738,-21.973,-48.340,-156.738
1688815025.793,-31.250,-32.227,-23.438,-39.551,-144.531
1688815025.797,-7.324,-33.203,-21.973,-22.949,-53.711
1688815025.801,-22.461,-31.250,-16.113,-24.902,-50.781
1688815025.804,-62.988,-30.273,-15.137,-35.645,-104.980
1688815025.808,-38.574,-29.785,-16.602,-50.781,-169.922
1688815025.812,9.766,-28.809,-17.090,-36.621,105.469
1688815025.816,10.742,-30.762,-15.137,-23.438,126.953
1688815025.820,-10.742,-30.273,-12.695,-21.973,-135.742
1688815025.836,-50.781,-32.227,-15.137,-18.066,-53.711
1688815025.840,-35.645,-41.016,-20.996,-37.598,-49.805
1688815025.844,18.066,-38.086,-22.461,-36.621,-152.832
1688815025.848,12.207,-34.668,-25.391,-16.113,-182.617
1688815025.852,-26.367,-40.039,-27.832,-8.301,23.438
1688815025.856,-63.477,-39.062,-22.949,-14.160,244.629
1688815025.860,-62.012,-36.621,-21.973,-39.062,-24.902
1688815025.863,-27.344,-37.109,-26.367,-46.875,-163.086
1688815025.867,-12.695,-37.598,-21.973,-31.250,0.977
1688815025.871,-41.992,-37.598,-22.461,-28.320,251.465
1688815025.875,-94.238,-37.109,-25.879,-39.551,66.406
1688815025.879,-90.332,-37.109,-25.879,-52.246,-139.160
1688815025.880,-32.715,-34.180,-21.484,-44.922,-32.227
1688815025.884,10.254,-31.250,-20.996,-20.508,-86.914
1688815025.888,15.137,-28.320,-23.438,-13.184,-172.852
1688815025.892,-12.695,-27.832,-21.973,-17.090,-105.469
1688815025.896,-15.137,-34.180,-26.855,-38.574,-50.293
1688815025.900,20.020,-35.645,-26.855,-46.875,0.488
1688815025.904,33.203,-27.344,-18.066,-27.344,1.465
1688815025.907,26.367,-25.391,-15.625,-24.414,-111.328
1688815025.911,-4.883,-26.367,-13.672,-23.926,91.309
1688815025.915,-24.414,-28.809,-12.695,-30.273,104.980
1688815025.919,6.348,-23.926,-10.742,-43.457,-233.398
1688815025.923,-8.789,-19.043,-9.766,-31.738,-205.078
1688815025.971,-74.219,-26.855,-10.254,-20.508,-99.121
1688815025.975,-150.391,-30.762,-12.207,-10.254,-42.480
1688815025.979,-211.914,-29.785,-13.184,-23.926,-70.312
1688815025.983,-207.031,-32.715,-10.742,-40.527,-56.641
1688815025.987,-203.125,-35.645,-9.766,-25.879,22.461
1688815025.991,-236.328,-31.738,-5.859,-23.926,-54.199
1688815025.995,-277.344,-31.738,-7.324,-27.832,-95.703
1688815025.998,-315.918,-35.645,-6.348,-38.086,58.594
1688815026.002,-296.875,-30.762,-5.371,-53.223,360.352
1688815026.006,-263.672,-29.297,-6.348,-43.457,89.844
1688815026.010,-265.137,-31.738,-6.348,-37.109,-248.535
1688815026.014,-286.133,-27.832,-7.812,-33.691,-142.578
1688815025.974,-305.176,-22.949,-7.324,-24.414,-101.562
1688815025.978,-275.391,-23.438,-4.883,-39.551,-165.039
1688815025.982,-231.934,-28.809,-4.883,-38.574,-197.754
1688815025.986,-220.703,-27.832,-7.324,-20.020,-133.301
1688815025.990,-226.074,-27.832,-9.766,-16.113,-36.133
1688815025.994,-233.887,-30.273,-13.184,-20.508,15.625
1688815025.998,-187.988,-28.809,-15.625,-41.504,-37.598
1688815026.001,-119.629,-22.949,-13.672,-36.133,-35.156
1688815026.005,-82.031,-28.809,-15.625,-20.020,-69.336
1688815026.009,-60.059,-32.715,-15.625,-27.832,-102.051
1688815026.013,-48.340,-26.855,-14.160,-31.250,11.719
1688815026.017,2.441,-28.809,-13.184,-46.387,25.391
1688815026.015,56.641,-34.668,-14.160,-49.316,-130.859
1688815026.019,78.613,-31.738,-18.066,-34.180,-222.168
1688815026.023,74.219,-28.809,-17.578,-29.297,-40.039
1688815026.027,29.785,-29.297,-16.113,-19.531,175.293
1688815026.031,17.090,-26.855,-11.719,-42.969,34.180
1688815026.035,46.875,-26.367,-11.230,-53.223,-74.219
1688815026.039,42.969,-31.250,-13.672,-29.297,15.625
1688815026.042,14.160,-39.062,-19.043,-22.949,313.965
1688815026.046,-32.715,-34.668,-19.043,-13.184,441.895
1688815026.050,-58.594,-27.832,-16.602,-27.344,113.770
1688815026.054,-9.277,-28.320,-20.508,-43.457,-170.410
1688815026.058,1.953,-31.738,-20.996,-27.832,-130.371
1688815026.076,-16.113,-33.691,-17.090,-21.484,-161.621
1688815026.080,-23.926,-34.668,-16.113,-20.996,-159.180
1688815026.084,-41.992,-34.180,-13.672,-39.062,-109.375
1688815026.088,-20.020,-34.668,-12.695,-54.688,-190.918
1688815026.092,-4.883,-40.527,-15.625,-38.086,-143.066
1688815026.096,-21.973,-41.016,-17.578,-25.391,-59.082
1688815026.100,-62.012,-39.062,-17.090,-20.020,237.793
1688815026.103,-59.082,-34.668,-12.695,-30.273,242.188
1688815026.107,5.859,-28.809,-13.184,-45.898,-141.113
1688815026.111,46.875,-30.762,-15.625,-25.391,-45.898
1688815026.115,51.758,-33.691,-20.020,-20.508,138.184
1688815026.119,18.555,-30.273,-18.066,-25.391,53.711
1688815026.135,-11.230,-30.273,-18.555,-32.227,-109.375
1688815026.139,-1.465,-35.156,-23.438,-50.781,-125.488
1688815026.143,-7.812,-36.133,-23.438,-39.551,-30.273
1688815026.147,-60.547,-37.109,-19.531,-31.738,-114.746
1688815026.151,-129.883,-33.203,-17.578,-30.762,-174.805
1688815026.155,-159.668,-31.250,-19.043,-33.203,-48.828
1688815026.159,-124.023,-33.691,-19.043,-49.316,-113.281
1688815026.162,-83.984,-31.738,-15.625,-42.969,-154.297
1688815026.166,-89.355,-31.250,-17.090,-38.574,-28.809
1688815026.170,-122.559,-35.156,-19.043,-36.621,60.547
1688815026.174,-140.137,-29.297,-12.207,-31.738,98.633
1688815026.178,-116.699,-27.832,-8.789,-54.199,-85.938
1688815026.166,-101.562,-36.621,-10.742,-44.434,-196.777
1688815026.170,-129.883,-36.621,-12.207,-21.484,32.715
1688815026.174,-165.039,-34.180,-11.719,-10.254,388.672
1688815026.178,-202.148,-33.203,-12.207,-19.531,150.391
1688815026.182,-184.570,-32.227,-13.184,-49.805,-178.711
1688815026.186,-142.578,-32.715,-10.254,-45.898,-34.668
1688815026.190,-138.672,-31.738,-10.742,-24.414,-62.988
1688815026.193,-149.414,-31.738,-14.648,-28.320,-202.148
1688815026.197,-166.504,-36.133,-19.531,-30.762,-107.910
1688815026.201,-144.531,-32.715,-22.461,-45.898,-72.266
1688815026.205,-64.941,-28.320,-15.625,-49.805,-137.695
1688815026.209,-11.230,-29.785,-15.625,-23.926,-161.133
1688815026.210,-20.020,-35.645,-24.902,-25.391,-157.715
1688815026.214,-46.875,-38.086,-23.438,-16.113,208.984
1688815026.218,-20.020,-30.762,-20.996,-17.578,165.039
1688815026.222,36.621,-25.879,-22.461,-26.367,-268.555
1688815026.226,45.898,-25.879,-19.043,-8.301,-170.898
1688815026.230,18.555,-28.320,-19.531,-15.625,-45.410
1688815026.234,-20.996,-35.645,-23.926,-18.066,-69.824
1688815026.237,-30.273,-38.574,-24.902,-18.555,-95.703
1688815026.241,-11.230,-33.203,-21.484,-19.043,77.637
1688815026.245,-16.113,-37.109,-20.020,0.977,133.789
1688815026.249,-47.363,-38.086,-19.043,-3.906,-132.324
1688815026.253,-109.375,-35.156,-18.555,-8.789,-161.133
1688815026.255,-145.996,-35.645,-22.461,-13.672,48.340
1688815026.259,-118.164,-36.133,-24.414,-31.738,101.562
1688815026.263,-88.867,-37.109,-20.996,-22.949,-114.746
1688815026.267,-88.379,-35.156,-20.508,-16.602,-50.781
1688815026.271,-116.211,-32.227,-22.949,-20.508,99.609
1688815026.275,-131.348,-30.273,-16.113,-28.809,21.973
1688815026.279,-74.219,-29.297,-16.113,-48.340,-102.539
1688815026.282,-19.531,-29.297,-23.926,-30.273,-173.828
1688815026.286,-2.441,-33.203,-25.879,-11.719,76.660
1688815026.290,6.348,-33.203,-21.973,-12.207,129.395
1688815026.294,9.277,-29.297,-18.066,-20.996,-168.457
1688815026.298,33.691,-33.203,-19.531,-39.551,-187.012
1688815026.301,7.812,-37.109,-24.902,-23.438,-132.324
1688815026.305,-38.574,-39.062,-30.273,-12.207,-160.156
1688815026.309,-62.988,-34.180,-27.832,-16.113,-122.559
1688815026.313,-95.215,-30.273,-23.926,-16.113,-77.148
1688815026.317,-45.898,-34.180,-22.949,-38.086,-125.488
1688815026.321,23.438,-36.133,-22.461,-34.180,-72.266
1688815026.325,34.180,-35.645,-21.484,-20.996,-58.594
1688815026.328,11.230,-41.016,-23.438,-21.484,52.734
1688815026.332,-14.160,-40.039,-21.973,-5.371,386.230
1688815026.336,5.859,-36.133,-20.020,-23.438,212.891
1688815026.340,40.039,-34.180,-20.020,-24.902,-170.898
1688815026.344,26.855,-37.598,-20.020,-3.906,-33.203
1688815026.361,0.488,-39.062,-22.949,-1.953,-10.742
1688815026.365,-7.812,-38.086,-24.414,-3.418,-134.766
1688815026.369,23.438,-39.551,-22.949,-23.438,-109.863
1688815026.373,70.801,-37.109,-20.996,-21.973,-132.812
1688815026.377,70.312,-38.574,-20.508,-13.184,-104.980
1688815026.381,40.527,-39.062,-20.508,-17.090,-75.195
1688815026.385,-0.977,-33.691,-18.555,-14.648,0.977
1688815026.388,-11.719,-33.203,-16.602,-35.156,100.586
1688815026.392,30.273,-30.762,-10.742,-31.738,97.656
1688815026.396,40.527,-29.297,-12.695,-10.742,-99.609
1688815026.400,4.395,-33.691,-21.484,-11.719,-156.738
1688815026.404,-21.484,-35.645,-19.043,0.977,101.074
1688815026.422,-3.906,-33.203,-19.043,-16.113,7.324
1688815026.426,39.551,-31.250,-23.926,-44.434,-206.543
1688815026.430,27.832,-33.203,-20.996,-24.414,-72.754
1688815026.434,-26.855,-36.133,-16.113,-8.301,-2.930
1688815026.438,-89.844,-33.203,-13.672,-8.789,-156.738
1688815026.442,-107.422,-31.738,-16.602,-24.414,-148.438
1688815026.446,-68.848,-31.738,-13.184,-31.738,59.082
1688815026.449,-73.242,-33.691,-9.766,-15.137,97.168
1688815026.453,-128.906,-35.645,-12.695,-20.020,-54.199
1688815026.457,-212.891,-34.668,-11.230,-24.414,-101.562
1688815026.461,-260.254,-35.156,-10.254,-22.461,104.004
1688815026.465,-235.352,-36.621,-14.648,-32.227,133.789
1688815026.437,-231.934,-39.062,-19.531,-24.414,-73.730
1688815026.441,-272.949,-36.621,-22.949,-21.484,-175.293
1688815026.445,-319.336,-31.738,-18.066,-8.301,52.734
1688815026.449,-349.609,-31.738,-15.137,1.953,310.059
1688815026.453,-307.617,-30.762,-17.578,-33.691,-71.289
1688815026.457,-268.555,-31.250,-19.043,-28.320,-161.621
1688815026.461,-263.672,-33.203,-20.508,-7.324,100.098
1688815026.464,-253.906,-32.715,-16.602,-5.371,70.312
1688815026.468,-250.488,-39.551,-19.531,-17.090,-95.215
1688815026.472,-191.406,-43.945,-25.879,-32.715,-166.504
1688815026.476,-116.211,-38.574,-21.484,-11.230,-94.238
1688815026.480,-83.008,-35.645,-18.555,0.977,-144.043
1688815026.497,-85.938,-33.203,-22.461,-9.766,-162.598
1688815026.501,-99.121,-32.227,-21.973,-13.672,-72.754
1688815026.505,-69.336,-31.250,-19.531,-21.484,151.855
1688815026.509,-33.203,-29.785,-20.020,-14.160,124.023
1688815026.513,-15.625,-36.133,-20.508,-2.441,-203.613
1688815026.517,-20.508,-38.574,-20.020,-3.418,-57.617
1688815026.521,-49.316,-32.227,-17.578,0.488,292.480
1688815026.524,-40.039,-37.109,-15.625,-25.391,97.168
1688815026.528,-7.812,-40.039,-21.973,-31.738,-176.758
1688815026.532,-17.090,-36.133,-20.508,-4.883,0.488
1688815026.536,-59.082,-36.133,-17.090,-0.977,93.262
1688815026.540,-104.980,-35.156,-22.949,-7.324,-160.156
1688815026.541,-102.539,-36.621,-23.438,-26.367,-156.250
1688815026.545,-62.500,-33.203,-20.996,-31.250,-32.715
1688815026.549,-52.246,-31.738,-20.508,-9.277,-81.055
1688815026.553,-69.824,-35.156,-20.508,-11.230,-136.719
1688815026.557,-107.422,-35.156,-21.484,-17.090,-124.512
1688815026.561,-108.398,-34.180,-20.020,-30.273,136.230
1688815026.565,-66.895,-40.527,-22.461,-43.457,92.773
1688815026.568,-53.223,-39.551,-19.531,-29.297,-143.066
1688815026.572,-73.242,-36.621,-17.090,-21.484,-73.242
1688815026.576,-108.398,-38.086,-26.855,-9.766,217.773
1688815026.580,-92.773,-37.109,-23.926,-17.578,203.613
1688815026.584,-37.109,-35.156,-20.996,-31.250,-191.406
1688815026.586,-21.484,-35.156,-24.414,-9.766,-133.789
1688815026.590,-30.762,-35.645,-20.996,-2.930,-102.051
1688815026.594,-50.781,-38.086,-19.043,-11.230,-150.391
1688815026.598,-60.547,-37.598,-18.555,-27.832,-128.906
1688815026.602,-28.320,-32.715,-17.578,-33.203,-122.559
1688815026.606,-25.879,-30.762,-13.672,-16.113,-79.590
1688815026.610,-40.039,-30.273,-9.766,-3.418,-80.566
1688815026.613,-64.453,-32.715,-16.113,-5.371,-89.355
1688815026.617,-87.402,-31.250,-19.531,-17.090,94.238
1688815026.621,-60.547,-30.273,-15.625,-20.020,316.895
1688815026.625,-48.340,-34.668,-19.043,-9.766,47.363
1688815026.629,-65.430,-38.574,-23.438,-5.859,-247.070
1688815026.631,-93.262,-43.457,-20.020,-3.906,-27.344
1688815026.635,-128.418,-44.434,-14.648,-0.488,87.891
1688815026.639,-133.301,-41.016,-13.672,-16.113,-84.473
1688815026.643,-136.230,-37.598,-16.113,-34.668,-175.781
1688815026.647,-159.180,-35.156,-15.625,-25.391,-40.527
1688815026.651,-209.961,-35.645,-11.719,-21.973,38.574
1688815026.655,-254.883,-36.621,-13.672,-39.551,-86.914
1688815026.658,-216.797,-29.785,-17.578,-60.547,-64.941
1688815026.662,-185.547,-26.367,-20.996,-50.781,68.359
1688815026.666,-178.223,-24.414,-21.484,-43.945,-42.969
1688815026.670,-172.363,-21.484,-23.438,-49.805,-229.004
1688815026.674,-193.848,-20.020,-25.879,-51.758,-131.836
1688815026.679,-171.875,-19.043,-24.414,-68.359,-20.508
1688815026.683,-138.672,-20.020,-29.297,-58.594,-109.863
1688815026.687,-142.578,-19.531,-26.855,-31.250,-180.664
1688815026.691,-175.293,-17.578,-17.578,-24.902,-34.180
1688815026.695,-218.262,-17.090,-17.090,-29.297,277.344
1688815026.699,-203.125,-20.020,-20.508,-52.246,143.066
1688815026.703,-156.738,-25.879,-21.484,-55.176,-89.844
1688815026.706,-147.949,-24.902,-18.066,-29.297,81.055
1688815026.710,-164.551,-16.602,-14.160,-14.160,169.434
1688815026.714,-187.988,-19.531,-15.137,-24.902,-50.781
1688815026.718,-172.363,-25.391,-14.648,-42.969,-107.422
1688815026.722,-115.234,-20.996,-15.625,-36.621,-27.832
1688815026.720,-67.383,-21.484,-17.090,-10.254,2.930
1688815026.724,-31.250,-24.902,-16.113,-4.395,-83.984
1688815026.728,-42.480,-25.879,-16.113,-10.254,-109.863
1688815026.732,-46.875,-26.367,-19.043,-34.180,-100.586
1688815026.736,4.883,-27.832,-19.531,-43.945,-125.000
1688815026.740,26.367,-26.855,-17.578,-22.949,-119.629
1688815026.744,22.949,-25.391,-15.625,-19.043,-101.562
1688815026.747,2.930,-24.902,-14.648,-10.254,182.129
1688815026.751,-16.602,-24.902,-10.742,-26.367,333.496
1688815026.755,20.508,-23.438,-13.184,-50.781,-35.156
1688815026.759,44.922,-19.531,-15.137,-32.715,-133.789
1688815026.763,19.531,-20.508,-11.719,-23.438,-13.672
1688815026.767,-33.691,-26.367,-10.742,-29.785,-19.531
1688815026.771,-62.988,-32.227,-11.719,-43.945,-53.711
1688815026.775,-45.898,-32.715,-12.695,-48.828,-37.598
1688815026.779,-41.992,-28.320,-12.695,-30.273,-9.277
1688815026.783,-59.570,-24.414,-10.254,-20.020,-135.254
1688815026.787,-95.215,-25.879,-7.812,-14.648,-174.316
1688815026.791,-132.812,-31.250,-15.137,-23.438,-30.762
1688815026.794,-103.027,-32.227,-20.508,-44.922,161.621
1688815026.798,-63.477,-29.785,-13.672,-39.551,12.207
1688815026.802,-55.176,-28.320,-9.277,-33.691,-210.449
1688815026.806,-84.961,-36.133,-11.719,-42.480,16.113
1688815026.810,-124.512,-38.574,-9.766,-42.480,162.109
1688815026.840,-100.586,-36.133,-9.277,-59.082,-102.539
1688815026.844,-72.754,-31.738,-12.207,-59.570,-223.633
1688815026.848,-54.199,-27.832,-12.695,-41.992,-103.516
1688815026.852,-10.742,-31.250,-12.695,-38.574,-56.152
1688815026.856,15.137,-35.156,-15.625,-46.387,-179.688
1688815026.860,69.336,-31.738,-12.695,-56.152,-142.090
1688815026.864,141.113,-30.762,-10.254,-41.504,166.992
1688815026.867,182.129,-36.133,-10.742,-19.043,290.527
1688815026.871,192.383,-31.738,-15.625,-11.719,-95.215
1688815026.875,166.016,-21.973,-20.996,-33.691,-193.359
1688815026.879,191.406,-15.625,-22.461,-63.965,-93.750
1688815026.883,239.746,-11.719,-28.320,-52.734,-68.848
1688815026.859,233.398,-5.371,-36.133,-38.086,-78.125
1688815026.863,211.426,-1.465,-43.945,-38.086,-77.637
1688815026.867,159.180,2.930,-48.828,-35.156,-19.531
1688815026.871,120.117,4.883,-51.758,-60.059,-103.516
1688815026.875,114.746,10.742,-62.012,-63.477,-186.035
1688815026.879,77.148,20.508,-70.801,-44.434,-1.953
1688815026.883,32.715,23.438,-73.730,-47.363,56.641
1688815026.886,-19.531,25.879,-75.684,-46.387,-33.691
1688815026.890,-52.734,28.809,-83.008,-62.500,-95.215
1688815026.894,-43.457,27.832,-91.797,-69.336,90.820
1688815026.898,-56.641,30.762,-94.727,-44.922,122.559
1688815026.902,-88.379,35.156,-96.680,-43.457,-69.336
1688815026.915,-125.977,41.992,-97.168,-49.316,-99.609
1688815026.919,-121.094,46.875,-100.586,-60.547,92.773
1688815026.923,-60.547,41.504,-104.004,-78.613,93.750
1688815026.927,-24.414,43.457,-105.469,-67.383,-150.879
1688815026.931,-45.410,48.828,-107.422,-68.359,-181.152
1688815026.935,-110.840,47.852,-114.258,-65.430,108.398
1688815026.939,-163.086,49.805,-115.723,-62.988,466.309
1688815026.942,-145.996,53.223,-108.887,-77.148,78.613
1688815026.946,-119.629,50.293,-103.516,-62.988,-258.789
1688815026.950,-141.113,46.387,-103.027,-54.688,-96.680
1688815026.954,-196.289,45.410,-103.516,-48.828,-85.449
1688815026.958,-228.516,41.992,-96.191,-51.270,-164.551
1688815026.960,-195.312,42.480,-90.820,-68.359,-177.734
1688815026.964,-136.230,36.133,-91.309,-53.711,-91.309
1688815026.968,-89.355,27.832,-89.844,-41.992,-101.074
1688815026.972,-88.379,25.391,-88.867,-38.086,-186.523
1688815026.976,-93.262,23.926,-84.961,-35.156,-59.570
1688815026.980,-63.965,19.043,-82.520,-58.105,33.691
1688815026.984,-58.105,16.113,-80.078,-45.898,-92.773
1688815026.987,-69.824,12.695,-74.707,-29.297,-73.730
1688815026.991,-68.848,3.418,-67.383,-29.297,101.074
1688815026.995,-78.125,0.000,-66.406,-17.578,286.621
1688815026.999,-59.082,1.465,-65.918,-39.551,106.445
1688815027.003,-16.602,-2.441,-62.012,-43.945,-198.730
1688815027.007,1.465,-5.859,-66.406,-25.391,-8.301
1688815027.011,-14.648,-7.812,-71.289,-25.391,248.535
1688815027.015,-62.012,-9.277,-69.824,-27.832,-13.672
1688815027.019,-85.449,-9.766,-64.453,-39.551,-190.430
1688815027.023,-66.895,-9.766,-58.594,-27.832,-38.086
1688815027.027,-45.898,-14.648,-56.152,-7.812,26.855
1688815027.031,-66.895,-17.578,-53.711,-10.742,-32.227
1688815027.034,-125.000,-14.160,-48.828,-19.043,-34.180
1688815027.038,-123.047,-13.672,-39.551,-31.250,160.156
1688815027.042,-84.961,-15.137,-38.574,-32.715,123.535
1688815027.046,-75.195,-16.113,-41.504,-20.020,-168.457
1688815027.050,-91.797,-15.137,-36.621,-11.719,-41.504
1688815027.050,-163.574,-11.230,-37.598,-13.672,42.969
1688815027.054,-189.941,-13.672,-40.527,-31.250,-112.305
1688815027.058,-131.348,-16.602,-33.203,-34.668,-226.562
1688815027.062,-95.215,-18.555,-28.809,-7.812,-126.465
1688815027.066,-111.328,-19.531,-30.273,-6.836,-41.992
1688815027.070,-170.410,-19.531,-33.203,-12.695,-67.871
1688815027.074,-185.059,-20.508,-36.133,-29.785,-88.867
1688815027.077,-135.254,-22.461,-31.250,-35.156,62.988
1688815027.081,-104.492,-18.555,-27.832,-6.836,176.758
1688815027.085,-76.172,-13.184,-33.691,-2.930,-97.168
1688815027.089,-81.543,-15.137,-35.645,-5.859,-219.727
1688815027.093,-102.539,-22.949,-30.762,-17.090,-19.043
1688815027.111,-47.852,-17.090,-30.762,-21.973,196.289
1688815027.115,-10.254,-11.719,-33.691,-7.812,-79.102
1688815027.119,-36.133,-15.137,-32.227,-17.578,-170.410
1688815027.123,-80.566,-14.160,-30.273,-14.648,-1.465
1688815027.127,-95.215,-17.578,-29.785,-18.066,-68.848
1688815027.131,-44.922,-23.926,-30.273,-48.340,-87.402
1688815027.135,30.273,-24.414,-25.391,-29.785,-6.348
1688815027.138,59.082,-24.414,-23.438,-3.906,153.320
1688815027.142,-20.508,-26.855,-25.879,-15.625,102.539
1688815027.146,-108.398,-26.367,-26.367,-33.691,-142.090
1688815027.150,-116.211,-29.297,-24.902,-45.898,-195.312
1688815027.154,-120.117,-26.855,-22.949,-32.227,-150.391
1688815027.141,-156.738,-23.926,-23.438,-18.555,-84.961
1688815027.145,-204.102,-23.926,-20.508,-15.625,-118.164
1688815027.149,-255.859,-24.414,-17.578,-28.320,-27.832
1688815027.153,-251.465,-22.949,-17.578,-41.504,22.949
1688815027.157,-198.730,-24.902,-16.602,-26.855,-113.281
1688815027.161,-191.895,-29.785,-15.137,-16.602,-132.812
1688815027.165,-239.746,-29.297,-16.602,-6.836,98.145
1688815027.168,-259.766,-30.273,-16.602,-2.930,175.781
1688815027.172,-202.637,-28.809,-16.113,-25.391,-47.363
1688815027.176,-144.531,-22.949,-13.672,-15.625,-201.660
1688815027.180,-139.160,-22.461,-15.137,-0.488,-125.488
1688815027.184,-170.898,-28.320,-20.508,0.977,263.184
1688815027.185,-204.102,-31.250,-19.043,-5.859,112.793
1688815027.189,-178.711,-26.855,-14.160,-36.133,-236.328
1688815027.193,-148.926,-25.391,-15.137,-31.738,-198.242
1688815027.197,-156.738,-24.902,-19.043,-19.043,-147.949
1688815027.201,-175.293,-27.344,-19.531,-22.949,-125.977
1688815027.205,-212.402,-32.227,-24.902,-18.555,-78.613
1688815027.209,-210.938,-29.785,-26.367,-38.574,43.945
1688815027.212,-160.645,-32.227,-25.879,-50.293,66.406
1688815027.216,-125.000,-32.715,-25.391,-34.180,-75.195
1688815027.220,-85.449,-28.320,-20.996,-26.855,-155.762
1688815027.224,-93.750,-28.320,-19.043,-11.230,164.551
1688815027.228,-117.188,-27.832,-18.066,-22.461,180.176
1688815027.236,-84.961,-28.320,-14.160,-40.039,-181.152
1688815027.240,-47.852,-28.809,-16.113,-21.973,-92.773
1688815027.244,-47.363,-25.879,-16.602,-17.578,-27.832
1688815027.248,-62.500,-28.809,-16.602,-20.020,-110.840
1688815027.252,-40.039,-27.832,-20.508,-34.668,-120.117
1688815027.256,20.020,-22.949,-21.484,-40.527,-21.973
1688815027.260,52.734,-20.020,-18.555,-11.719,118.164
1688815027.263,18.555,-20.996,-21.484,-14.648,13.672
1688815027.267,-63.965,-22.949,-21.484,-20.996,-71.777
1688815027.271,-106.445,-22.949,-14.648,-20.508,55.176
1688815027.275,-99.121,-27.832,-14.160,-36.133,32.227
1688815027.279,-116.699,-34.668,-20.996,-34.668,-121.094
1688815027.290,-142.090,-39.551,-24.414,-38.574,-144.531
1688815027.294,-191.406,-39.062,-23.926,-36.621,91.309
1688815027.298,-202.637,-37.598,-17.578,-46.875,108.887
1688815027.302,-128.418,-34.668,-17.578,-54.688,-161.621
1688815027.306,-74.219,-35.156,-19.531,-30.273,-205.078
1688815027.310,-71.777,-38.086,-19.043,-21.484,164.062
1688815027.314,-115.234,-32.227,-17.578,-16.602,562.988
1688815027.317,-181.641,-32.227,-23.438,-25.391,277.344
1688815027.321,-180.176,-38.574,-24.902,-52.734,-72.754
1688815027.325,-164.551,-38.086,-21.484,-51.270,-126.465
1688815027.329,-214.355,-33.691,-23.438,-37.598,-104.492
1688815027.333,-277.344,-28.809,-23.926,-39.551,-84.473
1688815027.351,-318.848,-22.949,-29.785,-47.363,-25.879
1688815027.355,-289.062,-20.996,-26.855,-37.109,-35.156
1688815027.359,-264.160,-33.691,-9.277,-16.113,-142.578
1688815027.363,-307.129,-47.852,0.000,-21.973,-226.074
1688815027.367,-336.914,-51.758,8.301,-30.273,-80.566
1688815027.371,-355.469,-58.594,15.625,-41.016,149.414
1688815027.375,-347.168,-71.289,17.090,-79.590,30.273
1688815027.378,-284.668,-78.613,23.926,-85.449,-136.230
1688815027.382,-234.375,-86.914,33.691,-72.754,-69.824
1688815027.386,-197.754,-93.750,33.691,-70.312,296.875
1688815027.390,-138.184,-98.145,41.016,-81.543,193.848
1688815027.394,-62.988,-108.887,58.594,-114.258,-163.086
1688815027.381,26.367,-112.305,63.477,-109.863,-143.066
1688815027.385,73.730,-119.629,67.383,-88.867,-41.016
1688815027.389,57.129,-128.418,72.266,-91.797,-94.238
1688815027.393,21.484,-126.953,80.078,-81.543,-164.551
1688815027.397,26.367,-126.465,81.543,-90.820,-31.738
1688815027.401,65.918,-134.277,71.289,-100.586,-8.789
1688815027.405,110.352,-134.277,68.848,-74.219,-33.691
1688815027.408,134.277,-125.000,65.918,-63.477,-28.320
1688815027.412,126.953,-118.164,64.941,-53.223,-36.621
1688815027.416,148.926,-110.352,63.477,-65.430,-113.281
1688815027.420,210.938,-107.422,52.246,-77.637,-219.238
1688815027.424,244.629,-104.492,45.410,-56.641,-150.391
1688815027.440,248.047,-100.098,49.316,-45.898,6.348
1688815027.444,242.188,-91.797,48.340,-40.039,-16.113
1688815027.448,243.652,-88.379,41.016,-56.152,-158.203
1688815027.452,286.621,-91.309,34.180,-70.312,-88.379
1688815027.456,313.477,-85.938,29.785,-42.969,258.789
1688815027.460,302.246,-80.078,25.391,-30.762,162.598
1688815027.464,264.648,-75.195,26.855,-30.273,-72.754
1688815027.467,247.070,-73.242,28.320,-33.203,63.477
1688815027.471,268.555,-74.707,17.090,-38.086,295.410
1688815027.475,275.879,-72.266,16.113,-28.320,69.336
1688815027.479,267.578,-64.453,22.949,-32.715,-193.359
1688815027.483,236.816,-61.523,20.508,-35.645,-50.781
1688815027.470,207.031,-69.824,14.160,-40.039,-15.137
1688815027.474,227.051,-68.359,6.836,-58.105,-122.559
1688815027.478,240.723,-57.129,9.277,-41.016,-139.160
1688815027.482,227.051,-53.223,13.184,-17.578,-18.066
1688815027.486,192.871,-51.758,12.695,-14.648,8.301
1688815027.490,157.715,-49.805,14.160,-20.020,-53.711
1688815027.494,187.012,-46.387,14.160,-35.645,-30.273
1688815027.497,214.844,-42.969,10.742,-24.414,51.270
1688815027.501,187.012,-44.434,8.789,-12.695,-31.738
1688815027.505,136.719,-48.828,6.836,-13.184,-117.188
1688815027.509,88.379,-51.270,2.930,-16.602,-31.738
1688815027.513,103.027,-48.340,1.953,-34.668,196.289
1688815027.515,141.113,-45.898,-2.930,-29.785,190.430
1688815027.519,142.090,-46.387,-5.859,-15.137,-130.859
1688815027.523,129.883,-41.504,-2.441,-17.578,-132.812
1688815027.527,101.074,-39.551,-3.906,-29.785,-84.473
1688815027.531,111.328,-44.434,-7.324,-48.828,-153.320
1688815027.535,153.809,-41.504,-2.441,-41.992,-138.672
1688815027.539,155.273,-39.551,-4.883,-19.043,31.738
1688815027.542,136.230,-36.621,-5.371,-14.648,381.348
1688815027.546,97.656,-35.645,-1.465,-20.508,283.691
1688815027.550,92.773,-35.645,-4.395,-41.016,-134.277
1688815027.554,129.395,-36.133,-5.371,-34.668,-83.496
1688815027.558,136.719,-39.062,-5.371,-4.395,16.113
1688815027.576,110.840,-39.062,-9.277,-10.742,-135.254
1688815027.580,62.012,-36.621,-11.719,-20.508,-165.527
1688815027.584,49.805,-38.574,-9.766,-47.852,-146.484
1688815027.588,86.426,-40.039,-11.719,-55.664,-183.105
1688815027.592,108.887,-35.645,-11.719,-26.367,-159.668
1688815027.596,118.164,-36.621,-9.277,-20.020,-50.781
1688815027.600,90.332,-38.574,-9.277,-16.602,187.012
1688815027.603,74.707,-38.086,-10.254,-29.297,78.125
1688815027.607,117.676,-37.109,-8.789,-44.922,-211.914
1688815027.611,150.879,-38.086,-8.789,-32.227,-171.387
1688815027.615,158.203,-38.574,-6.836,-29.785,-86.914
1688815027.619,141.602,-37.598,-8.301,-25.879,-9.766
1688815027.606,140.625,-38.574,-13.672,-33.691,-146.484
1688815027.610,187.500,-37.109,-16.113,-51.758,-206.055
1688815027.614,221.680,-31.250,-17.090,-17.090,98.633
1688815027.618,191.406,-34.668,-14.160,-20.020,-18.555
1688815027.622,111.816,-41.992,-9.277,-53.223,-216.309
1688815027.626,74.219,-39.062,-5.371,-55.664,64.453
1688815027.630,104.492,-38.086,-4.395,-62.012,92.773
1688815027.633,83.984,-44.434,-3.418,-55.664,-29.785
1688815027.637,17.578,-49.316,-5.371,-52.734,-72.266
1688815027.641,-29.785,-51.758,-7.324,-43.945,36.621
1688815027.645,-63.477,-50.293,-5.371,-37.109,328.125
1688815027.649,-15.625,-45.898,1.465,-49.316,114.258
1688815027.665,63.477,-43.457,-0.977,-43.945,-253.418
1688815027.669,94.238,-45.410,-9.277,-31.250,56.641
1688815027.673,90.820,-42.480,-9.766,-25.879,212.891
1688815027.677,64.453,-39.062,-12.695,-33.691,-88.867
1688815027.681,69.824,-41.992,-14.160,-49.316,-142.090
1688815027.685,83.008,-41.504,-11.230,-32.715,-23.438
1688815027.689,60.059,-40.039,-13.184,-17.090,15.137
1688815027.692,19.043,-43.457,-15.137,-23.438,-120.605
1688815027.696,-22.949,-44.922,-14.160,-30.762,-172.852
1688815027.700,0.488,-44.922,-13.672,-45.898,-13.184
1688815027.704,51.758,-42.969,-15.137,-41.992,-36.133
1688815027.708,57.129,-42.480,-20.020,-29.297,-181.152
1688815027.710,37.598,-46.875,-25.879,-26.855,-104.980
1688815027.714,5.371,-45.410,-24.902,-25.391,-52.734
1688815027.718,12.207,-41.016,-21.973,-44.922,-65.430
1688815027.722,43.457,-38.574,-20.020,-34.180,-76.660
1688815027.726,41.504,-36.133,-17.090,-8.301,-11.719
1688815027.730,13.672,-35.156,-16.602,-12.695,114.258
1688815027.734,-31.250,-38.086,-20.020,-19.043,44.922
1688815027.737,-26.855,-37.598,-22.461,-43.457,-142.090
1688815027.741,15.137,-35.156,-22.461,-48.340,-101.562
1688815027.745,20.020,-37.598,-26.367,-23.438,227.539
1688815027.749,-5.859,-36.133,-27.832,-16.602,93.750
1688815027.753,-79.590,-38.574,-26.855,-22.949,-182.617
1688815027.756,-108.398,-44.922,-31.738,-45.410,-158.691
1688815027.760,-53.711,-36.133,-27.344,-50.293,-207.520
1688815027.764,-49.805,-32.227,-20.996,-24.902,-228.516
1688815027.768,-69.824,-36.621,-15.625,-15.137,-147.461
1688815027.772,-67.383,-34.668,-9.766,-15.137,-106.934
1688815027.776,-42.480,-36.621,-14.160,-31.250,-36.133
1688815027.780,30.762,-37.109,-17.090,-48.828,-9.277
1688815027.783,68.848,-36.133,-19.531,-45.898,-103.027
1688815027.787,60.059,-34.668,-22.949,-38.574,142.090
1688815027.791,20.508,-30.762,-17.578,-26.855,285.156
1688815027.795,-9.277,-29.297,-15.625,-40.039,-60.547
1688815027.799,4.883,-31.738,-22.461,-56.641,-150.391
1688815027.816,2.930,-27.344,-24.414,-34.668,-117.188
1688815027.820,-47.363,-28.320,-22.461,-22.949,-162.109
1688815027.824,-134.766,-31.250,-26.367,-21.973,-122.070
1688815027.828,-187.988,-25.391,-25.391,-18.555,-108.887
1688815027.832,-113.770,-24.414,-24.414,-33.203,-143.555
1688815027.836,-20.996,-31.738,-25.879,-19.043,-121.582
1688815027.840,17.578,-36.133,-29.297,-4.395,-113.770
1688815027.843,23.926,-33.203,-30.762,-12.207,62.988
1688815027.847,17.578,-32.227,-25.879,-24.902,266.113
1688815027.851,73.730,-32.227,-20.508,-41.016,31.738
1688815027.855,138.672,-27.832,-21.973,-32.227,-166.016
1688815027.859,142.090,-25.391,-20.996,-16.602,15.625
1688815027.846,115.234,-30.273,-21.484,-9.766,180.664
1688815027.850,98.145,-30.762,-21.484,-16.602,35.156
1688815027.854,134.766,-26.855,-19.043,-38.086,-169.922
1688815027.858,176.758,-30.273,-21.484,-32.715,-68.848
1688815027.862,173.340,-34.668,-23.926,-23.438,17.090
1688815027.866,152.344,-32.227,-25.879,-26.367,-77.148
1688815027.870,119.629,-26.367,-20.020,-23.438,16.113
1688815027.873,132.324,-28.809,-16.602,-47.363,5.371
1688815027.877,179.688,-32.715,-20.996,-44.922,-60.547
1688815027.881,185.059,-29.785,-17.578,-23.438,-177.734
1688815027.885,165.527,-29.785,-17.090,-20.508,-154.297
1688815027.889,135.742,-28.320,-22.461,-8.789,259.277
1688815027.906,145.020,-24.414,-25.391,-24.414,275.391
1688815027.910,188.965,-27.832,-22.949,-36.621,-68.848
1688815027.914,185.547,-33.691,-21.973,-25.391,-84.961
1688815027.918,147.949,-31.250,-21.484,-28.809,-79.590
1688815027.922,104.004,-28.809,-19.531,-31.738,-113.281
1688815027.926,99.609,-30.273,-20.508,-50.293,-152.344
1688815027.930,120.605,-33.203,-22.949,-54.199,10.254
1688815027.933,111.816,-38.086,-27.344,-28.809,242.676
1688815027.937,88.379,-34.668,-28.809,-29.785,28.320
1688815027.941,53.711,-30.762,-24.902,-32.227,-208.496
1688815027.945,48.828,-34.180,-28.320,-38.574,-49.805
1688815027.949,89.355,-34.180,-27.344,-43.457,6.348
1688815027.939,104.492,-31.250,-20.996,-22.949,-136.230
1688815027.943,80.078,-32.227,-20.508,-16.113,-100.586
1688815027.947,41.992,-35.156,-21.484,-13.672,-21.484
1688815027.951,24.902,-34.668,-22.949,-32.227,-30.762
1688815027.955,52.734,-31.738,-24.414,-43.945,-173.340
1688815027.959,74.707,-31.250,-23.926,-20.996,-86.426
1688815027.963,68.359,-33.203,-23.926,-17.578,28.809
1688815027.966,28.809,-31.738,-22.461,-15.137,5.371
1688815027.970,3.418,-30.273,-21.484,-21.973,-89.355
1688815027.974,39.551,-35.156,-22.461,-43.945,-117.676
1688815027.978,71.777,-40.039,-27.832,-31.250,63.965
1688815027.982,80.078,-35.156,-29.785,-26.367,55.664
1688815027.980,41.504,-31.738,-26.855,-24.902,-111.816
1688815027.984,-12.207,-35.645,-25.391,-26.367,-24.414
1688815027.988,3.418,-36.133,-27.344,-42.480,34.180
1688815027.992,33.691,-34.668,-27.832,-38.086,0.000
1688815027.996,50.293,-36.133,-23.438,-34.180,-136.230
1688815028.000,43.945,-28.809,-21.484,-31.738,-30.762
1688815028.004,20.508,-26.367,-24.414,-28.809,396.973
1688815028.007,53.223,-29.297,-20.996,-46.387,204.102
1688815028.011,105.957,-25.391,-19.043,-41.504,-202.637
1688815028.015,115.234,-32.715,-21.484,-30.273,-98.633
1688815028.019,76.172,-35.645,-17.578,-48.340,-64.453
1688815028.023,35.156,-31.738,-19.043,-44.922,-122.559
1688815028.041,68.359,-32.715,-23.438,-62.988,-156.250
1688815028.045,113.770,-26.855,-20.996,-58.105,40.039
1688815028.049,116.211,-21.484,-16.113,-31.250,128.906
1688815028.053,86.914,-23.438,-14.160,-42.969,-118.652
1688815028.057,26.367,-21.973,-12.695,-37.109,-130.859
1688815028.061,40.527,-22.949,-15.625,-41.992,-80.078
1688815028.065,86.914,-33.691,-20.996,-53.223,-22.949
1688815028.068,87.891,-37.109,-22.461,-42.969,6.836
1688815028.072,74.707,-35.156,-21.484,-38.086,-111.328
1688815028.076,38.574,-32.715,-17.578,-29.785,129.883
1688815028.080,39.062,-29.785,-16.602,-51.270,165.527
1688815028.084,79.102,-27.344,-17.090,-66.895,-155.762
1688815028.086,97.656,-26.855,-16.113,-37.109,-124.512
1688815028.090,82.031,-32.715,-20.508,-31.738,-105.469
1688815028.094,36.133,-34.668,-27.344,-38.574,-131.348
1688815028.098,35.645,-29.297,-27.832,-50.293,-191.895
1688815028.102,83.984,-26.855,-26.367,-53.711,-186.035
1688815028.106,98.633,-30.273,-25.879,-34.668,2.441
1688815028.110,82.520,-33.203,-21.973,-26.855,2.441
1688815028.113,41.016,-34.668,-19.043,-29.785,-100.586
1688815028.117,23.438,-35.645,-19.043,-44.922,18.555
1688815028.121,57.129,-29.785,-17.578,-40.527,304.688
1688815028.125,51.270,-25.391,-19.043,-20.996,208.984
1688815028.129,22.949,-28.809,-19.043,-30.762,-114.258
1688815028.130,-14.160,-28.809,-20.020,-30.762,-10.742
1688815028.134,-36.621,-24.902,-20.996,-39.062,26.367
1688815028.138,-5.859,-25.879,-16.113,-49.316,-171.875
1688815028.142,-2.930,-26.367,-11.719,-34.180,-160.645
1688815028.146,-27.344,-26.855,-11.230,-27.832,-80.078
1688815028.150,-82.520,-33.203,-13.184,-21.484,-20.020
1688815028.154,-130.859,-39.062,-13.184,-25.879,-13.184
1688815028.157,-87.402,-38.086,-12.695,-39.551,-98.633
1688815028.161,-44.922,-35.156,-13.184,-20.020,120.117
1688815028.165,-52.734,-34.668,-13.672,-10.742,200.195
1688815028.169,-66.895,-34.180,-14.160,-21.484,-36.621
1688815028.173,-61.035,-35.645,-16.602,-27.344,-21.484
1688815028.176,-9.277,-30.762,-15.625,-44.922,-65.918
1688815028.180,29.297,-29.297,-14.648,-45.898,-89.844
1688815028.184,35.156,-30.762,-15.137,-35.156,-84.473
1688815028.188,27.832,-26.367,-15.625,-38.086,-38.086
1688815028.192,-10.254,-22.461,-15.137,-37.109,37.598
1688815028.196,-2.930,-24.902,-11.230,-43.457,-86.426
1688815028.200,31.738,-31.738,-15.625,-41.992,-105.957
1688815028.203,31.738,-35.156,-23.438,-21.973,99.121
1688815028.207,16.113,-35.156,-20.996,-17.578,311.035
1688815028.211,-8.789,-28.809,-14.160,-24.902,38.086
1688815028.215,9.766,-24.902,-13.672,-45.898,-186.523
1688815028.219,47.852,-29.785,-17.578,-45.410,-60.059
1688815028.223,50.293,-30.762,-12.207,-28.320,20.996
1688815028.227,26.855,-28.320,-11.230,-26.367,-45.898
1688815028.231,-11.230,-32.715,-15.625,-29.297,-103.516
1688815028.235,2.441,-29.785,-14.160,-50.781,10.742
1688815028.239,49.316,-27.344,-16.113,-45.410,249.512
1688815028.243,69.336,-27.832,-15.137,-35.645,57.129
1688815028.247,62.988,-25.391,-11.719,-40.039,-46.875
1688815028.250,22.949,-29.785,-8.301,-37.598,145.508
1688815028.254,22.461,-32.715,-11.230,-61.035,-7.812
1688815028.258,66.895,-27.344,-10.742,-62.988,-205.566
1688815028.262,78.125,-26.367,-8.301,-38.086,-91.797
1688815028.266,57.617,-29.785,-14.160,-27.832,-24.414
1688815028.266,12.695,-30.762,-13.184,-32.227,-107.910
1688815028.270,3.418,-29.297,-10.742,-47.363,-179.688
1688815028.274,35.645,-28.809,-8.301,-45.410,-25.391
1688815028.278,31.738,-31.738,-8.789,-27.832,145.020
1688815028.282,-4.395,-32.227,-16.602,-36.621,-38.086
1688815028.286,-56.152,-35.645,-19.531,-45.898,-32.227
1688815028.290,-81.055,-36.133,-14.160,-52.246,27.344
1688815028.293,-40.527,-32.715,-12.695,-51.270,276.855
1688815028.297,-14.160,-35.645,-14.160,-28.320,299.805
1688815028.301,-41.504,-33.203,-14.648,-28.809,-151.855
1688815028.305,-75.195,-25.391,-18.555,-29.297,-38.086
1688815028.309,-82.520,-20.996,-17.578,-33.691,60.059
1688815028.326,-39.062,-20.996,-13.672,-56.152,-193.359
1688815028.330,3.418,-23.926,-11.230,-34.180,-203.613
1688815028.334,12.207,-22.949,-12.207,-16.602,-166.504
1688815028.338,-14.648,-17.578,-17.090,-27.344,-162.598
1688815028.342,-44.434,-20.508,-17.578,-42.480,-125.000
1688815028.346,-8.301,-24.414,-13.672,-52.734,-64.453
1688815028.350,27.832,-25.879,-15.137,-27.344,132.812
1688815028.353,16.113,-26.855,-16.602,-17.090,137.695
1688815028.357,-20.020,-27.832,-15.137,-18.555,-125.977
1688815028.361,-57.617,-28.320,-16.602,-18.066,-162.109
1688815028.365,-37.109,-27.344,-15.137,-39.062,-11.719
1688815028.369,-6.348,-26.855,-7.324,-41.016,-63.477
1688815028.355,-20.996,-29.297,-12.695,-32.227,-176.270
1688815028.359,-57.617,-31.250,-18.555,-30.273,-111.816
1688815028.363,-96.191,-29.785,-13.184,-32.227,123.535
1688815028.367,-71.777,-33.691,-13.672,-56.641,40.527
1688815028.371,-8.789,-34.668,-14.160,-53.223,-205.566
1688815028.375,6.836,-31.250,-13.672,-30.273,-15.137
1688815028.379,-22.461,-32.715,-18.066,-32.715,86.426
1688815028.382,-53.711,-31.738,-20.508,-35.645,-143.066
1688815028.386,-40.039,-30.273,-18.555,-55.664,-133.301
1688815028.390,-5.371,-33.691,-15.625,-62.500,-22.949
1688815028.394,-3.418,-34.668,-16.113,-39.062,227.539
1688815028.398,-35.156,-34.668,-17.090,-39.062,128.418
1688815028.416,-86.426,-29.785,-16.602,-42.480,-202.637
1688815028.420,-81.055,-24.902,-15.625,-57.129,-232.422
1688815028.424,-27.832,-27.344,-13.672,-61.035,-274.902
1688815028.428,-7.324,-32.227,-19.043,-41.016,-217.285
1688815028.432,-14.160,-35.156,-20.996,-30.273,-104.492
1688815028.436,-39.551,-32.715,-16.113,-23.926,-16.602
1688815028.440,-34.668,-31.250,-11.719,-37.109,-3.418
1688815028.443,10.742,-30.273,-11.719,-38.574,-110.840
1688815028.447,26.855,-26.367,-10.254,-25.879,-232.910
1688815028.451,9.766,-32.715,-18.555,-22.461,-8.301
1688815028.455,-27.832,-35.156,-23.438,-21.973,78.613
1688815028.459,-43.945,-33.203,-18.555,-48.828,-235.840
1688815028.460,-3.418,-32.227,-16.113,-48.828,-215.820
1688815028.464,13.184,-30.273,-18.066,-27.832,-6.836
1688815028.468,-16.602,-31.250,-23.438,-46.875,-70.801
1688815028.472,-53.711,-33.203,-21.484,-54.199,-136.230
1688815028.476,-72.754,-33.203,-17.578,-55.176,-40.039
1688815028.480,-37.109,-34.668,-20.020,-75.195,-61.035
1688815028.484,-15.137,-34.180,-23.438,-67.383,-113.770
1688815028.487,-35.645,-30.273,-23.438,-54.688,-41.992
1688815028.491,-63.965,-33.691,-25.879,-51.758,47.852
1688815028.495,-69.336,-31.738,-21.484,-43.457,283.691
1688815028.499,-28.320,-29.785,-18.555,-65.430,146.484
1688815028.503,1.953,-27.832,-21.484,-67.383,-219.727
1688815028.506,-11.719,-27.832,-21.973,-48.340,-84.961
1688815028.510,-65.918,-38.574,-27.344,-47.363,-6.836
1688815028.514,-107.910,-35.645,-26.367,-46.387,-124.023
1688815028.518,-83.984,-28.320,-24.414,-59.570,-199.707
1688815028.522,-60.059,-30.273,-27.832,-50.781,-138.184
1688815028.526,-62.012,-30.273,-27.344,-36.621,-75.684
1688815028.530,-72.754,-26.367,-26.855,-42.480,-103.516
1688815028.533,-88.379,-24.414,-21.484,-40.527,-95.703
1688815028.537,-61.523,-25.879,-17.578,-53.711,83.984
1688815028.541,-18.555,-27.832,-17.090,-56.641,52.734
1688815028.545,-12.695,-30.762,-25.879,-48.828,-204.102
1688815028.549,-42.969,-29.785,-29.297,-47.852,-94.727
1688815028.552,-87.891,-29.785,-30.273,-54.199,-9.766
1688815028.556,-80.078,-31.738,-31.250,-83.008,-122.559
1688815028.560,-53.223,-33.691,-28.320,-73.730,-147.949
1688815028.564,-70.801,-31.738,-27.832,-35.645,-4.883
1688815028.568,-103.516,-35.645,-28.320,-36.621,94.727
1688815028.572,-130.859,-34.668,-27.344,-51.270,34.668
1688815028.576,-114.746,-30.762,-23.438,-68.359,-31.250
1688815028.579,-82.520,-32.227,-22.461,-77.637,71.777
1688815028.583,-94.727,-34.668,-24.902,-68.359,311.035
1688815028.587,-123.535,-36.133,-21.484,-64.941,114.258
1688815028.591,-146.484,-32.227,-17.090,-63.965,-117.188
1688815028.595,-133.301,-29.785,-18.066,-78.125,84.473
1688815028.596,-109.375,-30.273,-20.020,-81.055,164.062
1688815028.600,-118.164,-31.250,-23.926,-67.383,-118.652
1688815028.604,-135.254,-33.203,-25.391,-71.289,-178.223
1688815028.608,-157.227,-31.250,-22.949,-72.266,-112.793
1688815028.612,-140.137,-35.645,-23.438,-91.797,-92.285
1688815028.616,-81.543,-40.039,-26.367,-94.727,-116.211
1688815028.620,-51.758,-37.109,-26.367,-83.008,-58.594
1688815028.623,-66.895,-34.668,-27.832,-90.332,158.203
1688815028.627,-118.164,-27.832,-27.344,-78.613,217.285
1688815028.631,-136.230,-26.367,-21.484,-91.309,-32.227
1688815028.635,-87.402,-31.250,-22.949,-109.375,-121.094
1688815028.639,-45.898,-30.762,-24.414,-89.844,-88.867
1688815028.640,-41.992,-27.344,-15.625,-94.727,-207.520
1688815028.644,-73.242,-27.832,-13.672,-114.258,-216.309
1688815028.648,-86.914,-30.762,-18.555,-125.000,-107.422
1688815028.652,-38.086,-34.180,-17.090,-138.184,-140.625
1688815028.656,-0.977,-30.273,-14.648,-131.348,-149.902
1688815028.660,-8.789,-23.438,-17.578,-126.953,-159.668
1688815028.664,-34.180,-24.902,-17.578,-123.047,-35.156
1688815028.667,-53.223,-28.320,-15.625,-116.699,279.297
1688815028.671,-26.855,-26.367,-18.066,-133.789,178.223
1688815028.675,7.324,-24.414,-18.066,-125.488,-95.215
1688815028.679,12.207,-24.902,-18.555,-112.793,47.852
1688815028.683,-12.207,-26.367,-20.020,-115.723,148.438
1688815028.685,-50.293,-29.785,-21.484,-127.930,-92.285
1688815028.689,-48.828,-32.715,-22.461,-155.273,-188.477
1688815028.693,-38.086,-33.691,-25.391,-149.414,-162.109
1688815028.697,-45.898,-32.227,-23.438,-132.812,-120.605
1688815028.701,-71.777,-35.156,-21.973,-124.512,-82.031
1688815028.705,-96.680,-39.062,-24.414,-123.535,-40.039
1688815028.709,-65.430,-36.133,-22.461,-136.719,161.133
1688815028.712,-15.137,-33.203,-15.137,-129.883,109.863
1688815028.716,-8.301,-26.367,-11.230,-117.188,-246.582
1688815028.720,-39.062,-28.320,-10.254,-117.676,-110.840
1688815028.724,-75.684,-34.668,-16.113,-115.234,45.898
1688815028.728,-58.105,-31.250,-21.484,-133.301,-120.117
1688815028.760,-22.461,-28.809,-25.391,-134.277,-187.988
1688815028.764,-21.973,-29.297,-22.461,-109.375,-108.398
1688815028.768,-41.504,-28.320,-19.531,-111.328,-28.320
1688815028.772,-76.660,-31.738,-24.902,-115.723,-89.844
1688815028.776,-76.172,-31.738,-25.879,-131.348,-127.930
1688815028.780,-47.363,-25.879,-27.344,-136.230,112.305
1688815028.784,-51.758,-25.391,-26.367,-108.887,239.746
1688815028.787,-79.590,-27.344,-22.461,-99.121,3.418
1688815028.791,-122.559,-24.902,-22.949,-93.262,-18.555
1688815028.795,-134.277,-24.902,-20.508,-108.398,67.383
1688815028.799,-102.539,-27.832,-12.207,-120.605,25.879
1688815028.803,-91.309,-32.715,-12.695,-105.469,-76.660
1688815028.779,-105.957,-33.203,-16.602,-105.957,-95.215
1688815028.783,-144.531,-34.180,-15.137,-99.121,71.289
1688815028.787,-156.738,-37.109,-19.531,-105.469,175.293
1688815028.791,-121.582,-35.645,-25.879,-123.535,-105.957
1688815028.795,-105.469,-33.203,-20.508,-104.004,-125.977
1688815028.799,-116.211,-36.133,-20.020,-98.145,-44.922
1688815028.803,-153.809,-38.574,-24.902,-101.074,16.113
1688815028.806,-172.852,-36.621,-24.414,-113.281,-58.594
1688815028.810,-132.812,-37.598,-24.902,-125.977,-142.090
1688815028.814,-112.305,-36.621,-24.902,-106.934,-97.656
1688815028.818,-121.582,-35.156,-24.414,-100.586,-141.113
1688815028.822,-152.344,-29.785,-21.484,-98.633,-201.172
1688815028.837,-182.129,-29.297,-20.996,-110.840,-116.211
1688815028.841,-145.020,-31.250,-20.508,-124.023,-4.395
1688815028.845,-118.652,-32.715,-20.996,-109.863,-52.734
1688815028.849,-129.883,-33.203,-21.484,-101.562,-118.164
1688815028.853,-151.855,-30.273,-20.996,-100.586,-21.484
1688815028.857,-173.828,-32.227,-21.484,-98.633,272.949
1688815028.861,-145.508,-33.691,-19.531,-109.375,282.715
1688815028.864,-111.816,-31.250,-17.578,-107.422,-62.500
1688815028.868,-119.629,-34.180,-21.973,-97.656,-48.340
1688815028.872,-144.531,-36.621,-27.344,-106.445,83.496
1688815028.876,-165.527,-30.273,-23.438,-114.258,-136.719
1688815028.880,-137.695,-28.320,-17.090,-121.582,-230.469
1688815028.880,-102.051,-26.855,-16.113,-115.234,-174.316
1688815028.884,-113.770,-31.250,-20.508,-104.492,-121.582
1688815028.888,-142.578,-34.668,-22.949,-103.516,-103.516
1688815028.892,-164.551,-26.855,-21.973,-104.004,-94.238
1688815028.896,-154.297,-26.855,-21.973,-131.836,-64.941
1688815028.900,-128.418,-34.668,-26.855,-141.602,-11.230
1688815028.904,-126.465,-36.133,-22.949,-119.141,-29.785
1688815028.907,-154.297,-34.180,-18.555,-109.375,-186.035
1688815028.911,-193.359,-31.250,-18.066,-94.727,93.262
1688815028.915,-190.430,-29.785,-14.648,-98.633,266.113
1688815028.919,-152.344,-27.344,-10.742,-101.562,-116.699
1688815028.923,-143.066,-27.832,-15.137,-83.008,-166.504
1688815028.926,-163.574,-28.809,-21.484,-88.379,-117.676
1688815028.930,-187.988,-24.414,-16.602,-87.891,-99.121
1688815028.934,-190.430,-21.484,-9.766,-94.727,-142.090
1688815028.938,-162.598,-28.809,-14.160,-104.492,-130.859
1688815028.942,-132.324,-32.715,-13.672,-88.379,-72.754
1688815028.946,-125.977,-33.691,-10.254,-82.520,-2.930
1688815028.950,-144.043,-33.203,-12.695,-84.961,102.539
1688815028.953,-134.277,-29.785,-13.672,-92.285,117.676
1688815028.957,-74.219,-28.809,-12.207,-89.355,329.590
1688815028.961,-36.621,-26.367,-12.695,-80.566,202.148
1688815028.965,-29.297,-23.438,-20.020,-85.938,-145.020
1688815028.969,-50.293,-27.832,-26.855,-85.938,4.395
1688815028.971,-63.477,-30.762,-30.762,-102.051,156.250
1688815028.975,-15.625,-31.250,-26.855,-120.605,-97.168
1688815028.979,20.996,-30.273,-21.973,-105.957,-104.980
1688815028.983,32.227,-28.320,-18.555,-104.004,-31.250
1688815028.987,14.648,-29.785,-23.438,-103.516,-82.031
1688815028.991,-3.418,-33.203,-29.297,-113.281,-48.828
1688815028.995,25.879,-34.180,-28.320,-142.578,-35.156
1688815028.998,44.922,-33.691,-21.484,-119.141,64.941
1688815029.002,33.203,-34.180,-17.578,-89.844,80.566
1688815029.006,-8.301,-33.203,-20.508,-91.309,-93.262
1688815029.010,-52.246,-33.691,-18.555,-98.633,-128.418
1688815029.014,-27.832,-30.762,-17.578,-102.539,-86.426
1688815029.016,-1.465,-31.738,-16.602,-85.938,-108.887
1688815029.020,-9.766,-35.645,-16.602,-80.566,-102.539
1688815029.024,-21.973,-30.273,-15.625,-71.777,12.695
1688815029.028,-39.062,-30.273,-11.230,-63.965,29.297
1688815029.032,-38.086,-35.645,-19.043,-89.844,-71.289
1688815029.036,-24.902,-35.156,-20.020,-85.938,-75.684
1688815029.040,-21.973,-34.180,-15.137,-62.500,120.117
1688815029.043,-56.152,-37.598,-18.555,-61.035,267.578
1688815029.047,-90.820,-37.109,-17.090,-67.871,33.203
1688815029.051,-73.730,-33.203,-19.043,-91.797,-132.324
1688815029.055,-40.527,-31.250,-20.508,-86.914,22.949
1688815029.059,-30.762,-31.250,-20.020,-50.293,309.570
1688815029.076,-43.457,-28.320,-20.020,-40.039,163.574
1688815029.080,-80.078,-22.461,-17.090,-44.434,-117.676
1688815029.084,-76.172,-24.414,-17.578,-56.641,-132.812
1688815029.088,-44.434,-24.414,-20.996,-52.734,-156.738
1688815029.092,-61.523,-25.391,-18.555,-27.344,-176.758
1688815029.096,-118.652,-25.879,-17.578,-16.113,-65.430
1688815029.100,-166.016,-30.273,-16.113,-7.812,236.816
1688815029.103,-158.691,-30.762,-14.160,-16.113,129.395
1688815029.107,-132.812,-26.367,-13.184,-11.719,-225.098
1688815029.111,-147.949,-30.273,-11.719,4.395,-197.754
1688815029.115,-168.945,-32.715,-12.207,-3.418,-52.734
1688815029.119,-168.457,-29.785,-11.230,5.371,-19.531
1688815029.107,-138.184,-28.320,-10.742,6.836,-118.652
1688815029.111,-94.727,-27.344,-14.160,-0.488,-63.965
1688815029.115,-83.008,-29.785,-14.648,15.625,37.109
1688815029.119,-94.727,-35.156,-15.137,20.996,-73.730
1688815029.123,-129.395,-31.738,-12.695,20.508,-125.000
1688815029.127,-140.625,-31.738,-12.207,8.301,35.156
1688815029.131,-101.074,-34.668,-16.602,-1.465,103.516
1688815029.134,-83.008,-33.691,-15.625,19.043,-6.348
1688815029.138,-100.586,-33.203,-15.137,30.273,-15.137
1688815029.142,-133.301,-27.832,-12.207,31.250,40.527
1688815029.146,-124.512,-23.926,-11.719,35.156,343.262
1688815029.150,-65.430,-24.902,-9.277,25.879,164.551
1688815029.166,-40.527,-22.461,-10.254,29.785,-137.695
1688815029.170,-41.992,-20.508,-15.625,38.086,-43.457
1688815029.174,-57.129,-22.949,-14.648,35.645,-92.773
1688815029.178,-66.406,-27.832,-16.113,30.273,-108.398
1688815029.182,-11.230,-27.832,-20.508,15.137,-145.020
1688815029.186,35.156,-22.461,-23.438,34.668,104.492
1688815029.190,39.062,-22.461,-19.531,52.246,223.145
1688815029.193,18.066,-25.879,-19.531,35.156,-136.719
1688815029.197,-0.488,-26.855,-24.414,22.949,-147.949
1688815029.201,38.574,-25.391,-23.926,5.371,-29.297
1688815029.205,79.102,-25.879,-19.043,3.418,-102.051
1688815029.209,68.848,-28.320,-18.555,10.254,-200.195
1688815029.211,20.020,-29.297,-20.996,11.230,-126.953
1688815029.215,-22.949,-28.809,-21.973,4.883,-43.945
1688815029.219,-6.836,-28.320,-20.508,-13.184,-151.855
1688815029.223,18.555,-25.879,-20.508,-11.230,-205.078
1688815029.227,9.277,-24.414,-19.531,3.418,-69.824
1688815029.231,-23.438,-28.320,-20.996,0.488,78.125
1688815029.235,-61.035,-30.762,-27.344,-6.836,2.441
1688815029.238,-44.434,-30.273,-27.344,-29.297,-111.328
1688815029.242,-11.230,-30.273,-26.367,-36.133,29.785
1688815029.246,-13.672,-29.297,-26.367,-16.602,147.461
1688815029.250,-34.180,-26.367,-21.973,-2.441,-95.215
1688815029.254,-85.449,-28.809,-21.484,-29.785,-226.562
1688815029.255,-78.613,-27.344,-20.996,-62.012,-31.738
1688815029.259,-13.184,-26.855,-23.438,-46.875,124.023
1688815029.263,7.812,-35.156,-31.738,-40.039,-62.988
1688815029.267,7.324,-33.203,-30.762,-39.551,-98.145
1688815029.271,-4.883,-26.367,-26.367,-22.461,27.832
1688815029.275,4.395,-28.809,-27.344,-35.645,36.133
1688815029.279,49.805,-32.715,-24.414,-31.250,-72.754
1688815029.282,78.125,-36.133,-22.949,-11.230,-171.875
1688815029.286,82.031,-31.738,-26.855,-6.348,102.539
1688815029.290,57.617,-25.879,-23.926,0.977,269.043
1688815029.294,53.711,-30.762,-20.508,-22.949,-106.934
1688815029.298,102.051,-29.785,-22.461,-28.320,-165.527
1688815029.300,116.699,-23.926,-23.438,-7.324,-73.242
1688815029.304,96.680,-28.320,-24.414,-2.930,-99.121
1688815029.308,54.688,-32.715,-25.879,-2.930,-112.305
1688815029.312,38.086,-31.250,-25.391,-12.695,-114.258
1688815029.316,82.031,-33.203,-22.461,-15.625,-104.492
1688815029.320,84.473,-33.203,-19.043,6.348,-102.539
1688815029.324,39.062,-32.227,-20.508,16.602,-32.227
1688815029.327,-13.184,-34.180,-22.461,19.043,83.008
1688815029.331,-31.250,-34.668,-18.555,13.184,282.715
1688815029.335,13.184,-34.180,-18.555,-5.371,46.875
1688815029.339,30.762,-32.227,-18.555,-1.465,-217.773
1688815029.343,7.324,-29.785,-15.625,7.812,53.711
1688815029.345,-33.203,-33.691,-16.602,6.836,43.457
1688815029.349,-61.035,-35.645,-19.531,3.418,-115.723
1688815029.353,-26.367,-30.762,-26.855,-11.230,-151.855
1688815029.357,3.418,-31.738,-31.250,-6.348,-96.680
1688815029.361,-12.695,-35.156,-23.926,9.766,-72.266
1688815029.365,-66.895,-34.668,-21.973,6.836,-145.996
1688815029.369,-106.445,-33.203,-24.414,-6.348,-50.781
1688815029.372,-106.445,-32.227,-22.949,-20.508,159.668
1688815029.376,-131.836,-30.762,-28.320,-17.090,169.922
1688815029.380,-167.480,-32.227,-32.715,-14.160,-100.586
1688815029.384,-195.801,-33.203,-25.391,-16.113,-105.957
1688815029.388,-224.121,-35.156,-20.508,-22.461,-49.316
1688815029.392,-219.727,-35.645,-22.949,-42.480,-174.805
1688815029.396,-212.402,-35.645,-22.949,-32.227,-171.875
1688815029.400,-225.098,-35.645,-17.578,-11.230,-28.320
1688815029.404,-245.117,-36.621,-17.578,-5.859,21.484
1688815029.408,-274.902,-37.598,-23.438,-14.160,-91.797
1688815029.412,-260.254,-39.062,-24.414,-39.062,-186.523
1688815029.416,-221.191,-38.574,-23.926,-33.203,5.371
1688815029.419,-216.309,-34.668,-26.367,-12.695,296.875
1688815029.423,-236.816,-36.621,-22.461,-11.719,20.508
1688815029.427,-260.742,-38.086,-19.531,-17.578,-178.711
1688815029.431,-253.906,-35.156,-21.484,-38.574,-41.016
1688815029.435,-216.797,-34.668,-23.926,-51.758,-46.875
1688815029.436,-198.730,-32.227,-20.996,-34.668,-109.863
1688815029.440,-221.680,-30.762,-14.648,-29.785,-129.883
1688815029.444,-269.043,-34.180,-16.113,-26.367,-11.230
1688815029.448,-270.996,-36.133,-19.531,-41.992,75.195
1688815029.452,-225.586,-40.039,-25.879,-52.246,-51.758
1688815029.456,-207.520,-40.039,-30.273,-37.109,-93.750
1688815029.460,-205.566,-38.086,-26.367,-34.180,181.641
1688815029.463,-229.980,-37.598,-23.438,-21.484,270.020
1688815029.467,-212.891,-37.109,-25.391,-32.715,-77.637
1688815029.471,-113.281,-34.668,-21.973,-33.203,-164.551
1688815029.475,-51.270,-27.344,-16.602,-6.836,-96.680
1688815029.479,-35.156,-24.902,-15.137,0.488,-122.559
1688815029.481,-50.293,-28.809,-14.648,-0.488,-167.480
1688815029.485,-51.270,-30.273,-15.137,-17.578,-146.484
1688815029.489,-25.391,-35.156,-16.602,-33.691,-108.887
1688815029.493,-22.949,-37.109,-19.531,-15.625,-140.137
1688815029.497,-46.387,-33.203,-19.531,-12.695,-166.504
1688815029.501,-90.820,-32.227,-21.484,-10.742,62.500
1688815029.505,-108.398,-32.227,-20.996,-6.348,115.723
1688815029.508,-64.453,-28.809,-18.066,-25.391,-79.102
1688815029.512,-32.227,-31.738,-22.949,-22.949,-90.332
1688815029.516,-30.762,-34.180,-24.414,-12.207,5.371
1688815029.520,-49.805,-31.738,-22.461,-7.324,77.148
1688815029.524,-64.941,-30.273,-24.414,-12.695,-59.082
1688815029.540,-25.391,-32.227,-22.461,-30.762,-138.184
1688815029.544,15.625,-33.203,-20.508,-10.742,17.090
1688815029.548,17.578,-34.668,-22.949,3.906,162.109
1688815029.552,-11.230,-35.156,-23.926,-4.395,-25.391
1688815029.556,-38.574,-35.645,-28.320,-6.836,-124.512
1688815029.560,-12.207,-35.645,-24.414,-20.020,-78.125
1688815029.564,20.996,-31.250,-20.996,-8.301,-26.367
1688815029.567,19.043,-27.832,-20.020,4.395,-33.203
1688815029.571,-3.906,-27.344,-19.531,3.906,-67.383
1688815029.575,-40.039,-26.367,-17.578,10.254,192.383
1688815029.579,-20.508,-26.367,-14.160,1.465,249.023
1688815029.583,24.414,-28.809,-15.625,-2.441,-122.559
1688815029.586,25.879,-28.809,-15.137,4.883,-145.508
1688815029.590,2.930,-29.297,-8.301,2.930,-93.750
1688815029.594,-33.691,-34.668,-12.695,3.906,-99.121
1688815029.598,-22.949,-33.203,-16.113,-10.254,-165.527
1688815029.602,17.090,-29.297,-11.719,-13.672,-139.160
1688815029.606,25.879,-29.785,-8.789,-1.953,-72.754
1688815029.610,19.043,-28.809,-8.789,-5.859,-64.453
1688815029.613,3.906,-33.203,-10.742,-9.277,-35.156
1688815029.617,14.160,-34.180,-15.137,-15.625,-14.160
1688815029.621,46.387,-31.250,-14.648,-11.719,229.004
1688815029.625,55.664,-28.320,-14.160,-6.836,134.766
1688815029.629,40.039,-24.414,-20.020,-14.648,-187.500
1688815029.630,-3.906,-22.949,-17.090,-0.977,-67.383
1688815029.634,-6.836,-20.996,-11.719,-6.348,-22.461
1688815029.638,34.180,-25.879,-13.184,-17.090,-180.176
1688815029.642,33.691,-27.344,-12.207,0.488,-150.879
1688815029.646,8.301,-26.855,-11.719,0.977,-81.055
1688815029.650,-35.156,-29.785,-15.625,-0.977,7.812
1688815029.654,-50.781,-28.320,-14.648,-12.695,-1.465
1688815029.657,-11.230,-22.461,-10.254,-16.602,-125.977
1688815029.661,11.230,-24.414,-9.766,7.324,66.895
1688815029.665,0.488,-27.832,-12.207,1.465,90.820
1688815029.669,-33.203,-25.391,-10.742,-1.465,-142.578
1688815029.673,-49.316,-29.297,-14.648,-7.812,-89.355
1688815029.690,-19.531,-39.551,-16.602,-29.297,-73.242
1688815029.694,-7.812,-40.527,-16.602,-12.695,-79.590
1688815029.698,-19.531,-34.668,-19.043,-1.953,-209.473
1688815029.702,-45.898,-35.645,-19.043,-7.324,-114.258
1688815029.706,-62.988,-32.715,-16.602,-20.508,76.660
1688815029.710,-32.227,-33.691,-18.555,-37.109,-60.547
1688815029.714,1.465,-36.133,-21.484,-19.531,-55.176
1688815029.717,-12.207,-34.180,-19.531,-12.695,82.031
1688815029.721,-52.734,-36.133,-20.508,-2.930,358.887
1688815029.725,-65.430,-34.668,-20.508,-3.418,227.539
1688815029.729,-17.090,-34.668,-22.461,-30.273,-123.535
1688815029.733,27.344,-31.738,-24.902,-21.484,-120.117
1688815029.721,37.109,-28.320,-20.996,-11.719,-102.539
1688815029.725,36.133,-28.809,-19.043,-5.859,-123.535
1688815029.729,20.508,-27.832,-20.020,-5.371,-108.887
1688815029.733,41.016,-31.250,-20.508,-27.344,-71.777
1688815029.737,69.824,-28.809,-22.949,-28.320,-110.352
1688815029.741,37.598,-28.320,-24.414,-24.902,-83.496
1688815029.745,-26.367,-32.715,-24.414,-22.461,-37.598
1688815029.748,-83.496,-30.273,-23.438,-20.996,17.578
1688815029.752,-86.914,-27.832,-22.949,-49.805,-25.879
1688815029.756,-56.152,-31.738,-24.414,-48.340,-169.434
1688815029.760,-56.152,-32.227,-28.809,-24.902,-115.234
1688815029.764,-80.566,-31.738,-28.809,-15.137,96.191
1688815029.766,-133.789,-33.691,-22.949,-6.348,33.203
1688815029.770,-149.902,-35.645,-21.484,-31.738,-180.664
1688815029.774,-128.418,-37.109,-25.879,-39.062,-130.859
1688815029.778,-149.902,-36.621,-24.902,-11.230,72.754
1688815029.782,-183.594,-33.691,-20.508,-8.789,-19.531
1688815029.786,-230.469,-35.156,-21.973,-19.531,-53.223
1688815029.790,-237.305,-41.504,-22.949,-39.062,112.305
1688815029.793,-207.031,-42.969,-21.484,-30.762,349.609
1688815029.797,-213.867,-38.574,-21.484,-14.648,275.879
1688815029.801,-230.957,-35.645,-28.809,-27.344,-130.371
1688815029.805,-250.977,-37.598,-30.273,-24.902,-18.066
1688815029.809,-241.211,-37.109,-28.320,-45.410,72.266
1688815029.826,-195.801,-35.156,-29.785,-69.336,-184.082
1688815029.830,-172.363,-35.156,-29.297,-43.945,-220.215
1688815029.834,-188.477,-37.598,-32.715,-38.086,-159.668
1688815029.838,-217.285,-36.133,-30.273,-31.738,-106.445
1688815029.842,-216.309,-33.203,-26.367,-37.598,-84.961
1688815029.846,-180.664,-37.598,-24.414,-51.758,-125.488
1688815029.850,-145.508,-36.621,-23.438,-22.949,92.773
1688815029.853,-111.328,-34.668,-21.973,-14.648,148.438
1688815029.857,-104.980,-32.715,-21.484,-23.926,-108.887
1688815029.861,-106.445,-31.250,-20.020,-30.273,-123.047
1688815029.865,-60.547,-37.109,-17.090,-39.062,-80.566
1688815029.869,-18.555,-38.574,-18.555,-23.926,-69.336
1688815029.855,-15.137,-41.504,-20.996,-20.508,-172.363
1688815029.859,-43.945,-42.480,-20.020,-12.207,-106.934
1688815029.863,-71.289,-39.062,-19.531,-14.648,-48.828
1688815029.867,-46.875,-39.062,-20.996,-47.363,-197.266
1688815029.871,-13.184,-38.086,-25.879,-43.457,-183.594
1688815029.875,-22.949,-33.203,-26.367,-21.484,48.340
1688815029.879,-62.500,-34.668,-26.367,-17.090,141.113
1688815029.882,-106.934,-38.086,-24.902,-32.227,11.719
1688815029.886,-79.590,-35.156,-20.020,-51.758,3.418
1688815029.890,-29.297,-28.809,-19.043,-36.621,25.879
1688815029.894,-22.461,-29.785,-18.555,-10.742,304.199
1688815029.898,-34.180,-31.250,-18.555,-10.742,229.004
1688815029.915,-64.453,-30.273,-20.020,-31.250,-136.719
1688815029.919,-50.293,-30.762,-22.949,-53.223,-72.266
1688815029.923,-8.789,-31.250,-25.879,-49.316,-29.297
1688815029.927,-12.695,-33.203,-26.855,-39.551,-138.672
1688815029.931,-43.457,-35.156,-27.832,-29.785,-99.121
1688815029.935,-76.172,-33.203,-27.832,-21.973,56.152
1688815029.939,-63.477,-29.297,-21.973,-37.598,81.543
1688815029.942,-35.645,-34.180,-19.043,-26.367,-81.055
1688815029.946,-44.434,-34.180,-16.602,0.000,-92.773
1688815029.950,-68.359,-27.832,-15.625,-1.953,55.664
1688815029.954,-110.352,-27.832,-19.531,-2.930,-0.977
1688815029.958,-133.789,-29.297,-19.043,-19.043,-148.438
1688815029.961,-111.328,-28.809,-20.508,-35.645,-74.219
1688815029.965,-113.281,-32.227,-21.484,-15.137,260.254
1688815029.969,-146.973,-34.668,-20.996,-10.254,201.172
1688815029.973,-199.707,-31.738,-24.902,-15.625,-51.758
1688815029.977,-209.473,-30.273,-26.855,-27.344,-17.090
1688815029.981,-145.020,-31.738,-23.926,-36.621,4.883
1688815029.985,-101.562,-28.809,-24.902,-27.832,-64.453
1688815029.988,-102.539,-29.297,-28.809,-33.203,-143.555
1688815029.992,-122.559,-30.273,-31.738,-37.109,53.711
1688815029.996,-114.258,-26.367,-31.738,-46.387,356.445
1688815030.000,-59.570,-28.809,-31.250,-62.500,43.945
1688815030.004,-24.902,-29.785,-28.809,-43.945,-224.609
1688815030.007,-25.879,-29.297,-24.414,-21.973,-10.742
1688815030.011,-57.129,-28.320,-23.438,-22.949,20.508
1688815030.015,-87.402,-27.344,-28.320,-35.645,-86.426
1688815030.019,-72.754,-29.785,-24.902,-38.086,-112.305
1688815030.023,-64.941,-28.809,-15.137,-11.230,-43.945
1688815030.027,-88.867,-30.273,-13.672,-2.441,58.594
1688815030.031,-133.789,-32.715,-11.230,0.977,94.727
1688815030.034,-177.246,-36.621,-15.625,-19.531,-24.414
1688815030.038,-159.180,-37.598,-19.531,-37.598,89.844
1688815030.042,-136.719,-32.227,-14.160,-12.695,141.113
1688815030.046,-154.297,-31.738,-17.090,-8.301,-131.348
1688815030.050,-190.918,-31.738,-15.625,-13.672,-83.008
1688815030.051,-213.867,-34.668,-15.137,-28.809,-79.102
1688815030.055,-179.199,-34.180,-19.043,-58.105,-214.355
1688815030.059,-128.906,-38.086,-23.926,-58.594,-131.348
1688815030.063,-114.258,-43.945,-32.227,-49.805,0.000
1688815030.067,-135.254,-36.621,-39.062,-47.363,7.324
1688815030.071,-156.250,-32.715,-39.062,-55.176,-12.207
1688815030.075,-123.535,-35.156,-33.203,-74.219,-49.316
1688815030.078,-83.008,-37.109,-32.227,-68.848,81.055
1688815030.082,-77.637,-33.691,-33.691,-42.480,329.590
1688815030.086,-94.727,-32.715,-30.273,-29.785,248.047
1688815030.090,-118.652,-34.180,-29.785,-30.273,-75.195
1688815030.094,-92.285,-37.109,-28.809,-57.129,-159.668
1688815030.096,-48.828,-38.086,-29.297,-62.988,-161.621
1688815030.100,-53.711,-40.039,-29.785,-46.875,-184.570
1688815030.104,-83.496,-40.527,-20.996,-47.363,-179.688
1688815030.108,-114.746,-40.039,-12.207,-25.879,-58.594
1688815030.112,-116.699,-35.645,-15.625,-32.715,-28.320
1688815030.116,-104.004,-28.320,-22.949,-46.387,-41.016
1688815030.120,-106.934,-20.996,-28.320,-38.574,-59.570
1688815030.123,-113.770,-12.695,-31.738,-34.668,194.336
1688815030.127,-135.742,-4.883,-38.574,-37.109,276.855
1688815030.131,-135.254,1.953,-47.363,-66.406,-165.527
1688815030.135,-97.656,9.277,-56.152,-71.289,-243.652
1688815030.139,-87.402,16.113,-64.941,-49.316,-54.199
1688815030.141,-100.586,19.043,-70.801,-59.082,-72.266
1688815030.145,-139.160,18.555,-77.637,-69.336,-168.945
1688815030.149,-139.160,22.949,-85.938,-80.078,-166.992
1688815030.153,-86.914,30.273,-91.309,-93.750,-166.016
1688815030.157,-79.102,25.391,-101.562,-82.031,-147.461
1688815030.161,-98.145,23.438,-114.746,-85.449,-38.086
1688815030.165,-127.441,32.715,-114.258,-88.867,120.117
1688815030.168,-130.371,35.645,-111.816,-84.473,308.594
1688815030.172,-83.008,34.668,-115.234,-107.910,41.016
1688815030.176,-57.617,34.668,-121.582,-102.539,-168.457
1688815030.180,-63.477,38.574,-123.535,-80.566,13.184
1688815030.184,-91.797,39.551,-122.070,-75.684,-70.312
1688815030.185,-101.074,40.039,-123.535,-79.590,-169.434
1688815030.189,-49.805,41.016,-120.605,-93.262,-242.188
1688815030.193,-12.695,39.551,-115.723,-75.195,-58.594
1688815030.197,-4.883,43.457,-110.352,-52.734,91.309
1688815030.201,-30.762,36.621,-109.375,-55.176,-92.285
1688815030.205,-58.105,32.227,-105.957,-73.730,-117.188
1688815030.209,-25.391,31.738,-101.074,-93.750,110.840
1688815030.212,6.348,27.344,-96.680,-89.844,145.508
1688815030.216,-1.465,28.809,-89.844,-94.238,-165.527
1688815030.220,-37.109,25.879,-87.402,-97.656,-127.930
1688815030.224,-76.172,20.996,-83.984,-102.051,-50.293
1688815030.228,-54.199,18.066,-80.078,-127.930,-101.562
1688815030.232,-15.137,16.602,-70.801,-124.023,-137.695
1688815030.236,-34.180,13.672,-64.941,-114.258,-118.164
1688815030.240,-77.637,8.789,-66.406,-109.863,-30.762
1688815030.244,-106.445,5.371,-65.918,-108.398,-67.871
1688815030.248,-83.984,6.348,-64.453,-136.719,-260.254
1688815030.252,-44.922,0.977,-62.988,-133.301,-106.934
1688815030.256,-36.133,-0.977,-59.570,-108.398,133.301
1688815030.259,-54.688,-4.883,-57.129,-98.633,-56.152
1688815030.263,-89.355,-1.953,-57.129,-92.285,-125.000
1688815030.267,-85.449,-0.488,-59.082,-104.004,-23.926
1688815030.271,-53.711,-7.324,-55.664,-91.797,169.922
1688815030.275,-52.734,-5.859,-48.828,-70.801,32.715
1688815030.291,-87.402,-2.441,-44.434,-77.148,-164.062
1688815030.295,-133.301,-6.836,-42.480,-78.125,-104.004
1688815030.299,-132.324,-10.742,-41.504,-89.355,-23.926
1688815030.303,-100.098,-10.742,-38.086,-92.285,-64.941
1688815030.307,-100.586,-12.207,-36.621,-77.148,-126.465
1688815030.311,-126.465,-12.695,-36.621,-72.754,147.949
1688815030.315,-166.504,-6.836,-33.691,-63.965,301.270
1688815030.318,-186.035,-5.859,-31.738,-91.797,-36.621
1688815030.322,-168.457,-10.254,-35.645,-117.676,-153.320
1688815030.326,-152.832,-10.742,-35.645,-99.121,-10.254
1688815030.330,-152.344,-9.766,-32.227,-93.750,-42.480
1688815030.334,-180.176,-14.648,-33.203,-90.820,-92.773
1688815030.336,-187.012,-17.578,-29.785,-101.562,-23.926
1688815030.340,-130.371,-13.184,-24.414,-109.375,-60.547
1688815030.344,-115.723,-15.137,-27.832,-88.867,-134.766
1688815030.348,-140.625,-14.648,-32.227,-77.637,-105.957
1688815030.352,-164.551,-4.883,-25.391,-58.594,50.293
1688815030.356,-194.336,-18.066,-27.344,-77.148,67.383
1688815030.360,-173.340,-31.250,-32.227,-105.957,-64.453
