timestamps,TP9,AF7,AF8,TP10,Right AUX
1688815183.892,-1000.000,-40.527,-47.363,-39.062,-150.391
1688815183.896,-1000.000,-42.969,-48.340,-23.926,-60.547
1688815183.900,-1000.000,-40.527,-48.828,-44.434,-29.297
1688815183.904,-1000.000,-36.621,-46.387,-47.852,-14.648
1688815183.908,-1000.000,-36.621,-45.410,-34.180,-73.730
1688815183.912,-1000.000,-37.598,-47.363,-32.227,-117.676
1688815183.916,-1000.000,-36.621,-44.434,-12.207,36.621
1688815183.919,-1000.000,-30.762,-45.410,-31.738,303.223
1688815183.923,-1000.000,-26.855,-43.945,-54.199,81.543
1688815183.927,-1000.000,-30.762,-41.504,-41.504,-176.270
1688815183.931,-1000.000,-30.273,-45.898,-24.414,-125.488
1688815183.935,-1000.000,-29.785,-47.363,-7.812,-7.324
1688815183.937,-1000.000,-32.227,-45.898,-41.992,-40.527
1688815183.941,-1000.000,-29.785,-46.875,-66.406,-174.316
1688815183.945,-1000.000,-22.949,-45.410,-50.781,-112.793
1688815183.949,-989.258,-22.949,-41.504,-46.875,-46.875
1688815183.953,-1000.000,-29.297,-44.434,-37.598,-71.289
1688815183.957,-852.539,-31.250,-46.387,-51.758,-69.824
1688815183.961,-509.277,-27.344,-46.875,-57.129,138.184
1688815183.964,-280.762,-25.879,-50.293,-43.457,187.988
1688815183.968,-70.801,-32.227,-47.363,-48.340,-62.500
1688815183.972,99.121,-32.227,-42.969,-29.297,-92.285
1688815183.976,308.594,-32.715,-46.387,-36.621,8.301
1688815183.980,562.500,-34.180,-48.828,-69.824,-60.547
1688815183.982,751.953,-33.691,-45.898,-57.617,-159.180
1688815183.986,855.957,-36.133,-44.922,-51.758,64.453
1688815183.990,875.977,-32.227,-45.898,-41.992,180.176
1688815183.994,929.688,-29.785,-41.992,-53.711,-63.477
1688815183.998,972.656,-28.809,-45.410,-83.984,-247.070
1688815184.002,965.820,-29.785,-48.828,-68.359,-156.250
1688815184.006,967.773,-30.762,-46.387,-56.641,96.680
1688815184.009,968.262,-26.367,-45.898,-41.992,5.859
1688815184.013,967.773,-25.879,-40.527,-36.133,-116.211
1688815184.017,967.773,-35.156,-41.016,-58.105,36.133
1688815184.021,967.773,-38.574,-41.504,-45.410,57.129
1688815184.025,967.773,-38.086,-39.551,-36.133,-120.605
1688815184.042,968.262,-31.250,-42.969,-20.996,-138.672
1688815184.046,968.262,-24.902,-43.945,-18.066,-83.008
1688815184.050,967.773,-26.855,-44.434,-49.316,-43.457
1688815184.054,967.773,-21.484,-41.504,-44.434,-94.238
1688815184.058,968.262,-15.625,-40.039,-28.320,-145.508
1688815184.062,968.262,-22.949,-44.922,-24.414,-3.906
1688815184.066,967.773,-31.250,-43.945,-30.762,63.477
1688815184.069,969.238,-34.180,-40.039,-60.547,-48.340
1688815184.073,962.402,-27.344,-37.598,-58.105,-118.652
1688815184.077,972.168,-26.855,-41.504,-36.621,89.844
1688815184.081,937.988,-31.250,-41.992,-22.461,86.426
1688815184.085,745.605,-28.320,-41.016,-15.137,-146.973
1688815184.086,585.449,-33.691,-44.922,-49.316,-143.555
1688815184.090,539.551,-37.109,-40.527,-58.594,52.246
1688815184.094,443.359,-36.621,-38.574,-44.922,-13.184
1688815184.098,342.773,-36.133,-39.062,-41.504,-205.078
1688815184.102,296.387,-41.016,-31.738,-21.484,5.859
1688815184.106,349.121,-41.504,-30.762,-29.785,121.094
1688815184.110,395.996,-32.715,-36.621,-46.387,-11.230
1688815184.113,380.371,-24.902,-39.062,-44.434,-174.805
1688815184.117,326.660,-19.043,-43.945,-34.668,-127.441
1688815184.121,203.613,-14.648,-51.758,-27.344,3.418
1688815184.125,230.957,-4.395,-61.523,-60.059,-142.090
1688815184.129,372.559,1.465,-67.383,-80.078,-309.082
1688815184.132,449.707,6.348,-69.336,-65.918,-124.023
1688815184.136,505.371,12.207,-75.684,-62.500,110.840
1688815184.140,537.109,18.066,-81.055,-55.664,-56.641
1688815184.144,577.148,20.020,-83.496,-73.730,-154.297
1688815184.148,638.184,20.508,-84.961,-90.820,-105.957
1688815184.152,677.734,26.855,-90.820,-74.219,21.973
1688815184.156,689.941,31.250,-92.773,-71.289,78.125
1688815184.159,678.223,32.715,-95.215,-63.477,6.836
1688815184.163,666.504,28.320,-103.027,-76.172,147.461
1688815184.167,702.637,26.367,-104.980,-89.844,79.102
1688815184.171,730.469,30.762,-104.980,-89.844,-166.504
1688815184.175,712.891,31.250,-107.422,-91.797,-113.281
1688815184.177,676.758,37.109,-108.398,-70.801,-34.668
1688815184.181,642.090,39.551,-106.445,-76.172,39.062
1688815184.185,608.398,37.109,-105.469,-89.355,-69.336
1688815184.189,575.684,41.992,-106.934,-70.312,-82.520
1688815184.193,539.062,43.945,-105.957,-51.270,125.488
1688815184.197,501.465,43.945,-105.957,-34.180,78.125
1688815184.201,506.348,45.410,-105.957,-37.109,-20.996
1688815184.204,528.320,43.945,-107.910,-62.500,13.672
1688815184.208,540.039,40.039,-108.398,-52.246,192.383
1688815184.212,552.246,41.992,-104.980,-43.945,-22.461
1688815184.216,540.039,39.551,-104.004,-39.551,-198.730
1688815184.220,524.414,32.227,-105.469,-26.367,12.695
1688815184.221,556.641,33.203,-104.004,-56.152,-0.488
1688815184.225,588.379,34.668,-96.191,-61.523,-211.426
1688815184.229,577.148,32.227,-88.379,-48.828,-153.320
1688815184.233,558.594,26.855,-80.566,-40.039,-39.551
1688815184.237,542.480,20.508,-82.031,-32.227,-17.090
1688815184.241,548.828,18.555,-80.078,-59.570,-119.141
1688815184.245,567.383,17.578,-75.684,-57.617,-111.328
1688815184.248,559.082,11.719,-77.148,-40.527,198.242
1688815184.252,525.879,9.277,-76.172,-33.691,245.605
1688815184.256,482.910,7.812,-77.148,-37.109,-50.293
1688815184.260,481.934,0.977,-76.660,-58.594,-137.207
1688815184.264,510.254,-3.418,-73.242,-60.059,-150.391
1688815184.267,507.324,-8.789,-70.801,-52.734,-166.016
1688815184.271,476.562,-7.812,-68.848,-44.434,-166.016
1688815184.275,438.965,-10.742,-64.941,-25.879,47.852
1688815184.279,445.312,-14.648,-61.035,-35.645,148.438
1688815184.283,475.098,-10.254,-57.129,-58.594,-64.453
1688815184.287,464.844,-11.230,-52.246,-54.199,-99.121
1688815184.291,437.012,-11.719,-49.805,-44.434,77.637
1688815184.294,389.648,-15.625,-54.199,-41.016,208.496
1688815184.298,381.836,-17.578,-55.664,-59.082,-1.953
1688815184.302,411.133,-21.973,-55.664,-76.660,-120.605
1688815184.306,409.180,-18.555,-52.734,-59.082,25.391
1688815184.310,390.625,-16.602,-52.734,-52.246,7.324
1688815184.327,358.398,-21.484,-57.129,-48.340,-100.586
1688815184.331,362.793,-23.926,-52.734,-49.805,-154.297
1688815184.335,395.508,-22.461,-47.852,-60.547,-173.340
1688815184.339,403.809,-16.602,-44.922,-53.711,-100.586
1688815184.343,386.719,-14.160,-44.922,-47.852,-79.102
1688815184.347,338.379,-22.949,-45.410,-47.363,-71.289
1688815184.351,316.406,-30.762,-47.852,-47.363,146.973
1688815184.354,340.820,-22.949,-50.293,-59.082,164.551
1688815184.358,346.191,-20.020,-48.340,-55.176,-134.277
1688815184.362,314.941,-17.578,-43.457,-52.246,-186.523
1688815184.366,262.207,-19.531,-43.457,-47.363,-125.000
1688815184.370,232.422,-23.926,-45.410,-52.246,-40.527
1688815184.371,253.906,-23.438,-42.969,-88.867,-111.328
1688815184.375,263.184,-23.926,-41.016,-79.590,-96.191
1688815184.379,233.887,-20.020,-42.480,-62.500,148.926
1688815184.383,187.500,-22.949,-43.945,-50.293,92.773
1688815184.387,163.574,-20.996,-43.457,-50.781,-93.262
1688815184.391,191.406,-20.996,-43.457,-79.590,19.043
1688815184.395,218.750,-20.020,-40.039,-68.848,105.469
1688815184.398,208.984,-22.461,-38.574,-62.988,-95.215
1688815184.402,192.383,-21.973,-35.645,-52.734,-155.762
1688815184.406,177.734,-16.113,-33.203,-38.574,8.789
1688815184.410,197.754,-24.902,-35.156,-62.012,-5.371
1688815184.414,228.516,-24.414,-38.086,-56.641,-217.773
1688815184.419,229.004,-16.602,-43.457,-52.246,-231.934
1688815184.423,209.961,-17.090,-39.062,-41.992,137.207
1688815184.427,179.199,-19.531,-35.156,-19.043,398.438
1688815184.431,176.758,-18.066,-36.133,-53.711,-14.160
1688815184.435,188.965,-18.066,-41.992,-74.707,-196.777
1688815184.439,184.082,-22.461,-45.410,-57.617,-48.828
1688815184.443,161.621,-23.926,-40.039,-38.574,-41.016
1688815184.446,129.395,-26.855,-38.574,-31.738,-92.773
1688815184.450,142.578,-23.438,-37.109,-60.547,-140.137
1688815184.454,172.363,-20.996,-37.109,-62.500,65.918
1688815184.458,167.969,-23.438,-36.133,-43.945,89.844
1688815184.462,140.137,-20.508,-34.668,-32.227,-142.578
1688815184.462,102.051,-21.973,-36.621,-27.344,-87.891
1688815184.466,106.445,-22.949,-33.691,-59.570,-30.762
1688815184.470,147.461,-19.043,-33.691,-66.406,-77.637
1688815184.474,163.086,-16.602,-34.180,-39.551,-83.984
1688815184.478,141.113,-19.043,-33.203,-32.227,62.500
1688815184.482,111.328,-21.973,-32.715,-27.832,223.145
1688815184.486,119.141,-19.531,-30.762,-43.945,43.945
1688815184.489,167.480,-17.578,-33.203,-66.895,-214.355
1688815184.493,112.305,-22.461,-35.645,-57.129,-112.305
1688815184.497,-110.840,-24.414,-34.180,-40.039,257.812
1688815184.501,-273.438,-24.414,-34.668,-24.414,244.629
1688815184.505,-332.520,-28.320,-34.180,-36.621,-118.164
1688815184.506,-343.262,-31.738,-30.273,-56.152,-211.426
1688815184.510,-251.953,-27.344,-31.738,-38.086,-168.457
1688815184.514,-155.273,-26.367,-32.715,-25.391,-208.984
1688815184.518,-120.117,-30.273,-34.180,-22.461,-127.930
1688815184.522,-101.074,-30.762,-38.574,-24.902,-34.668
1688815184.526,-38.574,-31.738,-37.109,-51.758,-63.477
1688815184.530,18.555,-30.762,-29.785,-48.340,-120.605
1688815184.533,20.508,-29.785,-31.250,-35.156,-141.602
1688815184.537,-4.395,-31.738,-34.180,-14.648,194.824
1688815184.541,-7.812,-30.762,-24.902,-16.113,277.832
1688815184.545,28.320,-24.902,-16.113,-46.387,-111.816
1688815184.549,-12.695,-28.320,-23.926,-35.645,-149.414
1688815184.551,-83.496,-34.668,-31.250,-31.738,-52.734
1688815184.555,-115.234,-31.250,-28.320,-20.508,-0.977
1688815184.559,-143.555,-32.715,-29.785,-18.066,-36.621
1688815184.563,-125.977,-35.156,-28.320,-48.828,-102.539
1688815184.567,-108.887,-31.738,-35.645,-41.992,50.781
1688815184.571,-124.512,-33.691,-39.062,-38.574,54.688
1688815184.575,-120.117,-35.645,-29.297,-32.227,-53.223
1688815184.578,-106.934,-32.715,-32.715,-19.043,3.418
1688815184.582,-52.734,-35.156,-35.645,-33.203,253.418
1688815184.586,23.926,-35.645,-28.320,-31.738,62.500
1688815184.590,55.664,-31.250,-31.738,-23.438,-226.074
1688815184.594,58.594,-31.250,-35.156,-6.836,-158.203
1688815184.598,60.547,-28.320,-33.203,8.301,-80.566
1688815184.602,88.379,-28.809,-34.668,-32.715,-160.156
1688815184.606,125.000,-33.203,-33.691,-46.875,-212.402
1688815184.610,135.254,-29.785,-28.809,-20.508,-173.340
1688815184.614,111.816,-33.203,-30.273,-16.602,-172.852
1688815184.618,86.914,-35.156,-34.668,-15.137,-90.820
1688815184.622,104.980,-28.809,-32.227,-45.898,-101.074
1688815184.625,127.930,-32.227,-32.227,-51.270,63.965
1688815184.629,134.277,-34.180,-32.227,-25.391,89.844
1688815184.633,119.141,-34.180,-31.250,-32.227,-150.391
1688815184.637,81.055,-38.574,-32.227,-23.926,20.996
1688815184.641,93.750,-32.715,-27.832,-24.414,27.344
1688815184.643,134.277,-25.879,-26.367,-45.410,-172.363
1688815184.647,140.625,-28.320,-28.809,-51.758,-104.980
1688815184.651,123.047,-30.273,-33.203,-51.270,15.625
1688815184.655,84.961,-33.691,-33.691,-41.992,76.172
1688815184.659,79.102,-35.645,-33.691,-57.129,-54.199
1688815184.663,110.352,-34.668,-31.250,-74.219,-106.934
1688815184.667,128.418,-38.086,-30.273,-49.805,72.754
1688815184.670,116.211,-37.598,-33.203,-35.645,307.617
1688815184.674,81.543,-35.156,-35.156,-35.645,180.176
1688815184.678,101.074,-25.879,-35.645,-39.062,-138.672
1688815184.682,155.762,-25.879,-32.227,-42.969,-187.012
1688815184.686,147.461,-32.715,-20.508,-38.086,-152.344
1688815184.688,115.723,-41.992,-17.578,-34.180,-106.445
1688815184.692,75.684,-54.199,-18.066,-33.691,-102.051
1688815184.696,38.574,-59.082,-9.766,-65.918,42.480
1688815184.700,45.898,-63.477,-2.930,-97.656,23.926
1688815184.704,51.758,-69.824,0.000,-87.891,-134.766
1688815184.708,20.996,-78.613,8.301,-90.332,-135.742
1688815184.712,-36.621,-87.891,20.508,-90.820,141.113
1688815184.715,-75.684,-98.633,28.320,-95.703,165.527
1688815184.719,-55.664,-102.539,34.668,-113.770,-193.848
1688815184.723,-45.898,-103.027,45.410,-111.328,-226.074
1688815184.727,-91.797,-113.281,53.711,-110.840,-63.477
1688815184.731,-154.785,-114.746,62.988,-93.750,-18.555
1688815184.732,-201.172,-114.746,63.965,-97.168,-146.484
1688815184.736,-199.707,-121.582,54.688,-134.277,-81.543
1688815184.740,-187.012,-126.465,48.828,-123.047,68.359
1688815184.744,-188.965,-129.395,51.270,-97.656,8.301
1688815184.748,-233.398,-125.488,47.363,-93.262,-126.953
1688815184.752,-270.996,-121.094,42.480,-84.473,19.043
1688815184.756,-211.426,-120.117,38.086,-85.938,322.266
1688815184.759,-144.531,-112.793,31.250,-89.355,65.430
1688815184.763,-123.047,-105.469,30.762,-79.590,-229.980
1688815184.767,-122.559,-101.562,33.691,-58.105,-130.371
1688815184.771,-150.391,-95.215,28.809,-52.246,-88.867
1688815184.775,-161.621,-86.426,22.461,-65.430,-192.383
1688815184.778,-144.531,-81.055,20.020,-64.941,-219.727
1688815184.782,-127.930,-76.660,15.625,-50.781,-184.082
1688815184.786,-133.789,-76.660,9.766,-38.086,-143.066
1688815184.790,-155.762,-79.590,6.836,-28.809,-100.586
1688815184.794,-155.273,-76.660,7.324,-54.199,-135.254
1688815184.798,-171.875,-73.242,9.766,-67.383,-126.465
1688815184.802,-207.520,-69.336,8.301,-42.480,-91.309
1688815184.805,-213.379,-64.941,4.395,-23.926,-0.488
1688815184.809,-209.961,-58.594,7.324,-5.371,-6.836
1688815184.813,-198.730,-52.246,9.766,-17.578,88.379
1688815184.817,-176.758,-54.199,3.418,-27.344,32.715
1688815184.821,-175.293,-56.152,0.488,-5.859,-223.145
1688815184.837,-190.918,-54.199,3.418,8.301,-147.949
1688815184.841,-208.496,-52.734,4.395,26.855,149.902
1688815184.845,-208.984,-50.781,5.859,8.301,117.188
1688815184.849,-175.293,-46.875,5.371,-13.184,-167.969
1688815184.853,-150.391,-47.852,3.906,11.230,-86.914
1688815184.857,-161.621,-52.734,-1.465,13.184,193.359
1688815184.861,-180.176,-47.363,-3.906,8.301,157.715
1688815184.864,-160.645,-37.598,1.953,-0.977,-27.832
1688815184.868,-123.047,-41.016,-0.488,-14.648,56.152
1688815184.872,-114.746,-45.410,-5.859,5.859,237.793
1688815184.876,-100.586,-40.039,-5.371,2.930,4.883
1688815184.880,-110.352,-40.527,-6.348,1.953,-120.605
1688815184.898,-153.320,-43.945,-9.766,-9.766,-83.008
1688815184.902,-132.812,-40.039,-9.766,-37.598,-179.199
1688815184.906,-106.934,-37.598,-10.254,-25.391,-218.262
1688815184.910,-115.723,-41.016,-14.648,-13.184,-196.777
1688815184.914,-127.930,-39.062,-19.043,-11.719,-109.863
1688815184.918,-146.484,-41.016,-20.508,-22.949,-50.293
1688815184.922,-123.535,-44.922,-17.090,-42.969,-65.918
1688815184.925,-74.219,-41.992,-17.090,-40.039,-133.789
1688815184.929,-71.289,-41.992,-26.367,-28.320,134.277
1688815184.933,-104.492,-41.016,-26.855,-15.625,257.324
1688815184.937,-129.395,-37.598,-20.020,-16.113,-32.715
1688815184.941,-122.070,-31.738,-19.531,-34.668,-104.004
1688815184.926,-122.070,-30.273,-19.043,-20.996,-69.336
1688815184.930,-147.949,-37.598,-20.996,-23.438,-39.062
1688815184.934,-173.828,-41.016,-21.973,-36.621,-80.566
1688815184.938,-172.852,-41.992,-23.926,-29.297,-23.926
1688815184.942,-130.371,-40.527,-29.297,-50.293,-3.906
1688815184.946,-89.355,-38.086,-26.855,-49.805,-88.867
1688815184.950,-83.984,-39.062,-27.344,-39.062,-64.941
1688815184.953,-95.215,-37.598,-27.344,-24.902,36.133
1688815184.957,-137.695,-39.551,-27.344,-17.090,40.039
1688815184.961,-160.645,-42.969,-29.785,-51.270,-106.445
1688815184.965,-127.441,-40.527,-29.297,-64.941,-171.875
1688815184.969,-91.309,-40.039,-28.320,-38.086,-76.660
1688815184.975,-88.379,-42.480,-34.668,-19.531,345.703
1688815184.979,-101.074,-41.992,-35.645,-27.832,272.949
1688815184.983,-63.477,-43.457,-35.156,-59.082,-122.070
1688815184.987,-2.441,-41.992,-35.645,-57.129,-164.551
1688815184.991,11.230,-32.715,-32.715,-33.691,-90.332
1688815184.995,-13.672,-31.250,-28.809,-34.668,-52.246
1688815184.999,-48.828,-33.691,-28.809,-29.297,41.016
1688815185.002,-58.594,-33.691,-26.855,-28.320,268.555
1688815185.006,-54.199,-36.133,-20.996,-41.504,146.973
1688815185.010,-70.312,-32.227,-20.508,-39.062,-95.215
1688815185.014,-105.957,-34.668,-20.996,-31.250,-59.570
1688815185.018,-152.832,-41.992,-26.855,-20.508,21.973
1688815185.018,-137.695,-43.945,-27.344,-35.645,-79.102
1688815185.022,-85.938,-41.992,-21.973,-54.199,-135.742
1688815185.026,-108.398,-37.109,-22.461,-30.273,4.395
1688815185.030,-155.762,-38.574,-22.461,-24.414,20.020
1688815185.034,-199.219,-39.551,-23.438,-25.879,-91.309
1688815185.038,-213.379,-37.109,-23.438,-28.320,-78.125
1688815185.042,-182.617,-38.086,-23.438,-47.363,30.762
1688815185.045,-170.898,-42.969,-28.809,-27.832,266.113
1688815185.049,-194.824,-41.016,-31.250,-13.184,241.211
1688815185.053,-234.863,-37.109,-30.273,-15.137,-56.152
1688815185.057,-221.680,-36.133,-29.785,-21.484,-102.051
1688815185.061,-198.730,-30.273,-25.391,-43.457,-173.340
1688815185.063,-216.797,-27.344,-21.973,-32.227,-238.770
1688815185.067,-236.328,-26.855,-24.902,-21.484,-209.961
1688815185.071,-249.023,-33.691,-32.715,-18.555,-166.016
1688815185.075,-249.023,-35.156,-31.738,-30.762,-135.254
1688815185.079,-218.262,-29.785,-23.926,-60.547,-208.984
1688815185.083,-171.875,-33.203,-29.785,-60.547,-229.980
1688815185.087,-166.992,-33.691,-35.645,-51.270,119.629
1688815185.090,-192.871,-33.203,-35.645,-33.691,222.168
1688815185.094,-207.520,-33.691,-32.227,-29.785,-49.805
1688815185.098,-162.598,-34.180,-27.344,-44.434,-118.164
1688815185.102,-119.629,-34.180,-31.250,-29.297,-27.832
1688815185.106,-134.766,-30.273,-32.715,-21.973,-39.551
1688815185.122,-162.109,-29.297,-22.949,-21.484,-188.965
1688815185.126,-183.594,-34.668,-22.949,-5.371,-34.668
1688815185.130,-175.781,-32.227,-27.344,-30.762,68.359
1688815185.134,-176.758,-29.297,-29.297,-39.062,-133.301
1688815185.138,-167.969,-30.762,-32.227,-26.367,-188.965
1688815185.142,-152.344,-30.273,-25.879,-17.578,27.344
1688815185.146,-158.691,-30.273,-24.902,-5.371,328.125
1688815185.149,-141.113,-28.809,-26.367,-32.715,140.625
1688815185.153,-110.840,-31.738,-29.297,-46.387,-155.762
1688815185.157,-102.051,-28.320,-31.738,-30.762,6.836
1688815185.161,-110.840,-20.996,-27.832,-21.484,83.008
1688815185.165,-112.793,-25.391,-23.438,-11.719,-118.652
1688815185.153,-81.543,-24.414,-25.391,-37.598,-141.602
1688815185.157,-43.457,-26.855,-36.621,-58.594,-76.660
1688815185.161,-48.828,-27.344,-36.133,-43.457,-66.406
1688815185.165,-61.035,-24.414,-29.297,-27.344,-134.766
1688815185.169,-76.172,-21.973,-29.785,-12.207,-87.402
1688815185.173,-80.078,-25.391,-29.297,-32.227,68.359
1688815185.177,-57.129,-27.344,-30.273,-51.270,75.195
1688815185.180,-34.668,-24.902,-30.273,-38.086,-60.059
1688815185.184,-22.949,-23.438,-25.879,-33.203,-166.504
1688815185.188,-29.297,-18.066,-24.902,-18.066,173.340
1688815185.192,-32.227,-20.996,-28.320,-26.367,281.738
1688815185.196,0.977,-23.926,-33.203,-57.617,-147.949
1688815185.212,7.324,-22.949,-36.621,-60.547,-188.965
1688815185.216,-33.691,-22.461,-32.715,-57.617,-80.566
1688815185.220,-72.754,-23.438,-32.227,-38.574,27.344
1688815185.224,-91.309,-20.508,-33.203,-45.898,-40.039
1688815185.228,-62.988,-19.531,-33.691,-59.570,-76.172
1688815185.232,-57.617,-20.996,-33.691,-35.645,146.973
1688815185.236,-79.102,-19.043,-33.203,-27.344,100.586
1688815185.239,-111.328,-18.066,-32.227,-15.625,-85.938
1688815185.243,-166.504,-20.020,-31.738,-10.254,27.832
1688815185.247,-179.199,-22.949,-32.227,-33.691,45.410
1688815185.251,-178.711,-20.996,-32.227,-29.297,-126.953
1688815185.255,-201.660,-17.578,-35.645,-15.625,-151.367
1688815185.272,-237.305,-21.973,-41.504,-12.207,-0.977
1688815185.276,-261.230,-19.531,-43.457,-24.902,80.566
1688815185.280,-231.445,-15.625,-37.109,-54.199,-91.309
1688815185.284,-228.027,-16.602,-40.039,-51.270,-176.758
1688815185.288,-278.320,-18.066,-44.434,-46.875,-166.992
1688815185.292,-309.570,-20.508,-40.527,-41.016,16.602
1688815185.296,-341.797,-18.555,-38.574,-35.156,121.094
1688815185.299,-340.332,-22.949,-36.133,-60.547,-103.027
1688815185.303,-290.527,-27.344,-32.715,-52.734,77.637
1688815185.307,-290.527,-28.809,-32.227,-36.621,192.871
1688815185.311,-310.059,-31.250,-33.203,-34.668,-91.797
1688815185.315,-330.078,-25.391,-32.227,-20.508,0.977
1688815185.318,-368.652,-20.508,-29.297,-44.434,-10.742
1688815185.322,-330.078,-23.438,-30.273,-52.246,-171.875
1688815185.326,-368.652,-22.949,-34.180,-29.785,-106.445
1688815185.330,-570.801,-21.973,-34.180,-31.738,39.062
1688815185.334,-750.488,-24.902,-32.715,-33.691,158.691
1688815185.338,-838.867,-27.832,-35.156,-54.199,-24.902
1688815185.342,-864.746,-26.855,-35.645,-59.570,-174.316
1688815185.345,-908.691,-20.020,-29.297,-38.574,-32.227
1688815185.349,-962.402,-22.949,-23.926,-29.297,115.234
1688815185.353,-994.141,-29.297,-31.250,-20.020,-22.949
1688815185.357,-1000.000,-24.902,-31.250,-33.691,-229.492
1688815185.361,-999.512,-27.344,-34.180,-53.711,-42.969
1688815185.348,-1000.000,-33.203,-42.480,-46.875,184.570
1688815185.352,-1000.000,-32.227,-37.598,-39.062,-85.938
1688815185.356,-1000.000,-27.832,-31.738,-30.273,-151.855
1688815185.360,-1000.000,-27.832,-28.809,-51.270,-84.961
1688815185.364,-1000.000,-33.203,-26.855,-66.406,-104.004
1688815185.368,-1000.000,-30.273,-31.738,-38.086,-98.145
1688815185.372,-1000.000,-24.902,-31.738,-25.879,-93.750
1688815185.375,-1000.000,-27.344,-31.738,-30.762,51.758
1688815185.379,-998.535,-29.297,-28.809,-44.922,40.039
1688815185.383,-1000.000,-31.738,-25.879,-61.523,-117.188
1688815185.387,-967.773,-30.762,-25.879,-47.363,-178.223
1688815185.391,-905.273,-29.297,-28.809,-38.574,139.160
1688815185.392,-884.277,-27.832,-31.250,-24.414,227.539
1688815185.396,-854.004,-27.344,-26.367,-31.250,-105.469
1688815185.400,-800.293,-30.762,-22.461,-50.293,-65.918
1688815185.404,-797.363,-30.762,-24.902,-37.109,35.645
1688815185.408,-807.617,-32.715,-30.273,-37.109,-64.941
1688815185.412,-814.453,-30.273,-25.879,-20.996,-66.895
1688815185.416,-825.195,-30.273,-27.832,-23.438,53.223
1688815185.419,-770.996,-36.621,-31.738,-48.340,357.422
1688815185.423,-729.004,-35.645,-32.227,-47.852,225.098
1688815185.427,-742.188,-32.227,-29.297,-43.945,-184.082
1688815185.431,-722.168,-29.297,-22.461,-28.809,-137.207
1688815185.435,-646.973,-33.691,-26.855,-28.809,-98.145
1688815185.437,-569.336,-35.645,-28.320,-49.316,-208.496
1688815185.441,-525.879,-30.273,-24.414,-36.621,-258.301
1688815185.445,-491.211,-38.086,-26.367,-31.250,-211.426
1688815185.449,-506.836,-41.504,-35.645,-28.809,-116.699
1688815185.453,-574.707,-32.715,-31.250,-12.695,-79.102
1688815185.457,-610.352,-33.203,-26.855,-41.992,-102.539
1688815185.461,-643.555,-34.668,-28.809,-41.504,184.570
1688815185.464,-725.098,-33.203,-23.438,-12.207,159.668
1688815185.468,-752.930,-34.668,-24.414,-12.695,-187.988
1688815185.472,-701.660,-36.133,-26.855,-19.043,-137.207
1688815185.476,-616.211,-31.738,-27.344,-38.086,-121.094
1688815185.480,-509.766,-29.785,-27.344,-46.387,-164.551
1688815185.481,-432.129,-34.180,-28.809,-41.992,-242.676
1688815185.485,-360.840,-36.621,-28.320,-37.109,-106.445
1688815185.489,-303.223,-37.109,-29.297,-33.203,45.898
1688815185.493,-285.645,-35.645,-31.250,-51.270,-136.719
1688815185.497,-310.547,-39.062,-29.785,-65.918,-225.586
1688815185.501,-340.820,-43.945,-27.344,-62.988,-0.977
1688815185.505,-366.699,-39.062,-24.902,-46.387,284.668
1688815185.508,-459.961,-38.574,-27.832,-30.762,87.891
1688815185.512,-512.207,-34.180,-25.391,-58.105,-185.547
1688815185.516,-514.160,-32.715,-26.367,-77.148,-103.027
1688815185.520,-502.930,-34.180,-23.926,-48.828,-34.668
1688815185.524,-485.352,-36.621,-22.461,-36.133,-100.586
1688815185.545,-542.480,-37.598,-22.461,-38.574,-83.008
1688815185.549,-591.797,-32.227,-20.020,-56.152,-4.395
1688815185.553,-544.434,-31.738,-26.367,-74.707,-109.375
1688815185.557,-492.676,-32.715,-32.227,-72.266,-226.074
1688815185.561,-448.730,-33.691,-27.344,-78.125,-88.379
1688815185.565,-362.305,-34.180,-25.391,-71.289,9.766
1688815185.569,-261.230,-30.762,-26.367,-83.008,8.301
1688815185.572,-138.672,-25.391,-24.414,-104.980,-171.387
1688815185.576,-33.203,-21.973,-20.996,-92.773,-272.461
1688815185.580,57.129,-21.484,-20.020,-81.543,26.367
1688815185.584,136.719,-24.414,-25.391,-64.453,97.168
1688815185.588,214.355,-25.391,-27.832,-81.055,-111.328
1688815185.587,305.664,-22.949,-24.414,-97.656,-116.211
1688815185.591,386.719,-22.461,-17.578,-72.266,-7.812
1688815185.595,437.012,-26.367,-20.508,-71.777,4.883
1688815185.599,452.148,-26.367,-25.879,-60.547,-45.410
1688815185.603,464.355,-21.973,-21.484,-57.617,20.996
1688815185.607,520.508,-22.461,-22.461,-75.195,60.059
1688815185.611,539.551,-21.973,-23.926,-58.105,48.828
1688815185.614,506.348,-21.973,-23.438,-53.711,-35.645
1688815185.618,451.172,-24.902,-26.855,-50.781,7.812
1688815185.622,394.043,-27.344,-29.297,-44.434,362.305
1688815185.626,429.199,-29.297,-31.738,-66.895,280.273
1688815185.630,481.934,-29.785,-32.227,-62.988,-89.355
1688815185.632,470.215,-29.785,-29.297,-48.340,-133.789
1688815185.636,451.172,-28.809,-28.320,-32.715,-94.727
1688815185.640,443.359,-32.227,-31.250,-33.691,-88.379
1688815185.644,478.516,-30.762,-32.715,-54.199,-139.648
1688815185.648,534.180,-24.414,-34.180,-49.805,-48.340
1688815185.652,530.762,-23.926,-30.273,-42.969,13.672
1688815185.656,504.395,-22.949,-22.949,-27.832,0.488
1688815185.659,487.793,-21.484,-20.020,-5.859,-73.242
1688815185.663,497.559,-23.438,-23.926,-32.715,63.477
1688815185.667,509.766,-28.809,-31.250,-45.410,142.578
1688815185.671,494.141,-29.785,-30.273,-34.668,-125.488
1688815185.675,467.285,-32.715,-27.832,-34.668,-89.355
1688815185.677,430.664,-37.109,-28.320,-21.484,-45.410
1688815185.681,437.988,-33.691,-27.344,-39.062,-85.449
1688815185.685,466.309,-32.227,-25.391,-49.805,-112.305
1688815185.689,461.914,-34.180,-25.391,-30.273,-28.809
1688815185.693,431.641,-34.668,-29.785,-21.484,80.078
1688815185.697,387.207,-30.762,-30.273,-15.625,42.480
1688815185.701,378.418,-30.273,-27.344,-33.691,15.625
1688815185.704,406.250,-31.250,-29.297,-49.805,90.820
1688815185.708,417.480,-33.203,-28.809,-24.414,205.566
1688815185.712,403.320,-36.621,-28.809,-23.438,8.789
1688815185.716,357.910,-36.133,-30.273,-19.531,-154.297
1688815185.720,330.078,-35.645,-29.297,-30.762,-86.426
1688815185.722,331.543,-29.785,-28.809,-51.758,-108.398
1688815185.726,317.383,-20.020,-29.785,-35.645,-201.172
1688815185.730,307.129,-21.484,-28.809,-25.391,-209.473
1688815185.734,272.949,-24.902,-27.832,-20.508,-69.336
1688815185.738,251.953,-23.926,-30.273,-42.969,-25.391
1688815185.742,302.734,-28.809,-27.344,-74.219,-118.164
1688815185.746,319.824,-30.762,-26.367,-64.453,-110.352
1688815185.749,299.805,-33.203,-33.691,-44.434,144.043
1688815185.753,272.949,-31.738,-36.621,-32.715,205.566
1688815185.757,221.191,-29.785,-37.109,-57.617,28.809
1688815185.761,232.422,-34.180,-39.062,-84.961,-107.422
1688815185.765,290.039,-34.180,-38.086,-62.012,-141.602
1688815185.766,274.902,-30.762,-32.715,-42.969,-127.930
1688815185.770,204.102,-28.320,-27.832,-28.320,-148.926
1688815185.774,186.035,-34.180,-31.738,-39.551,-59.570
1688815185.778,180.176,-32.715,-32.227,-65.918,26.367
1688815185.782,183.594,-29.785,-30.762,-57.617,-51.758
1688815185.786,196.777,-33.691,-33.203,-52.246,-86.914
1688815185.790,145.996,-36.621,-33.203,-41.016,40.039
1688815185.793,105.957,-39.062,-33.203,-27.832,228.516
1688815185.797,144.043,-37.109,-33.203,-46.875,0.488
1688815185.801,156.738,-33.203,-31.250,-44.434,-214.844
1688815185.805,109.863,-32.715,-37.598,-28.320,-99.121
1688815185.809,59.082,-34.668,-35.156,-17.578,30.762
1688815185.827,81.055,-32.227,-29.297,-20.508,21.973
1688815185.831,96.191,-34.180,-32.227,-55.664,-86.426
1688815185.835,84.961,-33.203,-33.691,-61.523,-86.426
1688815185.839,134.277,-32.715,-38.086,-43.457,-50.781
1688815185.843,142.578,-31.738,-37.109,-27.344,-96.680
1688815185.847,100.098,-29.785,-32.227,-25.391,1.465
1688815185.851,119.629,-34.668,-35.156,-57.129,173.828
1688815185.854,188.477,-30.273,-36.621,-58.594,60.547
1688815185.858,232.422,-30.273,-32.715,-37.598,-107.422
1688815185.862,241.699,-32.715,-28.320,-27.832,-138.184
1688815185.866,205.566,-28.809,-27.344,-7.324,96.680
1688815185.870,181.641,-28.809,-33.203,-20.020,70.312
1688815185.858,177.246,-32.715,-32.715,-39.551,-185.059
1688815185.862,174.316,-36.133,-28.320,-19.531,-69.824
1688815185.866,154.785,-34.180,-28.809,-10.254,148.926
1688815185.870,104.492,-29.785,-27.344,-6.348,34.180
1688815185.874,108.887,-24.414,-20.996,-20.996,-132.812
1688815185.878,153.809,-24.902,-22.949,-33.203,-9.277
1688815185.882,166.992,-23.438,-29.785,-14.160,176.758
1688815185.885,151.855,-26.855,-35.156,-16.602,11.230
1688815185.889,86.426,-32.715,-37.109,-20.020,-177.246
1688815185.893,46.875,-33.691,-35.645,-32.715,-46.875
1688815185.897,55.664,-30.273,-31.250,-45.410,69.824
1688815185.901,23.438,-26.855,-32.227,-40.527,-131.836
1688815185.904,7.812,-30.273,-33.203,-37.109,-194.824
1688815185.908,-9.766,-29.297,-30.273,-23.438,-27.344
1688815185.912,-46.387,-29.297,-33.691,-27.832,-23.438
1688815185.916,-0.977,-33.691,-33.691,-54.688,-130.859
1688815185.920,27.344,-32.227,-31.738,-36.133,-76.660
1688815185.924,-20.508,-30.762,-29.297,-17.578,189.941
1688815185.928,-78.613,-38.086,-31.250,-17.578,327.637
1688815185.931,-106.445,-37.109,-39.551,-20.508,8.301
1688815185.935,-69.336,-32.715,-37.598,-39.551,-107.910
1688815185.939,5.371,-35.645,-33.203,-37.598,-42.480
1688815185.943,81.543,-31.738,-31.250,-29.297,-125.488
1688815185.947,101.074,-26.367,-33.691,-17.578,-128.418
1688815185.962,61.035,-35.156,-36.133,-18.555,-82.520
1688815185.966,70.312,-39.062,-33.691,-43.945,-108.398
1688815185.970,137.207,-31.250,-34.668,-38.086,-79.590
1688815185.974,184.570,-29.785,-34.180,-20.996,-155.762
1688815185.978,201.172,-28.320,-31.250,-5.371,-99.121
1688815185.982,201.172,-31.250,-33.203,-1.465,333.496
1688815185.986,192.383,-27.832,-36.133,-35.156,190.430
1688815185.989,199.219,-28.320,-31.250,-43.945,-110.352
1688815185.993,216.309,-34.668,-27.832,-28.809,-18.066
1688815185.997,187.500,-30.762,-29.297,-20.020,44.922
1688815186.001,129.395,-32.227,-33.691,-21.484,-40.039
1688815186.005,106.934,-33.691,-34.180,-58.105,-152.344
1688815186.006,93.262,-28.809,-30.273,-59.570,23.926
1688815186.010,70.312,-26.367,-35.156,-37.598,131.836
1688815186.014,57.129,-25.879,-34.668,-40.039,-20.020
1688815186.018,94.727,-26.367,-24.902,-30.762,0.000
1688815186.022,172.852,-29.785,-26.855,-44.434,-30.273
1688815186.026,232.910,-30.273,-24.902,-51.758,-7.812
1688815186.030,247.559,-28.320,-21.973,-31.738,-12.695
1688815186.033,241.699,-27.832,-25.391,-34.668,-180.176
1688815186.037,235.352,-30.762,-25.879,-27.344,173.340
1688815186.041,265.625,-32.715,-26.367,-37.598,388.672
1688815186.045,314.941,-30.273,-23.438,-48.828,-111.816
1688815186.049,336.426,-30.762,-23.926,-30.762,-260.254
1688815186.052,330.078,-32.715,-28.809,-31.250,-139.648
1688815186.056,300.781,-31.250,-27.832,-20.996,-22.461
1688815186.060,299.805,-28.320,-26.855,-38.086,-83.008
1688815186.064,333.008,-29.785,-30.273,-58.105,-156.250
1688815186.068,344.727,-33.203,-29.785,-34.180,-20.996
1688815186.072,331.543,-31.738,-27.832,-21.973,-49.316
1688815186.076,303.711,-30.762,-23.926,-23.438,-65.430
1688815186.079,297.852,-30.762,-28.320,-44.922,-20.996
1688815186.083,324.219,-35.156,-39.062,-60.547,54.199
1688815186.087,335.938,-39.062,-37.109,-45.410,-84.473
1688815186.091,324.219,-34.668,-32.227,-38.086,-176.270
1688815186.095,286.621,-35.645,-37.598,-28.320,59.570
1688815186.097,270.020,-34.180,-40.039,-37.598,64.453
1688815186.101,305.176,-27.832,-33.203,-48.340,-154.297
1688815186.105,321.777,-27.832,-33.203,-27.344,-176.270
1688815186.109,294.922,-28.320,-35.156,-29.297,-66.406
1688815186.113,245.605,-30.762,-31.738,-20.996,-5.859
1688815186.117,235.840,-28.809,-28.809,-20.020,-11.719
1688815186.121,269.531,-25.391,-26.367,-46.387,-75.195
1688815186.124,285.156,-30.273,-27.832,-31.250,86.426
1688815186.128,268.555,-35.156,-31.250,-18.066,157.715
1688815186.132,229.492,-35.156,-32.227,-14.648,-111.328
1688815186.136,219.238,-34.180,-33.203,-19.043,-118.652
1688815186.140,252.930,-35.156,-33.691,-52.246,-74.219
1688815186.174,270.508,-35.156,-32.227,-43.945,-55.176
1688815186.178,262.207,-29.297,-31.250,-34.180,-85.938
1688815186.182,239.258,-27.832,-31.738,-34.180,-19.043
1688815186.186,212.402,-34.668,-36.621,-24.414,186.035
1688815186.190,232.422,-34.668,-35.156,-49.805,-49.805
1688815186.194,259.766,-29.785,-30.273,-54.199,-143.066
1688815186.198,244.629,-28.320,-32.715,-42.480,6.348
1688815186.201,205.566,-33.203,-38.086,-36.133,100.098
1688815186.205,177.246,-34.668,-41.992,-26.855,-21.973
1688815186.209,206.055,-30.273,-39.551,-45.410,-171.387
1688815186.213,236.328,-31.250,-37.598,-48.340,-134.277
1688815186.217,225.098,-36.133,-36.621,-41.016,-166.016
1688815186.187,197.754,-37.598,-37.109,-38.574,-164.551
1688815186.191,165.527,-40.527,-37.598,-25.391,-69.824
1688815186.195,179.688,-43.945,-34.180,-46.875,-58.105
1688815186.199,213.867,-39.551,-34.668,-54.688,-48.828
1688815186.203,208.984,-34.668,-32.715,-39.062,-49.805
1688815186.207,182.129,-33.691,-29.785,-29.297,-23.438
1688815186.211,153.809,-35.156,-30.273,-17.578,76.660
1688815186.214,165.039,-30.273,-28.320,-32.227,-32.715
1688815186.218,197.754,-27.832,-26.367,-40.039,-183.105
1688815186.222,184.570,-30.762,-27.832,-31.250,-132.324
1688815186.226,155.762,-33.203,-31.738,-33.203,-22.461
1688815186.230,121.094,-33.691,-33.691,-29.297,-31.738
1688815186.246,115.234,-37.109,-35.156,-40.527,-104.980
1688815186.250,153.809,-37.598,-32.227,-46.875,-104.492
1688815186.254,162.598,-31.738,-28.809,-37.109,185.059
1688815186.258,144.531,-32.227,-27.832,-32.715,242.188
1688815186.262,97.168,-28.320,-24.414,-20.508,-80.078
1688815186.266,58.105,-24.414,-25.391,-31.250,-44.922
1688815186.270,53.223,-26.855,-30.762,-51.270,113.281
1688815186.273,50.781,-26.367,-30.273,-40.039,11.719
1688815186.277,41.016,-19.043,-25.391,-36.133,-156.738
1688815186.281,12.207,-18.066,-26.367,-23.438,-50.781
1688815186.285,-9.277,-21.484,-25.879,-17.090,130.371
1688815186.289,21.973,-26.367,-23.438,-48.340,-174.805
1688815186.279,62.500,-27.832,-26.367,-41.504,-277.832
1688815186.283,49.316,-23.926,-28.320,-26.855,-153.320
1688815186.287,-9.277,-21.973,-29.297,-27.832,-90.820
1688815186.291,-30.273,-21.484,-30.762,-33.691,-91.797
1688815186.295,7.324,-20.020,-31.738,-59.082,-158.203
1688815186.299,47.363,-20.996,-33.203,-52.734,-1.953
1688815186.303,65.918,-25.879,-33.203,-34.180,10.742
1688815186.306,55.664,-24.902,-30.273,-22.461,-77.148
1688815186.310,55.176,-21.973,-24.414,-19.043,-23.438
1688815186.314,97.168,-19.043,-21.973,-38.574,-38.574
1688815186.318,127.441,-18.066,-21.973,-38.574,-116.211
1688815186.322,118.652,-23.926,-26.855,-25.879,-162.598
1688815186.337,92.285,-28.809,-32.227,-23.438,-90.820
1688815186.341,65.430,-30.273,-29.297,-29.785,299.316
1688815186.345,79.102,-31.738,-28.809,-54.688,225.586
1688815186.349,98.633,-35.645,-26.367,-69.824,-255.859
1688815186.353,92.773,-35.645,-23.438,-51.270,-135.254
1688815186.357,52.246,-32.227,-28.320,-28.320,273.926
1688815186.361,-23.926,-31.250,-29.785,-20.508,328.125
1688815186.364,-108.887,-34.668,-33.203,-52.246,-62.988
1688815186.368,-219.727,-31.738,-34.668,-56.152,-153.809
1688815186.372,-304.688,-28.809,-32.227,-33.203,56.641
1688815186.376,-415.527,-37.598,-36.133,-27.344,-57.617
1688815186.380,-527.344,-40.039,-31.738,-27.344,-181.641
1688815186.381,-489.746,-29.785,-26.855,-52.734,-58.594
1688815186.385,-520.020,-27.344,-32.227,-60.547,-39.551
1688815186.389,-705.078,-35.156,-35.156,-44.434,-172.363
1688815186.393,-854.980,-35.645,-32.715,-26.855,-152.344
1688815186.397,-916.504,-30.762,-28.320,-18.555,-85.938
1688815186.401,-968.750,-33.203,-30.273,-45.898,-96.191
1688815186.405,-1000.000,-32.715,-30.273,-51.270,-94.238
1688815186.408,-998.535,-32.715,-31.738,-36.621,-130.859
1688815186.412,-1000.000,-31.738,-34.180,-23.438,126.465
1688815186.416,-1000.000,-28.809,-32.715,-14.160,262.695
1688815186.420,-1000.000,-26.855,-33.203,-42.480,-55.664
1688815186.424,-1000.000,-26.855,-31.250,-47.363,-131.348
1688815186.427,-1000.000,-24.414,-31.738,-35.645,-61.035
1688815186.431,-1000.000,-25.391,-34.180,-50.293,-3.418
1688815186.435,-1000.000,-31.250,-41.016,-40.527,7.324
1688815186.439,-1000.000,-30.762,-42.480,-48.340,-55.176
1688815186.443,-1000.000,-32.227,-37.109,-58.594,70.801
1688815186.447,-1000.000,-32.715,-33.203,-39.062,12.695
1688815186.451,-1000.000,-29.785,-33.691,-39.551,-61.523
1688815186.454,-1000.000,-31.250,-32.715,-30.762,106.445
1688815186.458,-1000.000,-33.691,-34.180,-23.438,141.602
1688815186.462,-1000.000,-30.273,-33.691,-39.062,-77.637
1688815186.466,-1000.000,-26.855,-25.879,-32.227,-202.637
1688815186.470,-1000.000,-31.250,-30.273,-15.137,-19.531
1688815186.471,-1000.000,-36.133,-31.250,-0.488,126.953
1688815186.475,-1000.000,-38.086,-28.809,-17.578,-65.918
1688815186.479,-1000.000,-38.086,-30.273,-52.246,-191.406
1688815186.483,-1000.000,-39.551,-32.715,-41.992,-19.043
1688815186.487,-1000.000,-39.551,-32.715,-29.785,-8.301
1688815186.491,-1000.000,-34.180,-32.227,-25.391,-89.355
1688815186.495,-1000.000,-37.109,-33.691,-28.320,-94.238
1688815186.498,-1000.000,-40.039,-33.691,-50.781,87.402
1688815186.502,-1000.000,-32.227,-31.250,-48.828,98.633
1688815186.506,-1000.000,-24.414,-25.391,-41.992,-213.379
1688815186.510,-1000.000,-23.926,-34.180,-37.109,-156.738
1688815186.514,-1000.000,-22.949,-48.828,-31.738,-6.348
1688815186.532,-1000.000,-21.484,-49.316,-52.734,-45.898
1688815186.536,-1000.000,-20.020,-42.480,-47.852,-54.199
1688815186.540,-1000.000,-22.461,-42.969,-32.715,28.320
1688815186.544,-1000.000,-28.320,-46.875,-22.949,70.801
1688815186.548,-1000.000,-26.367,-42.969,-2.930,24.414
1688815186.552,-1000.000,-26.855,-39.551,-23.438,-67.871
1688815186.556,-1000.000,-24.902,-36.133,-30.762,26.855
1688815186.559,-1000.000,-25.391,-38.574,-22.461,249.023
1688815186.563,-1000.000,-26.855,-39.551,-20.996,-14.160
1688815186.567,-1000.000,-26.855,-34.180,-6.348,-256.836
1688815186.571,-1000.000,-30.273,-34.180,-18.066,-104.980
1688815186.575,-1000.000,-34.180,-33.691,-23.438,-87.891
1688815186.563,-1000.000,-33.691,-32.227,-11.230,-272.461
1688815186.567,-1000.000,-34.668,-33.203,4.883,-259.766
1688815186.571,-1000.000,-36.133,-33.203,20.020,-35.645
1688815186.575,-1000.000,-31.738,-28.809,-7.812,-2.441
1688815186.579,-1000.000,-34.180,-28.809,-20.020,-206.055
1688815186.583,-995.605,-35.156,-32.715,2.930,-119.629
1688815186.587,-991.699,-33.691,-27.344,13.184,14.648
1688815186.590,-986.816,-29.297,-20.996,24.414,-13.672
1688815186.594,-660.645,-29.785,-24.414,6.348,-88.867
1688815186.598,-140.625,-30.762,-27.344,-7.812,-186.523
1688815186.602,200.195,-24.902,-25.879,8.301,-123.047
1688815186.606,436.035,-23.926,-23.438,9.277,-74.707
1688815186.606,604.492,-22.949,-21.973,15.137,-85.938
1688815186.610,751.953,-21.484,-19.531,8.789,-22.949
1688815186.614,908.691,-22.949,-17.090,-1.465,250.488
1688815186.618,972.168,-20.508,-17.090,20.020,270.020
1688815186.622,964.355,-19.043,-18.555,18.555,-127.930
1688815186.626,967.773,-23.926,-21.484,17.578,17.090
1688815186.630,968.262,-20.020,-24.414,10.742,375.977
1688815186.633,967.773,-14.648,-27.832,-18.066,68.359
1688815186.637,968.262,-16.602,-27.344,-11.719,-289.062
1688815186.641,968.262,-20.508,-28.809,-4.395,-123.047
1688815186.645,968.262,-22.949,-27.344,-1.953,22.949
1688815186.649,968.262,-24.902,-25.391,-5.859,-90.332
1688815186.653,967.773,-31.738,-30.273,-39.551,-190.918
1688815186.657,968.262,-37.598,-30.762,-32.715,-104.980
1688815186.661,968.262,-32.227,-30.273,-17.578,-49.805
1688815186.665,967.773,-31.250,-36.621,-14.160,-131.836
1688815186.669,967.773,-40.039,-40.527,-21.484,-114.746
1688815186.673,967.773,-42.480,-41.504,-53.223,-59.570
1688815186.677,968.262,-36.133,-40.527,-49.316,31.250
1688815186.680,968.262,-31.738,-38.574,-46.875,-42.480
1688815186.684,967.773,-35.156,-37.598,-46.875,-184.082
1688815186.688,967.773,-34.180,-31.738,-33.203,62.500
1688815186.692,968.262,-27.832,-28.320,-63.477,98.145
1688815186.696,968.262,-24.902,-31.738,-66.895,-186.035
1688815186.712,968.262,-29.297,-38.574,-56.641,-158.691
1688815186.716,967.773,-31.250,-39.551,-46.387,75.195
1688815186.720,967.773,-26.855,-34.668,-36.133,79.590
1688815186.724,964.844,-27.344,-35.156,-58.594,-135.742
1688815186.728,956.543,-28.809,-37.598,-55.664,-51.270
1688815186.732,931.641,-33.691,-38.574,-43.945,258.301
1688815186.736,890.625,-34.180,-40.527,-47.363,206.055
1688815186.739,845.215,-28.809,-38.086,-45.410,-13.184
1688815186.743,833.496,-28.320,-34.180,-64.453,9.766
1688815186.747,845.215,-28.809,-32.715,-59.570,88.867
1688815186.751,824.219,-25.391,-31.250,-44.922,-83.008
1688815186.755,777.344,-27.344,-30.762,-44.434,-109.375
1688815186.758,726.562,-31.738,-31.738,-29.785,-12.207
1688815186.762,707.520,-32.715,-32.715,-48.828,-68.359
1688815186.766,708.984,-36.621,-34.180,-66.895,-64.453
1688815186.770,686.523,-40.039,-34.180,-51.758,-49.316
1688815186.774,646.484,-39.551,-35.645,-47.363,-26.855
1688815186.778,592.285,-33.691,-33.691,-38.086,79.590
1688815186.782,564.941,-27.832,-28.809,-63.965,-26.367
1688815186.785,577.148,-25.391,-30.762,-87.891,-178.711
1688815186.789,576.172,-25.391,-30.762,-64.453,53.711
1688815186.793,547.363,-26.855,-33.203,-60.059,186.523
1688815186.797,500.000,-29.785,-35.156,-60.059,-73.730
1688815186.801,472.168,-31.250,-34.668,-77.637,-127.930
1688815186.802,494.141,-26.855,-40.527,-104.980,-109.863
1688815186.806,505.859,-20.508,-38.574,-88.867,-93.750
1688815186.810,479.492,-20.996,-37.109,-76.172,-133.789
1688815186.814,435.547,-24.902,-41.992,-66.895,-25.391
1688815186.818,410.645,-21.484,-37.109,-61.523,120.117
1688815186.822,424.316,-24.414,-36.133,-89.355,13.672
1688815186.826,424.805,-27.344,-38.574,-86.426,10.254
1688815186.829,415.039,-26.367,-36.133,-71.777,51.758
1688815186.833,376.953,-26.367,-34.668,-52.734,290.527
1688815186.837,342.285,-25.879,-37.109,-64.941,187.012
1688815186.841,369.629,-25.879,-38.086,-96.680,-175.781
1688815186.845,390.625,-22.461,-37.109,-85.449,-196.289
1688815186.847,375.977,-22.461,-36.621,-72.754,-159.668
1688815186.851,340.332,-23.438,-38.574,-52.246,-101.562
1688815186.855,300.781,-23.926,-40.039,-49.316,-77.637
1688815186.859,299.805,-25.879,-43.945,-84.961,-123.535
1688815186.863,317.871,-24.902,-42.969,-79.102,-155.762
1688815186.867,307.129,-28.809,-41.504,-63.477,-121.582
1688815186.871,263.184,-35.156,-50.781,-73.730,-134.766
1688815186.874,226.562,-36.621,-53.711,-69.336,191.406
1688815186.878,241.211,-31.738,-45.410,-85.938,278.809
1688815186.882,261.719,-24.902,-43.457,-89.844,-82.520
1688815186.886,248.535,-30.273,-45.898,-71.777,-145.020
1688815186.890,225.586,-31.738,-41.016,-63.477,-120.117
1688815186.892,200.684,-29.785,-38.574,-46.875,-95.215
1688815186.896,197.266,-27.832,-36.621,-62.988,-166.992
1688815186.900,204.102,-26.367,-32.715,-61.035,-130.859
1688815186.904,188.477,-26.367,-32.715,-43.457,26.855
1688815186.908,150.391,-27.832,-32.227,-40.039,-53.711
1688815186.912,116.699,-29.297,-30.273,-29.297,-142.090
1688815186.916,129.883,-26.367,-31.250,-54.199,30.273
1688815186.919,160.156,-27.344,-29.297,-59.570,82.031
1688815186.923,158.203,-29.785,-29.297,-34.180,-123.535
1688815186.927,143.066,-29.785,-34.180,-31.738,-115.723
1688815186.931,122.559,-31.738,-32.227,-19.043,94.238
1688815186.935,128.906,-30.273,-28.809,-23.438,234.863
1688815186.951,157.227,-34.668,-28.320,-39.062,0.977
1688815186.955,181.641,-35.645,-22.461,-11.719,-176.270
1688815186.959,184.082,-25.391,-24.902,-1.953,-161.133
1688815186.963,138.184,-23.438,-35.645,-16.602,-72.266
1688815186.967,134.277,-17.578,-47.852,-44.434,-49.316
1688815186.971,185.547,-9.766,-53.711,-61.523,-187.988
1688815186.975,207.520,-6.836,-55.664,-38.086,119.141
1688815186.978,211.426,4.395,-64.941,-25.879,190.918
1688815186.982,187.988,10.254,-66.895,-17.090,-143.066
1688815186.986,174.316,8.789,-67.383,-19.043,-146.973
1688815186.990,210.449,12.207,-71.289,-35.156,-176.758
1688815186.994,224.609,16.113,-77.637,-30.762,-137.207
1688815186.983,216.309,20.020,-84.473,-25.879,-146.484
1688815186.987,185.059,25.879,-86.914,-4.883,-61.035
1688815186.991,151.855,32.227,-92.773,-11.230,205.078
1688815186.995,174.316,31.250,-95.703,-41.992,-40.527
1688815186.999,196.777,31.250,-95.703,-30.273,-314.941
1688815187.003,183.105,41.504,-98.633,-26.855,-10.254
1688815187.007,153.809,44.922,-103.516,-20.996,276.367
1688815187.010,130.859,47.852,-102.539,-25.391,44.434
1688815187.014,150.391,49.805,-102.051,-54.688,-232.910
1688815187.018,179.199,43.457,-107.422,-36.133,-135.254
1688815187.022,168.457,44.434,-110.352,-21.973,78.125
1688815187.026,143.066,46.387,-106.934,-26.855,-59.082
1688815187.058,127.441,41.504,-99.609,-19.043,-139.648
1688815187.062,159.668,39.062,-102.051,-43.945,-148.926
1688815187.066,199.707,41.016,-103.027,-51.758,-142.090
1688815187.070,190.918,56.641,-101.562,-41.016,-84.961
1688815187.074,166.504,59.082,-95.703,-35.156,-145.020
1688815187.078,155.762,40.527,-89.355,-17.090,176.270
1688815187.082,179.688,40.039,-93.750,-39.062,303.711
1688815187.085,211.914,41.016,-87.891,-51.758,-107.422
1688815187.089,215.820,35.645,-87.891,-35.156,-172.363
1688815187.093,197.266,34.180,-87.402,-29.785,-74.707
1688815187.097,173.340,36.621,-82.031,-24.414,-48.828
1688815187.101,179.199,36.133,-80.566,-42.969,-162.598
1688815187.087,208.008,33.691,-80.078,-50.781,-186.035
1688815187.091,206.055,29.297,-80.078,-36.133,-36.133
1688815187.095,179.688,22.949,-81.055,-31.250,-43.945
1688815187.099,139.160,21.484,-80.566,-33.203,-29.785
1688815187.103,154.785,19.043,-76.172,-47.363,99.121
1688815187.107,190.430,10.254,-74.219,-47.363,132.812
1688815187.111,182.617,3.906,-68.848,-29.785,34.180
1688815187.114,174.805,5.371,-64.453,-31.250,-127.441
1688815187.118,142.578,0.977,-59.082,-27.832,-14.160
1688815187.122,139.648,0.000,-55.664,-44.434,75.684
1688815187.126,173.828,3.906,-55.176,-57.617,-166.016
1688815187.130,182.617,6.348,-49.805,-35.645,-193.848
1688815187.132,180.176,0.488,-47.852,-20.996,3.906
1688815187.136,142.578,1.953,-50.781,-4.883,305.176
1688815187.140,130.859,2.930,-49.316,-18.066,146.484
1688815187.144,171.387,0.977,-47.852,-48.828,-161.133
1688815187.148,181.152,-6.836,-47.363,-47.363,-142.090
1688815187.152,175.293,-18.555,-44.922,-38.086,-55.176
1688815187.156,143.066,-17.090,-47.852,-28.320,36.133
1688815187.159,124.023,-15.625,-47.852,-35.645,18.555
1688815187.163,154.785,-18.066,-44.434,-52.246,110.352
1688815187.167,165.527,-12.695,-42.969,-30.762,148.926
1688815187.171,156.738,-4.883,-42.969,-28.809,-147.949
1688815187.175,119.141,-11.719,-49.316,-35.645,-129.395
1688815187.177,82.031,-14.648,-53.223,-49.316,17.578
1688815187.181,104.492,-11.719,-50.781,-83.008,-52.246
1688815187.185,118.164,-14.160,-50.293,-72.754,-187.500
1688815187.189,103.516,-15.137,-52.734,-63.477,-161.133
1688815187.193,71.289,-20.020,-52.734,-56.152,58.105
1688815187.197,37.598,-16.113,-48.828,-59.082,41.992
1688815187.201,70.801,-13.672,-43.945,-94.238,-27.832
1688815187.204,110.352,-14.648,-41.016,-79.102,33.203
1688815187.208,107.422,-8.301,-44.922,-68.848,83.008
1688815187.212,84.961,-5.859,-47.363,-74.707,-3.906
1688815187.216,62.500,-8.301,-46.875,-66.406,-148.926
1688815187.220,93.750,-14.160,-49.316,-78.613,-60.059
1688815187.221,122.070,-15.137,-48.340,-81.055,54.199
1688815187.225,110.352,-19.043,-42.969,-76.660,-103.516
1688815187.229,83.008,-20.996,-41.016,-62.988,-147.949
1688815187.233,56.641,-21.484,-43.457,-63.965,-54.199
1688815187.237,73.730,-23.438,-39.551,-91.309,-38.574
1688815187.241,108.887,-19.043,-31.250,-75.684,-88.379
1688815187.245,112.305,-17.578,-30.273,-40.527,-95.703
1688815187.248,84.961,-18.066,-36.133,-40.527,185.059
1688815187.252,41.992,-17.578,-42.480,-32.715,227.051
1688815187.256,53.711,-20.020,-43.457,-61.523,-100.098
1688815187.260,92.285,-21.484,-40.527,-87.402,-145.508
1688815187.264,94.727,-24.414,-40.527,-70.312,-104.980
1688815187.267,80.078,-26.855,-40.527,-59.082,-170.410
1688815187.271,44.922,-22.461,-40.527,-47.852,-125.000
1688815187.275,59.570,-20.508,-35.156,-82.520,-44.434
1688815187.279,90.332,-19.531,-32.715,-88.867,57.617
1688815187.283,85.938,-22.461,-37.109,-67.383,-12.207
1688815187.287,76.660,-25.391,-38.574,-65.430,-90.820
1688815187.291,46.387,-24.902,-36.133,-50.293,129.395
1688815187.294,48.340,-26.367,-39.551,-60.059,269.531
1688815187.298,92.285,-21.484,-38.086,-80.078,-43.457
1688815187.302,107.422,-17.578,-35.156,-75.195,-182.129
1688815187.306,98.633,-22.949,-33.691,-64.453,-82.031
1688815187.310,77.148,-27.344,-30.762,-51.270,-99.121
1688815187.314,58.105,-29.297,-33.203,-60.059,-114.258
1688815187.318,84.961,-27.832,-34.180,-71.777,-121.094
1688815187.322,104.492,-22.949,-30.762,-40.039,43.457
1688815187.326,83.496,-23.438,-24.902,-24.902,12.695
1688815187.330,50.293,-25.879,-23.926,-14.160,-109.863
1688815187.334,36.621,-28.809,-28.809,-26.855,-86.914
1688815187.338,61.523,-31.250,-25.391,-43.457,79.590
1688815187.341,71.777,-31.738,-24.902,-24.414,138.184
1688815187.345,70.801,-30.762,-29.297,-26.855,-140.625
1688815187.349,48.828,-32.227,-28.809,-21.973,-138.672
1688815187.353,31.250,-33.691,-29.785,-33.691,-49.805
1688815187.357,64.941,-32.227,-30.762,-53.223,-158.691
1688815187.357,94.238,-35.156,-35.645,-46.875,-215.332
1688815187.361,89.355,-37.109,-40.039,-33.691,-17.090
1688815187.365,61.523,-41.016,-40.527,-18.066,126.953
1688815187.369,33.691,-46.387,-42.480,-27.344,45.410
1688815187.373,62.012,-44.434,-41.992,-59.082,-54.199
1688815187.377,89.355,-42.480,-37.598,-56.641,-17.090
1688815187.381,87.402,-40.039,-32.715,-39.551,343.750
1688815187.384,70.312,-39.062,-25.391,-36.621,309.570
1688815187.388,38.086,-40.527,-28.320,-39.551,-92.285
1688815187.392,56.641,-39.062,-31.738,-64.453,-171.875
1688815187.396,93.262,-39.551,-27.344,-69.824,-104.492
1688815187.400,88.867,-44.922,-28.320,-50.781,-159.668
1688815187.403,64.941,-42.969,-29.297,-31.250,-180.664
1688815187.407,36.133,-40.527,-25.879,-16.113,-12.695
1688815187.411,46.875,-39.551,-21.973,-31.250,-72.266
1688815187.415,82.031,-42.969,-23.926,-36.133,-190.918
1688815187.419,72.754,-45.410,-25.391,-17.578,-132.324
1688815187.423,42.969,-41.016,-27.832,-10.254,-56.641
1688815187.427,22.461,-37.598,-29.297,-15.625,49.805
1688815187.430,23.438,-41.016,-29.785,-38.574,41.504
1688815187.434,33.203,-42.969,-30.762,-46.387,-115.234
1688815187.438,25.391,-38.574,-30.273,-25.391,51.270
1688815187.442,-0.488,-36.133,-32.227,-20.020,122.070
1688815187.446,-30.273,-35.156,-29.297,-16.602,-89.355
1688815187.462,-25.391,-34.668,-24.414,-34.180,-135.254
1688815187.466,10.254,-36.621,-30.273,-44.434,34.180
1688815187.470,21.973,-40.039,-32.715,-26.855,80.566
1688815187.474,7.324,-33.203,-28.320,-22.949,-141.602
1688815187.478,-21.973,-40.527,-32.715,-21.973,-6.836
1688815187.482,-33.691,-50.781,-37.598,-45.410,124.512
1688815187.486,3.906,-39.062,-34.668,-59.570,-83.496
1688815187.489,24.414,-35.156,-37.598,-47.363,-176.270
1688815187.493,21.484,-36.621,-41.992,-47.363,26.855
1688815187.497,8.301,-29.297,-41.504,-25.391,83.008
1688815187.501,4.395,-29.785,-40.039,-28.320,-88.867
1688815187.505,38.086,-27.344,-36.133,-49.805,-181.152
1688815187.506,52.734,-20.996,-36.133,-29.785,-30.273
1688815187.510,38.086,-23.438,-35.645,-17.090,194.336
1688815187.514,11.230,-22.949,-34.180,4.883,-28.809
1688815187.518,-0.977,-21.973,-35.156,-4.395,-153.809
1688815187.522,31.250,-23.926,-35.645,-37.598,-153.809
1688815187.526,60.547,-25.879,-37.598,-24.414,-123.535
1688815187.530,60.547,-27.832,-38.086,-18.066,-18.555
1688815187.533,27.832,-31.250,-32.227,-10.742,-67.871
1688815187.537,4.395,-28.809,-26.367,-8.301,151.367
1688815187.541,32.715,-27.832,-27.344,-21.973,174.805
1688815187.545,56.152,-30.273,-27.832,-26.367,-89.355
1688815187.549,59.082,-35.645,-34.180,-24.902,-26.855
1688815187.551,35.645,-37.598,-34.668,-19.531,7.324
1688815187.555,3.418,-31.250,-30.762,-13.184,-4.883
1688815187.559,26.855,-31.738,-33.203,-38.086,-110.352
1688815187.563,62.012,-32.715,-34.180,-38.574,-90.332
1688815187.567,48.340,-32.715,-37.109,-34.180,67.383
1688815187.571,16.602,-29.785,-41.016,-37.109,60.547
1688815187.575,0.977,-22.461,-39.551,-17.578,38.574
1688815187.578,6.836,-25.391,-32.715,-32.715,-7.812
1688815187.582,-12.695,-39.551,-28.320,-42.480,99.609
1688815187.586,-43.945,-42.480,-28.809,-37.598,-35.156
1688815187.590,-62.012,-43.457,-24.414,-35.156,-207.031
1688815187.594,-100.098,-50.781,-13.184,-36.133,-24.902
1688815187.612,-102.051,-60.059,-6.836,-69.336,-62.500
1688815187.616,-80.566,-66.895,-4.395,-84.961,-88.867
1688815187.620,-97.656,-68.848,6.348,-82.031,-37.598
1688815187.624,-147.949,-74.707,9.277,-89.355,3.906
1688815187.628,-211.426,-83.008,17.090,-88.379,20.508
1688815187.632,-216.309,-95.215,30.273,-104.004,-95.703
1688815187.636,-179.688,-103.027,39.062,-112.793,-102.051
1688815187.639,-178.711,-105.957,49.316,-103.027,76.172
1688815187.643,-193.359,-119.141,52.246,-114.258,75.684
1688815187.647,-211.426,-127.441,55.176,-122.070,-118.652
1688815187.651,-197.266,-130.371,62.012,-141.602,-128.906
1688815187.655,-139.160,-134.766,65.918,-144.531,-111.816
1688815187.642,-119.629,-139.648,68.848,-127.441,-114.746
1688815187.646,-123.535,-137.207,68.359,-124.023,-100.098
1688815187.650,-143.555,-135.742,67.383,-114.258,-9.277
1688815187.654,-139.648,-137.207,63.477,-121.094,111.816
1688815187.658,-93.262,-137.207,58.594,-115.723,-58.105
1688815187.662,-73.242,-133.789,55.664,-99.609,-191.895
1688815187.666,-82.520,-131.836,47.852,-94.238,56.152
1688815187.669,-112.305,-125.488,38.574,-71.289,102.051
1688815187.673,-115.234,-116.211,29.785,-77.148,-89.844
1688815187.677,-76.172,-108.398,26.367,-91.797,-180.176
1688815187.681,-63.477,-98.633,30.273,-61.035,18.555
1688815187.685,-76.172,-93.750,29.297,-34.180,250.977
1688815187.687,-96.191,-88.867,24.414,-31.738,88.379
1688815187.691,-94.238,-81.543,24.902,-40.039,-83.984
1688815187.695,-49.316,-77.148,21.973,-52.246,-180.176
1688815187.699,-26.855,-76.660,15.137,-46.387,-200.684
1688815187.703,-25.391,-75.195,10.742,-37.109,-166.504
1688815187.707,-50.781,-75.195,8.301,-25.391,-116.211
1688815187.711,-73.730,-75.195,6.836,-20.508,172.363
1688815187.714,-40.039,-74.707,3.418,-38.086,257.324
1688815187.718,-6.836,-73.242,-1.465,-44.922,-59.570
1688815187.722,-3.418,-68.359,-4.395,-25.391,-137.207
1688815187.726,-27.344,-69.824,-5.371,-4.883,-6.348
1688815187.730,-44.922,-69.336,-2.930,-4.883,20.996
1688815187.734,-13.672,-64.453,-3.906,-34.180,-213.379
1688815187.738,17.090,-65.430,-4.883,-28.320,-100.586
1688815187.742,13.672,-62.500,-5.859,-2.930,183.594
1688815187.746,-16.113,-60.059,-2.441,-4.883,-9.766
1688815187.750,-49.316,-59.082,-5.859,-10.254,-183.105
1688815187.754,-40.039,-57.617,-8.301,-39.062,-92.773
1688815187.758,-22.461,-61.523,-7.324,-41.992,62.988
1688815187.761,-32.227,-60.059,-15.137,-33.691,-46.387
1688815187.765,-54.688,-55.664,-16.602,-27.832,-125.000
1688815187.769,-84.473,-54.688,-21.973,-16.113,75.195
1688815187.773,-78.613,-57.617,-20.508,-52.246,57.617
1688815187.777,-49.805,-59.570,-14.648,-67.871,-143.066
1688815187.778,-44.434,-60.547,-25.391,-50.293,-158.691
1688815187.782,-57.617,-57.129,-26.367,-41.504,-4.883
1688815187.786,-77.637,-45.410,-18.555,-26.855,61.523
1688815187.790,-55.664,-43.945,-17.578,-40.039,-141.113
1688815187.794,-2.930,-45.410,-16.113,-61.523,-243.652
1688815187.798,11.230,-42.969,-13.184,-31.738,89.355
1688815187.802,-7.812,-42.480,-12.695,-20.020,250.488
1688815187.805,-28.809,-42.969,-15.625,-23.438,-57.617
1688815187.809,-18.555,-38.574,-16.113,-29.297,-189.453
1688815187.813,15.137,-34.180,-12.695,-35.156,-105.469
1688815187.817,29.297,-32.715,-14.160,-9.766,31.250
1688815187.821,20.020,-33.203,-19.531,-4.395,-100.098
1688815187.837,-14.648,-38.086,-24.902,-3.418,-95.703
1688815187.841,-23.926,-39.551,-21.973,-10.254,196.777
1688815187.845,6.836,-37.598,-20.020,-31.738,28.320
1688815187.849,12.207,-40.527,-22.949,-29.297,-215.332
1688815187.853,-6.348,-45.410,-25.879,-36.621,-97.656
1688815187.857,-37.598,-44.922,-22.461,-25.879,140.137
1688815187.861,-49.316,-40.527,-24.902,-27.832,107.422
1688815187.864,-14.160,-40.527,-27.344,-49.805,-163.086
1688815187.868,-3.906,-35.645,-22.949,-31.250,-79.102
1688815187.872,-26.367,-30.762,-20.020,-28.809,141.602
1688815187.876,-45.898,-36.133,-17.090,-19.043,-33.691
1688815187.880,-50.781,-41.504,-18.555,-16.602,-131.836
1688815187.897,-34.180,-41.016,-26.367,-58.594,-0.488
1688815187.901,-17.578,-40.527,-22.461,-56.152,-21.973
1688815187.905,-9.766,-35.156,-18.066,-36.621,-245.117
1688815187.909,-44.434,-33.691,-22.461,-28.320,-207.520
1688815187.913,-72.754,-36.133,-24.414,-27.344,-43.945
1688815187.917,-40.527,-29.297,-23.438,-54.199,-58.105
1688815187.921,-13.184,-30.273,-20.996,-51.758,-89.844
1688815187.924,-9.277,-32.227,-21.973,-37.109,-159.180
1688815187.928,-26.855,-25.391,-23.438,-22.461,66.406
1688815187.932,-49.316,-25.879,-25.879,-18.555,221.191
1688815187.936,-21.484,-28.809,-30.762,-47.363,-136.719
1688815187.940,16.113,-29.297,-29.785,-47.363,-206.055
1688815187.942,21.484,-31.250,-32.715,-54.199,-133.301
1688815187.946,2.441,-30.762,-35.156,-52.734,-32.227
1688815187.950,-29.785,-31.738,-28.809,-43.457,-36.621
1688815187.954,-17.578,-35.156,-25.391,-78.125,-128.906
1688815187.958,14.648,-38.574,-28.320,-75.684,88.867
1688815187.962,10.742,-39.062,-28.809,-52.246,123.047
1688815187.966,-12.207,-39.551,-30.273,-48.828,-62.988
1688815187.969,-29.785,-39.551,-37.109,-40.039,-17.090
1688815187.973,-18.555,-35.645,-36.621,-54.688,-71.289
1688815187.977,-1.465,-34.668,-30.273,-51.758,-195.312
1688815187.981,-7.324,-34.180,-29.297,-25.391,-180.176
1688815187.985,-29.785,-38.086,-34.668,-12.207,-62.988
1688815187.972,-45.898,-40.039,-37.598,5.859,162.109
1688815187.976,-31.738,-39.551,-39.551,-21.973,-49.805
1688815187.980,-6.348,-40.527,-39.062,-41.016,-166.992
1688815187.984,8.789,-34.180,-35.156,-17.090,-104.492
1688815187.988,-1.953,-37.598,-38.086,-18.066,-111.328
1688815187.992,-45.410,-40.039,-44.922,-14.648,-8.301
1688815187.996,-41.016,-37.109,-46.875,-27.344,65.430
1688815187.999,1.465,-35.645,-42.969,-47.363,101.562
1688815188.003,13.672,-33.691,-38.574,-28.809,3.906
1688815188.007,10.742,-30.273,-35.156,-20.020,-124.512
1688815188.011,-15.625,-29.785,-37.109,-18.066,-100.586
1688815188.015,-25.879,-32.227,-41.016,-24.902,142.090
1688815188.032,1.953,-30.762,-36.133,-40.527,178.711
1688815188.036,9.766,-29.785,-31.250,-33.691,-173.340
1688815188.040,-9.766,-32.227,-35.156,-29.297,-142.090
1688815188.044,-41.992,-31.738,-37.109,-29.785,55.176
1688815188.048,-52.246,-32.715,-34.180,-39.062,-30.762
1688815188.052,-16.602,-30.762,-30.273,-52.246,-133.301
1688815188.056,-10.742,-27.344,-27.344,-28.809,57.617
1688815188.059,-57.129,-29.297,-28.809,-10.254,224.609
1688815188.063,-104.004,-31.250,-28.320,-0.488,105.469
1688815188.067,-113.770,-29.297,-27.344,-2.930,-81.055
1688815188.071,-81.055,-31.250,-23.438,-24.902,-27.344
1688815188.075,-48.340,-31.250,-27.344,-13.672,8.301
1688815188.061,-55.176,-27.832,-34.180,-11.719,-206.543
1688815188.065,-92.773,-30.273,-36.133,-4.883,-214.355
1688815188.069,-116.699,-31.250,-35.645,-19.531,-78.613
1688815188.073,-103.027,-32.715,-37.109,-59.082,-121.094
1688815188.077,-84.961,-32.715,-38.574,-48.828,-192.871
1688815188.081,-94.727,-32.715,-41.992,-45.898,-121.582
1688815188.085,-137.695,-36.621,-46.387,-56.152,-3.418
1688815188.088,-183.105,-41.504,-42.969,-54.199,-9.277
1688815188.092,-169.922,-40.039,-41.992,-74.707,-181.641
1688815188.096,-142.090,-38.086,-45.410,-77.637,-224.609
1688815188.100,-139.648,-35.156,-47.363,-50.293,124.023
1688815188.104,-157.227,-33.691,-52.246,-42.969,263.672
1688815188.108,-174.316,-33.203,-50.293,-47.852,-42.969
1688815188.112,-144.043,-32.227,-42.969,-64.453,-116.699
1688815188.116,-99.121,-32.715,-41.992,-62.500,57.617
1688815188.120,-91.309,-32.715,-41.016,-48.340,-45.898
1688815188.124,-112.305,-35.645,-38.086,-49.316,-228.027
1688815188.128,-130.859,-35.156,-33.691,-35.156,-43.945
1688815188.132,-110.352,-32.227,-30.273,-47.363,159.180
1688815188.135,-68.848,-37.598,-29.297,-59.570,-67.383
1688815188.139,-69.824,-43.457,-37.109,-40.527,-214.355
1688815188.143,-107.910,-41.504,-40.527,-29.785,-4.883
1688815188.147,-147.461,-42.480,-39.062,-22.949,85.938
1688815188.151,-144.531,-38.086,-41.504,-57.129,-156.250
1688815188.155,-109.863,-32.715,-41.504,-71.289,-108.887
1688815188.159,-101.562,-31.738,-39.062,-48.340,55.176
1688815188.163,-114.746,-29.297,-36.621,-46.387,-44.434
1688815188.167,-134.277,-26.367,-33.203,-37.109,-84.961
1688815188.171,-126.953,-29.297,-30.762,-57.617,-96.191
1688815188.175,-93.750,-31.738,-31.738,-73.730,118.652
1688815188.179,-79.590,-27.344,-31.738,-43.457,214.355
1688815188.182,-98.633,-27.832,-29.297,-47.852,-128.418
1688815188.186,-136.719,-30.273,-28.320,-47.363,-144.043
1688815188.190,-136.719,-29.297,-32.227,-46.387,15.625
1688815188.194,-115.234,-29.785,-33.203,-65.430,-125.488
1688815188.198,-112.793,-25.879,-29.785,-53.711,-221.191
1688815188.213,-135.254,-29.785,-34.180,-56.152,-132.324
1688815188.217,-174.316,-32.715,-41.016,-51.758,-75.195
1688815188.221,-190.430,-30.762,-35.645,-50.293,13.184
1688815188.225,-178.711,-32.227,-34.668,-76.172,-27.832
1688815188.229,-170.410,-28.320,-30.762,-59.082,-121.582
1688815188.233,-173.828,-30.273,-29.785,-45.898,293.457
1688815188.237,-196.777,-33.203,-34.180,-37.598,499.023
1688815188.240,-217.773,-28.320,-28.809,-34.668,3.418
1688815188.244,-195.801,-28.320,-29.785,-67.871,-36.133
1688815188.248,-163.086,-31.250,-30.762,-64.453,36.133
1688815188.252,-147.461,-33.203,-28.809,-56.152,-167.969
1688815188.256,-134.766,-33.691,-30.762,-48.828,-136.230
1688815188.261,-116.699,-32.227,-33.691,-38.574,-38.574
1688815188.265,-56.641,-30.762,-29.785,-56.641,-78.125
1688815188.269,2.930,-27.344,-27.344,-59.082,-177.734
1688815188.273,17.090,-29.785,-30.273,-54.688,-226.562
1688815188.277,2.930,-28.809,-34.668,-46.875,-71.289
1688815188.281,-11.230,-25.391,-36.621,-38.086,68.848
1688815188.285,16.602,-25.391,-35.156,-60.547,-66.406
1688815188.288,51.758,-24.414,-32.227,-55.664,-95.703
1688815188.292,59.082,-24.414,-31.250,-28.320,156.250
1688815188.296,41.992,-30.273,-35.156,-23.438,182.617
1688815188.300,12.695,-30.762,-37.109,-27.344,-69.336
1688815188.304,29.785,-29.297,-41.992,-54.688,-95.215
1688815188.302,65.918,-33.203,-42.480,-61.035,-4.883
1688815188.306,65.918,-34.180,-41.504,-42.969,28.809
1688815188.310,55.176,-35.156,-43.457,-38.574,-70.801
1688815188.314,38.574,-36.621,-49.805,-35.156,-22.461
1688815188.318,47.363,-35.645,-46.875,-55.176,31.250
1688815188.322,76.172,-35.156,-33.691,-66.895,-64.453
1688815188.326,69.336,-34.180,-35.156,-47.852,-30.762
1688815188.329,28.809,-33.203,-41.016,-38.574,-11.719
1688815188.333,-26.855,-31.738,-35.645,-24.414,211.426
1688815188.337,-32.227,-33.691,-35.645,-33.691,355.957
1688815188.341,19.531,-32.715,-39.551,-51.270,53.223
1688815188.345,42.480,-26.367,-36.133,-44.922,-132.812
1688815188.347,37.109,-29.297,-40.527,-46.875,-151.855
1688815188.351,14.160,-33.691,-45.898,-39.551,-179.688
1688815188.355,10.742,-32.715,-46.875,-50.781,-155.762
1688815188.359,47.852,-32.227,-40.527,-64.453,-162.598
1688815188.363,66.895,-33.203,-37.598,-47.852,-118.164
1688815188.367,54.688,-35.156,-40.039,-41.016,-133.789
1688815188.371,13.184,-28.320,-41.992,-32.715,-149.902
1688815188.374,-7.324,-26.367,-41.992,-41.992,120.117
1688815188.378,24.414,-27.344,-42.969,-65.430,138.672
1688815188.382,40.039,-22.949,-49.805,-62.988,-167.969
1688815188.386,31.738,-27.832,-48.828,-54.688,-153.320
1688815188.390,15.137,-32.227,-44.434,-36.133,-45.410
1688815188.392,24.902,-28.320,-43.457,-32.227,-136.719
1688815188.396,59.082,-31.250,-43.945,-56.641,-235.840
1688815188.400,72.266,-34.180,-50.293,-43.945,-93.262
1688815188.404,64.453,-36.621,-52.734,-26.855,13.672
1688815188.408,36.621,-40.039,-46.875,-26.855,-37.598
1688815188.412,20.996,-40.039,-50.293,-35.645,3.418
1688815188.416,48.340,-40.039,-51.270,-57.129,24.902
1688815188.419,64.941,-37.109,-46.387,-48.340,140.625
1688815188.423,49.805,-34.180,-46.875,-37.598,42.969
1688815188.427,12.695,-33.691,-46.875,-33.203,-123.047
1688815188.431,-33.691,-33.203,-44.434,-33.691,-55.176
1688815188.435,-37.598,-33.691,-41.504,-60.547,-78.613
1688815188.455,-30.273,-36.133,-35.156,-52.246,-86.914
1688815188.459,-50.781,-33.691,-31.250,-38.574,-96.680
1688815188.463,-90.820,-30.762,-36.621,-35.645,22.949
1688815188.467,-137.207,-34.180,-41.504,-28.320,104.004
1688815188.471,-131.348,-38.086,-41.504,-56.641,-155.762
1688815188.475,-108.398,-38.574,-38.086,-63.477,-150.391
1688815188.479,-118.652,-40.039,-41.504,-41.504,279.785
1688815188.482,-146.484,-41.504,-41.504,-28.320,228.516
1688815188.486,-174.805,-39.062,-36.621,-39.551,-139.648
1688815188.490,-162.598,-32.715,-36.621,-58.105,-172.363
1688815188.494,-139.160,-34.180,-38.086,-55.176,-222.656
1688815188.498,-136.230,-33.203,-34.668,-55.176,-193.359
1688815188.483,-146.484,-28.809,-36.133,-58.105,-187.012
1688815188.487,-184.082,-28.809,-44.922,-45.898,-76.172
1688815188.491,-180.176,-32.227,-49.316,-54.199,88.867
1688815188.495,-144.043,-30.762,-44.922,-59.570,7.324
1688815188.499,-135.254,-28.320,-42.969,-41.992,-130.859
1688815188.503,-141.113,-26.855,-38.574,-29.297,44.922
1688815188.507,-173.340,-28.320,-36.621,-18.066,362.793
1688815188.510,-166.992,-28.809,-40.039,-29.297,94.238
1688815188.514,-117.676,-28.809,-36.133,-37.598,-212.891
1688815188.518,-103.027,-31.738,-36.621,-20.996,-75.684
1688815188.522,-114.258,-25.391,-38.086,-7.324,246.094
1688815188.526,-137.207,-16.602,-36.133,-6.348,96.680
1688815188.528,-138.184,-20.996,-34.180,-38.574,-227.051
1688815188.532,-105.957,-22.949,-34.668,-57.129,-220.215
1688815188.536,-93.262,-21.973,-35.645,-36.621,-155.273
1688815188.540,-109.863,-25.879,-37.598,-26.367,-162.598
1688815188.544,-149.414,-26.367,-40.527,-26.855,-93.750
1688815188.548,-159.668,-24.902,-39.551,-33.203,177.246
1688815188.552,-117.676,-26.367,-36.621,-40.527,133.789
1688815188.555,-103.027,-29.785,-34.180,-32.715,-155.762
1688815188.559,-126.953,-28.320,-35.156,-32.227,-151.367
1688815188.563,-157.227,-30.273,-36.133,-18.066,131.348
1688815188.567,-161.133,-29.785,-34.180,-19.531,164.551
1688815188.571,-124.023,-28.320,-33.203,-48.828,-159.180
1688815188.587,-97.168,-30.762,-33.203,-33.203,-100.586
1688815188.591,-92.773,-27.832,-34.668,-21.484,-1.953
1688815188.595,-116.699,-28.809,-36.133,-11.719,1.953
1688815188.599,-136.719,-34.180,-40.527,-20.996,-111.816
1688815188.603,-102.051,-40.039,-44.922,-57.617,-135.742
1688815188.607,-62.500,-41.992,-46.875,-47.363,176.270
1688815188.611,-49.805,-37.598,-48.340,-34.668,21.973
1688815188.614,-58.105,-36.621,-44.434,-30.273,-154.785
1688815188.618,-72.266,-32.227,-40.039,-20.996,79.590
1688815188.622,-38.574,-26.367,-42.969,-41.992,137.207
1688815188.626,3.906,-23.438,-44.434,-41.992,-94.727
1688815188.630,9.766,-21.973,-37.598,-20.508,-208.984
1688815188.632,-9.766,-20.508,-35.156,0.488,-165.527
1688815188.636,-62.012,-22.949,-38.086,1.953,-87.402
1688815188.640,-57.129,-29.297,-34.668,-32.227,-120.117
1688815188.644,-22.949,-34.668,-33.691,-41.504,-131.348
1688815188.648,-23.438,-35.156,-36.133,-30.762,-97.656
1688815188.652,-50.293,-35.156,-35.156,-26.855,-55.664
1688815188.656,-83.984,-39.551,-35.156,-15.137,-5.371
1688815188.659,-62.988,-41.016,-36.621,-30.273,-163.086
1688815188.663,-31.738,-44.434,-40.039,-37.598,15.137
1688815188.667,-46.875,-42.969,-41.992,-18.066,260.254
1688815188.671,-78.125,-38.574,-38.574,-23.926,-55.664
1688815188.675,-114.746,-38.086,-41.992,-20.996,-93.750
1688815188.677,-106.934,-40.527,-47.363,-39.551,3.418
1688815188.681,-63.477,-40.527,-49.316,-57.129,-83.984
1688815188.685,-46.387,-35.645,-45.410,-37.598,-171.387
1688815188.689,-58.594,-35.156,-40.039,-29.785,-154.297
1688815188.693,-98.633,-37.598,-41.016,-23.438,54.199
1688815188.697,-90.820,-38.574,-41.504,-37.109,92.285
1688815188.701,-39.551,-39.062,-39.551,-48.340,-101.562
1688815188.704,-29.297,-37.109,-41.992,-24.414,-83.008
1688815188.708,-40.527,-33.691,-38.574,-14.648,141.602
1688815188.712,-65.918,-29.297,-36.133,-12.695,43.457
1688815188.716,-61.035,-26.855,-35.156,-23.438,-32.715
1688815188.720,-18.555,-30.273,-34.668,-43.945,73.242
1688815188.722,-8.301,-29.297,-40.527,-27.832,17.090
1688815188.726,-11.719,-25.391,-42.969,-25.879,-132.324
1688815188.730,-41.504,-23.926,-41.016,-20.508,-147.461
1688815188.734,-72.266,-33.203,-42.480,-24.902,-49.316
1688815188.738,-53.223,-45.898,-47.363,-46.875,-63.477
1688815188.742,-36.621,-41.504,-48.340,-32.227,-61.523
1688815188.746,-38.574,-35.645,-47.852,-24.414,-54.688
1688815188.749,-63.477,-39.062,-45.898,-10.742,107.910
1688815188.753,-93.262,-42.969,-42.969,-3.418,226.074
1688815188.757,-73.730,-40.039,-39.062,-31.250,-118.652
1688815188.761,-58.105,-35.156,-36.621,-31.250,-210.938
1688815188.765,-69.824,-36.621,-36.621,-21.973,-122.559
1688815188.768,-99.121,-37.598,-35.156,-21.484,-75.195
1688815188.772,-125.977,-35.156,-36.133,-32.715,-49.805
1688815188.776,-102.051,-33.691,-39.551,-56.152,-118.164
1688815188.780,-75.684,-37.109,-38.574,-48.340,6.348
1688815188.784,-71.777,-35.156,-32.715,-36.621,16.113
1688815188.788,-94.727,-31.250,-31.738,-30.273,-83.008
1688815188.792,-121.582,-32.715,-34.668,-29.297,134.766
1688815188.795,-96.191,-34.668,-41.504,-53.711,245.117
1688815188.799,-59.570,-31.738,-43.457,-61.035,-52.734
1688815188.803,-51.270,-32.227,-44.922,-45.410,-225.098
1688815188.807,-59.570,-27.344,-45.898,-30.273,-137.207
1688815188.811,-64.941,-23.438,-44.922,-26.367,-90.820
1688815188.827,-52.734,-29.785,-44.434,-53.711,-180.664
1688815188.831,-25.391,-31.738,-44.922,-52.734,-162.598
1688815188.835,-22.461,-32.227,-43.945,-37.109,-87.891
1688815188.839,-52.246,-30.762,-40.039,-34.180,-112.305
1688815188.843,-85.938,-33.203,-46.387,-34.668,-63.477
1688815188.847,-76.660,-40.527,-50.781,-62.012,-122.559
1688815188.851,-39.551,-40.527,-49.316,-54.199,126.465
1688815188.854,-17.578,-37.598,-42.969,-32.715,259.766
1688815188.858,4.395,-37.598,-39.062,-37.109,-73.242
1688815188.862,8.789,-34.668,-38.574,-36.133,-110.840
1688815188.866,26.855,-32.715,-34.668,-50.293,46.387
1688815188.870,49.805,-34.180,-34.668,-55.664,28.809
1688815188.857,30.762,-37.109,-39.551,-48.828,-137.207
1688815188.861,10.254,-37.598,-42.480,-40.527,-49.316
1688815188.865,-9.766,-39.062,-40.039,-39.062,124.512
1688815188.869,-10.254,-39.551,-38.574,-69.336,-73.242
1688815188.873,20.020,-34.668,-44.434,-94.238,-245.605
1688815188.877,24.414,-29.297,-43.945,-82.520,-85.449
1688815188.881,0.488,-28.809,-45.898,-75.684,99.121
1688815188.884,-27.832,-28.809,-54.199,-69.336,29.785
1688815188.888,-42.969,-29.785,-51.758,-79.102,-90.332
1688815188.892,-17.090,-30.273,-43.945,-92.285,-91.797
1688815188.896,-4.883,-32.227,-43.945,-58.105,181.152
1688815188.900,-20.020,-30.273,-43.945,-39.551,125.977
1688815188.904,-40.039,-30.762,-46.875,-37.598,-83.496
1688815188.908,-43.945,-35.645,-47.363,-50.781,-56.152
1688815188.912,2.930,-35.645,-38.574,-72.754,-105.469
1688815188.916,24.902,-32.715,-36.133,-62.500,-191.406
1688815188.920,21.973,-31.738,-33.203,-49.316,-149.414
1688815188.924,11.719,-31.738,-33.203,-35.156,75.195
1688815188.928,10.254,-25.391,-38.086,-40.039,55.176
1688815188.931,55.176,-25.391,-38.086,-60.547,-159.180
1688815188.935,83.008,-31.738,-38.574,-45.898,-148.438
1688815188.939,75.195,-28.320,-41.504,-38.086,202.148
1688815188.943,41.504,-32.227,-44.434,-43.457,238.770
1688815188.947,19.531,-32.715,-43.457,-53.711,-82.520
1688815188.962,62.500,-25.879,-43.945,-83.008,-163.574
1688815188.966,92.773,-30.273,-51.270,-83.984,-115.723
1688815188.970,86.914,-31.738,-48.828,-63.965,-97.656
1688815188.974,68.359,-28.320,-41.504,-64.941,-100.586
1688815188.978,41.992,-26.367,-41.992,-78.125,-40.527
1688815188.982,74.707,-26.367,-43.457,-84.961,159.180
1688815188.986,120.605,-30.273,-43.457,-79.102,128.418
1688815188.989,124.512,-30.762,-45.898,-69.824,-128.906
1688815188.993,108.398,-25.879,-45.898,-55.664,-59.570
1688815188.997,80.078,-25.391,-40.039,-40.527,108.887
1688815189.001,63.965,-29.297,-44.434,-67.383,-69.336
1688815189.005,66.406,-33.203,-44.922,-58.594,-193.359
1688815189.010,55.176,-31.738,-40.039,-24.902,-48.340
1688815189.014,17.090,-24.902,-40.039,-25.391,-4.395
1688815189.018,-32.715,-24.902,-37.109,-21.484,-117.188
1688815189.022,-32.715,-28.320,-39.551,-40.039,-169.922
1688815189.026,10.254,-33.203,-40.527,-59.570,-153.320
1688815189.030,10.742,-39.062,-39.062,-39.551,-89.355
1688815189.034,-23.926,-39.551,-37.598,-29.297,-66.406
1688815189.037,-56.641,-39.062,-36.621,-32.715,-91.309
1688815189.041,-42.969,-36.621,-36.621,-45.898,71.289
1688815189.045,2.930,-33.203,-35.645,-58.594,183.105
1688815189.049,6.348,-32.227,-36.133,-62.012,-46.387
1688815189.053,-12.207,-30.273,-36.621,-59.082,-76.172
1688815189.053,-42.969,-32.227,-35.645,-52.734,-2.441
1688815189.057,-58.594,-32.715,-35.645,-75.195,-50.781
1688815189.061,-15.137,-24.414,-36.621,-86.914,-80.078
1688815189.065,28.320,-22.461,-34.180,-69.336,11.719
1688815189.069,24.902,-30.273,-31.738,-55.664,62.012
1688815189.073,3.418,-28.809,-32.227,-43.457,41.992
1688815189.077,10.254,-29.297,-38.086,-62.500,-33.203
1688815189.080,45.898,-31.250,-40.527,-71.289,-93.750
1688815189.084,50.781,-31.738,-40.039,-36.133,196.289
1688815189.088,37.598,-31.738,-42.480,-30.273,237.793
1688815189.092,27.832,-29.785,-44.434,-31.250,-41.992
1688815189.096,28.809,-25.391,-44.434,-28.320,-35.645
1688815189.099,69.336,-24.902,-44.434,-53.223,-127.441
1688815189.103,92.773,-31.738,-44.434,-51.270,-234.375
1688815189.107,79.102,-34.668,-42.480,-35.645,-158.203
1688815189.111,50.293,-38.574,-43.945,-23.438,-33.203
1688815189.115,33.203,-40.527,-43.945,-31.250,27.344
1688815189.119,61.035,-38.086,-40.527,-54.688,-55.664
1688815189.123,69.336,-42.969,-38.574,-41.504,-84.473
1688815189.126,58.105,-41.992,-38.574,-20.508,70.312
1688815189.130,38.086,-34.668,-39.551,-7.812,164.551
1688815189.134,20.020,-36.133,-40.527,-17.578,-67.383
1688815189.138,53.223,-38.086,-42.480,-46.387,-215.332
1688815189.142,91.309,-35.156,-41.504,-40.039,-192.871
1688815189.142,95.703,-34.180,-40.039,-26.367,-163.574
1688815189.146,69.336,-36.621,-41.992,-30.762,-85.449
1688815189.150,37.598,-37.109,-47.852,-44.922,36.133
1688815189.154,53.223,-32.715,-45.898,-62.988,-5.859
1688815189.158,84.961,-32.715,-43.457,-61.523,-174.316
1688815189.162,79.102,-35.156,-45.410,-49.805,-148.438
1688815189.166,45.898,-33.691,-47.363,-34.180,36.133
1688815189.169,15.625,-31.738,-45.898,-14.160,398.438
1688815189.173,24.414,-31.250,-44.922,-34.668,301.758
1688815189.177,59.082,-30.273,-46.387,-55.176,-170.410
1688815189.181,65.918,-28.320,-46.387,-46.875,-123.535
1688815189.185,57.129,-29.785,-44.922,-29.297,-96.680
1688815189.186,35.645,-31.738,-42.480,-17.578,-175.781
1688815189.190,43.457,-36.133,-42.480,-51.758,-160.645
1688815189.194,69.336,-33.691,-41.992,-60.547,-148.926
1688815189.198,61.523,-30.762,-41.992,-37.598,-169.434
1688815189.202,38.574,-31.250,-41.992,-37.109,-142.578
1688815189.206,3.906,-33.203,-41.992,-31.738,-14.648
1688815189.210,4.395,-38.086,-47.852,-47.852,114.258
1688815189.213,37.598,-37.109,-49.805,-68.359,-0.977
1688815189.217,49.805,-34.180,-42.480,-46.875,-166.016
1688815189.221,32.227,-33.691,-42.480,-46.387,-199.707
1688815189.225,-2.441,-30.273,-42.480,-39.551,100.098
1688815189.229,-3.906,-28.809,-40.039,-48.828,174.316
1688815189.231,34.180,-31.738,-41.504,-81.543,-197.754
1688815189.235,52.246,-29.297,-48.340,-65.918,-141.602
1688815189.239,39.551,-28.320,-53.223,-51.758,9.766
1688815189.243,2.930,-31.738,-48.828,-54.199,-53.711
1688815189.247,-8.789,-29.297,-47.363,-72.754,-153.809
1688815189.251,25.391,-32.227,-48.828,-80.566,-69.336
1688815189.255,38.086,-34.668,-48.340,-59.570,125.977
1688815189.258,25.879,-34.668,-51.270,-59.082,52.734
1688815189.262,-0.488,-32.227,-46.387,-45.898,-92.285
1688815189.266,-15.137,-30.762,-43.945,-46.387,72.754
1688815189.270,14.648,-34.180,-42.969,-64.941,142.090
1688815189.274,35.645,-36.133,-42.480,-53.711,-34.668
1688815189.279,23.438,-37.109,-45.898,-52.246,-115.723
1688815189.283,1.465,-36.621,-39.551,-30.273,-11.719
1688815189.287,-12.207,-37.109,-36.621,-20.508,44.922
1688815189.291,11.230,-37.598,-43.945,-54.199,-140.137
1688815189.295,31.738,-37.109,-47.363,-46.387,-146.484
1688815189.299,22.949,-36.621,-47.852,-39.551,29.785
1688815189.303,7.812,-35.645,-44.922,-35.645,104.492
1688815189.306,-11.230,-35.156,-45.898,-32.227,-16.602
1688815189.310,5.371,-33.691,-46.875,-63.965,-156.738
1688815189.314,37.598,-27.344,-42.480,-46.875,52.246
1688815189.318,38.574,-22.949,-39.551,-28.809,75.195
1688815189.322,13.184,-30.273,-42.480,-36.621,-165.039
1688815189.337,-8.789,-33.203,-47.363,-23.438,-97.168
1688815189.341,16.113,-30.273,-44.922,-47.363,43.457
1688815189.345,43.945,-32.715,-43.945,-57.617,13.184
1688815189.349,41.016,-35.156,-47.363,-49.316,-167.969
1688815189.353,20.508,-33.203,-51.758,-46.387,-60.547
1688815189.357,-15.137,-35.156,-49.805,-32.227,426.270
1688815189.361,-2.930,-37.109,-50.781,-54.199,287.598
1688815189.364,37.109,-33.203,-48.340,-59.570,-125.488
1688815189.368,46.875,-32.227,-42.480,-36.133,-49.805
1688815189.372,35.156,-29.297,-44.922,-23.926,-34.180
1688815189.376,4.883,-28.809,-45.898,-17.578,-81.055
1688815189.380,12.207,-32.227,-44.922,-38.086,-105.469
1688815189.382,57.129,-33.203,-40.039,-29.785,-58.594
1688815189.386,55.664,-34.668,-41.992,-18.555,-10.254
1688815189.390,27.344,-36.621,-48.340,-31.738,-136.230
1688815189.394,-2.930,-41.504,-45.898,-17.090,-86.914
1688815189.398,-4.395,-39.551,-44.922,-29.297,-28.809
1688815189.402,26.855,-40.039,-47.852,-46.387,-63.965
1688815189.406,32.227,-39.551,-48.828,-30.273,-94.238
1688815189.409,19.531,-38.574,-49.316,-20.020,-118.164
1688815189.413,-10.742,-37.598,-47.852,-9.277,47.363
1688815189.417,-15.137,-38.086,-51.270,-24.414,85.449
1688815189.421,19.531,-37.109,-50.781,-41.504,-145.020
1688815189.425,38.574,-35.156,-48.828,-27.832,-150.391
1688815189.427,33.203,-34.180,-49.316,-31.738,-150.879
1688815189.431,-7.324,-40.527,-46.875,-28.809,-21.484
1688815189.435,-20.020,-43.945,-47.363,-36.621,-22.949
1688815189.439,30.273,-36.133,-45.898,-54.688,-155.762
1688815189.443,56.152,-34.180,-46.875,-37.109,-7.324
1688815189.447,41.992,-39.551,-49.805,-29.297,-6.836
1688815189.451,23.438,-41.016,-49.805,-19.531,-58.594
1688815189.454,20.508,-33.203,-46.875,-24.414,33.691
1688815189.458,44.434,-33.691,-44.434,-36.621,235.352
1688815189.462,64.453,-38.574,-41.504,-21.484,155.273
1688815189.466,65.430,-36.621,-37.109,-13.184,-182.129
1688815189.470,30.762,-35.645,-36.621,1.953,-122.559
1688815189.472,0.488,-38.086,-38.574,-6.348,-20.508
1688815189.476,25.391,-36.621,-37.109,-33.691,-153.320
1688815189.480,46.387,-35.645,-40.039,-25.391,-201.172
1688815189.484,37.598,-36.621,-46.387,-15.625,-75.195
1688815189.488,8.301,-37.598,-45.898,-21.973,-6.836
1688815189.492,-19.531,-38.086,-43.457,-27.344,48.340
1688815189.496,13.184,-36.621,-42.480,-44.434,-1.465
1688815189.499,42.969,-30.273,-45.410,-36.133,116.699
1688815189.503,44.434,-35.156,-43.457,-16.113,312.012
1688815189.507,30.762,-38.574,-45.898,-19.531,-37.109
1688815189.511,3.418,-29.785,-51.758,-15.625,-153.809
1688815189.515,25.879,-23.926,-41.504,-33.691,-135.254
1688815189.517,59.082,-25.879,-31.250,-34.668,-203.613
1688815189.521,62.012,-29.785,-28.809,-16.602,-104.004
1688815189.525,38.574,-34.180,-32.715,-14.648,-43.457
1688815189.529,0.977,-34.668,-31.738,-2.930,58.105
1688815189.533,15.625,-32.715,-33.203,-28.320,25.391
1688815189.537,47.363,-32.715,-33.203,-42.969,-110.352
1688815189.541,33.203,-35.156,-34.180,-30.762,19.043
1688815189.544,11.719,-37.109,-43.945,-20.996,230.469
1688815189.548,-15.625,-34.180,-43.945,-20.020,54.199
1688815189.552,-14.648,-32.715,-41.504,-56.152,-153.809
1688815189.556,13.672,-35.645,-42.969,-65.918,-29.785
1688815189.560,7.324,-39.062,-45.410,-51.270,-1.953
1688815189.565,-4.883,-36.133,-44.434,-48.828,-187.012
1688815189.569,-23.438,-33.203,-41.992,-32.227,-162.598
1688815189.573,-23.926,-32.715,-40.527,-43.945,-88.867
1688815189.577,12.695,-32.715,-38.574,-55.176,-86.914
1688815189.581,29.297,-36.133,-42.969,-45.898,-129.395
1688815189.585,12.695,-30.762,-48.340,-42.480,-20.996
1688815189.589,-14.648,-31.250,-49.316,-18.066,258.789
1688815189.592,-11.230,-31.250,-49.805,-20.508,223.145
1688815189.596,24.902,-27.832,-50.781,-47.852,-130.371
1688815189.600,43.945,-30.762,-52.734,-39.551,-238.770
1688815189.604,38.086,-30.273,-50.781,-35.156,-184.082
1688815189.608,9.277,-29.785,-49.316,-27.344,-140.625
1688815189.608,-9.277,-35.645,-53.223,-44.434,-48.340
1688815189.612,19.043,-39.551,-51.758,-71.289,-29.785
1688815189.616,37.598,-38.086,-50.293,-55.664,-57.617
1688815189.620,23.438,-39.551,-53.223,-50.293,-141.602
1688815189.624,-3.418,-37.109,-52.246,-39.551,-192.383
1688815189.628,-9.277,-34.668,-50.293,-36.133,-41.504
1688815189.632,29.297,-34.180,-48.828,-45.410,261.230
1688815189.635,48.828,-33.691,-50.781,-29.785,260.254
1688815189.639,34.668,-35.156,-53.711,-27.344,-76.660
1688815189.643,9.766,-34.180,-53.223,-20.996,-151.367
1688815189.647,-17.578,-36.133,-54.199,-26.367,-104.492
1688815189.651,0.000,-41.504,-52.734,-62.012,-170.898
1688815189.667,27.344,-36.133,-53.711,-51.758,-161.621
1688815189.671,29.785,-29.785,-55.176,-41.992,-114.258
1688815189.675,6.348,-27.832,-52.246,-41.992,-37.109
1688815189.679,-25.879,-31.250,-59.570,-40.039,-48.828
1688815189.683,-5.371,-34.180,-66.895,-67.871,-241.699
1688815189.687,26.367,-31.738,-64.941,-53.711,3.906
1688815189.691,20.996,-31.738,-66.895,-37.598,170.898
1688815189.694,3.418,-28.809,-66.406,-39.551,-86.426
1688815189.698,-18.555,-28.320,-61.523,-27.832,-110.840
1688815189.702,-13.184,-30.273,-59.082,-30.762,2.930
1688815189.706,14.160,-33.203,-59.570,-36.133,-31.250
1688815189.710,13.184,-36.621,-59.082,-35.156,-164.062
1688815189.712,-8.301,-38.086,-57.617,-21.484,-109.863
1688815189.716,-31.738,-34.180,-55.664,-20.508,39.062
1688815189.720,-19.043,-32.715,-54.199,-41.016,-63.477
1688815189.724,36.133,-36.133,-49.316,-20.996,-177.246
1688815189.728,48.828,-25.391,-49.316,-1.953,-103.027
1688815189.732,18.066,-15.625,-55.664,-20.508,149.414
1688815189.736,-18.066,-19.043,-64.453,-14.160,236.816
1688815189.739,-14.648,-12.695,-66.406,-29.297,-5.859
1688815189.743,32.715,-4.883,-69.336,-45.410,-69.824
1688815189.747,49.805,-1.465,-76.172,-23.926,100.098
1688815189.751,28.320,1.465,-84.961,-24.414,-18.555
1688815189.755,-21.484,1.465,-95.703,-31.250,-111.328
1688815189.758,-17.090,6.348,-93.750,-40.039,-39.062
1688815189.762,33.691,15.625,-89.844,-45.410,-48.340
1688815189.766,47.852,15.625,-93.262,-33.691,-108.398
1688815189.770,42.969,12.207,-98.145,-29.297,-116.699
1688815189.774,21.973,15.137,-101.074,-18.066,-49.316
1688815189.778,11.719,22.949,-103.027,-28.320,-68.359
1688815189.782,50.781,26.367,-104.492,-42.969,-75.684
1688815189.785,64.941,24.414,-106.445,-32.227,-0.977
1688815189.789,41.016,22.461,-102.539,-24.414,170.410
1688815189.793,16.113,26.855,-104.492,-9.766,357.910
1688815189.797,12.695,30.273,-110.840,-32.227,37.598
1688815189.801,53.223,28.809,-108.887,-61.523,-198.242
1688815189.802,71.289,26.367,-110.840,-47.363,-141.113
1688815189.806,62.500,25.391,-111.816,-34.180,-69.336
1688815189.810,39.551,28.320,-110.352,-26.367,-90.332
1688815189.814,21.973,32.227,-109.863,-29.785,-129.883
1688815189.818,53.711,30.273,-102.051,-54.199,-56.152
1688815189.822,83.008,24.902,-100.098,-42.480,-57.129
1688815189.826,74.707,19.531,-101.074,-41.992,-87.891
1688815189.829,48.340,15.625,-100.586,-47.363,2.930
1688815189.833,23.438,12.207,-97.656,-56.641,176.758
1688815189.837,46.875,11.719,-90.332,-87.402,37.109
1688815189.841,74.707,6.348,-84.473,-78.125,-125.977
1688815189.845,71.289,-2.441,-84.473,-67.383,-23.438
1688815189.847,53.223,-1.953,-82.520,-53.223,225.098
1688815189.851,23.438,-5.371,-75.684,-41.504,29.785
1688815189.855,31.738,-8.789,-76.172,-64.941,-185.059
1688815189.859,58.105,-4.395,-75.684,-55.176,-80.078
1688815189.863,54.199,-5.371,-76.660,-36.133,-93.750
1688815189.867,29.785,-5.859,-77.637,-33.691,-125.488
1688815189.871,-5.371,-4.883,-77.148,-23.438,-34.668
1688815189.874,6.348,-4.395,-74.707,-51.270,58.105
1688815189.878,35.645,-8.789,-76.172,-60.059,37.109
1688815189.882,33.691,-14.648,-79.590,-44.434,-177.246
1688815189.886,19.531,-15.137,-80.566,-39.062,-189.453
1688815189.890,-5.371,-13.184,-76.172,-29.297,-98.145
1688815189.892,6.836,-11.719,-72.266,-42.969,-143.555
1688815189.896,37.109,-15.625,-73.242,-42.480,-178.711
1688815189.900,39.551,-16.602,-74.219,-31.738,-97.168
1688815189.904,20.020,-17.578,-75.195,-37.598,104.980
1688815189.908,-5.371,-22.949,-69.824,-26.855,92.285
1688815189.912,-2.441,-19.531,-62.500,-43.945,-125.000
1688815189.916,22.949,-15.625,-61.523,-48.828,-17.578
1688815189.919,25.879,-18.066,-61.035,-25.391,121.094
1688815189.923,8.789,-16.113,-62.012,-22.461,-90.332
1688815189.927,-29.297,-16.113,-59.570,-21.484,-156.250
1688815189.931,-32.227,-19.531,-61.035,-33.691,-52.734
1688815189.935,14.648,-18.555,-59.570,-44.922,-88.867
1688815189.952,20.508,-18.555,-53.223,-29.297,-181.152
1688815189.956,7.812,-16.113,-54.199,-22.461,-198.242
1688815189.960,-16.602,-14.648,-54.688,-10.742,7.324
1688815189.964,-24.414,-22.461,-51.270,-17.578,-19.531
1688815189.968,20.996,-25.879,-52.734,-32.715,-155.273
1688815189.972,49.316,-14.160,-55.176,-11.719,-122.070
1688815189.976,41.016,-3.418,-56.152,-5.371,112.793
1688815189.979,4.395,-4.883,-58.594,-2.441,287.109
1688815189.983,-8.789,-7.324,-64.941,-10.742,-44.922
1688815189.987,43.457,0.000,-69.336,-29.785,-204.102
1688815189.991,69.824,-1.465,-70.801,-22.461,-129.883
1688815189.995,43.457,-0.977,-74.219,-19.043,-117.188
1688815189.982,14.160,7.812,-74.219,-10.254,-116.211
1688815189.986,-12.207,5.371,-78.125,-29.297,42.969
1688815189.990,9.277,4.883,-80.566,-67.383,141.113
1688815189.994,37.109,7.812,-83.008,-59.570,-6.836
1688815189.998,32.715,7.324,-86.914,-50.293,-33.203
1688815190.002,-0.488,3.906,-87.402,-41.992,82.520
1688815190.006,-36.133,-3.906,-86.914,-53.711,313.477
1688815190.009,-12.207,-6.836,-85.938,-81.055,135.254
1688815190.013,19.531,-6.836,-78.613,-72.754,-178.711
1688815190.017,18.066,-6.836,-73.242,-51.758,-26.367
1688815190.021,-6.348,-7.324,-74.219,-35.645,213.867
1688815190.025,-41.992,-12.695,-75.684,-41.504,37.109
1688815190.028,-25.879,-13.672,-75.684,-76.172,-210.449
1688815190.032,12.695,-8.789,-71.777,-66.406,-153.320
1688815190.036,13.184,-9.766,-72.754,-53.223,-146.484
1688815190.040,-13.672,-18.066,-77.148,-60.547,-222.168
1688815190.044,-42.480,-20.996,-78.613,-45.898,-166.504
1688815190.048,-22.949,-18.555,-74.219,-52.734,-47.363
1688815190.052,11.230,-19.043,-68.848,-50.293,-93.262
1688815190.055,12.695,-18.555,-64.453,-39.551,-130.859
1688815190.059,-7.324,-20.020,-65.918,-43.945,-110.352
1688815190.063,-34.668,-22.949,-66.406,-31.250,120.117
1688815190.067,-29.785,-24.902,-67.871,-40.039,231.445
1688815190.071,-9.277,-26.855,-69.824,-54.688,-90.820
1688815190.087,-10.254,-26.855,-65.430,-37.598,-170.410
1688815190.091,-27.344,-24.902,-59.570,-33.691,-59.570
1688815190.095,-52.246,-19.043,-56.152,-28.809,-22.461
1688815190.099,-39.551,-15.137,-50.293,-44.434,-131.836
1688815190.103,-4.395,-21.484,-49.316,-57.129,-110.840
1688815190.107,-5.371,-28.809,-56.152,-35.645,240.234
1688815190.111,-29.785,-31.250,-57.129,-27.344,234.863
1688815190.114,-73.242,-30.273,-54.199,-25.391,-71.289
1688815190.118,-72.266,-27.832,-51.758,-38.574,-6.836
1688815190.122,-25.391,-26.367,-48.340,-44.434,-49.316
1688815190.126,-18.066,-28.809,-45.898,-20.996,-196.289
1688815190.130,-24.414,-25.879,-41.504,-18.066,-219.727
1688815190.132,-43.457,-25.391,-43.457,-20.020,7.812
1688815190.136,-54.199,-27.344,-44.922,-22.461,236.328
1688815190.140,-16.602,-21.484,-41.016,-35.156,-35.156
1688815190.144,5.371,-23.438,-43.457,-27.832,-180.664
1688815190.148,-9.277,-31.250,-48.340,-22.461,-77.148
1688815190.152,-32.227,-33.691,-46.875,-23.438,85.449
1688815190.156,-40.527,-29.297,-48.828,-35.156,62.500
1688815190.159,-15.625,-32.227,-49.805,-54.199,-137.207
1688815190.163,5.371,-34.668,-46.875,-44.922,63.477
1688815190.167,3.906,-31.738,-43.457,-31.250,180.664
1688815190.171,-22.461,-35.645,-39.551,-25.391,-72.266
1688815190.175,-46.875,-37.598,-41.992,-29.297,-27.344
1688815190.178,-24.902,-38.086,-44.434,-53.711,-8.301
1688815190.182,0.977,-37.598,-42.969,-46.875,-110.840
1688815190.186,5.859,-34.668,-41.992,-30.273,-120.605
1688815190.190,-12.695,-30.762,-36.621,-13.672,-106.934
1688815190.194,-32.715,-26.855,-36.133,-7.812,15.625
1688815190.198,-10.254,-31.250,-40.527,-37.109,-81.543
1688815190.202,11.230,-34.180,-42.480,-43.457,-123.535
1688815190.205,9.277,-30.762,-43.945,-40.527,7.812
1688815190.209,-13.184,-29.297,-41.504,-27.832,152.344
1688815190.213,-40.527,-30.762,-40.039,-22.949,137.695
1688815190.217,-20.996,-31.250,-38.086,-50.293,-126.465
1688815190.221,8.301,-31.250,-41.504,-47.363,-122.070
1688815190.223,0.488,-33.203,-45.410,-25.879,-104.980
1688815190.227,-17.090,-33.203,-42.969,-20.508,-131.836
1688815190.231,-42.480,-34.668,-43.945,-22.461,1.953
1688815190.235,-39.551,-35.645,-41.992,-50.781,-11.719
1688815190.239,-10.742,-33.691,-41.016,-55.176,-54.688
1688815190.243,-1.953,-29.785,-42.480,-31.738,-13.184
1688815190.247,-20.020,-28.320,-42.969,-32.227,-15.137
1688815190.250,-62.500,-32.715,-49.316,-26.367,98.145
1688815190.254,-58.105,-29.785,-48.340,-32.227,168.457
1688815190.258,-18.066,-24.414,-39.062,-45.898,-135.254
1688815190.262,-9.766,-26.367,-37.109,-40.039,-134.277
1688815190.266,-27.832,-26.367,-34.668,-33.203,-45.410
1688815190.281,-58.594,-29.785,-32.715,-20.996,-61.035
1688815190.285,-65.918,-29.785,-38.086,-40.039,33.203
1688815190.289,-32.227,-26.367,-41.016,-55.664,16.113
1688815190.293,-26.367,-24.902,-38.574,-37.109,15.625
1688815190.297,-45.898,-25.879,-37.109,-34.668,45.410
1688815190.301,-80.078,-28.809,-38.574,-31.738,22.949
1688815190.305,-79.590,-33.691,-41.504,-52.246,79.102
1688815190.308,-41.016,-33.691,-40.527,-65.918,184.082
1688815190.312,-19.531,-31.738,-39.062,-48.828,43.457
1688815190.316,-16.602,-31.250,-37.598,-54.688,-178.711
1688815190.320,-47.363,-29.785,-34.180,-45.898,-31.738
1688815190.324,-70.801,-33.203,-36.133,-53.223,-26.367
1688815190.312,-36.621,-35.645,-36.133,-76.660,-204.590
1688815190.316,-15.625,-32.227,-36.133,-56.641,-189.453
1688815190.320,-26.855,-29.297,-38.086,-42.969,-152.344
1688815190.324,-56.641,-31.250,-37.109,-42.480,-124.512
1688815190.328,-71.289,-29.297,-31.250,-45.410,-105.469
1688815190.332,-33.203,-28.320,-28.809,-58.594,-66.895
1688815190.336,-17.578,-30.762,-34.180,-54.199,0.977
1688815190.339,-39.551,-32.227,-36.133,-52.734,40.527
1688815190.343,-63.477,-33.691,-33.203,-42.969,-36.133
1688815190.347,-73.242,-33.203,-35.645,-53.711,-165.039
1688815190.351,-44.922,-33.203,-37.598,-73.242,18.066
1688815190.355,-27.344,-30.762,-38.086,-52.734,147.461
1688815190.387,-20.996,-25.879,-43.945,-39.062,-140.137
1688815190.391,-26.367,-28.320,-40.527,-16.602,-151.367
1688815190.395,-66.406,-42.969,-27.344,-10.254,71.777
1688815190.399,-56.641,-50.781,-17.090,-63.965,-29.297
1688815190.403,-24.414,-53.223,-17.578,-78.125,-198.730
1688815190.407,-42.969,-62.012,-20.020,-60.059,-63.477
1688815190.411,-92.773,-69.336,-11.230,-65.918,188.477
1688815190.414,-131.836,-73.730,-3.418,-76.660,87.891
1688815190.418,-119.629,-82.031,2.441,-107.422,-192.871
1688815190.422,-92.773,-92.285,7.324,-108.887,-86.914
1688815190.426,-97.656,-100.586,11.230,-95.703,83.496
1688815190.430,-125.000,-104.980,18.066,-103.516,-71.777
1688815190.417,-166.016,-109.863,24.414,-104.492,-127.441
1688815190.421,-161.133,-118.164,32.227,-129.395,-158.203
1688815190.425,-140.625,-128.906,34.668,-142.090,-182.129
1688815190.429,-153.320,-133.789,38.574,-128.906,-160.645
1688815190.433,-186.523,-135.254,46.387,-118.164,-164.062
1688815190.437,-230.469,-140.625,53.223,-110.840,-53.711
1688815190.441,-234.375,-140.625,56.641,-137.207,16.113
1688815190.444,-198.730,-142.090,56.641,-144.043,-127.441
1688815190.448,-179.688,-144.531,55.176,-112.305,-171.387
1688815190.452,-184.082,-147.461,52.246,-95.215,-55.664
1688815190.456,-190.918,-140.137,49.805,-84.473,8.789
1688815190.460,-165.527,-127.930,47.852,-89.355,-15.625
1688815190.462,-112.305,-125.000,42.480,-95.215,-140.625
1688815190.466,-89.355,-119.141,33.691,-73.242,140.137
1688815190.470,-94.238,-116.699,27.344,-57.129,404.785
1688815190.474,-122.070,-118.652,23.926,-57.129,28.809
1688815190.478,-121.094,-111.816,17.578,-85.938,-145.996
1688815190.482,-71.777,-103.516,17.578,-100.586,-32.227
1688815190.486,-42.480,-99.121,18.555,-70.312,-47.852
1688815190.489,-51.270,-90.820,12.695,-59.570,-145.996
1688815190.493,-75.684,-86.426,10.742,-48.340,-62.012
1688815190.497,-81.543,-86.914,10.254,-47.363,146.973
1688815190.501,-50.293,-79.590,8.789,-67.383,-23.438
1688815190.505,-36.133,-75.195,9.277,-55.664,-215.332
1688815190.507,-43.457,-77.148,4.883,-36.133,-44.922
1688815190.511,-66.406,-77.637,-1.465,-28.809,153.809
1688815190.515,-89.844,-76.660,-5.859,-41.992,-28.809
1688815190.519,-74.219,-77.148,-6.348,-61.035,-205.078
1688815190.523,-55.176,-73.730,-2.441,-41.992,-102.539
1688815190.527,-57.129,-66.406,-3.906,-34.668,-21.973
1688815190.531,-74.707,-60.547,-8.789,-29.785,-8.789
1688815190.534,-91.309,-61.035,-6.836,-38.574,-33.691
1688815190.538,-77.637,-67.871,-6.836,-80.566,0.488
1688815190.542,-46.387,-63.477,-8.789,-64.941,106.934
1688815190.546,-65.430,-56.152,-11.230,-52.246,-158.691
1688815190.550,-124.023,-59.570,-17.578,-49.805,-133.301
1688815190.552,-155.762,-62.012,-18.555,-42.969,-26.367
1688815190.556,-130.371,-57.129,-15.137,-69.336,-74.219
1688815190.560,-97.168,-56.152,-20.020,-64.941,-85.938
1688815190.564,-95.703,-55.664,-24.902,-54.688,-100.586
1688815190.568,-111.816,-52.246,-20.508,-41.016,95.215
1688815190.572,-129.395,-44.434,-16.113,-29.297,57.129
1688815190.576,-107.910,-46.387,-18.555,-60.059,-118.164
1688815190.579,-74.707,-47.363,-21.484,-61.035,-95.215
1688815190.583,-69.824,-41.992,-25.391,-46.875,15.625
1688815190.587,-76.172,-42.480,-26.367,-45.898,-37.598
1688815190.591,-105.469,-39.062,-23.926,-28.809,-98.145
1688815190.595,-107.910,-38.574,-25.391,-44.434,-95.215
1688815190.597,-72.266,-36.621,-21.484,-54.199,-168.945
1688815190.601,-59.082,-33.691,-20.020,-39.062,-186.523
1688815190.605,-61.523,-34.668,-22.461,-30.762,-173.340
1688815190.609,-75.195,-32.715,-20.020,-25.391,-18.555
1688815190.613,-74.219,-34.180,-24.414,-54.688,-13.184
1688815190.617,-50.293,-38.086,-31.738,-70.801,-82.520
1688815190.621,-33.203,-38.086,-29.785,-58.105,-12.695
1688815190.624,-49.316,-36.133,-26.855,-47.363,220.215
1688815190.628,-86.914,-36.133,-33.691,-27.832,277.344
1688815190.632,-94.238,-42.969,-32.715,-44.434,-52.246
1688815190.636,-78.613,-47.363,-29.297,-76.172,-150.391
1688815190.640,-59.570,-42.969,-31.250,-59.570,-83.984
1688815190.657,-66.406,-44.434,-35.645,-51.270,-108.398
1688815190.661,-119.629,-44.922,-34.180,-54.688,-35.645
1688815190.665,-138.672,-46.387,-27.832,-64.453,-33.691
1688815190.669,-108.887,-52.734,-29.785,-75.684,-73.242
1688815190.673,-104.004,-51.758,-30.762,-56.641,-70.312
1688815190.677,-131.348,-51.758,-32.227,-51.758,-152.832
1688815190.681,-161.621,-52.734,-35.156,-31.250,-65.918
1688815190.684,-156.250,-50.293,-35.156,-28.320,165.527
1688815190.688,-96.191,-47.363,-34.668,-52.246,82.520
1688815190.692,-50.293,-48.828,-36.621,-42.480,-109.375
1688815190.696,-41.504,-46.875,-35.156,-31.250,-40.039
1688815190.700,-55.176,-38.574,-37.109,-18.555,24.414
1688815190.690,-80.078,-38.574,-41.016,-22.949,-29.297
1688815190.694,-68.359,-38.086,-41.016,-47.852,-109.863
1688815190.698,-47.852,-38.086,-43.945,-33.203,-134.766
1688815190.702,-50.781,-40.527,-45.410,-18.555,-83.008
1688815190.706,-64.453,-41.016,-46.387,-10.254,-94.238
1688815190.710,-68.848,-42.480,-46.387,-13.672,-20.020
1688815190.714,-28.320,-39.551,-46.875,-41.992,25.879
1688815190.717,6.836,-36.133,-45.410,-35.156,-74.219
1688815190.721,11.230,-36.133,-40.039,-15.625,-148.438
1688815190.725,-12.695,-38.574,-39.062,-12.695,-162.109
1688815190.729,-48.340,-41.504,-40.039,-6.836,138.672
1688815190.733,-27.832,-39.062,-39.551,-20.020,272.949
1688815190.732,15.137,-36.133,-41.016,-18.066,-72.266
1688815190.736,18.066,-36.133,-42.480,-8.789,-142.578
1688815190.740,-4.883,-39.551,-44.434,-13.672,47.852
1688815190.744,-39.062,-42.969,-44.922,-2.930,-28.809
1688815190.748,-29.297,-39.551,-42.480,-10.254,-205.078
1688815190.752,-12.207,-39.062,-44.434,-19.043,-52.734
1688815190.756,-20.996,-38.086,-39.551,3.906,256.348
1688815190.759,-41.992,-36.621,-36.621,16.602,277.344
1688815190.763,-105.469,-41.992,-40.039,5.371,20.020
1688815190.767,-113.281,-44.922,-38.574,-20.508,-119.629
1688815190.771,-66.406,-41.992,-35.156,-21.973,-207.520
1688815190.775,-54.199,-35.156,-38.086,-2.441,-180.176
1688815190.795,-46.875,-28.809,-36.621,-0.488,-110.840
1688815190.799,-53.711,-27.832,-36.133,5.859,80.078
1688815190.803,-34.180,-31.738,-41.992,-3.906,44.434
1688815190.807,14.160,-34.668,-44.434,-15.137,-227.051
1688815190.811,29.297,-32.227,-46.875,-9.766,-148.438
1688815190.815,26.855,-32.715,-50.293,-2.930,-11.230
1688815190.819,2.441,-33.203,-50.781,5.859,58.105
1688815190.822,0.977,-29.785,-52.246,-6.836,-12.695
1688815190.826,41.992,-28.320,-54.688,-22.949,-186.523
1688815190.830,62.500,-24.902,-54.199,-3.418,-18.066
1688815190.834,56.152,-24.902,-49.805,7.812,69.824
1688815190.838,29.785,-29.297,-47.852,10.254,-108.398
1688815190.837,17.578,-28.809,-45.410,-2.441,-131.836
1688815190.841,51.758,-27.344,-41.504,-11.719,-51.758
1688815190.845,70.801,-26.855,-38.086,10.254,-36.621
1688815190.849,63.477,-31.738,-43.457,14.160,-62.500
1688815190.853,42.480,-29.785,-48.828,22.949,70.801
1688815190.857,20.996,-26.367,-53.223,11.719,162.598
1688815190.861,53.223,-24.414,-51.758,-11.719,1.953
1688815190.864,77.637,-27.344,-45.410,-2.930,-132.324
1688815190.868,54.199,-37.109,-49.805,-6.348,-89.844
1688815190.872,23.438,-34.668,-47.363,13.184,208.496
1688815190.876,1.465,-32.227,-41.992,15.625,210.938
1688815190.880,20.508,-38.086,-45.898,-28.320,-132.812
1688815190.898,42.969,-38.086,-51.758,-20.508,-131.348
1688815190.902,37.598,-33.691,-50.293,-3.418,-114.746
1688815190.906,7.812,-35.645,-48.340,0.488,-192.383
1688815190.910,-16.602,-37.598,-49.316,4.883,-180.664
1688815190.914,4.883,-41.016,-47.363,-16.113,-134.766
1688815190.918,34.180,-40.527,-48.828,-20.508,-72.266
1688815190.922,40.039,-33.691,-48.340,-0.488,-131.836
1688815190.925,6.836,-37.109,-47.363,1.953,-132.324
1688815190.929,-28.320,-37.598,-45.410,-3.418,171.875
1688815190.933,-5.371,-34.668,-41.504,-16.602,151.367
1688815190.937,24.414,-36.621,-44.434,-22.949,-190.430
1688815190.941,26.855,-37.598,-44.434,-19.043,-193.848
1688815190.927,13.184,-36.133,-42.969,-10.742,33.691
1688815190.931,-21.484,-30.273,-44.434,-4.883,160.156
1688815190.935,-7.324,-30.273,-45.898,-27.344,-11.230
1688815190.939,34.668,-30.762,-49.316,-26.367,-104.492
1688815190.943,38.574,-28.320,-49.805,-13.184,-28.320
1688815190.947,18.066,-25.391,-54.199,-13.672,-33.691
1688815190.951,-12.695,-24.414,-54.688,-15.625,59.082
1688815190.954,7.812,-22.949,-46.875,-33.203,29.297
1688815190.958,47.852,-23.438,-44.922,-30.273,52.246
1688815190.962,42.480,-27.832,-45.410,-7.812,-25.879
1688815190.966,16.113,-29.785,-43.457,-1.465,-235.352
1688815190.970,-17.090,-34.180,-43.457,9.766,-21.973
1688815190.973,-21.973,-36.133,-48.828,-8.301,248.047
1688815190.977,15.625,-35.645,-51.270,-35.156,-32.715
1688815190.981,26.367,-34.180,-56.152,-20.020,-249.023
1688815190.985,4.395,-33.203,-65.918,-11.230,42.969
1688815190.989,-25.879,-36.133,-65.918,-9.277,212.891
1688815190.993,-27.832,-34.180,-61.523,-33.691,-4.395
1688815190.997,4.395,-29.297,-62.012,-50.781,-119.141
1688815191.000,19.043,-28.320,-62.500,-25.879,66.406
1688815191.004,10.254,-30.762,-57.617,-18.066,115.723
1688815191.008,-23.438,-27.832,-54.688,-14.160,-160.645
1688815191.012,-43.457,-30.273,-56.641,-26.367,-122.070
1688815191.016,-6.836,-31.250,-54.199,-44.922,-25.879
1688815191.017,12.695,-31.250,-51.270,-28.809,-85.938
1688815191.021,-6.836,-38.086,-52.246,-23.926,-131.348
1688815191.025,-33.203,-40.527,-61.035,-18.555,-54.199
1688815191.029,-41.504,-39.551,-67.383,-15.137,103.516
1688815191.033,-6.836,-41.504,-64.453,-36.621,-38.086
1688815191.037,20.020,-43.945,-64.453,-33.691,-139.648
1688815191.041,11.719,-43.945,-63.965,-19.043,-14.160
1688815191.044,-14.160,-43.457,-61.523,-1.953,265.625
1688815191.048,-23.926,-44.434,-60.059,-4.395,203.125
1688815191.052,11.230,-42.480,-57.617,-34.668,-157.715
1688815191.056,36.621,-37.598,-54.199,-34.668,-130.371
1688815191.060,33.203,-34.668,-52.246,-24.414,-125.488
1688815191.063,7.324,-33.691,-49.316,-20.508,-74.707
1688815191.067,-17.578,-35.156,-47.363,-22.461,-16.602
1688815191.071,2.441,-36.621,-53.711,-49.316,-1.465
1688815191.075,29.785,-38.574,-58.105,-54.688,-8.301
1688815191.079,33.691,-35.645,-56.641,-40.527,-175.293
1688815191.083,18.555,-34.180,-53.711,-30.762,-196.777
1688815191.087,-8.301,-37.109,-54.199,-22.461,159.180
1688815191.090,17.578,-32.715,-55.664,-42.480,170.410
1688815191.094,56.641,-31.738,-55.176,-45.898,-250.977
1688815191.098,49.316,-30.762,-60.059,-39.062,-186.523
1688815191.102,19.043,-26.855,-63.965,-37.598,-150.391
1688815191.106,-17.578,-29.297,-60.059,-29.785,-151.367
1688815191.107,-4.883,-33.203,-58.594,-58.105,-190.430
1688815191.111,28.809,-31.250,-60.547,-62.988,-147.461
1688815191.115,29.785,-32.715,-58.594,-37.598,73.242
1688815191.119,16.113,-34.668,-56.152,-26.855,15.137
1688815191.123,-12.207,-32.715,-58.594,-18.555,-110.352
1688815191.127,-5.371,-33.203,-59.570,-35.156,-36.621
1688815191.131,29.297,-39.062,-59.082,-38.574,171.387
1688815191.134,37.598,-37.598,-62.012,-24.414,151.367
1688815191.138,27.344,-35.645,-59.082,-20.508,-94.238
1688815191.142,-12.207,-40.527,-60.059,-8.301,12.695
1688815191.146,-11.230,-37.109,-64.453,-19.043,10.742
1688815191.150,21.973,-38.086,-61.035,-28.320,-175.293
1688815191.171,25.879,-39.062,-55.176,-17.090,-215.332
1688815191.175,18.555,-34.180,-57.617,-11.230,-49.805
1688815191.179,-8.301,-33.203,-59.570,-5.371,104.980
1688815191.183,-8.789,-27.832,-52.734,-29.297,-90.820
1688815191.187,23.926,-24.902,-47.852,-48.828,-145.020
1688815191.191,27.344,-26.367,-48.340,-32.715,62.012
1688815191.195,11.719,-22.949,-52.734,-34.668,46.875
1688815191.198,-14.160,-21.484,-52.734,-27.832,-24.902
1688815191.202,-27.344,-24.414,-48.828,-31.250,-41.992
1688815191.206,3.418,-24.902,-49.316,-49.316,8.789
1688815191.210,24.902,-23.926,-50.293,-39.062,39.062
1688815191.214,10.742,-29.785,-51.758,-41.992,-146.484
1688815191.212,-15.625,-29.297,-53.711,-38.574,-108.887
1688815191.216,-32.227,-27.344,-53.223,-39.551,48.828
1688815191.220,-8.789,-32.715,-57.617,-57.129,-65.430
1688815191.224,10.742,-29.785,-71.289,-42.480,-212.891
1688815191.228,-7.324,-29.297,-80.566,-35.645,-135.742
1688815191.232,-40.527,-31.250,-81.543,-36.133,88.867
1688815191.236,-62.012,-26.855,-75.684,-36.621,52.734
1688815191.239,-33.203,-26.367,-68.848,-63.965,-142.578
1688815191.243,-2.930,-28.809,-71.777,-61.035,-83.496
1688815191.247,-5.859,-33.203,-73.242,-36.133,193.848
1688815191.251,-39.062,-35.645,-71.777,-22.461,302.246
1688815191.255,-69.336,-32.227,-74.707,-31.738,6.348
1688815191.257,-39.551,-33.203,-75.195,-62.988,-76.172
1688815191.261,-3.418,-36.621,-73.730,-57.129,33.691
1688815191.265,-10.254,-34.668,-75.684,-50.781,-91.309
1688815191.269,-41.992,-35.156,-78.613,-50.293,-102.051
1688815191.273,-87.891,-38.574,-77.148,-52.734,-19.043
1688815191.277,-90.332,-36.621,-74.707,-83.008,-50.781
1688815191.281,-65.430,-34.180,-69.336,-83.008,-49.316
1688815191.284,-73.730,-36.621,-67.383,-68.848,-106.934
1688815191.288,-94.238,-36.621,-67.383,-58.105,39.062
1688815191.292,-123.535,-33.203,-64.941,-52.734,296.875
1688815191.296,-122.559,-36.621,-69.336,-85.938,55.664
1688815191.300,-97.656,-41.504,-72.754,-99.609,-146.484
1688815191.302,-101.074,-40.039,-70.312,-88.379,-76.172
1688815191.306,-120.117,-42.480,-65.918,-81.055,-31.738
1688815191.310,-148.438,-40.527,-64.941,-80.566,-48.828
1688815191.314,-141.602,-41.504,-65.918,-99.609,-171.875
1688815191.318,-116.699,-41.504,-66.406,-95.215,5.371
1688815191.322,-120.605,-38.086,-65.430,-78.613,117.676
1688815191.326,-137.695,-38.574,-62.500,-83.496,-139.160
1688815191.329,-166.992,-38.086,-64.453,-72.266,-96.680
1688815191.333,-162.109,-39.551,-65.430,-74.219,111.816
1688815191.337,-99.121,-41.016,-60.547,-89.355,-86.426
1688815191.341,-53.223,-41.504,-57.617,-75.195,-274.902
1688815191.345,-42.969,-41.992,-58.105,-53.223,-124.023
1688815191.347,-59.570,-39.062,-60.059,-41.504,-62.500
1688815191.351,-59.082,-34.668,-57.617,-49.805,-221.191
1688815191.355,-20.020,-37.109,-59.570,-68.848,-276.367
1688815191.359,4.395,-36.621,-54.688,-54.199,-18.066
1688815191.363,-0.977,-34.180,-54.688,-45.898,4.883
1688815191.367,-36.133,-36.621,-60.059,-52.246,-41.504
1688815191.371,-57.617,-37.598,-65.918,-66.406,-33.691
1688815191.374,-29.297,-35.156,-69.336,-86.426,7.812
1688815191.378,-6.348,-32.227,-67.871,-85.449,84.961
1688815191.382,-12.695,-31.738,-68.359,-83.008,-147.949
1688815191.386,-38.086,-33.203,-70.312,-71.289,-150.391
1688815191.390,-47.363,-37.109,-68.359,-74.219,104.980
1688815191.393,-11.230,-35.645,-65.918,-99.609,45.898
1688815191.397,8.789,-34.668,-65.430,-94.238,-172.852
1688815191.401,1.953,-33.691,-61.523,-81.055,-62.500
1688815191.405,-16.602,-36.621,-61.035,-63.477,252.930
1688815191.409,-36.133,-33.691,-62.500,-55.664,133.789
1688815191.413,-5.371,-34.180,-62.988,-83.496,-154.297
1688815191.417,20.508,-38.086,-64.941,-73.730,19.043
1688815191.420,14.648,-35.645,-65.918,-53.711,109.863
1688815191.424,-5.859,-36.621,-58.105,-44.434,-47.363
1688815191.428,-39.551,-36.133,-58.594,-39.062,-127.930
1688815191.432,-29.785,-36.133,-62.500,-55.176,-53.223
1688815191.436,-1.953,-36.621,-58.594,-49.805,53.711
1688815191.437,1.465,-34.180,-58.105,-41.992,-79.590
1688815191.441,-13.184,-35.645,-59.570,-41.016,-121.582
1688815191.445,-43.945,-36.133,-57.617,-29.785,-40.527
1688815191.449,-25.879,-36.621,-57.617,-51.270,-106.445
1688815191.453,8.301,-39.062,-59.570,-58.594,-182.129
1688815191.457,7.324,-36.133,-56.641,-44.922,-106.934
1688815191.461,-18.066,-32.715,-58.105,-36.621,169.922
1688815191.464,-55.664,-34.668,-58.594,-22.461,378.418
1688815191.468,-49.316,-35.645,-60.547,-56.152,21.973
1688815191.472,-22.461,-41.504,-67.383,-82.031,-172.852
1688815191.476,-18.066,-45.410,-66.895,-65.918,-119.141
1688815191.480,-37.109,-38.086,-66.895,-57.617,-136.719
1688815191.497,-70.801,-33.691,-65.430,-48.828,-133.301
1688815191.501,-68.848,-36.133,-58.594,-70.312,-49.805
1688815191.505,-32.227,-32.227,-56.641,-83.984,96.680
1688815191.509,-14.648,-26.855,-58.105,-64.453,-12.207
1688815191.513,-24.902,-30.762,-64.453,-52.246,-170.898
1688815191.517,-58.105,-31.738,-66.406,-45.898,-14.160
1688815191.521,-62.988,-28.809,-65.430,-59.082,116.699
1688815191.524,-21.484,-29.785,-64.941,-78.125,17.090
1688815191.528,-1.953,-32.715,-62.988,-72.754,-73.730
1688815191.532,-14.160,-37.598,-62.988,-58.105,26.367
1688815191.536,-50.781,-40.527,-64.453,-45.410,221.680
1688815191.540,-59.570,-41.992,-64.453,-61.035,-25.391
1688815191.530,-16.113,-41.016,-60.547,-77.637,-195.312
1688815191.534,2.930,-41.992,-55.664,-64.453,-136.719
1688815191.538,-7.812,-43.457,-56.641,-59.082,-152.832
1688815191.542,-38.086,-40.039,-56.641,-56.152,-161.133
1688815191.546,-57.617,-44.922,-59.570,-62.988,-114.258
1688815191.550,-27.344,-46.387,-64.453,-80.566,-54.688
1688815191.554,-8.301,-45.410,-61.035,-74.707,-26.367
1688815191.557,-23.926,-42.480,-56.641,-65.430,-105.469
1688815191.561,-50.293,-38.574,-60.547,-59.082,-170.410
1688815191.565,-64.453,-37.109,-59.570,-50.293,127.441
1688815191.569,-34.668,-39.551,-55.176,-59.570,283.203
1688815191.573,-4.395,-42.480,-58.105,-63.965,-26.367
1688815191.587,-9.277,-36.133,-60.547,-62.012,-126.953
1688815191.591,-35.645,-34.180,-59.082,-60.547,15.625
1688815191.595,-64.941,-37.598,-61.523,-66.406,11.230
1688815191.599,-40.039,-33.691,-56.641,-92.285,-163.574
1688815191.603,-5.859,-39.062,-52.734,-88.867,-157.227
1688815191.607,-11.719,-44.922,-56.152,-65.918,307.617
1688815191.611,-44.922,-41.504,-57.129,-62.500,401.367
1688815191.614,-74.219,-42.480,-56.152,-68.848,-20.020
1688815191.618,-48.828,-41.016,-56.641,-78.613,-91.309
1688815191.622,-9.277,-43.945,-55.664,-72.266,38.086
1688815191.626,-4.883,-41.992,-55.176,-64.941,-53.711
1688815191.630,-21.484,-36.133,-52.246,-60.547,-119.141
1688815191.621,-39.551,-34.668,-55.664,-58.105,52.734
1688815191.625,-11.719,-31.250,-55.176,-82.031,1.953
1688815191.629,22.461,-34.668,-52.734,-83.008,-189.453
1688815191.633,12.207,-36.621,-52.246,-70.312,-209.961
1688815191.637,-15.625,-27.832,-47.363,-61.035,-43.945
1688815191.641,-57.617,-32.227,-52.246,-56.641,58.594
1688815191.645,-55.664,-35.645,-57.617,-88.867,-78.613
1688815191.648,-22.461,-33.203,-55.176,-97.168,-186.035
1688815191.652,-25.391,-33.203,-57.617,-80.078,-23.926
1688815191.656,-45.898,-32.715,-57.129,-81.543,20.020
1688815191.660,-75.684,-29.785,-58.105,-77.148,-74.707
1688815191.664,-66.895,-29.785,-62.500,-87.891,-48.340
1688815191.678,-25.391,-28.320,-61.035,-89.844,28.809
1688815191.682,-17.090,-28.809,-58.105,-72.754,-31.738
1688815191.686,-38.086,-30.762,-58.594,-70.801,-125.488
1688815191.690,-72.266,-30.273,-56.641,-66.406,-42.969
1688815191.694,-82.520,-34.668,-56.641,-81.055,172.363
1688815191.698,-52.734,-43.457,-59.570,-99.609,230.957
1688815191.702,-31.738,-40.527,-58.105,-87.891,4.883
1688815191.705,-34.668,-34.668,-56.152,-77.637,-30.762
1688815191.709,-54.688,-32.227,-56.641,-61.035,101.074
1688815191.713,-59.082,-32.715,-54.688,-70.312,-7.324
1688815191.717,-29.297,-34.668,-53.223,-88.867,-172.363
1688815191.721,-4.395,-35.156,-54.688,-63.965,-137.695
1688815191.737,-5.371,-31.738,-47.363,-44.922,-143.066
1688815191.741,-38.574,-32.227,-47.363,-38.086,-193.848
1688815191.745,-55.664,-36.133,-52.734,-48.340,-142.090
1688815191.749,-20.508,-40.527,-52.734,-71.777,-167.480
1688815191.753,0.977,-42.480,-57.617,-63.965,-200.684
1688815191.757,-11.230,-38.574,-59.570,-54.688,-140.625
1688815191.761,-36.133,-38.086,-60.059,-51.270,-117.188
1688815191.764,-55.176,-35.156,-58.105,-50.781,134.277
1688815191.768,-27.832,-36.133,-56.641,-74.707,283.203
1688815191.772,5.859,-41.504,-56.641,-77.148,-42.480
1688815191.776,3.906,-39.551,-53.223,-64.453,-189.941
1688815191.780,-27.832,-33.203,-51.758,-56.641,-108.887
1688815191.767,-53.223,-31.250,-51.270,-53.223,-102.539
1688815191.771,-27.832,-34.180,-49.316,-73.242,-99.609
1688815191.775,-2.930,-34.180,-49.316,-67.871,-118.164
1688815191.779,-4.395,-37.109,-53.711,-46.387,-34.668
1688815191.783,-33.691,-41.504,-57.129,-41.016,-82.520
1688815191.787,-64.941,-36.621,-56.641,-40.039,-177.734
1688815191.791,-41.504,-39.062,-56.641,-56.152,-13.184
1688815191.794,-14.648,-42.480,-51.758,-50.781,105.469
1688815191.798,-17.578,-38.574,-49.805,-32.715,-58.105
1688815191.802,-38.574,-38.086,-54.688,-26.367,-159.668
1688815191.806,-67.383,-32.227,-52.246,-23.926,-37.109
1688815191.810,-54.688,-29.297,-49.316,-44.922,239.746
1688815191.842,-21.973,-34.180,-54.199,-55.664,123.535
1688815191.846,-14.648,-35.156,-56.152,-47.363,-119.141
1688815191.850,-29.785,-31.738,-56.641,-40.527,-96.680
1688815191.854,-57.129,-31.250,-52.246,-26.367,-85.449
1688815191.858,-48.340,-32.227,-46.387,-38.574,-137.207
1688815191.862,-9.766,-28.320,-44.922,-54.199,-173.340
1688815191.866,-6.348,-25.391,-46.387,-35.645,118.164
1688815191.869,-32.227,-27.832,-50.293,-24.902,209.473
1688815191.873,-64.453,-28.809,-54.199,-23.926,-48.340
1688815191.877,-61.523,-26.855,-54.199,-44.922,-56.152
1688815191.881,-20.996,-23.438,-51.758,-55.664,-30.273
1688815191.885,-10.254,-23.926,-50.781,-33.203,-58.594
1688815191.872,-31.250,-30.762,-48.340,-33.691,-158.203
1688815191.876,-67.383,-29.785,-48.340,-25.879,-59.082
1688815191.880,-74.219,-32.227,-58.105,-33.203,160.645
1688815191.884,-43.457,-31.250,-54.199,-53.711,-24.902
1688815191.888,-27.344,-30.273,-48.828,-41.504,-223.633
1688815191.892,-38.086,-37.109,-54.688,-34.180,-119.141
1688815191.896,-73.730,-36.133,-60.547,-23.926,34.180
1688815191.899,-77.148,-39.551,-56.641,-32.227,-117.676
1688815191.903,-39.551,-41.016,-52.734,-49.316,-240.723
1688815191.907,-23.926,-38.574,-54.199,-35.645,-21.973
1688815191.911,-35.645,-38.086,-48.340,-30.273,97.168
1688815191.915,-65.430,-37.598,-44.434,-27.832,28.809
1688815191.917,-85.938,-37.598,-41.504,-37.598,-100.586
1688815191.921,-57.617,-32.715,-43.457,-56.152,-90.332
1688815191.925,-36.133,-35.156,-48.340,-38.574,229.004
1688815191.929,-43.457,-32.715,-45.898,-25.391,74.219
1688815191.933,-66.895,-32.715,-50.293,-30.273,-148.438
1688815191.937,-81.543,-36.621,-57.129,-37.598,1.953
1688815191.941,-52.734,-31.250,-55.664,-59.082,11.230
1688815191.944,-29.297,-30.273,-48.340,-53.711,-104.492
1688815191.948,-32.227,-33.203,-50.781,-46.387,-198.242
1688815191.952,-62.012,-35.645,-51.758,-41.504,24.902
1688815191.956,-93.750,-35.645,-50.781,-36.133,194.336
1688815191.960,-70.801,-36.133,-53.711,-60.059,-126.465
1688815191.962,-43.945,-37.109,-58.594,-58.594,-203.125
1688815191.966,-46.875,-40.039,-57.129,-44.434,-122.070
1688815191.970,-70.801,-40.039,-51.270,-35.645,-44.434
1688815191.974,-104.492,-41.504,-52.246,-32.227,-83.984
1688815191.978,-89.355,-40.527,-48.828,-54.688,-128.906
1688815191.982,-56.641,-39.062,-51.758,-54.199,115.234
1688815191.986,-57.129,-40.527,-57.617,-46.875,94.727
1688815191.989,-80.078,-36.133,-56.152,-45.410,-118.164
1688815191.993,-110.840,-31.738,-55.176,-38.086,-72.266
1688815191.997,-100.586,-33.691,-53.223,-62.500,42.480
1688815192.001,-61.523,-36.133,-56.152,-68.848,-110.840
1688815192.005,-46.875,-35.645,-58.105,-51.758,-219.238
1688815192.007,-64.453,-34.180,-52.734,-36.621,-36.133
1688815192.011,-105.469,-39.551,-54.199,-31.738,138.672
1688815192.015,-106.445,-38.574,-58.594,-59.082,-52.734
1688815192.019,-81.055,-37.598,-56.152,-72.754,-123.047
1688815192.023,-84.961,-42.480,-57.129,-56.641,47.852
1688815192.027,-104.004,-37.598,-59.082,-46.875,59.570
1688815192.031,-141.113,-28.809,-55.176,-40.039,78.613
1688815192.034,-150.879,-27.832,-52.246,-56.152,-32.715
1688815192.038,-124.023,-32.227,-57.617,-61.523,-8.301
1688815192.042,-130.859,-38.574,-61.035,-35.156,144.531
1688815192.046,-160.156,-38.574,-57.129,-32.227,-145.508
1688815192.050,-192.871,-32.715,-51.758,-23.438,-158.203
1688815192.051,-204.590,-33.203,-50.293,-27.344,-78.613
1688815192.055,-170.898,-32.715,-49.805,-42.480,-106.934
1688815192.059,-134.766,-28.809,-44.922,-26.367,-74.707
1688815192.063,-126.953,-28.320,-47.363,-29.297,-71.289
1688815192.067,-148.438,-30.273,-53.223,-28.320,76.172
1688815192.071,-145.508,-29.297,-51.758,-36.621,46.875
1688815192.075,-100.098,-28.809,-48.828,-63.477,-111.816
1688815192.078,-85.938,-35.156,-53.223,-54.199,-54.199
1688815192.082,-96.680,-38.086,-57.617,-44.922,5.371
1688815192.086,-110.840,-32.227,-55.176,-30.273,-98.145
1688815192.090,-125.488,-31.738,-56.152,-38.574,-179.199
1688815192.094,-93.750,-33.203,-61.035,-64.941,-87.402
1688815192.112,-53.223,-27.344,-52.734,-44.922,114.746
1688815192.116,-49.805,-23.438,-45.898,-31.250,-87.891
1688815192.120,-72.754,-22.949,-48.828,-27.832,-143.066
1688815192.124,-89.355,-23.438,-49.316,-26.855,-15.137
1688815192.128,-62.012,-25.879,-48.340,-41.992,-97.656
1688815192.132,-28.809,-25.391,-47.852,-35.156,-129.395
1688815192.136,-26.367,-28.809,-52.246,-29.297,-164.062
1688815192.139,-43.945,-31.738,-55.176,-23.926,-36.133
1688815192.143,-69.336,-32.227,-53.711,-22.461,164.551
1688815192.147,-43.945,-30.273,-51.270,-57.129,-73.730
1688815192.151,-6.348,-28.320,-48.340,-55.664,-194.336
1688815192.155,-6.836,-30.762,-52.734,-41.016,-58.594
1688815192.142,-23.438,-27.344,-52.734,-39.551,-48.340
1688815192.146,-54.199,-28.320,-56.152,-40.039,-33.203
1688815192.150,-44.922,-34.180,-62.500,-62.500,-9.766
1688815192.154,-15.625,-35.645,-60.059,-69.336,-1.465
1688815192.158,-16.602,-30.762,-55.664,-58.105,-70.801
1688815192.162,-34.668,-33.691,-55.664,-59.082,-119.629
1688815192.166,-70.801,-41.016,-58.105,-54.199,79.590
1688815192.169,-83.496,-42.480,-57.617,-65.430,113.281
1688815192.173,-71.777,-41.016,-51.270,-71.289,-78.125
1688815192.177,-83.984,-37.109,-49.805,-56.641,-183.105
1688815192.181,-115.723,-38.574,-51.758,-48.828,-31.738
1688815192.185,-162.598,-39.062,-55.176,-34.180,365.234
1688815192.204,-172.363,-30.762,-53.223,-56.641,140.625
1688815192.208,-143.066,-26.367,-45.898,-65.918,-248.047
1688815192.212,-143.555,-31.250,-49.316,-39.062,-163.574
1688815192.216,-168.457,-35.156,-56.641,-36.621,-68.848
1688815192.220,-204.102,-38.086,-55.176,-26.367,-68.359
1688815192.224,-203.125,-36.133,-54.199,-40.527,-21.973
1688815192.228,-165.039,-35.156,-55.664,-62.012,170.898
1688815192.231,-151.367,-33.203,-56.152,-44.434,177.246
1688815192.235,-159.180,-28.320,-51.270,-38.574,-133.301
1688815192.239,-187.012,-32.227,-49.316,-34.180,-154.297
1688815192.243,-200.195,-38.086,-55.176,-51.758,-53.711
1688815192.247,-166.504,-39.062,-54.688,-78.125,-65.430
1688815192.248,-145.020,-41.504,-52.734,-67.383,-148.438
1688815192.252,-154.785,-42.969,-52.246,-57.129,-94.727
1688815192.256,-181.152,-40.039,-52.734,-47.852,50.781
1688815192.260,-191.406,-35.645,-53.711,-60.059,-20.508
1688815192.264,-154.785,-36.133,-55.664,-76.660,-222.656
1688815192.268,-131.348,-35.645,-58.105,-57.129,-115.234
1688815192.272,-141.602,-32.715,-59.570,-45.898,50.781
1688815192.275,-164.062,-28.809,-57.129,-32.227,-37.598
1688815192.279,-181.641,-30.273,-59.082,-33.203,-86.914
1688815192.283,-157.227,-35.156,-56.641,-62.500,-112.793
1688815192.287,-129.395,-37.598,-46.875,-45.410,154.785
1688815192.291,-128.418,-37.598,-47.363,-25.879,182.129
1688815192.292,-153.809,-38.574,-50.293,-29.297,-143.066
1688815192.296,-180.176,-39.062,-50.293,-30.273,-39.551
1688815192.300,-152.832,-35.156,-50.781,-46.387,8.789
1688815192.304,-124.023,-35.156,-48.828,-41.992,-84.961
1688815192.308,-126.953,-35.645,-49.805,-26.367,-141.113
1688815192.312,-140.625,-32.227,-54.199,-20.508,55.176
1688815192.316,-147.461,-31.250,-51.758,-23.926,225.586
1688815192.319,-108.398,-29.297,-47.363,-51.758,-41.992
1688815192.323,-70.312,-26.855,-50.781,-55.664,-177.734
1688815192.327,-61.523,-30.273,-50.293,-35.156,83.008
1688815192.331,-51.758,-31.738,-46.875,-23.926,264.160
1688815192.335,-43.945,-27.344,-47.852,-21.484,10.254
1688815192.337,-14.648,-23.926,-46.875,-52.246,-69.336
1688815192.341,10.254,-23.438,-47.363,-60.547,-17.578
1688815192.345,-3.906,-27.344,-46.387,-42.969,-92.285
1688815192.349,-27.832,-29.297,-45.898,-39.062,-185.059
1688815192.353,-46.875,-27.832,-47.363,-32.227,-77.148
1688815192.357,-33.203,-30.762,-47.363,-51.758,104.980
1688815192.361,2.930,-34.180,-48.340,-62.012,-12.695
1688815192.364,5.371,-35.156,-49.316,-52.734,-122.070
1688815192.368,-17.090,-38.086,-48.828,-46.387,-37.109
1688815192.372,-49.805,-41.992,-54.688,-31.250,209.473
1688815192.376,-42.969,-44.434,-59.570,-52.246,102.051
1688815192.380,2.930,-45.898,-55.176,-69.336,-210.938
1688815192.382,14.160,-41.992,-55.176,-44.434,-64.941
1688815192.386,-2.441,-34.180,-52.246,-37.598,58.105
1688815192.390,-23.438,-33.691,-47.363,-30.273,-33.203
1688815192.394,-34.668,-35.156,-52.246,-48.828,-151.855
1688815192.398,-3.906,-34.180,-49.805,-67.383,-61.523
1688815192.402,23.438,-33.691,-43.457,-44.434,99.121
1688815192.406,11.719,-35.645,-46.875,-47.363,-58.594
1688815192.409,-23.438,-37.598,-48.340,-43.945,-182.129
1688815192.413,-36.133,-34.668,-48.340,-45.898,86.914
1688815192.417,-1.465,-31.250,-51.270,-64.453,258.789
1688815192.421,18.066,-31.738,-49.805,-49.805,-96.680
1688815192.425,13.184,-29.785,-46.387,-44.922,-198.730
1688815192.442,-7.324,-25.879,-46.387,-40.527,-114.746
1688815192.446,-24.414,-26.855,-46.875,-45.410,2.441
